Sample ID:	C:\MCC\MCC Cal\Test\Polyisocyanurate_Foam_Board_MCC_30K_min_220214_R3.txt
Sample Weight (mg):	4.58
Heating Rate (C/s):	0.5
Combustor Temp (C):	900
N2 Flow Rate (cc/min):	80
O2 Flow Rate (cc/min):	20
Calibration File:	C:\MCC\MCC Cal\Coeff1 JN10440_30_210304.txt.txt
T Correction Coefficients:	0	1.024463	0
Time Shift (s):	14
*
Time (s)	Temperature (C)	N2 flow rate (cc/min)	O2 flow rate (cc/min)	Flow Rate (cc/min)	Oxygen (%)	HRR (W/g)	Heating rate (C/s)
0.000	112.832	80.004	19.993	103.675	20.175	0.328	-0.011
0.500	112.834	80.005	19.994	103.677	20.183	-0.201	-0.025
1.000	112.894	80.004	19.992	103.676	20.181	-0.066	0.014
1.500	112.866	80.004	19.994	103.676	20.178	0.135	0.047
2.000	112.876	80.003	19.994	103.676	20.181	-0.082	0.007
2.500	112.820	80.004	19.994	103.675	20.178	0.121	-0.032
3.000	112.846	80.003	19.993	103.676	20.182	-0.111	-0.038
3.500	112.854	80.002	19.994	103.678	20.184	-0.263	0.002
4.000	112.838	80.004	19.994	103.677	20.177	0.193	0.013
4.500	112.856	80.004	19.994	103.678	20.178	0.152	-0.003
5.000	112.874	80.003	19.994	103.679	20.179	0.080	0.019
5.500	112.863	80.003	19.994	103.679	20.178	0.172	0.021
6.000	112.845	80.003	19.994	103.679	20.178	0.129	-0.011
6.500	112.845	80.004	19.993	103.683	20.177	0.195	-0.023
7.000	112.866	80.007	19.994	103.685	20.175	0.326	0.002
7.500	112.825	80.004	19.993	103.683	20.180	-0.025	0.000
8.000	112.826	80.003	19.994	103.683	20.177	0.230	-0.030
8.501	112.860	80.005	19.993	103.685	20.175	0.348	-0.003
9.001	112.858	80.005	19.993	103.685	20.180	0.033	0.034
9.500	112.867	80.003	19.994	103.685	20.178	0.107	0.020
10.000	112.844	80.001	19.995	103.686	20.179	0.064	-0.004
10.500	112.831	80.004	19.994	103.686	20.175	0.336	-0.025
11.000	112.877	80.004	19.994	103.687	20.178	0.145	-0.002
11.500	112.832	80.004	19.994	103.689	20.175	0.383	0.017
12.000	112.872	80.005	19.994	103.695	20.176	0.287	-0.002
12.500	112.822	80.004	19.994	103.703	20.175	0.340	-0.007
13.000	112.877	79.997	19.996	103.710	20.174	0.430	-0.003
13.500	112.887	80.003	19.994	103.714	20.173	0.484	0.035
14.000	112.833	80.002	19.994	103.715	20.173	0.469	0.011
14.500	112.892	80.012	19.992	103.716	20.170	0.692	-0.019
15.000	112.870	80.015	19.992	103.718	20.175	0.334	0.021
15.500	112.859	80.007	19.993	103.719	20.172	0.582	0.002
16.000	112.898	80.006	19.994	103.727	20.171	0.649	-0.003
16.500	112.869	80.000	19.995	103.730	20.174	0.412	0.019
17.000	112.902	80.006	19.993	103.731	20.173	0.500	0.007
17.500	112.899	80.007	19.994	103.737	20.170	0.721	0.017
18.000	112.898	79.997	19.996	103.744	20.169	0.756	0.013
18.500	112.878	79.997	19.996	103.746	20.162	1.301	-0.012
19.000	112.926	80.004	19.994	103.752	20.163	1.182	0.004
19.500	112.930	80.005	19.994	103.762	20.168	0.873	0.040
20.000	113.005	80.006	19.993	103.769	20.163	1.211	0.066
20.500	112.964	80.004	19.994	103.783	20.161	1.337	0.056
21.000	112.985	80.005	19.993	103.793	20.159	1.501	0.006
21.500	112.984	80.003	19.993	103.801	20.159	1.497	0.000
22.000	113.044	80.002	19.994	103.804	20.164	1.153	0.040
22.500	113.066	80.004	19.994	103.804	20.163	1.233	0.071
23.000	113.065	80.004	19.993	103.800	20.158	1.540	0.051
23.500	113.099	80.004	19.994	103.802	20.158	1.563	0.026
24.000	113.144	80.006	19.993	103.807	20.157	1.598	0.056
24.500	113.160	80.003	19.994	103.812	20.155	1.798	0.070
25.000	113.167	80.004	19.994	103.820	20.156	1.716	0.042
25.500	113.233	80.003	19.993	103.826	20.156	1.700	0.048
26.000	113.253	80.004	19.994	103.828	20.154	1.817	0.079
26.500	113.285	80.005	19.994	103.829	20.154	1.872	0.069
27.000	113.331	80.006	19.994	103.831	20.157	1.641	0.065
27.500	113.356	80.001	19.994	103.832	20.156	1.694	0.075
28.000	113.409	80.003	19.994	103.832	20.156	1.675	0.075
28.500	113.437	80.004	19.994	103.832	20.153	1.927	0.080
29.000	113.467	80.002	19.995	103.835	20.152	1.993	0.070
29.500	113.501	80.003	19.995	103.835	20.154	1.837	0.061
30.000	113.564	80.003	19.995	103.835	20.151	2.078	0.081
30.500	113.637	80.004	19.995	103.838	20.150	2.095	0.117
31.000	113.700	80.004	19.994	103.846	20.149	2.177	0.136
31.500	113.705	80.003	19.995	103.854	20.148	2.249	0.102
32.000	113.770	80.004	19.994	103.860	20.148	2.250	0.069
32.500	113.809	80.007	19.996	103.866	20.148	2.293	0.087
33.000	113.907	80.005	19.995	103.868	20.146	2.404	0.120
33.500	113.974	80.004	19.995	103.861	20.148	2.244	0.151
34.000	114.014	80.004	19.995	103.854	20.147	2.365	0.136
34.500	114.091	80.004	19.994	103.849	20.144	2.568	0.112
35.000	114.107	80.003	19.994	103.846	20.144	2.550	0.105
35.500	114.206	80.002	19.995	103.846	20.144	2.543	0.104
36.000	114.291	80.004	19.993	103.848	20.144	2.543	0.150
36.500	114.345	80.003	19.995	103.851	20.142	2.672	0.162
37.000	114.374	80.004	19.995	103.856	20.146	2.392	0.111
37.500	114.460	80.005	19.994	103.859	20.144	2.527	0.099
38.000	114.514	80.006	19.994	103.862	20.147	2.353	0.128
38.500	114.594	80.003	19.995	103.867	20.146	2.437	0.137
39.000	114.686	80.003	19.994	103.870	20.145	2.498	0.153
39.501	114.756	80.004	19.994	103.873	20.143	2.596	0.166
40.001	114.854	80.003	19.995	103.874	20.142	2.715	0.164
40.500	114.924	80.005	19.995	103.875	20.147	2.352	0.168
41.000	114.995	80.005	19.995	103.874	20.145	2.444	0.155
41.500	115.098	80.003	19.994	103.875	20.145	2.501	0.158
42.000	115.184	80.006	19.994	103.874	20.142	2.688	0.182
42.500	115.236	80.006	19.994	103.874	20.144	2.549	0.164
43.000	115.328	80.008	19.996	103.875	20.141	2.745	0.141
43.500	115.429	80.003	19.994	103.875	20.144	2.559	0.168
44.000	115.544	80.004	19.995	103.875	20.146	2.434	0.204
44.500	115.625	80.005	19.994	103.876	20.141	2.774	0.206
45.000	115.712	80.003	19.994	103.876	20.145	2.452	0.182
45.500	115.771	80.003	19.996	103.875	20.143	2.602	0.157
46.000	115.871	80.005	19.994	103.875	20.143	2.645	0.152
46.500	116.007	80.005	19.994	103.875	20.143	2.628	0.197
47.000	116.076	80.004	19.993	103.874	20.142	2.714	0.220
47.500	116.145	80.003	19.994	103.874	20.141	2.774	0.172
48.000	116.264	80.005	19.994	103.873	20.139	2.899	0.164
48.500	116.364	80.004	19.994	103.874	20.142	2.692	0.204
49.000	116.453	80.002	19.993	103.874	20.138	2.962	0.204
49.500	116.529	80.005	19.994	103.878	20.140	2.858	0.177
50.000	116.666	80.004	19.994	103.884	20.137	3.011	0.189
50.500	116.781	80.004	19.994	103.892	20.141	2.729	0.232
51.000	116.912	80.007	19.994	103.898	20.139	2.917	0.249
51.500	116.997	80.005	19.993	103.905	20.142	2.669	0.231
52.000	117.160	80.002	19.993	103.910	20.142	2.721	0.232
52.500	117.270	80.002	19.994	103.910	20.141	2.772	0.261
53.000	117.387	80.002	19.994	103.910	20.139	2.925	0.250
53.501	117.511	80.004	19.994	103.909	20.136	3.114	0.234
54.001	117.585	80.003	19.992	103.909	20.139	2.927	0.220
54.500	117.710	80.007	19.994	103.907	20.135	3.195	0.198
55.000	117.861	80.005	19.995	103.908	20.134	3.249	0.237
55.501	117.963	80.006	19.994	103.908	20.140	2.813	0.265
56.001	118.082	80.008	19.994	103.910	20.142	2.686	0.237
56.500	118.197	80.006	19.994	103.910	20.138	2.966	0.227
57.001	118.314	80.017	19.994	103.912	20.138	2.964	0.233
57.501	118.456	80.007	19.994	103.912	20.139	2.915	0.245
58.000	118.591	80.008	19.993	103.912	20.139	2.888	0.268
58.500	118.699	79.998	19.994	103.910	20.135	3.169	0.260
59.000	118.816	80.009	19.993	103.909	20.138	2.980	0.234
59.500	118.982	80.007	19.994	103.909	20.139	2.925	0.254
60.000	119.089	80.009	19.993	103.908	20.138	2.976	0.278
60.500	119.224	80.000	19.994	103.908	20.136	3.082	0.257
61.000	119.349	80.010	19.994	103.908	20.135	3.197	0.251
61.500	119.493	80.007	19.993	103.909	20.135	3.195	0.265
62.000	119.618	80.005	19.993	103.909	20.137	3.031	0.269
62.500	119.736	80.004	19.994	103.908	20.137	3.016	0.256
63.000	119.891	80.007	19.993	103.904	20.137	3.049	0.258
63.500	120.047	80.003	19.994	103.906	20.135	3.197	0.292
64.000	120.175	80.003	19.993	103.905	20.136	3.100	0.297
64.500	120.346	80.003	19.994	103.908	20.137	3.051	0.292
65.000	120.477	80.007	19.994	103.910	20.138	2.943	0.301
65.501	120.630	80.003	19.993	103.914	20.135	3.159	0.293
66.001	120.783	80.006	19.993	103.914	20.134	3.264	0.295
66.500	120.910	80.005	19.993	103.914	20.133	3.294	0.293
67.000	121.037	80.003	19.994	103.912	20.135	3.209	0.267
67.501	121.169	80.001	19.994	103.912	20.134	3.264	0.256
68.001	121.356	80.004	19.993	103.911	20.134	3.274	0.289
68.500	121.487	80.005	19.993	103.910	20.135	3.172	0.319
69.000	121.618	80.009	19.993	103.910	20.133	3.327	0.290
69.500	121.827	80.000	19.994	103.910	20.136	3.108	0.301
70.000	121.967	80.004	19.993	103.911	20.133	3.331	0.344
70.500	122.176	80.007	19.994	103.913	20.133	3.360	0.349
71.000	122.305	80.003	19.993	103.917	20.132	3.387	0.344
71.500	122.478	80.000	19.995	103.923	20.129	3.581	0.320
72.000	122.591	80.005	19.993	103.930	20.132	3.376	0.294
72.500	122.754	79.998	19.994	103.934	20.133	3.295	0.281
73.000	122.915	80.004	19.994	103.935	20.133	3.321	0.300
73.500	123.134	80.006	19.994	103.940	20.134	3.256	0.352
74.000	123.237	80.003	19.995	103.941	20.133	3.305	0.351
74.500	123.434	80.003	19.994	103.938	20.138	3.000	0.311
75.000	123.596	80.006	19.992	103.941	20.133	3.309	0.330
75.500	123.769	80.004	19.994	103.947	20.131	3.454	0.347
76.000	123.941	80.001	19.994	103.947	20.132	3.393	0.340
76.500	124.091	80.003	19.995	103.946	20.134	3.262	0.334
77.000	124.294	80.002	19.994	103.950	20.135	3.207	0.337
77.500	124.440	80.003	19.994	103.948	20.130	3.538	0.351
78.000	124.615	80.004	19.993	103.946	20.133	3.323	0.336
78.500	124.821	80.003	19.995	103.943	20.133	3.339	0.351
79.000	124.971	80.003	19.994	103.939	20.133	3.307	0.369
79.500	125.114	80.004	19.995	103.938	20.131	3.462	0.325
80.000	125.319	80.004	19.994	103.940	20.132	3.364	0.320
80.500	125.509	80.004	19.995	103.940	20.136	3.147	0.371
81.001	125.675	80.004	19.993	103.943	20.134	3.241	0.376
81.501	125.838	80.004	19.994	103.946	20.133	3.331	0.342
82.000	125.999	80.004	19.994	103.947	20.136	3.104	0.326
82.500	126.208	80.006	19.994	103.948	20.134	3.241	0.347
83.000	126.385	80.004	19.994	103.944	20.135	3.208	0.378
83.500	126.551	80.005	19.993	103.941	20.130	3.507	0.364
84.000	126.764	80.002	19.994	103.943	20.133	3.343	0.361
84.501	126.916	80.006	19.993	103.941	20.135	3.159	0.373
85.001	127.127	80.004	19.993	103.940	20.133	3.350	0.365
85.500	127.306	80.004	19.993	103.943	20.132	3.364	0.376
86.000	127.475	80.005	19.993	103.943	20.135	3.161	0.369
86.500	127.691	80.003	19.994	103.941	20.132	3.401	0.367
87.000	127.874	80.006	19.993	103.938	20.132	3.427	0.392
87.500	128.076	80.001	19.993	103.938	20.130	3.526	0.392
88.000	128.236	80.003	19.992	103.938	20.129	3.613	0.373
88.500	128.434	80.002	19.993	103.941	20.131	3.482	0.360
89.000	128.633	80.003	19.995	103.944	20.130	3.556	0.377
89.500	128.874	80.006	19.993	103.948	20.132	3.421	0.418
90.000	129.022	79.995	19.994	103.950	20.130	3.519	0.414
90.500	129.247	80.008	19.994	103.951	20.131	3.464	0.381
91.000	129.432	80.005	19.993	103.951	20.132	3.407	0.392
91.500	129.640	80.003	19.994	103.951	20.130	3.550	0.402
92.000	129.822	80.003	19.993	103.950	20.132	3.429	0.391
92.500	129.994	80.004	19.994	103.950	20.127	3.787	0.372
93.000	130.221	80.006	19.994	103.951	20.128	3.697	0.376
93.500	130.394	80.004	19.992	103.951	20.125	3.863	0.400
94.000	130.606	80.002	19.995	103.952	20.129	3.589	0.393
94.500	130.858	80.004	19.993	103.952	20.129	3.636	0.424
95.000	131.014	80.002	19.994	103.954	20.128	3.695	0.436
95.500	131.233	80.004	19.993	103.954	20.130	3.573	0.391
96.000	131.428	80.003	19.993	103.954	20.132	3.425	0.395
96.500	131.608	80.002	19.994	103.954	20.129	3.606	0.395
97.000	131.797	80.005	19.993	103.953	20.127	3.753	0.372
97.500	132.019	80.003	19.994	103.953	20.128	3.689	0.390
98.000	132.217	80.003	19.994	103.954	20.126	3.833	0.415
98.501	132.481	80.005	19.994	103.954	20.125	3.882	0.440
99.001	132.686	80.004	19.995	103.955	20.130	3.542	0.465
99.501	132.860	80.000	19.994	103.955	20.131	3.446	0.424
100.000	133.089	80.002	19.993	103.954	20.127	3.730	0.391
100.500	133.297	80.002	19.994	103.953	20.129	3.585	0.420
101.000	133.520	80.000	19.994	103.953	20.125	3.877	0.434
101.500	133.744	80.004	19.995	103.952	20.129	3.589	0.439
102.000	133.922	80.004	19.993	103.953	20.127	3.761	0.425
102.500	134.130	80.004	19.995	103.954	20.129	3.638	0.394
103.000	134.348	80.004	19.994	103.954	20.126	3.800	0.406
103.500	134.542	80.002	19.995	103.954	20.124	3.937	0.419
104.000	134.791	80.002	19.995	103.954	20.126	3.818	0.427
104.500	134.984	79.998	19.995	103.954	20.127	3.779	0.442
105.000	135.211	80.005	19.994	103.953	20.128	3.707	0.431
105.500	135.439	80.002	19.995	103.953	20.122	4.086	0.437
106.000	135.648	80.004	19.995	103.951	20.123	4.008	0.446
106.500	135.837	80.001	19.995	103.951	20.125	3.875	0.417
107.000	136.053	79.995	19.996	103.950	20.119	4.291	0.402
107.501	136.308	80.001	19.994	103.949	20.123	4.039	0.438
108.001	136.509	80.002	19.995	103.950	20.122	4.091	0.464
108.500	136.739	80.003	19.994	103.952	20.121	4.160	0.443
109.000	136.973	80.002	19.995	103.953	20.122	4.097	0.447
109.501	137.225	80.003	19.994	103.954	20.121	4.174	0.475
110.001	137.443	80.003	19.994	103.955	20.124	3.931	0.478
110.500	137.660	80.003	19.994	103.954	20.125	3.865	0.453
111.000	137.881	80.002	19.994	103.954	20.128	3.714	0.436
111.500	138.116	80.001	19.994	103.954	20.128	3.698	0.447
112.000	138.309	80.004	19.994	103.953	20.125	3.923	0.442
112.500	138.538	80.004	19.994	103.952	20.126	3.839	0.425
113.000	138.793	80.003	19.993	103.951	20.125	3.904	0.453
113.500	138.978	80.001	19.995	103.951	20.129	3.585	0.462
114.000	139.234	80.003	19.992	103.950	20.130	3.554	0.440
114.500	139.429	80.003	19.995	103.951	20.124	3.939	0.446
115.000	139.673	80.003	19.997	103.952	20.127	3.732	0.445
115.500	139.893	80.001	19.995	103.955	20.126	3.816	0.452
116.000	140.131	80.014	19.993	103.961	20.123	4.015	0.461
116.500	140.327	80.003	19.994	103.964	20.126	3.831	0.446
117.000	140.576	80.006	19.995	103.963	20.129	3.626	0.440
117.500	140.805	80.004	19.994	103.962	20.126	3.804	0.462
118.000	141.044	80.005	19.994	103.958	20.124	3.988	0.473
118.500	141.274	80.003	19.995	103.949	20.125	3.927	0.469
119.000	141.486	80.005	19.994	103.945	20.127	3.761	0.455
119.500	141.698	80.003	19.995	103.946	20.123	4.021	0.433
120.001	141.970	80.003	19.994	103.945	20.125	3.917	0.454
120.501	142.171	80.004	19.994	103.948	20.124	3.958	0.479
121.000	142.413	80.000	19.995	103.949	20.128	3.679	0.457
121.500	142.638	80.004	19.994	103.951	20.126	3.833	0.455
122.000	142.837	80.000	19.994	103.951	20.126	3.792	0.446
122.500	143.110	80.004	19.993	103.950	20.122	4.135	0.448
123.000	143.314	80.005	19.995	103.950	20.126	3.820	0.474
123.500	143.580	80.004	19.995	103.950	20.126	3.837	0.473
124.000	143.832	80.011	19.993	103.949	20.123	4.007	0.494
124.500	144.062	79.994	19.994	103.951	20.121	4.164	0.501
125.000	144.331	80.003	19.994	103.950	20.119	4.332	0.491
125.500	144.558	80.004	19.993	103.950	20.122	4.113	0.497
126.000	144.766	80.004	19.994	103.950	20.119	4.287	0.465
126.500	145.060	80.001	19.994	103.950	20.124	3.996	0.468
127.000	145.265	80.001	19.994	103.949	20.121	4.158	0.501
127.500	145.514	80.004	19.995	103.950	20.118	4.396	0.477
128.000	145.777	79.996	19.995	103.950	20.120	4.236	0.483
128.500	146.044	80.003	19.994	103.948	20.117	4.476	0.521
129.000	146.246	80.010	19.993	103.948	20.116	4.562	0.499
129.500	146.490	79.997	19.994	103.949	20.118	4.380	0.458
130.000	146.744	79.997	19.995	103.949	20.119	4.337	0.472
130.500	146.962	80.008	19.995	103.947	20.121	4.209	0.485
131.000	147.239	80.006	19.994	103.948	20.116	4.502	0.483
131.500	147.449	80.002	19.994	103.947	20.119	4.345	0.491
132.000	147.691	80.004	19.993	103.945	20.119	4.300	0.470
132.500	147.912	80.005	19.994	103.945	20.121	4.183	0.458
133.000	148.169	80.003	19.995	103.947	20.123	4.017	0.471
133.500	148.420	80.004	19.995	103.948	20.120	4.263	0.493
134.000	148.631	80.004	19.994	103.949	20.120	4.269	0.485
134.500	148.926	80.006	19.996	103.945	20.118	4.402	0.484
135.000	149.148	80.006	19.994	103.946	20.117	4.484	0.512
135.500	149.383	80.005	19.994	103.945	20.121	4.199	0.487
136.000	149.653	80.005	19.994	103.946	20.119	4.316	0.481
136.500	149.895	80.004	19.994	103.946	20.120	4.271	0.508
137.000	150.097	80.003	19.995	103.950	20.121	4.166	0.478
137.500	150.335	80.009	19.994	103.947	20.119	4.287	0.442
138.000	150.578	80.003	19.994	103.944	20.122	4.132	0.461
138.500	150.810	80.007	19.994	103.942	20.118	4.390	0.478
139.000	151.069	80.007	19.994	103.938	20.118	4.396	0.483
139.500	151.334	80.008	19.994	103.936	20.116	4.543	0.507
140.000	151.527	80.006	19.994	103.938	20.117	4.461	0.491
140.500	151.801	80.006	19.994	103.937	20.116	4.502	0.463
141.000	152.032	80.006	19.994	103.937	20.115	4.568	0.486
141.500	152.303	80.010	19.992	103.942	20.114	4.676	0.503
142.000	152.520	80.005	19.994	103.940	20.114	4.694	0.496
142.500	152.752	80.004	19.994	103.937	20.111	4.852	0.469
143.000	153.000	80.007	19.994	103.936	20.113	4.758	0.464
143.500	153.244	80.006	19.994	103.937	20.114	4.701	0.486
144.000	153.518	80.008	19.993	103.936	20.112	4.803	0.505
144.500	153.763	80.004	19.994	103.939	20.116	4.539	0.518
145.000	154.009	80.005	19.994	103.941	20.112	4.801	0.505
145.500	154.227	80.006	19.994	103.945	20.115	4.570	0.478
146.000	154.482	80.010	19.993	103.943	20.116	4.514	0.469
146.500	154.735	80.007	19.993	103.942	20.111	4.883	0.490
147.000	154.978	80.008	19.992	103.942	20.111	4.879	0.502
147.500	155.195	79.999	19.995	103.943	20.113	4.740	0.478
148.000	155.423	79.995	19.995	103.941	20.113	4.722	0.452
148.500	155.679	80.009	19.992	103.940	20.114	4.665	0.464
149.000	155.919	80.004	19.994	103.941	20.114	4.642	0.490
149.500	156.147	80.004	19.995	103.937	20.111	4.851	0.482
150.000	156.391	80.004	19.992	103.933	20.114	4.685	0.469
150.500	156.669	80.003	19.993	103.933	20.113	4.728	0.496
151.000	156.940	80.001	19.994	103.937	20.115	4.607	0.536
151.500	157.189	80.005	19.994	103.935	20.111	4.865	0.535
152.000	157.433	80.002	19.995	103.938	20.115	4.628	0.506
152.500	157.653	80.009	19.992	103.941	20.112	4.795	0.479
153.000	157.944	80.012	19.992	103.944	20.109	5.008	0.488
153.500	158.129	80.001	19.994	103.946	20.110	4.978	0.493
154.000	158.401	80.004	19.995	103.942	20.112	4.822	0.466
154.500	158.644	79.993	19.995	103.939	20.112	4.796	0.486
155.000	158.892	80.008	19.993	103.938	20.109	5.006	0.503
155.500	159.166	80.004	19.994	103.939	20.108	5.076	0.506
156.000	159.366	80.005	19.993	103.938	20.110	4.943	0.498
156.500	159.616	80.004	19.993	103.940	20.109	5.000	0.462
157.000	159.863	80.004	19.993	103.939	20.105	5.317	0.473
157.500	160.114	79.999	19.995	103.938	20.108	5.084	0.498
158.000	160.334	80.004	19.994	103.932	20.107	5.166	0.485
158.500	160.646	80.001	19.992	103.927	20.108	5.093	0.501
159.000	160.869	80.004	19.993	103.926	20.108	5.090	0.533
159.500	161.079	80.008	19.993	103.925	20.109	4.996	0.484
160.000	161.357	80.001	19.995	103.924	20.106	5.256	0.461
160.500	161.594	79.994	19.994	103.921	20.107	5.146	0.502
161.000	161.843	80.006	19.994	103.918	20.109	4.998	0.501
161.500	162.101	80.009	19.992	103.919	20.108	5.065	0.497
162.000	162.375	80.005	19.993	103.921	20.105	5.311	0.519
162.500	162.606	80.007	19.993	103.921	20.103	5.464	0.518
163.000	162.877	80.002	19.993	103.927	20.104	5.372	0.503
163.500	163.127	80.004	19.993	103.929	20.105	5.295	0.512
164.000	163.365	80.004	19.994	103.928	20.105	5.326	0.505
164.500	163.673	80.004	19.993	103.925	20.108	5.096	0.517
165.000	163.912	80.005	19.994	103.923	20.106	5.239	0.546
165.500	164.140	80.005	19.994	103.925	20.105	5.327	0.507
166.000	164.362	80.005	19.993	103.928	20.102	5.513	0.459
166.500	164.618	80.004	19.994	103.928	20.106	5.243	0.464
167.000	164.886	80.004	19.993	103.928	20.104	5.389	0.501
167.500	165.136	80.000	19.994	103.929	20.105	5.311	0.521
168.000	165.398	80.005	19.993	103.927	20.105	5.301	0.515
168.500	165.681	80.010	19.991	103.922	20.107	5.164	0.528
169.000	165.900	80.002	19.995	103.924	20.102	5.498	0.523
169.500	166.182	80.009	19.992	103.920	20.105	5.291	0.501
170.000	166.418	80.003	19.993	103.922	20.103	5.459	0.509
170.500	166.643	80.005	19.993	103.920	20.104	5.402	0.489
171.000	166.891	80.003	19.992	103.920	20.105	5.312	0.467
171.500	167.161	80.003	19.994	103.920	20.106	5.271	0.496
172.000	167.403	80.006	19.993	103.929	20.105	5.304	0.515
172.500	167.688	80.006	19.994	103.933	20.104	5.377	0.519
173.000	167.922	80.008	19.993	103.931	20.103	5.451	0.523
173.500	168.161	80.010	19.993	103.932	20.104	5.373	0.496
174.000	168.385	80.001	19.991	103.930	20.102	5.551	0.468
174.500	168.668	80.005	19.996	103.923	20.103	5.467	0.485
175.000	168.917	80.003	19.995	103.918	20.104	5.384	0.520
175.500	169.121	80.003	19.993	103.923	20.100	5.641	0.492
176.000	169.418	80.001	19.995	103.928	20.102	5.551	0.476
176.500	169.621	80.004	19.994	103.930	20.100	5.650	0.500
177.000	169.894	80.003	19.993	103.933	20.101	5.603	0.489
177.500	170.173	80.002	19.994	103.934	20.100	5.678	0.514
178.000	170.429	80.002	19.994	103.931	20.097	5.867	0.543
178.500	170.669	80.012	19.992	103.928	20.098	5.791	0.515
179.000	170.956	79.999	19.994	103.928	20.098	5.771	0.512
179.500	171.186	79.999	19.993	103.927	20.100	5.643	0.522
180.000	171.445	79.992	19.994	103.926	20.097	5.865	0.503
180.500	171.701	80.005	19.993	103.922	20.097	5.846	0.502
181.000	171.970	80.009	19.993	103.919	20.097	5.854	0.520
181.500	172.223	80.006	19.993	103.917	20.098	5.795	0.523
182.000	172.445	80.003	19.994	103.915	20.095	6.026	0.499
182.500	172.674	80.006	19.994	103.915	20.095	6.049	0.463
183.000	172.931	80.001	19.993	103.917	20.095	6.035	0.468
183.500	173.203	80.004	19.995	103.917	20.097	5.900	0.508
184.000	173.427	80.003	19.994	103.916	20.095	5.984	0.512
184.500	173.721	80.005	19.993	103.915	20.093	6.141	0.507
185.000	173.947	80.004	19.994	103.915	20.091	6.278	0.519
185.500	174.238	80.000	19.994	103.915	20.094	6.059	0.518
186.000	174.500	80.006	19.994	103.914	20.095	6.008	0.534
186.500	174.701	80.009	19.992	103.914	20.092	6.233	0.508
187.000	174.939	80.002	19.994	103.915	20.096	5.950	0.451
187.500	175.207	80.005	19.994	103.916	20.096	5.959	0.473
188.000	175.478	80.005	19.993	103.914	20.094	6.117	0.523
188.500	175.708	80.001	19.994	103.915	20.092	6.233	0.520
189.000	175.956	80.009	19.994	103.915	20.088	6.544	0.489
189.500	176.189	80.009	19.994	103.911	20.090	6.377	0.479
190.000	176.434	80.012	19.993	103.910	20.089	6.473	0.480
190.500	176.686	80.002	19.994	103.913	20.087	6.604	0.488
191.000	176.954	79.997	19.994	103.915	20.090	6.376	0.509
191.500	177.191	80.005	19.994	103.915	20.089	6.407	0.513
192.000	177.441	79.997	19.995	103.917	20.086	6.681	0.496
192.500	177.695	80.001	19.995	103.917	20.087	6.559	0.495
193.000	177.950	80.004	19.995	103.913	20.086	6.657	0.506
193.500	178.177	80.006	19.995	103.911	20.087	6.557	0.496
194.000	178.435	80.000	19.996	103.909	20.092	6.201	0.483
194.500	178.729	80.005	19.994	103.909	20.084	6.790	0.519
195.000	178.932	80.006	19.994	103.910	20.086	6.628	0.525
195.500	179.207	80.003	19.994	103.912	20.088	6.515	0.488
196.000	179.452	80.008	19.992	103.913	20.087	6.603	0.499
196.500	179.688	80.000	19.993	103.916	20.087	6.589	0.500
197.000	179.937	79.995	19.994	103.919	20.085	6.736	0.483
197.500	180.169	80.002	19.995	103.916	20.085	6.751	0.483
198.000	180.421	80.006	19.995	103.914	20.086	6.663	0.483
198.500	180.695	80.003	19.995	103.913	20.085	6.729	0.505
199.000	180.953	80.004	19.995	103.911	20.082	6.913	0.529
199.500	181.215	80.005	19.994	103.908	20.084	6.759	0.526
200.000	181.432	80.004	19.994	103.909	20.082	6.954	0.499
200.500	181.704	80.005	19.993	103.911	20.084	6.796	0.484
201.000	181.951	80.002	19.995	103.913	20.082	6.907	0.504
201.500	182.191	80.003	19.994	103.913	20.080	7.107	0.503
202.000	182.444	80.006	19.994	103.914	20.080	7.089	0.490
202.500	182.659	80.003	19.995	103.913	20.083	6.833	0.480
203.000	182.900	80.004	19.993	103.913	20.083	6.851	0.462
203.500	183.152	80.001	19.995	103.910	20.079	7.163	0.475
204.000	183.389	80.004	19.995	103.908	20.079	7.169	0.491
204.500	183.686	80.006	19.995	103.907	20.079	7.161	0.512
205.000	183.913	80.003	19.994	103.908	20.080	7.052	0.529
205.500	184.149	80.004	19.994	103.908	20.079	7.147	0.493
206.000	184.426	80.007	19.993	103.914	20.079	7.179	0.488
206.500	184.672	80.004	19.995	103.916	20.079	7.175	0.518
207.000	184.912	80.004	19.995	103.917	20.079	7.159	0.504
207.500	185.151	80.003	19.995	103.917	20.079	7.169	0.483
208.001	185.422	80.009	19.994	103.917	20.078	7.222	0.495
208.500	185.705	80.002	19.995	103.912	20.077	7.300	0.532
209.000	185.960	80.008	19.994	103.911	20.076	7.335	0.546
209.500	186.201	80.005	19.994	103.911	20.075	7.451	0.517
210.000	186.487	80.004	19.995	103.911	20.079	7.124	0.512
210.500	186.721	80.002	19.995	103.911	20.075	7.402	0.524
211.000	186.957	80.004	19.994	103.910	20.072	7.627	0.495
211.500	187.242	80.003	19.995	103.909	20.074	7.506	0.495
212.000	187.481	80.002	19.995	103.907	20.070	7.758	0.522
212.500	187.746	80.004	19.995	103.908	20.074	7.478	0.514
213.000	187.957	80.005	19.993	103.908	20.076	7.365	0.491
213.500	188.207	80.004	19.994	103.909	20.074	7.515	0.468
214.000	188.464	80.005	19.994	103.910	20.073	7.578	0.484
214.500	188.737	80.004	19.994	103.910	20.073	7.580	0.519
215.000	188.947	80.005	19.993	103.910	20.073	7.541	0.507
215.500	189.206	80.004	19.994	103.910	20.073	7.582	0.476
216.000	189.423	80.005	19.994	103.910	20.068	7.912	0.473
216.500	189.708	80.005	19.994	103.906	20.069	7.885	0.489
217.000	189.937	80.005	19.993	103.905	20.069	7.869	0.508
217.500	190.206	80.005	19.994	103.905	20.072	7.652	0.506
218.000	190.451	80.006	19.994	103.905	20.070	7.818	0.506
218.500	190.702	80.004	19.994	103.905	20.070	7.806	0.505
219.000	190.969	80.005	19.994	103.909	20.071	7.699	0.507
219.500	191.205	80.006	19.994	103.910	20.070	7.750	0.511
220.000	191.450	80.007	19.994	103.910	20.069	7.845	0.492
220.500	191.667	80.003	19.993	103.911	20.066	8.072	0.471
221.000	191.951	79.999	19.995	103.912	20.067	7.994	0.481
221.500	192.172	79.997	19.996	103.911	20.063	8.254	0.503
222.000	192.394	80.004	19.994	103.912	20.066	8.035	0.474
222.500	192.688	80.007	19.995	103.912	20.067	8.016	0.479
223.000	192.920	80.004	19.993	103.912	20.065	8.113	0.521
223.500	193.163	80.005	19.994	103.911	20.066	8.074	0.501
224.000	193.402	80.005	19.994	103.912	20.064	8.195	0.478
224.500	193.683	80.002	19.994	103.912	20.066	8.086	0.501
225.000	193.896	80.003	19.994	103.913	20.067	8.013	0.507
225.500	194.152	80.007	19.994	103.913	20.065	8.135	0.481
226.000	194.393	80.005	19.993	103.914	20.064	8.240	0.483
226.500	194.665	80.004	19.994	103.914	20.067	8.008	0.505
227.000	194.895	80.005	19.994	103.914	20.063	8.311	0.507
227.500	195.153	80.005	19.994	103.911	20.063	8.299	0.495
228.000	195.388	80.005	19.995	103.911	20.062	8.383	0.490
228.500	195.655	80.003	19.995	103.909	20.062	8.322	0.498
229.000	195.896	80.006	19.994	103.908	20.063	8.250	0.505
229.500	196.118	80.005	19.995	103.908	20.060	8.463	0.486
230.000	196.366	79.994	19.995	103.908	20.062	8.371	0.467
230.500	196.595	79.999	19.996	103.906	20.061	8.431	0.473
231.000	196.864	80.003	19.995	103.906	20.061	8.423	0.487
231.500	197.106	80.000	19.995	103.906	20.060	8.492	0.505
232.000	197.375	80.005	19.993	103.905	20.060	8.465	0.511
232.500	197.597	80.002	19.994	103.906	20.058	8.637	0.501
233.000	197.850	80.003	19.995	103.908	20.058	8.645	0.483
233.500	198.098	79.999	19.995	103.907	20.061	8.405	0.488
234.000	198.322	80.004	19.992	103.906	20.063	8.262	0.486
234.500	198.589	80.004	19.993	103.903	20.061	8.405	0.482
235.000	198.799	80.003	19.995	103.901	20.060	8.479	0.484
235.500	199.064	80.003	19.994	103.902	20.062	8.366	0.476
236.000	199.300	80.002	19.995	103.903	20.061	8.389	0.488
236.500	199.593	80.005	19.994	103.904	20.058	8.657	0.515
237.000	199.815	79.997	19.996	103.908	20.059	8.531	0.522
237.500	200.029	79.997	19.995	103.909	20.061	8.423	0.475
238.000	200.266	80.008	19.994	103.907	20.060	8.496	0.443
238.500	200.547	80.004	19.994	103.905	20.060	8.498	0.485
239.000	200.775	80.009	19.993	103.905	20.061	8.424	0.514
239.500	201.039	80.003	19.994	103.905	20.060	8.459	0.500
240.000	201.304	80.002	19.993	103.905	20.058	8.628	0.510
240.500	201.529	80.004	19.993	103.905	20.061	8.405	0.510
241.000	201.763	80.001	19.994	103.904	20.058	8.669	0.475
241.500	201.981	80.005	19.993	103.899	20.057	8.679	0.455
242.000	202.250	80.001	19.993	103.899	20.059	8.552	0.469
242.500	202.469	79.999	19.994	103.900	20.060	8.511	0.487
243.000	202.747	80.003	19.994	103.900	20.058	8.604	0.492
243.500	203.006	80.002	19.993	103.906	20.057	8.733	0.517
244.000	203.244	80.003	19.993	103.911	20.057	8.683	0.517
244.500	203.494	80.003	19.993	103.909	20.057	8.706	0.492
245.000	203.702	80.003	19.994	103.909	20.057	8.702	0.473
245.500	203.975	80.002	19.993	103.910	20.055	8.812	0.469
246.000	204.224	80.006	19.994	103.907	20.058	8.614	0.502
246.500	204.453	79.999	19.993	103.908	20.060	8.480	0.501
247.000	204.704	80.002	19.993	103.910	20.054	8.921	0.479
247.500	204.934	80.005	19.993	103.906	20.058	8.649	0.480
248.000	205.200	80.004	19.993	103.898	20.055	8.848	0.488
248.500	205.479	80.008	19.992	103.896	20.056	8.779	0.521
249.000	205.728	80.006	19.993	103.896	20.055	8.833	0.537
249.500	205.978	79.999	19.993	103.897	20.050	9.166	0.514
250.000	206.205	80.004	19.993	103.902	20.054	8.885	0.488
250.500	206.473	80.005	19.993	103.909	20.056	8.798	0.486
251.000	206.742	80.007	19.993	103.914	20.055	8.818	0.516
251.500	206.959	80.004	19.992	103.914	20.054	8.953	0.512
252.000	207.211	80.005	19.992	103.913	20.059	8.538	0.478
252.500	207.467	80.002	19.993	103.912	20.056	8.792	0.489
253.000	207.695	80.010	19.992	103.912	20.061	8.429	0.495
253.500	207.941	80.005	19.995	103.913	20.056	8.773	0.479
254.000	208.192	80.020	19.992	103.910	20.057	8.705	0.486
254.500	208.421	80.007	19.994	103.911	20.056	8.773	0.489
255.000	208.646	79.988	19.995	103.911	20.056	8.748	0.467
255.500	208.946	80.009	19.992	103.909	20.056	8.743	0.489
256.000	209.149	80.014	19.993	103.909	20.056	8.764	0.514
256.500	209.442	80.012	19.994	103.911	20.056	8.751	0.500
257.000	209.628	79.992	19.995	103.907	20.054	8.896	0.487
257.500	209.879	79.998	19.996	103.899	20.057	8.737	0.458
258.000	210.128	80.008	19.993	103.891	20.061	8.442	0.469
258.500	210.362	79.994	19.996	103.888	20.053	8.958	0.491
259.000	210.590	79.992	19.995	103.883	20.055	8.843	0.472
259.500	210.874	80.017	19.991	103.878	20.055	8.817	0.487
260.000	211.106	80.012	19.993	103.888	20.054	8.911	0.514
260.500	211.363	80.002	19.995	103.900	20.054	8.930	0.503
261.000	211.609	80.002	19.993	103.901	20.057	8.719	0.496
261.500	211.867	80.001	19.992	103.909	20.058	8.606	0.504
262.000	212.083	79.996	19.994	103.918	20.053	8.975	0.489
262.500	212.296	80.010	19.993	103.916	20.057	8.676	0.451
263.000	212.512	80.007	19.993	103.914	20.056	8.765	0.429
263.500	212.794	79.993	19.996	103.910	20.057	8.726	0.464
264.000	213.037	80.001	19.993	103.900	20.055	8.837	0.512
264.500	213.280	80.002	19.994	103.897	20.054	8.896	0.506
265.000	213.545	80.006	19.993	103.897	20.053	9.005	0.497
265.500	213.795	80.006	19.993	103.895	20.054	8.898	0.511
266.000	214.048	80.000	19.995	103.899	20.057	8.702	0.509
266.500	214.292	80.004	19.993	103.906	20.056	8.753	0.500
267.000	214.552	80.014	19.994	103.907	20.054	8.918	0.500
267.500	214.734	80.010	19.994	103.908	20.056	8.798	0.473
268.000	215.043	80.006	19.993	103.910	20.058	8.667	0.467
268.500	215.249	80.004	19.995	103.911	20.056	8.798	0.503
269.000	215.491	80.002	19.994	103.911	20.058	8.643	0.482
269.500	215.704	80.001	19.995	103.909	20.057	8.728	0.452
270.000	215.933	79.989	19.995	103.908	20.058	8.664	0.448
270.500	216.233	80.001	19.994	103.906	20.058	8.624	0.485
271.000	216.445	79.990	19.996	103.905	20.059	8.576	0.521
271.500	216.673	79.996	19.996	103.903	20.057	8.694	0.476
272.000	216.927	80.008	19.995	103.903	20.056	8.745	0.460
272.500	217.212	80.001	19.993	103.903	20.061	8.434	0.511
273.000	217.438	80.005	19.994	103.906	20.057	8.734	0.526
273.500	217.640	80.006	19.992	103.908	20.062	8.321	0.470
274.000	217.893	80.009	19.993	103.913	20.056	8.743	0.441
274.500	218.139	80.013	19.994	103.916	20.057	8.704	0.477
275.000	218.408	80.007	19.994	103.915	20.057	8.689	0.507
275.500	218.662	80.012	19.993	103.914	20.058	8.644	0.519
276.000	218.922	80.006	19.992	103.914	20.058	8.607	0.518
276.500	219.128	80.002	19.994	103.913	20.056	8.769	0.490
277.000	219.421	80.012	19.991	103.912	20.056	8.753	0.483
277.500	219.644	80.008	19.994	103.914	20.059	8.577	0.508
278.000	219.859	80.008	19.995	103.916	20.058	8.642	0.477
278.500	220.132	80.014	19.993	103.914	20.061	8.392	0.462
279.000	220.353	79.992	19.995	103.914	20.063	8.288	0.491
279.500	220.597	80.000	19.993	103.909	20.063	8.304	0.480
280.000	220.828	80.005	19.994	103.900	20.059	8.587	0.470
280.500	221.095	80.000	19.994	103.899	20.059	8.530	0.487
281.000	221.313	79.997	19.993	103.898	20.058	8.663	0.492
281.500	221.576	79.992	19.995	103.894	20.058	8.641	0.483
282.000	221.893	80.016	19.990	103.898	20.059	8.546	0.530
282.500	222.108	80.012	19.993	103.909	20.059	8.557	0.556
283.000	222.334	80.010	19.993	103.911	20.057	8.729	0.486
283.500	222.599	80.012	19.992	103.914	20.061	8.448	0.466
284.000	222.834	80.013	19.994	103.916	20.058	8.626	0.496
284.501	223.083	80.009	19.992	103.918	20.059	8.593	0.492
285.000	223.344	80.015	19.992	103.915	20.057	8.683	0.497
285.500	223.583	80.007	19.994	103.916	20.059	8.538	0.505
286.000	223.802	80.004	19.993	103.915	20.061	8.428	0.479
286.500	224.087	80.008	19.993	103.916	20.062	8.359	0.481
287.000	224.348	80.000	19.994	103.917	20.063	8.310	0.525
287.500	224.563	80.006	19.993	103.916	20.061	8.416	0.511
288.000	224.814	80.015	19.992	103.914	20.063	8.267	0.471
288.500	225.059	80.008	19.994	103.915	20.061	8.440	0.481
289.000	225.324	80.009	19.993	103.915	20.062	8.344	0.503
289.500	225.580	80.010	19.993	103.916	20.064	8.192	0.515
290.000	225.810	80.004	19.994	103.916	20.064	8.176	0.504
290.500	226.059	80.008	19.994	103.916	20.062	8.358	0.482
291.000	226.309	79.994	19.995	103.915	20.062	8.385	0.489
291.500	226.575	80.005	19.994	103.912	20.061	8.391	0.507
292.000	226.821	80.010	19.995	103.911	20.061	8.395	0.514
292.500	227.072	80.007	19.994	103.910	20.063	8.313	0.504
293.000	227.287	80.004	19.994	103.911	20.063	8.288	0.482
293.500	227.554	80.005	19.993	103.909	20.063	8.260	0.475
294.000	227.792	80.004	19.993	103.912	20.063	8.311	0.493
294.500	228.064	79.998	19.997	103.911	20.062	8.331	0.507
295.001	228.319	80.005	19.995	103.911	20.066	8.102	0.519
295.500	228.578	80.006	19.996	103.911	20.061	8.389	0.521
296.000	228.814	80.019	19.993	103.911	20.063	8.307	0.504
296.500	229.086	80.003	19.995	103.912	20.067	7.991	0.502
297.000	229.315	79.997	19.994	103.906	20.063	8.264	0.504
297.500	229.573	80.008	19.994	103.905	20.066	8.057	0.493
298.000	229.826	80.000	19.994	103.903	20.065	8.114	0.499
298.500	230.119	79.995	19.994	103.903	20.064	8.179	0.528
299.000	230.340	80.003	19.993	103.901	20.068	7.936	0.530
299.500	230.597	80.006	19.994	103.907	20.066	8.071	0.496
300.000	230.840	80.005	19.993	103.911	20.062	8.335	0.489
300.500	231.071	79.996	19.996	103.913	20.064	8.210	0.488
301.000	231.324	80.007	19.996	103.911	20.067	7.967	0.480
301.500	231.566	80.001	19.994	103.905	20.070	7.776	0.489
302.000	231.855	80.005	19.994	103.905	20.068	7.948	0.513
302.500	232.066	80.005	19.993	103.905	20.068	7.920	0.516
303.000	232.326	80.018	19.992	103.904	20.068	7.922	0.485
303.500	232.622	80.004	19.995	103.908	20.067	8.006	0.513
304.000	232.849	80.007	19.993	103.910	20.068	7.929	0.540
304.500	233.090	80.009	19.993	103.911	20.070	7.790	0.496
305.000	233.352	79.993	19.994	103.911	20.071	7.716	0.485
305.500	233.570	80.013	19.994	103.910	20.067	8.031	0.491
306.000	233.833	80.006	19.993	103.910	20.068	7.929	0.480
306.500	234.091	80.008	19.992	103.913	20.065	8.166	0.501
307.000	234.339	80.005	19.994	103.914	20.068	7.959	0.513
307.500	234.568	80.016	19.992	103.912	20.068	7.931	0.492
308.000	234.838	80.011	19.992	103.913	20.071	7.699	0.488
308.500	235.137	79.986	19.993	103.915	20.068	7.906	0.534
309.000	235.355	80.024	19.991	103.915	20.067	8.002	0.543
309.500	235.599	79.988	19.995	103.917	20.067	8.006	0.490
310.000	235.833	80.005	19.994	103.920	20.067	7.992	0.470
310.500	236.071	80.000	19.993	103.922	20.071	7.695	0.475
311.000	236.359	80.005	19.994	103.919	20.068	7.920	0.499
311.500	236.569	80.010	19.993	103.920	20.069	7.860	0.512
312.000	236.857	80.005	19.992	103.917	20.066	8.069	0.498
312.500	237.136	80.010	19.994	103.919	20.065	8.106	0.532
313.000	237.367	79.998	19.995	103.917	20.065	8.106	0.538
313.500	237.655	80.013	19.994	103.914	20.066	8.057	0.515
314.000	237.843	79.985	19.997	103.913	20.062	8.346	0.498
314.500	238.128	80.000	19.994	103.909	20.067	8.010	0.474
315.000	238.367	80.004	19.994	103.904	20.064	8.204	0.498
315.500	238.648	80.005	19.995	103.904	20.067	7.987	0.522
316.000	238.849	79.985	19.998	103.906	20.067	7.977	0.501
316.500	239.103	80.009	19.995	103.902	20.067	7.977	0.469
317.000	239.370	79.985	19.997	103.905	20.065	8.145	0.488
317.500	239.642	80.002	19.995	103.903	20.066	8.100	0.530
318.000	239.885	80.011	19.993	103.903	20.064	8.180	0.527
318.500	240.103	80.011	19.994	103.905	20.062	8.360	0.488
319.000	240.393	80.010	19.996	103.912	20.064	8.225	0.484
319.500	240.643	79.998	19.995	103.910	20.060	8.458	0.524
320.000	240.879	80.002	19.995	103.910	20.064	8.221	0.513
320.500	241.114	79.994	19.995	103.911	20.064	8.192	0.478
321.000	241.383	80.011	19.994	103.911	20.061	8.435	0.488
321.500	241.684	80.003	19.994	103.914	20.061	8.423	0.537
322.000	241.913	80.012	19.996	103.917	20.061	8.423	0.550
322.500	242.175	80.006	19.995	103.918	20.058	8.617	0.510
323.000	242.417	79.996	19.995	103.918	20.059	8.552	0.497
323.500	242.678	80.004	19.995	103.915	20.062	8.370	0.503
324.000	242.921	80.010	19.995	103.910	20.056	8.776	0.504
324.500	243.211	80.005	19.996	103.909	20.057	8.717	0.519
325.000	243.439	80.004	19.996	103.908	20.062	8.369	0.525
325.500	243.689	79.987	19.995	103.909	20.061	8.432	0.498
326.000	243.924	80.001	19.994	103.912	20.061	8.387	0.482
326.500	244.132	79.995	19.996	103.912	20.062	8.362	0.465
327.000	244.389	80.009	19.995	103.911	20.060	8.462	0.454
327.500	244.669	80.008	19.993	103.913	20.061	8.401	0.501
328.000	244.888	79.999	19.996	103.916	20.059	8.569	0.518
328.500	245.139	80.010	19.994	103.914	20.056	8.765	0.485
329.000	245.408	79.998	19.993	103.913	20.057	8.677	0.495
329.500	245.706	80.010	19.993	103.914	20.056	8.764	0.544
330.000	245.923	79.994	19.996	103.914	20.053	9.007	0.541
330.500	246.168	80.005	19.994	103.912	20.055	8.841	0.489
331.000	246.472	80.006	19.994	103.913	20.055	8.837	0.505
331.500	246.735	80.004	19.993	103.916	20.053	9.001	0.558
332.000	246.903	80.005	19.993	103.918	20.056	8.769	0.499
332.500	247.169	80.006	19.993	103.918	20.053	9.021	0.433
333.000	247.398	80.012	19.993	103.918	20.057	8.735	0.464
333.500	247.655	80.000	19.994	103.919	20.051	9.126	0.490
334.000	247.854	80.004	19.993	103.916	20.056	8.770	0.471
334.500	248.148	79.992	19.995	103.915	20.054	8.947	0.475
335.000	248.391	80.010	19.994	103.910	20.052	9.040	0.515
335.500	248.628	79.996	19.993	103.907	20.054	8.906	0.509
336.000	248.918	79.991	19.994	103.906	20.055	8.872	0.503
336.500	249.138	80.006	19.991	103.906	20.052	9.080	0.519
337.000	249.398	80.004	19.993	103.907	20.054	8.909	0.495
337.500	249.667	80.008	19.993	103.911	20.051	9.129	0.504
338.000	249.952	79.999	19.993	103.914	20.052	9.083	0.541
338.500	250.159	79.978	19.996	103.915	20.052	9.048	0.523
339.000	250.487	80.002	19.993	103.913	20.047	9.406	0.514
339.500	250.746	80.010	19.995	103.911	20.050	9.184	0.561
340.000	250.954	80.009	19.994	103.910	20.048	9.347	0.527
340.500	251.199	80.005	19.992	103.908	20.048	9.373	0.460
341.000	251.492	80.010	19.993	103.907	20.048	9.344	0.495
341.500	251.712	80.006	19.995	103.910	20.048	9.348	0.525
342.000	251.967	80.001	19.994	103.909	20.046	9.512	0.494
342.500	252.224	80.004	19.993	103.910	20.043	9.678	0.493
343.000	252.448	80.003	19.995	103.912	20.042	9.756	0.496
343.500	252.740	79.988	19.994	103.910	20.047	9.388	0.499
344.000	252.956	80.005	19.994	103.910	20.044	9.617	0.513
344.500	253.183	79.999	19.994	103.912	20.044	9.601	0.476
345.000	253.456	80.021	19.993	103.910	20.044	9.603	0.471
345.500	253.649	79.988	19.996	103.913	20.043	9.732	0.483
346.000	253.957	80.001	19.995	103.912	20.041	9.838	0.484
346.500	254.178	80.000	19.993	103.912	20.042	9.786	0.515
347.000	254.461	80.007	19.992	103.914	20.041	9.841	0.516
347.500	254.693	80.000	19.993	103.916	20.040	9.944	0.509
348.000	254.937	80.000	19.994	103.913	20.037	10.124	0.495
348.500	255.190	79.974	19.997	103.916	20.039	9.958	0.487
349.000	255.457	80.001	19.993	103.911	20.039	9.972	0.509
349.500	255.687	79.999	19.995	103.912	20.040	9.897	0.508
350.000	255.989	80.020	19.992	103.914	20.038	10.072	0.514
350.500	256.187	80.006	19.992	103.920	20.040	9.921	0.516
351.000	256.445	79.997	19.994	103.926	20.039	10.000	0.478
351.500	256.697	79.990	19.995	103.934	20.037	10.152	0.483
352.000	256.949	80.006	19.992	103.936	20.033	10.418	0.507
352.500	257.203	80.005	19.993	103.939	20.035	10.266	0.506
353.000	257.450	79.998	19.994	103.937	20.032	10.444	0.503
353.500	257.689	80.008	19.993	103.935	20.031	10.516	0.493
354.000	257.940	79.994	19.995	103.938	20.032	10.444	0.488
354.501	258.189	80.016	19.994	103.932	20.028	10.765	0.495
355.001	258.433	80.006	19.994	103.930	20.030	10.589	0.497
355.500	258.691	80.012	19.994	103.926	20.028	10.736	0.497
356.000	258.971	80.002	19.993	103.927	20.031	10.578	0.520
356.500	259.246	79.991	19.993	103.928	20.026	10.910	0.547
357.000	259.446	80.004	19.994	103.935	20.027	10.824	0.515
357.500	259.759	79.989	19.994	103.936	20.028	10.735	0.494
358.000	259.963	80.006	19.994	103.943	20.027	10.849	0.515
358.500	260.187	80.012	19.992	103.940	20.026	10.910	0.472
359.000	260.402	79.993	19.996	103.938	20.025	10.990	0.433
359.500	260.698	80.005	19.993	103.938	20.027	10.857	0.475
360.000	260.934	79.999	19.995	103.940	20.022	11.177	0.522
360.500	261.214	80.016	19.992	103.939	20.021	11.244	0.524
361.000	261.443	80.001	19.993	103.941	20.023	11.107	0.512
361.500	261.704	80.003	19.993	103.942	20.021	11.275	0.500
362.000	261.958	79.990	19.992	103.945	20.019	11.428	0.502
362.500	262.166	80.009	19.994	103.946	20.017	11.541	0.488
363.000	262.422	79.995	19.994	103.947	20.015	11.668	0.463
363.500	262.670	80.021	19.991	103.948	20.017	11.571	0.484
364.000	262.909	79.988	19.995	103.953	20.015	11.708	0.496
364.500	263.217	80.003	19.991	103.949	20.010	12.029	0.517
365.000	263.421	80.007	19.995	103.949	20.008	12.190	0.529
365.500	263.648	80.009	19.993	103.948	20.013	11.801	0.471
366.000	263.960	80.003	19.994	103.949	20.011	11.977	0.485
366.500	264.209	80.008	19.992	103.940	20.011	11.971	0.550
367.000	264.414	80.005	19.993	103.938	20.008	12.191	0.507
367.500	264.680	80.011	19.992	103.936	20.005	12.362	0.462
368.000	264.925	80.000	19.993	103.940	20.005	12.361	0.491
368.500	265.153	79.995	19.995	103.942	20.005	12.369	0.492
369.000	265.436	80.005	19.994	103.946	20.008	12.158	0.492
369.500	265.649	80.004	19.993	103.950	20.005	12.364	0.504
370.000	265.917	79.999	19.995	103.952	20.003	12.533	0.488
370.500	266.185	79.980	19.994	103.949	20.003	12.546	0.508
371.000	266.437	80.005	19.992	103.949	20.004	12.471	0.528
371.500	266.697	79.994	19.995	103.951	19.999	12.827	0.516
372.000	266.928	80.010	19.993	103.949	20.001	12.690	0.501
372.500	267.202	80.000	19.993	103.949	19.994	13.160	0.498
373.000	267.445	80.002	19.993	103.950	19.994	13.158	0.512
373.500	267.660	80.003	19.994	103.950	19.993	13.213	0.488
374.000	267.917	80.006	19.993	103.948	19.996	13.052	0.465
374.500	268.178	80.007	19.992	103.953	19.992	13.289	0.495
375.000	268.401	80.001	19.994	103.955	19.994	13.200	0.501
375.500	268.700	80.007	19.994	103.954	19.991	13.367	0.503
376.000	268.928	80.001	19.993	103.959	19.987	13.679	0.524
376.500	269.206	80.005	19.990	103.962	19.987	13.682	0.517
377.000	269.410	79.996	19.992	103.962	19.987	13.692	0.494
377.500	269.693	80.010	19.996	103.964	19.982	14.040	0.484
378.000	269.879	79.999	19.994	103.966	19.986	13.763	0.478
378.500	270.165	79.999	19.992	103.962	19.983	13.983	0.471
379.000	270.381	80.002	19.995	103.965	19.983	13.918	0.487
379.500	270.686	80.013	19.992	103.967	19.981	14.105	0.511
380.000	270.948	79.989	19.995	103.969	19.982	14.037	0.544
380.500	271.221	80.009	19.993	103.964	19.980	14.162	0.551
381.000	271.461	80.015	19.992	103.965	19.975	14.513	0.524
381.500	271.717	80.007	19.993	103.964	19.977	14.384	0.505
382.000	271.990	80.008	19.994	103.960	19.974	14.623	0.512
382.500	272.222	79.999	19.996	103.956	19.976	14.416	0.517
383.000	272.486	80.006	19.995	103.959	19.975	14.507	0.500
383.500	272.719	80.007	19.994	103.959	19.972	14.708	0.496
384.000	272.998	80.014	19.994	103.957	19.972	14.736	0.505
384.500	273.225	80.002	19.995	103.961	19.971	14.797	0.509
385.000	273.477	79.997	19.995	103.960	19.969	14.968	0.493
385.500	273.735	80.006	19.994	103.960	19.968	15.014	0.495
386.000	273.971	80.011	19.995	103.963	19.967	15.089	0.502
386.500	274.230	79.996	19.996	103.969	19.962	15.474	0.494
387.000	274.531	80.006	19.993	103.968	19.965	15.256	0.527
387.500	274.788	80.010	19.992	103.971	19.962	15.419	0.559
388.000	274.978	80.002	19.995	103.977	19.960	15.617	0.502
388.500	275.210	80.001	19.997	103.970	19.956	15.833	0.434
389.000	275.468	80.002	19.995	103.962	19.957	15.786	0.456
389.500	275.693	80.003	19.996	103.956	19.961	15.544	0.487
390.000	275.982	79.991	19.997	103.953	19.957	15.815	0.499
390.500	276.229	80.010	19.993	103.947	19.953	16.048	0.525
391.000	276.511	80.012	19.993	103.954	19.951	16.228	0.532
391.500	276.729	80.011	19.993	103.962	19.952	16.151	0.514
392.000	276.941	80.000	19.997	103.969	19.946	16.556	0.465
392.500	277.215	80.003	19.995	103.971	19.945	16.637	0.458
393.000	277.532	79.991	19.995	103.976	19.948	16.411	0.538
393.500	277.738	80.017	19.991	103.976	19.944	16.719	0.557
394.000	277.968	80.009	19.993	103.980	19.947	16.521	0.480
394.500	278.203	79.997	19.995	103.981	19.943	16.779	0.450
395.000	278.457	80.009	19.995	103.982	19.942	16.873	0.477
395.500	278.714	80.013	19.992	103.987	19.940	17.014	0.500
396.000	278.968	80.007	19.995	103.988	19.940	17.006	0.511
396.500	279.231	79.995	19.997	103.984	19.938	17.107	0.514
397.000	279.485	80.005	19.993	103.979	19.938	17.141	0.517
397.500	279.742	80.005	19.993	103.984	19.934	17.460	0.514
398.000	279.989	80.012	19.993	103.983	19.930	17.679	0.508
398.500	280.241	80.007	19.993	103.983	19.930	17.706	0.502
399.000	280.501	80.010	19.996	103.986	19.930	17.694	0.506
399.500	280.703	79.989	20.005	103.991	19.926	17.978	0.487
400.000	280.981	80.002	19.996	103.982	19.925	18.074	0.471
400.500	281.232	79.994	19.995	103.983	19.922	18.277	0.505
401.000	281.486	80.008	19.993	103.980	19.921	18.353	0.517
401.500	281.738	80.001	19.995	103.980	19.919	18.501	0.505
402.000	281.959	80.004	19.994	103.979	19.916	18.698	0.489
402.500	282.249	80.001	19.995	103.988	19.918	18.554	0.492
403.000	282.494	80.010	19.993	103.987	19.917	18.651	0.523
403.500	282.745	80.000	19.995	103.991	19.913	18.944	0.515
404.000	283.011	80.003	19.995	103.987	19.912	18.966	0.506
404.500	283.222	80.001	19.995	103.988	19.910	19.164	0.498
405.000	283.483	80.006	19.994	103.987	19.908	19.252	0.475
405.500	283.698	79.991	19.996	103.987	19.906	19.432	0.474
406.000	284.007	80.012	19.994	103.986	19.907	19.351	0.500
406.500	284.245	79.996	20.001	103.990	19.904	19.552	0.535
407.000	284.531	80.011	19.988	103.988	19.903	19.599	0.535
407.500	284.734	80.002	19.994	103.996	19.899	19.938	0.506
408.000	285.013	80.007	19.992	103.999	19.899	19.910	0.486
408.500	285.221	79.996	19.997	104.001	19.897	20.082	0.485
409.000	285.507	80.002	19.995	103.999	19.897	20.088	0.490
409.500	285.729	80.004	19.993	104.008	19.895	20.174	0.501
410.000	286.028	80.002	19.997	104.006	19.890	20.565	0.515
410.500	286.287	80.002	19.996	104.009	19.892	20.416	0.540
411.000	286.506	80.003	19.994	104.009	19.890	20.536	0.518
411.500	286.742	80.001	19.993	104.016	19.889	20.602	0.467
412.000	286.995	80.001	19.995	104.017	19.886	20.812	0.472
412.500	287.225	80.003	19.997	104.019	19.882	21.135	0.486
413.000	287.523	80.000	19.994	104.019	19.879	21.318	0.506
413.500	287.758	80.006	19.995	104.024	19.879	21.360	0.530
414.000	287.991	80.007	19.992	104.026	19.879	21.337	0.501
414.500	288.236	80.010	19.995	104.026	19.873	21.761	0.473
415.000	288.511	80.009	19.996	104.028	19.878	21.401	0.499
415.500	288.738	80.007	19.994	104.031	19.873	21.746	0.511
416.000	288.979	80.004	19.995	104.031	19.871	21.903	0.485
416.500	289.234	80.011	19.995	104.030	19.866	22.280	0.482
417.000	289.493	80.008	19.994	104.033	19.867	22.175	0.505
417.500	289.708	79.994	19.995	104.034	19.868	22.139	0.494
418.000	289.976	80.012	19.994	104.031	19.863	22.497	0.479
418.500	290.248	79.997	19.996	104.034	19.858	22.851	0.511
419.000	290.506	80.001	19.994	104.032	19.858	22.792	0.535
419.500	290.764	79.998	19.994	104.029	19.854	23.105	0.523
420.000	290.997	80.008	19.997	104.029	19.852	23.214	0.504
420.500	291.256	80.004	19.998	104.029	19.849	23.434	0.492
421.000	291.501	80.000	19.997	104.027	19.850	23.417	0.498
421.500	291.741	80.000	19.996	104.028	19.843	23.868	0.494
422.000	292.008	80.008	19.992	104.028	19.839	24.176	0.496
422.500	292.263	80.013	19.990	104.026	19.838	24.247	0.514
423.000	292.497	80.004	19.994	104.029	19.836	24.384	0.506
423.500	292.772	79.999	19.995	104.029	19.831	24.709	0.499
424.000	293.075	80.001	19.994	104.032	19.831	24.753	0.543
424.500	293.283	79.997	19.995	104.037	19.828	24.928	0.545
425.000	293.528	80.007	19.992	104.039	19.828	24.971	0.482
425.500	293.771	80.004	19.995	104.039	19.822	25.393	0.471
426.000	294.074	80.005	19.993	104.038	19.817	25.718	0.517
426.500	294.307	80.008	19.992	104.040	19.817	25.703	0.541
427.000	294.510	80.015	19.992	104.041	19.813	26.040	0.486
427.500	294.832	80.002	19.993	104.046	19.812	26.117	0.481
428.000	295.049	79.989	19.994	104.052	19.806	26.479	0.532
428.500	295.280	79.993	19.992	104.055	19.806	26.518	0.493
429.000	295.594	80.000	19.993	104.056	19.800	26.921	0.496
429.500	295.822	80.005	19.994	104.053	19.795	27.283	0.544
430.000	296.089	80.006	19.994	104.052	19.789	27.721	0.519
430.500	296.349	80.001	19.993	104.053	19.786	27.943	0.511
431.000	296.599	80.000	19.995	104.058	19.785	28.010	0.518
431.500	296.841	80.015	19.990	104.058	19.780	28.359	0.501
432.000	297.077	80.008	19.989	104.065	19.778	28.477	0.485
432.500	297.325	80.006	19.992	104.066	19.773	28.868	0.481
433.000	297.566	80.001	19.988	104.060	19.768	29.228	0.486
433.500	297.804	80.000	19.993	104.062	19.764	29.509	0.484
434.000	298.108	80.004	19.995	104.062	19.761	29.673	0.511
434.500	298.365	80.022	19.988	104.062	19.755	30.127	0.552
435.000	298.591	80.001	19.993	104.065	19.746	30.745	0.522
435.500	298.845	80.010	19.992	104.070	19.746	30.750	0.481
436.000	299.084	80.007	19.991	104.071	19.741	31.111	0.486
436.500	299.354	80.005	19.990	104.071	19.738	31.330	0.501
437.000	299.592	79.999	19.995	104.073	19.730	31.917	0.509
437.500	299.833	79.994	19.993	104.068	19.727	32.075	0.493
438.000	300.117	80.014	19.992	104.068	19.722	32.476	0.502
438.500	300.355	79.991	19.995	104.070	19.719	32.708	0.523
439.000	300.568	79.996	19.993	104.069	19.711	33.266	0.487
439.500	300.855	80.004	19.993	104.067	19.708	33.481	0.476
440.000	301.126	80.011	19.989	104.070	19.705	33.657	0.529
440.500	301.362	80.012	19.993	104.073	19.699	34.091	0.532
441.000	301.596	80.007	19.994	104.071	19.694	34.418	0.489
441.500	301.861	80.017	19.993	104.074	19.688	34.856	0.485
442.000	302.086	80.018	19.996	104.076	19.681	35.327	0.495
442.500	302.358	80.000	19.996	104.077	19.680	35.432	0.494
443.000	302.646	80.015	19.994	104.072	19.676	35.739	0.528
443.500	302.888	80.005	19.994	104.071	19.668	36.256	0.545
444.000	303.151	79.993	19.993	104.070	19.660	36.828	0.518
444.500	303.378	80.011	19.995	104.065	19.657	37.025	0.498
445.000	303.665	80.001	19.993	104.063	19.654	37.274	0.502
445.500	303.910	80.007	19.994	104.064	19.644	37.981	0.523
446.000	304.163	80.012	19.992	104.062	19.642	38.150	0.515
446.500	304.422	80.006	19.993	104.065	19.638	38.397	0.505
447.000	304.641	80.004	19.995	104.066	19.634	38.711	0.495
447.500	304.921	80.007	19.992	104.059	19.627	39.192	0.489
448.000	305.138	80.005	19.992	104.059	19.626	39.228	0.498
448.500	305.413	80.014	19.993	104.057	19.617	39.851	0.494
449.000	305.677	80.005	19.993	104.055	19.613	40.156	0.516
449.500	305.897	80.007	19.994	104.048	19.609	40.424	0.512
450.000	306.161	79.999	19.995	104.045	19.604	40.809	0.484
450.500	306.379	80.006	19.994	104.039	19.598	41.220	0.482
451.000	306.697	80.001	19.994	104.032	19.591	41.710	0.509
451.500	306.922	80.002	19.994	104.025	19.590	41.788	0.540
452.000	307.164	80.017	19.991	104.025	19.586	42.061	0.506
452.500	307.482	80.010	19.992	104.029	19.580	42.527	0.514
453.000	307.684	79.989	19.993	104.034	19.576	42.780	0.539
453.500	307.957	80.002	19.993	104.037	19.570	43.213	0.497
454.000	308.195	80.012	19.993	104.035	19.571	43.166	0.493
454.500	308.454	80.011	19.994	104.036	19.563	43.711	0.504
455.000	308.704	80.005	19.993	104.033	19.562	43.753	0.503
455.500	308.944	80.004	19.996	104.026	19.560	43.913	0.499
456.000	309.191	80.013	19.992	104.021	19.558	44.036	0.488
456.500	309.432	80.022	19.992	104.024	19.553	44.388	0.487
457.000	309.716	80.004	19.993	104.025	19.549	44.675	0.506
457.500	309.964	80.016	19.992	104.024	19.546	44.897	0.529
458.000	310.248	80.017	19.991	104.018	19.536	45.640	0.533
458.500	310.466	80.005	19.994	104.017	19.540	45.325	0.518
459.000	310.745	80.006	19.994	104.007	19.536	45.629	0.500
459.500	310.974	80.001	19.994	103.999	19.537	45.547	0.502
460.000	311.233	80.001	19.993	103.997	19.534	45.772	0.498
460.500	311.509	80.019	19.992	103.998	19.531	45.962	0.511
461.000	311.757	80.011	19.994	103.997	19.525	46.379	0.529
461.500	311.990	79.999	19.993	103.996	19.526	46.346	0.503
462.000	312.269	80.013	19.994	103.993	19.524	46.454	0.496
462.500	312.552	80.017	19.992	103.989	19.523	46.502	0.537
463.000	312.801	80.012	19.994	103.993	19.518	46.897	0.547
463.500	313.045	80.025	19.992	103.992	19.524	46.434	0.513
464.000	313.306	80.009	19.992	103.993	19.518	46.869	0.500
464.500	313.555	79.988	19.996	103.994	19.522	46.621	0.508
465.000	313.842	80.002	19.994	103.991	19.521	46.687	0.522
465.500	314.096	80.004	19.999	103.983	19.518	46.887	0.538
466.000	314.370	79.993	19.993	103.980	19.519	46.850	0.534
466.500	314.566	80.002	19.992	103.981	19.517	46.956	0.499
467.000	314.855	80.010	19.996	103.980	19.520	46.759	0.477
467.500	315.123	80.004	19.993	103.983	19.520	46.774	0.521
468.000	315.358	80.006	19.994	103.986	19.518	46.904	0.530
468.500	315.588	80.012	19.993	103.988	19.520	46.729	0.484
469.000	315.827	80.011	19.994	103.988	19.519	46.838	0.467
469.500	316.127	80.016	19.992	103.988	19.519	46.797	0.504
470.000	316.379	80.011	19.992	103.989	19.520	46.719	0.546
470.500	316.616	80.011	19.993	103.990	19.519	46.809	0.520
471.000	316.853	80.009	19.994	103.989	19.522	46.604	0.481
471.500	317.123	80.012	19.993	103.986	19.522	46.577	0.491
472.000	317.387	79.999	19.993	103.986	19.522	46.578	0.521
472.500	317.672	80.015	19.992	103.983	19.526	46.301	0.541
473.000	317.905	79.998	19.995	103.983	19.528	46.200	0.533
473.500	318.179	80.016	19.990	103.981	19.531	45.957	0.513
474.000	318.433	80.000	19.993	103.985	19.528	46.173	0.518
474.500	318.692	80.005	19.994	103.986	19.533	45.844	0.520
475.000	318.896	80.005	19.994	103.989	19.537	45.559	0.488
475.500	319.143	80.007	19.994	103.989	19.537	45.505	0.457
476.000	319.402	80.004	19.993	103.992	19.542	45.206	0.478
476.500	319.675	80.001	19.995	103.989	19.540	45.317	0.519
477.000	319.932	80.004	19.993	103.989	19.540	45.343	0.531
477.500	320.146	80.006	19.994	103.987	19.542	45.151	0.501
478.000	320.437	80.000	19.994	103.984	19.547	44.830	0.488
478.500	320.710	80.002	19.995	103.982	19.546	44.860	0.535
479.000	320.964	80.006	19.992	103.983	19.552	44.457	0.546
479.500	321.184	80.006	19.995	103.981	19.552	44.473	0.501
480.000	321.415	80.011	19.994	103.980	19.556	44.151	0.463
480.500	321.701	80.019	19.993	103.977	19.554	44.301	0.484
481.000	321.936	80.002	19.994	103.978	19.558	44.048	0.519
481.500	322.246	80.005	19.993	103.973	19.559	43.975	0.533
482.000	322.507	80.006	19.993	103.969	19.564	43.650	0.558
482.500	322.730	80.006	19.994	103.966	19.559	43.943	0.527
483.000	322.975	80.005	19.995	103.969	19.564	43.591	0.476
483.500	323.290	80.008	19.993	103.965	19.566	43.473	0.514
484.000	323.502	79.990	19.995	103.971	19.572	43.059	0.544
484.500	323.754	79.996	19.992	103.971	19.568	43.311	0.496
485.000	323.957	80.006	19.994	103.976	19.573	43.004	0.459
485.500	324.210	80.008	19.993	103.972	19.575	42.823	0.455
486.000	324.488	80.004	19.994	103.969	19.580	42.497	0.494
486.500	324.713	80.006	19.992	103.961	19.574	42.896	0.517
487.000	324.982	80.003	19.993	103.961	19.581	42.412	0.499
487.500	325.236	80.001	19.994	103.956	19.580	42.501	0.509
488.000	325.494	79.999	19.992	103.952	19.583	42.271	0.517
488.500	325.735	80.002	19.996	103.952	19.583	42.305	0.506
489.000	326.023	80.019	19.990	103.948	19.587	42.017	0.514
489.500	326.234	80.005	19.995	103.953	19.587	41.961	0.514
490.000	326.496	80.012	19.993	103.948	19.592	41.653	0.486
490.500	326.758	80.014	19.992	103.950	19.593	41.537	0.498
491.000	327.029	79.989	19.996	103.951	19.597	41.263	0.528
491.500	327.253	80.008	19.992	103.950	19.601	40.998	0.514
492.000	327.512	79.998	19.995	103.948	19.601	40.964	0.489
492.500	327.737	80.000	19.993	103.950	19.601	41.001	0.483
493.000	328.023	80.017	19.993	103.950	19.605	40.708	0.498
493.500	328.303	80.007	19.991	103.950	19.604	40.798	0.539
494.000	328.487	80.008	19.993	103.958	19.606	40.620	0.515
494.500	328.772	80.002	19.993	103.953	19.612	40.227	0.466
495.000	329.051	80.009	19.993	103.954	19.611	40.267	0.516
495.500	329.285	80.000	19.994	103.949	19.613	40.133	0.538
496.000	329.549	80.008	19.992	103.943	19.613	40.153	0.506
496.500	329.767	79.990	19.996	103.942	19.616	39.938	0.490
497.000	330.031	80.014	19.992	103.937	19.617	39.888	0.482
497.500	330.269	80.007	19.994	103.939	19.620	39.632	0.492
498.000	330.538	80.027	19.992	103.944	19.623	39.458	0.504
498.500	330.774	79.999	19.993	103.952	19.626	39.194	0.506
499.000	331.036	80.013	19.992	103.950	19.628	39.097	0.502
499.500	331.280	80.004	19.994	103.956	19.628	39.054	0.502
500.000	331.554	80.008	19.993	103.951	19.630	38.932	0.512
500.500	331.796	80.001	19.993	103.952	19.635	38.576	0.517
501.000	332.068	79.989	19.994	103.946	19.637	38.423	0.515
501.500	332.307	79.994	19.994	103.944	19.641	38.176	0.512
502.000	332.544	80.007	19.995	103.944	19.642	38.065	0.494
502.500	332.812	79.986	19.994	103.939	19.643	38.045	0.491
503.000	333.058	79.997	19.993	103.934	19.644	37.916	0.509
503.500	333.301	79.999	19.993	103.933	19.649	37.592	0.501
504.000	333.520	79.999	19.995	103.929	19.650	37.488	0.476
504.500	333.841	80.006	19.994	103.919	19.656	37.103	0.501
505.000	334.104	80.002	19.996	103.919	19.654	37.224	0.562
505.500	334.348	80.009	19.993	103.914	19.658	36.939	0.546
506.000	334.597	80.013	19.992	103.915	19.662	36.630	0.501
506.500	334.869	80.005	19.995	103.918	19.661	36.720	0.507
507.000	335.109	79.992	19.995	103.920	19.667	36.324	0.516
507.500	335.346	79.980	19.997	103.919	19.665	36.419	0.495
508.000	335.584	80.012	19.994	103.918	19.669	36.130	0.476
508.500	335.860	80.002	19.994	103.912	19.674	35.817	0.495
509.000	336.092	79.996	19.996	103.907	19.675	35.736	0.511
509.500	336.311	80.002	19.994	103.906	19.678	35.566	0.479
510.000	336.583	80.007	19.994	103.905	19.681	35.285	0.471
510.500	336.779	79.992	19.997	103.908	19.684	35.126	0.480
511.000	337.137	80.008	19.993	103.902	19.689	34.720	0.511
511.500	337.355	79.990	19.997	103.905	19.691	34.632	0.565
512.000	337.606	80.012	19.994	103.904	19.691	34.615	0.523
512.500	337.860	80.005	19.992	103.908	19.695	34.312	0.487
513.000	338.099	79.992	19.997	103.909	19.694	34.377	0.499
513.500	338.381	79.989	19.994	103.914	19.702	33.802	0.507
514.000	338.627	79.997	19.995	103.915	19.700	34.006	0.525
514.500	338.872	80.003	19.994	103.916	19.710	33.304	0.509
515.000	339.097	79.989	19.996	103.914	19.708	33.384	0.480
515.500	339.361	80.004	19.993	103.909	19.714	32.995	0.480
516.000	339.636	80.015	19.994	103.908	19.715	32.922	0.514
516.500	339.835	79.993	19.997	103.904	19.717	32.795	0.506
517.000	340.136	79.998	19.994	103.897	19.717	32.799	0.487
517.500	340.380	80.006	19.994	103.894	19.723	32.373	0.523
518.000	340.639	80.012	19.993	103.896	19.722	32.381	0.524
518.500	340.867	80.004	19.993	103.893	19.726	32.153	0.495
519.000	341.139	80.007	19.993	103.890	19.728	31.960	0.493
519.500	341.358	80.021	19.989	103.900	19.728	31.963	0.496
520.000	341.659	80.014	19.993	103.908	19.731	31.758	0.505
520.500	341.881	80.007	19.993	103.908	19.735	31.488	0.521
521.000	342.102	79.981	19.996	103.905	19.736	31.432	0.483
521.500	342.383	79.988	19.993	103.901	19.738	31.270	0.473
522.000	342.618	80.011	19.994	103.898	19.743	30.950	0.509
522.500	342.892	80.013	19.992	103.891	19.744	30.827	0.513
523.000	343.116	80.013	19.993	103.893	19.747	30.620	0.504
523.500	343.379	79.984	19.994	103.899	19.748	30.555	0.493
524.000	343.624	80.006	19.995	103.908	19.754	30.159	0.497
524.500	343.871	79.992	19.994	103.908	19.753	30.209	0.500
525.000	344.092	80.018	19.990	103.910	19.760	29.757	0.480
525.500	344.393	80.010	19.993	103.913	19.760	29.716	0.495
526.000	344.610	79.989	19.995	103.914	19.763	29.527	0.520
526.500	344.896	80.009	19.993	103.903	19.766	29.314	0.511
527.000	345.156	80.012	19.991	103.899	19.764	29.423	0.524
527.500	345.388	80.002	19.994	103.901	19.765	29.391	0.519
528.000	345.632	80.004	19.994	103.893	19.768	29.176	0.485
528.500	345.895	80.020	19.992	103.889	19.767	29.248	0.492
529.000	346.164	79.995	19.993	103.900	19.770	29.023	0.519
529.500	346.411	80.007	19.991	103.905	19.772	28.874	0.524
530.000	346.660	80.007	19.992	103.906	19.772	28.902	0.506
530.500	346.924	80.008	19.994	103.910	19.774	28.758	0.505
531.000	347.174	80.010	19.991	103.911	19.774	28.758	0.514
531.500	347.375	80.003	19.992	103.911	19.777	28.494	0.482
532.000	347.650	79.994	19.994	103.903	19.777	28.511	0.463
532.500	347.912	80.005	19.992	103.893	19.778	28.470	0.506
533.000	348.164	79.999	19.995	103.888	19.779	28.343	0.525
533.500	348.407	80.009	19.995	103.881	19.779	28.361	0.504
534.000	348.665	80.004	19.991	103.877	19.784	28.026	0.498
534.500	348.927	79.989	19.995	103.882	19.780	28.336	0.511
535.000	349.193	80.008	19.995	103.885	19.783	28.093	0.524
535.500	349.420	80.005	19.994	103.888	19.782	28.141	0.510
536.000	349.683	80.007	19.993	103.892	19.784	27.998	0.491
536.500	349.923	79.997	19.995	103.892	19.785	27.976	0.496
537.000	350.192	80.012	19.995	103.887	19.785	27.944	0.506
537.500	350.432	80.003	19.994	103.887	19.782	28.193	0.509
538.000	350.685	80.018	19.994	103.879	19.787	27.806	0.501
538.500	350.899	79.994	19.995	103.879	19.783	28.087	0.480
539.000	351.174	80.010	19.993	103.871	19.788	27.726	0.478
539.500	351.449	80.009	19.993	103.875	19.786	27.906	0.519
540.000	351.680	79.999	19.995	103.877	19.788	27.738	0.528
540.500	351.984	80.008	19.993	103.882	19.786	27.883	0.520
541.000	352.221	80.006	19.995	103.884	19.784	28.000	0.538
541.500	352.482	79.995	19.994	103.891	19.786	27.896	0.520
542.000	352.722	79.999	19.995	103.887	19.788	27.721	0.500
542.500	352.979	80.007	19.993	103.883	19.786	27.848	0.499
543.000	353.233	80.006	19.993	103.881	19.788	27.744	0.504
543.500	353.496	80.007	19.992	103.877	19.786	27.879	0.514
544.000	353.749	80.012	19.993	103.875	19.784	28.041	0.517
544.500	354.007	80.007	19.993	103.878	19.784	28.032	0.513
545.000	354.272	79.997	19.995	103.882	19.784	27.995	0.517
545.500	354.520	80.007	19.992	103.885	19.788	27.754	0.519
546.000	354.787	80.007	19.993	103.889	19.786	27.900	0.514
546.500	355.023	80.000	19.990	103.889	19.782	28.162	0.509
547.000	355.220	79.999	19.996	103.886	19.786	27.852	0.468
547.500	355.528	79.993	19.991	103.879	19.786	27.902	0.469
548.000	355.762	80.007	19.998	103.874	19.781	28.225	0.524
548.500	355.996	80.004	19.994	103.871	19.785	27.940	0.505
549.000	356.289	79.997	19.994	103.869	19.783	28.062	0.497
549.500	356.547	80.005	19.994	103.868	19.782	28.129	0.539
550.000	356.799	80.003	19.994	103.870	19.782	28.195	0.531
550.500	357.043	80.017	19.992	103.871	19.783	28.125	0.503
551.000	357.325	80.010	19.992	103.871	19.780	28.304	0.511
551.500	357.610	80.003	19.993	103.873	19.780	28.307	0.547
552.000	357.818	80.009	19.996	103.874	19.781	28.265	0.530
552.500	358.038	80.006	19.999	103.877	19.779	28.397	0.460
553.000	358.325	80.008	19.991	103.875	19.779	28.372	0.467
553.500	358.527	80.001	19.997	103.875	19.778	28.451	0.498
554.000	358.791	80.009	19.989	103.873	19.775	28.670	0.478
554.500	359.073	80.008	19.993	103.873	19.779	28.365	0.506
555.000	359.300	80.001	19.987	103.873	19.780	28.332	0.528
555.500	359.570	80.004	19.987	103.876	19.779	28.362	0.503
556.000	359.825	80.004	19.994	103.874	19.777	28.527	0.511
556.500	360.058	80.005	19.998	103.875	19.778	28.431	0.506
557.000	360.310	80.002	19.995	103.871	19.775	28.669	0.486
557.500	360.565	79.997	19.990	103.870	19.777	28.484	0.496
558.000	360.802	80.006	19.991	103.868	19.778	28.428	0.499
558.500	361.085	80.011	19.993	103.870	19.781	28.265	0.506
559.000	361.325	80.008	19.994	103.872	19.778	28.470	0.522
559.500	361.553	80.000	19.998	103.874	19.779	28.402	0.496
560.000	361.829	80.008	19.993	103.871	19.776	28.565	0.486
560.500	362.086	79.997	19.993	103.873	19.778	28.412	0.519
561.000	362.346	80.004	19.993	103.872	19.777	28.542	0.525
561.500	362.606	80.012	19.996	103.873	19.776	28.611	0.518
562.000	362.828	79.994	19.994	103.876	19.778	28.452	0.501
562.500	363.087	80.006	19.991	103.881	19.780	28.293	0.482
563.000	363.345	80.000	19.999	103.882	19.778	28.450	0.499
563.500	363.586	80.005	19.994	103.882	19.775	28.678	0.508
564.000	363.845	80.005	19.996	103.881	19.776	28.597	0.499
564.500	364.101	80.009	19.990	103.877	19.774	28.744	0.508
565.000	364.329	80.003	19.994	103.877	19.775	28.684	0.500
565.500	364.606	80.004	19.991	103.877	19.777	28.511	0.494
566.000	364.802	80.011	19.993	103.878	19.775	28.674	0.489
566.500	365.089	80.002	19.992	103.881	19.779	28.387	0.478
567.000	365.346	80.005	19.994	103.884	19.776	28.562	0.514
567.500	365.560	80.004	19.995	103.884	19.778	28.440	0.508
568.000	365.812	80.009	19.992	103.883	19.777	28.481	0.468
568.500	366.103	80.007	19.994	103.883	19.779	28.389	0.504
569.000	366.339	80.002	20.000	103.881	19.778	28.442	0.535
569.500	366.599	80.002	19.998	103.877	19.776	28.577	0.512
570.000	366.888	80.011	19.984	103.874	19.775	28.643	0.522
570.500	367.065	80.008	19.993	103.878	19.780	28.316	0.507
571.000	367.345	80.004	19.995	103.878	19.780	28.332	0.461
571.500	367.625	80.003	19.989	103.880	19.779	28.374	0.509
572.000	367.866	80.002	19.997	103.882	19.783	28.082	0.540
572.500	368.150	80.010	19.994	103.882	19.783	28.116	0.523
573.000	368.395	79.995	19.995	103.880	19.777	28.491	0.527
573.500	368.616	80.013	19.992	103.879	19.779	28.382	0.498
574.000	368.879	79.996	19.995	103.879	19.781	28.208	0.475
574.500	369.137	80.008	19.992	103.879	19.780	28.328	0.502
575.000	369.366	79.985	19.998	103.881	19.785	27.935	0.504
575.500	369.622	80.004	19.993	103.878	19.783	28.112	0.486
576.000	369.864	79.999	19.998	103.878	19.781	28.232	0.492
576.500	370.117	80.006	19.994	103.874	19.784	28.017	0.496
577.000	370.408	80.021	19.989	103.872	19.783	28.066	0.519
577.500	370.621	80.012	19.989	103.872	19.783	28.057	0.524
578.000	370.906	79.992	19.996	103.876	19.780	28.282	0.501
578.500	371.104	79.991	19.993	103.872	19.787	27.802	0.490
579.000	371.338	80.000	19.995	103.874	19.786	27.877	0.457
579.500	371.643	80.015	19.994	103.873	19.789	27.676	0.486
580.000	371.880	80.002	19.993	103.873	19.785	27.916	0.540
580.500	372.144	80.012	19.995	103.872	19.785	27.985	0.522
581.000	372.383	80.003	19.999	103.873	19.786	27.861	0.502
581.500	372.665	80.000	19.995	103.870	19.786	27.900	0.512
582.000	372.864	80.001	19.997	103.871	19.787	27.832	0.501
582.500	373.189	80.003	19.993	103.869	19.788	27.730	0.503
583.000	373.427	80.009	19.995	103.866	19.790	27.605	0.544
583.500	373.688	80.009	19.992	103.869	19.790	27.586	0.531
584.000	373.936	80.009	19.991	103.874	19.792	27.489	0.503
584.500	374.211	80.006	19.995	103.876	19.794	27.348	0.516
585.000	374.437	80.005	19.993	103.876	19.792	27.456	0.513
585.500	374.727	80.005	19.993	103.877	19.794	27.333	0.509
586.000	374.942	80.003	19.997	103.877	19.792	27.471	0.510
586.500	375.210	80.001	19.996	103.873	19.793	27.371	0.494
587.000	375.450	80.003	19.993	103.871	19.792	27.442	0.496
587.500	375.718	79.996	19.993	103.872	19.795	27.264	0.508
588.000	375.976	80.005	19.994	103.872	19.796	27.188	0.517
588.500	376.198	79.998	19.993	103.872	19.800	26.904	0.503
589.000	376.465	80.004	19.996	103.874	19.799	26.992	0.484
589.500	376.738	80.004	19.997	103.878	19.800	26.909	0.515
590.000	376.947	80.000	19.997	103.879	19.798	26.999	0.511
590.500	377.206	80.003	19.994	103.881	19.802	26.714	0.475
591.000	377.487	80.007	19.993	103.881	19.801	26.783	0.504
591.500	377.708	79.996	20.000	103.880	19.799	26.978	0.521
592.000	377.977	80.006	19.994	103.880	19.800	26.888	0.496
592.500	378.234	80.010	19.995	103.880	19.802	26.766	0.508
593.000	378.511	80.008	19.996	103.879	19.800	26.897	0.530
593.500	378.760	80.008	19.993	103.880	19.804	26.596	0.530
594.000	379.013	79.994	19.993	103.880	19.804	26.630	0.514
594.500	379.281	79.998	19.996	103.879	19.803	26.653	0.512
595.000	379.480	80.002	19.998	103.883	19.805	26.522	0.494
595.500	379.772	79.999	19.994	103.881	19.806	26.457	0.479
596.000	380.020	80.004	19.995	103.878	19.805	26.508	0.516
596.500	380.269	80.008	19.992	103.876	19.807	26.420	0.518
597.000	380.520	80.003	19.995	103.876	19.808	26.325	0.498
597.500	380.779	80.003	19.996	103.872	19.809	26.251	0.505
598.000	381.053	80.006	19.995	103.874	19.808	26.328	0.522
598.500	381.307	80.006	19.997	103.874	19.807	26.404	0.531
599.000	381.506	80.001	19.996	103.876	19.809	26.223	0.490
599.500	381.789	79.998	19.995	103.874	19.808	26.328	0.468
600.000	382.054	79.999	19.998	103.873	19.811	26.104	0.515
600.500	382.285	80.004	19.996	103.870	19.808	26.301	0.522
601.000	382.539	79.998	19.997	103.869	19.808	26.313	0.491
601.500	382.813	79.993	20.000	103.866	19.809	26.279	0.507
602.000	383.069	79.995	20.000	103.866	19.808	26.319	0.529
602.500	383.374	80.009	19.989	103.863	19.810	26.163	0.545
603.000	383.608	80.012	19.994	103.866	19.810	26.213	0.550
603.500	383.820	80.003	19.999	103.868	19.811	26.096	0.493
604.000	384.115	80.003	19.995	103.870	19.808	26.291	0.477
604.500	384.361	80.003	19.995	103.870	19.810	26.185	0.524
605.000	384.621	80.006	19.994	103.872	19.811	26.086	0.524
605.500	384.869	80.006	19.996	103.869	19.811	26.131	0.507
606.000	385.110	80.007	19.996	103.868	19.814	25.865	0.499
606.500	385.388	80.008	19.993	103.869	19.812	26.053	0.504
607.000	385.629	79.996	19.995	103.871	19.812	26.026	0.519
607.500	385.915	80.012	19.988	103.870	19.810	26.187	0.523
608.000	386.181	80.010	19.992	103.873	19.812	26.055	0.540
608.500	386.389	80.007	19.996	103.875	19.812	26.042	0.513
609.000	386.657	80.009	19.994	103.875	19.813	25.953	0.475
609.500	386.914	80.010	19.993	103.875	19.811	26.096	0.500
610.000	387.142	80.009	19.994	103.877	19.813	25.943	0.505
610.500	387.399	80.001	19.995	103.875	19.812	26.051	0.485
611.000	387.695	80.001	19.994	103.873	19.812	26.005	0.520
611.500	387.929	80.011	19.994	103.877	19.815	25.810	0.542
612.000	388.176	80.003	19.993	103.879	19.812	26.034	0.505
612.500	388.446	80.005	19.994	103.876	19.816	25.787	0.499
613.000	388.723	80.007	19.992	103.872	19.814	25.887	0.532
613.500	388.942	80.004	19.993	103.874	19.811	26.128	0.522
614.000	389.191	80.010	19.992	103.870	19.814	25.898	0.481
614.500	389.458	80.004	19.997	103.870	19.815	25.852	0.491
615.000	389.697	80.007	19.994	103.870	19.814	25.901	0.511
615.500	389.962	80.005	19.994	103.873	19.813	25.950	0.505
616.000	390.214	80.005	19.990	103.870	19.812	26.005	0.511
616.500	390.471	80.007	19.997	103.870	19.810	26.152	0.513
617.000	390.709	80.011	19.990	103.867	19.816	25.761	0.502
617.500	390.954	80.005	19.995	103.870	19.814	25.884	0.489
618.000	391.215	80.001	19.994	103.871	19.816	25.758	0.495
618.500	391.457	80.005	19.993	103.873	19.813	25.983	0.504
619.000	391.756	80.007	19.993	103.871	19.812	26.053	0.522
619.500	391.986	80.002	19.997	103.872	19.813	25.934	0.535
620.000	392.255	80.000	19.999	103.869	19.811	26.078	0.514
620.500	392.536	80.008	19.991	103.869	19.812	26.041	0.524
621.000	392.752	80.001	19.999	103.870	19.813	25.975	0.523
621.500	393.015	80.006	19.991	103.870	19.814	25.893	0.487
622.000	393.283	80.007	19.991	103.868	19.813	25.965	0.505
622.500	393.500	80.010	19.992	103.866	19.814	25.886	0.508
623.000	393.806	80.003	19.994	103.863	19.812	26.022	0.504
623.500	394.037	80.004	19.993	103.862	19.813	25.987	0.530
624.000	394.284	80.001	19.996	103.864	19.815	25.816	0.508
624.500	394.569	80.004	19.994	103.865	19.812	26.056	0.505
625.000	394.793	80.006	19.996	103.869	19.812	26.019	0.520
625.500	395.114	80.005	19.992	103.872	19.814	25.869	0.527
626.000	395.357	80.008	19.994	103.873	19.814	25.858	0.554
626.500	395.571	80.008	19.993	103.872	19.815	25.844	0.510
627.000	395.885	80.005	19.995	103.873	19.816	25.776	0.492
627.500	396.106	80.005	19.994	103.875	19.818	25.620	0.532
628.000	396.373	80.008	19.995	103.875	19.815	25.811	0.512
628.500	396.625	80.014	19.993	103.874	19.815	25.824	0.504
629.000	396.863	80.005	19.994	103.871	19.815	25.826	0.504
629.500	397.102	80.005	19.992	103.870	19.815	25.831	0.484
630.000	397.389	80.009	19.994	103.869	19.815	25.803	0.502
630.500	397.606	80.003	19.998	103.869	19.817	25.649	0.515
631.000	397.895	80.010	19.993	103.868	19.816	25.771	0.505
631.500	398.142	80.007	19.992	103.868	19.817	25.685	0.521
632.000	398.377	80.009	19.992	103.870	19.816	25.736	0.509
632.500	398.636	80.003	19.993	103.869	19.815	25.790	0.489
633.000	398.901	80.002	19.993	103.869	19.817	25.708	0.509
633.500	399.122	80.006	19.997	103.866	19.819	25.545	0.504
634.000	399.412	80.008	19.990	103.862	19.814	25.894	0.498
634.500	399.652	80.010	19.987	103.855	19.818	25.607	0.521
635.000	399.931	80.012	19.993	103.853	19.816	25.747	0.525
635.500	400.160	79.996	19.994	103.851	19.819	25.557	0.514
636.000	400.411	80.006	19.994	103.852	19.818	25.574	0.494
636.500	400.661	80.006	19.991	103.854	19.822	25.358	0.491
637.000	400.938	80.005	19.995	103.858	19.820	25.478	0.514
637.500	401.213	80.011	19.987	103.856	19.819	25.538	0.540
638.000	401.407	80.012	19.990	103.858	19.823	25.248	0.510
638.500	401.713	80.004	19.989	103.858	19.822	25.360	0.484
639.000	401.920	80.002	19.994	103.858	19.821	25.401	0.507
639.500	402.170	79.996	19.994	103.854	19.824	25.178	0.485
640.000	402.435	80.008	19.994	103.852	19.820	25.442	0.486
640.500	402.678	80.008	19.990	103.851	19.822	25.328	0.511
641.000	402.916	80.006	20.001	103.853	19.824	25.191	0.494
641.500	403.231	80.007	19.994	103.848	19.825	25.150	0.517
642.000	403.440	80.008	19.989	103.851	19.824	25.196	0.538
642.500	403.717	80.006	19.993	103.852	19.826	25.027	0.505
643.000	403.950	80.006	19.992	103.847	19.824	25.164	0.498
643.500	404.213	79.998	19.997	103.843	19.825	25.097	0.503
644.000	404.472	80.008	19.994	103.850	19.830	24.787	0.508
644.500	404.730	80.009	19.993	103.846	19.824	25.211	0.520
645.000	404.969	80.008	19.989	103.843	19.827	24.961	0.507
645.500	405.234	80.006	19.991	103.843	19.827	24.948	0.500
646.000	405.476	80.011	19.993	103.843	19.825	25.151	0.505
646.500	405.721	80.006	19.990	103.839	19.828	24.875	0.497
647.000	405.982	80.008	19.992	103.839	19.828	24.878	0.497
647.500	406.217	80.003	19.995	103.841	19.830	24.760	0.501
648.000	406.473	80.000	19.996	103.846	19.830	24.755	0.493
648.500	406.739	79.999	19.992	103.851	19.829	24.796	0.506
649.000	406.951	79.996	19.999	103.853	19.834	24.453	0.500
649.500	407.235	80.006	19.994	103.850	19.832	24.603	0.487
650.000	407.502	79.997	19.994	103.847	19.832	24.647	0.524
650.500	407.775	80.007	19.991	103.842	19.835	24.410	0.545
651.000	408.039	80.016	19.993	103.840	19.836	24.352	0.539
651.500	408.253	80.007	19.993	103.845	19.831	24.660	0.508
652.000	408.493	80.005	19.993	103.855	19.835	24.386	0.466
652.500	408.799	80.011	19.987	103.861	19.835	24.423	0.500
653.000	409.035	80.002	19.994	103.866	19.839	24.133	0.544
653.500	409.302	80.011	19.993	103.862	19.837	24.281	0.523
654.000	409.532	80.006	19.987	103.856	19.839	24.091	0.500
654.500	409.772	79.996	20.002	103.854	19.841	24.003	0.483
655.000	410.024	80.002	19.996	103.854	19.841	23.991	0.481
655.500	410.295	80.008	19.993	103.855	19.842	23.918	0.508
656.000	410.564	80.004	19.994	103.863	19.843	23.865	0.531
656.500	410.828	80.003	19.996	103.865	19.841	24.000	0.536
657.000	411.095	80.005	19.994	103.867	19.845	23.718	0.532
657.500	411.348	80.008	19.992	103.863	19.845	23.725	0.525
658.000	411.562	79.998	20.006	103.859	19.845	23.680	0.494
658.500	411.825	80.005	19.995	103.849	19.845	23.707	0.472
659.000	412.076	80.002	19.997	103.846	19.848	23.448	0.495
659.500	412.316	80.005	19.997	103.843	19.847	23.533	0.502
660.000	412.574	80.008	19.994	103.840	19.849	23.381	0.495
660.500	412.796	80.003	19.995	103.840	19.850	23.379	0.489
661.000	413.097	80.005	19.993	103.842	19.851	23.281	0.502
661.500	413.339	80.000	19.996	103.840	19.850	23.335	0.533
662.000	413.555	80.003	19.992	103.841	19.849	23.397	0.501
662.500	413.821	79.997	19.994	103.846	19.851	23.240	0.470
663.000	414.066	80.005	19.995	103.846	19.853	23.147	0.496
663.500	414.329	80.005	19.994	103.847	19.853	23.155	0.509
664.000	414.563	80.008	19.993	103.850	19.854	23.060	0.502
664.500	414.832	80.003	19.990	103.849	19.853	23.123	0.500
665.000	415.093	80.014	19.994	103.844	19.853	23.103	0.517
665.500	415.335	80.003	19.994	103.844	19.853	23.095	0.517
666.000	415.560	80.001	19.997	103.844	19.855	22.996	0.485
666.500	415.833	80.008	19.990	103.840	19.856	22.937	0.482
667.000	416.056	80.003	19.993	103.840	19.855	23.003	0.497
667.500	416.303	80.008	19.992	103.840	19.855	23.016	0.483
668.000	416.575	80.004	19.998	103.838	19.856	22.926	0.494
668.500	416.815	79.995	19.999	103.836	19.857	22.873	0.515
669.000	417.070	80.001	19.995	103.834	19.858	22.758	0.504
669.500	417.337	80.006	19.994	103.832	19.859	22.692	0.509
670.000	417.631	80.004	19.993	103.834	19.861	22.561	0.541
670.500	417.862	80.004	19.993	103.838	19.862	22.504	0.543
671.000	418.114	80.004	19.994	103.843	19.859	22.721	0.504
671.500	418.356	80.003	19.991	103.849	19.860	22.643	0.489
672.000	418.585	79.995	20.009	103.850	19.863	22.423	0.482
672.500	418.862	80.004	19.989	103.846	19.864	22.359	0.489
673.000	419.111	80.003	19.995	103.843	19.862	22.479	0.516
673.500	419.365	80.002	19.994	103.839	19.863	22.414	0.514
674.000	419.621	80.007	19.991	103.838	19.866	22.218	0.506
674.500	419.857	80.002	19.992	103.837	19.864	22.366	0.501
675.000	420.126	80.003	19.994	103.840	19.864	22.362	0.498
675.500	420.367	80.003	19.995	103.840	19.866	22.193	0.507
676.000	420.632	80.004	19.992	103.841	19.866	22.181	0.508
676.500	420.856	80.004	19.993	103.841	19.866	22.203	0.498
677.000	421.124	80.003	19.994	103.840	19.869	22.008	0.491
677.500	421.391	80.002	19.996	103.840	19.872	21.784	0.514
678.000	421.647	80.003	19.995	103.838	19.870	21.944	0.529
678.500	421.888	80.003	19.998	103.837	19.870	21.960	0.510
679.000	422.118	80.001	19.994	103.835	19.867	22.115	0.484
679.500	422.377	80.003	19.997	103.835	19.870	21.924	0.480
680.000	422.636	80.008	19.993	103.834	19.871	21.860	0.503
680.500	422.862	80.006	19.995	103.836	19.872	21.760	0.502
681.000	423.114	80.002	19.999	103.837	19.876	21.509	0.482
681.500	423.376	80.005	19.994	103.836	19.875	21.602	0.496
682.000	423.597	80.005	19.993	103.836	19.876	21.533	0.498
682.500	423.873	80.005	19.997	103.838	19.874	21.627	0.490
683.000	424.111	80.005	19.994	103.839	19.874	21.644	0.505
683.500	424.359	80.003	19.996	103.842	19.873	21.696	0.500
684.000	424.642	80.013	19.990	103.843	19.875	21.543	0.509
684.500	424.900	80.000	19.998	103.844	19.879	21.301	0.537
685.000	425.136	79.996	19.997	103.842	19.879	21.324	0.518
685.500	425.415	80.004	19.993	103.840	19.876	21.502	0.504
686.000	425.644	80.007	19.992	103.838	19.879	21.320	0.512
686.500	425.879	80.007	19.993	103.842	19.874	21.661	0.486
687.000	426.143	80.007	19.995	103.841	19.878	21.395	0.481
687.500	426.403	80.004	19.991	103.844	19.878	21.327	0.511
688.000	426.648	80.005	19.998	103.842	19.880	21.211	0.515
688.500	426.911	80.003	19.995	103.841	19.878	21.388	0.507
689.000	427.162	80.005	19.993	103.837	19.878	21.388	0.511
689.500	427.399	80.006	20.001	103.838	19.879	21.292	0.501
690.000	427.669	80.009	19.991	103.835	19.882	21.059	0.497
690.500	427.893	80.004	19.996	103.836	19.881	21.113	0.501
691.000	428.188	80.005	19.994	103.836	19.881	21.137	0.506
691.500	428.458	80.008	19.997	103.834	19.883	21.003	0.542
692.000	428.705	80.012	19.989	103.832	19.885	20.872	0.541
692.500	428.952	80.002	19.994	103.836	19.883	21.030	0.505
693.000	429.235	80.003	19.997	103.834	19.880	21.195	0.512
693.500	429.476	80.017	19.991	103.834	19.884	20.925	0.528
694.000	429.738	79.999	19.994	103.839	19.884	20.959	0.513
694.500	429.943	79.992	19.998	103.839	19.883	21.023	0.485
695.000	430.208	80.007	19.999	103.835	19.884	20.963	0.469
695.500	430.456	80.015	19.989	103.835	19.883	21.008	0.491
696.000	430.708	80.004	19.993	103.836	19.886	20.760	0.506
696.500	430.996	80.005	19.993	103.833	19.884	20.960	0.520
697.000	431.183	80.004	19.993	103.835	19.888	20.685	0.508
697.500	431.465	80.005	19.990	103.838	19.889	20.572	0.472
698.000	431.739	80.003	19.994	103.840	19.888	20.625	0.512
698.500	431.982	80.005	19.996	103.839	19.891	20.420	0.536
699.000	432.227	80.001	19.998	103.838	19.892	20.404	0.502
699.500	432.504	80.004	19.996	103.834	19.889	20.590	0.505
700.000	432.750	80.002	19.998	103.833	19.887	20.706	0.523
700.500	432.989	80.004	19.998	103.831	19.890	20.536	0.504
701.000	433.253	80.006	19.994	103.830	19.891	20.430	0.494
701.500	433.511	80.005	19.993	103.836	19.890	20.516	0.513
702.000	433.770	80.006	19.994	103.839	19.892	20.338	0.520
702.500	434.044	80.006	19.995	103.839	19.894	20.260	0.525
703.000	434.285	80.004	19.992	103.838	19.894	20.239	0.524
703.500	434.572	80.007	19.994	103.840	19.891	20.429	0.521
704.000	434.846	80.008	19.994	103.834	19.890	20.519	0.544
704.500	435.095	80.013	19.995	103.832	19.893	20.320	0.542
705.000	435.331	80.007	19.993	103.834	19.894	20.248	0.504
705.500	435.588	80.009	19.990	103.834	19.892	20.362	0.489
706.000	435.847	80.015	19.986	103.835	19.894	20.232	0.504
706.500	436.083	80.005	19.994	103.838	19.892	20.351	0.505
707.000	436.347	80.008	19.986	103.839	19.893	20.275	0.497
707.500	436.612	80.005	19.992	103.841	19.892	20.392	0.515
708.000	436.859	80.007	19.991	103.845	19.894	20.245	0.521
708.500	437.119	80.009	19.992	103.845	19.898	19.952	0.510
709.000	437.370	80.007	19.991	103.847	19.895	20.141	0.509
709.500	437.617	80.007	19.991	103.849	19.895	20.146	0.505
710.000	437.899	80.007	19.991	103.848	19.896	20.107	0.513
710.500	438.143	80.005	19.995	103.849	19.897	20.013	0.527
711.000	438.430	79.998	20.005	103.849	19.895	20.158	0.529
711.500	438.660	80.002	19.994	103.842	19.897	19.986	0.524
712.000	438.947	80.008	19.989	103.839	19.897	20.050	0.517
712.500	439.222	80.010	19.993	103.837	19.897	20.029	0.540
713.000	439.446	80.006	19.992	103.835	19.898	19.974	0.531
713.500	439.712	80.005	19.989	103.839	19.897	20.009	0.495
714.000	439.966	80.012	19.988	103.848	19.895	20.181	0.505
714.500	440.231	80.006	19.993	103.855	19.896	20.082	0.519
715.000	440.485	80.008	19.994	103.862	19.898	19.959	0.519
715.500	440.746	80.008	19.994	103.867	19.899	19.894	0.516
716.000	441.012	80.003	19.996	103.865	19.898	19.920	0.521
716.500	441.283	80.008	19.995	103.859	19.899	19.899	0.532
717.000	441.549	80.010	19.993	103.855	19.900	19.797	0.537
717.500	441.753	80.007	19.994	103.852	19.901	19.754	0.503
718.000	441.998	80.006	19.995	103.847	19.900	19.818	0.460
718.500	442.261	80.007	19.995	103.845	19.902	19.685	0.479
719.000	442.509	80.010	19.992	103.844	19.899	19.843	0.510
719.500	442.743	80.005	19.994	103.841	19.898	19.920	0.497
720.000	443.028	80.009	19.990	103.837	19.899	19.907	0.501
720.500	443.283	80.004	19.994	103.836	19.899	19.878	0.529
721.000	443.539	80.004	19.995	103.833	19.899	19.890	0.525
721.500	443.765	80.005	19.993	103.834	19.899	19.857	0.496
722.000	444.023	80.001	19.994	103.837	19.898	19.942	0.483
722.500	444.261	80.003	19.995	103.836	19.895	20.175	0.490
723.000	444.531	80.005	19.995	103.834	19.896	20.094	0.502
723.500	444.799	80.005	19.993	103.836	19.896	20.099	0.523
724.000	445.059	80.003	19.993	103.836	19.895	20.176	0.533
724.500	445.298	80.004	19.999	103.833	19.897	20.036	0.513
725.000	445.577	80.006	19.990	103.834	19.893	20.271	0.509
725.500	445.840	80.008	19.995	103.836	19.895	20.160	0.530
726.000	446.082	80.002	19.994	103.835	19.895	20.129	0.523
726.500	446.333	80.007	19.993	103.835	19.893	20.274	0.499
727.000	446.576	80.006	19.994	103.837	19.894	20.240	0.493
727.500	446.832	80.010	19.997	103.839	19.894	20.219	0.496
728.000	447.079	80.002	19.995	103.840	19.891	20.415	0.501
728.500	447.320	79.996	19.994	103.837	19.894	20.250	0.496
729.000	447.585	80.006	19.993	103.836	19.891	20.455	0.497
729.500	447.859	80.003	19.994	103.834	19.892	20.337	0.522
730.000	448.111	80.005	19.994	103.832	19.890	20.493	0.532
730.500	448.375	80.003	19.994	103.830	19.890	20.509	0.521
731.000	448.633	80.004	19.994	103.831	19.889	20.598	0.519
731.500	448.925	80.005	19.991	103.832	19.890	20.539	0.536
732.000	449.175	80.003	19.994	103.833	19.887	20.735	0.546
732.500	449.398	80.003	19.997	103.833	19.888	20.657	0.508
733.000	449.640	80.004	19.994	103.832	19.887	20.731	0.469
733.500	449.923	80.004	19.993	103.832	19.887	20.694	0.495
734.000	450.176	80.005	19.993	103.837	19.886	20.817	0.530
734.500	450.447	80.004	19.994	103.845	19.883	20.997	0.530
735.000	450.718	80.006	19.994	103.848	19.884	20.948	0.533
735.500	450.977	80.005	19.993	103.852	19.883	21.024	0.536
736.000	451.189	80.002	19.994	103.853	19.886	20.766	0.500
736.500	451.432	80.002	19.993	103.848	19.884	20.911	0.463
737.000	451.746	80.002	19.994	103.839	19.882	21.058	0.506
737.500	451.963	80.006	19.994	103.838	19.879	21.292	0.543
738.000	452.238	80.006	19.994	103.838	19.882	21.103	0.511
738.500	452.483	80.004	19.993	103.839	19.878	21.364	0.506
739.000	452.753	80.003	19.991	103.842	19.881	21.139	0.517
739.500	453.005	80.003	19.994	103.847	19.881	21.164	0.518
740.000	453.273	80.004	19.994	103.845	19.883	21.011	0.521
740.500	453.485	80.005	19.992	103.844	19.878	21.361	0.500
741.000	453.775	80.003	19.992	103.842	19.878	21.345	0.492
741.500	454.009	80.005	19.994	103.841	19.877	21.452	0.513
742.000	454.283	80.007	19.993	103.837	19.872	21.760	0.516
742.500	454.539	80.004	19.997	103.838	19.872	21.790	0.519
743.000	454.764	80.000	19.992	103.839	19.873	21.748	0.505
743.500	455.040	80.006	19.993	103.839	19.874	21.624	0.491
744.000	455.308	80.008	19.992	103.840	19.873	21.742	0.523
744.500	455.582	80.009	19.990	103.839	19.871	21.876	0.544
745.000	455.811	80.002	19.997	103.840	19.872	21.816	0.523
745.500	456.062	80.009	19.990	103.839	19.870	21.923	0.491
746.000	456.323	80.006	19.991	103.840	19.872	21.779	0.496
746.500	456.566	80.005	19.994	103.840	19.871	21.831	0.508
747.000	456.865	80.005	19.993	103.840	19.871	21.874	0.523
747.500	457.095	80.012	19.994	103.842	19.867	22.130	0.535
748.000	457.356	80.006	19.996	103.844	19.870	21.941	0.510
748.500	457.610	80.003	19.992	103.842	19.870	21.910	0.503
749.000	457.844	80.000	19.995	103.842	19.868	22.068	0.502
749.500	458.141	80.003	19.992	103.847	19.865	22.254	0.509
750.001	458.390	80.008	19.991	103.849	19.868	22.098	0.539
750.500	458.635	80.003	19.996	103.854	19.866	22.226	0.520
751.000	458.896	80.003	19.993	103.860	19.868	22.052	0.500
751.500	459.150	80.003	19.990	103.864	19.865	22.280	0.511
752.000	459.414	80.005	19.990	103.860	19.864	22.323	0.516
752.500	459.683	80.004	19.994	103.857	19.863	22.430	0.525
753.000	459.945	80.000	19.997	103.852	19.862	22.463	0.532
753.500	460.207	80.004	19.993	103.847	19.864	22.324	0.527
754.000	460.462	80.005	19.992	103.842	19.858	22.774	0.520
754.500	460.692	80.009	19.990	103.842	19.858	22.763	0.501
755.000	460.979	80.004	19.994	103.841	19.858	22.762	0.501
755.500	461.208	80.002	19.992	103.839	19.859	22.680	0.517
756.000	461.458	80.005	19.990	103.840	19.856	22.895	0.497
756.500	461.725	79.999	19.992	103.841	19.861	22.602	0.498
757.000	461.995	79.998	19.994	103.841	19.856	22.952	0.527
757.500	462.233	80.007	19.995	103.840	19.857	22.865	0.523
758.000	462.482	80.005	19.992	103.840	19.857	22.840	0.498
758.500	462.760	80.007	19.993	103.841	19.857	22.871	0.507
759.000	463.009	80.006	19.993	103.842	19.854	23.057	0.527
759.500	463.283	80.003	19.994	103.841	19.853	23.164	0.525
760.000	463.523	80.007	19.992	103.841	19.851	23.239	0.518
760.500	463.769	80.005	19.993	103.842	19.853	23.117	0.500
761.000	464.018	80.004	19.993	103.843	19.851	23.281	0.491
761.500	464.281	80.004	19.994	103.843	19.850	23.330	0.504
762.000	464.511	80.005	19.995	103.842	19.851	23.251	0.503
762.500	464.788	80.006	19.995	103.846	19.850	23.308	0.500
763.000	465.026	80.005	19.994	103.846	19.850	23.364	0.510
763.500	465.298	80.006	19.995	103.843	19.848	23.482	0.512
764.000	465.555	80.004	19.995	103.843	19.849	23.384	0.520
764.500	465.799	80.007	19.994	103.842	19.848	23.480	0.515
765.000	466.054	80.011	19.990	103.838	19.849	23.416	0.500
765.500	466.290	80.003	19.998	103.842	19.848	23.488	0.495
766.000	466.557	80.004	19.999	103.846	19.848	23.473	0.497
766.500	466.812	80.005	19.996	103.851	19.848	23.468	0.512
767.000	467.102	80.005	19.995	103.854	19.846	23.660	0.534
767.500	467.366	80.008	19.991	103.856	19.846	23.651	0.550
768.000	467.624	80.001	19.989	103.853	19.841	23.977	0.538
768.500	467.885	80.000	19.994	103.850	19.842	23.913	0.521
769.000	468.125	80.004	19.995	103.845	19.843	23.820	0.510
769.500	468.372	80.007	19.997	103.842	19.845	23.687	0.494
770.000	468.628	80.009	19.989	103.842	19.841	24.000	0.495
770.500	468.883	80.007	19.997	103.841	19.842	23.939	0.507
771.000	469.130	80.010	19.989	103.837	19.840	24.038	0.506
771.500	469.372	80.009	19.993	103.839	19.841	23.950	0.496
772.000	469.663	80.003	19.991	103.841	19.838	24.206	0.511
772.500	469.916	80.006	19.999	103.840	19.840	24.038	0.538
773.000	470.168	80.000	19.998	103.837	19.840	24.070	0.525
773.500	470.449	80.006	19.991	103.837	19.839	24.153	0.519
774.000	470.674	80.001	19.993	103.838	19.841	23.970	0.519
774.500	470.909	80.014	19.989	103.840	19.841	23.983	0.483
775.000	471.172	80.007	19.994	103.845	19.839	24.114	0.479
775.500	471.435	80.004	19.999	103.849	19.840	24.066	0.512
776.000	471.697	80.007	19.995	103.851	19.840	24.070	0.526
776.500	471.940	80.004	19.996	103.850	19.839	24.093	0.515
777.000	472.223	80.006	19.990	103.850	19.837	24.263	0.516
777.500	472.424	80.000	19.996	103.845	19.839	24.132	0.506
778.000	472.676	80.007	19.992	103.842	19.838	24.209	0.469
778.500	472.996	80.009	19.992	103.845	19.837	24.241	0.512
779.000	473.194	80.003	19.993	103.849	19.837	24.258	0.545
779.500	473.487	80.007	19.989	103.852	19.838	24.186	0.505
780.000	473.737	80.008	19.990	103.857	19.838	24.177	0.517
780.500	473.992	80.004	20.001	103.865	19.834	24.473	0.524
781.000	474.244	80.007	19.995	103.866	19.836	24.348	0.506
781.500	474.497	80.003	19.997	103.866	19.837	24.257	0.506
782.000	474.752	80.004	19.992	103.862	19.834	24.457	0.506
782.500	475.021	80.003	19.995	103.859	19.832	24.595	0.516
783.000	475.299	80.005	19.996	103.852	19.832	24.605	0.535
783.500	475.515	80.005	19.994	103.854	19.832	24.580	0.520
784.000	475.792	80.004	19.993	103.855	19.833	24.554	0.493
784.500	476.022	80.007	19.997	103.860	19.836	24.333	0.500
785.000	476.263	80.000	20.000	103.864	19.837	24.285	0.490
785.500	476.551	80.005	19.995	103.868	19.836	24.351	0.500
786.000	476.802	80.003	19.995	103.868	19.833	24.525	0.534
786.500	477.072	80.007	19.992	103.862	19.837	24.259	0.530
787.000	477.336	80.007	19.991	103.857	19.835	24.400	0.528
787.500	477.562	80.008	19.996	103.855	19.835	24.377	0.512
788.000	477.832	80.007	19.996	103.855	19.836	24.322	0.493
788.500	478.092	80.004	19.996	103.854	19.837	24.291	0.513
789.000	478.336	80.001	19.997	103.858	19.835	24.407	0.517
789.500	478.621	80.009	19.991	103.860	19.836	24.303	0.517
790.000	478.879	80.003	20.000	103.859	19.833	24.547	0.536
790.500	479.130	80.005	19.994	103.851	19.837	24.256	0.526
791.000	479.340	80.006	19.995	103.846	19.835	24.416	0.485
791.500	479.621	80.006	19.996	103.840	19.834	24.449	0.476
792.000	479.885	80.008	19.995	103.835	19.837	24.290	0.518
792.500	480.096	80.005	19.996	103.830	19.838	24.222	0.510
793.000	480.389	80.009	19.994	103.831	19.839	24.115	0.489
793.500	480.615	80.007	19.996	103.831	19.837	24.244	0.512
794.000	480.866	80.005	19.997	103.831	19.838	24.167	0.499
794.500	481.138	80.007	19.992	103.832	19.838	24.213	0.500
795.000	481.373	80.013	19.996	103.836	19.837	24.259	0.514
795.500	481.603	80.005	19.996	103.844	19.838	24.177	0.486
796.000	481.886	80.008	19.992	103.849	19.837	24.245	0.490
796.500	482.133	80.010	19.987	103.852	19.836	24.304	0.521
797.000	482.399	80.006	19.990	103.856	19.840	24.022	0.521
797.500	482.634	80.008	19.994	103.852	19.840	24.020	0.507
798.000	482.928	80.005	19.989	103.845	19.839	24.092	0.515
798.500	483.162	80.005	19.996	103.841	19.839	24.119	0.529
799.000	483.397	80.005	19.995	103.840	19.841	24.014	0.499
799.500	483.674	80.006	19.993	103.842	19.842	23.924	0.490
800.000	483.909	80.002	19.996	103.842	19.844	23.783	0.512
800.500	484.135	80.005	19.999	103.842	19.842	23.882	0.486
801.000	484.445	80.008	19.991	103.840	19.845	23.677	0.499
801.500	484.674	80.003	19.994	103.841	19.844	23.790	0.537
802.000	484.953	80.003	19.993	103.839	19.845	23.712	0.523
802.500	485.219	80.005	19.993	103.838	19.845	23.697	0.527
803.000	485.483	80.003	19.993	103.844	19.843	23.848	0.538
803.500	485.740	80.006	19.991	103.848	19.843	23.825	0.526
804.000	485.998	80.006	19.992	103.848	19.842	23.942	0.517
804.500	486.217	80.001	19.995	103.849	19.844	23.796	0.496
805.000	486.505	80.009	19.987	103.855	19.845	23.664	0.493
805.500	486.746	80.002	19.992	103.857	19.847	23.582	0.518
806.000	486.981	80.003	19.994	103.860	19.842	23.888	0.502
806.500	487.235	80.002	20.000	103.862	19.846	23.636	0.482
807.000	487.501	80.007	19.996	103.860	19.847	23.521	0.505
807.500	487.756	80.008	19.991	103.854	19.846	23.595	0.521
808.000	488.024	80.004	19.993	103.849	19.850	23.324	0.522
808.500	488.291	80.007	19.991	103.844	19.853	23.115	0.529
809.000	488.530	80.008	19.993	103.841	19.854	23.068	0.520
809.500	488.803	80.004	19.996	103.841	19.856	22.900	0.509
810.000	489.056	80.003	19.996	103.844	19.854	23.050	0.519
810.500	489.308	79.999	19.992	103.850	19.854	23.057	0.515
811.000	489.605	79.998	19.999	103.856	19.857	22.876	0.527
811.500	489.885	80.008	19.992	103.855	19.859	22.712	0.563
812.000	490.130	80.005	19.993	103.855	19.860	22.663	0.551
812.500	490.347	80.004	19.992	103.852	19.862	22.527	0.493
813.000	490.618	80.007	19.992	103.847	19.861	22.595	0.475
813.500	490.860	80.000	19.998	103.841	19.860	22.610	0.500
814.000	491.133	80.001	19.998	103.842	19.860	22.623	0.514
814.500	491.393	80.005	19.993	103.846	19.864	22.352	0.524
815.000	491.677	80.005	19.992	103.852	19.864	22.369	0.538
815.500	491.917	80.004	19.994	103.852	19.863	22.391	0.534
816.000	492.180	80.001	19.999	103.852	19.864	22.370	0.514
816.500	492.414	80.006	19.993	103.850	19.864	22.356	0.500
817.000	492.640	80.004	19.993	103.845	19.868	22.043	0.478
817.500	492.905	80.009	19.995	103.839	19.868	22.103	0.476
818.000	493.166	80.001	19.996	103.837	19.866	22.219	0.508
818.500	493.441	80.012	19.989	103.836	19.868	22.052	0.531
819.000	493.689	80.007	19.991	103.840	19.867	22.116	0.529
819.500	493.958	80.004	19.995	103.840	19.868	22.083	0.520
820.000	494.217	80.002	19.992	103.841	19.872	21.778	0.523
820.500	494.483	80.006	19.987	103.841	19.869	21.974	0.527
821.000	494.730	80.011	19.989	103.847	19.869	22.007	0.519
821.500	494.994	80.006	19.993	103.851	19.871	21.843	0.511
822.000	495.262	80.006	19.993	103.854	19.873	21.748	0.521
822.500	495.520	80.000	19.998	103.856	19.872	21.751	0.529
823.000	495.804	80.005	19.994	103.855	19.874	21.667	0.534
823.500	496.056	80.006	19.991	103.851	19.877	21.456	0.539
824.000	496.311	80.006	19.996	103.851	19.879	21.310	0.522
824.500	496.541	80.002	19.997	103.853	19.882	21.056	0.496
825.000	496.820	80.008	19.992	103.850	19.879	21.292	0.497
825.500	497.069	80.002	19.994	103.852	19.881	21.146	0.518
826.000	497.297	80.005	19.995	103.850	19.881	21.180	0.503
826.500	497.623	80.003	19.995	103.843	19.882	21.077	0.516
827.000	497.869	80.006	19.995	103.836	19.882	21.049	0.563
827.500	498.110	80.007	19.990	103.835	19.885	20.843	0.529
828.000	498.390	80.001	19.990	103.835	19.887	20.728	0.504
828.500	498.636	80.005	19.993	103.840	19.887	20.748	0.523
829.000	498.904	80.004	19.993	103.845	19.887	20.732	0.520
829.500	499.169	80.010	19.989	103.847	19.890	20.482	0.523
830.000	499.420	80.006	19.989	103.848	19.891	20.439	0.525
830.500	499.665	80.009	19.990	103.848	19.892	20.394	0.506
831.000	499.905	80.007	19.994	103.845	19.892	20.381	0.491
831.500	500.185	80.004	19.993	103.841	19.896	20.101	0.503
832.000	500.451	80.003	19.996	103.840	19.893	20.330	0.533
832.500	500.695	80.005	19.994	103.841	19.900	19.815	0.528
833.000	500.946	80.005	19.997	103.843	19.899	19.871	0.502
833.500	501.213	79.998	19.997	103.840	19.897	20.008	0.507
834.000	501.481	80.002	19.995	103.839	19.898	19.924	0.526
834.500	501.701	80.003	19.997	103.839	19.900	19.840	0.511
835.000	502.011	80.002	19.990	103.843	19.906	19.398	0.509
835.500	502.268	80.002	20.000	103.842	19.902	19.632	0.549
836.000	502.521	80.002	20.000	103.842	19.900	19.775	0.539
836.500	502.739	79.999	19.999	103.841	19.906	19.371	0.490
837.000	503.025	79.999	19.997	103.839	19.904	19.511	0.488
837.500	503.283	80.002	19.995	103.832	19.908	19.216	0.524
838.000	503.536	80.007	19.990	103.829	19.911	19.000	0.527
838.500	503.800	80.003	19.994	103.831	19.911	19.027	0.514
839.000	504.056	80.006	19.994	103.832	19.910	19.115	0.519
839.500	504.317	80.004	19.993	103.834	19.917	18.623	0.519
840.000	504.578	80.002	19.990	103.835	19.914	18.804	0.520
840.500	504.810	80.002	19.996	103.837	19.914	18.841	0.507
841.000	505.080	80.010	19.991	103.835	19.918	18.498	0.497
841.500	505.343	80.006	19.995	103.836	19.915	18.743	0.518
842.000	505.599	80.005	19.999	103.836	19.919	18.466	0.526
842.500	505.889	80.005	19.996	103.836	19.917	18.567	0.533
843.000	506.141	80.007	19.995	103.835	19.921	18.305	0.544
843.500	506.423	80.006	19.994	103.839	19.919	18.487	0.538
844.000	506.668	80.004	19.997	103.839	19.922	18.270	0.531
844.500	506.934	80.009	19.997	103.838	19.926	17.978	0.519
845.000	507.192	80.004	19.996	103.838	19.924	18.108	0.517
845.500	507.432	80.005	19.996	103.837	19.926	17.965	0.511
846.000	507.742	80.007	19.989	103.834	19.923	18.159	0.524
846.500	507.964	80.008	19.994	103.834	19.928	17.801	0.541
847.000	508.219	80.005	19.993	103.837	19.923	18.144	0.505
847.500	508.494	80.002	19.989	103.835	19.928	17.852	0.504
848.000	508.713	80.008	19.991	103.836	19.928	17.833	0.512
848.500	509.027	80.007	19.991	103.836	19.928	17.834	0.514
849.000	509.297	80.012	19.992	103.837	19.931	17.631	0.558
849.500	509.551	80.005	19.995	103.837	19.931	17.596	0.554
850.000	509.838	80.006	19.992	103.837	19.932	17.527	0.532
850.500	510.050	80.005	19.993	103.837	19.933	17.482	0.520
851.000	510.338	80.002	19.992	103.837	19.936	17.267	0.500
851.500	510.565	80.007	19.996	103.833	19.932	17.522	0.507
852.000	510.881	80.013	19.988	103.831	19.938	17.119	0.529
852.500	511.116	80.009	19.992	103.833	19.935	17.315	0.548
853.000	511.346	80.003	19.995	103.833	19.937	17.216	0.508
853.500	511.626	80.009	19.994	103.832	19.941	16.881	0.488
854.000	511.853	80.007	19.993	103.831	19.942	16.832	0.508
854.500	512.145	80.011	19.990	103.831	19.945	16.641	0.512
855.000	512.392	80.004	19.994	103.830	19.944	16.678	0.529
855.500	512.617	80.007	19.992	103.829	19.945	16.631	0.506
856.000	512.866	80.004	19.997	103.831	19.942	16.850	0.474
856.500	513.172	80.007	19.992	103.830	19.945	16.623	0.515
857.000	513.417	80.006	19.994	103.833	19.947	16.450	0.553
857.500	513.715	80.009	19.991	103.834	19.949	16.325	0.547
858.000	513.982	80.006	19.996	103.835	19.948	16.442	0.554
858.500	514.197	80.009	19.994	103.834	19.947	16.460	0.523
859.000	514.464	80.006	19.995	103.835	19.949	16.354	0.482
859.500	514.742	80.005	19.996	103.832	19.954	15.993	0.514
860.000	514.996	80.004	19.993	103.831	19.951	16.225	0.538
860.500	515.238	80.003	20.000	103.829	19.954	15.965	0.514
861.000	515.472	80.004	19.994	103.828	19.954	15.950	0.486
861.500	515.734	80.007	19.993	103.828	19.956	15.836	0.486
862.000	516.050	80.006	19.994	103.830	19.956	15.859	0.537
862.500	516.291	80.006	19.994	103.830	19.959	15.650	0.567
863.000	516.540	80.008	19.995	103.831	19.960	15.574	0.524
863.500	516.806	80.008	19.990	103.833	19.962	15.449	0.503
864.000	517.039	80.007	19.993	103.835	19.962	15.408	0.507
864.500	517.290	80.007	19.995	103.834	19.962	15.418	0.491
865.000	517.576	80.004	19.997	103.833	19.965	15.185	0.511
865.500	517.825	80.008	19.991	103.832	19.963	15.313	0.536
866.000	518.102	80.007	19.995	103.833	19.964	15.283	0.530
866.500	518.337	79.999	19.993	103.832	19.969	14.947	0.519
867.000	518.595	80.005	19.990	103.832	19.968	15.009	0.503
867.500	518.870	80.001	19.995	103.834	19.969	14.917	0.513
868.000	519.140	80.005	19.995	103.835	19.966	15.124	0.539
868.500	519.392	80.009	19.993	103.834	19.971	14.790	0.533
869.000	519.680	80.005	19.993	103.835	19.971	14.761	0.531
869.500	519.914	80.008	19.989	103.835	19.973	14.646	0.531
870.000	520.172	80.008	19.994	103.835	19.972	14.692	0.507
870.500	520.438	80.005	19.994	103.836	19.972	14.732	0.507
871.000	520.681	80.004	19.996	103.836	19.974	14.535	0.517
871.500	520.968	80.008	19.993	103.835	19.978	14.290	0.520
872.000	521.211	80.007	19.995	103.836	19.976	14.411	0.530
872.500	521.486	80.006	19.993	103.834	19.980	14.173	0.524
873.000	521.729	80.007	19.995	103.833	19.980	14.153	0.518
873.500	521.968	80.003	19.998	103.832	19.980	14.167	0.500
874.000	522.258	80.010	19.991	103.831	19.980	14.122	0.506
874.500	522.519	80.007	19.996	103.832	19.982	14.001	0.541
875.000	522.760	80.004	19.997	103.832	19.978	14.268	0.526
875.500	523.009	80.005	19.994	103.832	19.984	13.846	0.496
876.000	523.240	80.011	19.988	103.832	19.979	14.191	0.485
876.500	523.526	80.006	19.991	103.834	19.984	13.828	0.498
877.000	523.761	80.007	19.994	103.830	19.983	13.922	0.519
877.500	524.038	80.007	19.997	103.829	19.987	13.632	0.516
878.000	524.289	80.006	19.994	103.827	19.987	13.646	0.520
878.500	524.535	80.011	19.993	103.827	19.986	13.686	0.513
879.000	524.808	80.008	19.995	103.827	19.988	13.544	0.508
879.500	525.073	80.008	19.994	103.829	19.988	13.569	0.528
880.000	525.305	80.003	19.998	103.831	19.986	13.734	0.518
880.500	525.560	80.011	19.994	103.834	19.991	13.339	0.492
881.000	525.830	80.000	20.000	103.835	19.988	13.601	0.506
881.500	526.121	80.009	19.992	103.833	19.989	13.538	0.543
882.000	526.294	80.006	19.992	103.833	19.992	13.274	0.513
882.500	526.595	80.003	19.997	103.830	19.991	13.356	0.469
883.000	526.858	80.006	19.996	103.828	19.993	13.249	0.519
883.500	527.095	80.006	19.990	103.828	19.992	13.292	0.532
884.000	527.368	80.004	19.993	103.829	19.994	13.154	0.505
884.500	527.623	80.006	19.993	103.827	19.993	13.214	0.519
885.000	527.907	80.004	19.993	103.826	19.994	13.143	0.534
885.500	528.133	80.006	19.991	103.826	19.996	13.026	0.525
886.000	528.377	80.005	19.993	103.827	19.997	12.908	0.490
886.500	528.639	80.007	19.996	103.824	19.999	12.806	0.488
887.000	528.912	80.002	19.989	103.821	19.995	13.061	0.521
887.500	529.147	80.003	19.996	103.820	20.000	12.754	0.522
888.000	529.418	80.000	20.001	103.822	20.000	12.758	0.506
888.500	529.626	80.001	19.993	103.818	19.996	12.995	0.492
889.000	529.918	80.002	19.989	103.820	19.997	12.912	0.490
889.500	530.143	80.005	19.996	103.827	19.999	12.782	0.509
890.000	530.431	80.003	19.994	103.831	19.996	13.028	0.515
890.500	530.675	80.010	19.987	103.831	20.001	12.676	0.523
891.000	530.908	80.000	19.994	103.835	19.999	12.787	0.505
891.500	531.189	80.000	19.990	103.832	20.000	12.745	0.495
892.000	531.453	80.005	19.994	103.829	20.004	12.469	0.529
892.500	531.731	80.005	19.997	103.830	20.002	12.561	0.543
893.000	531.971	80.004	19.994	103.830	20.004	12.438	0.530
893.500	532.199	80.002	19.996	103.828	20.002	12.582	0.493
894.000	532.444	80.004	19.991	103.831	20.004	12.436	0.471
894.500	532.721	80.007	19.995	103.832	20.005	12.352	0.498
895.000	532.976	80.003	19.993	103.832	20.005	12.369	0.527
895.500	533.215	80.005	19.994	103.831	20.003	12.511	0.513
896.000	533.480	80.008	19.990	103.826	20.005	12.345	0.499
896.500	533.736	80.008	19.993	103.825	20.008	12.158	0.513
897.000	533.984	80.003	19.994	103.824	20.006	12.309	0.513
897.500	534.234	80.002	19.997	103.821	20.006	12.275	0.501
898.000	534.512	80.001	19.997	103.823	20.006	12.281	0.513
898.500	534.786	80.004	19.993	103.826	20.003	12.488	0.540
899.000	535.040	80.008	19.992	103.827	20.008	12.191	0.540
899.500	535.310	80.005	19.994	103.827	20.009	12.109	0.526
900.000	535.541	80.003	19.993	103.821	20.008	12.155	0.513
900.500	535.822	80.005	19.992	103.815	20.010	12.020	0.507
901.000	536.054	80.001	19.993	103.813	20.007	12.229	0.512
901.500	536.324	80.004	19.994	103.808	20.012	11.868	0.507
902.000	536.525	80.000	19.995	103.808	20.011	11.931	0.487
902.500	536.810	80.007	19.992	103.815	20.009	12.060	0.479
903.000	537.044	80.002	19.995	103.822	20.012	11.866	0.502
903.500	537.347	80.006	19.992	103.824	20.013	11.832	0.528
904.000	537.585	80.003	19.990	103.826	20.014	11.768	0.539
904.500	537.854	80.003	19.991	103.821	20.010	11.991	0.524
905.000	538.099	80.007	19.994	103.815	20.012	11.846	0.510
905.500	538.325	80.003	19.994	103.808	20.011	11.940	0.492
906.000	538.611	80.007	19.993	103.802	20.013	11.828	0.492
906.500	538.869	80.004	19.992	103.802	20.013	11.810	0.528
907.000	539.137	80.005	19.993	103.803	20.014	11.724	0.535
907.500	539.362	80.005	19.993	103.808	20.015	11.691	0.509
908.000	539.659	80.004	19.994	103.814	20.016	11.600	0.507
908.500	539.917	80.003	19.995	103.822	20.015	11.689	0.538
909.000	540.139	80.003	19.996	103.823	20.013	11.810	0.517
909.500	540.402	80.000	19.996	103.823	20.014	11.708	0.483
910.000	540.667	80.004	19.995	103.822	20.014	11.767	0.506
910.500	540.951	80.002	19.995	103.817	20.016	11.599	0.538
911.000	541.156	80.005	19.995	103.814	20.015	11.690	0.519
911.500	541.439	80.005	19.994	103.811	20.018	11.428	0.488
912.000	541.697	80.006	19.994	103.814	20.017	11.551	0.514
912.500	541.930	80.009	19.991	103.815	20.016	11.566	0.517
913.000	542.224	80.002	19.994	103.819	20.018	11.483	0.510
913.500	542.485	80.002	19.993	103.821	20.018	11.460	0.541
914.000	542.734	80.003	19.995	103.826	20.019	11.370	0.532
914.500	543.013	80.004	19.995	103.827	20.021	11.243	0.519
915.000	543.282	80.004	19.996	103.829	20.020	11.346	0.538
915.500	543.501	80.005	19.997	103.828	20.020	11.284	0.518
916.000	543.803	80.006	19.995	103.826	20.022	11.193	0.505
916.500	544.024	80.004	19.991	103.825	20.019	11.369	0.522
917.000	544.277	80.005	19.994	103.824	20.020	11.318	0.498
917.500	544.539	80.007	19.994	103.824	20.021	11.240	0.495
918.000	544.752	80.004	19.994	103.821	20.018	11.486	0.495
918.500	544.996	80.004	19.993	103.817	20.020	11.294	0.466
919.000	545.283	80.003	19.996	103.813	20.023	11.122	0.494
919.500	545.552	80.006	19.995	103.807	20.017	11.541	0.544
920.000	545.806	80.004	19.995	103.803	20.020	11.320	0.540
920.500	546.050	80.004	19.995	103.802	20.020	11.292	0.510
921.000	546.328	80.006	19.994	103.806	20.022	11.158	0.510
921.500	546.587	80.006	19.993	103.804	20.022	11.139	0.530
922.000	546.882	80.006	19.995	103.808	20.023	11.132	0.545
922.500	547.095	80.008	19.988	103.808	20.019	11.418	0.531
923.000	547.367	80.005	19.989	103.808	20.021	11.243	0.497
923.500	547.646	80.005	19.994	103.806	20.017	11.550	0.518
924.000	547.904	80.006	19.989	103.815	20.018	11.452	0.544
924.500	548.113	80.009	19.989	103.817	20.019	11.418	0.502
925.000	548.367	80.003	19.999	103.818	20.021	11.275	0.465
925.500	548.639	80.009	19.992	103.813	20.020	11.284	0.494
926.000	548.916	80.010	19.986	103.812	20.022	11.184	0.538
926.500	549.192	80.001	19.991	103.810	20.021	11.250	0.551
927.000	549.436	80.008	19.994	103.806	20.022	11.174	0.537
927.500	549.719	80.001	19.991	103.809	20.021	11.252	0.523
928.000	549.981	80.006	19.992	103.818	20.020	11.299	0.536
928.500	550.225	80.009	19.990	103.822	20.020	11.331	0.525
929.000	550.469	80.002	19.992	103.819	20.024	11.058	0.497
929.500	550.765	80.010	19.993	103.819	20.023	11.112	0.514
930.000	551.017	80.007	19.995	103.815	20.023	11.073	0.544
930.500	551.242	80.005	19.988	103.809	20.025	10.991	0.513
931.000	551.491	80.003	19.999	103.805	20.021	11.213	0.476
931.500	551.800	80.011	19.990	103.802	20.022	11.164	0.516
932.000	552.036	80.006	19.995	103.806	20.019	11.349	0.551
932.500	552.261	80.010	19.994	103.812	20.017	11.494	0.503
933.000	552.530	80.005	19.989	103.818	20.021	11.250	0.477
933.500	552.777	80.006	19.988	103.826	20.020	11.334	0.505
934.000	553.073	80.006	19.989	103.831	20.022	11.184	0.530
934.500	553.297	80.008	19.994	103.832	20.020	11.282	0.532
935.000	553.601	80.007	19.992	103.830	20.021	11.272	0.525
935.500	553.827	80.010	19.989	103.825	20.021	11.227	0.529
936.000	554.030	80.005	19.999	103.821	20.022	11.169	0.479
936.500	554.339	80.004	19.994	103.815	20.017	11.547	0.470
937.000	554.602	80.011	19.990	103.810	20.020	11.281	0.542
937.500	554.865	80.009	19.992	103.809	20.019	11.400	0.549
938.000	555.103	80.006	19.994	103.809	20.021	11.249	0.513
938.500	555.375	80.008	19.990	103.806	20.019	11.351	0.505
939.000	555.617	80.006	19.995	103.812	20.020	11.283	0.512
939.500	555.877	80.002	19.996	103.817	20.019	11.391	0.508
940.000	556.137	80.008	19.991	103.819	20.019	11.368	0.512
940.500	556.413	80.006	19.992	103.818	20.018	11.487	0.528
941.000	556.630	80.006	19.995	103.817	20.016	11.627	0.514
941.500	556.943	80.007	19.993	103.813	20.017	11.551	0.512
942.000	557.199	80.007	19.993	103.809	20.018	11.438	0.550
942.500	557.427	80.005	19.991	103.804	20.020	11.340	0.526
943.000	557.713	80.002	19.997	103.803	20.022	11.180	0.499
943.500	557.921	80.005	19.994	103.804	20.019	11.358	0.504
944.000	558.163	80.004	20.000	103.808	20.020	11.283	0.472
944.500	558.485	80.005	19.989	103.807	20.022	11.197	0.507
945.000	558.724	80.005	19.995	103.812	20.021	11.261	0.563
945.500	558.977	80.009	19.993	103.816	20.021	11.269	0.527
946.000	559.243	80.005	19.991	103.815	20.021	11.267	0.505
946.500	559.545	80.002	19.993	103.813	20.019	11.358	0.544
947.000	559.724	80.007	19.991	103.812	20.022	11.142	0.524
947.500	559.971	80.007	19.996	103.807	20.018	11.461	0.453
948.000	560.233	80.005	19.995	103.803	20.022	11.166	0.467
948.500	560.512	80.005	19.993	103.803	20.018	11.463	0.526
949.000	560.772	80.008	19.992	103.801	20.021	11.234	0.540
949.500	561.004	80.009	19.994	103.802	20.015	11.640	0.515
950.000	561.265	80.004	19.994	103.805	20.018	11.470	0.492
950.500	561.480	80.011	19.991	103.807	20.020	11.295	0.484
951.000	561.833	80.006	19.993	103.811	20.018	11.445	0.522
951.500	562.031	80.007	19.995	103.811	20.019	11.367	0.560
952.000	562.301	80.006	19.994	103.810	20.019	11.408	0.509
952.500	562.569	80.007	19.993	103.808	20.021	11.242	0.503
953.000	562.804	80.010	19.992	103.808	20.019	11.375	0.521
953.500	563.073	80.006	19.995	103.807	20.019	11.395	0.504
954.000	563.360	80.014	19.987	103.808	20.021	11.237	0.530
954.500	563.553	80.006	19.996	103.809	20.019	11.362	0.518
955.000	563.828	80.001	19.994	103.808	20.023	11.066	0.474
955.500	564.080	80.001	19.997	103.806	20.020	11.289	0.497
956.000	564.340	80.007	19.993	103.801	20.020	11.295	0.519
956.500	564.624	80.008	19.990	103.800	20.023	11.080	0.528
957.000	564.885	80.008	19.991	103.803	20.018	11.442	0.544
957.500	565.119	80.008	19.995	103.810	20.024	11.061	0.520
958.000	565.366	80.004	19.999	103.816	20.022	11.161	0.488
958.500	565.683	80.008	19.997	103.821	20.019	11.393	0.522
959.000	565.899	80.009	19.990	103.826	20.026	10.872	0.549
959.500	566.136	80.006	19.996	103.826	20.022	11.169	0.493
960.000	566.451	80.007	19.993	103.820	20.023	11.113	0.503
960.500	566.711	80.007	19.996	103.817	20.022	11.185	0.564
961.000	566.959	80.008	19.993	103.817	20.023	11.112	0.541
961.500	567.176	80.006	19.995	103.810	20.021	11.225	0.487
962.000	567.444	80.006	19.994	103.803	20.021	11.227	0.475
962.500	567.639	80.009	19.993	103.802	20.021	11.208	0.474
963.000	567.939	80.003	19.996	103.804	20.024	11.023	0.479
963.500	568.165	80.007	19.993	103.805	20.020	11.342	0.510
964.000	568.527	80.004	19.994	103.810	20.025	10.965	0.557
964.500	568.680	80.004	19.996	103.811	20.026	10.898	0.551
965.000	568.959	80.006	19.993	103.810	20.025	10.933	0.474
965.500	569.211	80.005	19.994	103.810	20.020	11.339	0.482
966.000	569.487	80.007	19.992	103.807	20.025	10.953	0.529
966.500	569.786	80.005	19.996	103.806	20.025	10.941	0.551
967.000	570.003	80.005	19.994	103.804	20.022	11.179	0.546
967.500	570.300	80.005	19.997	103.805	20.024	11.047	0.515
968.000	570.571	80.004	19.997	103.799	20.022	11.154	0.541
968.500	570.773	80.003	19.991	103.795	20.021	11.246	0.520
969.000	571.081	80.008	19.992	103.793	20.020	11.336	0.491
969.500	571.320	80.004	19.993	103.795	20.025	10.994	0.529
970.000	571.589	80.002	19.997	103.797	20.021	11.256	0.528
970.500	571.827	80.009	19.990	103.802	20.025	10.955	0.508
971.000	572.080	80.001	19.992	103.805	20.022	11.170	0.499
971.500	572.340	80.005	19.991	103.804	20.032	10.479	0.502
972.000	572.684	80.010	19.984	103.809	20.014	11.717	0.558
972.500	572.813	80.005	19.992	103.814	20.019	11.403	0.538
973.000	573.128	80.007	19.995	103.814	20.037	10.117	0.458
973.500	573.396	80.005	19.992	103.817	20.033	10.377	0.514
974.000	573.684	80.003	19.994	103.818	20.019	11.393	0.570
974.500	573.942	80.003	19.996	103.813	20.019	11.364	0.551
975.000	574.187	80.002	19.998	103.806	20.026	10.909	0.524
975.500	574.462	80.003	19.996	103.803	20.025	10.936	0.512
976.000	574.749	80.003	19.995	103.798	20.015	11.676	0.542
976.500	575.052	80.007	19.992	103.800	20.021	11.258	0.576
977.000	575.169	80.003	19.997	103.802	20.017	11.521	0.504
977.500	575.469	80.004	19.996	103.804	20.020	11.343	0.418
978.000	575.919	80.006	19.997	103.803	20.032	10.493	0.584
978.500	576.056	80.004	19.997	103.808	20.025	10.934	0.668
979.000	576.394	80.006	19.995	103.807	20.022	11.155	0.531
979.500	576.477	80.004	19.994	103.808	20.021	11.214	0.449
980.000	576.895	80.006	19.994	103.806	20.021	11.230	0.461
980.500	577.132	80.009	19.993	103.808	20.023	11.097	0.578
981.000	577.346	80.004	19.996	103.806	20.025	10.937	0.553
981.500	577.559	80.005	19.994	103.810	20.026	10.861	0.439
982.000	577.844	80.005	19.994	103.810	20.026	10.905	0.462
982.500	578.141	80.006	19.995	103.811	20.030	10.587	0.540
983.000	578.087	80.005	19.986	103.809	20.027	10.823	0.413
983.500	578.787	80.003	19.995	103.808	20.026	10.923	0.444
984.000	579.004	80.005	19.996	103.806	20.027	10.792	0.781
984.500	578.906	80.003	19.995	103.807	20.031	10.505	0.518
985.000	579.732	80.006	19.991	103.809	20.028	10.730	0.424
985.500	579.771	80.007	19.994	103.812	20.030	10.580	0.797
986.000	579.305	80.006	19.995	103.811	20.027	10.834	0.219
986.500	580.179	80.006	19.996	103.811	20.029	10.664	-0.009
987.000	580.825	80.005	19.994	103.809	20.028	10.760	0.964
987.500	580.984	80.004	19.993	103.806	20.029	10.690	1.162
988.000	580.434	80.003	19.994	103.802	20.033	10.420	0.207
988.500	580.715	80.004	19.995	103.799	20.029	10.668	-0.330
989.000	581.802	80.004	19.995	103.796	20.035	10.271	0.549
989.500	581.606	80.005	19.994	103.794	20.034	10.353	1.129
990.000	582.103	80.005	19.993	103.800	20.033	10.363	0.596
990.500	581.989	80.005	19.993	103.804	20.032	10.474	0.342
991.000	582.454	80.005	19.994	103.804	20.030	10.582	0.368
991.500	582.777	80.005	19.991	103.805	20.031	10.505	0.570
992.000	583.180	80.006	19.994	103.805	20.029	10.679	0.756
992.500	583.283	80.006	19.994	103.800	20.028	10.712	0.616
993.000	583.598	80.005	19.994	103.797	20.030	10.599	0.463
993.500	583.859	80.005	19.995	103.797	20.032	10.478	0.497
994.000	584.080	80.004	19.993	103.797	20.029	10.693	0.529
994.500	584.313	80.005	19.995	103.800	20.031	10.566	0.468
995.000	584.579	80.005	19.993	103.799	20.029	10.705	0.476
995.500	584.878	80.004	19.992	103.800	20.028	10.765	0.532
996.000	585.204	80.005	19.993	103.799	20.033	10.425	0.595
996.500	585.405	80.004	19.994	103.804	20.034	10.345	0.576
997.000	585.648	80.005	19.995	103.807	20.034	10.288	0.485
997.500	585.992	80.004	19.995	103.810	20.033	10.405	0.515
998.000	586.178	80.004	19.993	103.813	20.034	10.329	0.559
998.500	586.560	80.004	19.994	103.816	20.033	10.384	0.549
999.000	586.659	80.004	19.993	103.811	20.032	10.431	0.525
999.500	587.036	80.003	19.995	103.806	20.035	10.263	0.479
1000.000	587.258	80.004	19.994	103.807	20.034	10.349	0.537
1000.500	587.528	80.003	19.994	103.805	20.033	10.372	0.545
1001.000	587.807	80.003	19.994	103.803	20.031	10.534	0.520
1001.500	588.050	80.004	19.992	103.805	20.031	10.560	0.536
1002.000	588.412	80.006	19.993	103.804	20.034	10.316	0.564
1002.500	588.517	80.005	19.995	103.800	20.033	10.372	0.536
1003.000	588.912	80.006	19.993	103.798	20.034	10.302	0.483
1003.500	589.143	80.006	19.993	103.797	20.037	10.095	0.563
1004.000	589.399	80.005	19.994	103.800	20.036	10.156	0.557
1004.500	589.654	80.005	19.993	103.802	20.037	10.109	0.500
1005.000	589.867	80.006	19.995	103.806	20.036	10.162	0.490
1005.500	590.112	80.003	19.994	103.808	20.037	10.080	0.463
1006.000	590.425	80.002	19.995	103.807	20.036	10.146	0.508
1006.500	590.675	80.004	19.994	103.803	20.039	9.989	0.560
1007.000	590.946	80.005	19.993	103.802	20.037	10.079	0.542
1007.500	591.195	80.004	19.994	103.798	20.038	10.007	0.521
1008.000	591.372	80.004	19.995	103.796	20.038	10.060	0.473
1008.500	591.671	80.004	19.994	103.796	20.040	9.884	0.451
1009.000	591.972	80.004	19.994	103.796	20.039	9.964	0.538
1009.500	592.258	80.004	19.992	103.795	20.041	9.850	0.593
1010.000	592.473	80.004	19.993	103.796	20.040	9.917	0.544
1010.500	592.714	80.006	19.992	103.798	20.043	9.706	0.479
1011.000	593.079	80.009	19.991	103.799	20.043	9.710	0.531
1011.500	593.289	80.005	19.993	103.799	20.042	9.763	0.590
1012.000	593.556	80.007	19.993	103.799	20.043	9.684	0.526
1012.500	593.778	80.006	19.994	103.798	20.045	9.534	0.483
1013.000	594.089	80.006	19.994	103.798	20.044	9.587	0.511
1013.500	594.354	80.007	19.994	103.798	20.045	9.528	0.554
1014.000	594.604	80.006	19.991	103.798	20.048	9.356	0.545
1014.500	594.888	80.007	19.993	103.799	20.047	9.378	0.525
1015.000	595.145	80.006	19.996	103.803	20.047	9.417	0.538
1015.500	595.441	80.006	19.994	103.802	20.046	9.468	0.547
1016.000	595.625	80.006	19.994	103.803	20.046	9.450	0.516
1016.500	595.897	80.005	19.993	103.803	20.046	9.493	0.468
1017.000	596.193	80.006	19.993	103.803	20.048	9.313	0.512
1017.500	596.471	80.007	19.993	103.799	20.048	9.305	0.571
1018.000	596.693	80.005	19.994	103.798	20.049	9.280	0.537
1018.500	596.935	80.006	19.992	103.797	20.047	9.422	0.482
1019.000	597.206	80.005	19.992	103.797	20.047	9.430	0.488
1019.500	597.495	80.006	19.992	103.795	20.049	9.258	0.536
1020.000	597.782	80.004	19.994	103.795	20.048	9.317	0.568
1020.500	597.998	80.005	19.993	103.794	20.052	9.062	0.540
1021.000	598.232	80.006	19.992	103.794	20.047	9.367	0.477
1021.500	598.566	80.003	19.994	103.795	20.052	9.080	0.509
1022.000	598.760	80.006	19.991	103.795	20.055	8.805	0.548
1022.500	599.087	80.006	19.992	103.795	20.052	9.039	0.524
1023.000	599.268	80.007	19.993	103.794	20.056	8.794	0.514
1023.500	599.578	80.008	19.993	103.794	20.052	9.075	0.500
1024.000	599.801	80.003	19.996	103.794	20.052	9.046	0.512
1024.500	600.111	80.008	19.993	103.793	20.053	8.952	0.533
1025.000	600.377	80.008	19.991	103.793	20.053	9.002	0.554
1025.500	600.572	80.007	19.995	103.793	20.054	8.909	0.519
1026.000	600.889	80.006	19.993	103.793	20.056	8.762	0.486
1026.500	601.107	80.006	19.994	103.793	20.058	8.612	0.523
1027.000	601.441	80.006	19.995	103.794	20.061	8.446	0.544
1027.500	601.624	80.008	19.992	103.794	20.061	8.407	0.534
1028.000	601.934	80.006	19.994	103.794	20.059	8.551	0.504
1028.500	602.130	80.006	19.993	103.793	20.059	8.577	0.500
1029.000	602.435	80.006	19.993	103.794	20.056	8.741	0.504
1029.500	602.694	80.007	19.994	103.791	20.061	8.444	0.532
1030.000	602.901	80.006	19.993	103.791	20.063	8.270	0.515
1030.500	603.222	80.008	19.992	103.790	20.064	8.233	0.497
1031.000	603.408	80.006	19.992	103.789	20.064	8.210	0.518
1031.500	603.695	80.005	19.995	103.784	20.063	8.249	0.490
1032.000	603.971	80.009	19.992	103.785	20.065	8.126	0.518
1032.500	604.208	80.006	19.993	103.785	20.065	8.098	0.538
1033.000	604.478	80.005	19.993	103.785	20.062	8.315	0.510
1033.500	604.715	80.005	19.993	103.786	20.064	8.190	0.507
1034.000	604.953	80.010	19.991	103.791	20.065	8.096	0.491
1034.500	605.218	80.007	19.994	103.792	20.067	7.981	0.489
1035.000	605.477	80.007	19.994	103.792	20.067	7.997	0.514
1035.500	605.731	80.005	19.998	103.791	20.068	7.934	0.519
1036.000	605.977	80.012	19.998	103.791	20.066	8.028	0.506
1036.500	606.278	80.008	19.991	103.789	20.066	8.090	0.523
1037.000	606.511	80.007	19.994	103.790	20.068	7.899	0.541
1037.500	606.781	80.004	19.999	103.791	20.070	7.796	0.519
1038.000	607.010	80.008	19.993	103.790	20.071	7.718	0.501
1038.500	607.272	80.010	19.993	103.791	20.073	7.599	0.495
1039.000	607.542	80.008	19.993	103.792	20.069	7.848	0.511
1039.500	607.813	80.009	19.994	103.790	20.073	7.591	0.536
1040.000	608.066	80.006	19.995	103.789	20.075	7.452	0.532
1040.500	608.333	80.007	19.995	103.791	20.075	7.427	0.522
1041.000	608.585	80.005	19.995	103.793	20.076	7.368	0.520
1041.500	608.878	80.008	19.995	103.793	20.072	7.655	0.532
1042.000	609.079	80.006	19.997	103.792	20.075	7.444	0.519
1042.500	609.326	80.008	19.995	103.791	20.078	7.235	0.471
1043.000	609.633	80.008	19.993	103.791	20.078	7.222	0.502
1043.500	609.865	80.008	19.993	103.789	20.080	7.102	0.547
1044.000	610.163	80.006	19.994	103.790	20.080	7.058	0.534
1044.500	610.399	80.007	19.992	103.790	20.080	7.057	0.532
1045.000	610.626	80.006	19.995	103.790	20.082	6.962	0.499
1045.500	610.921	80.006	19.993	103.790	20.078	7.192	0.493
1046.000	611.172	80.005	19.994	103.788	20.081	6.985	0.534
1046.500	611.413	80.005	19.995	103.788	20.078	7.180	0.519
1047.000	611.706	80.005	19.994	103.789	20.080	7.102	0.513
1047.500	611.930	80.005	19.993	103.790	20.080	7.073	0.526
1048.000	612.217	80.004	19.995	103.790	20.078	7.194	0.514
1048.500	612.472	80.006	19.995	103.793	20.083	6.872	0.526
1049.000	612.715	80.005	19.994	103.793	20.084	6.815	0.520
1049.500	612.950	80.006	19.993	103.792	20.086	6.640	0.489
1050.000	613.252	80.006	19.993	103.791	20.083	6.872	0.508
1050.500	613.498	80.006	19.992	103.791	20.085	6.691	0.542
1051.001	613.746	80.005	19.996	103.792	20.085	6.749	0.521
1051.501	614.015	80.006	19.992	103.791	20.084	6.755	0.505
1052.000	614.284	80.007	19.993	103.790	20.083	6.864	0.527
1052.500	614.544	80.005	19.992	103.790	20.087	6.584	0.533
1053.000	614.789	80.006	19.995	103.790	20.086	6.621	0.517
1053.500	615.048	80.005	19.995	103.790	20.087	6.574	0.505
1054.000	615.319	80.007	19.994	103.790	20.087	6.607	0.517
1054.500	615.583	80.006	19.993	103.792	20.085	6.740	0.533
1055.000	615.855	80.006	19.993	103.791	20.089	6.443	0.535
1055.500	616.094	80.005	19.994	103.789	20.088	6.500	0.524
1056.000	616.359	80.006	19.994	103.789	20.087	6.591	0.507
1056.500	616.635	80.006	19.994	103.788	20.087	6.552	0.522
1057.000	616.920	80.004	19.994	103.787	20.089	6.401	0.551
1057.500	617.172	80.004	19.996	103.788	20.089	6.446	0.550
1058.000	617.427	80.006	19.992	103.789	20.092	6.192	0.522
1058.500	617.685	80.003	19.994	103.789	20.091	6.271	0.510
1059.000	617.933	80.008	19.994	103.789	20.091	6.269	0.510
1059.500	618.152	80.004	19.994	103.791	20.089	6.433	0.486
1060.001	618.409	80.006	19.995	103.791	20.092	6.233	0.471
1060.501	618.690	80.002	19.998	103.793	20.088	6.499	0.507
1061.000	618.916	80.006	19.995	103.793	20.091	6.256	0.522
1061.501	619.207	80.005	19.996	103.794	20.093	6.137	0.512
1062.001	619.488	80.005	19.993	103.793	20.095	5.975	0.544
1062.500	619.755	80.005	19.992	103.790	20.096	5.962	0.560
1063.000	619.994	80.007	19.995	103.783	20.095	6.015	0.527
1063.500	620.279	80.006	19.994	103.781	20.096	5.921	0.515
1064.000	620.517	80.004	19.995	103.778	20.095	6.024	0.524
1064.500	620.753	80.005	19.996	103.772	20.094	6.066	0.498
1065.000	621.039	80.003	19.996	103.771	20.097	5.849	0.497
1065.500	621.297	80.003	19.994	103.775	20.099	5.755	0.533
1066.000	621.522	80.004	19.993	103.778	20.095	6.015	0.514
1066.500	621.817	80.001	19.994	103.782	20.101	5.575	0.502
1067.000	622.027	80.004	19.993	103.788	20.102	5.503	0.513
1067.500	622.316	80.006	19.993	103.792	20.101	5.575	0.502
1068.000	622.536	80.006	19.994	103.793	20.101	5.573	0.504
1068.500	622.830	80.006	19.995	103.792	20.103	5.428	0.511
1069.000	623.120	80.006	19.994	103.792	20.104	5.358	0.549
1069.500	623.322	80.004	19.996	103.792	20.098	5.762	0.538
1070.000	623.617	80.004	19.992	103.791	20.102	5.522	0.494
1070.500	623.862	80.007	19.992	103.791	20.104	5.383	0.518
1071.000	624.130	80.005	19.991	103.789	20.104	5.340	0.526
1071.500	624.354	80.005	19.996	103.784	20.104	5.356	0.503
1072.000	624.626	80.003	19.994	103.782	20.104	5.368	0.494
1072.500	624.849	80.005	19.993	103.783	20.105	5.325	0.496
1073.000	625.154	80.004	19.993	103.782	20.107	5.183	0.512
1073.501	625.398	80.005	19.995	103.783	20.106	5.243	0.538
1074.001	625.653	80.004	19.995	103.789	20.107	5.140	0.523
1074.500	625.918	80.002	19.998	103.791	20.106	5.202	0.509
1075.000	626.146	80.005	19.994	103.790	20.108	5.105	0.507
1075.500	626.416	80.002	19.994	103.791	20.108	5.081	0.496
1076.000	626.673	80.005	19.996	103.793	20.109	5.014	0.512
1076.500	626.928	80.006	19.992	103.791	20.110	4.975	0.519
1077.000	627.208	80.002	19.995	103.788	20.106	5.225	0.524
1077.500	627.481	80.007	19.992	103.787	20.110	4.921	0.544
1078.000	627.742	80.003	19.993	103.788	20.110	4.950	0.543
1078.500	628.005	80.002	19.994	103.784	20.111	4.911	0.529
1079.000	628.271	80.004	19.998	103.781	20.113	4.704	0.527
1079.500	628.501	80.004	19.993	103.781	20.113	4.722	0.512
1080.000	628.781	80.005	19.994	103.779	20.112	4.780	0.503
1080.500	629.032	80.003	19.993	103.775	20.115	4.573	0.521
1081.000	629.302	80.004	19.993	103.777	20.116	4.511	0.526
1081.500	629.534	80.007	19.993	103.780	20.115	4.577	0.511
1082.000	629.799	80.004	19.994	103.781	20.117	4.448	0.499
1082.500	630.057	80.004	19.994	103.780	20.121	4.184	0.510
1083.000	630.362	80.008	19.993	103.785	20.121	4.161	0.543
1083.500	630.577	80.003	19.996	103.785	20.121	4.167	0.542
1084.000	630.868	80.004	19.992	103.786	20.122	4.065	0.513
1084.500	631.122	80.004	19.995	103.789	20.121	4.204	0.525
1085.000	631.367	80.006	19.994	103.793	20.118	4.399	0.522
1085.500	631.637	80.003	19.994	103.792	20.121	4.153	0.507
1086.000	631.892	80.004	19.993	103.789	20.119	4.282	0.520
1086.500	632.131	80.005	19.994	103.783	20.122	4.116	0.510
1087.000	632.414	80.005	19.994	103.781	20.120	4.266	0.508
1087.500	632.634	80.008	19.994	103.781	20.121	4.188	0.512
1088.000	632.886	80.007	19.993	103.780	20.119	4.275	0.488
1088.500	633.165	80.007	19.994	103.784	20.120	4.205	0.502
1089.000	633.412	80.006	19.993	103.791	20.122	4.069	0.528
1089.500	633.714	80.007	19.993	103.788	20.123	3.993	0.537
1090.000	633.999	80.007	19.993	103.784	20.123	4.034	0.568
1090.500	634.214	80.005	19.994	103.783	20.122	4.134	0.544
1091.000	634.497	80.007	19.992	103.783	20.122	4.085	0.499
1091.500	634.696	80.006	19.994	103.783	20.126	3.784	0.490
1092.000	634.993	80.007	19.994	103.784	20.123	4.030	0.489
1092.500	635.270	80.007	19.994	103.784	20.127	3.761	0.535
1093.000	635.544	80.006	19.994	103.779	20.125	3.921	0.562
1093.500	635.788	80.007	19.993	103.776	20.127	3.731	0.535
1094.000	636.073	80.008	19.993	103.774	20.126	3.821	0.524
1094.500	636.300	80.006	19.993	103.776	20.125	3.853	0.520
1095.000	636.596	80.006	19.995	103.779	20.125	3.855	0.518
1095.500	636.845	80.007	19.992	103.784	20.127	3.728	0.534
1096.000	637.112	80.005	19.995	103.785	20.129	3.611	0.530
1096.501	637.373	80.007	19.993	103.781	20.129	3.591	0.522
1097.001	637.618	80.007	19.994	103.776	20.128	3.667	0.517
1097.501	637.847	80.006	19.995	103.770	20.127	3.739	0.490
1098.000	638.145	80.008	19.992	103.763	20.129	3.583	0.500
1098.500	638.375	80.008	19.993	103.759	20.129	3.630	0.528
1099.000	638.606	80.006	19.993	103.757	20.130	3.550	0.495
1099.500	638.879	80.005	19.996	103.760	20.130	3.542	0.482
1100.000	639.128	80.006	19.991	103.766	20.128	3.689	0.513
1100.500	639.355	80.005	19.997	103.773	20.129	3.569	0.499
1101.000	639.639	80.006	19.992	103.780	20.130	3.552	0.494
1101.500	639.915	80.010	19.992	103.787	20.130	3.530	0.535
1102.000	640.132	80.001	19.995	103.789	20.130	3.534	0.526
1102.501	640.374	80.005	19.990	103.785	20.131	3.483	0.476
1103.001	640.617	80.006	19.994	103.782	20.131	3.477	0.472
1103.500	640.891	80.008	19.992	103.777	20.131	3.434	0.501
1104.000	641.126	80.007	19.993	103.776	20.130	3.557	0.513
1104.500	641.396	80.004	19.994	103.776	20.132	3.419	0.507
1105.000	641.641	80.005	19.997	103.779	20.132	3.401	0.510
1105.500	641.905	80.007	19.992	103.783	20.134	3.275	0.512
1106.000	642.145	80.006	19.993	103.789	20.134	3.265	0.507
1106.500	642.415	80.006	19.994	103.790	20.132	3.388	0.507
1107.001	642.669	80.005	19.993	103.791	20.136	3.118	0.517
1107.501	642.953	80.005	19.993	103.787	20.135	3.192	0.531
1108.001	643.179	80.006	19.994	103.782	20.134	3.284	0.524
1108.501	643.439	80.004	19.995	103.779	20.135	3.202	0.498
1109.001	643.681	80.006	19.994	103.778	20.139	2.896	0.494
1109.500	643.926	80.005	19.993	103.775	20.132	3.378	0.494
1110.000	644.195	80.008	19.992	103.776	20.136	3.101	0.500
1110.501	644.445	80.007	19.994	103.778	20.138	2.944	0.517
1111.001	644.686	80.006	19.994	103.781	20.136	3.110	0.505
1111.500	644.955	80.008	19.992	103.782	20.137	3.012	0.501
1112.000	645.225	80.007	19.994	103.784	20.135	3.147	0.524
1112.500	645.499	80.005	19.993	103.784	20.136	3.134	0.542
1113.000	645.717	80.007	19.993	103.781	20.135	3.212	0.518
1113.500	645.970	80.007	19.993	103.774	20.134	3.223	0.482
1114.000	646.204	80.008	19.993	103.767	20.133	3.290	0.479
1114.500	646.476	80.008	19.994	103.764	20.138	2.975	0.496
1115.000	646.681	80.008	19.993	103.764	20.136	3.118	0.491
1115.500	646.973	80.008	19.992	103.769	20.135	3.155	0.487
1116.001	647.233	80.007	19.993	103.775	20.137	3.067	0.525
1116.501	647.473	80.009	19.993	103.779	20.136	3.132	0.527
1117.000	647.754	80.009	19.993	103.784	20.140	2.845	0.511
1117.501	647.977	80.009	19.994	103.785	20.138	2.991	0.512
1118.001	648.225	80.009	19.991	103.781	20.137	3.009	0.487
1118.501	648.498	80.007	19.993	103.778	20.138	2.980	0.495
1119.000	648.764	80.009	19.993	103.778	20.136	3.097	0.530
1119.500	649.005	80.009	19.995	103.777	20.134	3.249	0.524
1120.000	649.268	80.007	19.993	103.774	20.135	3.165	0.506
1120.500	649.541	80.008	19.994	103.775	20.138	2.950	0.520
1121.001	649.789	80.007	19.994	103.773	20.137	3.012	0.528
1121.501	650.049	80.008	19.993	103.773	20.136	3.137	0.515
1122.000	650.287	80.008	19.994	103.768	20.136	3.140	0.503
1122.500	650.568	80.008	19.993	103.766	20.138	2.972	0.508
1123.000	650.797	80.008	19.993	103.770	20.136	3.111	0.515
1123.500	651.057	80.008	19.993	103.772	20.138	2.978	0.499
1124.000	651.343	80.006	19.994	103.768	20.138	2.972	0.517
1124.500	651.607	80.006	19.993	103.769	20.137	3.066	0.548
1125.000	651.832	80.008	19.992	103.770	20.139	2.868	0.520
1125.500	652.113	80.006	19.994	103.765	20.140	2.818	0.497
1126.000	652.326	80.005	19.993	103.763	20.140	2.816	0.500
1126.500	652.607	80.007	19.994	103.764	20.141	2.728	0.494
1127.000	652.837	80.005	19.993	103.762	20.141	2.786	0.502
1127.501	653.113	80.003	19.993	103.767	20.141	2.790	0.508
1128.001	653.349	80.004	19.994	103.771	20.137	3.016	0.509
1128.500	653.603	80.005	19.994	103.771	20.137	3.009	0.501
1129.000	653.905	80.004	19.993	103.778	20.136	3.116	0.523
1129.500	654.119	80.006	19.993	103.782	20.136	3.099	0.536
1130.000	654.406	80.005	19.993	103.776	20.137	3.073	0.508
1130.500	654.657	80.004	19.994	103.770	20.138	2.943	0.519
1131.000	654.930	80.003	19.995	103.768	20.136	3.138	0.531
1131.500	655.204	80.006	19.994	103.762	20.138	2.950	0.536
1132.000	655.444	80.003	19.994	103.763	20.137	3.003	0.530
1132.500	655.652	80.005	19.993	103.767	20.139	2.897	0.481
1133.000	655.956	80.004	19.993	103.774	20.139	2.901	0.480
1133.500	656.207	80.004	19.996	103.775	20.138	2.991	0.534
1134.000	656.484	80.004	19.993	103.781	20.136	3.097	0.542
1134.500	656.711	80.004	19.995	103.777	20.138	2.942	0.516
1135.000	656.992	80.005	19.995	103.780	20.138	3.001	0.506
1135.500	657.231	80.004	19.996	103.780	20.140	2.853	0.513
1136.000	657.476	80.006	19.996	103.783	20.138	2.966	0.502
1136.500	657.749	80.005	19.995	103.777	20.131	3.468	0.501
1137.000	658.004	80.004	19.995	103.776	20.139	2.905	0.523
1137.500	658.273	80.007	19.995	103.775	20.139	2.905	0.526
1138.000	658.541	80.005	19.995	103.767	20.142	2.696	0.530
1138.500	658.801	80.005	19.994	103.764	20.137	3.005	0.533
1139.000	659.070	80.005	19.994	103.769	20.138	2.942	0.529
1139.500	659.309	80.006	19.995	103.774	20.138	2.952	0.519
1140.000	659.566	80.005	19.994	103.776	20.141	2.766	0.502
1140.500	659.864	80.005	19.995	103.780	20.141	2.723	0.526
1141.000	660.096	80.005	19.994	103.782	20.141	2.765	0.543
1141.500	660.335	80.005	19.994	103.780	20.144	2.552	0.500
1142.000	660.610	80.003	19.995	103.774	20.141	2.788	0.492
1142.500	660.849	80.003	19.995	103.768	20.142	2.661	0.514
1143.000	661.074	80.005	19.995	103.769	20.147	2.341	0.489
1143.500	661.364	80.008	19.993	103.768	20.140	2.831	0.489
1144.000	661.572	80.003	19.995	103.766	20.143	2.630	0.507
1144.500	661.910	80.005	19.994	103.766	20.138	2.983	0.522
1145.000	662.113	80.005	19.994	103.772	20.143	2.597	0.543
1145.501	662.422	80.006	19.992	103.774	20.141	2.763	0.527
1146.001	662.684	80.004	19.992	103.777	20.141	2.776	0.542
1146.500	662.939	80.004	19.993	103.777	20.142	2.673	0.544
1147.000	663.184	80.006	19.994	103.777	20.141	2.723	0.508
1147.500	663.456	80.005	19.994	103.772	20.142	2.706	0.509
1148.000	663.648	80.005	19.995	103.766	20.141	2.739	0.491
1148.500	663.953	80.005	19.993	103.762	20.138	2.963	0.480
1149.000	664.160	80.005	19.993	103.764	20.144	2.550	0.504
1149.500	664.377	80.007	19.994	103.763	20.144	2.561	0.468
1150.000	664.811	80.006	19.994	103.763	20.143	2.632	0.537
1150.500	664.320	80.005	19.994	103.762	20.146	2.425	0.297
1151.000	665.338	80.003	19.994	103.762	20.143	2.610	0.235
1151.500	665.508	80.005	19.993	103.762	20.142	2.679	0.858
1152.000	665.775	80.004	19.994	103.766	20.143	2.643	0.813
1152.500	666.049	80.004	19.995	103.767	20.145	2.464	0.489
1153.000	666.300	80.006	19.994	103.766	20.145	2.448	0.533
1153.500	666.538	80.005	19.994	103.768	20.142	2.669	0.506
1154.000	666.850	80.004	19.995	103.767	20.144	2.519	0.520
1154.500	667.108	80.004	19.995	103.765	20.143	2.579	0.560
1155.000	667.390	80.005	19.996	103.764	20.141	2.739	0.555
1155.500	667.590	80.003	19.996	103.765	20.144	2.569	0.511
1156.000	667.912	80.004	19.994	103.764	20.145	2.462	0.502
1156.500	668.141	80.005	19.994	103.764	20.143	2.622	0.536
1157.000	668.413	80.004	19.995	103.763	20.143	2.595	0.526
1157.500	668.606	80.005	19.995	103.763	20.140	2.796	0.483
1158.000	668.945	80.003	19.995	103.763	20.145	2.499	0.498
1158.500	669.121	80.004	19.993	103.760	20.144	2.531	0.523
1159.000	669.449	80.004	19.995	103.759	20.144	2.550	0.509
1159.500	669.611	80.004	19.993	103.758	20.145	2.476	0.497
1160.000	669.977	80.004	19.994	103.758	20.144	2.577	0.509
1160.500	670.296	80.005	19.995	103.757	20.146	2.433	0.607
1161.000	670.473	80.005	19.994	103.756	20.143	2.591	0.590
1161.500	670.715	80.003	19.995	103.758	20.143	2.630	0.457
1162.000	671.039	80.004	19.994	103.758	20.139	2.880	0.492
1162.500	671.364	80.004	19.995	103.762	20.142	2.673	0.607
1163.001	671.557	80.004	19.994	103.764	20.142	2.653	0.584
1163.501	671.825	80.003	19.995	103.771	20.141	2.741	0.490
1164.000	672.102	80.006	19.994	103.772	20.143	2.647	0.503
1164.500	672.305	80.003	19.994	103.777	20.141	2.745	0.512
1165.000	672.616	80.003	19.995	103.779	20.141	2.784	0.497
1165.500	672.865	80.003	19.995	103.778	20.142	2.720	0.537
1166.000	673.152	80.004	19.995	103.771	20.141	2.759	0.549
1166.500	673.404	80.005	19.994	103.769	20.140	2.810	0.538
1167.000	673.637	80.003	19.994	103.768	20.145	2.468	0.512
1167.500	673.967	80.004	19.995	103.769	20.142	2.677	0.524
1168.000	674.186	80.005	19.994	103.772	20.142	2.720	0.556
1168.500	674.460	80.006	19.993	103.774	20.140	2.827	0.521
1169.000	674.745	80.005	19.994	103.777	20.142	2.675	0.526
1169.500	674.982	80.005	19.995	103.776	20.141	2.732	0.540
1170.000	675.257	80.006	19.995	103.772	20.143	2.646	0.517
1170.500	675.537	80.006	19.993	103.771	20.141	2.736	0.533
1171.001	675.770	80.006	19.995	103.773	20.145	2.443	0.534
1171.501	676.035	80.007	19.993	103.775	20.143	2.591	0.506
1172.000	676.333	80.006	19.992	103.774	20.141	2.775	0.531
1172.500	676.576	80.007	19.994	103.779	20.142	2.675	0.552
1173.000	676.821	80.006	19.994	103.779	20.144	2.569	0.514
1173.500	677.088	80.006	19.993	103.775	20.142	2.700	0.500
1174.001	677.354	80.008	19.993	103.769	20.143	2.585	0.523
1174.501	677.656	80.006	19.994	103.769	20.141	2.722	0.551
1175.001	677.895	80.008	19.995	103.769	20.143	2.643	0.555
1175.500	678.130	80.006	19.994	103.773	20.143	2.603	0.508
1176.000	678.348	80.008	19.994	103.777	20.143	2.642	0.464
1176.500	678.608	80.006	19.994	103.782	20.144	2.517	0.465
1177.000	678.893	80.008	19.993	103.785	20.143	2.630	0.511
1177.500	679.136	80.006	19.994	103.785	20.145	2.488	0.537
1178.000	679.402	80.007	19.993	103.784	20.144	2.517	0.519
1178.500	679.688	80.006	19.994	103.783	20.144	2.519	0.530
1179.000	679.952	80.007	19.993	103.782	20.145	2.456	0.551
1179.500	680.182	80.007	19.994	103.778	20.145	2.487	0.522
1180.000	680.449	80.006	19.994	103.773	20.146	2.428	0.495
1180.500	680.713	80.006	19.995	103.774	20.145	2.495	0.514
1181.001	680.984	80.006	19.994	103.775	20.144	2.575	0.534
1181.501	681.224	80.007	19.993	103.778	20.145	2.466	0.523
1182.000	681.464	80.006	19.993	103.780	20.144	2.519	0.495
1182.501	681.740	80.007	19.993	103.780	20.145	2.505	0.498
1183.001	682.027	80.006	19.993	103.778	20.145	2.462	0.540
1183.500	682.300	80.007	19.992	103.777	20.144	2.556	0.562
1184.000	682.538	80.007	19.994	103.771	20.145	2.470	0.535
1184.500	682.741	80.004	19.995	103.767	20.149	2.177	0.475
1185.000	683.046	80.007	19.993	103.766	20.147	2.361	0.474
1185.500	683.444	80.006	19.989	103.764	20.147	2.310	0.606
1186.000	683.539	80.004	19.994	103.765	20.147	2.320	0.598
1186.500	683.743	80.006	19.994	103.771	20.146	2.417	0.396
1187.000	684.264	80.006	19.993	103.778	20.146	2.401	0.512
1187.500	684.237	80.006	19.992	103.782	20.146	2.390	0.609
1188.000	684.543	80.005	19.992	103.786	20.144	2.538	0.386
1188.500	684.843	80.005	19.995	103.780	20.145	2.456	0.442
1189.000	685.111	80.004	19.994	103.773	20.146	2.392	0.587
1189.500	685.397	80.002	19.995	103.767	20.143	2.597	0.561
1190.001	685.637	80.004	19.993	103.763	20.145	2.479	0.540
1190.501	685.890	80.007	19.992	103.756	20.142	2.716	0.510
1191.000	686.158	80.005	19.993	103.756	20.145	2.456	0.508
1191.500	686.399	80.005	19.995	103.757	20.146	2.378	0.515
1192.000	686.662	80.004	19.993	103.761	20.147	2.325	0.506
1192.500	686.891	80.005	19.994	103.770	20.146	2.415	0.497
1193.000	687.180	80.006	19.993	103.774	20.143	2.630	0.505
1193.501	687.388	80.005	19.994	103.778	20.145	2.448	0.508
1194.001	687.700	80.004	19.993	103.783	20.145	2.503	0.509
1194.501	687.975	80.005	19.995	103.781	20.143	2.583	0.554
1195.000	688.178	80.007	19.994	103.779	20.145	2.487	0.532
1195.500	688.471	80.006	19.995	103.782	20.145	2.497	0.487
1196.000	688.657	80.008	19.994	103.779	20.143	2.581	0.488
1196.500	688.971	80.007	19.994	103.777	20.144	2.577	0.490
1197.000	689.196	80.006	19.993	103.775	20.142	2.704	0.519
1197.500	689.474	80.007	19.994	103.770	20.147	2.316	0.521
1198.000	689.732	80.007	19.994	103.763	20.146	2.421	0.520
1198.500	689.974	80.008	19.994	103.761	20.144	2.552	0.518
1199.000	690.242	80.007	19.994	103.756	20.145	2.501	0.505
1199.500	690.503	80.005	19.993	103.761	20.146	2.433	0.519
1200.000	690.708	80.007	19.993	103.761	20.142	2.673	0.497
1200.500	690.982	80.007	19.994	103.761	20.144	2.556	0.472
1201.000	691.258	80.007	19.993	103.762	20.146	2.437	0.515
1201.500	691.516	80.007	19.994	103.762	20.148	2.271	0.542
1202.000	691.756	80.008	19.993	103.764	20.146	2.386	0.517
1202.500	692.001	80.007	19.992	103.766	20.148	2.242	0.492
1203.000	692.270	80.008	19.994	103.768	20.145	2.446	0.499
1203.500	692.474	80.006	19.993	103.769	20.147	2.321	0.494
1204.000	692.773	80.006	19.993	103.768	20.144	2.511	0.488
1204.501	693.001	80.006	19.992	103.760	20.147	2.358	0.515
1205.001	693.251	80.007	19.993	103.762	20.149	2.185	0.502
1205.500	693.533	80.007	19.993	103.760	20.145	2.450	0.505
1206.000	693.855	80.008	19.993	103.760	20.144	2.513	0.568
1206.501	694.073	80.007	19.993	103.760	20.146	2.380	0.572
1207.001	694.282	80.007	19.993	103.763	20.143	2.626	0.483
1207.501	694.531	80.007	19.992	103.765	20.147	2.347	0.442
1208.000	694.811	80.005	19.993	103.766	20.146	2.437	0.494
1208.500	695.022	80.004	19.993	103.767	20.146	2.392	0.510
1209.000	695.293	80.004	19.992	103.770	20.145	2.503	0.486
1209.500	695.570	80.004	19.993	103.767	20.144	2.517	0.515
1210.000	695.838	80.004	19.993	103.761	20.147	2.312	0.547
1210.500	696.068	80.004	19.994	103.762	20.145	2.507	0.521
1211.000	696.338	80.004	19.993	103.763	20.147	2.360	0.499
1211.500	696.610	80.003	19.993	103.768	20.149	2.167	0.521
1212.000	696.809	80.005	19.993	103.775	20.144	2.558	0.507
1212.500	697.096	80.005	19.993	103.778	20.147	2.304	0.479
1213.000	697.325	80.005	19.994	103.777	20.146	2.407	0.501
1213.500	697.593	80.004	19.993	103.776	20.146	2.386	0.506
1214.001	697.826	80.004	19.994	103.769	20.147	2.309	0.499
1214.501	698.113	80.005	19.993	103.762	20.149	2.198	0.510
1215.000	698.329	80.004	19.995	103.759	20.147	2.308	0.511
1215.500	698.592	80.005	19.993	103.757	20.147	2.300	0.491
1216.000	698.867	80.005	19.994	103.758	20.146	2.413	0.509
1216.500	699.111	80.004	19.994	103.761	20.149	2.155	0.529
1217.000	699.334	80.006	19.993	103.763	20.147	2.323	0.493
1217.500	699.601	80.005	19.994	103.764	20.150	2.124	0.478
1218.000	699.864	80.005	19.993	103.768	20.148	2.231	0.510
1218.500	700.119	80.005	19.994	103.769	20.151	2.073	0.524
1219.001	700.371	80.005	19.995	103.771	20.152	1.993	0.513
1219.501	700.627	80.004	19.994	103.770	20.151	2.056	0.507
1220.000	700.870	80.004	19.993	103.768	20.148	2.231	0.503
1220.500	701.088	80.006	19.994	103.764	20.150	2.105	0.480
1221.000	701.348	80.006	19.995	103.763	20.152	1.942	0.470
1221.500	701.622	80.004	19.996	103.762	20.151	2.034	0.506
1222.000	701.856	80.004	19.995	103.760	20.149	2.155	0.521
1222.500	702.124	80.005	19.995	103.765	20.146	2.411	0.504
1223.000	702.400	80.004	19.995	103.766	20.150	2.108	0.523
1223.500	702.645	80.005	19.995	103.766	20.149	2.208	0.533
1224.000	702.884	80.005	19.996	103.763	20.149	2.192	0.503
1224.500	703.158	80.005	19.995	103.763	20.148	2.272	0.499
1225.000	703.374	80.005	19.994	103.759	20.150	2.134	0.502
1225.500	703.656	80.006	19.994	103.759	20.148	2.237	0.494
1226.001	703.891	80.004	19.995	103.760	20.147	2.303	0.507
1226.501	704.176	80.006	19.996	103.760	20.150	2.102	0.518
1227.000	704.433	80.006	19.995	103.761	20.149	2.181	0.531
1227.500	704.671	80.006	19.995	103.762	20.149	2.173	0.518
1228.000	704.927	80.005	19.995	103.760	20.147	2.357	0.494
1228.500	705.169	80.006	19.995	103.761	20.148	2.263	0.496
1229.000	705.436	80.005	19.995	103.763	20.145	2.458	0.504
1229.500	705.688	80.005	19.994	103.761	20.146	2.419	0.514
1230.000	705.962	80.006	19.994	103.759	20.146	2.417	0.522
1230.500	706.169	80.007	19.994	103.759	20.144	2.544	0.504
1231.000	706.428	80.006	19.995	103.761	20.143	2.628	0.474
1231.500	706.661	80.006	19.994	103.759	20.146	2.433	0.479
1232.000	706.940	80.005	19.994	103.761	20.146	2.429	0.502
1232.500	707.208	80.006	19.995	103.761	20.148	2.245	0.529
1233.000	707.453	80.006	19.995	103.764	20.147	2.321	0.530
1233.500	707.702	80.007	19.994	103.762	20.145	2.491	0.503
1234.000	707.976	80.006	19.994	103.762	20.144	2.565	0.509
1234.500	708.238	80.005	19.994	103.760	20.147	2.354	0.530
1235.000	708.477	80.004	19.995	103.760	20.148	2.255	0.518
1235.500	708.708	80.007	19.994	103.757	20.144	2.548	0.486
1236.000	708.994	80.005	19.994	103.755	20.144	2.540	0.493
1236.500	709.208	80.005	19.994	103.753	20.147	2.339	0.508
1237.000	709.485	80.005	19.994	103.753	20.145	2.491	0.496
1237.500	709.750	80.007	19.993	103.754	20.147	2.331	0.517
1238.000	709.971	80.005	19.994	103.759	20.148	2.233	0.514
1238.500	710.247	80.006	19.995	103.766	20.149	2.196	0.491
1239.000	710.516	80.004	19.994	103.773	20.147	2.345	0.520
1239.500	710.739	80.005	19.994	103.777	20.147	2.347	0.519
1240.000	710.994	80.005	19.994	103.780	20.147	2.325	0.486
1240.500	711.263	80.005	19.994	103.776	20.148	2.255	0.501
1241.000	711.514	80.005	19.995	103.770	20.147	2.335	0.522
1241.500	711.773	80.005	19.995	103.767	20.144	2.520	0.515
1242.000	712.031	80.006	19.994	103.771	20.144	2.555	0.514
1242.500	712.249	80.005	19.995	103.770	20.148	2.278	0.496
1243.000	712.516	80.005	19.994	103.771	20.149	2.191	0.480
1243.500	712.751	80.005	19.995	103.771	20.148	2.230	0.493
1244.000	713.023	80.005	19.994	103.767	20.147	2.296	0.505
1244.500	713.317	80.005	19.994	103.760	20.147	2.310	0.537
1245.000	713.519	80.005	19.993	103.760	20.149	2.202	0.531
1245.500	713.795	80.005	19.994	103.764	20.150	2.087	0.487
1246.000	714.025	80.005	19.994	103.770	20.149	2.185	0.492
1246.500	714.301	80.004	19.994	103.777	20.148	2.227	0.506
1247.000	714.623	80.004	19.994	103.778	20.147	2.335	0.552
1247.500	714.805	80.005	19.995	103.776	20.151	2.046	0.551
1248.000	715.088	80.005	19.994	103.771	20.148	2.247	0.485
1248.500	715.325	80.005	19.995	103.765	20.148	2.271	0.492
1249.001	715.621	80.006	19.994	103.758	20.149	2.204	0.527
1249.501	715.897	80.004	19.994	103.757	20.151	2.060	0.553
1250.000	716.098	80.005	19.994	103.758	20.147	2.321	0.524
1250.501	716.387	80.005	19.994	103.756	20.147	2.343	0.483
1251.001	716.624	80.005	19.994	103.756	20.147	2.311	0.508
1251.500	716.929	80.004	19.994	103.756	20.149	2.214	0.534
1252.000	717.204	80.005	19.994	103.756	20.148	2.259	0.562
1252.500	717.449	80.005	19.994	103.756	20.147	2.317	0.550
1253.000	717.707	80.005	19.995	103.758	20.147	2.302	0.511
1253.501	717.974	80.005	19.995	103.763	20.150	2.101	0.514
1254.001	718.225	80.003	19.993	103.768	20.149	2.196	0.522
1254.500	718.484	80.006	19.996	103.775	20.149	2.206	0.514
1255.000	718.722	80.006	19.996	103.779	20.148	2.259	0.503
1255.500	718.985	80.005	19.995	103.777	20.149	2.198	0.499
1256.000	719.224	80.007	19.996	103.772	20.147	2.298	0.502
1256.500	719.519	80.006	19.995	103.767	20.151	2.060	0.518
1257.000	719.781	80.006	19.996	103.761	20.150	2.089	0.545
1257.500	720.051	80.006	19.995	103.759	20.149	2.197	0.545
1258.000	720.324	80.005	19.995	103.761	20.151	2.062	0.537
1258.500	720.567	80.007	19.995	103.761	20.147	2.300	0.529
1259.000	720.840	80.006	19.995	103.761	20.148	2.257	0.516
1259.501	721.121	80.005	19.993	103.765	20.148	2.253	0.535
1260.001	721.328	80.006	19.993	103.763	20.148	2.231	0.521
1260.501	721.613	80.006	19.994	103.761	20.149	2.175	0.490
1261.001	721.865	80.005	19.993	103.761	20.149	2.196	0.514
1261.500	722.121	80.006	19.995	103.760	20.148	2.286	0.522
1262.000	722.367	80.007	19.994	103.756	20.147	2.345	0.505
1262.500	722.647	80.005	19.994	103.756	20.144	2.509	0.514
1263.000	722.870	80.006	19.995	103.755	20.146	2.399	0.514
1263.500	723.152	80.005	19.994	103.755	20.146	2.374	0.504
1264.000	723.440	80.004	19.995	103.755	20.146	2.370	0.537
1264.501	723.665	80.006	19.993	103.756	20.147	2.355	0.541
1265.001	723.951	80.006	19.993	103.757	20.146	2.396	0.512
1265.500	724.193	80.006	19.993	103.759	20.146	2.384	0.520
1266.000	724.440	80.005	19.994	103.759	20.149	2.200	0.508
1266.500	724.716	80.006	19.994	103.761	20.147	2.337	0.506
1267.000	724.989	80.005	19.993	103.765	20.148	2.294	0.536
1267.500	725.264	80.005	19.993	103.770	20.147	2.362	0.549
1268.000	725.522	80.006	19.993	103.770	20.147	2.343	0.541
1268.501	725.779	80.006	19.992	103.771	20.146	2.432	0.524
1269.001	726.017	80.004	19.994	103.770	20.145	2.446	0.505
1269.500	726.274	80.005	19.994	103.766	20.145	2.442	0.495
1270.000	726.508	80.005	19.994	103.760	20.147	2.362	0.493
1270.500	726.825	80.007	19.993	103.759	20.146	2.435	0.521
1271.000	727.069	80.006	19.992	103.760	20.149	2.189	0.556
1271.500	727.347	80.006	19.994	103.760	20.148	2.292	0.541
1272.000	727.616	80.006	19.994	103.762	20.145	2.464	0.534
1272.500	727.836	80.006	19.994	103.764	20.145	2.444	0.518
1273.000	728.129	80.006	19.993	103.766	20.148	2.268	0.501
1273.500	728.348	80.007	19.993	103.764	20.145	2.485	0.513
1274.000	728.650	80.008	19.994	103.764	20.146	2.388	0.516
1274.500	728.879	80.006	19.993	103.763	20.145	2.474	0.525
1275.000	729.124	80.008	19.993	103.763	20.147	2.314	0.502
1275.500	729.385	80.006	19.993	103.766	20.146	2.384	0.490
1276.000	729.677	80.007	19.993	103.768	20.147	2.364	0.530
1276.500	729.894	80.008	19.992	103.770	20.146	2.376	0.532
1277.001	730.191	80.008	19.994	103.770	20.145	2.497	0.511
1277.501	730.433	80.008	19.993	103.767	20.145	2.487	0.526
1278.000	730.712	80.008	19.994	103.762	20.145	2.442	0.530
1278.500	730.943	80.008	19.993	103.760	20.144	2.536	0.516
1279.000	731.200	80.008	19.992	103.759	20.147	2.362	0.499
1279.500	731.434	80.008	19.992	103.759	20.144	2.530	0.489
1280.000	731.772	80.008	19.994	103.759	20.149	2.206	0.531
1280.500	732.020	80.008	19.993	103.760	20.147	2.358	0.579
1281.000	732.264	80.008	19.993	103.761	20.149	2.208	0.539
1281.500	732.485	80.008	19.993	103.762	20.148	2.237	0.478
1282.000	732.766	80.008	19.993	103.762	20.149	2.194	0.483
1282.500	733.001	80.007	19.992	103.761	20.145	2.442	0.509
1283.000	733.284	80.007	19.994	103.759	20.146	2.433	0.517
1283.500	733.497	80.009	19.993	103.758	20.147	2.337	0.507
1284.000	733.764	80.008	19.993	103.759	20.146	2.372	0.488
1284.500	734.042	80.008	19.994	103.764	20.144	2.575	0.512
1285.000	734.286	80.008	19.993	103.768	20.147	2.362	0.533
1285.500	734.519	80.007	19.993	103.768	20.149	2.222	0.499
1286.000	734.760	80.008	19.994	103.766	20.147	2.329	0.476
1286.500	735.036	80.007	19.994	103.762	20.146	2.390	0.496
1287.000	735.274	80.006	19.994	103.756	20.150	2.154	0.515
1287.500	735.525	80.007	19.993	103.757	20.146	2.368	0.501
1288.000	735.768	80.006	19.994	103.761	20.150	2.105	0.491
1288.500	736.053	80.006	19.993	103.764	20.147	2.300	0.511
1289.000	736.301	80.006	19.995	103.770	20.150	2.120	0.530
1289.500	736.553	80.006	19.994	103.772	20.145	2.464	0.517
1290.000	736.820	80.004	19.995	103.768	20.148	2.278	0.510
1290.500	737.080	80.005	19.994	103.765	20.148	2.266	0.523
1291.000	737.301	80.005	19.993	103.761	20.148	2.290	0.504
1291.500	737.561	80.005	19.994	103.757	20.148	2.288	0.481
1292.000	737.816	80.005	19.993	103.755	20.147	2.315	0.498
1292.500	738.091	80.004	19.993	103.756	20.148	2.251	0.523
1293.000	738.328	80.005	19.994	103.760	20.146	2.413	0.521
1293.500	738.589	80.005	19.993	103.767	20.147	2.317	0.505
1294.000	738.869	80.007	19.993	103.771	20.146	2.388	0.519
1294.500	739.143	80.005	19.994	103.770	20.150	2.132	0.548
1295.000	739.391	80.004	19.994	103.771	20.145	2.473	0.538
1295.500	739.653	80.006	19.994	103.770	20.146	2.403	0.516
1296.001	739.906	80.006	19.994	103.771	20.148	2.288	0.513
1296.501	740.195	80.006	19.994	103.772	20.147	2.315	0.528
1297.001	740.393	80.005	19.993	103.773	20.152	1.974	0.514
1297.501	740.626	80.006	19.994	103.774	20.150	2.136	0.459
1298.000	740.927	80.004	19.994	103.772	20.149	2.167	0.482
1298.500	741.155	80.007	19.994	103.765	20.149	2.218	0.531
1299.000	741.434	80.006	19.993	103.760	20.148	2.235	0.518
1299.500	741.675	80.006	19.993	103.758	20.147	2.321	0.514
1300.000	741.943	80.006	19.994	103.757	20.148	2.266	0.515
1300.500	742.198	80.007	19.994	103.755	20.147	2.327	0.516
1301.000	742.468	80.006	19.993	103.756	20.149	2.198	0.524
1301.500	742.735	80.007	19.993	103.756	20.151	2.063	0.531
1302.000	742.941	80.006	19.993	103.756	20.147	2.331	0.505
1302.500	743.205	80.006	19.994	103.756	20.149	2.165	0.472
1303.000	743.459	80.006	19.993	103.755	20.146	2.399	0.494
