Sample ID:	C:\MCC\MCC Cal\Test\PineLap_SidingA_MCC_30K_min_211122_R3.txt
Sample Weight (mg):	4.83
Heating Rate (C/s):	0.5
Combustor Temp (C):	900
N2 Flow Rate (cc/min):	80
O2 Flow Rate (cc/min):	20
Calibration File:	C:\MCC\MCC Cal\Coeff1 JN10440_30_210304.txt.txt
T Correction Coefficients:	0	1.024463	0
Time Shift (s):	14
*
Time (s)	Temperature (C)	N2 flow rate (cc/min)	O2 flow rate (cc/min)	Flow Rate (cc/min)	Oxygen (%)	HRR (W/g)	Heating rate (C/s)
0.000	108.766	80.004	19.994	103.137	20.044	0.331	0.005
0.500	108.746	80.003	19.996	103.137	20.046	0.207	-0.010
1.001	108.728	80.004	19.996	103.137	20.046	0.165	-0.032
1.500	108.729	80.004	19.995	103.136	20.043	0.384	-0.027
2.000	108.766	80.006	19.995	103.139	20.048	0.056	0.011
2.500	108.754	80.004	19.995	103.141	20.046	0.191	0.032
3.000	108.746	80.004	19.994	103.143	20.047	0.125	0.003
3.500	108.751	80.005	19.994	103.143	20.046	0.164	-0.011
4.000	108.765	80.005	19.994	103.143	20.043	0.373	0.008
4.500	108.757	80.004	19.993	103.142	20.042	0.429	0.012
5.000	108.747	80.005	19.994	103.141	20.044	0.296	-0.006
5.500	108.750	80.003	19.995	103.140	20.045	0.227	-0.012
6.000	108.731	80.005	19.994	103.140	20.045	0.215	-0.011
6.500	108.770	80.004	19.996	103.140	20.042	0.414	0.002
7.000	108.734	80.005	19.993	103.140	20.046	0.169	0.012
7.500	108.732	80.005	19.995	103.140	20.044	0.324	-0.017
8.000	108.768	80.005	19.994	103.140	20.045	0.242	-0.002
8.500	108.758	80.005	19.995	103.140	20.044	0.336	0.030
9.000	108.736	80.005	19.994	103.140	20.043	0.398	-0.003
9.500	108.736	80.004	19.995	103.140	20.042	0.474	-0.028
10.000	108.750	80.005	19.995	103.140	20.041	0.496	-0.004
10.500	108.730	80.005	19.995	103.140	20.044	0.282	0.004
11.000	108.707	80.004	19.994	103.137	20.043	0.365	-0.025
11.500	108.729	80.004	19.994	103.135	20.043	0.355	-0.022
12.001	108.719	80.003	19.995	103.131	20.039	0.618	0.006
12.501	108.749	80.006	19.995	103.128	20.039	0.633	0.016
13.000	108.740	80.006	19.996	103.122	20.042	0.464	0.020
13.500	108.738	80.006	19.995	103.120	20.042	0.435	0.005
14.000	108.730	80.005	19.996	103.122	20.045	0.225	-0.011
14.500	108.708	80.004	19.995	103.126	20.038	0.700	-0.021
15.000	108.753	80.004	19.995	103.129	20.043	0.393	-0.004
15.500	108.699	80.006	19.995	103.135	20.042	0.475	0.007
16.000	108.715	80.004	19.996	103.139	20.042	0.469	-0.023
16.500	108.735	80.005	19.995	103.139	20.041	0.515	-0.001
17.000	108.713	80.006	19.996	103.139	20.040	0.575	0.017
17.500	108.727	80.004	19.996	103.138	20.038	0.687	-0.005
18.000	108.726	80.005	19.995	103.138	20.039	0.647	0.002
18.500	108.715	80.005	19.995	103.139	20.037	0.778	0.000
19.000	108.758	80.006	19.994	103.142	20.043	0.395	0.010
19.500	108.752	80.002	19.995	103.141	20.039	0.671	0.034
20.000	108.728	80.003	19.996	103.142	20.040	0.577	0.004
20.500	108.759	80.006	19.994	103.142	20.039	0.662	-0.011
21.000	108.741	80.004	19.995	103.141	20.036	0.843	0.010
21.500	108.754	80.005	19.995	103.140	20.034	0.943	0.004
22.000	108.774	80.004	19.995	103.147	20.039	0.615	0.014
22.500	108.799	80.004	19.995	103.152	20.037	0.784	0.039
23.000	108.760	80.005	19.995	103.158	20.037	0.755	0.015
23.500	108.771	80.004	19.995	103.166	20.034	0.995	-0.021
24.000	108.759	80.006	19.994	103.170	20.041	0.526	-0.014
24.500	108.814	80.007	19.994	103.171	20.039	0.650	0.021
25.000	108.804	80.005	19.995	103.174	20.036	0.835	0.044
25.500	108.833	80.005	19.994	103.176	20.038	0.693	0.032
26.000	108.823	80.005	19.996	103.176	20.034	0.953	0.019
26.500	108.826	80.007	19.995	103.176	20.034	0.988	0.006
27.000	108.801	80.004	19.995	103.176	20.035	0.884	-0.015
27.500	108.882	80.006	19.995	103.177	20.032	1.101	0.017
28.000	108.874	80.006	19.995	103.179	20.033	1.070	0.065
28.500	108.875	80.003	19.995	103.179	20.031	1.159	0.033
29.000	108.927	80.006	19.995	103.183	20.030	1.221	0.023
29.500	108.949	80.006	19.995	103.190	20.027	1.416	0.064
30.000	108.929	80.004	19.995	103.202	20.027	1.417	0.038
30.500	108.968	80.008	19.995	103.216	20.028	1.385	0.010
31.000	108.965	80.003	19.995	103.230	20.026	1.492	0.028
31.500	109.014	80.007	19.995	103.242	20.023	1.685	0.041
32.000	109.031	80.007	19.995	103.251	20.024	1.649	0.056
32.501	109.050	80.006	19.995	103.252	20.022	1.803	0.051
33.001	109.131	80.008	19.995	103.252	20.021	1.813	0.068
33.501	109.116	80.007	19.994	103.252	20.020	1.887	0.083
34.001	109.142	80.008	19.995	103.252	20.021	1.842	0.039
34.501	109.144	80.008	19.995	103.250	20.022	1.807	0.020
35.001	109.198	80.006	19.995	103.246	20.022	1.746	0.041
35.500	109.218	80.006	19.994	103.239	20.022	1.784	0.065
36.001	109.240	80.007	19.994	103.231	20.020	1.904	0.058
36.501	109.292	80.007	19.994	103.223	20.018	2.017	0.058
37.000	109.363	80.006	19.995	103.219	20.018	2.075	0.099
37.500	109.363	80.007	19.995	103.223	20.018	2.070	0.097
38.000	109.437	80.008	19.995	103.221	20.018	2.044	0.072
38.500	109.464	80.007	19.995	103.221	20.016	2.156	0.088
39.000	109.488	80.009	19.996	103.221	20.018	2.050	0.076
39.500	109.541	80.005	19.995	103.225	20.018	2.066	0.064
40.001	109.579	80.006	19.996	103.225	20.019	2.006	0.084
40.501	109.599	80.005	19.996	103.229	20.018	2.044	0.074
41.000	109.622	80.006	19.996	103.238	20.018	2.065	0.051
41.500	109.704	80.004	19.995	103.245	20.018	2.059	0.074
42.000	109.716	80.007	19.996	103.247	20.015	2.236	0.099
42.500	109.802	80.007	19.996	103.248	20.016	2.190	0.096
43.000	109.791	80.003	19.996	103.251	20.016	2.170	0.087
43.500	109.886	80.004	19.996	103.251	20.014	2.282	0.080
44.001	109.941	80.004	19.995	103.251	20.014	2.296	0.117
44.501	109.942	80.005	19.995	103.257	20.014	2.309	0.103
45.000	110.024	80.003	19.996	103.265	20.013	2.380	0.069
45.500	110.038	80.004	19.996	103.272	20.011	2.483	0.089
46.001	110.137	80.005	19.996	103.274	20.009	2.645	0.105
46.501	110.164	80.005	19.996	103.276	20.010	2.578	0.119
47.001	110.249	80.004	19.995	103.272	20.010	2.555	0.119
47.501	110.283	80.007	19.995	103.271	20.008	2.702	0.115
48.000	110.384	80.008	19.995	103.273	20.008	2.681	0.127
48.500	110.402	80.005	19.996	103.280	20.010	2.575	0.127
49.000	110.480	80.007	19.996	103.287	20.008	2.694	0.107
49.500	110.529	80.005	19.996	103.292	20.012	2.437	0.111
50.000	110.599	80.005	19.995	103.293	20.008	2.732	0.123
50.500	110.659	80.005	19.995	103.293	20.010	2.590	0.124
51.000	110.754	80.006	19.995	103.292	20.009	2.648	0.143
51.500	110.810	80.004	19.994	103.291	20.007	2.774	0.153
52.000	110.862	80.006	19.995	103.293	20.005	2.887	0.130
52.500	110.964	80.005	19.994	103.295	20.008	2.687	0.131
53.000	111.030	80.006	19.994	103.297	20.006	2.815	0.161
53.500	111.110	80.004	19.994	103.303	20.007	2.800	0.157
54.000	111.209	80.008	19.994	103.308	20.005	2.912	0.162
54.500	111.239	80.005	19.995	103.307	20.004	2.959	0.154
55.000	111.383	80.008	19.994	103.305	20.004	2.985	0.152
55.500	111.463	80.006	19.995	103.304	20.007	2.806	0.199
56.000	111.527	80.008	19.994	103.299	20.005	2.923	0.184
56.500	111.645	80.008	19.993	103.295	20.006	2.824	0.163
57.000	111.730	80.006	19.994	103.297	20.007	2.788	0.193
57.500	111.819	80.009	19.993	103.305	20.004	2.990	0.188
58.000	111.900	80.006	19.994	103.313	20.006	2.863	0.172
58.500	111.968	80.009	19.994	103.320	20.005	2.934	0.160
59.000	112.070	80.006	19.994	103.328	20.003	3.080	0.159
59.500	112.183	80.007	19.993	103.336	20.004	2.959	0.193
60.000	112.222	80.006	19.993	103.340	20.002	3.111	0.184
60.500	112.376	80.007	19.994	103.339	20.005	2.912	0.173
61.000	112.460	80.008	19.994	103.340	20.004	2.983	0.215
61.500	112.558	80.008	19.994	103.339	20.003	3.076	0.210
62.000	112.677	80.008	19.994	103.337	19.998	3.379	0.199
62.500	112.772	80.006	19.993	103.340	19.998	3.372	0.215
63.000	112.871	80.007	19.994	103.345	20.000	3.255	0.204
63.500	113.008	80.006	19.994	103.352	20.003	3.037	0.216
64.000	113.086	80.008	19.994	103.362	19.998	3.354	0.226
64.500	113.201	80.005	19.994	103.371	19.999	3.322	0.204
65.000	113.312	80.006	19.994	103.376	19.998	3.375	0.210
65.500	113.452	80.004	19.994	103.381	19.997	3.421	0.239
66.000	113.542	80.006	19.994	103.385	19.996	3.542	0.240
66.500	113.691	80.006	19.994	103.384	19.998	3.409	0.235
67.000	113.775	80.005	19.994	103.384	19.993	3.697	0.236
67.500	113.882	80.005	19.994	103.383	19.997	3.420	0.212
68.000	114.071	80.004	19.994	103.382	19.994	3.661	0.243
68.500	114.165	80.007	19.994	103.380	19.993	3.690	0.289
69.000	114.290	80.005	19.995	103.379	19.995	3.602	0.251
69.500	114.427	80.005	19.994	103.384	19.996	3.486	0.240
70.001	114.550	80.005	19.994	103.386	19.993	3.684	0.261
70.501	114.696	80.005	19.994	103.390	19.996	3.542	0.265
71.000	114.793	80.004	19.994	103.395	19.995	3.602	0.256
71.500	114.914	80.004	19.995	103.397	19.994	3.678	0.231
72.000	115.096	80.005	19.995	103.396	19.993	3.689	0.261
72.501	115.194	80.005	19.994	103.401	19.997	3.467	0.291
73.001	115.320	80.006	19.994	103.403	19.994	3.640	0.252
73.500	115.526	80.006	19.994	103.405	19.997	3.436	0.278
74.000	115.693	80.004	19.994	103.409	19.994	3.680	0.352
74.500	115.756	80.004	19.993	103.411	19.993	3.741	0.301
75.000	115.983	80.004	19.994	103.406	19.996	3.531	0.260
75.500	116.071	80.005	19.995	103.401	19.996	3.485	0.302
76.000	116.260	80.003	19.994	103.396	19.996	3.493	0.296
76.500	116.386	80.007	19.994	103.391	19.998	3.380	0.296
77.000	116.577	80.008	19.995	103.387	19.999	3.331	0.316
77.501	116.693	80.005	19.996	103.384	19.994	3.628	0.312
78.001	116.866	80.007	19.996	103.383	19.997	3.435	0.298
78.501	117.044	80.005	19.996	103.385	19.996	3.513	0.320
79.000	117.165	80.004	19.996	103.386	19.997	3.428	0.325
79.500	117.279	80.004	19.995	103.385	19.997	3.473	0.267
80.000	117.506	80.005	19.995	103.383	19.994	3.632	0.288
80.500	117.649	80.005	19.995	103.378	19.998	3.371	0.356
81.000	117.830	80.008	19.995	103.373	19.994	3.643	0.347
81.500	117.989	80.006	19.995	103.370	19.996	3.542	0.332
82.000	118.168	80.007	19.995	103.368	19.996	3.517	0.339
82.500	118.304	80.005	19.994	103.369	19.990	3.883	0.326
83.000	118.474	80.005	19.993	103.371	19.993	3.715	0.310
83.500	118.650	80.008	19.994	103.371	19.994	3.668	0.326
84.000	118.805	80.004	19.994	103.371	19.994	3.620	0.338
84.500	118.993	80.004	19.994	103.371	19.990	3.914	0.337
85.000	119.141	80.004	19.995	103.372	19.993	3.717	0.340
85.500	119.323	80.005	19.995	103.371	19.993	3.732	0.333
86.000	119.480	80.004	19.994	103.371	19.992	3.784	0.334
86.500	119.689	80.007	19.994	103.372	19.991	3.832	0.352
87.000	119.803	80.006	19.995	103.372	19.993	3.737	0.345
87.500	120.038	80.005	19.995	103.373	19.990	3.928	0.337
88.000	120.167	80.005	19.995	103.373	19.994	3.659	0.357
88.500	120.400	80.006	19.994	103.376	19.989	3.970	0.363
89.000	120.577	80.005	19.994	103.379	19.990	3.894	0.386
89.500	120.771	80.007	19.993	103.381	19.990	3.927	0.390
90.000	120.911	80.006	19.994	103.385	19.991	3.816	0.352
90.500	121.131	80.006	19.994	103.390	19.994	3.665	0.347
91.000	121.299	80.006	19.994	103.388	19.990	3.948	0.374
91.500	121.480	80.007	19.993	103.386	19.991	3.850	0.369
92.000	121.692	80.007	19.995	103.384	19.989	3.979	0.370
92.500	121.897	80.006	19.995	103.379	19.989	3.981	0.405
93.000	122.034	80.009	19.992	103.375	19.991	3.820	0.380
93.500	122.259	80.008	19.994	103.373	19.989	3.957	0.352
94.000	122.450	80.007	19.995	103.372	19.989	3.977	0.389
94.500	122.623	80.007	19.994	103.372	19.989	3.952	0.390
95.000	122.847	80.007	19.994	103.372	19.995	3.611	0.380
95.500	123.025	80.005	19.993	103.372	19.991	3.860	0.399
96.000	123.195	80.006	19.993	103.373	19.989	3.973	0.375
96.501	123.389	80.004	19.994	103.374	19.991	3.827	0.356
97.001	123.630	80.004	19.995	103.378	19.990	3.910	0.400
97.501	123.814	80.007	19.994	103.379	19.993	3.714	0.430
98.000	124.039	80.007	19.995	103.379	19.993	3.734	0.417
98.500	124.206	80.006	19.995	103.379	19.988	4.019	0.401
99.000	124.406	80.006	19.994	103.378	19.989	3.987	0.379
99.500	124.568	80.005	19.995	103.374	19.991	3.864	0.365
100.000	124.795	80.004	19.995	103.374	19.992	3.808	0.376
100.500	124.991	80.007	19.995	103.380	19.992	3.802	0.406
101.000	125.172	80.006	19.995	103.388	19.991	3.877	0.400
101.500	125.380	80.007	19.994	103.396	19.989	3.992	0.382
102.000	125.609	80.004	19.995	103.403	19.992	3.786	0.413
102.500	125.810	80.008	19.994	103.411	19.991	3.817	0.434
103.001	126.029	80.005	19.994	103.415	19.991	3.826	0.425
103.501	126.195	80.007	19.994	103.415	19.990	3.924	0.402
104.000	126.433	80.005	19.995	103.415	19.991	3.828	0.395
104.500	126.651	80.006	19.995	103.417	19.990	3.944	0.430
105.000	126.872	80.006	19.995	103.420	19.991	3.823	0.447
105.500	127.061	80.006	19.994	103.415	19.990	3.949	0.424
106.000	127.266	80.004	19.995	103.409	19.995	3.584	0.402
106.500	127.460	80.005	19.995	103.402	19.990	3.887	0.396
107.000	127.655	80.005	19.994	103.392	19.992	3.774	0.394
107.500	127.881	80.006	19.994	103.383	19.987	4.130	0.405
108.000	128.126	80.003	19.995	103.384	19.997	3.470	0.446
108.500	128.350	80.005	19.995	103.392	19.988	4.039	0.470
109.000	128.559	80.006	19.995	103.406	19.992	3.767	0.451
109.500	128.789	80.006	19.994	103.416	19.990	3.911	0.436
110.000	128.965	80.006	19.995	103.421	19.994	3.622	0.422
110.500	129.217	80.004	19.995	103.422	19.994	3.678	0.417
111.001	129.386	80.005	19.995	103.421	19.991	3.840	0.425
111.501	129.639	80.007	19.995	103.415	19.992	3.760	0.421
112.000	129.859	80.003	19.995	103.413	19.991	3.875	0.447
112.500	130.078	80.008	19.995	103.413	19.993	3.738	0.455
113.001	130.282	80.005	19.995	103.413	19.994	3.632	0.431
113.501	130.525	80.006	19.995	103.411	19.992	3.787	0.435
114.000	130.737	80.005	19.995	103.415	19.991	3.840	0.451
114.500	130.946	80.004	19.994	103.417	19.989	3.954	0.438
115.000	131.178	80.005	19.994	103.416	19.990	3.925	0.432
115.500	131.381	80.006	19.996	103.408	19.993	3.738	0.438
116.000	131.625	80.007	19.995	103.398	19.988	4.073	0.440
116.500	131.824	80.007	19.994	103.388	19.989	3.964	0.445
117.000	132.101	80.008	19.995	103.385	19.992	3.785	0.460
117.501	132.318	80.006	19.994	103.381	19.992	3.767	0.485
118.001	132.537	80.007	19.994	103.388	19.990	3.891	0.465
118.500	132.806	80.007	19.995	103.397	19.991	3.842	0.462
119.001	133.017	80.009	19.994	103.402	19.989	3.955	0.484
119.501	133.228	80.008	19.994	103.402	19.991	3.837	0.452
120.000	133.523	80.007	19.994	103.406	19.993	3.709	0.464
120.500	133.655	80.005	19.995	103.406	19.990	3.908	0.466
121.000	133.903	80.008	19.995	103.407	19.988	4.048	0.403
121.500	134.155	80.006	19.995	103.406	19.989	4.000	0.440
122.000	134.416	80.006	19.994	103.407	19.988	4.015	0.506
122.500	134.599	80.005	19.994	103.409	19.990	3.933	0.479
123.000	134.849	80.006	19.994	103.411	19.987	4.125	0.439
123.500	135.090	80.005	19.996	103.410	19.989	3.980	0.462
124.000	135.354	80.006	19.994	103.405	19.986	4.154	0.498
124.500	135.563	80.005	19.995	103.400	19.987	4.139	0.489
125.001	135.815	80.005	19.994	103.396	19.989	3.996	0.467
125.501	136.046	80.005	19.994	103.390	19.984	4.290	0.472
126.001	136.290	80.005	19.994	103.384	19.988	4.082	0.479
126.501	136.481	80.006	19.994	103.389	19.987	4.138	0.455
127.001	136.756	80.002	19.994	103.395	19.987	4.088	0.450
127.500	136.968	80.004	19.997	103.398	19.986	4.203	0.477
128.000	137.210	80.005	19.995	103.405	19.988	4.071	0.470
128.500	137.483	80.006	19.996	103.411	19.987	4.102	0.484
129.000	137.692	80.004	19.994	103.412	19.987	4.113	0.499
129.500	137.925	80.003	19.995	103.413	19.991	3.840	0.462
130.000	138.153	80.004	19.995	103.410	19.991	3.860	0.451
130.500	138.479	80.005	19.995	103.406	19.988	4.028	0.508
131.000	138.667	80.006	19.995	103.404	19.989	3.980	0.534
131.500	138.880	80.005	19.995	103.405	19.987	4.104	0.457
132.000	139.176	80.004	19.995	103.406	19.989	3.982	0.455
132.500	139.404	80.005	19.995	103.380	19.989	4.004	0.517
133.000	139.657	80.004	19.995	103.358	19.992	3.807	0.503
133.500	139.923	80.003	19.995	103.343	19.989	3.965	0.500
134.000	140.144	80.005	19.995	103.332	19.988	4.047	0.503
134.500	140.429	80.005	19.995	103.337	19.992	3.786	0.496
135.000	140.679	80.005	19.995	103.406	19.990	3.912	0.521
135.500	140.829	80.005	19.995	103.450	19.991	3.816	0.468
136.000	141.099	80.006	19.995	103.472	19.992	3.801	0.410
136.500	141.362	80.006	19.996	103.481	19.989	3.985	0.477
137.000	141.591	80.004	19.995	103.475	19.992	3.750	0.512
137.500	141.823	80.007	19.995	103.432	19.988	4.021	0.477
138.000	142.087	80.006	19.994	103.407	19.990	3.917	0.478
138.500	142.324	80.005	19.995	103.397	19.990	3.939	0.498
139.000	142.563	80.005	19.995	103.397	19.991	3.844	0.488
139.500	142.810	80.006	19.995	103.393	19.990	3.917	0.481
140.000	143.043	80.006	19.995	103.391	19.991	3.867	0.483
140.501	143.320	80.006	19.995	103.393	19.988	4.036	0.495
141.001	143.596	80.006	19.995	103.396	19.989	3.993	0.532
141.500	143.787	80.007	19.995	103.396	19.990	3.938	0.510
142.000	144.028	80.006	19.994	103.399	19.989	3.978	0.449
142.500	144.306	80.006	19.995	103.398	19.991	3.832	0.475
143.000	144.585	80.005	19.995	103.396	19.989	3.968	0.538
143.500	144.799	80.007	19.995	103.393	19.986	4.165	0.525
144.000	145.081	80.007	19.995	103.386	19.988	4.037	0.495
144.500	145.341	80.007	19.995	103.379	19.990	3.932	0.518
145.000	145.562	80.007	19.996	103.378	19.988	4.029	0.511
145.500	145.796	80.006	19.995	103.378	19.990	3.894	0.468
146.000	146.100	80.007	19.995	103.377	19.987	4.087	0.497
146.500	146.303	80.007	19.995	103.379	19.988	4.065	0.522
147.000	146.578	80.006	19.994	103.379	19.986	4.210	0.492
147.500	146.792	80.005	19.995	103.376	19.988	4.046	0.483
148.000	147.088	80.006	19.994	103.374	19.986	4.208	0.500
148.500	147.338	80.007	19.995	103.371	19.985	4.234	0.528
149.000	147.548	80.007	19.995	103.368	19.991	3.878	0.503
149.500	147.799	80.007	19.995	103.368	19.987	4.138	0.460
150.000	148.050	80.006	19.995	103.370	19.987	4.101	0.481
150.500	148.327	80.007	19.995	103.376	19.991	3.875	0.515
151.000	148.580	80.005	19.995	103.384	19.990	3.912	0.529
151.500	148.836	80.006	19.994	103.392	19.989	3.983	0.519
152.000	149.068	80.005	19.994	103.398	19.990	3.939	0.498
152.500	149.352	80.006	19.994	103.397	19.987	4.145	0.502
153.000	149.577	80.005	19.994	103.391	19.988	4.039	0.513
153.500	149.859	80.005	19.994	103.383	19.988	4.066	0.508
154.000	150.087	80.005	19.995	103.375	19.988	4.015	0.508
154.500	150.352	80.006	19.994	103.370	19.988	4.028	0.501
155.000	150.624	80.004	19.994	103.369	19.986	4.174	0.515
155.500	150.846	80.007	19.994	103.370	19.987	4.094	0.516
156.000	151.066	80.005	19.994	103.376	19.991	3.877	0.468
156.500	151.326	80.004	19.994	103.377	19.989	3.985	0.461
157.000	151.559	80.005	19.994	103.380	19.987	4.118	0.486
157.500	151.855	80.005	19.994	103.386	19.989	3.981	0.511
158.000	152.099	80.005	19.995	103.393	19.993	3.733	0.535
158.500	152.382	80.004	19.994	103.397	19.985	4.218	0.533
159.000	152.610	80.005	19.994	103.399	19.987	4.134	0.519
159.500	152.890	80.004	19.994	103.399	19.991	3.854	0.510
160.000	153.117	80.004	19.995	103.392	19.991	3.843	0.508
160.500	153.380	80.004	19.995	103.384	19.991	3.867	0.498
161.000	153.583	80.005	19.996	103.376	19.990	3.941	0.478
161.500	153.869	80.003	19.995	103.373	19.992	3.784	0.478
162.000	154.108	80.005	19.993	103.371	19.987	4.099	0.507
162.500	154.346	80.005	19.994	103.371	19.987	4.107	0.501
163.000	154.606	80.005	19.995	103.368	19.988	4.068	0.487
163.500	154.866	80.005	19.994	103.362	19.991	3.855	0.509
164.000	155.134	80.006	19.994	103.359	19.989	4.001	0.524
164.500	155.375	80.005	19.995	103.360	19.988	4.028	0.518
165.000	155.655	80.004	19.994	103.362	19.990	3.897	0.515
165.500	155.872	80.005	19.994	103.365	19.989	3.997	0.509
166.000	156.130	80.004	19.994	103.371	19.991	3.846	0.486
166.500	156.402	80.005	19.995	103.373	19.993	3.735	0.503
167.000	156.640	80.006	19.994	103.373	19.991	3.871	0.520
167.500	156.869	80.006	19.995	103.371	19.992	3.807	0.488
168.000	157.135	80.005	19.994	103.371	19.988	4.051	0.481
168.500	157.397	80.004	19.995	103.371	19.989	3.964	0.512
169.000	157.655	80.005	19.996	103.372	19.990	3.882	0.524
169.500	157.905	80.004	19.995	103.377	19.989	3.953	0.514
170.000	158.196	80.007	19.995	103.381	19.988	4.053	0.525
170.500	158.408	80.005	19.995	103.384	19.993	3.681	0.522
171.000	158.647	80.006	19.994	103.383	19.993	3.729	0.477
171.500	158.940	80.005	19.994	103.382	19.992	3.804	0.492
172.000	159.185	80.007	19.995	103.378	19.991	3.819	0.535
172.500	159.449	80.005	19.994	103.374	19.993	3.728	0.523
173.000	159.647	80.005	19.994	103.371	19.993	3.704	0.486
173.500	159.934	80.006	19.995	103.371	19.996	3.507	0.474
174.000	160.228	80.006	19.995	103.371	19.989	3.986	0.533
174.500	160.437	80.005	19.995	103.371	19.990	3.945	0.542
175.000	160.667	80.008	19.995	103.371	19.992	3.778	0.471
175.500	160.980	80.006	19.995	103.370	19.992	3.780	0.490
176.000	161.234	80.005	19.994	103.371	19.990	3.938	0.555
176.500	161.454	80.006	19.994	103.370	19.991	3.827	0.521
177.000	161.742	80.006	19.995	103.367	19.992	3.780	0.491
177.500	161.961	80.006	19.994	103.361	19.991	3.831	0.508
178.000	162.200	80.006	19.996	103.356	19.994	3.649	0.482
178.500	162.451	80.006	19.995	103.352	19.990	3.910	0.474
179.000	162.650	80.006	19.996	103.348	19.989	3.970	0.470
179.500	162.942	80.005	19.994	103.343	19.991	3.848	0.471
180.000	163.181	80.006	19.994	103.341	19.992	3.786	0.511
180.500	163.421	80.003	19.993	103.340	19.989	4.008	0.504
181.000	163.734	80.005	19.995	103.343	19.991	3.833	0.515
181.500	163.967	80.004	19.996	103.347	19.990	3.937	0.550
182.000	164.234	80.005	19.996	103.354	19.993	3.727	0.523
182.500	164.458	80.004	19.996	103.362	19.990	3.906	0.495
183.000	164.744	80.005	19.996	103.367	19.993	3.747	0.501
183.500	164.969	80.006	19.994	103.367	19.990	3.929	0.511
184.000	165.232	80.005	19.995	103.360	19.989	3.955	0.499
184.500	165.520	80.004	19.994	103.354	19.989	4.004	0.519
185.000	165.755	80.004	19.995	103.346	19.991	3.826	0.537
185.500	165.990	80.004	19.993	103.341	19.991	3.835	0.497
186.000	166.287	80.005	19.994	103.338	19.990	3.938	0.501
186.500	166.517	80.004	19.995	103.342	19.992	3.754	0.529
187.000	166.778	80.004	19.995	103.347	19.995	3.603	0.509
187.500	167.014	80.006	19.995	103.354	19.992	3.765	0.494
188.000	167.283	80.006	19.996	103.360	19.993	3.736	0.501
188.500	167.544	80.006	19.995	103.363	19.994	3.627	0.518
189.000	167.733	80.005	19.995	103.367	19.993	3.700	0.490
189.500	168.032	80.005	19.994	103.369	19.993	3.727	0.469
190.000	168.241	80.004	19.995	103.369	19.995	3.574	0.498
190.500	168.498	80.006	19.995	103.369	19.993	3.685	0.487
191.000	168.722	80.005	19.996	103.370	19.993	3.723	0.473
191.500	169.029	80.005	19.996	103.369	19.994	3.631	0.506
192.000	169.292	80.005	19.997	103.367	19.996	3.527	0.551
192.500	169.512	80.005	19.996	103.360	19.997	3.461	0.527
193.000	169.773	80.004	19.995	103.358	19.995	3.577	0.482
193.500	170.007	80.006	19.995	103.357	19.997	3.466	0.488
194.000	170.273	80.007	19.994	103.354	19.994	3.618	0.497
194.500	170.506	80.007	19.995	103.356	19.996	3.514	0.499
195.000	170.735	80.006	19.994	103.358	19.994	3.680	0.481
195.500	170.992	80.005	19.994	103.359	19.994	3.669	0.474
196.000	171.255	80.005	19.995	103.359	19.995	3.570	0.503
196.500	171.461	80.006	19.994	103.358	19.994	3.619	0.494
197.000	171.757	80.006	19.994	103.352	19.994	3.634	0.485
197.500	171.990	80.006	19.994	103.349	19.994	3.652	0.515
198.000	172.257	80.006	19.994	103.348	19.991	3.840	0.515
198.500	172.479	80.007	19.994	103.349	19.992	3.772	0.495
199.000	172.727	80.004	19.995	103.350	19.993	3.688	0.480
199.500	172.963	80.007	19.994	103.354	19.993	3.708	0.477
200.000	173.214	80.006	19.995	103.355	19.991	3.818	0.486
200.500	173.509	80.006	19.994	103.353	19.994	3.672	0.517
201.000	173.757	80.006	19.995	103.351	19.991	3.821	0.545
201.500	173.996	80.007	19.995	103.351	19.994	3.661	0.515
202.000	174.216	80.007	19.995	103.350	19.994	3.666	0.473
202.500	174.474	80.006	19.995	103.352	19.993	3.699	0.469
203.000	174.736	80.005	19.993	103.351	19.994	3.623	0.499
203.500	174.973	80.007	19.993	103.350	19.992	3.774	0.509
204.000	175.240	80.007	19.995	103.346	19.992	3.752	0.502
204.501	175.477	80.006	19.995	103.345	19.993	3.745	0.504
205.000	175.715	80.005	19.995	103.345	19.994	3.672	0.490
205.500	175.934	80.006	19.996	103.347	19.994	3.643	0.466
206.000	176.188	80.005	19.995	103.350	19.994	3.613	0.465
206.500	176.441	80.006	19.994	103.351	19.996	3.541	0.490
207.000	176.740	80.005	19.995	103.349	19.993	3.694	0.530
207.500	176.964	80.005	19.995	103.345	19.997	3.477	0.537
208.000	177.202	80.005	19.996	103.343	19.994	3.648	0.492
208.500	177.478	80.004	19.995	103.339	19.996	3.531	0.488
209.000	177.732	80.004	19.995	103.339	19.995	3.606	0.522
209.500	177.927	80.006	19.995	103.339	19.992	3.804	0.489
210.000	178.182	80.005	19.995	103.338	19.995	3.595	0.449
210.500	178.435	80.007	19.995	103.337	19.994	3.673	0.479
211.000	178.692	80.005	19.995	103.336	19.994	3.653	0.509
211.500	178.937	80.006	19.995	103.333	19.993	3.712	0.506
212.000	179.159	80.007	19.995	103.333	19.992	3.785	0.485
212.500	179.374	80.005	19.996	103.333	19.996	3.526	0.452
213.000	179.649	80.009	19.994	103.333	19.995	3.608	0.463
213.500	179.911	80.006	19.995	103.332	19.995	3.602	0.513
214.000	180.139	80.005	19.994	103.332	19.994	3.653	0.513
214.501	180.398	80.007	19.994	103.330	19.991	3.821	0.489
215.000	180.614	80.007	19.995	103.330	19.991	3.834	0.481
215.500	180.870	80.006	19.995	103.330	19.993	3.730	0.473
216.000	181.109	80.007	19.995	103.331	19.992	3.783	0.484
216.500	181.380	80.007	19.994	103.331	19.993	3.712	0.503
217.000	181.636	80.006	19.995	103.332	19.997	3.440	0.518
217.500	181.874	80.007	19.994	103.332	19.995	3.564	0.511
218.000	182.144	80.007	19.996	103.331	19.995	3.573	0.501
218.500	182.381	80.007	19.995	103.331	19.993	3.724	0.507
219.000	182.614	80.008	19.993	103.331	19.994	3.668	0.488
219.500	182.874	80.007	19.995	103.329	19.993	3.682	0.482
220.000	183.136	80.008	19.995	103.327	19.997	3.479	0.508
220.500	183.355	80.006	19.995	103.325	19.994	3.653	0.501
221.000	183.588	80.007	19.995	103.325	19.993	3.712	0.466
221.500	183.805	80.008	19.995	103.325	19.994	3.637	0.451
222.000	184.079	80.007	19.994	103.326	19.994	3.670	0.470
222.500	184.330	80.008	19.995	103.328	19.991	3.841	0.508
223.000	184.568	80.009	19.995	103.330	19.999	3.340	0.507
223.500	184.795	80.007	19.995	103.330	19.993	3.686	0.477
224.000	185.082	80.009	19.994	103.330	19.993	3.692	0.489
224.500	185.314	80.009	19.996	103.330	19.992	3.794	0.517
225.000	185.546	80.008	19.995	103.330	19.990	3.881	0.492
225.500	185.815	80.009	19.994	103.329	19.992	3.785	0.483
226.000	186.043	80.008	19.995	103.330	19.991	3.825	0.499
226.500	186.307	80.010	19.995	103.329	19.992	3.794	0.494
227.000	186.530	80.008	19.995	103.330	19.991	3.876	0.489
227.500	186.784	80.009	19.995	103.329	19.990	3.925	0.482
228.000	187.035	80.007	19.995	103.329	19.990	3.888	0.491
228.500	187.297	80.008	19.994	103.327	19.990	3.894	0.509
229.000	187.517	80.009	19.995	103.326	19.990	3.928	0.497
229.500	187.801	80.007	19.995	103.325	19.991	3.832	0.494
230.000	188.012	80.009	19.995	103.325	19.992	3.801	0.500
230.500	188.227	80.009	19.994	103.326	19.990	3.923	0.460
231.000	188.457	80.006	19.995	103.328	19.994	3.648	0.436
231.500	188.738	80.007	19.995	103.330	19.991	3.839	0.478
232.000	188.963	80.006	19.996	103.331	19.994	3.677	0.508
232.500	189.202	80.007	19.994	103.331	19.993	3.726	0.485
233.000	189.468	80.007	19.996	103.330	19.993	3.712	0.484
233.500	189.695	80.006	19.995	103.330	19.991	3.857	0.499
234.000	189.920	80.006	19.995	103.329	19.991	3.823	0.473
234.500	190.216	80.005	19.996	103.333	19.992	3.774	0.487
235.000	190.402	80.005	19.995	103.335	19.991	3.870	0.501
235.500	190.638	80.006	19.995	103.337	19.991	3.817	0.452
236.000	190.935	80.004	19.996	103.337	19.992	3.765	0.477
236.500	191.171	80.006	19.996	103.337	19.994	3.659	0.533
237.000	191.394	80.006	19.995	103.333	19.993	3.725	0.496
237.500	191.654	80.006	19.995	103.331	19.994	3.637	0.471
238.000	191.843	80.004	19.996	103.329	19.993	3.730	0.466
238.500	192.073	80.004	19.995	103.328	19.991	3.834	0.434
239.000	192.341	80.004	19.995	103.328	19.992	3.765	0.458
239.500	192.548	80.006	19.995	103.327	19.989	3.989	0.487
240.000	192.832	80.003	19.995	103.327	19.990	3.934	0.483
240.500	193.047	80.006	19.996	103.328	19.988	4.023	0.495
241.000	193.318	80.005	19.996	103.331	19.990	3.899	0.492
241.500	193.508	80.005	19.994	103.331	19.990	3.932	0.474
242.000	193.813	80.005	19.996	103.331	19.991	3.850	0.478
242.500	194.037	80.005	19.996	103.332	19.990	3.923	0.512
243.000	194.228	80.005	19.996	103.331	19.993	3.719	0.472
243.500	194.481	80.006	19.996	103.329	19.990	3.908	0.430
244.000	194.724	80.005	19.994	103.329	19.987	4.112	0.470
244.500	194.952	80.004	19.995	103.329	19.989	3.994	0.484
245.000	195.227	80.006	19.995	103.330	19.987	4.125	0.487
245.500	195.472	80.006	19.995	103.330	19.986	4.168	0.511
246.000	195.696	80.005	19.995	103.331	19.987	4.081	0.495
246.500	195.923	80.005	19.994	103.332	19.986	4.152	0.460
247.000	196.206	80.005	19.994	103.331	19.990	3.913	0.481
247.500	196.459	80.005	19.995	103.331	19.991	3.839	0.523
248.000	196.675	80.006	19.995	103.331	19.989	3.988	0.502
248.500	196.913	80.006	19.994	103.332	19.988	4.050	0.461
249.000	197.155	80.005	19.994	103.332	19.988	4.045	0.467
249.500	197.427	80.005	19.995	103.333	19.990	3.936	0.497
250.000	197.686	80.006	19.995	103.334	19.991	3.832	0.523
250.500	197.894	80.005	19.994	103.331	19.989	4.003	0.499
251.000	198.147	80.005	19.993	103.327	19.984	4.320	0.463
251.500	198.377	80.006	19.994	103.327	19.991	3.855	0.472
252.000	198.637	80.004	19.995	103.327	19.988	4.074	0.487
252.500	198.901	80.006	19.994	103.327	19.991	3.868	0.507
253.000	199.124	80.006	19.994	103.330	19.990	3.941	0.506
253.500	199.375	80.005	19.994	103.331	19.990	3.919	0.481
254.000	199.591	80.005	19.994	103.332	19.992	3.752	0.470
254.500	199.845	80.005	19.994	103.332	19.988	4.025	0.469
255.000	200.099	80.006	19.994	103.329	19.990	3.916	0.489
255.500	200.330	80.004	19.995	103.323	19.987	4.091	0.496
256.000	200.582	80.005	19.994	103.321	19.988	4.029	0.484
256.500	200.848	80.005	19.994	103.319	19.986	4.209	0.501
257.000	201.059	80.006	19.994	103.316	19.988	4.049	0.497
257.500	201.317	80.005	19.994	103.314	19.989	3.949	0.473
258.000	201.525	80.005	19.994	103.316	19.989	3.965	0.467
258.500	201.790	80.006	19.994	103.319	19.989	4.001	0.470
259.000	202.037	80.006	19.994	103.320	19.989	3.983	0.493
259.500	202.249	80.006	19.993	103.321	19.988	4.078	0.485
260.000	202.536	80.006	19.994	103.322	19.990	3.943	0.479
260.500	202.751	80.005	19.994	103.325	19.992	3.779	0.500
261.000	203.002	80.005	19.995	103.325	19.990	3.894	0.484
261.500	203.245	80.005	19.994	103.322	19.988	4.018	0.481
262.000	203.512	80.005	19.995	103.321	19.990	3.916	0.502
262.500	203.771	80.004	19.994	103.322	19.987	4.136	0.518
263.000	203.957	80.005	19.995	103.323	19.991	3.850	0.485
263.500	204.251	80.006	19.995	103.325	19.990	3.890	0.462
264.000	204.490	80.006	19.995	103.326	19.989	3.969	0.506
264.500	204.709	80.006	19.994	103.328	19.987	4.104	0.496
265.000	204.959	80.005	19.994	103.330	19.996	3.506	0.463
265.500	205.218	80.006	19.994	103.331	19.991	3.821	0.489
266.000	205.463	80.004	19.994	103.332	19.991	3.854	0.507
266.500	205.696	80.005	19.995	103.336	19.992	3.788	0.491
267.000	205.981	80.004	19.994	103.337	19.989	4.001	0.498
267.500	206.207	80.005	19.993	103.337	19.993	3.723	0.515
268.000	206.456	80.004	19.994	103.337	19.991	3.837	0.493
268.500	206.708	80.003	19.995	103.337	19.991	3.843	0.488
269.000	206.976	80.005	19.995	103.335	19.992	3.752	0.511
269.500	207.231	80.004	19.995	103.335	19.988	4.043	0.522
270.000	207.450	80.004	19.995	103.336	19.988	4.080	0.499
270.500	207.690	80.004	19.995	103.337	19.993	3.706	0.466
271.000	207.975	80.004	19.996	103.337	19.991	3.816	0.491
271.500	208.228	80.005	19.996	103.339	19.994	3.655	0.532
272.000	208.444	80.005	19.995	103.339	19.992	3.803	0.504
272.500	208.713	80.004	19.994	103.339	19.993	3.715	0.477
273.000	208.939	80.005	19.995	103.338	19.991	3.815	0.490
273.500	209.194	80.005	19.994	103.339	19.994	3.677	0.488
274.000	209.429	80.004	19.994	103.337	19.992	3.768	0.485
274.500	209.688	80.005	19.995	103.336	19.992	3.771	0.492
275.000	209.932	80.005	19.995	103.336	19.991	3.831	0.498
275.500	210.154	80.006	19.995	103.336	19.995	3.608	0.484
276.000	210.431	80.005	19.994	103.335	19.991	3.824	0.483
276.500	210.671	80.005	19.994	103.334	19.992	3.773	0.508
277.000	210.897	80.005	19.994	103.334	19.995	3.577	0.491
277.500	211.176	80.005	19.995	103.333	19.994	3.637	0.486
278.000	211.447	80.006	19.994	103.332	19.992	3.788	0.527
278.500	211.665	80.007	19.994	103.331	19.992	3.806	0.519
279.000	211.915	80.006	19.994	103.330	19.993	3.690	0.479
279.500	212.182	80.006	19.994	103.330	19.993	3.697	0.493
280.001	212.403	80.007	19.994	103.330	19.991	3.853	0.503
280.500	212.667	80.007	19.994	103.331	19.995	3.577	0.486
281.000	212.911	80.007	19.994	103.331	19.991	3.879	0.496
281.500	213.166	80.007	19.993	103.331	19.991	3.840	0.504
282.000	213.424	80.007	19.994	103.331	19.989	3.962	0.506
282.500	213.603	80.007	19.994	103.331	19.993	3.739	0.475
283.000	213.866	80.006	19.994	103.330	19.995	3.558	0.439
283.500	214.148	80.007	19.994	103.329	19.992	3.791	0.493
284.000	214.368	80.007	19.995	103.325	19.991	3.877	0.524
284.500	214.584	80.008	19.993	103.321	19.992	3.804	0.469
285.000	214.897	80.007	19.993	103.319	19.992	3.812	0.482
285.500	215.133	80.008	19.994	103.318	19.992	3.810	0.539
286.000	215.368	80.007	19.994	103.317	19.990	3.896	0.511
286.500	215.634	80.007	19.994	103.320	19.993	3.719	0.486
287.000	215.909	80.007	19.993	103.321	19.988	4.063	0.521
287.500	216.111	80.008	19.994	103.320	19.990	3.923	0.509
288.000	216.379	80.007	19.995	103.320	19.991	3.861	0.473
288.500	216.606	80.008	19.994	103.321	19.991	3.826	0.483
289.000	216.887	80.007	19.994	103.320	19.991	3.854	0.502
289.500	217.111	80.007	19.995	103.322	19.989	4.012	0.506
290.000	217.365	80.007	19.994	103.324	19.991	3.837	0.492
290.500	217.599	80.007	19.993	103.323	19.988	4.036	0.483
291.000	217.886	80.007	19.995	103.319	19.988	4.052	0.504
291.500	218.114	80.005	19.994	103.319	19.988	4.016	0.518
292.000	218.391	80.006	19.994	103.316	19.988	4.039	0.510
292.500	218.563	80.006	19.994	103.311	19.990	3.914	0.477
293.000	218.842	80.007	19.994	103.309	19.993	3.717	0.450
293.500	219.094	80.006	19.994	103.316	19.991	3.853	0.491
294.000	219.335	80.007	19.995	103.317	19.989	3.962	0.513
294.500	219.570	80.005	19.994	103.319	19.992	3.755	0.485
295.000	219.819	80.005	19.995	103.324	19.988	4.033	0.480
295.500	220.054	80.006	19.995	103.327	19.991	3.870	0.484
296.000	220.328	80.006	19.994	103.327	19.990	3.908	0.496
296.500	220.577	80.008	19.995	103.325	19.988	4.077	0.516
297.000	220.806	80.008	19.995	103.327	19.989	4.006	0.501
297.500	221.061	80.007	19.995	103.327	19.992	3.806	0.481
298.000	221.321	80.007	19.995	103.328	19.992	3.801	0.500
298.500	221.565	80.006	19.995	103.328	19.991	3.877	0.509
299.000	221.817	80.006	19.994	103.330	19.990	3.932	0.500
299.500	222.062	80.006	19.995	103.330	19.991	3.837	0.497
300.000	222.306	80.007	19.996	103.331	19.989	4.008	0.493
300.500	222.541	80.007	19.995	103.329	19.990	3.887	0.483
301.000	222.780	80.006	19.995	103.328	19.989	3.967	0.476
301.500	223.057	80.006	19.994	103.327	19.990	3.891	0.495
302.000	223.277	80.008	19.994	103.325	19.989	4.002	0.507
302.500	223.535	80.008	19.995	103.322	19.990	3.922	0.488
303.000	223.752	80.008	19.995	103.323	19.992	3.803	0.476
303.500	224.038	80.008	19.996	103.322	19.993	3.721	0.489
304.000	224.289	80.006	19.995	103.316	19.992	3.788	0.520
304.500	224.536	80.008	19.995	103.314	19.992	3.771	0.518
305.000	224.790	80.009	19.997	103.310	19.991	3.833	0.500
305.500	225.025	80.009	19.995	103.307	19.991	3.847	0.495
306.000	225.287	80.008	19.996	103.309	19.992	3.756	0.493
306.500	225.540	80.008	19.995	103.316	19.994	3.676	0.506
307.000	225.767	80.009	19.994	103.317	19.990	3.918	0.497
307.500	226.038	80.008	19.994	103.317	19.991	3.875	0.489
308.000	226.284	80.008	19.995	103.318	19.993	3.744	0.507
308.500	226.538	80.008	19.996	103.318	19.990	3.887	0.508
309.000	226.789	80.008	19.995	103.318	19.990	3.885	0.503
309.500	227.018	80.009	19.994	103.318	19.989	3.964	0.493
310.000	227.251	80.009	19.994	103.318	19.991	3.829	0.471
310.500	227.467	80.009	19.994	103.314	19.990	3.931	0.455
311.000	227.735	80.007	19.994	103.307	19.992	3.758	0.466
311.500	228.040	80.007	19.995	103.301	19.990	3.911	0.529
312.000	228.264	80.007	19.995	103.298	19.994	3.633	0.551
312.500	228.498	80.008	19.995	103.304	19.990	3.884	0.493
313.000	228.788	80.007	19.994	103.311	19.989	3.966	0.491
313.500	229.041	80.006	19.994	103.317	19.989	3.995	0.534
314.000	229.286	80.007	19.994	103.324	19.990	3.916	0.520
314.500	229.559	80.007	19.994	103.327	19.989	3.965	0.508
315.000	229.809	80.006	19.994	103.323	19.989	3.996	0.520
315.500	230.037	80.006	19.995	103.316	19.983	4.391	0.500
316.000	230.271	80.005	19.995	103.313	19.984	4.299	0.470
316.500	230.604	80.006	19.994	103.306	19.986	4.206	0.514
317.000	230.797	80.005	19.994	103.303	19.987	4.131	0.547
317.500	231.043	80.005	19.995	103.303	19.989	3.964	0.483
318.000	231.288	80.005	19.996	103.303	19.987	4.139	0.465
318.500	231.560	80.004	19.995	103.301	19.987	4.110	0.504
319.000	231.852	80.005	19.995	103.303	19.987	4.128	0.541
319.500	232.035	80.005	19.995	103.301	19.986	4.153	0.520
320.000	232.288	80.005	19.995	103.299	19.986	4.162	0.456
320.500	232.553	80.006	19.995	103.302	19.989	3.977	0.477
321.000	232.793	80.004	19.995	103.303	19.990	3.928	0.512
321.500	233.039	80.004	19.995	103.304	19.982	4.421	0.495
322.000	233.282	80.006	19.995	103.309	19.985	4.245	0.487
322.500	233.557	80.005	19.995	103.310	19.988	4.025	0.503
323.000	233.777	80.005	19.995	103.307	19.983	4.355	0.507
323.501	234.050	80.006	19.995	103.305	19.989	3.952	0.494
324.000	234.269	80.004	19.994	103.302	19.981	4.531	0.493
324.500	234.542	80.005	19.995	103.296	19.982	4.449	0.492
325.000	234.798	80.004	19.994	103.295	19.982	4.426	0.511
325.500	235.066	80.004	19.994	103.294	19.981	4.511	0.526
326.000	235.277	80.005	19.996	103.294	19.986	4.156	0.502
326.500	235.520	80.004	19.995	103.295	19.987	4.116	0.467
327.000	235.805	80.004	19.995	103.295	19.988	4.052	0.491
327.500	236.026	80.003	19.995	103.296	19.984	4.291	0.517
328.000	236.237	80.003	19.994	103.297	19.984	4.347	0.469
328.500	236.507	80.003	19.996	103.302	19.982	4.418	0.456
329.000	236.730	80.004	19.995	103.305	19.984	4.314	0.487
329.500	236.971	80.004	19.996	103.306	19.984	4.289	0.479
330.000	237.241	80.004	19.995	103.305	19.987	4.140	0.488
330.500	237.481	80.004	19.996	103.304	19.988	4.032	0.510
331.000	237.784	80.004	19.995	103.300	19.985	4.223	0.526
331.500	237.982	80.004	19.996	103.301	19.988	4.051	0.522
332.001	238.263	80.003	19.995	103.308	19.986	4.177	0.490
332.501	238.528	80.004	19.995	103.317	19.985	4.230	0.513
333.000	238.770	80.005	19.995	103.324	19.984	4.330	0.526
333.500	239.027	80.005	19.995	103.331	19.987	4.144	0.503
334.000	239.258	80.004	19.994	103.332	19.990	3.918	0.494
334.500	239.534	80.004	19.995	103.332	19.987	4.115	0.498
335.000	239.746	80.005	19.996	103.331	19.987	4.080	0.497
335.500	239.986	80.006	19.995	103.332	19.989	4.004	0.470
336.000	240.238	80.005	19.995	103.331	19.986	4.206	0.472
336.500	240.444	80.004	19.996	103.332	19.986	4.155	0.475
337.000	240.730	80.005	19.995	103.332	19.983	4.408	0.475
337.500	240.965	80.004	19.996	103.331	19.992	3.780	0.507
338.000	241.262	80.003	19.994	103.329	19.989	4.009	0.526
338.500	241.486	80.004	19.994	103.325	19.983	4.395	0.526
339.000	241.757	80.005	19.995	103.324	19.986	4.186	0.508
339.500	241.927	80.003	19.994	103.325	19.986	4.182	0.468
340.001	242.236	80.006	19.995	103.326	19.985	4.248	0.460
340.500	242.465	80.005	19.995	103.327	19.989	3.998	0.508
341.000	242.741	80.005	19.994	103.328	19.987	4.089	0.522
341.500	243.023	80.005	19.994	103.322	19.986	4.198	0.532
342.000	243.220	80.006	19.994	103.315	19.984	4.311	0.518
342.500	243.503	80.004	19.994	103.309	19.985	4.273	0.479
343.000	243.787	80.006	19.994	103.304	19.985	4.271	0.523
343.500	244.024	80.005	19.994	103.303	19.989	3.997	0.544
344.000	244.234	80.005	19.993	103.307	19.986	4.184	0.484
344.500	244.495	80.005	19.995	103.307	19.988	4.076	0.460
345.000	244.757	80.004	19.994	103.307	19.988	4.029	0.497
345.500	244.972	80.005	19.994	103.306	19.982	4.424	0.499
346.000	245.259	80.005	19.995	103.305	19.989	3.998	0.490
346.500	245.502	80.005	19.994	103.306	19.988	4.036	0.516
347.000	245.753	80.005	19.995	103.305	19.990	3.922	0.512
347.501	246.007	80.005	19.994	103.302	19.990	3.925	0.500
348.000	246.223	80.006	19.995	103.302	19.992	3.758	0.488
348.500	246.528	80.005	19.995	103.302	19.984	4.308	0.495
349.000	246.727	80.004	19.995	103.301	19.985	4.253	0.512
349.500	247.001	80.006	19.993	103.300	19.989	3.960	0.489
350.000	247.236	80.003	19.994	103.300	19.987	4.142	0.491
350.500	247.506	80.005	19.995	103.300	19.979	4.630	0.507
351.000	247.762	80.004	19.995	103.296	19.982	4.440	0.516
351.500	247.956	80.004	19.995	103.293	19.983	4.388	0.488
352.000	248.225	80.006	19.995	103.292	19.984	4.313	0.457
352.500	248.483	80.005	19.995	103.297	19.980	4.575	0.495
353.000	248.755	80.005	19.994	103.299	19.983	4.369	0.528
353.500	249.004	80.005	19.994	103.299	19.989	3.998	0.525
354.000	249.245	80.004	19.994	103.301	19.982	4.466	0.506
354.500	249.533	80.004	19.995	103.301	19.988	4.065	0.510
355.000	249.779	80.005	19.995	103.297	19.983	4.391	0.531
355.500	250.073	80.006	19.994	103.295	19.983	4.369	0.537
356.000	250.327	80.004	19.994	103.296	19.984	4.304	0.544
356.500	250.581	80.005	19.994	103.295	19.986	4.154	0.528
357.000	250.832	80.004	19.995	103.295	19.988	4.069	0.507
357.500	251.091	80.005	19.994	103.294	19.983	4.391	0.508
358.000	251.264	80.005	19.994	103.293	19.979	4.644	0.471
358.500	251.636	80.006	19.995	103.292	19.985	4.265	0.488
359.000	251.771	80.004	19.994	103.292	19.983	4.362	0.526
359.500	252.095	80.006	19.994	103.293	19.983	4.347	0.483
360.000	252.307	80.006	19.994	103.293	19.984	4.338	0.498
360.500	252.719	80.006	19.995	103.293	19.983	4.382	0.580
361.000	252.936	80.004	19.995	103.293	19.978	4.688	0.626
361.500	252.983	80.005	19.995	103.292	19.978	4.682	0.446
362.000	253.223	80.005	19.995	103.292	19.983	4.362	0.275
362.500	253.333	80.006	19.994	103.291	19.983	4.351	0.319
363.000	253.918	80.005	19.994	103.291	19.979	4.675	0.523
363.500	254.286	80.006	19.993	103.290	19.983	4.391	0.824
364.000	254.195	80.006	19.994	103.289	19.981	4.533	0.615
364.500	254.319	80.006	19.993	103.289	19.984	4.331	0.155
365.000	254.564	80.007	19.995	103.289	19.979	4.646	0.201
365.500	254.849	80.007	19.995	103.290	19.980	4.608	0.450
366.000	255.092	80.008	19.994	103.291	19.978	4.683	0.529
366.500	255.296	80.005	19.994	103.292	19.985	4.219	0.487
367.000	255.553	80.007	19.995	103.286	19.978	4.683	0.454
367.500	256.020	80.007	19.995	103.283	19.983	4.401	0.592
368.000	256.280	80.007	19.994	103.283	19.983	4.362	0.725
368.500	256.593	80.008	19.995	103.282	19.980	4.557	0.650
369.000	256.720	80.007	19.994	103.282	19.984	4.313	0.507
369.500	256.977	80.006	19.995	103.287	19.985	4.242	0.412
370.000	257.223	80.007	19.994	103.291	19.980	4.561	0.443
370.500	257.575	80.007	19.995	103.290	19.979	4.644	0.551
371.000	257.804	80.007	19.995	103.290	19.980	4.557	0.590
371.500	258.031	80.007	19.994	103.289	19.981	4.526	0.518
372.000	258.186	80.005	19.994	103.289	19.983	4.389	0.419
372.500	258.540	80.006	19.995	103.289	19.982	4.473	0.445
373.000	258.660	80.007	19.994	103.285	19.985	4.277	0.491
373.500	258.951	80.005	19.994	103.282	19.985	4.238	0.442
374.000	259.282	80.007	19.993	103.282	19.982	4.435	0.517
374.500	259.434	80.005	19.995	103.281	19.982	4.479	0.552
375.000	259.765	80.006	19.994	103.282	19.980	4.599	0.483
375.500	259.964	80.006	19.994	103.285	19.981	4.491	0.506
376.000	260.165	80.006	19.994	103.288	19.980	4.568	0.465
376.500	260.422	80.006	19.994	103.291	19.981	4.504	0.429
377.000	260.703	80.005	19.993	103.295	19.978	4.739	0.498
377.500	260.884	80.006	19.993	103.297	19.982	4.451	0.500
378.000	261.177	80.005	19.994	103.299	19.978	4.701	0.468
378.500	261.392	80.006	19.994	103.300	19.980	4.606	0.491
379.000	261.617	80.005	19.993	103.298	19.977	4.777	0.474
379.500	261.882	80.005	19.994	103.295	19.981	4.517	0.465
380.000	262.088	80.006	19.992	103.292	19.982	4.464	0.480
380.500	262.332	80.006	19.995	103.292	19.983	4.377	0.460
381.000	262.601	80.005	19.993	103.291	19.984	4.304	0.482
381.500	262.847	80.006	19.994	103.291	19.983	4.393	0.514
382.000	263.105	80.006	19.994	103.292	19.983	4.349	0.510
382.500	263.336	80.007	19.994	103.293	19.980	4.568	0.496
383.000	263.557	80.007	19.994	103.293	19.980	4.557	0.470
383.500	263.817	80.006	19.995	103.294	19.982	4.431	0.467
384.000	264.054	80.005	19.995	103.295	19.982	4.444	0.489
384.500	264.298	80.005	19.993	103.295	19.982	4.428	0.489
385.000	264.531	80.007	19.994	103.295	19.985	4.253	0.479
385.500	264.788	80.007	19.994	103.294	19.982	4.439	0.483
386.000	265.014	80.007	19.994	103.293	19.983	4.391	0.487
386.500	265.277	80.007	19.994	103.292	19.984	4.287	0.486
387.000	265.498	80.007	19.994	103.292	19.980	4.608	0.486
387.501	265.754	80.007	19.994	103.292	19.981	4.500	0.481
388.000	265.961	80.008	19.994	103.292	19.983	4.404	0.470
388.500	266.213	80.006	19.994	103.293	19.978	4.680	0.461
389.000	266.420	80.008	19.995	103.294	19.984	4.324	0.459
389.500	266.680	80.006	19.994	103.294	19.984	4.327	0.463
390.000	266.903	80.007	19.994	103.294	19.983	4.395	0.475
390.500	267.199	80.006	19.994	103.294	19.984	4.320	0.501
391.000	267.441	80.008	19.993	103.293	19.980	4.602	0.529
391.500	267.667	80.010	19.996	103.290	19.981	4.493	0.503
392.000	267.902	80.009	19.994	103.290	19.984	4.289	0.465
392.500	268.146	80.006	19.994	103.289	19.979	4.673	0.470
393.000	268.369	80.006	19.994	103.287	19.983	4.391	0.473
393.500	268.618	80.007	19.993	103.287	19.985	4.217	0.469
394.000	268.879	80.007	19.995	103.290	19.982	4.479	0.491
394.500	269.126	80.007	19.994	103.289	19.981	4.532	0.509
395.000	269.335	80.007	19.994	103.290	19.982	4.453	0.482
395.500	269.593	80.007	19.995	103.291	19.984	4.304	0.462
396.000	269.858	80.005	19.994	103.291	19.978	4.699	0.495
396.500	270.079	80.007	19.994	103.291	19.983	4.386	0.504
397.000	270.318	80.005	19.994	103.292	19.983	4.387	0.473
397.500	270.593	80.006	19.995	103.292	19.982	4.438	0.488
398.000	270.830	80.006	19.994	103.291	19.986	4.196	0.513
398.500	271.087	80.006	19.994	103.290	19.982	4.477	0.503
399.000	271.331	80.006	19.995	103.287	19.978	4.704	0.497
399.500	271.598	80.007	19.996	103.284	19.980	4.564	0.506
400.000	271.799	80.006	19.995	103.283	19.982	4.451	0.489
400.500	272.068	80.003	19.995	103.286	19.985	4.273	0.468
401.000	272.318	80.004	19.994	103.287	19.985	4.225	0.494
401.500	272.527	80.005	19.995	103.290	19.981	4.531	0.489
402.000	272.750	80.005	19.995	103.293	19.981	4.544	0.446
402.500	272.988	80.006	19.995	103.293	19.981	4.535	0.447
403.000	273.247	80.005	19.996	103.292	19.984	4.325	0.479
403.500	273.475	80.007	19.995	103.292	19.980	4.562	0.492
404.000	273.711	80.004	19.994	103.293	19.984	4.287	0.476
404.500	273.950	80.006	19.995	103.293	19.984	4.346	0.469
405.000	274.211	80.004	19.995	103.294	19.980	4.591	0.487
405.500	274.442	80.005	19.994	103.294	19.980	4.555	0.496
406.000	274.661	80.005	19.994	103.294	19.982	4.415	0.471
406.500	274.918	80.005	19.994	103.293	19.984	4.286	0.463
407.000	275.152	80.004	19.995	103.293	19.985	4.267	0.484
407.500	275.381	80.004	19.995	103.291	19.979	4.622	0.477
408.000	275.596	80.005	19.995	103.288	19.983	4.398	0.454
408.500	275.867	80.005	19.994	103.288	19.982	4.449	0.465
409.000	276.084	80.005	19.995	103.288	19.978	4.693	0.487
409.500	276.313	80.005	19.995	103.285	19.980	4.611	0.467
410.000	276.567	80.005	19.994	103.287	19.981	4.528	0.465
410.500	276.815	80.006	19.996	103.289	19.978	4.732	0.493
411.000	277.054	80.007	19.995	103.289	19.979	4.624	0.494
411.500	277.311	80.004	19.995	103.287	19.980	4.568	0.491
412.000	277.532	80.006	19.995	103.287	19.979	4.619	0.487
412.500	277.791	80.005	19.995	103.286	19.977	4.768	0.479
413.000	278.043	80.005	19.995	103.286	19.978	4.697	0.495
413.500	278.272	80.004	19.995	103.286	19.979	4.666	0.495
414.000	278.498	80.006	19.994	103.286	19.982	4.468	0.468
414.500	278.742	80.005	19.995	103.287	19.982	4.475	0.463
415.000	279.004	80.004	19.996	103.289	19.979	4.648	0.488
415.500	279.237	80.004	19.995	103.289	19.982	4.419	0.500
416.000	279.509	80.006	19.994	103.289	19.984	4.340	0.500
416.500	279.741	80.005	19.994	103.291	19.978	4.693	0.505
417.000	279.989	80.005	19.994	103.290	19.981	4.544	0.492
417.500	280.224	80.004	19.994	103.290	19.980	4.604	0.481
418.000	280.449	80.005	19.996	103.287	19.981	4.522	0.471
418.500	280.687	80.005	19.997	103.287	19.978	4.704	0.462
419.000	280.948	80.005	19.995	103.288	19.977	4.774	0.481
419.500	281.194	80.006	19.995	103.289	19.974	4.954	0.503
420.000	281.460	80.005	19.996	103.289	19.975	4.903	0.509
420.500	281.690	80.005	19.996	103.290	19.980	4.582	0.504
421.000	281.891	80.005	19.995	103.290	19.976	4.863	0.464
421.500	282.203	80.005	19.994	103.289	19.976	4.813	0.472
422.000	282.431	80.005	19.996	103.289	19.980	4.609	0.526
422.500	282.702	80.005	19.996	103.290	19.978	4.701	0.520
423.000	282.889	80.006	19.996	103.291	19.974	4.952	0.479
423.500	283.157	80.005	19.996	103.291	19.980	4.553	0.457
424.000	283.423	80.005	19.996	103.291	19.979	4.670	0.494
424.500	283.656	80.003	19.995	103.291	19.978	4.730	0.516
425.000	283.925	80.005	19.995	103.291	19.979	4.657	0.500
425.500	284.156	80.005	19.996	103.291	19.980	4.564	0.501
426.000	284.418	80.005	19.996	103.291	19.982	4.424	0.497
426.500	284.635	80.004	19.995	103.292	19.979	4.675	0.486
427.000	284.908	80.005	19.995	103.292	19.980	4.555	0.485
427.500	285.150	80.004	19.996	103.291	19.982	4.431	0.502
428.000	285.401	80.006	19.997	103.291	19.981	4.535	0.504
428.500	285.629	80.006	19.997	103.291	19.978	4.704	0.486
429.000	285.908	80.004	19.997	103.291	19.978	4.721	0.493
429.500	286.142	80.006	19.997	103.291	19.980	4.599	0.509
430.000	286.383	80.005	19.997	103.291	19.977	4.784	0.494
430.500	286.659	80.005	19.996	103.291	19.980	4.581	0.497
431.000	286.912	80.004	19.995	103.289	19.976	4.843	0.523
431.500	287.166	80.004	19.996	103.287	19.974	4.988	0.517
432.000	287.385	80.005	19.996	103.287	19.975	4.927	0.490
432.500	287.668	80.003	19.996	103.287	19.978	4.697	0.488
433.000	287.900	80.003	19.996	103.287	19.978	4.714	0.509
433.500	288.143	80.004	19.995	103.289	19.977	4.746	0.495
434.000	288.412	80.005	19.995	103.290	19.975	4.894	0.494
434.500	288.667	80.005	19.996	103.290	19.977	4.794	0.518
435.000	288.903	80.006	19.994	103.290	19.977	4.774	0.507
435.500	289.156	80.004	19.995	103.291	19.976	4.850	0.490
436.000	289.409	80.003	19.995	103.291	19.977	4.759	0.498
436.500	289.641	80.004	19.995	103.291	19.978	4.739	0.496
437.000	289.901	80.005	19.995	103.292	19.979	4.670	0.488
437.500	290.184	80.004	19.995	103.291	19.974	4.972	0.517
438.000	290.436	80.005	19.996	103.291	19.976	4.839	0.539
438.500	290.693	80.005	19.994	103.292	19.976	4.871	0.522
439.000	290.943	80.004	19.994	103.292	19.977	4.786	0.508
439.500	291.171	80.005	19.995	103.292	19.980	4.598	0.493
440.000	291.432	80.005	19.995	103.292	19.977	4.762	0.483
440.500	291.679	80.005	19.994	103.291	19.977	4.806	0.499
441.000	291.950	80.004	19.995	103.291	19.976	4.837	0.513
441.500	292.214	80.005	19.994	103.291	19.975	4.913	0.526
442.000	292.433	80.005	19.994	103.291	19.978	4.724	0.509
442.500	292.711	80.004	19.994	103.291	19.976	4.860	0.490
443.000	292.955	80.005	19.994	103.293	19.975	4.920	0.509
443.500	293.221	80.006	19.994	103.293	19.975	4.886	0.516
444.000	293.421	80.006	19.993	103.293	19.979	4.626	0.488
444.500	293.696	80.006	19.995	103.293	19.977	4.782	0.471
445.000	293.978	80.006	19.994	103.294	19.974	5.005	0.516
445.500	294.183	80.006	19.994	103.293	19.975	4.928	0.522
446.000	294.448	80.006	19.993	103.292	19.972	5.136	0.479
446.500	294.766	80.005	19.994	103.290	19.976	4.848	0.527
447.000	294.994	80.006	19.994	103.290	19.976	4.863	0.564
447.500	295.262	80.006	19.994	103.290	19.977	4.786	0.521
448.000	295.511	80.007	19.994	103.291	19.978	4.694	0.506
448.500	295.739	80.007	19.993	103.292	19.976	4.872	0.497
449.000	296.017	80.007	19.994	103.287	19.977	4.754	0.491
449.500	296.253	80.007	19.993	103.282	19.974	4.947	0.510
450.000	296.515	80.006	19.994	103.282	19.978	4.714	0.506
450.500	296.766	80.006	19.993	103.282	19.976	4.823	0.505
451.000	297.020	80.007	19.994	103.283	19.975	4.890	0.509
451.500	297.296	80.007	19.995	103.287	19.975	4.907	0.518
452.000	297.529	80.006	19.996	103.289	19.976	4.834	0.520
452.500	297.818	80.008	19.994	103.286	19.977	4.792	0.515
453.000	298.087	80.006	19.994	103.281	19.975	4.945	0.540
453.500	298.329	80.007	19.995	103.278	19.976	4.850	0.535
454.000	298.603	80.005	19.994	103.280	19.975	4.942	0.514
454.500	298.827	80.006	19.994	103.279	19.974	5.011	0.507
455.000	299.113	80.006	19.994	103.282	19.977	4.778	0.504
455.500	299.347	80.004	19.994	103.285	19.979	4.654	0.515
456.000	299.584	80.006	19.994	103.288	19.974	4.998	0.495
456.500	299.861	80.004	19.994	103.290	19.976	4.875	0.493
457.000	300.120	80.004	19.994	103.293	19.972	5.121	0.526
457.500	300.331	80.006	19.995	103.293	19.976	4.835	0.503
458.000	300.616	80.005	19.995	103.294	19.977	4.808	0.483
458.500	300.877	80.005	19.995	103.294	19.979	4.614	0.520
459.000	301.150	80.005	19.994	103.294	19.979	4.653	0.540
459.500	301.415	80.005	19.994	103.294	19.977	4.784	0.536
460.000	301.656	80.005	19.994	103.295	19.978	4.742	0.522
460.500	301.909	80.005	19.993	103.295	19.976	4.878	0.500
461.000	302.148	80.006	19.996	103.295	19.978	4.683	0.493
461.500	302.437	80.006	19.994	103.295	19.975	4.940	0.510
462.000	302.652	80.005	19.995	103.295	19.972	5.082	0.516
462.500	302.918	80.005	19.994	103.294	19.979	4.678	0.493
463.000	303.184	80.005	19.994	103.294	19.976	4.873	0.506
463.500	303.476	80.005	19.993	103.295	19.976	4.841	0.545
464.000	303.742	80.005	19.994	103.296	19.977	4.772	0.558
464.500	303.972	80.004	19.995	103.300	19.978	4.695	0.527
465.000	304.231	80.004	19.994	103.303	19.977	4.777	0.493
465.500	304.446	80.005	19.994	103.302	19.974	4.952	0.482
466.000	304.741	80.006	19.995	103.300	19.971	5.198	0.492
466.500	305.001	80.005	19.994	103.298	19.974	5.008	0.533
467.000	305.287	80.005	19.994	103.293	19.975	4.923	0.550
467.500	305.536	80.006	19.994	103.287	19.973	5.072	0.540
468.000	305.795	80.007	19.994	103.285	19.972	5.136	0.522
468.500	306.066	80.007	19.994	103.284	19.972	5.129	0.519
469.000	306.324	80.007	19.993	103.278	19.974	4.963	0.529
469.500	306.571	80.008	19.994	103.274	19.972	5.141	0.517
470.000	306.831	80.007	19.994	103.273	19.970	5.255	0.506
470.500	307.080	80.007	19.994	103.272	19.972	5.101	0.508
471.000	307.341	80.006	19.994	103.270	19.971	5.202	0.509
471.500	307.595	80.008	19.994	103.273	19.970	5.275	0.512
472.000	307.887	80.007	19.995	103.272	19.973	5.050	0.531
472.501	308.164	80.008	19.995	103.274	19.971	5.186	0.558
473.001	308.397	80.007	19.994	103.277	19.971	5.183	0.540
473.500	308.642	80.007	19.995	103.281	19.970	5.252	0.494
474.000	308.909	80.008	19.994	103.284	19.966	5.532	0.495
474.500	309.150	80.007	19.994	103.289	19.967	5.461	0.509
475.000	309.436	80.008	19.994	103.291	19.968	5.407	0.517
475.500	309.670	80.008	19.994	103.291	19.969	5.330	0.524
476.000	309.946	80.008	19.994	103.291	19.967	5.432	0.515
476.500	310.203	80.008	19.994	103.289	19.969	5.308	0.522
477.000	310.459	80.008	19.993	103.287	19.969	5.321	0.523
477.500	310.744	80.008	19.994	103.288	19.970	5.256	0.527
478.000	311.002	80.009	19.995	103.288	19.964	5.627	0.542
478.500	311.245	80.008	19.994	103.288	19.967	5.421	0.522
479.000	311.499	80.007	19.993	103.290	19.971	5.181	0.499
479.500	311.770	80.007	19.992	103.291	19.966	5.510	0.511
480.000	312.074	80.007	19.993	103.290	19.966	5.495	0.550
480.500	312.256	80.006	19.994	103.285	19.967	5.435	0.530
481.000	312.551	80.006	19.995	103.282	19.964	5.619	0.481
481.500	312.823	80.007	19.994	103.278	19.965	5.550	0.522
482.000	313.064	80.006	19.993	103.277	19.965	5.594	0.540
482.500	313.341	80.006	19.994	103.277	19.965	5.612	0.515
483.000	313.599	80.005	19.994	103.278	19.965	5.563	0.527
483.500	313.899	80.004	19.994	103.278	19.963	5.682	0.547
484.000	314.094	80.005	19.994	103.280	19.965	5.563	0.526
484.500	314.375	80.005	19.995	103.280	19.965	5.591	0.485
485.000	314.610	80.006	19.995	103.281	19.961	5.858	0.496
485.500	314.866	80.005	19.994	103.284	19.960	5.915	0.504
486.000	315.117	80.004	19.995	103.281	19.963	5.724	0.499
486.500	315.374	80.005	19.994	103.281	19.966	5.531	0.508
487.000	315.612	80.004	19.994	103.281	19.959	5.959	0.502
487.500	315.885	80.005	19.996	103.280	19.961	5.879	0.503
488.000	316.160	80.006	19.995	103.281	19.962	5.757	0.530
488.500	316.431	80.005	19.994	103.285	19.958	6.030	0.547
489.000	316.650	80.006	19.995	103.282	19.963	5.733	0.518
489.500	316.918	80.005	19.995	103.280	19.959	5.967	0.489
490.000	317.167	80.005	19.994	103.279	19.960	5.932	0.502
490.500	317.425	80.004	19.995	103.274	19.958	6.052	0.512
491.000	317.728	80.006	19.996	103.269	19.956	6.172	0.534
491.500	317.941	80.006	19.995	103.266	19.955	6.236	0.538
492.000	318.187	80.004	19.995	103.267	19.955	6.247	0.488
492.500	318.461	80.004	19.994	103.267	19.956	6.201	0.489
493.000	318.742	80.005	19.996	103.274	19.957	6.137	0.538
493.500	318.947	80.005	19.996	103.280	19.951	6.516	0.521
494.000	319.208	80.004	19.995	103.288	19.953	6.348	0.476
494.501	319.433	80.005	19.995	103.289	19.953	6.348	0.476
495.001	319.713	80.004	19.996	103.287	19.954	6.294	0.495
495.500	319.964	80.007	19.995	103.286	19.954	6.294	0.518
496.000	320.210	80.004	19.995	103.285	19.956	6.186	0.514
496.500	320.462	80.006	19.995	103.286	19.951	6.539	0.498
497.000	320.723	80.005	19.994	103.286	19.952	6.479	0.506
497.500	320.985	80.005	19.995	103.289	19.956	6.174	0.518
498.001	321.257	80.006	19.996	103.290	19.952	6.472	0.528
498.501	321.508	80.006	19.995	103.291	19.951	6.503	0.529
499.001	321.780	80.005	19.994	103.293	19.950	6.602	0.523
499.501	322.025	80.004	19.995	103.295	19.948	6.709	0.520
500.001	322.305	80.005	19.995	103.297	19.949	6.678	0.521
500.501	322.535	80.006	19.995	103.302	19.951	6.498	0.517
501.001	322.774	80.006	19.995	103.303	19.945	6.893	0.489
501.501	323.068	80.007	19.995	103.300	19.950	6.585	0.501
502.001	323.283	80.006	19.995	103.299	19.948	6.727	0.521
502.501	323.557	80.006	19.995	103.298	19.948	6.740	0.499
503.001	323.784	80.007	19.994	103.294	19.944	6.958	0.495
503.500	324.066	80.005	19.994	103.293	19.946	6.829	0.505
504.000	324.312	80.005	19.995	103.293	19.946	6.815	0.519
504.500	324.528	80.006	19.993	103.293	19.943	7.063	0.495
505.000	324.852	80.004	19.994	103.293	19.940	7.218	0.501
505.500	325.054	80.005	19.994	103.293	19.943	7.040	0.533
506.000	325.266	80.004	19.994	103.292	19.939	7.317	0.470
506.500	325.517	80.006	19.995	103.292	19.943	7.040	0.438
507.000	325.796	80.005	19.995	103.291	19.939	7.321	0.496
507.501	326.052	80.006	19.995	103.290	19.939	7.293	0.532
508.001	326.323	80.006	19.995	103.290	19.941	7.197	0.531
508.502	326.553	80.005	19.995	103.290	19.942	7.146	0.514
509.001	326.782	80.006	19.994	103.290	19.937	7.463	0.480
509.500	327.052	80.004	19.995	103.285	19.937	7.459	0.479
510.000	327.292	80.005	19.995	103.279	19.937	7.448	0.505
510.500	327.544	80.005	19.994	103.273	19.938	7.402	0.502
511.000	327.799	80.005	19.994	103.266	19.937	7.418	0.499
511.500	328.030	80.006	19.995	103.263	19.936	7.487	0.496
512.000	328.287	80.005	19.994	103.264	19.937	7.447	0.487
512.500	328.554	80.005	19.996	103.266	19.934	7.637	0.506
513.000	328.796	80.005	19.995	103.266	19.941	7.200	0.516
513.501	329.018	80.003	19.994	103.266	19.935	7.568	0.487
514.000	329.282	80.005	19.996	103.266	19.934	7.677	0.475
514.500	329.537	80.003	19.995	103.269	19.929	7.972	0.502
515.000	329.760	80.003	19.994	103.274	19.935	7.567	0.498
515.500	330.045	80.004	19.996	103.281	19.932	7.800	0.493
516.000	330.294	80.004	19.995	103.287	19.930	7.948	0.521
516.500	330.524	80.003	19.994	103.292	19.928	8.037	0.507
517.000	330.749	80.003	19.996	103.293	19.930	7.945	0.468
517.500	331.016	80.005	19.995	103.293	19.929	7.963	0.474
518.000	331.265	80.004	19.995	103.293	19.929	7.960	0.504
518.500	331.476	80.003	19.994	103.292	19.930	7.882	0.488
519.001	331.747	80.004	19.995	103.293	19.929	7.980	0.471
519.500	331.969	80.004	19.996	103.293	19.927	8.090	0.487
520.000	332.254	80.002	19.995	103.293	19.929	7.950	0.500
520.500	332.496	80.003	19.995	103.293	19.926	8.197	0.517
521.000	332.771	80.004	19.995	103.292	19.929	7.999	0.522
521.500	333.031	80.005	19.995	103.288	19.927	8.083	0.526
522.000	333.259	80.003	19.995	103.283	19.926	8.201	0.512
522.501	333.495	80.003	19.996	103.276	19.925	8.265	0.476
523.000	333.743	80.005	19.996	103.272	19.927	8.142	0.474
523.500	334.000	80.004	19.995	103.266	19.923	8.400	0.494
524.000	334.259	80.003	19.996	103.262	19.922	8.449	0.510
524.500	334.521	80.004	19.996	103.260	19.920	8.571	0.518
525.000	334.730	80.004	19.995	103.262	19.922	8.460	0.496
525.500	335.040	80.004	19.995	103.266	19.925	8.275	0.495
526.000	335.259	80.004	19.994	103.271	19.926	8.193	0.524
526.500	335.519	80.003	19.996	103.279	19.922	8.454	0.504
527.000	335.794	80.006	19.995	103.285	19.922	8.462	0.507
527.500	336.003	80.005	19.995	103.287	19.924	8.310	0.510
528.000	336.227	80.005	19.996	103.287	19.919	8.652	0.459
528.500	336.508	80.005	19.994	103.285	19.922	8.437	0.469
529.000	336.760	80.004	19.995	103.278	19.920	8.553	0.518
529.500	336.971	80.005	19.994	103.272	19.922	8.426	0.498
530.000	337.236	80.005	19.994	103.269	19.921	8.528	0.470
530.500	337.460	80.005	19.994	103.265	19.922	8.444	0.483
531.000	337.711	80.006	19.995	103.269	19.919	8.674	0.482
531.500	337.937	80.006	19.995	103.276	19.922	8.443	0.476
532.000	338.192	80.007	19.994	103.283	19.917	8.811	0.479
532.500	338.448	80.006	19.994	103.286	19.919	8.645	0.496
533.000	338.707	80.005	19.994	103.286	19.917	8.796	0.513
533.500	338.953	80.004	19.993	103.284	19.918	8.700	0.510
534.000	339.196	80.007	19.995	103.277	19.919	8.645	0.497
534.500	339.442	80.007	19.993	103.270	19.919	8.643	0.489
535.000	339.689	80.006	19.994	103.266	19.920	8.592	0.491
535.500	339.931	80.006	19.993	103.266	19.918	8.712	0.490
536.000	340.185	80.006	19.994	103.269	19.923	8.390	0.492
536.500	340.404	80.006	19.994	103.274	19.922	8.454	0.485
537.000	340.678	80.006	19.993	103.279	19.918	8.705	0.484
537.500	340.923	80.006	19.993	103.285	19.915	8.928	0.506
538.000	341.128	80.006	19.994	103.285	19.918	8.713	0.484
538.500	341.395	80.007	19.994	103.281	19.916	8.862	0.461
539.000	341.642	80.006	19.995	103.280	19.916	8.822	0.493
539.500	341.896	80.006	19.994	103.276	19.918	8.727	0.507
540.000	342.120	80.006	19.994	103.272	19.918	8.687	0.489
540.500	342.376	80.007	19.994	103.271	19.923	8.406	0.479
541.000	342.631	80.005	19.994	103.272	19.919	8.677	0.496
541.500	342.908	80.006	19.994	103.273	19.921	8.529	0.522
542.000	343.137	80.005	19.994	103.276	19.918	8.684	0.519
542.500	343.361	80.006	19.995	103.277	19.920	8.591	0.479
543.000	343.602	80.005	19.995	103.281	19.919	8.662	0.459
543.500	343.866	80.007	19.994	103.285	19.922	8.462	0.485
544.000	344.068	80.007	19.994	103.283	19.917	8.761	0.485
544.500	344.342	80.006	19.995	103.282	19.917	8.814	0.471
545.000	344.601	80.007	19.994	103.284	19.920	8.607	0.504
545.500	344.827	80.007	19.996	103.282	19.920	8.569	0.509
546.000	345.068	80.005	19.994	103.277	19.918	8.733	0.476
546.500	345.357	80.006	19.994	103.279	19.920	8.614	0.499
547.000	345.579	80.006	19.994	103.282	19.922	8.441	0.521
547.500	345.816	80.006	19.995	103.283	19.920	8.575	0.485
548.000	346.076	80.005	19.995	103.285	19.922	8.479	0.478
548.500	346.333	80.006	19.995	103.290	19.921	8.520	0.507
549.000	346.629	80.006	19.995	103.290	19.920	8.608	0.535
549.500	346.863	80.006	19.994	103.289	19.921	8.500	0.541
550.000	347.075	80.006	19.995	103.286	19.921	8.526	0.488
550.500	347.366	80.005	19.994	103.283	19.921	8.508	0.475
551.000	347.610	80.006	19.995	103.281	19.922	8.459	0.519
551.500	347.854	80.007	19.995	103.276	19.919	8.644	0.511
552.000	348.101	80.007	19.995	103.272	19.922	8.430	0.489
552.500	348.318	80.007	19.994	103.270	19.917	8.792	0.477
553.000	348.584	80.006	19.994	103.266	19.919	8.622	0.474
553.500	348.849	80.007	19.994	103.265	19.922	8.433	0.507
554.000	349.120	80.007	19.994	103.268	19.919	8.633	0.533
554.500	349.372	80.007	19.995	103.272	19.916	8.841	0.529
555.000	349.642	80.006	19.994	103.272	19.919	8.643	0.522
555.500	349.898	80.007	19.995	103.278	19.921	8.527	0.524
556.000	350.146	80.007	19.994	103.280	19.919	8.627	0.515
556.500	350.453	80.007	19.994	103.282	19.921	8.522	0.530
557.000	350.650	80.007	19.995	103.283	19.921	8.532	0.530
557.500	350.916	80.007	19.995	103.283	19.927	8.102	0.483
558.000	351.161	80.008	19.995	103.279	19.916	8.859	0.487
558.500	351.420	80.006	19.994	103.274	19.925	8.271	0.507
559.000	351.688	80.008	19.994	103.272	19.927	8.137	0.516
559.501	351.998	80.008	19.994	103.267	19.920	8.552	0.553
560.000	352.188	80.007	19.995	103.269	19.923	8.403	0.539
560.500	352.427	80.008	19.995	103.269	19.920	8.559	0.465
561.000	352.742	80.006	19.994	103.268	19.917	8.758	0.491
561.500	352.999	80.007	19.994	103.269	19.920	8.593	0.562
562.000	353.255	80.008	19.994	103.273	19.920	8.562	0.542
562.500	353.533	80.006	19.994	103.274	19.920	8.573	0.524
563.000	353.786	80.008	19.994	103.274	19.922	8.446	0.533
563.500	354.031	80.007	19.995	103.273	19.918	8.706	0.514
564.000	354.320	80.008	19.995	103.271	19.918	8.697	0.516
564.500	354.545	80.007	19.993	103.269	19.923	8.363	0.524
565.000	354.799	80.008	19.995	103.270	19.922	8.463	0.497
565.500	355.057	80.006	19.995	103.274	19.925	8.239	0.495
566.000	355.313	80.006	19.995	103.282	19.921	8.532	0.513
566.500	355.590	80.005	19.995	103.286	19.922	8.476	0.524
567.000	355.847	80.005	19.994	103.288	19.921	8.512	0.533
567.500	356.108	80.005	19.994	103.286	19.925	8.231	0.526
568.000	356.358	80.005	19.994	103.282	19.922	8.429	0.515
568.500	356.615	80.006	19.994	103.278	19.925	8.249	0.509
569.000	356.901	80.005	19.994	103.275	19.922	8.433	0.525
569.500	357.098	80.005	19.996	103.274	19.921	8.507	0.513
570.000	357.421	80.005	19.994	103.276	19.921	8.494	0.502
570.500	357.668	80.006	19.995	103.280	19.922	8.453	0.544
571.000	357.922	80.005	19.993	103.281	19.927	8.084	0.535
571.500	358.190	80.006	19.994	103.277	19.924	8.344	0.512
572.000	358.449	80.005	19.994	103.277	19.923	8.388	0.525
572.500	358.677	80.006	19.995	103.271	19.925	8.245	0.507
573.000	358.956	80.006	19.995	103.268	19.925	8.250	0.497
573.500	359.237	80.005	19.994	103.269	19.922	8.474	0.533
574.000	359.484	80.006	19.994	103.272	19.923	8.370	0.543
574.500	359.726	80.006	19.995	103.270	19.922	8.424	0.508
575.000	359.983	80.005	19.993	103.274	19.924	8.334	0.494
575.500	360.211	80.005	19.995	103.277	19.923	8.382	0.492
576.000	360.485	80.007	19.995	103.279	19.921	8.534	0.493
576.500	360.762	80.007	19.995	103.279	19.924	8.345	0.527
577.000	361.045	80.007	19.994	103.280	19.924	8.287	0.556
577.500	361.321	80.004	19.994	103.282	19.925	8.271	0.559
578.000	361.546	80.005	19.994	103.278	19.926	8.158	0.530
578.500	361.816	80.006	19.995	103.274	19.926	8.209	0.498
579.000	362.088	80.006	19.994	103.272	19.927	8.116	0.519
579.500	362.312	80.006	19.995	103.270	19.921	8.498	0.519
580.000	362.577	80.005	19.995	103.267	19.925	8.249	0.492
580.500	362.851	80.004	19.994	103.267	19.922	8.459	0.514
581.000	363.114	80.005	19.995	103.265	19.922	8.468	0.538
581.500	363.386	80.006	19.994	103.268	19.923	8.393	0.536
582.000	363.605	80.006	19.994	103.272	19.922	8.435	0.513
582.500	363.851	80.007	19.995	103.274	19.928	8.069	0.478
583.000	364.147	80.006	19.995	103.277	19.925	8.228	0.503
583.500	364.363	80.006	19.996	103.282	19.926	8.206	0.527
584.000	364.678	80.005	19.994	103.283	19.924	8.344	0.522
584.500	364.974	80.006	19.995	103.280	19.923	8.395	0.571
585.000	365.193	80.006	19.995	103.279	19.922	8.441	0.563
585.500	365.486	80.004	19.994	103.274	19.925	8.233	0.513
586.000	365.760	80.004	19.993	103.267	19.918	8.699	0.539
586.500	365.979	80.005	19.994	103.264	19.919	8.645	0.530
587.000	366.211	80.005	19.994	103.262	19.923	8.374	0.472
587.500	366.457	80.004	19.995	103.265	19.926	8.213	0.464
588.000	366.710	80.006	19.995	103.266	19.920	8.614	0.489
588.500	366.964	80.006	19.995	103.266	19.920	8.579	0.503
589.000	367.280	80.005	19.994	103.265	19.921	8.514	0.539
589.500	367.502	80.004	19.994	103.264	19.920	8.588	0.554
590.000	367.778	80.004	19.995	103.264	19.918	8.697	0.518
590.500	368.020	80.005	19.995	103.266	19.920	8.605	0.508
591.000	368.309	80.005	19.995	103.267	19.921	8.487	0.524
591.500	368.591	80.005	19.996	103.272	19.919	8.624	0.551
592.000	368.833	80.004	19.994	103.276	19.919	8.626	0.548
592.500	369.151	80.005	19.994	103.272	19.921	8.486	0.542
593.000	369.375	80.005	19.995	103.268	19.920	8.601	0.551
593.500	369.646	80.004	19.994	103.268	19.918	8.700	0.519
594.000	369.915	80.002	19.994	103.262	19.920	8.605	0.517
594.500	370.140	80.005	19.994	103.257	19.918	8.692	0.517
595.000	370.404	80.004	19.994	103.255	19.916	8.827	0.491
595.500	370.641	80.004	19.995	103.256	19.916	8.821	0.495
596.000	370.954	80.004	19.995	103.255	19.912	9.105	0.526
596.500	371.216	80.006	19.995	103.256	19.917	8.759	0.562
597.000	371.478	80.006	19.994	103.257	19.916	8.824	0.550
597.500	371.731	80.004	19.995	103.258	19.917	8.774	0.519
598.000	372.015	80.004	19.995	103.262	19.917	8.797	0.526
598.500	372.208	80.004	19.995	103.270	19.913	9.036	0.508
599.000	372.482	80.005	19.995	103.276	19.913	9.038	0.472
599.500	372.804	80.005	19.994	103.281	19.912	9.143	0.531
600.000	373.023	80.004	19.995	103.280	19.911	9.156	0.569
600.500	373.296	80.005	19.995	103.276	19.913	9.047	0.516
601.000	373.552	80.005	19.994	103.270	19.913	9.056	0.511
601.500	373.812	80.005	19.994	103.264	19.910	9.247	0.523
602.000	374.070	80.004	19.995	103.264	19.912	9.131	0.517
602.500	374.304	80.004	19.994	103.268	19.912	9.098	0.505
603.001	374.561	80.005	19.995	103.268	19.907	9.450	0.491
603.501	374.823	80.004	19.996	103.270	19.909	9.328	0.505
604.000	375.121	80.004	19.995	103.272	19.906	9.536	0.540
604.500	375.363	80.005	19.995	103.266	19.906	9.501	0.551
605.000	375.584	80.005	19.994	103.261	19.902	9.749	0.501
605.500	375.884	80.004	19.994	103.260	19.901	9.838	0.491
606.000	376.141	80.005	19.995	103.256	19.905	9.572	0.539
606.500	376.390	80.005	19.995	103.253	19.902	9.801	0.532
607.000	376.642	80.005	19.994	103.252	19.903	9.709	0.503
607.500	376.945	80.004	19.996	103.250	19.903	9.731	0.528
608.000	377.209	80.005	19.994	103.251	19.902	9.775	0.561
608.500	377.428	80.004	19.996	103.251	19.896	10.191	0.525
609.000	377.716	80.005	19.995	103.251	19.898	10.058	0.495
609.500	377.942	80.004	19.995	103.252	19.897	10.114	0.511
610.000	378.219	80.006	19.995	103.253	19.895	10.245	0.508
610.500	378.464	80.006	19.996	103.253	19.894	10.311	0.513
611.000	378.743	80.007	19.995	103.254	19.896	10.213	0.523
611.500	378.965	80.006	19.995	103.254	19.896	10.155	0.512
612.000	379.273	80.006	19.995	103.254	19.893	10.349	0.516
612.500	379.485	80.006	19.995	103.254	19.894	10.328	0.525
613.000	379.744	80.006	19.994	103.258	19.890	10.590	0.495
613.500	379.986	80.006	19.995	103.262	19.890	10.587	0.486
614.000	380.251	80.006	19.995	103.264	19.890	10.581	0.504
614.500	380.529	80.007	19.995	103.270	19.889	10.680	0.525
615.000	380.788	80.004	19.995	103.270	19.886	10.865	0.540
615.500	381.026	80.005	19.996	103.270	19.884	11.010	0.517
616.000	381.327	80.004	19.995	103.268	19.882	11.143	0.518
616.500	381.509	80.005	19.994	103.267	19.884	10.996	0.511
617.000	381.817	80.005	19.995	103.261	19.883	11.040	0.486
617.500	382.037	80.005	19.995	103.259	19.882	11.083	0.509
618.000	382.279	80.005	19.995	103.257	19.886	10.874	0.495
618.501	382.549	80.004	19.994	103.254	19.881	11.148	0.487
619.001	382.771	80.005	19.996	103.251	19.879	11.312	0.502
619.500	383.060	80.005	19.995	103.250	19.876	11.512	0.502
620.000	383.346	80.007	19.995	103.249	19.877	11.417	0.543
620.500	383.570	80.007	19.996	103.248	19.878	11.357	0.543
621.000	383.865	80.005	19.995	103.248	19.876	11.546	0.514
621.500	384.063	80.005	19.995	103.247	19.874	11.664	0.506
622.000	384.338	80.006	19.996	103.249	19.872	11.756	0.483
622.500	384.576	80.005	19.995	103.250	19.873	11.689	0.493
623.000	384.836	80.006	19.996	103.250	19.871	11.847	0.506
623.500	385.099	80.007	19.996	103.251	19.870	11.931	0.511
624.000	385.338	80.006	19.995	103.256	19.870	11.932	0.512
624.500	385.588	80.006	19.995	103.257	19.867	12.146	0.495
625.000	385.838	80.005	19.995	103.256	19.863	12.360	0.495
625.500	386.090	80.007	19.996	103.257	19.866	12.170	0.501
626.000	386.341	80.006	19.995	103.259	19.866	12.206	0.502
626.500	386.640	80.005	19.995	103.254	19.862	12.460	0.526
627.000	386.864	80.004	19.994	103.254	19.861	12.538	0.537
627.500	387.110	80.005	19.994	103.256	19.863	12.399	0.497
628.000	387.365	80.005	19.994	103.256	19.858	12.702	0.485
628.500	387.579	80.006	19.995	103.254	19.853	13.054	0.485
629.000	387.877	80.006	19.994	103.252	19.858	12.695	0.490
629.500	388.093	80.006	19.995	103.250	19.857	12.803	0.513
630.000	388.383	80.006	19.994	103.247	19.855	12.950	0.510
630.500	388.602	80.006	19.994	103.243	19.857	12.779	0.508
631.000	388.862	80.006	19.995	103.242	19.857	12.791	0.494
631.500	389.110	80.007	19.995	103.245	19.853	13.080	0.493
632.000	389.349	80.007	19.994	103.246	19.850	13.251	0.497
632.500	389.608	80.007	19.995	103.254	19.850	13.255	0.493
633.000	389.883	80.007	19.994	103.263	19.845	13.609	0.516
633.500	390.128	80.006	19.994	103.264	19.846	13.504	0.527
634.000	390.392	80.007	19.994	103.264	19.842	13.769	0.515
634.500	390.651	80.007	19.994	103.265	19.844	13.618	0.516
635.000	390.884	80.007	19.994	103.258	19.840	13.941	0.507
635.500	391.120	80.007	19.994	103.253	19.837	14.088	0.481
636.000	391.384	80.006	19.994	103.250	19.835	14.277	0.485
636.500	391.660	80.007	19.994	103.245	19.838	14.040	0.520
637.000	391.904	80.007	19.995	103.238	19.835	14.240	0.530
637.500	392.136	80.007	19.993	103.233	19.834	14.337	0.498
638.000	392.402	80.007	19.994	103.232	19.834	14.304	0.487
638.500	392.647	80.008	19.994	103.235	19.831	14.504	0.505
639.000	392.905	80.009	19.994	103.242	19.824	14.950	0.507
639.500	393.155	80.009	19.994	103.253	19.830	14.588	0.505
640.000	393.442	80.008	19.994	103.262	19.828	14.718	0.522
640.500	393.664	80.008	19.993	103.269	19.828	14.743	0.523
641.000	393.884	80.008	19.993	103.276	19.825	14.928	0.476
641.500	394.174	80.008	19.994	103.280	19.824	14.977	0.476
642.000	394.390	80.010	19.994	103.275	19.822	15.143	0.508
642.500	394.652	80.008	19.994	103.272	19.821	15.197	0.492
643.000	394.924	80.007	19.993	103.266	19.819	15.319	0.506
643.500	395.174	80.009	19.994	103.259	19.813	15.726	0.528
644.000	395.409	80.006	19.994	103.253	19.815	15.560	0.504
644.500	395.689	80.008	19.994	103.253	19.812	15.793	0.500
645.000	395.948	80.008	19.994	103.253	19.809	15.955	0.527
645.500	396.196	80.008	19.994	103.254	19.813	15.731	0.523
646.000	396.410	80.007	19.995	103.255	19.807	16.093	0.485
646.500	396.697	80.007	19.994	103.256	19.806	16.205	0.481
647.000	396.909	80.007	19.995	103.254	19.805	16.277	0.500
647.500	397.206	80.007	19.993	103.253	19.801	16.527	0.504
648.000	397.418	80.006	19.994	103.251	19.799	16.640	0.509
648.500	397.662	80.006	19.994	103.251	19.801	16.542	0.483
649.000	397.897	80.007	19.995	103.251	19.794	17.014	0.468
649.500	398.183	80.005	19.994	103.252	19.795	16.929	0.500
650.000	398.414	80.005	19.995	103.253	19.797	16.802	0.519
650.500	398.668	80.006	19.995	103.253	19.793	17.075	0.501
651.000	398.888	80.005	19.995	103.254	19.789	17.330	0.480
651.500	399.148	80.004	19.993	103.257	19.789	17.343	0.477
652.000	399.409	80.005	19.994	103.261	19.790	17.259	0.500
652.500	399.641	80.005	19.995	103.262	19.785	17.604	0.507
653.000	399.872	80.005	19.994	103.262	19.785	17.564	0.478
653.500	400.118	80.004	19.994	103.259	19.786	17.521	0.470
654.000	400.365	80.007	19.995	103.257	19.783	17.711	0.485
654.500	400.586	80.005	19.994	103.255	19.778	18.024	0.480
655.000	400.854	80.005	19.995	103.255	19.780	17.925	0.478
655.500	401.111	80.005	19.995	103.255	19.776	18.192	0.507
656.000	401.347	80.006	19.995	103.252	19.778	18.031	0.509
656.500	401.573	80.005	19.995	103.250	19.776	18.193	0.478
657.000	401.820	80.004	19.994	103.248	19.777	18.150	0.468
657.500	402.057	80.005	19.993	103.243	19.772	18.437	0.478
658.000	402.315	80.006	19.994	103.241	19.774	18.342	0.489
658.500	402.584	80.006	19.995	103.247	19.772	18.470	0.511
659.000	402.817	80.005	19.995	103.249	19.771	18.515	0.514
659.500	403.102	80.006	19.995	103.249	19.772	18.454	0.510
660.001	403.314	80.005	19.994	103.253	19.769	18.676	0.507
660.501	403.552	80.005	19.995	103.255	19.766	18.824	0.474
661.000	403.826	80.003	19.993	103.257	19.769	18.639	0.482
661.500	404.049	80.005	19.995	103.258	19.765	18.886	0.504
662.000	404.271	80.007	19.996	103.257	19.764	18.963	0.471
662.500	404.529	80.005	19.995	103.258	19.765	18.888	0.463
663.000	404.787	80.006	19.993	103.259	19.764	18.959	0.498
663.500	405.035	80.006	19.994	103.257	19.763	19.032	0.511
664.000	405.233	80.007	19.994	103.257	19.765	18.939	0.476
664.500	405.496	80.006	19.993	103.261	19.764	18.985	0.453
665.000	405.739	80.005	19.993	103.264	19.760	19.258	0.484
665.500	406.008	80.005	19.994	103.265	19.758	19.382	0.509
666.000	406.248	80.004	19.993	103.266	19.764	19.007	0.510
666.500	406.482	80.006	19.993	103.268	19.762	19.092	0.491
667.000	406.713	80.004	19.992	103.271	19.757	19.474	0.469
667.500	406.967	80.007	19.995	103.270	19.759	19.348	0.475
668.000	407.184	80.006	19.995	103.273	19.759	19.285	0.478
668.500	407.459	80.006	19.994	103.272	19.760	19.239	0.482
669.000	407.734	80.007	19.995	103.271	19.759	19.334	0.521
669.500	407.939	80.006	19.994	103.265	19.755	19.615	0.515
670.000	408.223	80.005	19.993	103.262	19.761	19.173	0.485
670.500	408.440	80.006	19.994	103.256	19.760	19.281	0.495
671.000	408.649	80.006	19.994	103.253	19.753	19.696	0.463
671.500	408.957	80.005	19.995	103.250	19.758	19.359	0.471
672.000	409.206	80.007	19.994	103.249	19.758	19.414	0.537
672.500	409.436	80.005	19.993	103.248	19.754	19.632	0.518
673.000	409.689	80.006	19.995	103.249	19.756	19.513	0.481
673.500	409.972	80.005	19.994	103.250	19.749	20.015	0.509
674.000	410.168	80.007	19.994	103.251	19.760	19.239	0.507
674.500	410.443	80.006	19.994	103.251	19.752	19.770	0.475
675.000	410.692	80.005	19.994	103.252	19.755	19.575	0.498
675.500	410.933	80.006	19.994	103.254	19.759	19.329	0.507
676.000	411.176	80.005	19.994	103.254	19.759	19.345	0.487
676.500	411.422	80.006	19.995	103.254	19.761	19.198	0.486
677.000	411.659	80.005	19.995	103.253	19.758	19.378	0.486
677.500	411.958	80.005	19.993	103.251	19.756	19.509	0.510
678.000	412.181	80.005	19.995	103.247	19.757	19.467	0.529
678.500	412.391	80.006	19.995	103.246	19.758	19.393	0.477
679.000	412.619	80.004	19.995	103.242	19.761	19.184	0.436
679.500	412.908	80.006	19.993	103.239	19.762	19.128	0.478
680.000	413.162	80.004	19.995	103.241	19.765	18.908	0.530
680.500	413.397	80.006	19.995	103.244	19.763	19.079	0.516
681.000	413.625	80.005	19.993	103.245	19.767	18.792	0.476
681.500	413.874	80.005	19.994	103.246	19.763	19.024	0.470
682.000	414.132	80.005	19.995	103.249	19.767	18.783	0.492
682.500	414.386	80.003	19.994	103.248	19.766	18.832	0.509
683.000	414.630	80.006	19.996	103.247	19.766	18.886	0.505
683.500	414.883	80.005	19.995	103.248	19.771	18.517	0.498
684.000	415.121	80.005	19.996	103.251	19.771	18.511	0.494
684.500	415.356	80.005	19.995	103.254	19.775	18.289	0.482
685.000	415.605	80.004	19.995	103.255	19.773	18.421	0.478
685.500	415.843	80.005	19.995	103.255	19.774	18.306	0.486
686.000	416.105	80.004	19.995	103.255	19.769	18.654	0.494
686.500	416.342	80.005	19.994	103.254	19.779	18.009	0.499
687.001	416.557	80.004	19.994	103.251	19.777	18.137	0.476
687.500	416.867	80.005	19.994	103.251	19.777	18.127	0.489
688.000	417.114	80.005	19.995	103.251	19.776	18.182	0.541
688.500	417.362	80.006	19.995	103.251	19.782	17.806	0.526
689.000	417.575	80.004	19.995	103.252	19.788	17.364	0.478
689.500	417.845	80.006	19.994	103.254	19.787	17.458	0.472
690.000	418.130	80.005	19.995	103.255	19.788	17.356	0.519
690.500	418.347	80.006	19.996	103.256	19.788	17.420	0.529
691.000	418.588	80.005	19.995	103.259	19.793	17.087	0.480
691.500	418.864	80.007	19.994	103.260	19.793	17.057	0.487
692.000	419.104	80.006	19.994	103.259	19.795	16.889	0.517
692.500	419.335	80.008	19.995	103.259	19.792	17.108	0.494
693.000	419.589	80.006	19.995	103.260	19.801	16.498	0.478
693.500	419.865	80.007	19.995	103.260	19.803	16.372	0.508
694.000	420.117	80.009	19.996	103.265	19.802	16.425	0.529
694.500	420.377	80.006	19.995	103.273	19.808	16.024	0.520
695.000	420.637	80.007	19.994	103.280	19.808	16.079	0.516
695.500	420.889	80.008	19.994	103.287	19.810	15.914	0.516
696.000	421.135	80.007	19.995	103.292	19.814	15.615	0.505
696.500	421.382	80.007	19.993	103.292	19.809	15.972	0.495
697.000	421.667	80.008	19.995	103.292	19.818	15.348	0.512
697.500	421.905	80.008	19.995	103.289	19.819	15.310	0.528
698.000	422.140	80.008	19.996	103.283	19.815	15.589	0.498
698.500	422.395	80.007	19.996	103.280	19.820	15.256	0.481
699.000	422.651	80.007	19.994	103.273	19.816	15.537	0.501
699.500	422.925	80.006	19.994	103.265	19.823	15.079	0.521
700.000	423.112	80.007	19.994	103.265	19.827	14.765	0.495
700.500	423.395	80.007	19.994	103.271	19.829	14.627	0.465
701.000	423.662	80.007	19.995	103.274	19.827	14.808	0.510
701.500	423.917	80.007	19.995	103.276	19.832	14.457	0.536
702.000	424.135	80.007	19.994	103.277	19.835	14.233	0.498
702.500	424.406	80.006	19.996	103.272	19.832	14.447	0.481
703.000	424.683	80.007	19.995	103.267	19.837	14.101	0.519
703.500	424.946	80.007	19.996	103.261	19.842	13.802	0.544
704.000	425.213	80.008	19.996	103.258	19.839	13.966	0.536
704.500	425.446	80.004	19.995	103.253	19.840	13.913	0.515
705.000	425.731	80.006	19.995	103.247	19.845	13.604	0.508
705.500	425.937	80.006	19.994	103.238	19.853	13.041	0.504
706.000	426.198	80.006	19.995	103.229	19.849	13.312	0.479
706.500	426.454	80.004	19.994	103.222	19.859	12.678	0.492
707.000	426.720	80.005	19.995	103.221	19.852	13.104	0.520
707.500	426.943	80.006	19.995	103.224	19.860	12.598	0.506
708.000	427.241	80.005	19.995	103.224	19.857	12.804	0.505
708.500	427.482	80.006	19.996	103.225	19.862	12.415	0.530
709.000	427.689	80.006	19.995	103.227	19.864	12.286	0.494
709.500	427.954	80.006	19.996	103.227	19.866	12.150	0.460
710.000	428.214	80.004	19.996	103.229	19.865	12.279	0.498
710.500	428.458	80.006	19.996	103.234	19.864	12.295	0.515
711.000	428.755	80.005	19.996	103.239	19.867	12.128	0.523
711.500	428.977	80.005	19.996	103.244	19.871	11.851	0.530
712.000	429.248	80.005	19.994	103.250	19.867	12.104	0.506
712.500	429.494	80.005	19.995	103.250	19.874	11.673	0.505
713.000	429.760	80.004	19.995	103.251	19.875	11.613	0.514
713.500	430.065	80.005	19.995	103.254	19.876	11.531	0.541
714.000	430.280	80.006	19.996	103.254	19.879	11.305	0.545
714.500	430.540	80.006	19.995	103.254	19.876	11.492	0.498
715.000	430.844	80.006	19.997	103.254	19.881	11.158	0.520
715.500	431.066	80.005	19.995	103.254	19.882	11.137	0.545
716.000	431.319	80.006	19.995	103.253	19.887	10.760	0.500
716.500	431.531	80.005	19.996	103.252	19.880	11.260	0.470
717.000	431.828	80.005	19.995	103.248	19.889	10.618	0.488
717.500	432.069	80.006	19.995	103.245	19.888	10.746	0.523
718.000	432.352	80.006	19.995	103.244	19.893	10.384	0.531
718.500	432.604	80.007	19.994	103.243	19.891	10.535	0.530
719.000	432.880	80.005	19.995	103.244	19.893	10.348	0.532
719.500	433.104	80.008	19.996	103.248	19.897	10.096	0.514
720.000	433.362	80.008	19.995	103.251	19.892	10.443	0.491
720.500	433.612	80.007	19.995	103.253	19.895	10.266	0.495
721.000	433.907	80.006	19.993	103.254	19.891	10.523	0.527
721.500	434.186	80.005	19.995	103.254	19.897	10.136	0.560
722.000	434.442	80.007	19.995	103.254	19.900	9.942	0.554
722.500	434.685	80.008	19.995	103.254	19.896	10.202	0.516
723.000	434.948	80.009	19.995	103.254	19.897	10.112	0.502
723.500	435.184	80.007	19.994	103.254	19.896	10.150	0.503
724.000	435.441	80.009	19.994	103.254	19.905	9.548	0.496
724.500	435.703	80.007	19.994	103.254	19.904	9.615	0.506
725.000	435.914	80.007	19.994	103.252	19.909	9.288	0.496
725.500	436.200	80.006	19.993	103.252	19.906	9.510	0.486
726.000	436.474	80.009	19.994	103.251	19.907	9.455	0.529
726.500	436.697	80.007	19.994	103.247	19.903	9.686	0.528
727.000	436.987	80.006	19.993	103.243	19.912	9.122	0.505
727.500	437.227	80.008	19.995	103.243	19.904	9.647	0.521
728.000	437.496	80.008	19.995	103.243	19.910	9.272	0.520
728.500	437.734	80.007	19.994	103.244	19.904	9.670	0.508
729.000	438.023	80.006	19.994	103.248	19.911	9.193	0.517
729.500	438.265	80.007	19.994	103.253	19.909	9.329	0.529
730.000	438.505	80.006	19.995	103.250	19.910	9.219	0.507
730.500	438.748	80.006	19.994	103.242	19.914	8.978	0.482
731.000	438.989	80.007	19.995	103.238	19.911	9.191	0.483
731.500	439.233	80.005	19.994	103.236	19.915	8.935	0.484
732.000	439.486	80.007	19.994	103.237	19.915	8.942	0.492
732.500	439.730	80.006	19.994	103.242	19.914	8.979	0.497
733.000	439.992	80.006	19.996	103.249	19.911	9.210	0.501
733.500	440.252	80.006	19.995	103.254	19.914	9.007	0.514
734.000	440.506	80.006	19.993	103.256	19.915	8.881	0.518
734.500	440.767	80.006	19.994	103.258	19.914	8.955	0.515
735.000	441.028	80.004	19.994	103.260	19.920	8.589	0.518
735.500	441.267	80.006	19.996	103.259	19.916	8.825	0.511
736.000	441.496	80.006	19.995	103.261	19.913	9.021	0.484
736.500	441.773	80.007	19.995	103.262	19.911	9.169	0.487
737.000	442.021	80.006	19.994	103.261	19.920	8.590	0.515
737.500	442.262	80.006	19.995	103.258	19.922	8.412	0.507
738.000	442.507	80.006	19.994	103.258	19.919	8.622	0.488
738.500	442.764	80.007	19.995	103.254	19.916	8.873	0.494
739.000	443.007	80.007	19.996	103.246	19.922	8.464	0.502
739.500	443.282	80.006	19.995	103.239	19.918	8.719	0.509
740.000	443.514	80.006	19.995	103.236	19.915	8.934	0.512
740.500	443.780	80.006	19.993	103.233	19.922	8.413	0.502
741.000	444.027	80.006	19.995	103.231	19.922	8.436	0.506
741.500	444.234	80.006	19.995	103.237	19.925	8.249	0.484
742.000	444.529	80.005	19.994	103.244	19.921	8.494	0.478
742.500	444.782	80.006	19.995	103.245	19.921	8.489	0.525
743.000	445.027	80.007	19.995	103.247	19.926	8.147	0.523
743.500	445.301	80.005	19.993	103.251	19.921	8.505	0.509
744.000	445.542	80.006	19.996	103.252	19.920	8.569	0.517
744.500	445.810	80.004	19.995	103.251	19.920	8.594	0.512
745.000	446.030	80.006	19.995	103.249	19.922	8.413	0.499
745.500	446.274	80.005	19.995	103.244	19.927	8.087	0.476
746.000	446.502	80.006	19.996	103.240	19.919	8.647	0.468
746.500	446.769	80.007	19.995	103.236	19.920	8.572	0.484
747.000	447.012	80.005	19.995	103.232	19.923	8.354	0.503
747.500	447.253	80.006	19.995	103.235	19.920	8.578	0.496
748.000	447.515	80.005	19.994	103.236	19.923	8.354	0.493
748.500	447.745	80.006	19.995	103.236	19.920	8.597	0.497
749.000	448.010	80.004	19.995	103.241	19.922	8.451	0.494
749.500	448.258	80.007	19.996	103.245	19.918	8.684	0.504
750.000	448.500	80.006	19.996	103.245	19.921	8.492	0.502
750.500	448.760	80.006	19.995	103.249	19.925	8.229	0.496
751.000	448.989	80.006	19.996	103.252	19.925	8.222	0.495
751.500	449.280	80.006	19.995	103.251	19.923	8.402	0.505
752.000	449.545	80.006	19.995	103.244	19.926	8.158	0.538
752.500	449.763	80.005	19.994	103.244	19.926	8.208	0.519
753.000	449.998	80.006	19.995	103.244	19.924	8.288	0.468
753.500	450.289	80.006	19.994	103.244	19.928	8.013	0.489
754.000	450.533	80.006	19.994	103.240	19.930	7.931	0.531
754.500	450.793	80.006	19.995	103.243	19.925	8.268	0.520
755.000	450.981	80.006	19.994	103.243	19.928	8.071	0.476
755.500	451.295	80.006	19.995	103.242	19.920	8.557	0.475
756.000	451.536	80.007	19.994	103.242	19.931	7.846	0.529
756.500	451.787	80.006	19.995	103.245	19.930	7.889	0.524
757.000	452.037	80.007	19.995	103.242	19.925	8.261	0.496
757.500	452.290	80.007	19.995	103.238	19.930	7.909	0.502
758.000	452.518	80.005	19.994	103.238	19.928	8.015	0.492
758.500	452.807	80.006	19.994	103.237	19.927	8.137	0.499
759.001	453.056	80.005	19.995	103.240	19.931	7.877	0.528
759.500	453.310	80.007	19.996	103.246	19.928	8.051	0.521
760.000	453.538	80.006	19.994	103.251	19.928	8.079	0.493
760.500	453.788	80.007	19.994	103.252	19.929	7.953	0.480
761.000	454.038	80.007	19.996	103.252	19.928	8.037	0.489
761.500	454.321	80.007	19.993	103.252	19.925	8.228	0.516
762.000	454.584	80.007	19.994	103.252	19.927	8.111	0.539
762.500	454.850	80.006	19.994	103.251	19.931	7.843	0.537
763.000	455.080	80.004	19.993	103.252	19.926	8.193	0.512
763.500	455.321	80.005	19.994	103.252	19.925	8.233	0.484
764.000	455.593	80.006	19.994	103.252	19.927	8.144	0.493
764.500	455.868	80.007	19.995	103.250	19.924	8.343	0.530
765.000	456.106	80.005	19.994	103.249	19.926	8.208	0.530
765.500	456.403	80.006	19.994	103.250	19.924	8.297	0.524
766.000	456.627	80.005	19.994	103.250	19.925	8.251	0.528
766.500	456.882	80.007	19.995	103.251	19.926	8.155	0.500
767.000	457.147	80.004	19.995	103.253	19.929	7.996	0.500
767.500	457.408	80.006	19.995	103.254	19.927	8.084	0.523
768.000	457.685	80.006	19.995	103.254	19.928	8.036	0.532
768.500	457.946	80.004	19.994	103.254	19.924	8.283	0.538
769.000	458.205	80.006	19.995	103.253	19.931	7.841	0.529
769.500	458.462	80.006	19.995	103.253	19.929	7.991	0.518
770.000	458.739	80.005	19.995	103.254	19.927	8.091	0.525
770.500	458.957	80.006	19.995	103.254	19.930	7.937	0.514
771.000	459.234	80.004	19.994	103.255	19.932	7.768	0.495
771.500	459.472	80.004	19.994	103.255	19.925	8.275	0.505
772.000	459.752	80.006	19.994	103.254	19.930	7.934	0.517
772.500	460.013	80.006	19.995	103.252	19.926	8.177	0.530
773.000	460.280	80.006	19.994	103.250	19.932	7.796	0.534
773.500	460.493	80.004	19.994	103.247	19.929	7.977	0.504
774.000	460.773	80.005	19.995	103.247	19.926	8.186	0.487
774.500	461.032	80.007	19.996	103.250	19.931	7.813	0.516
775.000	461.309	80.006	19.995	103.253	19.929	7.997	0.538
775.500	461.551	80.007	19.995	103.255	19.927	8.111	0.527
776.000	461.777	80.007	19.995	103.258	19.926	8.164	0.493
776.500	462.024	80.008	19.996	103.254	19.927	8.100	0.470
777.000	462.284	80.007	19.996	103.252	19.930	7.942	0.490
777.500	462.574	80.007	19.994	103.251	19.928	8.046	0.529
778.000	462.773	80.007	19.996	103.251	19.929	7.995	0.520
778.500	463.026	80.006	19.995	103.251	19.929	7.988	0.470
779.000	463.311	80.005	19.995	103.248	19.927	8.093	0.495
779.500	463.554	80.007	19.995	103.241	19.930	7.888	0.533
780.000	463.791	80.008	19.995	103.234	19.929	7.955	0.504
780.500	464.076	80.007	19.995	103.231	19.929	7.979	0.501
781.000	464.344	80.006	19.995	103.229	19.928	8.057	0.537
781.500	464.585	80.007	19.996	103.235	19.932	7.775	0.531
782.000	464.840	80.009	19.996	103.242	19.932	7.753	0.503
782.500	465.094	80.007	19.994	103.249	19.932	7.802	0.502
783.000	465.354	80.007	19.995	103.249	19.931	7.850	0.511
783.500	465.627	80.006	19.996	103.252	19.933	7.718	0.523
784.000	465.892	80.008	19.995	103.252	19.928	8.064	0.536
784.500	466.151	80.008	19.995	103.252	19.927	8.086	0.531
785.000	466.427	80.008	19.996	103.252	19.936	7.543	0.529
785.500	466.641	80.007	19.994	103.255	19.931	7.856	0.513
786.000	466.906	80.007	19.996	103.253	19.939	7.309	0.484
786.501	467.204	80.006	19.995	103.250	19.933	7.684	0.521
787.001	467.408	80.006	19.994	103.251	19.932	7.775	0.532
787.500	467.659	80.007	19.996	103.250	19.936	7.480	0.478
788.001	467.932	80.006	19.995	103.251	19.932	7.774	0.490
788.500	468.166	80.005	19.995	103.252	19.934	7.661	0.516
789.000	468.466	80.007	19.995	103.256	19.941	7.152	0.520
789.500	468.709	80.005	19.994	103.257	19.937	7.419	0.538
790.000	468.966	80.007	19.994	103.257	19.936	7.515	0.521
790.500	469.231	80.007	19.994	103.257	19.936	7.510	0.511
791.000	469.468	80.008	19.996	103.256	19.939	7.286	0.512
791.500	469.775	80.006	19.994	103.256	19.940	7.269	0.523
792.000	470.017	80.007	19.996	103.256	19.942	7.098	0.546
792.500	470.264	80.006	19.995	103.256	19.938	7.401	0.519
793.000	470.516	80.006	19.995	103.256	19.942	7.090	0.494
793.500	470.800	80.005	19.995	103.257	19.941	7.160	0.517
794.000	471.032	80.007	19.996	103.258	19.940	7.213	0.526
794.500	471.291	80.007	19.995	103.257	19.935	7.571	0.504
795.000	471.551	80.006	19.994	103.253	19.939	7.330	0.505
795.501	471.853	80.007	19.994	103.252	19.942	7.094	0.541
796.000	472.069	80.007	19.995	103.252	19.939	7.318	0.540
796.500	472.321	80.007	19.995	103.251	19.939	7.294	0.493
797.000	472.617	80.005	19.994	103.251	19.939	7.318	0.507
797.500	472.876	80.006	19.996	103.256	19.944	6.958	0.551
798.000	473.127	80.008	19.994	103.256	19.942	7.129	0.533
798.500	473.398	80.006	19.995	103.252	19.942	7.099	0.516
799.000	473.695	80.008	19.995	103.248	19.944	6.968	0.546
799.500	473.960	80.008	19.995	103.246	19.943	7.013	0.565
800.000	474.182	80.008	19.994	103.244	19.943	7.037	0.524
800.500	474.467	80.009	19.995	103.242	19.941	7.210	0.497
801.000	474.725	80.008	19.995	103.241	19.943	7.033	0.525
801.500	474.987	80.009	19.996	103.242	19.944	6.981	0.531
802.000	475.252	80.008	19.995	103.240	19.945	6.886	0.523
802.500	475.526	80.007	19.995	103.237	19.947	6.750	0.533
803.000	475.792	80.008	19.996	103.239	19.941	7.196	0.540
803.500	476.026	80.008	19.995	103.242	19.943	7.019	0.520
804.000	476.288	80.008	19.995	103.242	19.945	6.941	0.498
804.500	476.564	80.009	19.995	103.240	19.946	6.843	0.517
805.000	476.762	80.009	19.996	103.236	19.950	6.592	0.506
805.500	477.044	80.009	19.996	103.230	19.946	6.870	0.477
806.000	477.310	80.008	19.995	103.225	19.945	6.880	0.514
806.500	477.604	80.008	19.995	103.221	19.947	6.807	0.554
807.000	477.808	80.007	19.996	103.223	19.942	7.090	0.529
807.500	478.080	80.007	19.995	103.228	19.951	6.522	0.487
808.000	478.349	80.008	19.995	103.232	19.947	6.784	0.509
808.500	478.584	80.008	19.996	103.234	19.951	6.489	0.523
809.001	478.871	80.008	19.996	103.239	19.947	6.793	0.513
809.500	479.095	80.008	19.995	103.242	19.951	6.538	0.516
810.000	479.328	80.008	19.996	103.244	19.950	6.586	0.484
810.500	479.609	80.007	19.996	103.247	19.956	6.166	0.486
811.000	479.856	80.007	19.995	103.248	19.952	6.451	0.521
811.500	480.140	80.007	19.995	103.242	19.950	6.588	0.529
812.000	480.405	80.005	19.996	103.234	19.949	6.647	0.540
812.500	480.625	80.007	19.996	103.230	19.949	6.617	0.517
813.000	480.888	80.007	19.996	103.225	19.955	6.218	0.484
813.500	481.151	80.006	19.996	103.222	19.951	6.497	0.504
814.000	481.378	80.006	19.996	103.224	19.952	6.440	0.508
814.500	481.683	80.007	19.996	103.228	19.956	6.158	0.511
815.000	481.900	80.006	19.996	103.225	19.957	6.100	0.527
815.500	482.134	80.006	19.995	103.224	19.952	6.433	0.487
816.000	482.440	80.007	19.995	103.223	19.955	6.262	0.495
816.500	482.646	80.007	19.995	103.227	19.953	6.411	0.526
817.000	482.916	80.006	19.995	103.232	19.957	6.124	0.494
817.500	483.173	80.006	19.995	103.236	19.956	6.158	0.501
818.000	483.429	80.007	19.995	103.243	19.960	5.894	0.520
818.500	483.676	80.007	19.996	103.248	19.959	5.952	0.508
819.000	483.953	80.007	19.996	103.248	19.955	6.251	0.513
819.500	484.179	80.006	19.994	103.246	19.957	6.112	0.513
820.000	484.452	80.007	19.995	103.243	19.957	6.088	0.501
820.500	484.721	80.006	19.994	103.235	19.960	5.908	0.520
821.000	484.955	80.006	19.994	103.228	19.957	6.139	0.522
821.500	485.206	80.005	19.994	103.223	19.958	6.044	0.494
822.000	485.466	80.006	19.994	103.223	19.960	5.919	0.499
822.500	485.718	80.005	19.995	103.229	19.960	5.915	0.512
823.000	485.994	80.005	19.995	103.237	19.960	5.930	0.520
823.500	486.273	80.005	19.993	103.245	19.960	5.908	0.542
824.000	486.518	80.006	19.994	103.251	19.960	5.901	0.540
824.501	486.766	80.006	19.995	103.249	19.965	5.592	0.508
825.000	487.064	80.007	19.995	103.246	19.962	5.774	0.519
825.500	487.302	80.007	19.995	103.245	19.962	5.781	0.542
826.000	487.525	80.006	19.994	103.244	19.965	5.552	0.499
826.500	487.774	80.006	19.995	103.244	19.961	5.858	0.466
827.000	488.043	80.007	19.995	103.246	19.966	5.541	0.495
827.500	488.325	80.006	19.995	103.247	19.962	5.781	0.535
828.001	488.560	80.007	19.994	103.246	19.962	5.769	0.534
828.501	488.833	80.006	19.995	103.245	19.964	5.665	0.512
829.000	489.059	80.006	19.994	103.245	19.962	5.771	0.504
829.500	489.312	80.007	19.994	103.243	19.964	5.646	0.489
830.000	489.555	80.007	19.995	103.242	19.967	5.464	0.487
830.500	489.836	80.007	19.995	103.237	19.962	5.754	0.510
831.000	490.112	80.006	19.994	103.234	19.966	5.541	0.541
831.500	490.358	80.006	19.994	103.231	19.966	5.488	0.540
832.000	490.631	80.005	19.994	103.232	19.959	5.971	0.521
832.500	490.888	80.006	19.995	103.231	19.965	5.590	0.524
833.000	491.129	80.007	19.994	103.232	19.970	5.230	0.514
833.500	491.367	80.007	19.994	103.231	19.969	5.306	0.489
834.000	491.639	80.008	19.995	103.231	19.966	5.537	0.495
834.500	491.887	80.005	19.994	103.233	19.968	5.358	0.515
835.000	492.134	80.007	19.995	103.237	19.968	5.353	0.508
835.500	492.377	80.006	19.995	103.240	19.967	5.449	0.492
836.000	492.647	80.006	19.994	103.244	19.966	5.540	0.501
836.500	492.905	80.006	19.994	103.245	19.962	5.768	0.520
837.000	493.183	80.007	19.995	103.243	19.968	5.371	0.532
837.500	493.424	80.004	19.994	103.244	19.965	5.597	0.528
838.000	493.694	80.006	19.994	103.245	19.967	5.463	0.515
838.500	493.946	80.006	19.994	103.246	19.968	5.375	0.516
839.000	494.215	80.006	19.994	103.247	19.969	5.317	0.522
839.500	494.492	80.005	19.994	103.250	19.973	5.026	0.534
840.000	494.706	80.006	19.995	103.248	19.970	5.237	0.518
840.500	494.982	80.006	19.994	103.241	19.965	5.576	0.491
841.000	495.234	80.006	19.994	103.237	19.968	5.361	0.509
841.500	495.479	80.005	19.995	103.239	19.969	5.306	0.512
842.000	495.750	80.006	19.994	103.239	19.968	5.351	0.506
842.500	495.987	80.004	19.996	103.240	19.967	5.455	0.512
843.000	496.261	80.005	19.993	103.246	19.975	4.891	0.510
843.500	496.499	80.005	19.995	103.248	19.970	5.220	0.512
844.000	496.757	80.006	19.995	103.241	19.972	5.106	0.504
844.500	497.021	80.006	19.995	103.235	19.966	5.481	0.509
845.000	497.309	80.005	19.993	103.230	19.972	5.095	0.537
845.500	497.554	80.005	19.996	103.226	19.973	5.055	0.542
846.001	497.786	80.005	19.996	103.222	19.972	5.092	0.505
846.500	498.064	80.005	19.994	103.224	19.976	4.875	0.493
847.000	498.295	80.005	19.995	103.230	19.972	5.119	0.509
847.500	498.601	80.006	19.995	103.233	19.977	4.810	0.524
848.000	498.835	80.005	19.995	103.236	19.975	4.903	0.539
848.500	499.082	80.006	19.996	103.238	19.977	4.786	0.510
849.000	499.345	80.005	19.994	103.238	19.976	4.844	0.495
849.500	499.563	80.006	19.996	103.236	19.978	4.694	0.495
850.000	499.832	80.004	19.995	103.240	19.976	4.843	0.484
850.500	500.092	80.006	19.996	103.242	19.982	4.447	0.508
851.000	500.328	80.005	19.996	103.245	19.973	5.034	0.512
851.500	500.610	80.005	19.994	103.248	19.976	4.865	0.507
852.000	500.876	80.007	19.995	103.247	19.977	4.776	0.533
852.500	501.124	80.006	19.996	103.241	19.978	4.694	0.531
853.000	501.381	80.006	19.995	103.234	19.978	4.687	0.509
853.500	501.657	80.006	19.994	103.232	19.977	4.794	0.519
854.000	501.883	80.005	19.994	103.234	19.979	4.621	0.518
854.500	502.132	80.005	19.995	103.234	19.973	5.065	0.489
855.000	502.377	80.006	19.995	103.241	19.980	4.548	0.485
855.500	502.678	80.005	19.995	103.246	19.978	4.714	0.520
856.000	502.907	80.005	19.994	103.247	19.978	4.703	0.538
856.500	503.179	80.006	19.994	103.246	19.978	4.700	0.516
857.000	503.430	80.007	19.994	103.248	19.977	4.793	0.512
857.500	503.681	80.007	19.995	103.248	19.980	4.600	0.513
858.000	503.931	80.007	19.995	103.249	19.978	4.742	0.501
858.500	504.209	80.007	19.994	103.249	19.983	4.404	0.514
859.000	504.417	80.007	19.993	103.249	19.980	4.586	0.507
859.500	504.717	80.008	19.994	103.244	19.980	4.591	0.497
860.000	504.947	80.006	19.994	103.238	19.981	4.524	0.519
860.500	505.211	80.007	19.995	103.232	19.979	4.671	0.512
861.000	505.463	80.008	19.993	103.228	19.980	4.602	0.505
861.500	505.743	80.007	19.994	103.226	19.978	4.699	0.524
862.000	506.032	80.007	19.994	103.225	19.982	4.440	0.551
862.500	506.272	80.008	19.994	103.224	19.983	4.408	0.549
863.000	506.530	80.008	19.994	103.224	19.977	4.790	0.514
863.500	506.784	80.007	19.994	103.223	19.977	4.763	0.505
864.000	507.041	80.008	19.994	103.221	19.975	4.909	0.512
864.500	507.284	80.008	19.994	103.221	19.981	4.512	0.505
865.000	507.608	80.007	19.994	103.221	19.979	4.614	0.533
865.500	507.859	80.008	19.995	103.220	19.980	4.579	0.571
866.000	508.116	80.007	19.994	103.223	19.981	4.539	0.542
866.500	508.357	80.008	19.995	103.222	19.983	4.408	0.503
867.000	508.578	80.007	19.995	103.224	19.982	4.459	0.480
867.500	508.858	80.008	19.995	103.229	19.979	4.659	0.481
868.000	509.098	80.007	19.995	103.233	19.980	4.599	0.510
868.500	509.372	80.008	19.994	103.234	19.983	4.370	0.517
869.000	509.661	80.008	19.995	103.242	19.984	4.291	0.539
869.500	509.909	80.007	19.995	103.243	19.980	4.575	0.550
870.000	510.169	80.007	19.996	103.244	19.984	4.333	0.522
870.500	510.432	80.007	19.995	103.246	19.982	4.411	0.516
871.000	510.674	80.007	19.995	103.249	19.981	4.482	0.514
871.500	510.946	80.007	19.995	103.249	19.985	4.275	0.509
872.000	511.188	80.006	19.995	103.247	19.987	4.127	0.514
872.500	511.435	80.007	19.995	103.248	19.986	4.204	0.502
873.000	511.693	80.006	19.996	103.249	19.980	4.550	0.497
873.500	511.950	80.006	19.995	103.251	19.983	4.410	0.510
874.000	512.205	80.005	19.995	103.251	19.989	3.953	0.514
874.500	512.479	80.007	19.995	103.254	19.985	4.226	0.521
875.000	512.740	80.006	19.995	103.259	19.984	4.291	0.532
875.500	512.983	80.006	19.994	103.259	19.985	4.253	0.519
876.000	513.218	80.006	19.995	103.259	19.987	4.106	0.491
876.500	513.475	80.007	19.995	103.259	19.988	4.046	0.485
877.000	513.780	80.007	19.995	103.260	19.987	4.100	0.527
877.500	514.032	80.006	19.995	103.263	19.987	4.142	0.560
878.000	514.285	80.006	19.994	103.265	19.990	3.918	0.531
878.501	514.571	80.006	19.995	103.264	19.985	4.240	0.522
879.000	514.817	80.006	19.996	103.260	19.990	3.915	0.535
879.500	515.074	80.007	19.996	103.255	19.988	4.023	0.517
880.000	515.368	80.007	19.996	103.246	19.987	4.095	0.527
880.500	515.625	80.008	19.995	103.242	19.989	3.975	0.551
881.000	515.858	80.007	19.995	103.242	19.986	4.192	0.520
881.500	516.155	80.008	19.995	103.245	19.986	4.161	0.510
882.000	516.378	80.008	19.994	103.248	19.989	3.975	0.525
882.500	516.645	80.008	19.994	103.249	19.987	4.094	0.504
883.000	516.905	80.008	19.995	103.251	19.987	4.119	0.508
883.500	517.159	80.008	19.995	103.251	19.987	4.108	0.521
884.000	517.443	80.007	19.995	103.251	19.986	4.161	0.526
884.500	517.675	80.008	19.995	103.252	19.985	4.270	0.527
885.000	517.908	80.009	19.994	103.251	19.989	3.948	0.490
885.500	518.227	80.009	19.995	103.251	19.986	4.159	0.509
886.000	518.463	80.008	19.995	103.250	19.989	3.995	0.554
886.500	518.717	80.009	19.995	103.249	19.989	4.004	0.523
887.001	518.961	80.009	19.995	103.249	19.984	4.323	0.494
887.500	519.280	80.008	19.995	103.251	19.989	3.968	0.530
888.000	519.504	80.009	19.994	103.250	19.989	3.982	0.553
888.500	519.784	80.009	19.995	103.246	19.991	3.815	0.523
889.000	520.064	80.009	19.994	103.240	19.989	3.979	0.532
889.500	520.318	80.009	19.994	103.232	19.987	4.094	0.548
890.000	520.539	80.008	19.994	103.227	19.989	3.945	0.504
890.500	520.803	80.009	19.995	103.222	19.987	4.138	0.480
891.000	521.065	80.009	19.994	103.221	19.989	3.991	0.505
891.500	521.335	80.009	19.994	103.221	19.987	4.103	0.529
892.000	521.580	80.007	19.995	103.223	19.988	4.076	0.524
892.500	521.848	80.008	19.995	103.224	19.990	3.877	0.514
893.000	522.124	80.008	19.995	103.224	19.985	4.241	0.528
893.500	522.373	80.008	19.995	103.223	19.986	4.181	0.535
894.000	522.601	80.008	19.995	103.222	19.988	4.015	0.501
894.500	522.882	80.007	19.994	103.219	19.983	4.403	0.493
895.000	523.147	80.006	19.994	103.216	19.989	3.992	0.528
895.500	523.415	80.006	19.995	103.214	19.989	3.992	0.540
896.000	523.648	80.006	19.995	103.214	19.987	4.112	0.517
896.500	523.921	80.007	19.995	103.217	19.985	4.231	0.504
897.000	524.186	80.006	19.995	103.217	19.985	4.218	0.522
897.500	524.451	80.006	19.995	103.217	19.987	4.130	0.534
898.000	524.685	80.005	19.995	103.218	19.985	4.214	0.515
898.500	524.937	80.007	19.995	103.217	19.987	4.139	0.492
899.000	525.218	80.005	19.996	103.214	19.989	3.995	0.509
899.500	525.482	80.007	19.996	103.216	19.988	4.068	0.539
900.000	525.725	80.005	19.995	103.220	19.989	3.957	0.526
900.500	525.993	80.007	19.996	103.223	19.986	4.157	0.509
901.000	526.233	80.004	19.996	103.229	19.988	4.072	0.509
901.500	526.485	80.005	19.996	103.235	19.986	4.181	0.500
902.000	526.752	80.005	19.995	103.241	19.992	3.797	0.505
902.500	527.000	80.006	19.996	103.239	19.988	4.070	0.517
903.000	527.271	80.005	19.995	103.237	19.987	4.086	0.517
903.500	527.550	80.005	19.996	103.233	19.988	4.030	0.535
904.000	527.773	80.006	19.996	103.227	19.993	3.688	0.526
904.500	528.027	80.005	19.995	103.220	19.988	4.021	0.489
905.000	528.313	80.004	19.995	103.219	19.991	3.863	0.508
905.501	528.558	80.005	19.995	103.219	19.989	3.955	0.536
906.000	528.804	80.006	19.996	103.225	19.992	3.748	0.511
906.500	529.083	80.006	19.996	103.232	19.988	4.017	0.509
907.000	529.349	80.004	19.995	103.239	19.990	3.896	0.535
907.500	529.564	80.005	19.996	103.240	19.993	3.728	0.513
908.000	529.813	80.004	19.997	103.240	19.989	3.998	0.472
908.500	530.079	80.005	19.995	103.233	19.993	3.694	0.490
909.000	530.349	80.004	19.996	103.226	19.990	3.880	0.525
909.500	530.579	80.005	19.996	103.219	19.990	3.899	0.518
910.000	530.837	80.005	19.996	103.219	19.991	3.844	0.494
910.500	531.118	80.006	19.995	103.224	19.989	3.953	0.513
911.000	531.369	80.004	19.994	103.227	19.992	3.767	0.536
911.500	531.626	80.004	19.995	103.228	19.991	3.838	0.520
912.000	531.891	80.006	19.994	103.229	19.989	3.983	0.515
912.500	532.147	80.004	19.994	103.228	19.992	3.781	0.522
913.000	532.388	80.006	19.995	103.222	19.990	3.933	0.509
913.500	532.661	80.006	19.994	103.220	19.988	4.052	0.505
914.000	532.888	80.006	19.995	103.222	19.988	4.021	0.507
914.500	533.105	80.005	19.994	103.222	19.990	3.910	0.472
915.000	533.379	80.005	19.993	103.221	19.990	3.910	0.468
915.500	533.663	80.006	19.994	103.223	19.989	3.988	0.524
916.000	533.914	80.005	19.994	103.226	19.989	3.959	0.547
916.501	534.180	80.006	19.994	103.225	19.992	3.801	0.527
917.000	534.427	80.005	19.994	103.225	19.989	3.993	0.515
917.500	534.684	80.005	19.994	103.225	19.990	3.915	0.509
918.000	534.969	80.005	19.994	103.230	19.988	4.037	0.523
918.500	535.234	80.005	19.993	103.234	19.988	4.052	0.546
919.000	535.497	80.005	19.993	103.243	19.993	3.712	0.538
919.500	535.757	80.006	19.994	103.253	19.990	3.909	0.525
920.000	536.020	80.006	19.994	103.260	19.996	3.530	0.523
920.500	536.263	80.005	19.993	103.261	19.990	3.898	0.515
921.000	536.544	80.007	19.994	103.258	19.989	4.000	0.515
921.500	536.743	80.004	19.995	103.252	19.993	3.701	0.502
922.000	537.026	80.007	19.996	103.245	19.990	3.887	0.481
922.500	537.283	80.005	19.994	103.238	19.996	3.526	0.511
923.000	537.468	80.006	19.995	103.230	19.992	3.771	0.491
923.500	537.792	80.007	19.994	103.226	19.990	3.924	0.475
924.000	538.021	80.005	19.994	103.224	19.995	3.555	0.531
924.500	538.248	80.006	19.994	103.221	19.992	3.790	0.505
925.000	538.537	80.005	19.994	103.220	19.991	3.819	0.486
925.500	538.777	80.006	19.994	103.220	19.994	3.676	0.522
926.000	539.030	80.004	19.994	103.219	19.991	3.827	0.511
926.500	539.301	80.005	19.994	103.220	19.988	4.069	0.508
927.000	539.563	80.005	19.994	103.219	19.993	3.703	0.528
927.500	539.820	80.005	19.996	103.220	19.990	3.900	0.526
928.000	540.068	80.005	19.994	103.220	19.994	3.658	0.512
928.500	540.303	80.004	19.994	103.224	19.993	3.680	0.495
929.000	540.601	80.004	19.994	103.228	19.990	3.880	0.508
929.501	540.815	80.006	19.995	103.231	19.992	3.780	0.522
930.000	541.067	80.005	19.995	103.237	19.998	3.399	0.489
930.500	541.337	80.005	19.995	103.244	19.996	3.479	0.494
931.000	541.574	80.005	19.995	103.247	19.993	3.678	0.514
931.500	541.843	80.004	19.995	103.250	19.994	3.634	0.506
932.000	542.118	80.006	19.994	103.247	19.993	3.732	0.525
932.500	542.375	80.006	19.996	103.241	19.990	3.879	0.538
933.000	542.625	80.005	19.996	103.233	19.993	3.692	0.520
933.500	542.889	80.005	19.995	103.226	19.993	3.708	0.511
934.000	543.136	80.004	19.995	103.219	19.994	3.630	0.513
934.500	543.376	80.005	19.994	103.217	19.998	3.399	0.499
935.000	543.632	80.005	19.995	103.219	19.993	3.695	0.491
935.500	543.875	80.006	19.995	103.226	19.997	3.433	0.497
936.000	544.122	80.006	19.995	103.228	19.987	4.090	0.495
936.500	544.387	80.006	19.995	103.235	19.993	3.721	0.501
937.000	544.617	80.004	19.993	103.242	19.991	3.832	0.504
937.501	544.912	80.005	19.995	103.247	19.990	3.894	0.511
938.000	545.149	80.005	19.995	103.247	19.992	3.803	0.528
938.500	545.394	80.006	19.995	103.251	19.991	3.841	0.506
939.000	545.648	80.006	19.994	103.251	19.993	3.690	0.490
939.500	545.921	80.006	19.995	103.248	19.991	3.857	0.513
940.000	546.189	80.007	19.995	103.245	19.992	3.780	0.534
940.500	546.405	80.006	19.995	103.245	19.993	3.717	0.513
941.000	546.682	80.006	19.995	103.245	19.989	3.959	0.489
941.500	546.943	80.006	19.994	103.246	19.997	3.413	0.516
942.000	547.192	80.007	19.993	103.245	19.994	3.651	0.524
942.500	547.417	80.006	19.994	103.243	19.992	3.801	0.492
943.000	547.702	80.007	19.995	103.239	19.991	3.810	0.492
943.500	547.937	80.008	19.995	103.233	19.997	3.464	0.515
944.000	548.202	80.006	19.993	103.228	19.990	3.916	0.510
944.500	548.451	80.008	19.995	103.225	19.989	3.948	0.507
945.000	548.707	80.008	19.995	103.224	19.992	3.772	0.509
945.500	548.948	80.008	19.995	103.221	19.995	3.546	0.501
946.000	549.187	80.008	19.994	103.221	19.992	3.784	0.489
946.500	549.456	80.008	19.994	103.219	19.989	3.974	0.494
947.000	549.725	80.008	19.995	103.222	19.988	4.030	0.523
947.500	549.995	80.007	19.994	103.227	19.996	3.535	0.538
948.000	550.237	80.006	19.994	103.229	19.994	3.657	0.526
948.500	550.474	80.007	19.994	103.230	19.992	3.796	0.496
949.000	550.738	80.007	19.995	103.232	19.988	4.072	0.490
949.500	550.972	80.008	19.994	103.227	19.993	3.701	0.499
950.000	551.240	80.007	19.996	103.222	19.990	3.898	0.500
950.500	551.498	80.006	19.994	103.219	19.993	3.716	0.514
951.000	551.716	80.007	19.994	103.218	19.992	3.784	0.501
951.500	551.947	80.007	19.995	103.217	19.990	3.909	0.463
952.000	552.222	80.007	19.994	103.217	19.993	3.736	0.478
952.500	552.471	80.007	19.994	103.217	19.994	3.660	0.515
953.000	552.723	80.007	19.994	103.219	19.989	3.955	0.512
953.500	552.970	80.007	19.995	103.223	19.994	3.627	0.500
954.000	553.229	80.007	19.994	103.229	19.990	3.929	0.503
954.501	553.512	80.007	19.994	103.232	19.993	3.736	0.524
955.001	553.757	80.005	19.994	103.234	19.993	3.734	0.535
955.501	553.991	80.006	19.994	103.233	19.996	3.529	0.504
956.001	554.224	80.007	19.994	103.230	19.990	3.920	0.473
956.500	554.505	80.008	19.994	103.226	19.993	3.700	0.490
957.000	554.756	80.008	19.994	103.226	19.989	4.009	0.523
957.500	555.018	80.007	19.995	103.226	19.991	3.838	0.523
958.000	555.251	80.007	19.995	103.227	19.990	3.918	0.504
958.500	555.531	80.006	19.994	103.230	19.994	3.611	0.504
959.000	555.801	80.008	19.994	103.234	19.990	3.906	0.531
959.500	556.017	80.006	19.994	103.235	19.988	4.047	0.518
960.000	556.279	80.007	19.994	103.241	19.988	4.042	0.482
960.500	556.507	80.005	19.994	103.246	19.992	3.749	0.484
961.000	556.767	80.006	19.995	103.249	19.990	3.929	0.489
961.500	557.032	80.007	19.994	103.249	19.991	3.851	0.507
962.000	557.241	80.005	19.994	103.252	19.991	3.827	0.499
962.500	557.519	80.008	19.995	103.252	19.995	3.601	0.481
963.000	557.801	80.006	19.993	103.252	19.993	3.712	0.524
963.500	558.018	80.006	19.994	103.251	19.994	3.628	0.529
964.000	558.270	80.007	19.995	103.252	19.992	3.766	0.484
964.500	558.535	80.006	19.995	103.252	19.992	3.781	0.493
965.000	558.791	80.006	19.995	103.254	19.992	3.766	0.519
965.500	559.045	80.007	19.995	103.254	19.989	4.007	0.515
966.000	559.277	80.007	19.996	103.254	19.991	3.821	0.498
966.500	559.562	80.008	19.996	103.254	19.992	3.767	0.502
967.000	559.792	80.006	19.994	103.254	19.992	3.809	0.516
967.500	560.085	80.008	19.996	103.252	19.994	3.669	0.519
968.000	560.318	80.008	19.996	103.252	19.993	3.736	0.524
968.500	560.610	80.009	19.995	103.252	19.992	3.763	0.525
969.000	560.821	80.009	19.996	103.252	19.998	3.390	0.514
969.500	561.067	80.009	19.995	103.252	19.997	3.457	0.480
970.000	561.309	80.008	19.995	103.254	19.993	3.741	0.472
970.500	561.575	80.010	19.995	103.254	19.996	3.541	0.498
971.000	561.849	80.009	19.995	103.254	19.991	3.832	0.524
971.500	562.058	80.006	19.996	103.254	19.993	3.735	0.511
972.000	562.365	80.009	19.995	103.254	19.988	4.028	0.500
972.500	562.588	80.007	19.995	103.252	19.993	3.733	0.523
973.000	562.872	80.008	19.995	103.251	19.994	3.637	0.518
973.500	563.055	80.006	19.994	103.249	19.994	3.650	0.487
974.000	563.357	80.008	19.995	103.242	19.991	3.841	0.476
974.500	563.569	80.008	19.995	103.236	19.992	3.754	0.499
975.000	563.837	80.008	19.993	103.232	19.992	3.787	0.497
975.500	564.097	80.007	19.994	103.231	19.996	3.477	0.504
976.000	564.342	80.006	19.995	103.232	19.994	3.630	0.517
976.500	564.571	80.007	19.995	103.236	19.991	3.839	0.489
977.000	564.833	80.006	19.995	103.239	19.991	3.824	0.482
977.500	565.096	80.007	19.994	103.246	19.991	3.812	0.508
978.000	565.366	80.007	19.994	103.245	19.992	3.744	0.529
978.500	565.607	80.007	19.995	103.243	19.993	3.721	0.522
979.000	565.876	80.005	19.994	103.239	19.991	3.854	0.511
979.500	566.123	80.005	19.995	103.239	19.996	3.477	0.513
980.000	566.364	80.007	19.995	103.240	19.994	3.612	0.502
980.500	566.628	80.006	19.994	103.240	19.990	3.923	0.497
981.000	566.886	80.007	19.994	103.239	19.989	3.980	0.514
981.500	567.156	80.007	19.996	103.239	19.990	3.878	0.525
982.000	567.391	80.007	19.994	103.235	19.993	3.690	0.517
982.500	567.709	80.005	19.994	103.228	19.993	3.720	0.529
983.000	567.915	80.005	19.994	103.225	19.990	3.927	0.538
983.500	568.172	80.006	19.994	103.223	19.995	3.557	0.493
984.000	568.464	80.007	19.995	103.229	19.994	3.637	0.506
984.500	568.668	80.004	19.994	103.232	19.993	3.729	0.523
985.000	568.912	80.006	19.994	103.237	19.994	3.663	0.472
985.500	569.166	80.005	19.994	103.239	19.996	3.536	0.473
986.000	569.405	80.006	19.994	103.243	19.991	3.840	0.496
986.500	569.691	80.004	19.993	103.238	19.994	3.623	0.509
987.000	569.926	80.005	19.994	103.236	19.990	3.939	0.523
987.500	570.228	80.004	19.995	103.231	19.990	3.908	0.529
988.000	570.481	80.005	19.995	103.227	19.993	3.697	0.546
988.500	570.732	80.005	19.995	103.223	19.993	3.728	0.529
989.000	570.960	80.005	19.994	103.223	19.993	3.715	0.491
989.500	571.243	80.005	19.994	103.222	19.993	3.677	0.495
990.000	571.498	80.005	19.995	103.227	19.995	3.557	0.525
990.500	571.733	80.005	19.995	103.232	19.991	3.854	0.514
991.000	572.045	80.007	19.994	103.237	19.996	3.510	0.518
991.500	572.270	80.005	19.995	103.241	19.997	3.475	0.542
992.000	572.529	80.006	19.995	103.246	19.997	3.457	0.511
992.500	572.817	80.006	19.996	103.248	19.993	3.679	0.515
993.000	573.060	80.006	19.997	103.246	19.997	3.476	0.539
993.500	573.329	80.005	19.996	103.245	19.997	3.419	0.522
994.000	573.577	80.005	19.995	103.240	19.993	3.681	0.514
994.500	573.836	80.006	19.996	103.238	19.997	3.456	0.512
995.000	574.087	80.006	19.996	103.238	19.993	3.682	0.509
995.500	574.392	80.006	19.995	103.241	19.992	3.756	0.533
996.000	574.617	80.006	19.995	103.242	19.994	3.638	0.543
996.500	574.905	80.006	19.996	103.247	19.997	3.419	0.521
997.000	575.147	80.005	19.995	103.245	19.995	3.576	0.522
997.500	575.421	80.005	19.996	103.240	19.994	3.649	0.523
998.000	575.675	80.007	19.996	103.237	19.996	3.516	0.522
998.500	575.963	80.006	19.996	103.233	19.993	3.734	0.535
999.000	576.225	80.006	19.996	103.230	19.995	3.556	0.546
999.500	576.443	80.006	19.996	103.230	19.997	3.419	0.515
1000.000	576.707	80.006	19.996	103.230	19.996	3.538	0.481
1000.500	576.966	80.006	19.995	103.229	19.997	3.456	0.502
1001.000	577.259	80.007	19.995	103.230	19.998	3.352	0.538
1001.500	577.458	80.007	19.997	103.227	20.000	3.268	0.522
1002.000	577.719	80.007	19.995	103.225	19.997	3.439	0.476
1002.500	577.974	80.006	19.996	103.227	19.999	3.303	0.488
1003.000	578.245	80.005	19.996	103.231	20.000	3.232	0.521
1003.500	578.482	80.006	19.995	103.234	19.995	3.568	0.517
1004.000	578.719	80.007	19.996	103.241	19.997	3.413	0.491
1004.500	579.013	80.006	19.995	103.246	19.994	3.635	0.503
1005.000	579.278	80.007	19.996	103.248	19.997	3.415	0.545
1005.500	579.503	80.005	19.995	103.249	19.991	3.871	0.524
1006.000	579.788	80.005	19.995	103.250	19.998	3.362	0.500
1006.500	580.057	80.006	19.994	103.248	19.993	3.682	0.533
1007.000	580.354	80.007	19.996	103.247	19.995	3.604	0.560
1007.500	580.569	80.006	19.995	103.244	19.994	3.609	0.539
1008.000	580.826	80.006	19.994	103.242	19.997	3.417	0.492
1008.500	581.083	80.006	19.994	103.242	19.996	3.535	0.493
1009.000	581.324	80.007	19.996	103.246	19.993	3.733	0.506
1009.500	581.596	80.007	19.995	103.246	19.995	3.557	0.505
1010.000	581.875	80.006	19.994	103.249	19.996	3.478	0.532
1010.500	582.104	80.007	19.995	103.250	19.992	3.804	0.529
1011.000	582.368	80.005	19.994	103.251	19.992	3.802	0.500
1011.500	582.602	80.006	19.994	103.251	19.990	3.899	0.496
1012.000	582.859	80.007	19.994	103.247	19.995	3.553	0.495
1012.500	583.153	80.007	19.995	103.246	19.991	3.833	0.521
1013.000	583.372	80.007	19.995	103.244	19.993	3.700	0.532
1013.501	583.594	80.006	19.994	103.242	19.992	3.804	0.477
1014.000	583.868	80.008	19.995	103.238	19.997	3.468	0.469
1014.500	584.134	80.005	19.994	103.237	19.997	3.428	0.518
1015.000	584.401	80.006	19.994	103.231	19.995	3.601	0.537
1015.500	584.651	80.004	19.994	103.226	19.990	3.897	0.525
1016.000	584.903	80.007	19.995	103.219	19.992	3.779	0.509
1016.500	585.189	80.005	19.994	103.216	19.994	3.673	0.520
1017.000	585.413	80.006	19.995	103.214	19.990	3.879	0.524
1017.500	585.667	80.006	19.995	103.213	19.993	3.699	0.494
1018.000	585.911	80.005	19.994	103.214	19.990	3.915	0.488
1018.500	586.170	80.007	19.994	103.217	19.994	3.637	0.501
1019.000	586.428	80.005	19.995	103.217	19.995	3.595	0.510
1019.500	586.678	80.006	19.995	103.217	19.998	3.390	0.512
1020.000	586.887	80.006	19.994	103.217	19.995	3.606	0.483
1020.500	587.188	80.006	19.994	103.217	19.996	3.542	0.485
1021.000	587.420	80.007	19.995	103.215	19.991	3.844	0.522
1021.500	587.708	80.008	19.995	103.215	19.991	3.831	0.527
1022.000	587.946	80.006	19.995	103.216	19.988	4.064	0.523
1022.500	588.198	80.006	19.994	103.215	19.992	3.746	0.508
1023.000	588.431	80.008	19.995	103.216	19.988	4.021	0.487
1023.500	588.696	80.007	19.994	103.218	19.995	3.579	0.491
1024.000	588.943	80.007	19.995	103.218	19.992	3.751	0.505
1024.500	589.160	80.007	19.994	103.217	19.990	3.933	0.488
1025.000	589.409	80.007	19.994	103.219	19.991	3.855	0.465
1025.500	589.706	80.006	19.994	103.220	19.992	3.757	0.506
1026.000	589.948	80.008	19.994	103.223	19.990	3.901	0.543
1026.500	590.194	80.008	19.995	103.225	19.994	3.625	0.514
1027.001	590.441	80.006	19.992	103.226	19.991	3.832	0.490
1027.501	590.692	80.008	19.996	103.223	19.992	3.767	0.495
1028.000	590.980	80.006	19.995	103.223	19.991	3.865	0.518
1028.500	591.213	80.006	19.994	103.221	19.992	3.807	0.530
1029.000	591.488	80.006	19.995	103.224	19.991	3.869	0.515
1029.500	591.746	80.007	19.994	103.229	19.985	4.252	0.521
1030.000	591.991	80.009	19.995	103.232	19.987	4.092	0.518
1030.501	592.248	80.008	19.995	103.232	19.992	3.757	0.502
1031.001	592.457	80.007	19.994	103.228	19.992	3.786	0.484
1031.500	592.704	80.007	19.993	103.225	19.993	3.712	0.461
1032.000	592.964	80.009	19.994	103.219	19.989	3.990	0.481
1032.500	593.259	80.007	19.995	103.216	19.984	4.286	0.531
1033.001	593.538	80.008	19.994	103.217	19.989	3.987	0.565
1033.501	593.751	80.006	19.995	103.219	19.993	3.729	0.533
1034.000	594.067	80.007	19.995	103.219	19.987	4.087	0.510
1034.500	594.295	80.006	19.994	103.220	19.989	3.989	0.537
1035.000	594.543	80.007	19.995	103.220	19.990	3.887	0.510
1035.500	594.792	80.007	19.995	103.222	19.995	3.581	0.486
1036.000	595.047	80.008	19.994	103.228	19.993	3.721	0.500
1036.500	595.327	80.006	19.994	103.235	19.989	3.956	0.519
1037.000	595.552	80.006	19.994	103.241	19.988	4.056	0.520
1037.500	595.883	80.006	19.994	103.242	19.990	3.898	0.530
1038.000	596.094	80.007	19.995	103.243	19.988	4.018	0.549
1038.501	596.352	80.007	19.995	103.241	19.993	3.698	0.506
1039.001	596.603	80.007	19.994	103.241	19.989	4.009	0.489
1039.501	596.809	80.005	19.994	103.246	19.991	3.876	0.483
1040.001	597.129	80.006	19.993	103.259	19.990	3.918	0.492
1040.500	597.374	80.005	19.994	103.271	19.994	3.612	0.545
1041.001	597.595	80.006	19.993	103.281	19.996	3.524	0.515
1041.501	597.846	80.008	19.994	103.285	19.991	3.848	0.469
1042.001	598.123	80.006	19.994	103.280	19.996	3.504	0.500
1042.501	598.387	80.009	19.994	103.275	19.992	3.802	0.534
1043.001	598.610	80.007	19.993	103.267	19.989	3.972	0.514
1043.500	598.844	80.007	19.993	103.253	19.997	3.466	0.472
1044.000	599.119	80.006	19.993	103.242	19.990	3.892	0.482
1044.500	599.378	80.007	19.994	103.241	19.993	3.719	0.521
1045.001	599.627	80.008	19.994	103.241	19.993	3.725	0.521
1045.501	599.872	80.006	19.993	103.239	19.993	3.707	0.501
1046.000	600.147	80.007	19.994	103.240	19.993	3.734	0.507
1046.500	600.416	80.008	19.993	103.246	19.997	3.454	0.532
1047.000	600.700	80.007	19.993	103.247	19.994	3.637	0.549
1047.500	600.945	80.008	19.993	103.244	19.994	3.636	0.541
1048.000	601.157	80.007	19.994	103.246	19.993	3.741	0.493
1048.500	601.405	80.008	19.993	103.251	19.990	3.912	0.459
1049.000	601.673	80.008	19.994	103.250	19.993	3.732	0.488
1049.500	601.933	80.007	19.994	103.248	19.994	3.616	0.522
1050.000	602.198	80.008	19.993	103.249	19.993	3.737	0.526
1050.500	602.473	80.008	19.993	103.246	19.993	3.716	0.532
1051.000	602.690	80.008	19.995	103.243	19.989	3.996	0.516
1051.500	602.923	80.008	19.994	103.238	19.992	3.792	0.471
1052.000	603.175	80.008	19.994	103.232	19.993	3.743	0.468
1052.500	603.439	80.008	19.994	103.226	19.991	3.869	0.501
1053.000	603.670	80.009	19.993	103.222	19.988	4.049	0.505
1053.500	603.940	80.008	19.994	103.218	19.992	3.803	0.497
1054.001	604.223	80.009	19.994	103.220	19.991	3.832	0.527
1054.501	604.460	80.008	19.993	103.223	19.992	3.789	0.537
1055.000	604.708	80.008	19.993	103.228	19.994	3.626	0.503
1055.500	605.000	80.008	19.994	103.233	19.991	3.819	0.513
1056.000	605.252	80.009	19.993	103.236	19.994	3.646	0.542
1056.500	605.512	80.008	19.994	103.238	19.991	3.848	0.528
1057.001	605.733	80.007	19.993	103.240	19.989	4.001	0.496
1057.501	606.030	80.007	19.994	103.236	19.988	4.025	0.499
1058.000	606.249	80.009	19.994	103.236	19.989	3.979	0.517
1058.500	606.525	80.007	19.995	103.238	19.993	3.735	0.506
1059.001	606.775	80.007	19.994	103.234	19.993	3.717	0.511
1059.501	607.018	80.007	19.994	103.236	19.989	3.952	0.509
1060.000	607.298	80.008	19.994	103.239	19.991	3.870	0.508
1060.500	607.514	80.008	19.995	103.235	19.990	3.901	0.509
1061.000	607.754	80.006	19.995	103.231	19.990	3.901	0.476
1061.500	608.009	80.007	19.995	103.233	19.989	3.959	0.475
1062.000	608.292	80.005	19.995	103.233	19.991	3.823	0.516
1062.500	608.539	80.006	19.995	103.235	19.993	3.708	0.535
1063.000	608.820	80.006	19.995	103.241	19.992	3.779	0.529
1063.500	609.044	80.006	19.994	103.248	19.990	3.912	0.516
1064.000	609.283	80.007	19.995	103.251	19.990	3.930	0.484
1064.500	609.549	80.006	19.995	103.250	19.992	3.766	0.484
1065.000	609.813	80.006	19.995	103.246	19.988	4.014	0.518
1065.500	610.033	80.006	19.996	103.242	19.992	3.752	0.507
1066.001	610.331	80.005	19.995	103.235	19.990	3.907	0.501
1066.501	610.563	80.007	19.995	103.233	19.991	3.843	0.524
1067.001	610.813	80.007	19.995	103.233	19.992	3.752	0.506
1067.501	611.073	80.006	19.995	103.235	19.992	3.761	0.496
1068.000	611.322	80.005	19.996	103.234	19.993	3.739	0.509
1068.500	611.568	80.007	19.995	103.235	19.988	4.039	0.502
1069.000	611.804	80.005	19.996	103.231	19.991	3.834	0.489
1069.500	612.063	80.007	19.995	103.231	19.993	3.724	0.489
1070.001	612.332	80.007	19.995	103.231	19.989	3.996	0.511
1070.501	612.577	80.007	19.995	103.231	19.992	3.761	0.521
1071.000	612.820	80.005	19.995	103.231	19.985	4.228	0.501
1071.501	613.066	80.006	19.994	103.234	19.988	4.050	0.489
1072.001	613.323	80.006	19.995	103.233	19.995	3.559	0.496
1072.501	613.584	80.006	19.994	103.231	19.987	4.119	0.510
1073.000	613.813	80.005	19.994	103.233	19.990	3.908	0.504
1073.500	614.081	80.006	19.994	103.236	19.994	3.668	0.493
1074.000	614.346	80.004	19.995	103.233	19.993	3.701	0.515
1074.500	614.602	80.006	19.995	103.229	19.992	3.750	0.527
1075.001	614.843	80.008	19.995	103.231	19.992	3.783	0.509
1075.501	615.070	80.007	19.995	103.229	19.991	3.854	0.482
1076.001	615.343	80.006	19.995	103.230	19.993	3.689	0.484
1076.500	615.590	80.006	19.995	103.231	19.990	3.927	0.510
1077.000	615.855	80.005	19.994	103.236	19.992	3.752	0.516
1077.500	616.139	80.005	19.994	103.239	19.992	3.780	0.531
1078.000	616.367	80.006	19.994	103.237	19.989	3.965	0.530
1078.500	616.632	80.008	19.995	103.234	19.993	3.734	0.503
1079.000	616.856	80.008	19.995	103.237	19.987	4.088	0.492
1079.500	617.114	80.008	19.995	103.232	19.989	3.966	0.486
1080.000	617.369	80.006	19.995	103.226	19.989	3.961	0.497
1080.500	617.603	80.005	19.994	103.228	19.988	4.054	0.501
1081.000	617.873	80.006	19.995	103.231	19.987	4.094	0.496
1081.500	618.134	80.006	19.994	103.228	19.986	4.167	0.517
1082.000	618.372	80.006	19.995	103.227	19.987	4.098	0.515
1082.501	618.599	80.006	19.995	103.228	19.987	4.091	0.482
1083.001	618.860	80.005	19.996	103.224	19.987	4.133	0.477
1083.500	619.099	80.006	19.994	103.220	19.988	4.020	0.494
1084.000	619.347	80.007	19.995	103.223	19.992	3.765	0.494
1084.500	619.626	80.006	19.996	103.230	19.990	3.900	0.507
1085.000	619.776	80.006	19.995	103.235	19.985	4.277	0.478
1085.500	620.097	80.006	19.995	103.242	19.991	3.823	0.450
1086.000	620.343	80.005	19.996	103.249	19.987	4.093	0.518
1086.500	620.629	80.005	19.995	103.252	19.990	3.940	0.549
1087.000	620.871	80.005	19.994	103.252	19.991	3.869	0.530
1087.500	621.122	80.007	19.996	103.251	19.990	3.916	0.511
1088.001	621.370	80.006	19.995	103.248	19.990	3.920	0.496
1088.501	621.632	80.006	19.996	103.243	19.989	3.993	0.505
1089.000	621.800	80.004	19.995	103.236	19.986	4.149	0.470
1089.501	622.092	80.005	19.995	103.229	19.990	3.900	0.445
1090.001	622.346	80.005	19.996	103.223	19.990	3.906	0.503
1090.500	622.596	80.004	19.995	103.220	19.992	3.805	0.525
1091.000	622.844	80.006	19.995	103.220	19.986	4.195	0.501
1091.500	623.062	80.005	19.995	103.225	19.989	3.960	0.482
1092.000	623.309	80.004	19.996	103.232	19.986	4.204	0.466
1092.500	623.587	80.005	19.996	103.239	19.987	4.104	0.495
1093.000	623.813	80.005	19.995	103.245	19.985	4.242	0.514
1093.500	624.099	80.004	19.995	103.251	19.986	4.197	0.508
1094.000	624.280	80.005	19.996	103.253	19.986	4.204	0.490
1094.500	624.563	80.004	19.996	103.254	19.988	4.026	0.466
1095.000	624.795	80.005	19.996	103.254	19.986	4.203	0.489
1095.500	625.032	80.004	19.996	103.253	19.986	4.197	0.492
1096.001	625.290	80.003	19.995	103.251	19.985	4.268	0.482
1096.502	625.535	80.005	19.996	103.250	19.985	4.214	0.499
1097.001	625.786	80.004	19.997	103.250	19.989	4.005	0.500
1097.500	625.999	80.004	19.996	103.251	19.986	4.157	0.480
1098.000	626.270	80.004	19.996	103.251	19.986	4.173	0.474
1098.500	626.539	80.003	19.996	103.252	19.987	4.098	0.512
1099.000	626.795	80.004	19.995	103.253	19.986	4.182	0.532
1099.500	627.025	80.004	19.995	103.252	19.985	4.216	0.505
1100.001	627.306	80.005	19.995	103.253	19.987	4.078	0.499
1100.501	627.552	80.004	19.995	103.254	19.988	4.020	0.519
1101.000	627.814	80.006	19.996	103.254	19.986	4.187	0.518
1101.500	628.054	80.005	19.995	103.254	19.986	4.203	0.505
1102.000	628.293	80.005	19.994	103.254	19.985	4.219	0.490
1102.500	628.558	80.007	19.996	103.253	19.985	4.239	0.491
1103.000	628.774	80.004	19.995	103.251	19.985	4.234	0.492
1103.500	629.054	80.006	19.995	103.248	19.985	4.236	0.488
1104.000	629.296	80.006	19.994	103.248	19.989	3.947	0.509
1104.500	629.512	80.006	19.994	103.249	19.989	3.996	0.490
1105.000	629.781	80.007	19.994	103.250	19.986	4.178	0.471
1105.500	630.049	80.007	19.994	103.254	19.987	4.127	0.511
1106.000	630.270	80.007	19.994	103.263	19.986	4.185	0.513
1106.500	630.503	80.007	19.994	103.266	19.986	4.167	0.471
1107.000	630.728	80.006	19.993	103.273	19.986	4.203	0.456
1107.500	630.984	80.008	19.993	103.279	19.986	4.205	0.470
1108.000	631.274	80.008	19.995	103.277	19.993	3.734	0.514
1108.500	631.540	80.008	19.994	103.271	19.986	4.198	0.551
1109.000	631.777	80.008	19.995	103.264	19.987	4.096	0.530
1109.500	632.009	80.008	19.995	103.255	19.983	4.378	0.486
1110.000	632.234	80.007	19.994	103.246	19.984	4.295	0.463
1110.500	632.504	80.008	19.994	103.246	19.986	4.153	0.476
1111.000	632.747	80.007	19.993	103.245	19.984	4.288	0.504
1111.500	632.994	80.009	19.995	103.247	19.986	4.160	0.501
1112.000	633.275	80.008	19.993	103.241	19.985	4.231	0.509
1112.500	633.498	80.008	19.995	103.236	19.987	4.102	0.516
1113.000	633.746	80.007	19.994	103.229	19.987	4.105	0.487
1113.500	633.989	80.006	19.994	103.224	19.983	4.375	0.481
1114.000	634.273	80.008	19.994	103.225	19.984	4.309	0.509
1114.500	634.496	80.008	19.993	103.230	19.983	4.390	0.517
1115.000	634.750	80.009	19.994	103.236	19.986	4.193	0.492
1115.500	634.981	80.007	19.994	103.242	19.982	4.423	0.481
1116.000	635.249	80.008	19.994	103.242	19.985	4.226	0.491
1116.500	635.506	80.007	19.993	103.240	19.982	4.455	0.512
1117.000	635.722	80.007	19.994	103.238	19.982	4.439	0.499
1117.500	636.004	80.007	19.994	103.240	19.987	4.137	0.486
1118.000	636.248	80.006	19.995	103.238	19.987	4.097	0.513
1118.500	636.494	80.007	19.995	103.236	19.985	4.237	0.508
1119.000	636.739	80.005	19.994	103.233	19.984	4.310	0.490
1119.500	637.001	80.007	19.994	103.232	19.986	4.206	0.499
1120.000	637.286	80.006	19.994	103.233	19.989	3.993	0.527
1120.500	637.487	80.007	19.994	103.236	19.987	4.137	0.516
1121.000	637.721	80.006	19.995	103.244	19.984	4.281	0.460
1121.500	637.953	80.007	19.994	103.252	19.984	4.297	0.450
1122.001	638.192	80.007	19.995	103.256	19.986	4.206	0.469
1122.501	638.478	80.007	19.994	103.255	19.988	4.033	0.499
1123.001	638.731	80.007	19.995	103.253	19.985	4.244	0.532
1123.501	638.950	80.007	19.995	103.249	19.988	4.024	0.505
1124.000	639.184	80.006	19.994	103.248	19.985	4.239	0.462
1124.501	639.468	80.008	19.995	103.248	19.985	4.273	0.485
1125.001	639.742	80.007	19.995	103.249	19.988	4.062	0.538
1125.500	639.988	80.007	19.995	103.253	19.984	4.299	0.539
1126.001	640.217	80.007	19.994	103.256	19.984	4.294	0.498
1126.501	640.468	80.008	19.994	103.257	19.985	4.214	0.477
1127.000	640.694	80.007	19.995	103.256	19.982	4.434	0.478
1127.500	640.956	80.008	19.994	103.255	19.986	4.198	0.482
1128.000	641.195	80.006	19.995	103.253	19.984	4.323	0.494
1128.500	641.419	80.008	19.994	103.253	19.986	4.170	0.482
1129.000	641.695	80.007	19.994	103.253	19.986	4.174	0.482
1129.500	641.933	80.008	19.994	103.254	19.988	4.024	0.507
1130.000	642.171	80.008	19.995	103.260	19.982	4.439	0.495
1130.500	642.445	80.009	19.994	103.265	19.986	4.179	0.494
1131.000	642.665	80.008	19.994	103.266	19.985	4.236	0.503
1131.500	642.917	80.008	19.993	103.269	19.983	4.349	0.483
1132.000	643.191	80.008	19.994	103.269	19.987	4.082	0.500
1132.501	643.409	80.009	19.994	103.264	19.985	4.264	0.509
1133.001	643.651	80.008	19.994	103.258	19.985	4.258	0.476
1133.501	643.923	80.007	19.994	103.256	19.985	4.227	0.487
1134.001	644.179	80.009	19.994	103.252	19.982	4.475	0.521
1134.500	644.393	80.010	19.994	103.252	19.985	4.247	0.499
1135.000	644.661	80.009	19.994	103.255	19.984	4.327	0.475
1135.500	644.887	80.010	19.994	103.259	19.988	4.074	0.488
1136.000	645.163	80.009	19.994	103.262	19.985	4.230	0.498
1136.500	645.422	80.010	19.994	103.262	19.984	4.317	0.519
1137.000	645.640	80.009	19.994	103.265	19.986	4.188	0.506
1137.500	645.904	80.009	19.994	103.268	19.983	4.359	0.479
1138.000	646.161	80.008	19.994	103.272	19.987	4.130	0.501
1138.501	646.424	80.010	19.994	103.278	19.990	3.912	0.521
1139.001	646.655	80.010	19.995	103.282	19.987	4.141	0.507
1139.501	646.892	80.009	19.993	103.278	19.986	4.195	0.481
1140.000	647.151	80.009	19.994	103.273	19.986	4.148	0.482
1140.500	647.380	80.008	19.994	103.268	19.984	4.295	0.493
1141.000	647.627	80.008	19.995	103.268	19.983	4.354	0.482
1141.500	647.892	80.009	19.994	103.274	19.988	4.075	0.494
1142.000	648.152	80.007	19.994	103.286	19.989	4.006	0.518
1142.500	648.395	80.009	19.994	103.293	19.984	4.299	0.514
1143.000	648.652	80.007	19.994	103.297	19.989	3.977	0.502
1143.500	648.897	80.008	19.994	103.296	19.986	4.193	0.501
1144.000	649.127	80.008	19.994	103.295	19.984	4.295	0.488
1144.500	649.383	80.007	19.995	103.290	19.986	4.188	0.480
1145.001	649.687	80.006	19.994	103.289	19.988	4.068	0.523
1145.501	649.866	80.006	19.995	103.283	19.983	4.354	0.522
1146.000	650.180	80.007	19.994	103.276	19.984	4.314	0.488
1146.500	650.430	80.007	19.995	103.270	19.991	3.817	0.529
1147.000	650.682	80.006	19.994	103.265	19.987	4.097	0.533
1147.500	650.919	80.006	19.995	103.265	19.988	4.019	0.495
1148.001	651.192	80.008	19.995	103.271	19.989	4.003	0.500
1148.501	651.426	80.007	19.995	103.271	19.988	4.052	0.509
1149.001	651.704	80.007	19.995	103.270	19.983	4.348	0.510
1149.500	651.950	80.008	19.995	103.268	19.986	4.146	0.518
1150.000	652.215	80.007	19.996	103.263	19.986	4.183	0.517
1150.500	652.437	80.007	19.994	103.260	19.984	4.297	0.499
1151.000	652.712	80.006	19.995	103.267	19.982	4.441	0.492
1151.500	652.939	80.007	19.995	103.266	19.982	4.429	0.500
1152.000	653.246	80.006	19.994	103.265	19.984	4.313	0.518
1152.500	653.501	80.007	19.996	103.263	19.983	4.387	0.548
1153.000	653.724	80.006	19.995	103.260	19.979	4.613	0.520
1153.500	653.982	80.007	19.995	103.258	19.983	4.371	0.480
1154.000	654.262	80.006	19.995	103.257	19.981	4.537	0.509
1154.500	654.531	80.007	19.995	103.257	19.982	4.444	0.543
1155.000	654.794	80.006	19.994	103.259	19.983	4.400	0.540
1155.500	655.024	80.006	19.995	103.258	19.980	4.573	0.512
1156.000	655.322	80.006	19.995	103.257	19.980	4.567	0.510
1156.500	655.578	80.005	19.995	103.262	19.980	4.583	0.541
1157.000	655.819	80.007	19.995	103.265	19.980	4.567	0.526
1157.500	656.078	80.007	19.995	103.266	19.986	4.196	0.499
1158.000	656.345	80.006	19.995	103.265	19.982	4.474	0.513
1158.500	656.569	80.006	19.996	103.265	19.979	4.613	0.508
1159.000	656.851	80.004	19.995	103.268	19.981	4.516	0.499
1159.500	657.085	80.005	19.997	103.266	19.983	4.376	0.511
1160.000	657.398	80.005	19.995	103.266	19.986	4.202	0.531
1160.500	657.622	80.007	19.995	103.270	19.983	4.395	0.542
1161.000	657.911	80.006	19.996	103.273	19.983	4.373	0.525
1161.500	658.141	80.006	19.995	103.268	19.981	4.518	0.516
1162.000	658.430	80.006	19.993	103.271	19.981	4.516	0.519
1162.500	658.691	80.005	19.996	103.277	19.983	4.360	0.535
1163.000	658.942	80.006	19.995	103.281	19.981	4.480	0.531
1163.500	659.222	80.005	19.995	103.283	19.981	4.544	0.522
1164.000	659.442	80.006	19.996	103.289	19.979	4.632	0.516
1164.500	659.718	80.005	19.995	103.293	19.982	4.459	0.498
1165.000	659.965	80.005	19.996	103.293	19.978	4.745	0.509
1165.500	660.223	80.007	19.995	103.293	19.981	4.483	0.514
1166.000	660.491	80.005	19.994	103.290	19.978	4.712	0.516
1166.500	660.750	80.006	19.995	103.284	19.981	4.546	0.526
1167.000	660.970	80.006	19.995	103.279	19.979	4.626	0.503
1167.500	661.222	80.005	19.995	103.275	19.975	4.892	0.475
1168.000	661.521	80.006	19.995	103.271	19.982	4.475	0.511
1168.500	661.813	80.006	19.994	103.271	19.982	4.464	0.571
1169.000	662.035	80.007	19.995	103.273	19.977	4.772	0.553
1169.500	662.306	80.006	19.995	103.275	19.979	4.632	0.503
1170.000	662.553	80.006	19.995	103.278	19.979	4.617	0.505
1170.501	662.833	80.005	19.995	103.283	19.977	4.754	0.522
1171.001	663.069	80.006	19.995	103.286	19.978	4.687	0.521
1171.501	663.327	80.006	19.995	103.286	19.976	4.874	0.505
1172.001	663.609	80.006	19.994	103.282	19.980	4.592	0.517
1172.500	663.883	80.006	19.995	103.276	19.978	4.703	0.548
1173.000	664.148	80.006	19.995	103.274	19.979	4.641	0.548
1173.500	664.417	80.005	19.995	103.274	19.979	4.679	0.537
1174.000	664.681	80.005	19.995	103.278	19.983	4.388	0.533
1174.500	664.881	80.006	19.995	103.288	19.978	4.737	0.498
1175.001	665.180	80.006	19.994	103.300	19.974	4.968	0.481
1175.501	665.407	80.005	19.994	103.302	19.977	4.785	0.513
1176.000	665.669	80.006	19.995	103.302	19.977	4.761	0.508
1176.500	665.950	80.004	19.995	103.302	19.974	4.958	0.516
1177.001	666.209	80.005	19.995	103.298	19.976	4.879	0.541
1177.501	666.503	80.004	19.996	103.292	19.974	4.989	0.546
1178.000	666.730	80.004	19.995	103.292	19.976	4.814	0.537
1178.500	666.988	80.004	19.996	103.293	19.977	4.789	0.503
1179.000	667.200	80.004	19.995	103.294	19.976	4.854	0.477
1179.501	667.493	80.004	19.995	103.296	19.974	4.983	0.487
1180.001	667.727	80.005	19.996	103.299	19.975	4.901	0.516
1180.501	668.025	80.005	19.995	103.303	19.978	4.686	0.530
1181.001	668.273	80.004	19.996	103.302	19.977	4.776	0.539
1181.501	668.537	80.004	19.995	103.302	19.977	4.807	0.529
1182.000	668.768	80.004	19.995	103.302	19.979	4.666	0.504
1182.500	669.036	80.005	19.995	103.306	19.977	4.792	0.497
1183.000	669.287	80.004	19.995	103.306	19.976	4.846	0.508
1183.500	669.587	80.004	19.996	103.306	19.976	4.841	0.535
1184.000	669.838	80.004	19.995	103.306	19.979	4.655	0.551
1184.500	670.091	80.006	19.995	103.304	19.973	5.037	0.528
1185.000	670.376	80.005	19.995	103.298	19.976	4.850	0.521
1185.500	670.556	80.005	19.995	103.295	19.977	4.748	0.502
1186.001	670.865	80.006	19.995	103.295	19.977	4.784	0.477
1186.501	671.092	80.005	19.995	103.295	19.976	4.821	0.513
1187.000	671.382	80.006	19.996	103.296	19.974	5.003	0.527
1187.500	671.613	80.007	19.996	103.296	19.975	4.941	0.519
1188.000	671.864	80.006	19.995	103.296	19.972	5.100	0.502
1188.500	672.097	80.006	19.995	103.298	19.977	4.807	0.483
1189.000	672.397	80.006	19.996	103.299	19.974	4.962	0.508
1189.500	672.630	80.007	19.995	103.300	19.974	4.966	0.533
1190.000	672.916	80.006	19.996	103.301	19.973	5.038	0.526
1190.500	673.130	80.006	19.996	103.302	19.976	4.833	0.510
1191.000	673.370	80.006	19.996	103.301	19.979	4.667	0.477
1191.500	673.635	80.007	19.996	103.298	19.978	4.731	0.479
1192.000	673.927	80.007	19.996	103.297	19.975	4.946	0.531
1192.500	674.175	80.007	19.996	103.296	19.975	4.895	0.548
1193.000	674.433	80.007	19.996	103.294	19.976	4.826	0.523
1193.500	674.676	80.007	19.995	103.292	19.975	4.904	0.504
1194.000	674.955	80.007	19.995	103.292	19.972	5.132	0.512
1194.500	675.182	80.006	19.996	103.291	19.974	5.010	0.514
1195.000	675.444	80.006	19.996	103.291	19.972	5.135	0.497
1195.500	675.720	80.006	19.994	103.291	19.971	5.177	0.514
1196.001	675.960	80.008	19.995	103.290	19.971	5.148	0.528
1196.501	676.204	80.007	19.995	103.290	19.974	4.995	0.500
1197.000	676.464	80.006	19.995	103.290	19.970	5.281	0.493
1197.500	676.680	80.006	19.995	103.291	19.972	5.108	0.489
1198.000	676.955	80.006	19.995	103.291	19.970	5.243	0.483
1198.500	677.211	80.008	19.995	103.298	19.971	5.185	0.512
1199.000	677.481	80.007	19.994	103.299	19.973	5.018	0.529
1199.500	677.731	80.006	19.994	103.302	19.971	5.165	0.523
1200.000	677.975	80.006	19.995	103.305	19.973	5.074	0.507
1200.500	678.254	80.007	19.995	103.308	19.974	4.950	0.509
1201.000	678.500	80.006	19.995	103.304	19.972	5.101	0.524
1201.500	678.737	80.006	19.995	103.308	19.971	5.196	0.504
1202.000	679.001	80.006	19.995	103.310	19.972	5.120	0.492
1202.500	679.242	80.006	19.995	103.311	19.972	5.098	0.503
1203.000	679.483	80.007	19.994	103.312	19.972	5.135	0.493
1203.500	679.726	80.006	19.994	103.318	19.969	5.301	0.483
1204.000	679.982	80.006	19.995	103.320	19.971	5.161	0.491
1204.500	680.272	80.006	19.994	103.322	19.970	5.243	0.522
1205.000	680.507	80.005	19.994	103.321	19.970	5.232	0.536
1205.501	680.745	80.006	19.995	103.321	19.965	5.586	0.499
1206.001	681.000	80.006	19.995	103.321	19.973	5.033	0.483
1206.500	681.271	80.007	19.994	103.322	19.969	5.339	0.509
1207.000	681.524	80.005	19.993	103.321	19.970	5.269	0.525
1207.500	681.752	80.007	19.996	103.323	19.969	5.331	0.503
1208.001	682.019	80.005	19.995	103.326	19.969	5.338	0.488
1208.501	682.286	80.007	19.995	103.326	19.971	5.163	0.514
1209.001	682.519	80.006	19.995	103.326	19.968	5.353	0.517
1209.501	682.747	80.007	19.995	103.328	19.972	5.147	0.480
1210.000	683.006	80.007	19.994	103.333	19.968	5.394	0.474
1210.500	683.263	80.007	19.994	103.333	19.968	5.349	0.502
1211.000	683.537	80.007	19.995	103.332	19.974	5.012	0.523
1211.501	683.759	80.007	19.995	103.333	19.969	5.289	0.513
1212.001	683.999	80.006	19.995	103.333	19.971	5.180	0.479
1212.500	684.274	80.007	19.994	103.332	19.971	5.165	0.489
1213.000	684.558	80.008	19.995	103.332	19.969	5.300	0.537
1213.500	684.807	80.008	19.994	103.337	19.970	5.261	0.546
1214.000	685.013	80.007	19.995	103.342	19.972	5.112	0.494
1214.500	685.281	80.009	19.995	103.348	19.969	5.307	0.464
1215.000	685.542	80.008	19.995	103.354	19.972	5.114	0.501
1215.500	685.778	80.008	19.994	103.361	19.970	5.223	0.513
1216.000	686.031	80.009	19.996	103.363	19.969	5.338	0.493
1216.500	686.318	80.009	19.994	103.360	19.971	5.198	0.514
1217.000	686.546	80.009	19.995	103.354	19.971	5.189	0.527
1217.500	686.780	80.009	19.994	103.348	19.969	5.322	0.489
1218.000	687.060	80.009	19.994	103.341	19.968	5.391	0.488
1218.500	687.321	80.009	19.994	103.335	19.968	5.415	0.527
1219.000	687.547	80.008	19.995	103.332	19.970	5.218	0.514
1219.500	687.828	80.009	19.995	103.331	19.968	5.357	0.497
1220.001	688.076	80.008	19.994	103.331	19.970	5.260	0.518
1220.501	688.309	80.008	19.993	103.328	19.966	5.486	0.505
1221.000	688.567	80.008	19.994	103.328	19.971	5.204	0.486
1221.500	688.825	80.007	19.995	103.329	19.970	5.246	0.503
1222.000	689.109	80.008	19.994	103.328	19.967	5.419	0.529
1222.500	689.311	80.007	19.994	103.329	19.968	5.359	0.514
1223.000	689.610	80.008	19.995	103.332	19.970	5.270	0.494
1223.500	689.792	80.007	19.993	103.331	19.968	5.356	0.491
1224.000	690.094	80.006	19.994	103.328	19.966	5.533	0.482
1224.501	690.333	80.007	19.994	103.328	19.967	5.449	0.513
1225.001	690.594	80.006	19.994	103.328	19.966	5.515	0.520
1225.500	690.854	80.006	19.994	103.326	19.968	5.384	0.510
1226.000	691.100	80.006	19.995	103.324	19.965	5.553	0.513
1226.500	691.386	80.005	19.995	103.327	19.965	5.571	0.519
1227.000	691.606	80.006	19.995	103.328	19.963	5.729	0.519
1227.500	691.869	80.005	19.994	103.329	19.969	5.310	0.495
1228.000	692.132	80.005	19.994	103.330	19.965	5.591	0.505
1228.500	692.367	80.007	19.994	103.333	19.966	5.506	0.512
1229.000	692.665	80.005	19.994	103.335	19.966	5.539	0.515
1229.500	692.875	80.007	19.994	103.335	19.963	5.698	0.521
1230.000	693.196	80.006	19.994	103.336	19.963	5.741	0.519
1230.500	693.398	80.006	19.995	103.337	19.965	5.574	0.527
1231.000	693.653	80.005	19.994	103.337	19.966	5.490	0.490
1231.500	693.922	80.005	19.994	103.337	19.964	5.643	0.490
1232.000	694.165	80.006	19.994	103.338	19.965	5.566	0.518
1232.500	694.429	80.005	19.994	103.338	19.965	5.582	0.510
1233.000	694.675	80.005	19.995	103.337	19.963	5.748	0.509
1233.500	694.933	80.006	19.994	103.339	19.961	5.863	0.507
1234.000	695.175	80.006	19.995	103.345	19.960	5.887	0.502
1234.501	695.488	80.006	19.994	103.351	19.960	5.905	0.527
1235.001	695.757	80.005	19.994	103.357	19.961	5.865	0.568
1235.500	695.994	80.005	19.993	103.362	19.961	5.836	0.544
1236.001	696.241	80.005	19.994	103.367	19.960	5.887	0.495
1236.501	696.458	80.006	19.994	103.364	19.963	5.743	0.473
1237.000	696.764	80.005	19.994	103.358	19.961	5.854	0.494
1237.500	697.011	80.005	19.995	103.356	19.963	5.687	0.538
1238.000	697.266	80.005	19.995	103.356	19.960	5.908	0.527
1238.500	697.515	80.006	19.994	103.357	19.960	5.921	0.503
1239.000	697.765	80.006	19.994	103.362	19.958	6.034	0.501
1239.500	698.056	80.005	19.994	103.369	19.963	5.747	0.520
1240.000	698.305	80.006	19.994	103.374	19.960	5.935	0.541
1240.501	698.563	80.006	19.995	103.378	19.962	5.766	0.524
1241.001	698.800	80.006	19.994	103.378	19.963	5.733	0.501
1241.500	699.015	80.004	19.995	103.377	19.958	6.034	0.474
1242.000	699.285	80.005	19.994	103.376	19.960	5.927	0.468
1242.500	699.512	80.005	19.995	103.373	19.959	6.002	0.491
1243.000	699.789	80.007	19.995	103.365	19.961	5.868	0.501
1243.501	700.077	80.006	19.995	103.363	19.961	5.840	0.535
1244.001	700.295	80.006	19.995	103.365	19.960	5.915	0.535
1244.500	700.574	80.006	19.994	103.366	19.959	5.996	0.501
1245.000	700.825	80.005	19.995	103.368	19.961	5.882	0.513
1245.500	701.069	80.006	19.996	103.375	19.958	6.060	0.513
1246.001	701.356	80.005	19.995	103.378	19.960	5.946	0.513
1246.501	701.569	80.005	19.995	103.378	19.960	5.939	0.516
1247.000	701.827	80.005	19.995	103.378	19.957	6.108	0.486
1247.500	702.118	80.005	19.995	103.377	19.959	5.959	0.510
1248.000	702.357	80.005	19.994	103.376	19.961	5.883	0.539
1248.500	702.588	80.004	19.995	103.381	19.959	6.009	0.500
1249.000	702.873	80.005	19.995	103.384	19.963	5.741	0.493
1249.500	703.118	80.004	19.995	103.388	19.961	5.834	0.523
1250.000	703.381	80.006	19.995	103.390	19.961	5.883	0.519
1250.500	703.639	80.005	19.994	103.389	19.959	6.014	0.514
1251.000	703.858	80.004	19.995	103.385	19.959	5.994	0.499
1251.500	704.143	80.005	19.994	103.387	19.961	5.841	0.490
1252.000	704.410	80.004	19.995	103.390	19.958	6.057	0.528
1252.500	704.652	80.006	19.996	103.395	19.956	6.172	0.531
1253.000	704.915	80.004	19.995	103.401	19.960	5.925	0.508
1253.500	705.158	80.005	19.995	103.403	19.958	6.029	0.506
1254.000	705.419	80.004	19.995	103.397	19.957	6.111	0.505
1254.500	705.666	80.004	19.995	103.389	19.958	6.038	0.506
1255.000	705.927	80.005	19.995	103.383	19.956	6.170	0.508
1255.500	706.184	80.006	19.996	103.377	19.957	6.100	0.513
1256.000	706.407	80.005	19.995	103.374	19.957	6.129	0.499
1256.500	706.699	80.004	19.996	103.377	19.960	5.912	0.497
1257.000	706.949	80.005	19.996	103.381	19.955	6.243	0.528
1257.500	707.199	80.004	19.995	103.385	19.952	6.436	0.521
1258.000	707.449	80.004	19.995	103.391	19.956	6.161	0.500
1258.500	707.716	80.003	19.995	103.398	19.959	5.975	0.508
1259.000	707.991	80.004	19.996	103.399	19.955	6.223	0.529
1259.500	708.228	80.005	19.995	103.400	19.955	6.227	0.527
1260.000	708.482	80.006	19.996	103.401	19.958	6.028	0.502
1260.500	708.724	80.005	19.994	103.395	19.956	6.200	0.493
1261.000	708.971	80.005	19.995	103.393	19.956	6.197	0.493
1261.500	709.242	80.005	19.996	103.395	19.955	6.275	0.504
1262.000	709.524	80.005	19.996	103.398	19.959	5.978	0.535
1262.500	709.764	80.006	19.996	103.403	19.957	6.093	0.537
1263.000	710.024	80.006	19.995	103.416	19.958	6.080	0.511
1263.500	710.281	80.005	19.995	103.424	19.956	6.206	0.508
1264.000	710.555	80.007	19.995	103.430	19.957	6.133	0.524
1264.500	710.801	80.006	19.996	103.436	19.958	6.051	0.525
1265.000	711.044	80.006	19.995	103.441	19.959	6.013	0.505
1265.501	711.310	80.005	19.995	103.440	19.960	5.929	0.499
1266.001	711.564	80.005	19.995	103.440	19.957	6.140	0.515
1266.500	711.824	80.006	19.996	103.435	19.956	6.218	0.517
1267.000	712.065	80.005	19.995	103.428	19.955	6.277	0.508
1267.501	712.317	80.006	19.996	103.426	19.957	6.142	0.497
1268.001	712.597	80.006	19.996	103.422	19.956	6.177	0.512
1268.501	712.849	80.006	19.996	103.417	19.954	6.316	0.532
1269.001	713.077	80.007	19.996	103.417	19.958	6.037	0.506
1269.500	713.368	80.007	19.995	103.419	19.958	6.048	0.500
1270.000	713.608	80.006	19.995	103.417	19.960	5.936	0.525
1270.501	713.850	80.007	19.996	103.419	19.956	6.163	0.507
1271.001	714.101	80.006	19.995	103.426	19.953	6.383	0.488
1271.500	714.336	80.006	19.995	103.431	19.956	6.175	0.489
1272.000	714.627	80.008	19.995	103.432	19.952	6.445	0.506
1272.500	714.854	80.006	19.995	103.435	19.955	6.281	0.522
1273.000	715.124	80.007	19.994	103.436	19.953	6.398	0.508
1273.500	715.362	80.006	19.995	103.436	19.955	6.230	0.503
1274.000	715.628	80.006	19.995	103.438	19.952	6.474	0.506
1274.500	715.932	80.007	19.995	103.439	19.954	6.303	0.537
1275.000	716.160	80.007	19.995	103.436	19.954	6.301	0.551
1275.500	716.400	80.007	19.995	103.437	19.952	6.433	0.500
1276.000	716.683	80.007	19.995	103.436	19.950	6.595	0.495
1276.500	716.939	80.006	19.996	103.433	19.949	6.688	0.531
1277.000	717.176	80.007	19.995	103.430	19.951	6.496	0.516
1277.500	717.426	80.007	19.996	103.428	19.953	6.418	0.490
1278.000	717.688	80.007	19.996	103.430	19.951	6.513	0.499
1278.500	717.932	80.007	19.996	103.430	19.952	6.446	0.509
1279.001	718.212	80.007	19.995	103.433	19.949	6.681	0.515
1279.501	718.443	80.006	19.995	103.440	19.949	6.651	0.518
1280.000	718.671	80.006	19.996	103.445	19.951	6.541	0.485
1280.500	718.950	80.005	19.995	103.444	19.949	6.636	0.483
1281.000	719.161	80.007	19.996	103.443	19.949	6.691	0.498
1281.500	719.405	80.007	19.996	103.443	19.949	6.644	0.472
1282.000	719.715	80.006	19.995	103.444	19.950	6.593	0.505
1282.500	719.910	80.006	19.997	103.442	19.949	6.691	0.530
1283.001	720.213	80.005	19.996	103.440	19.952	6.440	0.502
1283.501	720.441	80.006	19.996	103.442	19.947	6.788	0.515
1284.000	720.650	80.005	19.996	103.442	19.947	6.779	0.484
1284.500	720.924	80.008	19.996	103.442	19.951	6.533	0.460
1285.000	721.192	80.007	19.996	103.444	19.949	6.689	0.512
1285.500	721.457	80.005	19.996	103.447	19.947	6.798	0.537
1286.000	721.669	80.007	19.996	103.446	19.948	6.716	0.505
1286.500	721.943	80.006	19.996	103.446	19.949	6.665	0.482
1287.001	722.159	80.007	19.996	103.446	19.949	6.678	0.488
1287.501	722.416	80.006	19.996	103.446	19.948	6.760	0.481
1288.000	722.666	80.006	19.994	103.446	19.946	6.833	0.490
1288.500	722.924	80.006	19.996	103.448	19.945	6.917	0.508
1289.000	723.171	80.006	19.996	103.451	19.947	6.822	0.506
1289.500	723.401	80.005	19.996	103.453	19.944	6.971	0.491
1290.000	723.664	80.006	19.996	103.458	19.946	6.851	0.485
1290.500	723.884	80.007	19.996	103.463	19.946	6.871	0.488
1291.000	724.157	80.006	19.995	103.465	19.946	6.855	0.488
1291.501	724.417	80.007	19.995	103.469	19.944	6.977	0.513
1292.001	724.641	80.007	19.994	103.472	19.946	6.889	0.508
1292.500	724.886	80.006	19.995	103.469	19.947	6.795	0.476
1293.000	725.153	80.008	19.994	103.468	19.946	6.891	0.491
1293.501	725.387	80.006	19.994	103.469	19.943	7.032	0.507
1294.001	725.640	80.006	19.995	103.470	19.943	7.089	0.494
1294.500	725.903	80.007	19.994	103.473	19.943	7.064	0.501
1295.001	726.161	80.008	19.994	103.479	19.944	7.009	0.518
1295.501	726.398	80.009	19.995	103.484	19.947	6.819	0.508
1296.000	726.619	80.006	19.994	103.487	19.942	7.104	0.477
1296.500	726.906	80.008	19.994	103.487	19.943	7.052	0.483
1297.000	727.153	80.008	19.994	103.490	19.943	7.056	0.521
1297.500	727.415	80.008	19.994	103.491	19.944	6.988	0.522
1298.000	727.635	80.008	19.995	103.491	19.942	7.099	0.495
1298.500	727.910	80.009	19.994	103.491	19.943	7.061	0.488
1299.000	728.149	80.009	19.993	103.491	19.942	7.160	0.505
1299.500	728.408	80.008	19.994	103.490	19.942	7.107	0.507
1300.000	728.683	80.009	19.994	103.489	19.942	7.136	0.516
1300.500	728.909	80.009	19.994	103.488	19.943	7.031	0.517
1301.000	729.175	80.009	19.993	103.487	19.942	7.117	0.496
1301.500	729.406	80.009	19.994	103.487	19.945	6.937	0.495
1302.001	729.672	80.008	19.993	103.487	19.944	7.012	0.497
1302.501	729.956	80.008	19.994	103.486	19.942	7.105	0.523
1303.001	730.213	80.008	19.994	103.487	19.945	6.906	0.545
1303.501	730.441	80.008	19.993	103.488	19.944	6.976	0.513
1304.000	730.716	80.009	19.994	103.488	19.941	7.167	0.494
1304.500	730.949	80.008	19.994	103.494	19.942	7.136	0.506
1305.000	731.215	80.006	19.994	103.498	19.939	7.333	0.503
1305.500	731.440	80.007	19.994	103.500	19.941	7.200	0.495
1306.000	731.698	80.006	19.994	103.505	19.937	7.470	0.487
1306.501	731.927	80.007	19.994	103.506	19.940	7.249	0.485
1307.001	732.167	80.006	19.993	103.501	19.939	7.353	0.478
1307.500	732.459	80.009	19.994	103.498	19.939	7.310	0.500
1308.000	732.681	80.007	19.994	103.496	19.938	7.401	0.522
1308.500	732.943	80.005	19.994	103.492	19.939	7.310	0.499
1309.000	733.168	80.005	19.993	103.491	19.938	7.389	0.486
1309.500	733.429	80.004	19.994	103.491	19.937	7.472	0.487
1310.000	733.677	80.007	19.994	103.495	19.938	7.410	0.498
1310.500	733.919	80.006	19.995	103.498	19.936	7.516	0.499
1311.000	734.217	80.006	19.994	103.500	19.935	7.605	0.515
1311.500	734.417	80.007	19.994	103.501	19.938	7.399	0.519
1312.000	734.663	80.005	19.994	103.506	19.940	7.286	0.472
1312.500	734.910	80.005	19.995	103.511	19.935	7.602	0.469
1313.000	735.201	80.007	19.994	103.514	19.938	7.375	0.516
1313.500	735.456	80.005	19.994	103.519	19.937	7.468	0.542
1314.001	735.746	80.005	19.994	103.525	19.939	7.350	0.545
1314.501	735.926	80.005	19.994	103.526	19.933	7.702	0.507
1315.000	736.161	80.005	19.995	103.520	19.940	7.275	0.442
1315.500	736.454	80.005	19.995	103.518	19.935	7.571	0.472
1316.001	736.694	80.006	19.994	103.517	19.937	7.461	0.531
1316.502	736.956	80.005	19.994	103.519	19.937	7.449	0.518
1317.001	737.175	80.005	19.995	103.514	19.937	7.484	0.491
1317.501	737.471	80.005	19.994	103.519	19.937	7.497	0.498
1318.001	737.662	80.005	19.994	103.523	19.937	7.473	0.500
1318.500	737.950	80.005	19.994	103.524	19.935	7.594	0.483
1319.000	738.200	80.004	19.995	103.524	19.937	7.489	0.509
1319.500	738.442	80.007	19.995	103.529	19.934	7.671	0.515
1320.000	738.693	80.005	19.994	103.530	19.936	7.509	0.492
1320.500	738.895	80.006	19.994	103.529	19.935	7.592	0.473
1321.000	739.171	80.006	19.994	103.529	19.937	7.462	0.466
1321.500	739.439	80.006	19.995	103.528	19.932	7.776	0.511
1322.001	739.668	80.007	19.995	103.526	19.934	7.650	0.520
1322.501	739.946	80.006	19.995	103.525	19.934	7.676	0.502
1323.001	740.189	80.007	19.994	103.525	19.933	7.709	0.514
1323.500	740.441	80.006	19.995	103.524	19.934	7.653	0.508
1324.000	740.709	80.005	19.994	103.524	19.932	7.808	0.508
1324.500	740.943	80.007	19.994	103.525	19.933	7.751	0.511
1325.000	741.195	80.007	19.994	103.526	19.931	7.879	0.494
1325.501	741.429	80.006	19.995	103.526	19.933	7.767	0.486
1326.001	741.706	80.006	19.995	103.526	19.931	7.851	0.498
1326.500	741.928	80.006	19.994	103.524	19.933	7.758	0.505
1327.000	742.179	80.006	19.993	103.520	19.932	7.794	0.487
1327.501	742.431	80.007	19.994	103.515	19.934	7.682	0.488
1328.001	742.712	80.006	19.994	103.515	19.933	7.702	0.518
1328.500	742.947	80.006	19.995	103.515	19.931	7.854	0.524
1329.000	743.198	80.008	19.995	103.517	19.934	7.687	0.501
1329.500	743.433	80.006	19.994	103.522	19.933	7.729	0.486
1330.000	743.735	80.005	19.994	103.527	19.933	7.739	0.512
