Sample ID:	C:\MCC\MCC Cal\Test\TREX_Board\TREX_Board_30_1.txt
Sample Weight (mg):	4.91
Heating Rate (C/s):	0.5
Combustor Temp (C):	900
N2 Flow Rate (cc/min):	80
O2 Flow Rate (cc/min):	20
Calibration File:	C:\MCC\MCC Cal\Coeff1 JN10440_30_210304.txt.txt
T Correction Coefficients:	0	1.024463	0
Time Shift (s):	14
*
Time (s)	Temperature (C)	N2 flow rate (cc/min)	O2 flow rate (cc/min)	Flow Rate (cc/min)	Oxygen (%)	HRR (W/g)	Heating rate (C/s)
0.000	107.836	79.981	19.992	99.901	20.105	0.183	-0.006
0.499	107.852	79.981	19.992	99.901	20.108	-0.014	0.021
1.000	107.840	79.982	19.992	99.904	20.110	-0.146	0.019
1.500	107.844	79.980	19.992	99.904	20.108	-0.026	-0.002
2.000	107.862	79.981	19.992	99.906	20.108	0.010	0.007
2.500	107.851	79.981	19.992	99.909	20.110	-0.129	0.014
3.000	107.849	79.982	19.992	99.911	20.110	-0.171	-0.003
3.500	107.835	79.983	19.993	99.912	20.108	0.014	-0.014
4.000	107.864	79.982	19.993	99.912	20.107	0.021	-0.000
4.500	107.841	79.982	19.992	99.912	20.111	-0.226	0.011
5.000	107.856	79.982	19.992	99.914	20.109	-0.100	-0.001
5.500	107.825	79.981	19.991	99.909	20.109	-0.083	-0.012
6.000	107.808	79.982	19.992	99.908	20.107	0.043	-0.032
6.500	107.835	79.983	19.992	99.907	20.107	0.043	-0.019
7.000	107.825	79.982	19.992	99.906	20.108	-0.031	0.013
7.500	107.816	79.982	19.992	99.906	20.106	0.143	-0.001
8.000	107.868	79.982	19.993	99.912	20.108	-0.002	0.012
8.500	107.827	79.982	19.992	99.908	20.106	0.141	0.026
9.000	107.828	79.982	19.991	99.903	20.110	-0.136	-0.015
9.500	107.804	79.982	19.992	99.901	20.110	-0.152	-0.031
10.000	107.782	79.982	19.992	99.902	20.109	-0.103	-0.034
10.500	107.820	79.982	19.992	99.902	20.109	-0.109	-0.015
11.000	107.818	79.981	19.992	99.907	20.108	-0.007	0.026
11.500	107.809	79.981	19.992	99.914	20.103	0.297	0.012
12.000	107.811	79.981	19.992	99.916	20.109	-0.067	-0.009
12.500	107.813	79.981	19.992	99.915	20.107	0.076	-0.001
13.000	107.803	79.981	19.992	99.914	20.107	0.022	-0.002
13.500	107.795	79.981	19.992	99.914	20.106	0.103	-0.013
14.000	107.804	79.981	19.992	99.914	20.107	0.034	-0.009
14.500	107.799	79.981	19.992	99.915	20.107	0.076	0.002
15.000	107.821	79.982	19.992	99.917	20.105	0.202	0.011
15.500	107.789	79.982	19.992	99.918	20.105	0.145	0.004
16.000	107.801	79.980	19.991	99.918	20.106	0.117	-0.015
16.500	107.802	79.981	19.992	99.918	20.107	0.055	-0.004
17.000	107.840	79.980	19.992	99.918	20.105	0.173	0.026
17.500	107.823	79.981	19.992	99.917	20.107	0.043	0.030
18.000	107.799	79.981	19.992	99.918	20.105	0.155	-0.010
18.500	107.822	79.980	19.992	99.918	20.105	0.147	-0.021
19.000	107.805	79.980	19.991	99.919	20.103	0.285	0.003
19.500	107.794	79.980	19.992	99.920	20.106	0.119	-0.011
20.000	107.844	79.981	19.992	99.921	20.102	0.395	0.006
20.500	107.807	79.980	19.992	99.924	20.104	0.238	0.026
21.000	107.824	79.980	19.992	99.930	20.102	0.342	-0.003
21.500	107.804	79.979	19.992	99.938	20.100	0.476	-0.012
22.000	107.826	79.982	19.992	99.944	20.103	0.307	-0.001
22.500	107.813	79.980	19.992	99.951	20.102	0.368	0.005
23.000	107.844	79.979	19.993	99.960	20.099	0.569	0.013
23.500	107.847	79.981	19.992	99.966	20.094	0.866	0.026
24.000	107.857	79.980	19.992	99.973	20.097	0.702	0.023
24.500	107.899	79.979	19.992	99.982	20.096	0.758	0.032
25.000	107.877	79.981	19.993	99.993	20.095	0.816	0.036
25.500	107.877	79.981	19.994	100.001	20.096	0.777	-0.001
26.000	107.904	79.980	19.993	100.008	20.089	1.210	0.002
26.500	107.912	79.981	19.992	100.013	20.092	0.992	0.031
27.000	107.938	79.981	19.993	100.020	20.089	1.210	0.035
27.500	107.971	79.980	19.992	100.023	20.087	1.324	0.047
28.000	108.007	79.980	19.993	100.028	20.088	1.260	0.064
28.500	108.015	79.982	19.992	100.036	20.087	1.310	0.056
29.000	108.022	79.981	19.992	100.040	20.089	1.217	0.029
29.500	108.060	79.981	19.992	100.040	20.085	1.465	0.030
30.000	108.100	79.982	19.993	100.040	20.086	1.364	0.062
30.500	108.112	79.982	19.993	100.042	20.082	1.650	0.065
31.000	108.127	79.981	19.994	100.041	20.084	1.534	0.039
31.500	108.175	79.981	19.994	100.046	20.080	1.762	0.045
32.000	108.225	79.982	19.992	100.052	20.078	1.890	0.080
32.499	108.292	79.983	19.992	100.048	20.078	1.880	0.108
32.999	108.341	79.983	19.992	100.041	20.079	1.826	0.116
33.500	108.332	79.982	19.992	100.042	20.077	1.985	0.078
34.000	108.429	79.983	19.993	100.044	20.076	1.997	0.064
34.499	108.434	79.983	19.994	100.046	20.077	1.971	0.095
34.999	108.501	79.984	19.993	100.057	20.077	1.946	0.087
35.500	108.556	79.982	19.993	100.068	20.074	2.161	0.097
36.000	108.591	79.983	19.991	100.070	20.076	2.029	0.106
36.499	108.639	79.983	19.993	100.068	20.073	2.205	0.087
37.000	108.677	79.982	19.992	100.063	20.075	2.088	0.084
37.500	108.703	79.983	19.992	100.062	20.074	2.117	0.075
37.999	108.754	79.983	19.993	100.062	20.074	2.139	0.071
38.499	108.811	79.983	19.993	100.063	20.074	2.160	0.092
38.999	108.891	79.981	19.992	100.064	20.071	2.317	0.122
39.499	108.925	79.982	19.992	100.068	20.075	2.114	0.126
39.999	109.009	79.983	19.993	100.070	20.074	2.158	0.116
40.499	109.072	79.981	19.993	100.069	20.072	2.300	0.133
40.999	109.132	79.982	19.993	100.069	20.073	2.207	0.135
41.499	109.222	79.981	19.993	100.068	20.072	2.264	0.136
41.999	109.287	79.982	19.992	100.066	20.076	2.012	0.152
42.499	109.368	79.981	19.993	100.064	20.073	2.234	0.150
42.999	109.423	79.983	19.993	100.064	20.074	2.148	0.141
43.499	109.503	79.982	19.993	100.065	20.074	2.155	0.136
44.000	109.591	79.984	19.992	100.065	20.072	2.302	0.151
44.500	109.645	79.983	19.993	100.068	20.073	2.202	0.155
44.999	109.699	79.980	19.994	100.069	20.073	2.243	0.125
45.500	109.771	79.982	19.992	100.073	20.072	2.271	0.118
46.000	109.838	79.981	19.993	100.079	20.071	2.317	0.133
46.499	109.927	79.981	19.993	100.086	20.073	2.222	0.147
46.999	110.039	79.981	19.993	100.093	20.074	2.167	0.178
47.499	110.089	79.981	19.993	100.101	20.069	2.459	0.181
47.999	110.164	79.982	19.993	100.106	20.066	2.652	0.144
48.499	110.286	79.982	19.994	100.108	20.070	2.412	0.162
48.999	110.362	79.983	19.993	100.108	20.071	2.309	0.198
49.499	110.454	79.981	19.993	100.108	20.070	2.395	0.183
49.999	110.541	79.982	19.993	100.108	20.067	2.611	0.173
50.499	110.632	79.982	19.993	100.108	20.066	2.680	0.178
50.999	110.713	79.982	19.993	100.107	20.066	2.687	0.175
51.499	110.811	79.982	19.994	100.107	20.066	2.656	0.175
51.999	110.922	79.983	19.993	100.107	20.066	2.640	0.194
52.499	110.993	79.982	19.993	100.107	20.067	2.618	0.196
52.999	111.134	79.982	19.994	100.107	20.066	2.661	0.197
53.499	111.214	79.983	19.993	100.107	20.065	2.732	0.217
53.999	111.335	79.982	19.993	100.107	20.065	2.747	0.211
54.499	111.404	79.983	19.994	100.107	20.065	2.696	0.195
54.999	111.517	79.983	19.993	100.107	20.065	2.740	0.186
55.499	111.638	79.983	19.993	100.107	20.064	2.775	0.208
55.999	111.721	79.984	19.994	100.107	20.065	2.699	0.219
56.499	111.875	79.983	19.992	100.106	20.064	2.782	0.220
56.999	111.972	79.983	19.993	100.106	20.067	2.571	0.244
57.499	112.072	79.984	19.993	100.105	20.066	2.640	0.224
57.999	112.181	79.983	19.993	100.105	20.064	2.785	0.203
58.499	112.305	79.984	19.993	100.105	20.065	2.737	0.221
58.999	112.463	79.984	19.993	100.105	20.064	2.784	0.258
59.499	112.553	79.983	19.993	100.105	20.063	2.870	0.265
60.000	112.666	79.981	19.993	100.106	20.065	2.720	0.226
60.500	112.817	79.983	19.992	100.107	20.064	2.785	0.233
60.999	112.902	79.983	19.992	100.108	20.066	2.673	0.250
61.499	113.047	79.982	19.992	100.108	20.065	2.751	0.233
61.999	113.161	79.982	19.992	100.108	20.068	2.549	0.244
62.499	113.292	79.984	19.992	100.108	20.065	2.747	0.252
62.999	113.449	79.983	19.992	100.109	20.067	2.623	0.266
63.499	113.538	79.984	19.992	100.108	20.063	2.849	0.267
63.999	113.683	79.982	19.992	100.109	20.065	2.749	0.240
64.499	113.806	79.982	19.992	100.109	20.067	2.623	0.251
64.999	113.910	79.981	19.991	100.110	20.068	2.559	0.248
65.499	114.096	79.980	19.991	100.109	20.069	2.449	0.259
65.999	114.169	79.982	19.992	100.109	20.066	2.661	0.275
66.499	114.301	79.982	19.992	100.109	20.069	2.468	0.232
66.999	114.476	79.981	19.992	100.110	20.067	2.611	0.256
67.499	114.574	79.982	19.992	100.110	20.066	2.633	0.290
67.999	114.728	79.983	19.991	100.111	20.065	2.718	0.262
68.499	114.885	79.981	19.992	100.112	20.069	2.468	0.282
68.999	114.991	79.982	19.992	100.111	20.068	2.523	0.287
69.499	115.131	79.981	19.993	100.111	20.068	2.537	0.254
69.999	115.269	79.981	19.992	100.111	20.072	2.255	0.262
70.500	115.433	79.981	19.993	100.112	20.066	2.627	0.290
71.000	115.564	79.983	19.992	100.112	20.064	2.797	0.298
71.499	115.722	79.983	19.992	100.113	20.063	2.848	0.292
71.999	115.824	79.982	19.992	100.113	20.066	2.646	0.275
72.499	115.993	79.982	19.993	100.112	20.066	2.675	0.265
72.999	116.161	79.982	19.991	100.109	20.065	2.744	0.303
73.499	116.265	79.981	19.992	100.109	20.066	2.682	0.304
73.999	116.437	79.982	19.992	100.109	20.065	2.692	0.274
74.499	116.579	79.982	19.992	100.109	20.069	2.483	0.295
74.999	116.756	79.981	19.992	100.110	20.063	2.873	0.316
75.499	116.876	79.981	19.992	100.112	20.065	2.739	0.308
75.999	117.060	79.981	19.992	100.111	20.066	2.652	0.301
76.499	117.209	79.982	19.993	100.110	20.066	2.675	0.319
76.999	117.345	79.981	19.991	100.110	20.064	2.811	0.309
77.499	117.508	79.980	19.992	100.111	20.067	2.621	0.292
77.999	117.671	79.981	19.992	100.111	20.064	2.787	0.312
78.500	117.790	79.982	19.992	100.112	20.064	2.772	0.304
79.001	117.951	79.980	19.992	100.111	20.067	2.590	0.281
79.500	118.132	79.980	19.992	100.111	20.066	2.677	0.311
79.999	118.267	79.981	19.993	100.110	20.063	2.822	0.328
80.499	118.433	79.982	19.992	100.110	20.064	2.791	0.309
80.999	118.613	79.982	19.992	100.110	20.063	2.863	0.324
81.500	118.740	79.981	19.992	100.111	20.063	2.854	0.327
82.001	118.893	79.981	19.992	100.112	20.061	2.974	0.293
82.501	119.077	79.982	19.992	100.112	20.064	2.801	0.308
83.001	119.235	79.982	19.992	100.113	20.064	2.763	0.340
83.500	119.383	79.983	19.992	100.113	20.063	2.863	0.324
83.999	119.564	79.981	19.993	100.113	20.064	2.778	0.318
84.499	119.701	79.981	19.993	100.113	20.063	2.868	0.323
84.999	119.878	79.981	19.991	100.111	20.063	2.879	0.315
85.499	120.045	79.981	19.992	100.112	20.064	2.799	0.329
85.999	120.190	79.980	19.992	100.112	20.063	2.824	0.328
86.499	120.353	79.981	19.992	100.111	20.062	2.910	0.310
86.999	120.487	79.982	19.992	100.112	20.065	2.701	0.302
87.499	120.653	79.981	19.992	100.114	20.065	2.730	0.299
87.999	120.823	79.982	19.993	100.115	20.065	2.718	0.318
88.500	121.035	79.982	19.993	100.115	20.063	2.832	0.359
89.000	121.187	79.981	19.992	100.115	20.066	2.678	0.373
89.500	121.346	79.982	19.992	100.116	20.064	2.756	0.338
90.000	121.555	79.983	19.992	100.116	20.064	2.761	0.340
90.499	121.697	79.980	19.993	100.114	20.063	2.856	0.360
90.999	121.860	79.982	19.992	100.113	20.062	2.900	0.328
91.499	122.026	79.982	19.991	100.112	20.064	2.803	0.317
91.999	122.207	79.981	19.993	100.111	20.062	2.908	0.338
92.499	122.404	79.982	19.992	100.110	20.065	2.741	0.362
92.999	122.560	79.981	19.992	100.109	20.063	2.853	0.366
93.499	122.742	79.981	19.992	100.110	20.061	3.005	0.346
94.000	122.885	79.980	19.992	100.110	20.065	2.729	0.331
94.500	123.098	79.981	19.993	100.110	20.059	3.073	0.340
94.999	123.208	79.982	19.992	100.110	20.063	2.822	0.339
95.499	123.402	79.983	19.992	100.112	20.062	2.905	0.314
95.999	123.586	79.982	19.993	100.115	20.061	2.949	0.341
96.499	123.796	79.981	19.992	100.119	20.060	3.054	0.386
96.999	123.947	79.981	19.991	100.123	20.058	3.159	0.377
97.499	124.100	79.981	19.991	100.125	20.061	2.983	0.333
97.999	124.266	79.981	19.993	100.124	20.063	2.826	0.312
98.499	124.507	79.982	19.992	100.121	20.064	2.810	0.362
98.999	124.647	79.981	19.992	100.118	20.062	2.894	0.394
99.499	124.839	79.981	19.993	100.115	20.062	2.936	0.357
99.999	125.036	79.982	19.992	100.115	20.059	3.076	0.361
100.499	125.205	79.982	19.992	100.116	20.061	2.969	0.378
100.999	125.411	79.981	19.992	100.116	20.063	2.864	0.370
101.500	125.583	79.981	19.992	100.118	20.061	2.980	0.376
102.000	125.776	79.981	19.993	100.119	20.065	2.700	0.372
102.499	125.944	79.982	19.992	100.117	20.060	3.028	0.363
102.999	126.123	79.981	19.994	100.116	20.060	3.026	0.353
103.499	126.305	79.982	19.992	100.117	20.058	3.137	0.354
103.999	126.485	79.982	19.992	100.119	20.062	2.902	0.362
104.499	126.673	79.982	19.993	100.124	20.064	2.785	0.365
104.999	126.850	79.981	19.992	100.130	20.063	2.821	0.366
105.499	127.046	79.982	19.993	100.135	20.060	3.019	0.369
105.999	127.254	79.981	19.992	100.139	20.060	3.049	0.389
106.499	127.433	79.983	19.992	100.138	20.061	2.997	0.396
106.999	127.648	79.982	19.992	100.138	20.061	2.976	0.390
107.499	127.801	79.983	19.992	100.140	20.062	2.890	0.381
107.999	127.971	79.982	19.993	100.138	20.063	2.871	0.345
108.499	128.163	79.981	19.992	100.136	20.060	3.030	0.343
108.999	128.364	79.983	19.992	100.132	20.065	2.705	0.377
109.499	128.583	79.982	19.993	100.125	20.061	2.945	0.407
110.000	128.742	79.983	19.993	100.121	20.063	2.874	0.400
110.500	128.965	79.983	19.992	100.123	20.062	2.919	0.380
110.999	129.144	79.981	19.993	100.124	20.061	2.963	0.392
111.499	129.337	79.982	19.992	100.130	20.063	2.830	0.387
111.999	129.536	79.982	19.992	100.138	20.061	2.968	0.382
112.499	129.725	79.984	19.992	100.142	20.063	2.850	0.390
112.999	129.930	79.983	19.992	100.143	20.061	3.008	0.391
113.499	130.104	79.983	19.993	100.146	20.063	2.857	0.386
113.999	130.314	79.985	19.993	100.146	20.062	2.944	0.382
114.499	130.516	79.982	19.993	100.146	20.063	2.876	0.399
114.999	130.696	79.982	19.993	100.145	20.060	3.033	0.397
115.499	130.909	79.983	19.993	100.144	20.060	3.065	0.387
115.999	131.158	79.983	19.994	100.143	20.059	3.094	0.427
116.499	131.312	79.982	19.993	100.143	20.060	3.011	0.433
116.999	131.529	79.982	19.993	100.144	20.061	3.004	0.387
117.500	131.724	79.982	19.993	100.144	20.062	2.883	0.391
118.000	131.939	79.982	19.992	100.145	20.059	3.085	0.411
118.500	132.130	79.982	19.993	100.146	20.061	2.999	0.408
119.000	132.356	79.983	19.994	100.146	20.059	3.092	0.411
119.499	132.548	79.982	19.992	100.144	20.060	3.070	0.417
119.999	132.749	79.982	19.992	100.145	20.060	3.042	0.406
120.499	132.957	79.981	19.993	100.145	20.056	3.268	0.401
120.999	133.158	79.982	19.992	100.145	20.060	3.063	0.409
121.499	133.365	79.982	19.993	100.145	20.059	3.118	0.409
121.999	133.602	79.982	19.993	100.148	20.060	3.047	0.427
122.499	133.781	79.982	19.992	100.148	20.060	3.020	0.430
122.999	134.026	79.983	19.992	100.147	20.059	3.097	0.420
123.499	134.224	79.982	19.993	100.148	20.057	3.236	0.433
123.999	134.429	79.983	19.993	100.148	20.058	3.158	0.423
124.499	134.621	79.982	19.993	100.147	20.059	3.090	0.400
125.000	134.847	79.982	19.993	100.148	20.058	3.199	0.407
125.501	135.057	79.982	19.993	100.148	20.057	3.248	0.427
126.000	135.264	79.982	19.992	100.148	20.058	3.194	0.427
126.499	135.486	79.984	19.993	100.148	20.058	3.196	0.423
126.999	135.706	79.982	19.992	100.148	20.056	3.263	0.436
127.499	135.886	79.982	19.993	100.148	20.057	3.256	0.421
127.999	136.121	79.983	19.992	100.148	20.055	3.355	0.407
128.500	136.322	79.983	19.992	100.149	20.054	3.434	0.425
129.000	136.552	79.982	19.992	100.150	20.056	3.324	0.433
129.500	136.770	79.981	19.992	100.150	20.056	3.263	0.439
130.000	136.983	79.984	19.993	100.150	20.055	3.357	0.439
130.500	137.225	79.982	19.992	100.150	20.057	3.236	0.443
131.000	137.438	79.982	19.992	100.151	20.055	3.337	0.455
131.500	137.645	79.983	19.992	100.151	20.056	3.279	0.438
132.000	137.866	79.984	19.993	100.151	20.054	3.445	0.424
132.500	138.062	79.983	19.992	100.151	20.055	3.329	0.423
133.000	138.300	79.982	19.992	100.151	20.051	3.591	0.426
133.500	138.503	79.983	19.992	100.150	20.055	3.374	0.438
134.000	138.741	79.984	19.992	100.150	20.057	3.255	0.441
134.500	138.953	79.983	19.993	100.149	20.057	3.246	0.446
135.000	139.169	79.983	19.993	100.150	20.053	3.493	0.439
135.500	139.390	79.984	19.992	100.149	20.056	3.303	0.432
136.000	139.642	79.982	19.993	100.149	20.055	3.358	0.455
136.500	139.856	79.985	19.993	100.149	20.055	3.374	0.470
137.000	140.067	79.984	19.992	100.149	20.055	3.348	0.446
137.500	140.310	79.984	19.993	100.149	20.054	3.417	0.440
138.000	140.489	79.983	19.993	100.149	20.054	3.453	0.438
138.500	140.756	79.983	19.993	100.149	20.052	3.581	0.434
139.000	140.952	79.983	19.993	100.148	20.055	3.353	0.455
139.500	141.209	79.982	19.992	100.150	20.057	3.251	0.459
140.000	141.415	79.981	19.993	100.150	20.056	3.270	0.458
140.500	141.663	79.984	19.993	100.150	20.055	3.355	0.458
141.000	141.851	79.982	19.993	100.150	20.055	3.358	0.445
141.500	142.111	79.981	19.992	100.151	20.054	3.433	0.442
142.000	142.340	79.982	19.993	100.148	20.054	3.424	0.468
142.500	142.561	79.982	19.993	100.148	20.053	3.479	0.469
143.000	142.814	79.982	19.992	100.148	20.051	3.626	0.462
143.500	143.003	79.981	19.993	100.148	20.057	3.248	0.458
144.000	143.286	79.982	19.993	100.147	20.057	3.211	0.457
144.500	143.500	79.980	19.994	100.148	20.058	3.178	0.485
145.000	143.739	79.982	19.992	100.148	20.058	3.168	0.475
145.500	143.961	79.980	19.993	100.147	20.056	3.277	0.457
146.000	144.206	79.980	19.993	100.147	20.054	3.393	0.464
146.500	144.435	79.981	19.993	100.148	20.057	3.206	0.470
147.000	144.661	79.981	19.993	100.148	20.055	3.344	0.464
147.500	144.870	79.981	19.993	100.149	20.056	3.319	0.446
148.000	145.111	79.979	19.993	100.150	20.057	3.248	0.442
148.500	145.383	79.981	19.994	100.151	20.056	3.317	0.481
149.000	145.621	79.982	19.992	100.151	20.055	3.353	0.511
149.500	145.826	79.981	19.993	100.151	20.053	3.515	0.477
150.000	146.085	79.981	19.993	100.151	20.054	3.434	0.453
150.501	146.341	79.979	19.991	100.151	20.055	3.377	0.489
151.001	146.554	79.981	19.993	100.151	20.054	3.424	0.492
151.500	146.790	79.981	19.992	100.151	20.056	3.298	0.459
152.000	147.005	79.981	19.993	100.152	20.057	3.239	0.450
152.500	147.262	79.981	19.993	100.151	20.056	3.294	0.462
153.000	147.505	79.981	19.993	100.151	20.056	3.296	0.486
153.500	147.755	79.981	19.991	100.150	20.059	3.116	0.497
154.000	147.988	79.982	19.993	100.150	20.055	3.365	0.488
154.500	148.243	79.981	19.992	100.149	20.056	3.298	0.485
155.000	148.481	79.981	19.992	100.149	20.056	3.296	0.490
155.500	148.711	79.980	19.992	100.146	20.056	3.287	0.481
156.000	148.991	79.981	19.992	100.144	20.059	3.134	0.489
156.500	149.181	79.981	19.992	100.144	20.059	3.135	0.490
157.000	149.482	79.980	19.992	100.145	20.059	3.083	0.480
157.500	149.737	79.980	19.991	100.145	20.058	3.139	0.524
158.000	149.981	79.980	19.992	100.149	20.058	3.180	0.528
158.500	150.206	79.982	19.992	100.151	20.057	3.222	0.484
159.000	150.462	79.980	19.992	100.150	20.058	3.189	0.475
159.500	150.675	79.980	19.993	100.150	20.057	3.232	0.475
160.000	150.924	79.981	19.993	100.149	20.055	3.375	0.466
160.500	151.178	79.980	19.993	100.148	20.055	3.356	0.483
161.000	151.437	79.980	19.992	100.148	20.057	3.246	0.507
161.500	151.657	79.981	19.992	100.146	20.056	3.324	0.496
162.000	151.896	79.982	19.993	100.145	20.054	3.398	0.469
162.500	152.177	79.980	19.993	100.145	20.057	3.236	0.490
163.000	152.434	79.981	19.992	100.145	20.059	3.102	0.529
163.500	152.627	79.980	19.992	100.145	20.053	3.476	0.494
164.000	152.880	79.982	19.992	100.147	20.055	3.329	0.448
164.500	153.137	79.981	19.992	100.147	20.054	3.393	0.478
165.000	153.368	79.981	19.992	100.147	20.056	3.270	0.499
165.500	153.619	79.982	19.993	100.147	20.054	3.391	0.485
166.000	153.850	79.981	19.992	100.147	20.056	3.289	0.482
166.500	154.115	79.980	19.993	100.147	20.054	3.439	0.489
167.000	154.337	79.982	19.993	100.144	20.056	3.325	0.491
167.500	154.610	79.982	19.994	100.145	20.055	3.375	0.491
168.000	154.860	79.980	19.992	100.146	20.055	3.367	0.509
168.500	155.113	79.982	19.993	100.146	20.054	3.413	0.513
169.000	155.360	79.981	19.993	100.147	20.054	3.400	0.501
169.500	155.604	79.983	19.991	100.149	20.054	3.446	0.496
170.000	155.876	79.981	19.993	100.148	20.056	3.306	0.504
170.500	156.095	79.981	19.992	100.148	20.054	3.445	0.503
171.000	156.374	79.981	19.992	100.146	20.052	3.529	0.494
171.500	156.614	79.981	19.992	100.145	20.056	3.301	0.508
172.000	156.847	79.982	19.993	100.145	20.056	3.284	0.496
172.500	157.089	79.983	19.992	100.146	20.055	3.377	0.474
173.000	157.411	79.981	19.992	100.146	20.056	3.282	0.520
173.500	157.598	79.981	19.993	100.147	20.055	3.349	0.537
174.000	157.853	79.982	19.991	100.145	20.055	3.372	0.476
174.500	158.118	79.982	19.992	100.145	20.055	3.355	0.481
175.000	158.342	79.981	19.992	100.145	20.051	3.643	0.504
175.500	158.601	79.981	19.992	100.145	20.056	3.313	0.486
176.000	158.878	79.980	19.993	100.147	20.057	3.261	0.510
176.500	159.100	79.981	19.993	100.147	20.057	3.228	0.518
177.000	159.337	79.980	19.993	100.146	20.056	3.287	0.479
177.500	159.585	79.981	19.992	100.144	20.058	3.190	0.472
178.000	159.891	79.981	19.992	100.139	20.058	3.162	0.519
178.500	160.135	79.980	19.992	100.139	20.054	3.420	0.552
179.000	160.384	79.980	19.992	100.141	20.055	3.369	0.522
179.500	160.659	79.981	19.992	100.142	20.054	3.414	0.509
180.000	160.902	79.980	19.993	100.144	20.052	3.518	0.521
180.500	161.145	79.980	19.992	100.148	20.057	3.223	0.502
181.000	161.407	79.980	19.991	100.147	20.056	3.283	0.496
181.500	161.644	79.981	19.992	100.147	20.055	3.368	0.502
182.000	161.921	79.982	19.992	100.147	20.056	3.285	0.506
182.500	162.138	79.980	19.993	100.145	20.057	3.202	0.504
183.000	162.414	79.980	19.993	100.143	20.056	3.300	0.494
183.500	162.661	79.981	19.991	100.142	20.056	3.285	0.509
184.000	162.910	79.982	19.993	100.142	20.055	3.328	0.510
184.500	163.154	79.981	19.993	100.142	20.057	3.248	0.495
185.000	163.433	79.981	19.993	100.143	20.055	3.330	0.508
185.500	163.689	79.982	19.991	100.141	20.052	3.533	0.528
186.000	163.912	79.983	19.992	100.141	20.056	3.311	0.507
186.500	164.199	79.982	19.991	100.140	20.056	3.323	0.495
187.000	164.465	79.982	19.992	100.136	20.057	3.231	0.532
187.500	164.716	79.983	19.991	100.132	20.060	3.070	0.535
188.000	164.973	79.982	19.992	100.131	20.057	3.248	0.512
188.500	165.228	79.982	19.992	100.126	20.055	3.326	0.510
189.000	165.474	79.981	19.991	100.123	20.056	3.300	0.507
189.500	165.734	79.981	19.991	100.125	20.056	3.271	0.503
190.000	166.029	79.982	19.991	100.123	20.058	3.143	0.530
190.500	166.260	79.982	19.991	100.123	20.057	3.209	0.540
191.000	166.519	79.982	19.992	100.122	20.058	3.190	0.509
191.500	166.750	79.983	19.992	100.120	20.056	3.314	0.490
192.000	167.018	79.983	19.992	100.116	20.057	3.248	0.494
192.500	167.274	79.982	19.991	100.116	20.057	3.260	0.511
193.000	167.547	79.984	19.992	100.116	20.057	3.205	0.526
193.500	167.778	79.983	19.991	100.118	20.057	3.238	0.517
194.000	168.031	79.982	19.992	100.121	20.059	3.100	0.494
194.500	168.278	79.983	19.992	100.120	20.057	3.200	0.492
195.000	168.581	79.983	19.992	100.119	20.059	3.119	0.525
195.500	168.778	79.983	19.992	100.121	20.055	3.376	0.525
196.000	169.068	79.983	19.992	100.119	20.058	3.140	0.494
196.500	169.327	79.981	19.992	100.117	20.056	3.281	0.518
197.000	169.561	79.981	19.992	100.117	20.058	3.158	0.521
197.500	169.807	79.981	19.992	100.118	20.059	3.131	0.487
198.000	170.066	79.983	19.991	100.116	20.058	3.167	0.492
198.500	170.336	79.982	19.992	100.116	20.059	3.122	0.517
199.000	170.595	79.983	19.993	100.117	20.059	3.072	0.529
199.500	170.848	79.982	19.993	100.117	20.059	3.127	0.521
200.000	171.141	79.983	19.992	100.117	20.058	3.181	0.529
200.500	171.359	79.983	19.992	100.116	20.061	2.958	0.528
201.000	171.608	79.981	19.993	100.115	20.060	3.050	0.489
201.500	171.885	79.982	19.992	100.114	20.058	3.195	0.497
202.000	172.165	79.983	19.993	100.114	20.056	3.281	0.542
202.500	172.399	79.982	19.992	100.113	20.057	3.250	0.535
203.000	172.640	79.981	19.993	100.113	20.055	3.328	0.494
203.500	172.933	79.981	19.993	100.113	20.058	3.138	0.505
204.000	173.146	79.980	19.992	100.114	20.058	3.188	0.520
204.500	173.434	79.982	19.993	100.113	20.057	3.243	0.503
205.000	173.678	79.980	19.993	100.113	20.055	3.326	0.517
205.500	173.937	79.982	19.993	100.116	20.059	3.077	0.517
206.000	174.160	79.981	19.990	100.116	20.060	3.036	0.492
206.500	174.369	79.982	19.992	100.115	20.057	3.207	0.457
207.000	174.688	79.981	19.993	100.116	20.054	3.391	0.480
207.500	174.910	79.982	19.993	100.116	20.056	3.272	0.534
208.000	175.184	79.982	19.992	100.114	20.055	3.334	0.519
208.500	175.418	79.981	19.992	100.115	20.055	3.333	0.502
209.000	175.668	79.980	19.992	100.115	20.055	3.326	0.496
209.500	175.910	79.982	19.992	100.114	20.058	3.184	0.488
210.000	176.189	79.984	19.992	100.114	20.058	3.167	0.506
210.500	176.495	79.981	19.992	100.113	20.055	3.367	0.553
211.000	176.693	79.983	19.992	100.113	20.055	3.369	0.545
211.500	176.949	79.982	19.993	100.112	20.059	3.093	0.479
212.000	177.221	79.982	19.992	100.112	20.058	3.193	0.491
212.500	177.459	79.982	19.991	100.112	20.056	3.293	0.519
213.000	177.715	79.984	19.992	100.112	20.058	3.194	0.502
213.500	177.974	79.983	19.992	100.112	20.057	3.207	0.504
214.000	178.265	79.983	19.992	100.112	20.057	3.253	0.533
214.500	178.481	79.986	19.991	100.111	20.058	3.155	0.528
215.000	178.742	79.984	19.992	100.111	20.056	3.277	0.491
215.500	178.954	79.983	19.992	100.111	20.057	3.243	0.475
216.000	179.219	79.984	19.992	100.110	20.054	3.405	0.476
216.500	179.472	79.984	19.993	100.109	20.055	3.329	0.498
217.000	179.706	79.984	19.992	100.108	20.056	3.272	0.502
217.500	179.957	79.982	19.993	100.108	20.054	3.405	0.486
218.000	180.210	79.984	19.992	100.107	20.055	3.350	0.494
218.500	180.430	79.985	19.992	100.107	20.054	3.447	0.488
219.000	180.667	79.982	19.991	100.108	20.057	3.251	0.465
219.500	180.923	79.983	19.991	100.107	20.056	3.265	0.475
220.000	181.202	79.983	19.992	100.106	20.055	3.381	0.514
220.500	181.459	79.984	19.992	100.106	20.054	3.400	0.536
221.000	181.706	79.983	19.992	100.105	20.053	3.498	0.520
221.500	181.927	79.982	19.992	100.105	20.056	3.262	0.485
222.000	182.194	79.983	19.993	100.104	20.055	3.332	0.478
222.500	182.392	79.984	19.993	100.103	20.056	3.322	0.477
223.000	182.678	79.982	19.992	100.103	20.057	3.231	0.474
223.500	182.920	79.981	19.993	100.104	20.053	3.476	0.505
224.000	183.195	79.981	19.992	100.104	20.059	3.089	0.522
224.500	183.454	79.983	19.993	100.106	20.058	3.179	0.526
225.000	183.673	79.980	19.992	100.102	20.057	3.223	0.506
225.500	183.963	79.981	19.994	100.101	20.055	3.334	0.493
226.000	184.162	79.980	19.993	100.101	20.055	3.337	0.499
226.500	184.427	79.980	19.993	100.101	20.057	3.247	0.477
227.000	184.699	79.981	19.993	100.101	20.056	3.304	0.500
227.500	184.933	79.981	19.993	100.102	20.056	3.270	0.522
228.000	185.239	79.980	19.993	100.103	20.058	3.166	0.523
228.500	185.426	79.980	19.994	100.103	20.059	3.090	0.517
229.000	185.694	79.981	19.993	100.103	20.058	3.192	0.474
229.500	185.931	79.980	19.993	100.104	20.060	3.061	0.480
230.000	186.211	79.980	19.993	100.107	20.057	3.220	0.511
230.500	186.430	79.981	19.993	100.107	20.057	3.251	0.507
231.000	186.689	79.979	19.994	100.105	20.056	3.268	0.488
231.500	186.917	79.980	19.993	100.105	20.058	3.175	0.483
232.000	187.168	79.980	19.994	100.103	20.055	3.334	0.483
232.500	187.437	79.980	19.993	100.100	20.055	3.368	0.499
233.000	187.687	79.980	19.993	100.101	20.056	3.270	0.520
233.500	187.912	79.980	19.993	100.101	20.058	3.175	0.497
234.000	188.129	79.980	19.992	100.099	20.057	3.242	0.458
234.500	188.383	79.982	19.993	100.097	20.055	3.339	0.456
235.000	188.619	79.981	19.993	100.098	20.056	3.263	0.480
235.500	188.868	79.981	19.993	100.096	20.058	3.168	0.488
236.000	189.142	79.980	19.993	100.094	20.054	3.413	0.505
236.500	189.382	79.981	19.993	100.090	20.057	3.260	0.519
237.000	189.622	79.982	19.994	100.088	20.056	3.299	0.497
237.500	189.873	79.981	19.992	100.083	20.057	3.215	0.486
238.000	190.161	79.981	19.993	100.079	20.057	3.244	0.515
238.500	190.371	79.982	19.992	100.078	20.053	3.467	0.518
239.000	190.647	79.981	19.992	100.083	20.059	3.122	0.492
239.500	190.912	79.981	19.992	100.088	20.055	3.351	0.513
240.000	191.123	79.981	19.991	100.092	20.053	3.486	0.508
240.500	191.349	79.982	19.992	100.094	20.055	3.335	0.456
241.000	191.588	79.982	19.992	100.092	20.056	3.268	0.451
241.500	191.849	79.982	19.992	100.090	20.054	3.416	0.483
242.000	192.092	79.981	19.991	100.087	20.054	3.399	0.502
242.500	192.327	79.982	19.992	100.087	20.055	3.329	0.491
243.000	192.602	79.980	19.991	100.085	20.051	3.601	0.494
243.500	192.865	79.980	19.992	100.087	20.053	3.465	0.524
244.000	193.082	79.980	19.992	100.090	20.055	3.338	0.509
244.500	193.327	79.981	19.991	100.094	20.052	3.541	0.471
245.000	193.557	79.981	19.993	100.092	20.055	3.382	0.468
245.500	193.754	79.980	19.992	100.094	20.053	3.488	0.451
246.000	194.045	79.981	19.991	100.095	20.057	3.239	0.458
246.500	194.275	79.981	19.992	100.094	20.054	3.451	0.505
247.000	194.513	79.981	19.992	100.092	20.052	3.522	0.495
247.500	194.792	79.983	19.992	100.094	20.055	3.363	0.493
248.000	195.035	79.982	19.991	100.095	20.055	3.327	0.519
248.500	195.253	79.982	19.991	100.094	20.053	3.500	0.491
249.000	195.495	79.982	19.992	100.093	20.052	3.571	0.461
249.500	195.717	79.982	19.991	100.096	20.052	3.559	0.462
250.000	195.972	79.980	19.992	100.096	20.053	3.509	0.470
250.500	196.240	79.980	19.992	100.094	20.053	3.493	0.500
251.000	196.447	79.981	19.991	100.092	20.052	3.547	0.499
251.500	196.721	79.981	19.992	100.088	20.055	3.386	0.478
252.000	196.961	79.981	19.992	100.083	20.053	3.462	0.497
252.500	197.210	79.981	19.992	100.081	20.055	3.329	0.502
253.000	197.411	79.982	19.991	100.086	20.052	3.541	0.470
253.500	197.661	79.981	19.991	100.088	20.053	3.488	0.450
254.000	197.882	79.980	19.992	100.089	20.051	3.640	0.461
254.500	198.162	79.981	19.991	100.095	20.049	3.723	0.486
255.000	198.391	79.981	19.992	100.098	20.053	3.462	0.505
255.500	198.627	79.979	19.992	100.096	20.052	3.541	0.487
256.000	198.908	79.979	19.991	100.097	20.053	3.481	0.491
256.500	199.143	79.980	19.991	100.099	20.054	3.446	0.517
257.000	199.341	79.981	19.992	100.098	20.053	3.479	0.474
257.500	199.590	79.979	19.993	100.093	20.051	3.624	0.440
258.000	199.871	79.981	19.992	100.096	20.054	3.411	0.488
258.500	200.100	79.980	19.992	100.097	20.055	3.346	0.520
259.000	200.345	79.980	19.992	100.101	20.055	3.380	0.492
259.500	200.589	79.980	19.992	100.098	20.056	3.316	0.482
260.000	200.841	79.981	19.993	100.102	20.052	3.551	0.493
260.500	201.049	79.980	19.992	100.102	20.056	3.294	0.478
261.000	201.270	79.980	19.992	100.100	20.053	3.455	0.444
261.500	201.531	79.980	19.992	100.099	20.054	3.437	0.455
262.000	201.816	79.980	19.991	100.100	20.055	3.356	0.514
262.500	202.017	79.980	19.992	100.099	20.052	3.556	0.516
263.000	202.270	79.980	19.992	100.098	20.052	3.530	0.470
263.500	202.514	79.982	19.992	100.099	20.051	3.585	0.475
264.000	202.743	79.980	19.992	100.099	20.050	3.667	0.485
264.500	202.998	79.980	19.993	100.102	20.053	3.499	0.479
265.000	203.254	79.980	19.992	100.103	20.053	3.498	0.498
265.500	203.493	79.980	19.993	100.103	20.051	3.626	0.503
266.000	203.732	79.980	19.992	100.103	20.050	3.664	0.486
266.500	203.976	79.981	19.993	100.103	20.051	3.633	0.480
267.000	204.216	79.983	19.992	100.098	20.052	3.560	0.484
267.500	204.439	79.983	19.993	100.095	20.051	3.583	0.474
268.000	204.688	79.982	19.992	100.096	20.054	3.403	0.467
268.500	204.924	79.982	19.992	100.091	20.047	3.845	0.478
269.000	205.199	79.981	19.990	100.088	20.048	3.795	0.498
269.500	205.438	79.981	19.992	100.089	20.051	3.600	0.513
270.000	205.703	79.983	19.992	100.091	20.049	3.728	0.509
270.500	205.909	79.983	19.992	100.088	20.051	3.626	0.488
271.000	206.152	79.982	19.991	100.090	20.047	3.888	0.460
271.500	206.404	79.981	19.991	100.088	20.048	3.771	0.471
272.000	206.653	79.983	19.991	100.086	20.048	3.793	0.498
272.500	206.890	79.983	19.991	100.082	20.045	3.971	0.494
273.000	207.169	79.981	19.991	100.080	20.046	3.921	0.501
273.500	207.415	79.983	19.991	100.077	20.047	3.852	0.520
274.000	207.669	79.982	19.991	100.076	20.050	3.668	0.512
274.500	207.887	79.983	19.992	100.076	20.048	3.805	0.486
275.000	208.148	79.981	19.991	100.080	20.048	3.776	0.476
275.500	208.373	79.984	19.991	100.081	20.052	3.544	0.483
276.000	208.649	79.984	19.992	100.087	20.048	3.819	0.493
276.500	208.885	79.983	19.991	100.091	20.051	3.607	0.506
277.000	209.071	79.982	19.991	100.094	20.051	3.640	0.467
277.500	209.319	79.981	19.990	100.096	20.049	3.759	0.428
278.000	209.558	79.983	19.991	100.100	20.045	3.992	0.460
278.500	209.824	79.982	19.991	100.096	20.048	3.795	0.496
279.000	210.079	79.982	19.992	100.094	20.047	3.857	0.513
279.500	210.302	79.981	19.991	100.094	20.048	3.774	0.500
280.000	210.580	79.981	19.991	100.095	20.050	3.684	0.490
280.500	210.792	79.982	19.991	100.093	20.049	3.710	0.495
281.000	211.019	79.983	19.991	100.095	20.048	3.784	0.464
281.500	211.277	79.981	19.992	100.099	20.047	3.893	0.462
282.000	211.507	79.983	19.992	100.101	20.046	3.905	0.487
282.500	211.762	79.981	19.991	100.097	20.043	4.114	0.487
283.000	212.010	79.983	19.992	100.096	20.047	3.864	0.494
283.500	212.239	79.982	19.993	100.096	20.046	3.929	0.490
284.000	212.496	79.981	19.991	100.092	20.047	3.860	0.482
284.500	212.751	79.984	19.992	100.085	20.048	3.798	0.499
285.000	212.934	79.982	19.992	100.082	20.050	3.674	0.475
285.500	213.213	79.982	19.993	100.080	20.048	3.786	0.450
286.000	213.460	79.982	19.992	100.082	20.046	3.958	0.494
286.500	213.721	79.981	19.992	100.087	20.044	4.057	0.517
287.000	213.927	79.982	19.992	100.094	20.042	4.162	0.487
287.500	214.185	79.981	19.992	100.098	20.045	4.005	0.465
288.000	214.434	79.983	19.992	100.102	20.044	4.071	0.486
288.500	214.660	79.981	19.993	100.098	20.044	4.057	0.491
289.000	214.929	79.984	19.992	100.091	20.045	3.978	0.485
289.500	215.177	79.982	19.992	100.086	20.044	4.068	0.506
290.000	215.432	79.982	19.993	100.083	20.044	4.028	0.510
290.500	215.640	79.981	19.992	100.081	20.044	4.026	0.483
291.000	215.904	79.983	19.992	100.083	20.043	4.108	0.467
291.500	216.124	79.983	19.992	100.085	20.044	4.027	0.478
292.000	216.401	79.983	19.992	100.087	20.044	4.052	0.491
292.500	216.624	79.982	19.992	100.085	20.043	4.102	0.498
293.000	216.849	79.983	19.992	100.084	20.045	4.002	0.474
293.500	217.137	79.983	19.993	100.084	20.042	4.166	0.481
294.000	217.392	79.983	19.992	100.086	20.040	4.301	0.528
294.500	217.625	79.984	19.993	100.089	20.040	4.287	0.515
295.000	217.865	79.983	19.993	100.091	20.039	4.396	0.480
295.500	218.134	79.984	19.993	100.091	20.042	4.170	0.491
296.000	218.336	79.982	19.992	100.090	20.043	4.125	0.490
296.500	218.624	79.983	19.992	100.085	20.043	4.128	0.481
297.000	218.825	79.984	19.991	100.081	20.039	4.382	0.490
297.500	219.112	79.984	19.991	100.078	20.039	4.386	0.488
298.000	219.366	79.983	19.992	100.082	20.038	4.436	0.515
298.500	219.611	79.985	19.992	100.087	20.039	4.356	0.520
299.000	219.861	79.983	19.992	100.093	20.038	4.468	0.497
299.500	220.076	79.983	19.992	100.097	20.039	4.366	0.480
300.000	220.326	79.984	19.992	100.096	20.040	4.291	0.465
300.500	220.564	79.985	19.991	100.090	20.039	4.358	0.476
301.000	220.821	79.984	19.992	100.084	20.037	4.493	0.492
301.500	221.036	79.983	19.992	100.079	20.040	4.313	0.484
302.000	221.283	79.984	19.992	100.076	20.037	4.522	0.467
302.500	221.620	79.983	19.991	100.079	20.038	4.437	0.523
303.000	221.825	79.983	19.992	100.080	20.036	4.580	0.563
303.500	222.018	79.983	19.991	100.085	20.035	4.608	0.470
304.000	222.296	79.984	19.991	100.087	20.035	4.603	0.434
304.500	222.544	79.982	19.991	100.088	20.033	4.756	0.499
305.000	222.783	79.982	19.992	100.090	20.036	4.539	0.507
305.500	223.080	79.982	19.993	100.093	20.033	4.786	0.511
306.000	223.275	79.982	19.993	100.092	20.034	4.717	0.514
306.500	223.517	79.982	19.992	100.093	20.032	4.847	0.465
307.000	223.773	79.982	19.992	100.096	20.031	4.906	0.468
307.500	224.054	79.980	19.992	100.100	20.031	4.867	0.518
308.000	224.308	79.982	19.992	100.098	20.029	5.004	0.536
308.500	224.552	79.981	19.992	100.097	20.029	5.028	0.516
309.000	224.733	79.983	19.992	100.098	20.027	5.111	0.461
309.500	225.033	79.980	19.992	100.096	20.031	4.910	0.453
310.000	225.303	79.981	19.992	100.095	20.028	5.071	0.526
310.500	225.522	79.981	19.993	100.095	20.029	5.026	0.530
311.000	225.770	79.981	19.992	100.098	20.027	5.116	0.478
311.500	226.000	79.980	19.992	100.099	20.029	5.035	0.472
312.000	226.231	79.980	19.992	100.099	20.029	5.022	0.469
312.500	226.496	79.980	19.993	100.096	20.026	5.224	0.479
313.000	226.747	79.982	19.993	100.094	20.022	5.433	0.506
313.500	227.017	79.981	19.993	100.088	20.024	5.358	0.518
314.000	227.260	79.981	19.993	100.084	20.026	5.209	0.517
314.500	227.507	79.980	19.993	100.086	20.022	5.429	0.501
315.000	227.779	79.980	19.994	100.086	20.022	5.436	0.504
315.500	227.991	79.980	19.993	100.089	20.020	5.599	0.502
316.000	228.255	79.979	19.993	100.095	20.025	5.285	0.480
316.500	228.494	79.981	19.993	100.099	20.023	5.366	0.489
317.000	228.739	79.980	19.993	100.098	20.024	5.337	0.494
317.500	229.021	79.979	19.993	100.103	20.026	5.185	0.506
318.000	229.280	79.980	19.993	100.103	20.023	5.389	0.534
318.500	229.519	79.980	19.993	100.100	20.022	5.456	0.519
319.000	229.726	79.980	19.992	100.098	20.022	5.468	0.472
319.500	230.024	79.980	19.992	100.098	20.018	5.683	0.475
320.000	230.280	79.980	19.994	100.097	20.019	5.620	0.529
320.500	230.497	79.981	19.993	100.097	20.022	5.479	0.513
321.000	230.730	79.980	19.993	100.101	20.019	5.666	0.461
321.500	231.032	79.977	19.993	100.102	20.020	5.593	0.493
322.000	231.267	79.979	19.992	100.102	20.020	5.577	0.537
322.500	231.509	79.980	19.993	100.097	20.019	5.631	0.507
323.000	231.758	79.981	19.993	100.094	20.014	5.945	0.484
323.500	232.004	79.981	19.992	100.094	20.019	5.665	0.493
324.000	232.258	79.980	19.993	100.095	20.015	5.898	0.497
324.500	232.520	79.981	19.992	100.095	20.016	5.869	0.508
325.000	232.809	79.980	19.992	100.102	20.014	5.938	0.533
325.500	233.054	79.980	19.992	100.105	20.014	5.945	0.543
326.000	233.274	79.981	19.993	100.102	20.012	6.079	0.500
326.500	233.520	79.981	19.992	100.099	20.013	6.055	0.466
327.000	233.745	79.980	19.992	100.099	20.013	6.040	0.468
327.500	234.001	79.980	19.993	100.098	20.010	6.214	0.476
328.000	234.265	79.981	19.992	100.100	20.012	6.083	0.501
328.500	234.524	79.980	19.991	100.105	20.010	6.216	0.521
329.000	234.772	79.981	19.991	100.105	20.011	6.144	0.515
329.500	235.021	79.981	19.992	100.104	20.008	6.355	0.502
330.000	235.290	79.981	19.992	100.103	20.008	6.322	0.508
330.500	235.501	79.982	19.992	100.103	20.005	6.565	0.499
331.000	235.772	79.979	19.992	100.103	20.006	6.460	0.481
331.500	236.009	79.982	19.992	100.106	20.008	6.342	0.495
332.000	236.290	79.981	19.993	100.108	20.008	6.346	0.513
332.500	236.547	79.979	19.991	100.105	20.008	6.375	0.528
333.000	236.833	79.980	19.992	100.105	20.006	6.495	0.541
333.500	237.034	79.980	19.992	100.102	20.005	6.564	0.515
334.000	237.312	79.981	19.991	100.102	20.004	6.594	0.483
334.500	237.555	79.980	19.992	100.104	20.003	6.684	0.499
335.000	237.824	79.980	19.991	100.102	20.003	6.670	0.516
335.500	238.055	79.981	19.992	100.099	20.005	6.515	0.506
336.000	238.326	79.980	19.992	100.101	20.001	6.777	0.501
336.500	238.562	79.980	19.992	100.098	20.003	6.639	0.504
337.000	238.812	79.980	19.992	100.096	20.002	6.720	0.497
337.500	239.037	79.979	19.992	100.100	19.999	6.896	0.481
338.000	239.296	79.980	19.991	100.103	19.998	7.002	0.480
338.500	239.560	79.980	19.994	100.103	19.998	6.993	0.503
339.000	239.783	79.979	19.992	100.105	19.998	7.007	0.504
339.500	240.037	79.981	19.992	100.107	19.999	6.932	0.482
340.000	240.283	79.979	19.992	100.106	19.996	7.117	0.489
340.500	240.526	79.982	19.993	100.108	19.998	6.965	0.495
341.000	240.748	79.979	19.992	100.107	19.995	7.152	0.477
341.500	241.035	79.982	19.992	100.108	19.994	7.259	0.487
342.000	241.284	79.981	19.992	100.107	19.994	7.262	0.523
342.500	241.546	79.982	19.991	100.107	19.993	7.325	0.523
343.000	241.831	79.982	19.991	100.104	19.988	7.609	0.529
343.500	242.023	79.980	19.992	100.099	19.988	7.632	0.512
344.000	242.313	79.980	19.992	100.096	19.988	7.601	0.479
344.500	242.571	79.980	19.992	100.094	19.990	7.503	0.515
345.000	242.814	79.980	19.991	100.094	19.988	7.620	0.525
345.500	243.059	79.981	19.992	100.095	19.987	7.658	0.495
346.000	243.331	79.982	19.993	100.099	19.983	7.943	0.502
346.500	243.598	79.982	19.993	100.100	19.985	7.801	0.528
347.000	243.820	79.981	19.992	100.101	19.984	7.872	0.514
347.500	244.082	79.982	19.992	100.099	19.982	8.021	0.486
348.000	244.373	79.983	19.992	100.100	19.983	7.907	0.518
348.500	244.595	79.982	19.992	100.100	19.981	8.047	0.533
349.000	244.854	79.982	19.993	100.101	19.980	8.114	0.497
349.500	245.096	79.982	19.993	100.100	19.979	8.161	0.491
350.000	245.330	79.982	19.992	100.102	19.981	8.085	0.488
350.500	245.586	79.984	19.993	100.100	19.978	8.242	0.483
351.000	245.870	79.982	19.992	100.098	19.980	8.145	0.515
351.500	246.129	79.983	19.991	100.099	19.975	8.431	0.542
352.000	246.365	79.983	19.992	100.100	19.976	8.404	0.519
352.500	246.597	79.983	19.992	100.098	19.975	8.416	0.482
353.000	246.862	79.982	19.992	100.100	19.974	8.494	0.483
353.500	247.135	79.983	19.991	100.102	19.973	8.561	0.518
354.000	247.387	79.984	19.993	100.102	19.972	8.665	0.532
354.500	247.592	79.983	19.993	100.102	19.970	8.767	0.491
355.000	247.871	79.983	19.992	100.106	19.968	8.909	0.470
355.500	248.095	79.982	19.991	100.106	19.970	8.760	0.493
356.000	248.346	79.982	19.991	100.107	19.966	9.012	0.489
356.500	248.605	79.983	19.992	100.107	19.962	9.249	0.493
357.000	248.910	79.982	19.991	100.106	19.966	9.031	0.537
357.500	249.165	79.983	19.992	100.106	19.965	9.092	0.561
358.000	249.389	79.982	19.992	100.106	19.962	9.245	0.519
358.500	249.666	79.983	19.993	100.105	19.960	9.378	0.490
359.000	249.895	79.983	19.992	100.104	19.961	9.332	0.504
359.500	250.195	79.983	19.992	100.105	19.960	9.418	0.518
360.000	250.408	79.981	19.992	100.105	19.961	9.364	0.521
360.500	250.672	79.982	19.992	100.106	19.959	9.494	0.495
361.000	250.931	79.982	19.992	100.105	19.957	9.611	0.500
361.500	251.166	79.981	19.992	100.104	19.959	9.496	0.508
362.000	251.428	79.983	19.991	100.104	19.952	9.900	0.495
362.500	251.692	79.982	19.992	100.101	19.951	9.988	0.511
363.000	251.923	79.982	19.992	100.100	19.950	10.022	0.511
363.500	252.170	79.982	19.993	100.102	19.952	9.901	0.487
364.000	252.448	79.981	19.992	100.104	19.950	10.015	0.502
364.500	252.647	79.982	19.992	100.105	19.951	9.951	0.501
365.000	252.923	79.983	19.992	100.108	19.947	10.224	0.476
365.500	253.167	79.982	19.992	100.109	19.946	10.317	0.497
366.000	253.434	79.981	19.991	100.109	19.945	10.324	0.516
366.500	253.686	79.982	19.992	100.109	19.943	10.469	0.515
367.000	253.938	79.982	19.992	100.108	19.943	10.468	0.511
367.500	254.191	79.982	19.992	100.108	19.939	10.756	0.504
368.000	254.455	79.982	19.992	100.108	19.939	10.725	0.512
368.500	254.692	79.982	19.992	100.108	19.935	10.969	0.510
369.000	254.935	79.982	19.992	100.108	19.936	10.945	0.490
369.500	255.219	79.983	19.992	100.108	19.933	11.140	0.503
370.000	255.456	79.982	19.991	100.108	19.935	11.010	0.524
370.500	255.687	79.983	19.992	100.107	19.931	11.214	0.495
371.000	255.951	79.983	19.992	100.107	19.929	11.342	0.482
371.500	256.195	79.983	19.992	100.107	19.934	11.053	0.502
372.000	256.438	79.982	19.992	100.108	19.929	11.397	0.498
372.500	256.676	79.983	19.992	100.108	19.929	11.373	0.484
373.000	256.932	79.982	19.992	100.108	19.928	11.414	0.487
373.500	257.197	79.983	19.993	100.108	19.925	11.651	0.507
374.000	257.440	79.982	19.993	100.108	19.922	11.795	0.514
374.500	257.714	79.981	19.992	100.107	19.921	11.864	0.512
375.000	257.976	79.983	19.991	100.107	19.924	11.698	0.527
375.500	258.218	79.983	19.992	100.107	19.920	11.964	0.520
376.000	258.459	79.983	19.993	100.107	19.924	11.716	0.493
376.500	258.730	79.984	19.992	100.107	19.919	12.029	0.497
377.000	258.958	79.982	19.992	100.107	19.921	11.905	0.506
377.500	259.208	79.983	19.993	100.108	19.916	12.199	0.489
378.000	259.443	79.983	19.991	100.109	19.917	12.125	0.481
378.500	259.676	79.983	19.993	100.109	19.915	12.289	0.476
379.000	259.915	79.982	19.992	100.110	19.914	12.348	0.470
379.500	260.171	79.983	19.992	100.110	19.912	12.486	0.483
380.000	260.424	79.983	19.992	100.110	19.910	12.560	0.502
380.500	260.699	79.983	19.992	100.111	19.908	12.690	0.518
381.000	260.949	79.983	19.992	100.110	19.907	12.783	0.527
381.500	261.148	79.982	19.991	100.110	19.905	12.906	0.488
382.000	261.406	79.982	19.992	100.110	19.904	12.935	0.453
382.500	261.643	79.982	19.993	100.108	19.906	12.848	0.476
383.000	261.907	79.981	19.992	100.107	19.901	13.178	0.498
383.500	262.144	79.982	19.991	100.108	19.900	13.218	0.501
384.000	262.397	79.980	19.993	100.108	19.896	13.473	0.495
384.500	262.638	79.982	19.992	100.112	19.897	13.408	0.491
385.000	262.904	79.981	19.991	100.114	19.897	13.397	0.500
385.500	263.160	79.982	19.993	100.115	19.894	13.596	0.515
386.000	263.446	79.980	19.992	100.114	19.891	13.781	0.532
386.500	263.659	79.982	19.993	100.113	19.893	13.651	0.521
387.000	263.936	79.980	19.992	100.110	19.889	13.890	0.494
387.500	264.151	79.980	19.993	100.110	19.888	13.990	0.491
388.000	264.403	79.980	19.992	100.111	19.886	14.141	0.480
388.500	264.669	79.980	19.992	100.113	19.885	14.201	0.493
389.000	264.954	79.981	19.993	100.117	19.884	14.244	0.534
389.500	265.191	79.979	19.993	100.119	19.884	14.213	0.536
390.000	265.427	79.980	19.993	100.118	19.880	14.477	0.498
390.500	265.686	79.981	19.992	100.119	19.878	14.606	0.484
391.000	265.957	79.981	19.992	100.120	19.876	14.737	0.512
391.500	266.187	79.980	19.991	100.118	19.877	14.660	0.516
392.000	266.473	79.980	19.992	100.119	19.875	14.806	0.508
392.500	266.697	79.981	19.992	100.119	19.876	14.750	0.512
393.000	266.926	79.979	19.992	100.118	19.874	14.902	0.481
393.500	267.167	79.981	19.992	100.117	19.871	15.055	0.462
394.000	267.404	79.980	19.991	100.116	19.870	15.109	0.474
394.500	267.659	79.981	19.992	100.114	19.866	15.382	0.485
395.000	267.926	79.980	19.992	100.114	19.868	15.229	0.507
395.500	268.158	79.980	19.992	100.114	19.865	15.445	0.510
396.000	268.388	79.980	19.992	100.114	19.864	15.489	0.480
396.500	268.654	79.980	19.993	100.114	19.862	15.623	0.479
397.000	268.893	79.978	19.993	100.114	19.861	15.719	0.500
397.500	269.158	79.980	19.993	100.114	19.863	15.564	0.504
398.000	269.402	79.981	19.992	100.116	19.860	15.779	0.507
398.500	269.637	79.980	19.992	100.117	19.854	16.132	0.495
399.000	269.890	79.979	19.994	100.120	19.855	16.055	0.484
399.500	270.202	79.980	19.993	100.120	19.857	15.955	0.526
400.000	270.405	79.979	19.992	100.121	19.855	16.104	0.540
400.500	270.664	79.980	19.993	100.120	19.855	16.054	0.489
401.000	270.926	79.980	19.992	100.118	19.854	16.136	0.491
401.500	271.144	79.980	19.992	100.116	19.849	16.472	0.500
402.000	271.439	79.980	19.993	100.114	19.850	16.398	0.496
402.500	271.674	79.980	19.993	100.115	19.846	16.636	0.522
403.000	271.917	79.980	19.993	100.115	19.844	16.763	0.504
403.500	272.176	79.979	19.994	100.115	19.841	16.953	0.490
404.000	272.429	79.981	19.993	100.116	19.841	16.946	0.507
404.500	272.690	79.981	19.992	100.116	19.843	16.807	0.513
405.000	272.923	79.980	19.993	100.115	19.835	17.371	0.504
405.500	273.142	79.982	19.993	100.118	19.840	17.048	0.473
406.000	273.391	79.980	19.993	100.120	19.840	17.054	0.460
406.500	273.617	79.980	19.993	100.122	19.836	17.323	0.472
407.000	273.871	79.980	19.993	100.126	19.832	17.575	0.478
407.500	274.145	79.981	19.992	100.124	19.830	17.688	0.504
408.000	274.389	79.981	19.994	100.122	19.829	17.766	0.522
408.500	274.637	79.981	19.993	100.120	19.827	17.892	0.505
409.000	274.898	79.981	19.993	100.118	19.827	17.893	0.501
409.500	275.172	79.981	19.993	100.121	19.827	17.860	0.521
410.000	275.400	79.981	19.994	100.128	19.827	17.844	0.518
410.500	275.635	79.981	19.993	100.129	19.823	18.104	0.483
411.000	275.863	79.980	19.994	100.130	19.819	18.406	0.463
411.500	276.140	79.979	19.993	100.128	19.816	18.569	0.484
412.000	276.349	79.981	19.993	100.122	19.814	18.707	0.496
412.500	276.601	79.982	19.993	100.121	19.815	18.626	0.473
413.000	276.848	79.980	19.993	100.123	19.812	18.815	0.480
413.500	277.113	79.981	19.994	100.122	19.813	18.782	0.505
414.000	277.351	79.980	19.992	100.103	19.814	18.682	0.508
414.500	277.608	79.981	19.993	100.084	19.809	19.024	0.499
415.000	277.843	79.981	19.991	100.073	19.811	18.917	0.493
415.500	278.133	79.980	19.992	100.069	19.810	18.957	0.509
416.000	278.388	79.980	19.992	100.067	19.809	19.002	0.535
416.500	278.593	79.981	19.992	100.094	19.806	19.194	0.502
417.000	278.845	79.979	19.992	100.119	19.808	19.054	0.459
417.500	279.061	79.980	19.992	100.136	19.810	18.978	0.463
418.000	279.316	79.980	19.993	100.178	19.808	19.059	0.470
418.500	279.558	79.980	19.993	100.191	19.807	19.132	0.484
419.000	279.814	79.980	19.991	100.191	19.805	19.271	0.497
419.500	280.042	79.980	19.993	100.190	19.804	19.305	0.491
420.000	280.291	79.980	19.993	100.184	19.804	19.335	0.480
420.500	280.553	79.979	19.993	100.148	19.804	19.318	0.494
421.000	280.766	79.980	19.993	100.141	19.799	19.674	0.493
421.500	281.017	79.981	19.992	100.141	19.800	19.589	0.470
422.000	281.268	79.981	19.991	100.139	19.799	19.636	0.483
422.500	281.499	79.981	19.991	100.140	19.799	19.675	0.492
423.000	281.785	79.982	19.992	100.142	19.795	19.922	0.500
423.500	282.010	79.981	19.992	100.143	19.796	19.857	0.514
424.000	282.264	79.981	19.993	100.143	19.796	19.817	0.495
424.500	282.522	79.982	19.991	100.145	19.796	19.855	0.495
425.000	282.721	79.982	19.991	100.145	19.795	19.877	0.485
425.500	282.989	79.981	19.992	100.146	19.793	20.036	0.462
426.000	283.256	79.980	19.991	100.145	19.793	20.031	0.501
426.500	283.495	79.983	19.991	100.145	19.788	20.320	0.521
427.000	283.730	79.982	19.991	100.146	19.788	20.377	0.490
427.500	283.990	79.982	19.992	100.146	19.791	20.132	0.485
428.000	284.225	79.982	19.992	100.146	19.792	20.110	0.495
428.500	284.470	79.981	19.991	100.146	19.786	20.506	0.487
429.000	284.734	79.982	19.992	100.145	19.788	20.342	0.494
429.500	284.998	79.982	19.992	100.141	19.784	20.585	0.518
430.000	285.251	79.981	19.993	100.136	19.784	20.606	0.522
430.500	285.466	79.983	19.993	100.133	19.780	20.870	0.492
431.000	285.735	79.984	19.992	100.129	19.782	20.725	0.476
431.500	285.977	79.983	19.992	100.127	19.780	20.883	0.498
432.000	286.238	79.983	19.993	100.130	19.781	20.812	0.507
432.500	286.462	79.982	19.992	100.135	19.777	21.035	0.494
433.000	286.731	79.984	19.993	100.138	19.779	20.950	0.489
433.500	286.982	79.983	19.992	100.142	19.777	21.035	0.506
434.000	287.236	79.983	19.991	100.144	19.775	21.166	0.512
434.500	287.467	79.982	19.991	100.145	19.777	21.076	0.495
435.000	287.695	79.982	19.992	100.145	19.777	21.041	0.472
435.500	287.985	79.983	19.992	100.145	19.776	21.091	0.489
436.000	288.221	79.981	19.992	100.144	19.775	21.174	0.522
436.500	288.453	79.983	19.992	100.143	19.773	21.328	0.497
437.000	288.679	79.983	19.993	100.144	19.772	21.356	0.463
437.500	288.969	79.980	19.992	100.145	19.773	21.327	0.487
438.000	289.213	79.982	19.993	100.145	19.769	21.544	0.526
438.500	289.465	79.983	19.992	100.146	19.771	21.436	0.515
439.000	289.726	79.982	19.991	100.148	19.768	21.600	0.504
439.500	289.903	79.981	19.992	100.145	19.770	21.510	0.475
440.000	290.189	79.982	19.992	100.142	19.766	21.727	0.450
440.500	290.482	79.983	19.991	100.142	19.769	21.537	0.521
441.000	290.747	79.982	19.993	100.142	19.768	21.645	0.569
441.500	290.962	79.983	19.992	100.140	19.765	21.832	0.519
442.000	291.212	79.983	19.992	100.142	19.766	21.751	0.472
442.500	291.458	79.982	19.991	100.144	19.765	21.801	0.481
443.000	291.734	79.981	19.993	100.143	19.765	21.805	0.509
443.500	291.949	79.982	19.992	100.144	19.765	21.832	0.506
444.000	292.239	79.982	19.991	100.146	19.763	21.924	0.498
444.500	292.438	79.982	19.991	100.147	19.764	21.847	0.497
445.000	292.692	79.982	19.993	100.146	19.761	22.049	0.471
445.500	292.973	79.983	19.991	100.145	19.762	22.010	0.494
446.000	293.225	79.983	19.991	100.143	19.760	22.108	0.534
446.500	293.472	79.981	19.991	100.142	19.760	22.142	0.516
447.000	293.738	79.982	19.991	100.143	19.760	22.138	0.506
447.500	293.965	79.983	19.992	100.144	19.756	22.407	0.504
448.000	294.215	79.981	19.992	100.145	19.760	22.164	0.485
448.500	294.510	79.982	19.991	100.146	19.756	22.411	0.511
449.000	294.752	79.985	19.992	100.145	19.761	22.111	0.541
449.500	294.979	79.983	19.992	100.145	19.762	22.048	0.503
450.000	295.252	79.983	19.992	100.146	19.763	21.972	0.485
450.500	295.506	79.982	19.992	100.145	19.757	22.332	0.513
451.000	295.695	79.983	19.991	100.143	19.756	22.397	0.485
451.500	295.971	79.981	19.990	100.143	19.761	22.097	0.454
452.000	296.186	79.983	19.991	100.139	19.756	22.406	0.478
452.500	296.432	79.982	19.992	100.139	19.759	22.208	0.476
453.000	296.717	79.983	19.991	100.140	19.754	22.525	0.497
453.500	296.980	79.984	19.992	100.143	19.756	22.398	0.540
454.000	297.193	79.983	19.991	100.144	19.753	22.556	0.512
454.500	297.479	79.985	19.991	100.147	19.753	22.566	0.487
455.000	297.747	79.983	19.991	100.136	19.754	22.518	0.526
455.500	297.980	79.983	19.991	100.106	19.752	22.668	0.527
456.000	298.183	79.981	19.991	100.090	19.755	22.464	0.468
456.500	298.438	79.983	19.990	100.080	19.755	22.479	0.447
457.000	298.713	79.983	19.991	100.078	19.749	22.803	0.494
457.500	298.956	79.983	19.990	100.089	19.750	22.777	0.524
458.000	299.242	79.984	19.991	100.118	19.755	22.428	0.524
458.500	299.465	79.984	19.992	100.139	19.755	22.476	0.519
459.000	299.738	79.983	19.991	100.182	19.751	22.699	0.502
459.500	299.963	79.984	19.990	100.205	19.756	22.366	0.496
460.000	300.205	79.983	19.991	100.209	19.752	22.621	0.482
460.500	300.438	79.983	19.992	100.210	19.755	22.455	0.471
461.000	300.718	79.983	19.991	100.204	19.751	22.724	0.494
461.500	300.968	79.982	19.992	100.167	19.749	22.815	0.521
462.000	301.216	79.983	19.991	100.142	19.747	22.931	0.514
462.500	301.458	79.982	19.990	100.135	19.750	22.745	0.494
463.000	301.701	79.983	19.991	100.134	19.745	23.073	0.488
463.500	301.984	79.982	19.991	100.138	19.744	23.138	0.506
464.000	302.196	79.982	19.992	100.141	19.746	23.042	0.510
464.500	302.482	79.980	19.992	100.145	19.740	23.375	0.497
465.000	302.750	79.981	19.991	100.149	19.744	23.178	0.526
465.500	302.994	79.981	19.993	100.150	19.745	23.102	0.533
466.000	303.249	79.981	19.992	100.149	19.743	23.209	0.506
466.500	303.508	79.982	19.991	100.146	19.742	23.271	0.506
467.000	303.739	79.981	19.992	100.146	19.742	23.267	0.501
467.500	304.037	79.981	19.991	100.144	19.743	23.183	0.509
468.000	304.233	79.980	19.993	100.143	19.740	23.389	0.512
468.500	304.495	79.982	19.993	100.141	19.739	23.483	0.477
469.000	304.755	79.980	19.992	100.141	19.739	23.486	0.490
469.500	305.011	79.982	19.992	100.140	19.734	23.755	0.519
470.000	305.261	79.982	19.993	100.138	19.734	23.766	0.511
470.500	305.524	79.982	19.994	100.136	19.740	23.429	0.510
471.000	305.768	79.982	19.993	100.137	19.740	23.389	0.510
471.500	305.996	79.979	19.992	100.137	19.735	23.724	0.489
472.000	306.281	79.982	19.994	100.137	19.736	23.648	0.492
472.500	306.569	79.981	19.993	100.139	19.734	23.795	0.543
473.000	306.836	79.981	19.993	100.142	19.735	23.730	0.564
473.500	307.043	79.982	19.993	100.143	19.738	23.500	0.515
474.000	307.305	79.981	19.992	100.146	19.738	23.512	0.471
474.500	307.545	79.981	19.992	100.147	19.735	23.723	0.486
475.000	307.801	79.980	19.993	100.146	19.730	24.039	0.499
475.500	308.069	79.980	19.991	100.145	19.730	24.015	0.510
476.000	308.324	79.980	19.991	100.144	19.729	24.082	0.524
476.500	308.563	79.981	19.993	100.143	19.728	24.198	0.508
477.000	308.791	79.981	19.993	100.142	19.727	24.239	0.480
477.500	309.049	79.981	19.992	100.143	19.729	24.127	0.476
478.000	309.352	79.981	19.991	100.144	19.727	24.253	0.524
478.500	309.572	79.981	19.992	100.144	19.722	24.554	0.542
479.000	309.790	79.982	19.992	100.145	19.723	24.488	0.480
479.500	310.051	79.982	19.992	100.146	19.723	24.459	0.458
480.000	310.324	79.982	19.993	100.144	19.722	24.561	0.507
480.500	310.562	79.981	19.992	100.144	19.725	24.386	0.522
481.000	310.811	79.981	19.992	100.145	19.723	24.492	0.499
481.500	311.070	79.981	19.993	100.144	19.722	24.574	0.497
482.000	311.319	79.981	19.990	100.144	19.722	24.549	0.508
482.500	311.581	79.980	19.992	100.145	19.724	24.448	0.510
483.000	311.875	79.980	19.992	100.145	19.720	24.653	0.534
483.500	312.128	79.981	19.992	100.144	19.717	24.872	0.551
484.000	312.371	79.982	19.992	100.145	19.719	24.722	0.521
484.500	312.615	79.981	19.993	100.145	19.716	24.923	0.492
485.000	312.911	79.981	19.993	100.145	19.715	25.020	0.514
485.500	313.136	79.982	19.993	100.146	19.715	24.982	0.531
486.000	313.378	79.983	19.993	100.146	19.718	24.821	0.494
486.500	313.670	79.982	19.994	100.146	19.715	25.004	0.500
487.000	313.893	79.982	19.993	100.146	19.713	25.125	0.525
487.500	314.177	79.982	19.993	100.146	19.716	24.926	0.511
488.000	314.395	79.981	19.993	100.146	19.713	25.146	0.505
488.500	314.659	79.981	19.993	100.145	19.709	25.351	0.491
489.000	314.897	79.980	19.993	100.145	19.710	25.340	0.491
489.500	315.156	79.982	19.992	100.145	19.712	25.185	0.500
490.000	315.419	79.981	19.993	100.146	19.711	25.226	0.510
490.500	315.661	79.979	19.993	100.146	19.714	25.076	0.514
491.000	315.894	79.980	19.993	100.146	19.706	25.550	0.490
491.500	316.188	79.981	19.994	100.146	19.706	25.550	0.501
492.000	316.413	79.980	19.993	100.146	19.709	25.405	0.523
492.500	316.674	79.980	19.994	100.146	19.711	25.230	0.503
493.000	316.925	79.981	19.993	100.146	19.705	25.656	0.499
493.500	317.194	79.979	19.993	100.151	19.705	25.655	0.516
494.000	317.437	79.980	19.993	100.155	19.701	25.866	0.516
494.500	317.711	79.980	19.994	100.155	19.701	25.857	0.515
495.000	317.913	79.979	19.993	100.156	19.702	25.829	0.497
495.500	318.205	79.979	19.992	100.156	19.703	25.781	0.485
496.000	318.481	79.980	19.994	100.151	19.700	25.956	0.531
496.500	318.712	79.982	19.995	100.147	19.701	25.894	0.538
497.000	318.997	79.981	19.994	100.144	19.698	26.056	0.512
497.500	319.222	79.979	19.993	100.143	19.698	26.059	0.513
498.000	319.460	79.979	19.995	100.143	19.691	26.539	0.486
498.500	319.660	79.980	19.995	100.144	19.694	26.319	0.450
499.000	319.953	79.979	19.993	100.145	19.695	26.293	0.465
499.500	320.173	79.980	19.993	100.148	19.686	26.856	0.503
500.000	320.455	79.980	19.993	100.148	19.691	26.524	0.508
500.500	320.732	79.980	19.994	100.149	19.692	26.457	0.530
501.000	320.986	79.980	19.993	100.148	19.689	26.630	0.545
501.500	321.244	79.980	19.993	100.147	19.691	26.502	0.521
502.000	321.477	79.979	19.992	100.149	19.688	26.720	0.501
502.500	321.720	79.979	19.992	100.150	19.686	26.824	0.484
503.000	321.998	79.981	19.993	100.150	19.682	27.121	0.499
503.500	322.247	79.980	19.994	100.150	19.683	27.044	0.524
504.000	322.497	79.981	19.993	100.151	19.684	26.975	0.513
504.500	322.768	79.980	19.993	100.150	19.678	27.343	0.510
505.000	323.038	79.982	19.992	100.150	19.680	27.227	0.531
505.500	323.267	79.981	19.992	100.154	19.676	27.443	0.520
506.000	323.557	79.981	19.994	100.154	19.677	27.431	0.509
506.500	323.748	79.983	19.994	100.154	19.676	27.514	0.500
507.000	324.046	79.981	19.992	100.158	19.675	27.548	0.485
507.500	324.266	79.983	19.992	100.159	19.675	27.567	0.504
508.000	324.524	79.982	19.992	100.155	19.670	27.877	0.498
508.500	324.762	79.982	19.991	100.155	19.668	27.991	0.487
509.000	325.057	79.981	19.992	100.155	19.667	28.033	0.515
509.500	325.296	79.983	19.992	100.151	19.667	28.084	0.534
510.000	325.532	79.983	19.991	100.150	19.659	28.545	0.505
510.500	325.814	79.982	19.991	100.150	19.662	28.398	0.496
511.000	326.081	79.980	19.992	100.150	19.659	28.590	0.533
511.500	326.350	79.983	19.991	100.151	19.658	28.658	0.542
512.000	326.532	79.981	19.991	100.151	19.653	28.966	0.494
512.500	326.806	79.982	19.992	100.151	19.654	28.908	0.453
513.000	327.114	79.982	19.991	100.153	19.651	29.095	0.519
513.500	327.306	79.982	19.992	100.155	19.649	29.233	0.541
514.000	327.549	79.981	19.992	100.154	19.650	29.128	0.467
514.500	327.831	79.981	19.992	100.141	19.648	29.241	0.480
515.000	328.084	79.983	19.992	100.124	19.642	29.670	0.530
515.500	328.326	79.982	19.992	100.112	19.643	29.616	0.516
516.000	328.597	79.982	19.992	100.111	19.639	29.815	0.504
516.500	328.838	79.982	19.991	100.117	19.640	29.794	0.512
517.000	329.091	79.983	19.991	100.143	19.641	29.725	0.503
517.500	329.346	79.982	19.992	100.194	19.639	29.851	0.501
518.000	329.603	79.982	19.991	100.218	19.635	30.106	0.510
518.500	329.852	79.980	19.992	100.225	19.633	30.240	0.510
519.000	330.133	79.983	19.993	100.226	19.633	30.224	0.518
519.500	330.349	79.982	19.992	100.219	19.629	30.471	0.513
520.000	330.619	79.981	19.991	100.190	19.631	30.349	0.491
520.500	330.862	79.982	19.992	100.181	19.624	30.776	0.499
521.000	331.120	79.982	19.992	100.178	19.622	30.919	0.507
521.500	331.407	79.982	19.992	100.179	19.626	30.674	0.524
522.000	331.608	79.983	19.991	100.178	19.623	30.884	0.517
522.500	331.869	79.981	19.991	100.180	19.621	31.015	0.474
523.000	332.144	79.982	19.993	100.182	19.615	31.341	0.499
523.500	332.388	79.981	19.994	100.186	19.611	31.647	0.528
524.000	332.575	79.982	19.991	100.186	19.614	31.427	0.475
524.500	332.884	79.981	19.992	100.187	19.610	31.716	0.463
525.000	333.136	79.980	19.992	100.189	19.611	31.597	0.529
525.500	333.396	79.981	19.992	100.188	19.610	31.721	0.536
526.000	333.645	79.981	19.992	100.184	19.606	31.939	0.510
526.500	333.905	79.982	19.992	100.184	19.602	32.191	0.509
527.000	334.124	79.981	19.992	100.184	19.599	32.416	0.494
527.500	334.362	79.982	19.991	100.185	19.594	32.710	0.468
528.000	334.668	79.982	19.992	100.185	19.594	32.686	0.501
528.500	334.886	79.983	19.993	100.188	19.592	32.858	0.534
529.000	335.134	79.983	19.992	100.188	19.590	32.975	0.495
529.500	335.375	79.981	19.991	100.188	19.583	33.408	0.477
530.000	335.595	79.982	19.991	100.189	19.588	33.087	0.475
530.500	335.888	79.982	19.991	100.189	19.584	33.359	0.487
531.000	336.159	79.983	19.993	100.189	19.582	33.488	0.538
531.500	336.396	79.983	19.992	100.189	19.575	33.953	0.536
532.000	336.670	79.982	19.990	100.189	19.575	33.899	0.510
532.500	336.909	79.983	19.992	100.189	19.571	34.187	0.512
533.000	337.201	79.985	19.992	100.188	19.568	34.393	0.522
533.500	337.402	79.984	19.992	100.188	19.564	34.602	0.512
534.000	337.682	79.984	19.993	100.189	19.562	34.738	0.487
534.500	337.871	79.983	19.992	100.190	19.559	34.945	0.475
535.000	338.115	79.984	19.993	100.190	19.553	35.307	0.451
535.500	338.377	79.985	19.992	100.190	19.557	35.086	0.469
536.000	338.648	79.984	19.993	100.191	19.552	35.411	0.519
536.500	338.895	79.985	19.992	100.189	19.550	35.514	0.526
537.000	339.136	79.985	19.992	100.190	19.549	35.555	0.504
537.500	339.401	79.983	19.991	100.190	19.544	35.902	0.498
538.000	339.640	79.986	19.992	100.192	19.543	35.974	0.505
538.500	339.926	79.984	19.991	100.192	19.533	36.594	0.514
539.000	340.155	79.985	19.993	100.192	19.532	36.681	0.520
539.500	340.434	79.984	19.991	100.194	19.539	36.194	0.511
540.000	340.663	79.984	19.991	100.193	19.541	36.063	0.508
540.500	340.871	79.984	19.993	100.196	19.534	36.557	0.473
541.000	341.159	79.985	19.992	100.197	19.519	37.507	0.467
541.500	341.415	79.984	19.992	100.200	19.531	36.718	0.520
542.000	341.632	79.983	19.992	100.199	19.516	37.680	0.508
542.500	341.851	79.983	19.992	100.201	19.515	37.751	0.454
543.000	342.138	79.983	19.991	100.201	19.517	37.611	0.471
543.500	342.390	79.983	19.992	100.204	19.509	38.147	0.523
544.000	342.618	79.982	19.992	100.206	19.515	37.739	0.509
544.500	342.905	79.982	19.992	100.211	19.505	38.391	0.497
545.000	343.088	79.983	19.993	100.213	19.507	38.263	0.493
545.500	343.353	79.983	19.991	100.212	19.504	38.459	0.459
546.000	343.663	79.982	19.991	100.215	19.501	38.646	0.512
546.500	343.866	79.981	19.992	100.216	19.496	38.966	0.544
547.000	344.088	79.982	19.993	100.215	19.495	39.017	0.469
547.500	344.319	79.980	19.993	100.212	19.493	39.168	0.439
548.000	344.609	79.981	19.992	100.216	19.489	39.390	0.487
548.500	344.940	79.981	19.994	100.217	19.489	39.412	0.571
549.000	345.094	79.982	19.993	100.217	19.481	39.904	0.553
549.500	345.414	79.981	19.993	100.217	19.482	39.871	0.480
550.000	345.793	79.981	19.991	100.218	19.477	40.200	0.587
550.500	345.728	79.981	19.991	100.215	19.477	40.184	0.506
551.000	346.142	79.980	19.993	100.211	19.472	40.492	0.331
551.500	346.566	79.981	19.992	100.211	19.469	40.693	0.593
552.000	346.765	79.983	19.993	100.212	19.473	40.414	0.731
552.500	346.931	79.984	19.993	100.215	19.465	40.928	0.494
553.000	346.908	79.982	19.993	100.219	19.461	41.174	0.254
553.500	347.341	79.982	19.993	100.221	19.465	40.933	0.276
554.000	347.686	79.982	19.994	100.219	19.459	41.316	0.594
554.500	348.035	79.982	19.992	100.218	19.455	41.556	0.736
555.000	347.896	79.982	19.993	100.219	19.465	40.960	0.452
555.500	348.315	79.980	19.993	100.219	19.449	41.987	0.245
556.000	348.746	79.980	19.992	100.219	19.447	42.087	0.565
556.500	349.059	79.982	19.992	100.221	19.446	42.166	0.798
557.000	349.427	79.980	19.994	100.221	19.448	41.986	0.713
557.500	349.512	79.982	19.993	100.221	19.443	42.352	0.567
558.000	349.522	79.982	19.993	100.221	19.441	42.473	0.274
558.500	350.019	79.981	19.992	100.222	19.441	42.480	0.301
559.000	349.935	79.980	19.993	100.222	19.436	42.785	0.460
559.500	350.616	79.981	19.993	100.223	19.436	42.778	0.505
560.000	350.465	79.982	19.993	100.224	19.431	43.113	0.563
560.500	350.966	79.982	19.993	100.225	19.433	42.973	0.440
561.000	351.167	79.982	19.993	100.225	19.426	43.427	0.526
561.500	351.375	79.981	19.993	100.225	19.424	43.570	0.555
562.000	351.670	79.982	19.994	100.225	19.425	43.498	0.456
562.500	351.970	79.981	19.992	100.226	19.420	43.770	0.549
563.000	352.124	79.982	19.993	100.225	19.420	43.766	0.524
563.500	352.369	79.981	19.993	100.225	19.419	43.853	0.427
564.000	352.673	79.981	19.992	100.226	19.418	43.896	0.474
564.500	352.921	79.982	19.993	100.226	19.420	43.768	0.551
565.000	353.106	79.981	19.992	100.227	19.414	44.182	0.493
565.500	353.491	79.980	19.992	100.227	19.412	44.284	0.502
566.000	353.669	79.981	19.993	100.228	19.409	44.461	0.566
566.500	353.960	79.981	19.993	100.228	19.410	44.420	0.515
567.000	354.225	79.981	19.992	100.227	19.409	44.509	0.513
567.500	354.471	79.980	19.992	100.226	19.410	44.434	0.534
568.000	354.724	79.980	19.993	100.222	19.408	44.579	0.505
568.500	354.977	79.980	19.992	100.220	19.408	44.544	0.502
569.000	355.250	79.981	19.993	100.221	19.408	44.525	0.516
569.500	355.464	79.981	19.992	100.221	19.405	44.740	0.507
570.000	355.688	79.981	19.992	100.219	19.404	44.835	0.462
570.500	355.941	79.979	19.992	100.221	19.405	44.770	0.457
571.000	356.139	79.981	19.993	100.222	19.407	44.624	0.465
571.500	356.446	79.981	19.993	100.217	19.401	44.980	0.478
572.000	356.725	79.981	19.993	100.212	19.405	44.728	0.545
572.500	356.958	79.979	19.993	100.211	19.409	44.494	0.549
573.000	357.173	79.982	19.993	100.211	19.406	44.706	0.480
573.500	357.462	79.980	19.995	100.209	19.404	44.782	0.476
574.000	357.729	79.981	19.992	100.213	19.403	44.892	0.530
574.500	357.943	79.980	19.993	100.218	19.406	44.679	0.519
575.000	358.243	79.979	19.993	100.220	19.407	44.636	0.498
575.500	358.428	79.979	19.993	100.216	19.408	44.574	0.499
576.000	358.696	79.979	19.991	100.212	19.409	44.487	0.469
576.500	358.925	79.980	19.991	100.207	19.409	44.461	0.475
577.000	359.205	79.979	19.993	100.201	19.410	44.410	0.503
577.500	359.476	79.980	19.993	100.195	19.410	44.383	0.530
578.000	359.710	79.980	19.993	100.195	19.412	44.279	0.528
578.500	359.974	79.979	19.993	100.195	19.407	44.574	0.502
579.000	360.240	79.979	19.992	100.194	19.411	44.375	0.514
579.500	360.505	79.979	19.992	100.194	19.415	44.085	0.530
580.000	360.684	79.979	19.992	100.193	19.422	43.672	0.487
580.500	360.969	79.980	19.994	100.192	19.420	43.748	0.454
581.000	361.223	79.980	19.993	100.190	19.422	43.631	0.502
581.500	361.469	79.980	19.994	100.188	19.426	43.398	0.519
582.000	361.765	79.980	19.993	100.187	19.431	43.092	0.521
582.500	361.951	79.980	19.993	100.187	19.427	43.326	0.512
583.000	362.241	79.979	19.993	100.187	19.434	42.864	0.480
583.500	362.428	79.980	19.994	100.186	19.436	42.771	0.476
584.000	362.715	79.981	19.993	100.188	19.439	42.546	0.475
584.500	362.972	79.981	19.993	100.188	19.440	42.511	0.509
585.000	363.236	79.980	19.994	100.187	19.445	42.186	0.533
585.500	363.442	79.979	19.992	100.185	19.446	42.099	0.496
586.000	363.681	79.980	19.992	100.185	19.448	41.988	0.458
586.500	363.974	79.980	19.993	100.184	19.452	41.733	0.488
587.000	364.188	79.981	19.993	100.181	19.456	41.468	0.519
587.500	364.447	79.980	19.993	100.177	19.459	41.295	0.490
588.000	364.723	79.980	19.993	100.172	19.466	40.829	0.505
588.500	364.938	79.981	19.992	100.165	19.470	40.590	0.513
589.000	365.209	79.982	19.992	100.160	19.475	40.240	0.488
589.500	365.437	79.982	19.993	100.156	19.477	40.109	0.493
590.000	365.649	79.982	19.993	100.154	19.481	39.881	0.469
590.500	365.919	79.982	19.993	100.152	19.485	39.586	0.461
591.000	366.176	79.982	19.992	100.152	19.492	39.150	0.505
591.500	366.416	79.983	19.992	100.150	19.497	38.843	0.512
592.000	366.658	79.983	19.992	100.149	19.499	38.707	0.489
592.500	366.907	79.983	19.991	100.150	19.508	38.155	0.487
593.000	367.183	79.983	19.992	100.149	19.513	37.821	0.508
593.500	367.437	79.983	19.992	100.149	19.517	37.546	0.527
594.000	367.672	79.983	19.992	100.148	19.524	37.142	0.509
594.500	367.935	79.983	19.992	100.141	19.528	36.885	0.494
595.000	368.143	79.983	19.991	100.132	19.533	36.532	0.484
595.500	368.413	79.984	19.992	100.127	19.539	36.154	0.475
596.000	368.664	79.982	19.994	100.123	19.547	35.690	0.500
596.500	368.924	79.982	19.991	100.117	19.553	35.258	0.516
597.000	369.145	79.983	19.991	100.118	19.559	34.909	0.496
597.500	369.434	79.982	19.992	100.117	19.564	34.576	0.495
598.000	369.677	79.981	19.992	100.114	19.571	34.151	0.521
598.500	369.922	79.982	19.992	100.110	19.574	33.915	0.510
599.000	370.169	79.981	19.991	100.110	19.581	33.514	0.490
599.500	370.361	79.982	19.991	100.108	19.587	33.102	0.465
600.000	370.633	79.982	19.993	100.106	19.593	32.714	0.451
600.500	370.874	79.980	19.992	100.106	19.600	32.260	0.488
601.000	371.106	79.982	19.992	100.106	19.605	31.959	0.493
601.500	371.389	79.981	19.991	100.105	19.616	31.290	0.494
602.000	371.630	79.983	19.992	100.105	19.622	30.858	0.519
602.500	371.887	79.982	19.992	100.105	19.627	30.599	0.511
603.000	372.152	79.981	19.992	100.103	19.633	30.168	0.510
603.500	372.368	79.982	19.991	100.102	19.637	29.953	0.501
604.000	372.634	79.981	19.992	100.101	19.647	29.295	0.482
604.500	372.915	79.981	19.992	100.100	19.656	28.753	0.515
605.000	373.151	79.982	19.991	100.096	19.662	28.367	0.532
605.500	373.401	79.981	19.992	100.092	19.670	27.824	0.502
606.000	373.614	79.983	19.992	100.085	19.676	27.454	0.475
606.500	373.912	79.983	19.992	100.080	19.682	27.045	0.487
607.000	374.171	79.983	19.993	100.073	19.686	26.788	0.534
607.500	374.392	79.982	19.993	100.070	19.693	26.338	0.518
608.000	374.656	79.983	19.993	100.070	19.699	25.961	0.483
608.500	374.908	79.982	19.993	100.070	19.704	25.685	0.501
609.000	375.144	79.982	19.992	100.069	19.712	25.135	0.502
609.500	375.401	79.983	19.992	100.069	19.721	24.604	0.491
610.000	375.651	79.984	19.993	100.068	19.724	24.423	0.500
610.500	375.913	79.983	19.992	100.066	19.729	24.107	0.509
611.000	376.166	79.982	19.992	100.065	19.740	23.380	0.514
611.500	376.391	79.981	19.993	100.065	19.743	23.195	0.496
612.000	376.657	79.982	19.993	100.064	19.754	22.502	0.484
612.500	376.893	79.985	19.992	100.064	19.757	22.318	0.497
613.000	377.165	79.982	19.992	100.065	19.761	22.022	0.505
613.500	377.414	79.983	19.992	100.063	19.773	21.250	0.514
614.000	377.635	79.983	19.992	100.060	19.774	21.192	0.495
614.500	377.888	79.983	19.991	100.058	19.779	20.869	0.472
615.000	378.182	79.984	19.992	100.054	19.783	20.654	0.511
615.500	378.385	79.985	19.992	100.055	19.794	19.917	0.522
616.000	378.644	79.985	19.993	100.053	19.797	19.743	0.480
616.500	378.878	79.985	19.992	100.052	19.805	19.258	0.477
617.000	379.134	79.985	19.992	100.050	19.807	19.104	0.491
617.500	379.410	79.983	19.992	100.049	19.810	18.930	0.511
618.000	379.697	79.984	19.991	100.043	19.814	18.668	0.548
618.500	379.905	79.985	19.993	100.042	19.820	18.269	0.529
619.000	380.171	79.984	19.991	100.039	19.825	17.962	0.484
619.500	380.407	79.985	19.992	100.036	19.833	17.472	0.488
620.000	380.700	79.985	19.992	100.033	19.837	17.207	0.516
620.500	380.917	79.984	19.992	100.034	19.837	17.220	0.520
621.000	381.174	79.985	19.992	100.033	19.847	16.566	0.492
621.500	381.414	79.983	19.992	100.032	19.847	16.604	0.486
622.000	381.653	79.985	19.992	100.032	19.853	16.164	0.488
622.500	381.880	79.983	19.992	100.032	19.857	15.964	0.473
623.000	382.153	79.984	19.991	100.031	19.863	15.578	0.483
623.500	382.377	79.983	19.993	100.029	19.873	14.931	0.499
624.000	382.670	79.983	19.991	100.029	19.875	14.783	0.507
624.500	382.912	79.981	19.992	100.029	19.883	14.273	0.526
625.000	383.189	79.983	19.993	100.029	19.885	14.181	0.527
625.500	383.431	79.981	19.992	100.029	19.885	14.143	0.519
626.000	383.661	79.981	19.992	100.030	19.893	13.650	0.495
626.500	383.940	79.982	19.992	100.030	19.897	13.372	0.490
627.000	384.174	79.982	19.991	100.031	19.898	13.361	0.511
627.500	384.395	79.982	19.992	100.031	19.900	13.212	0.484
628.000	384.648	79.981	19.992	100.031	19.904	12.972	0.465
628.500	384.918	79.982	19.991	100.030	19.912	12.446	0.498
629.000	385.196	79.981	19.991	100.031	19.913	12.389	0.536
629.500	385.423	79.983	19.993	100.031	19.916	12.207	0.526
630.000	385.694	79.984	19.993	100.032	19.918	12.078	0.501
630.500	385.917	79.982	19.992	100.032	19.920	11.929	0.496
631.000	386.154	79.980	19.992	100.032	19.926	11.551	0.477
631.500	386.401	79.981	19.992	100.033	19.925	11.641	0.472
632.000	386.652	79.981	19.992	100.033	19.930	11.322	0.491
632.500	386.908	79.982	19.993	100.033	19.935	11.006	0.503
633.000	387.186	79.981	19.991	100.033	19.931	11.246	0.521
633.500	387.437	79.980	19.992	100.034	19.937	10.880	0.531
634.000	387.675	79.981	19.992	100.034	19.940	10.690	0.509
634.500	387.906	79.981	19.992	100.035	19.941	10.609	0.479
635.000	388.180	79.981	19.992	100.035	19.938	10.790	0.487
635.500	388.419	79.981	19.992	100.034	19.944	10.383	0.509
636.000	388.722	79.981	19.991	100.030	19.946	10.264	0.527
636.500	388.941	79.982	19.992	100.028	19.946	10.274	0.533
637.000	389.205	79.980	19.991	100.027	19.949	10.115	0.503
637.500	389.493	79.981	19.992	100.027	19.947	10.217	0.517
638.000	389.721	79.982	19.992	100.027	19.952	9.891	0.534
638.500	389.996	79.982	19.994	100.030	19.951	9.959	0.510
639.000	390.210	79.981	19.993	100.031	19.954	9.757	0.496
639.500	390.499	79.981	19.992	100.031	19.953	9.817	0.496
640.000	390.752	79.983	19.994	100.030	19.956	9.659	0.522
640.500	391.012	79.982	19.993	100.029	19.955	9.719	0.528
641.000	391.213	79.980	19.991	100.027	19.962	9.290	0.487
641.500	391.499	79.981	19.992	100.027	19.957	9.571	0.474
642.000	391.789	79.980	19.992	100.025	19.959	9.473	0.531
642.500	392.021	79.980	19.993	100.024	19.964	9.146	0.549
643.000	392.287	79.982	19.993	100.023	19.963	9.231	0.510
643.500	392.497	79.982	19.992	100.024	19.964	9.118	0.487
644.000	392.755	79.981	19.993	100.023	19.964	9.111	0.472
644.500	393.042	79.981	19.992	100.023	19.963	9.211	0.507
645.000	393.320	79.981	19.993	100.025	19.962	9.287	0.555
645.500	393.555	79.983	19.993	100.027	19.956	9.656	0.539
646.000	393.794	79.982	19.993	100.025	19.968	8.861	0.493
646.500	394.054	79.982	19.993	100.021	19.963	9.227	0.486
647.000	394.318	79.982	19.991	100.019	19.967	8.942	0.511
647.500	394.602	79.981	19.992	100.018	19.963	9.197	0.536
648.000	394.840	79.981	19.992	100.018	19.965	9.045	0.535
648.500	395.093	79.981	19.993	100.021	19.966	9.018	0.507
649.000	395.365	79.981	19.992	100.025	19.969	8.814	0.508
649.500	395.606	79.980	19.992	100.028	19.960	9.371	0.519
650.000	395.831	79.982	19.993	100.027	19.966	8.999	0.490
650.500	396.111	79.981	19.992	100.026	19.964	9.144	0.486
651.000	396.389	79.981	19.992	100.025	19.967	8.952	0.531
651.500	396.626	79.981	19.992	100.029	19.971	8.723	0.537
652.000	396.887	79.981	19.992	100.029	19.961	9.308	0.507
652.500	397.106	79.981	19.992	100.030	19.961	9.343	0.489
653.000	397.370	79.980	19.992	100.029	19.960	9.360	0.481
653.500	397.622	79.981	19.991	100.024	19.964	9.143	0.500
654.000	397.889	79.980	19.992	100.024	19.962	9.248	0.517
654.500	398.169	79.982	19.992	100.021	19.963	9.195	0.533
655.000	398.416	79.981	19.992	100.017	19.961	9.305	0.537
655.500	398.656	79.982	19.993	100.019	19.964	9.115	0.507
656.000	398.923	79.981	19.993	100.023	19.963	9.176	0.497
656.500	399.215	79.982	19.993	100.017	19.961	9.334	0.533
657.000	399.432	79.980	19.993	100.016	19.962	9.285	0.534
657.500	399.665	79.981	19.995	100.021	19.961	9.356	0.479
658.000	399.956	79.981	19.993	100.018	19.958	9.541	0.487
658.500	400.193	79.980	19.993	100.016	19.962	9.292	0.526
659.000	400.446	79.981	19.992	100.016	19.952	9.912	0.509
659.500	400.694	79.979	19.992	100.016	19.959	9.467	0.495
660.000	400.949	79.980	19.993	100.014	19.955	9.708	0.502
660.500	401.211	79.979	19.992	100.014	19.954	9.788	0.510
661.000	401.464	79.980	19.992	100.016	19.955	9.703	0.516
661.500	401.728	79.980	19.994	100.017	19.956	9.648	0.516
662.000	401.973	79.981	19.993	100.019	19.951	9.984	0.513
662.500	402.244	79.979	19.993	100.021	19.948	10.180	0.513
663.000	402.486	79.981	19.994	100.018	19.951	9.992	0.515
663.500	402.742	79.980	19.992	100.012	19.947	10.206	0.505
664.000	402.998	79.981	19.993	100.010	19.951	9.964	0.505
664.500	403.255	79.981	19.993	100.005	19.948	10.133	0.512
665.000	403.511	79.982	19.993	100.005	19.946	10.268	0.513
665.500	403.780	79.982	19.994	100.008	19.942	10.549	0.519
666.000	404.032	79.981	19.993	100.009	19.946	10.302	0.523
666.500	404.272	79.982	19.993	100.011	19.949	10.066	0.507
667.000	404.489	79.980	19.992	100.010	19.947	10.188	0.475
667.500	404.758	79.981	19.994	100.004	19.939	10.697	0.472
668.000	405.043	79.981	19.993	100.001	19.941	10.619	0.520
668.500	405.285	79.983	19.995	100.003	19.940	10.652	0.540
669.000	405.544	79.982	19.994	100.004	19.939	10.733	0.514
669.500	405.786	79.979	19.993	100.002	19.932	11.143	0.501
670.000	406.021	79.983	19.994	100.007	19.933	11.099	0.489
670.500	406.299	79.981	19.993	100.009	19.934	11.031	0.494
671.000	406.536	79.983	19.994	100.006	19.928	11.395	0.514
671.500	406.802	79.981	19.993	100.005	19.929	11.369	0.510
672.000	407.025	79.981	19.993	100.007	19.930	11.286	0.496
672.500	407.287	79.983	19.993	100.003	19.927	11.496	0.487
673.000	407.518	79.982	19.993	99.999	19.918	12.090	0.489
673.500	407.773	79.984	19.994	99.999	19.922	11.822	0.490
674.000	408.036	79.984	19.993	99.999	19.918	12.070	0.503
674.500	408.299	79.982	19.993	99.996	19.917	12.126	0.522
675.000	408.563	79.982	19.993	99.996	19.913	12.353	0.526
675.500	408.788	79.982	19.994	99.995	19.916	12.202	0.508
676.000	409.014	79.982	19.994	99.996	19.910	12.540	0.470
676.500	409.250	79.982	19.993	99.993	19.912	12.416	0.456
677.000	409.530	79.982	19.994	99.994	19.907	12.730	0.489
677.500	409.816	79.983	19.993	99.993	19.907	12.741	0.541
678.000	410.078	79.982	19.993	99.992	19.901	13.130	0.557
678.500	410.353	79.982	19.993	99.991	19.902	13.054	0.543
679.000	410.589	79.983	19.993	99.991	19.901	13.147	0.524
679.500	410.807	79.981	19.992	99.991	19.901	13.121	0.482
680.000	411.047	79.983	19.993	99.992	19.895	13.489	0.455
680.500	411.316	79.982	19.994	99.996	19.898	13.334	0.483
681.000	411.564	79.983	19.993	99.996	19.892	13.709	0.513
681.500	411.793	79.981	19.992	99.999	19.892	13.721	0.497
682.000	412.048	79.983	19.993	100.002	19.893	13.672	0.480
682.500	412.316	79.981	19.992	100.002	19.892	13.728	0.504
683.000	412.563	79.981	19.992	99.999	19.888	13.957	0.519
683.500	412.798	79.983	19.993	99.998	19.882	14.330	0.498
684.000	413.084	79.982	19.992	99.997	19.879	14.531	0.502
684.500	413.316	79.981	19.992	99.994	19.880	14.471	0.520
685.000	413.571	79.982	19.992	99.993	19.875	14.769	0.502
685.500	413.785	79.983	19.992	99.995	19.874	14.852	0.478
686.000	414.058	79.982	19.993	99.996	19.872	14.968	0.478
686.500	414.292	79.983	19.993	99.997	19.872	14.968	0.497
687.000	414.534	79.982	19.992	100.002	19.865	15.405	0.492
687.500	414.778	79.982	19.992	100.003	19.864	15.462	0.481
688.000	415.015	79.983	19.992	100.004	19.861	15.693	0.483
688.500	415.270	79.982	19.992	100.002	19.859	15.826	0.486
689.000	415.511	79.983	19.993	100.000	19.855	16.079	0.494
689.500	415.793	79.983	19.993	99.995	19.850	16.391	0.510
690.000	416.060	79.982	19.993	99.998	19.848	16.523	0.536
690.500	416.311	79.984	19.991	99.997	19.844	16.732	0.533
691.000	416.560	79.984	19.991	99.998	19.840	17.034	0.509
691.500	416.793	79.983	19.992	99.999	19.839	17.074	0.491
692.000	417.065	79.982	19.993	99.999	19.838	17.141	0.493
692.500	417.326	79.983	19.992	99.994	19.839	17.103	0.519
693.000	417.608	79.983	19.992	99.993	19.832	17.498	0.538
693.500	417.836	79.984	19.991	99.992	19.834	17.420	0.526
694.000	418.102	79.983	19.992	99.992	19.828	17.768	0.502
694.500	418.320	79.983	19.992	99.992	19.826	17.884	0.489
695.000	418.591	79.983	19.991	99.992	19.816	18.543	0.486
695.500	418.856	79.984	19.993	99.992	19.814	18.674	0.513
696.000	419.110	79.982	19.991	99.993	19.812	18.795	0.528
696.500	419.351	79.984	19.992	99.993	19.808	19.035	0.507
697.000	419.615	79.983	19.991	99.993	19.802	19.435	0.500
697.500	419.856	79.983	19.991	99.993	19.798	19.664	0.505
698.000	420.113	79.984	19.991	99.996	19.799	19.629	0.501
698.500	420.371	79.983	19.991	99.997	19.794	19.907	0.506
699.000	420.590	79.982	19.991	99.997	19.787	20.359	0.496
699.500	420.888	79.985	19.992	99.996	19.788	20.311	0.497
700.000	421.130	79.982	19.992	99.996	19.781	20.791	0.528
700.500	421.376	79.984	19.994	99.993	19.778	20.984	0.514
701.000	421.644	79.983	19.991	99.992	19.771	21.406	0.501
701.500	421.870	79.982	19.992	99.992	19.769	21.556	0.504
702.000	422.116	79.984	19.992	99.993	19.763	21.910	0.483
702.500	422.378	79.984	19.993	99.992	19.760	22.112	0.490
703.000	422.618	79.983	19.992	99.992	19.752	22.593	0.505
703.500	422.866	79.983	19.991	99.991	19.746	22.971	0.495
704.000	423.088	79.982	19.993	99.990	19.745	23.080	0.479
704.500	423.387	79.982	19.993	99.989	19.738	23.491	0.495
705.000	423.625	79.982	19.992	99.990	19.733	23.842	0.529
705.500	423.876	79.982	19.992	99.989	19.728	24.125	0.513
706.000	424.114	79.982	19.993	99.989	19.727	24.161	0.489
706.500	424.411	79.982	19.993	99.991	19.719	24.703	0.512
707.000	424.638	79.982	19.993	99.992	19.713	25.078	0.529
707.500	424.891	79.982	19.993	99.993	19.709	25.354	0.502
708.000	425.148	79.983	19.993	99.992	19.705	25.565	0.495
708.500	425.414	79.983	19.991	99.991	19.698	26.028	0.517
709.000	425.652	79.982	19.992	99.990	19.690	26.562	0.514
709.500	425.937	79.980	19.991	99.990	19.686	26.782	0.513
710.000	426.167	79.982	19.992	99.990	19.680	27.185	0.519
710.500	426.416	79.982	19.992	99.991	19.676	27.418	0.497
711.000	426.671	79.981	19.991	99.992	19.671	27.727	0.492
711.500	426.919	79.981	19.992	99.993	19.665	28.116	0.504
712.000	427.174	79.980	19.991	99.992	19.660	28.465	0.503
712.500	427.435	79.980	19.991	99.992	19.651	29.030	0.509
713.000	427.655	79.980	19.992	99.993	19.646	29.321	0.499
713.500	427.923	79.981	19.992	99.992	19.638	29.844	0.485
714.000	428.154	79.982	19.992	99.993	19.632	30.207	0.493
714.500	428.414	79.982	19.992	99.993	19.628	30.447	0.495
715.000	428.682	79.982	19.992	99.993	19.616	31.247	0.510
715.500	428.947	79.982	19.992	99.991	19.611	31.528	0.530
716.000	429.182	79.981	19.991	99.984	19.601	32.188	0.517
716.500	429.440	79.982	19.993	99.979	19.592	32.784	0.497
717.000	429.702	79.983	19.991	99.977	19.592	32.729	0.506
717.500	429.958	79.983	19.992	99.976	19.585	33.219	0.519
718.000	430.179	79.980	19.992	99.978	19.577	33.706	0.498
718.500	430.445	79.980	19.990	99.983	19.569	34.204	0.482
719.000	430.698	79.981	19.992	99.987	19.571	34.114	0.503
719.500	430.978	79.982	19.992	99.988	19.555	35.114	0.526
720.000	431.187	79.982	19.993	99.985	19.548	35.525	0.511
720.500	431.460	79.982	19.991	99.982	19.541	36.004	0.486
721.000	431.704	79.982	19.991	99.976	19.538	36.202	0.500
721.500	431.977	79.981	19.990	99.970	19.521	37.290	0.517
722.000	432.186	79.981	19.992	99.964	19.514	37.688	0.499
722.500	432.456	79.982	19.992	99.962	19.509	38.045	0.481
723.000	432.710	79.981	19.991	99.957	19.506	38.190	0.502
723.500	432.977	79.981	19.991	99.958	19.487	39.432	0.522
724.000	433.228	79.982	19.994	99.962	19.486	39.488	0.519
724.500	433.491	79.981	19.992	99.964	19.473	40.337	0.516
725.000	433.754	79.983	19.992	99.967	19.473	40.285	0.520
725.500	434.004	79.982	19.992	99.968	19.460	41.142	0.519
726.000	434.274	79.981	19.991	99.968	19.450	41.781	0.517
726.500	434.510	79.981	19.992	99.962	19.438	42.513	0.513
727.000	434.777	79.981	19.992	99.959	19.429	43.125	0.504
727.500	435.017	79.982	19.993	99.954	19.422	43.534	0.505
728.000	435.259	79.982	19.993	99.953	19.408	44.408	0.495
728.500	435.510	79.982	19.993	99.951	19.402	44.836	0.488
729.000	435.753	79.981	19.992	99.951	19.389	45.663	0.493
729.500	436.012	79.982	19.993	99.951	19.380	46.213	0.498
730.000	436.295	79.981	19.992	99.951	19.371	46.794	0.522
730.500	436.540	79.981	19.993	99.952	19.357	47.668	0.535
731.000	436.787	79.982	19.993	99.952	19.347	48.289	0.510
731.500	437.053	79.981	19.993	99.951	19.338	48.874	0.503
732.000	437.268	79.982	19.994	99.951	19.331	49.348	0.497
732.500	437.546	79.980	19.993	99.951	19.318	50.165	0.487
733.000	437.802	79.983	19.995	99.951	19.304	51.038	0.513
733.500	438.089	79.982	19.993	99.951	19.299	51.338	0.539
734.000	438.315	79.982	19.992	99.951	19.287	52.140	0.528
734.500	438.563	79.982	19.993	99.952	19.267	53.380	0.494
735.000	438.821	79.983	19.994	99.951	19.258	53.962	0.490
735.500	439.064	79.981	19.992	99.951	19.248	54.610	0.503
736.000	439.358	79.982	19.993	99.951	19.240	55.067	0.519
736.500	439.596	79.981	19.993	99.951	19.224	56.126	0.535
737.000	439.844	79.982	19.994	99.951	19.212	56.852	0.509
737.500	440.095	79.980	19.991	99.952	19.197	57.793	0.492
738.000	440.376	79.982	19.993	99.948	19.184	58.619	0.515
738.500	440.635	79.982	19.993	99.942	19.176	59.143	0.536
739.000	440.887	79.982	19.994	99.938	19.162	60.050	0.525
739.500	441.109	79.981	19.992	99.938	19.146	61.029	0.492
740.000	441.376	79.983	19.993	99.934	19.138	61.580	0.482
740.500	441.619	79.983	19.993	99.934	19.122	62.607	0.500
741.000	441.825	79.981	19.994	99.935	19.111	63.288	0.479
741.500	442.087	79.984	19.993	99.934	19.099	64.056	0.458
742.000	442.374	79.981	19.992	99.929	19.086	64.858	0.509
742.500	442.616	79.982	19.993	99.932	19.067	66.057	0.540
743.000	442.854	79.981	19.991	99.933	19.057	66.680	0.505
743.500	443.119	79.981	19.992	99.930	19.042	67.611	0.491
744.000	443.367	79.982	19.993	99.928	19.030	68.424	0.508
744.500	443.632	79.981	19.993	99.928	19.014	69.396	0.513
745.000	443.887	79.983	19.993	99.922	18.999	70.381	0.517
745.500	444.145	79.982	19.993	99.916	18.986	71.214	0.516
746.000	444.360	79.985	19.993	99.916	18.966	72.436	0.493
746.500	444.668	79.983	19.992	99.915	18.952	73.323	0.498
747.000	444.923	79.984	19.992	99.913	18.939	74.187	0.543
747.500	445.163	79.984	19.993	99.912	18.924	75.136	0.529
748.000	445.396	79.984	19.993	99.912	18.905	76.350	0.484
748.500	445.659	79.983	19.992	99.912	18.885	77.587	0.484
749.000	445.872	79.983	19.994	99.911	18.875	78.210	0.486
749.500	446.154	79.984	19.993	99.911	18.864	78.948	0.486
750.000	446.409	79.985	19.992	99.911	18.840	80.441	0.516
750.500	446.655	79.984	19.992	99.909	18.830	81.099	0.519
751.000	446.896	79.984	19.994	99.908	18.805	82.683	0.494
751.500	447.144	79.983	19.992	99.908	18.797	83.184	0.488
752.000	447.382	79.984	19.993	99.906	18.777	84.429	0.488
752.500	447.642	79.983	19.993	99.903	18.761	85.466	0.492
753.000	447.913	79.984	19.993	99.898	18.742	86.666	0.514
753.500	448.146	79.983	19.992	99.892	18.721	87.967	0.518
754.000	448.407	79.983	19.993	99.885	18.707	88.859	0.499
754.500	448.711	79.985	19.994	99.880	18.691	89.854	0.529
755.000	448.948	79.984	19.994	99.876	18.673	91.035	0.552
755.500	449.228	79.983	19.993	99.875	18.649	92.539	0.529
756.000	449.445	79.981	19.994	99.874	18.633	93.566	0.507
756.500	449.700	79.982	19.992	99.873	18.615	94.672	0.484
757.000	449.975	79.983	19.992	99.874	18.600	95.657	0.501
757.500	450.209	79.983	19.994	99.876	18.574	97.301	0.520
758.000	450.494	79.983	19.994	99.877	18.551	98.779	0.515
758.500	450.738	79.982	19.992	99.878	18.536	99.688	0.524
759.000	450.970	79.983	19.994	99.878	18.523	100.536	0.503
759.500	451.207	79.982	19.993	99.878	18.492	102.461	0.472
760.000	451.501	79.981	19.992	99.876	18.473	103.672	0.499
760.500	451.719	79.982	19.994	99.873	18.453	104.953	0.521
761.000	451.995	79.982	19.994	99.870	18.436	105.994	0.503
761.500	452.260	79.981	19.993	99.871	18.413	107.462	0.518
762.000	452.524	79.981	19.992	99.870	18.387	109.117	0.535
762.500	452.772	79.982	19.992	99.868	18.374	109.964	0.520
763.000	453.009	79.984	19.993	99.866	18.354	111.238	0.499
763.500	453.284	79.983	19.994	99.863	18.330	112.744	0.499
764.000	453.552	79.982	19.993	99.856	18.305	114.332	0.528
764.500	453.808	79.983	19.993	99.850	18.286	115.525	0.533
765.000	454.101	79.982	19.992	99.845	18.265	116.862	0.536
765.500	454.325	79.984	19.993	99.840	18.243	118.237	0.533
766.000	454.591	79.982	19.993	99.838	18.223	119.478	0.504
766.500	454.831	79.983	19.993	99.836	18.206	120.597	0.498
767.000	455.106	79.984	19.993	99.836	18.176	122.500	0.510
767.500	455.378	79.983	19.992	99.836	18.158	123.633	0.531
768.000	455.598	79.984	19.992	99.836	18.136	125.000	0.520
768.500	455.916	79.983	19.991	99.836	18.109	126.710	0.515
769.000	456.152	79.983	19.991	99.835	18.087	128.124	0.545
769.500	456.356	79.984	19.993	99.830	18.063	129.591	0.497
770.000	456.646	79.984	19.992	99.823	18.044	130.850	0.467
770.500	456.877	79.984	19.991	99.816	18.018	132.463	0.507
771.000	457.140	79.983	19.992	99.811	17.996	133.885	0.507
771.500	457.405	79.985	19.992	99.805	17.969	135.531	0.511
772.000	457.653	79.983	19.991	99.803	17.954	136.486	0.520
772.500	457.928	79.984	19.991	99.802	17.930	138.011	0.518
773.000	458.178	79.985	19.993	99.801	17.909	139.325	0.524
773.500	458.472	79.985	19.991	99.799	17.877	141.351	0.534
774.000	458.706	79.984	19.991	99.797	17.861	142.380	0.535
774.500	458.958	79.983	19.991	99.797	17.835	144.042	0.507
775.000	459.225	79.986	19.991	99.794	17.810	145.577	0.503
775.500	459.489	79.983	19.992	99.795	17.780	147.464	0.525
776.000	459.717	79.983	19.991	99.794	17.763	148.588	0.512
776.500	459.985	79.984	19.992	99.789	17.733	150.420	0.494
777.000	460.240	79.984	19.992	99.782	17.706	152.134	0.510
777.500	460.521	79.985	19.991	99.778	17.690	153.186	0.529
778.000	460.790	79.984	19.991	99.771	17.665	154.760	0.543
778.500	461.008	79.984	19.992	99.764	17.644	156.075	0.518
779.000	461.285	79.984	19.992	99.762	17.622	157.425	0.491
779.500	461.540	79.984	19.991	99.762	17.591	159.362	0.514
780.000	461.790	79.985	19.993	99.760	17.572	160.578	0.518
780.500	462.063	79.983	19.991	99.758	17.548	162.114	0.513
781.000	462.357	79.983	19.992	99.756	17.530	163.238	0.545
781.500	462.563	79.984	19.993	99.755	17.502	164.975	0.534
782.000	462.834	79.985	19.992	99.752	17.477	166.556	0.488
782.500	463.100	79.985	19.992	99.746	17.456	167.908	0.506
783.000	463.339	79.983	19.991	99.740	17.427	169.701	0.521
783.500	463.578	79.983	19.992	99.733	17.404	171.187	0.492
784.000	463.881	79.983	19.992	99.726	17.388	172.147	0.511
784.500	464.102	79.983	19.992	99.721	17.360	173.962	0.533
785.000	464.364	79.981	19.991	99.718	17.337	175.394	0.503
785.500	464.654	79.982	19.992	99.716	17.318	176.572	0.517
786.000	464.908	79.982	19.992	99.714	17.294	178.082	0.548
786.500	465.152	79.981	19.992	99.709	17.272	179.522	0.521
787.000	465.404	79.982	19.992	99.707	17.249	180.949	0.497
787.500	465.667	79.984	19.992	99.702	17.237	181.651	0.505
788.000	465.903	79.983	19.993	99.695	17.213	183.204	0.508
788.500	466.188	79.981	19.991	99.690	17.189	184.729	0.510
789.000	466.415	79.982	19.992	99.685	17.165	186.186	0.516
789.500	466.673	79.982	19.993	99.683	17.149	187.248	0.498
790.000	466.967	79.982	19.993	99.672	17.128	188.591	0.518
790.500	467.186	79.982	19.992	99.667	17.111	189.603	0.533
791.000	467.466	79.981	19.991	99.664	17.096	190.582	0.506
791.500	467.732	79.982	19.991	99.664	17.073	192.037	0.522
792.000	467.994	79.981	19.991	99.656	17.058	192.914	0.537
792.500	468.223	79.983	19.993	99.653	17.038	194.142	0.510
793.000	468.498	79.983	19.992	99.644	17.027	194.868	0.498
793.500	468.763	79.982	19.992	99.636	17.011	195.911	0.522
794.000	469.026	79.981	19.993	99.632	16.994	196.956	0.534
794.500	469.325	79.982	19.991	99.622	16.977	198.038	0.545
795.000	469.526	79.982	19.992	99.614	16.968	198.656	0.531
795.500	469.812	79.982	19.993	99.616	16.952	199.598	0.493
796.000	470.093	79.981	19.991	99.621	16.935	200.711	0.527
796.500	470.323	79.981	19.992	99.609	16.925	201.347	0.539
797.000	470.581	79.982	19.992	99.605	16.916	201.898	0.500
797.500	470.846	79.983	19.991	99.616	16.901	202.828	0.506
798.000	471.107	79.982	19.992	99.613	16.889	203.554	0.525
798.500	471.332	79.981	19.991	99.595	16.876	204.382	0.506
799.000	471.594	79.981	19.993	99.598	16.870	204.741	0.486
799.500	471.860	79.982	19.991	99.599	16.862	205.238	0.507
800.000	472.124	79.982	19.991	99.580	16.857	205.587	0.529
800.500	472.405	79.981	19.990	99.579	16.849	206.092	0.537
801.000	472.672	79.982	19.992	99.586	16.841	206.573	0.546
801.500	472.944	79.983	19.993	99.572	16.833	207.054	0.544
802.000	473.161	79.983	19.993	99.568	16.830	207.260	0.514
802.500	473.406	79.982	19.992	99.575	16.829	207.343	0.476
803.000	473.674	79.984	19.992	99.556	16.831	207.206	0.488
803.500	473.951	79.983	19.992	99.543	16.831	207.221	0.529
804.000	474.255	79.981	19.991	99.554	16.827	207.492	0.563
804.500	474.476	79.982	19.991	99.545	16.828	207.385	0.553
805.000	474.795	79.982	19.991	99.538	16.833	207.070	0.532
805.500	474.983	79.984	19.992	99.557	16.837	206.818	0.523
806.000	475.254	79.982	19.992	99.558	16.834	207.028	0.483
806.500	475.483	79.982	19.992	99.544	16.837	206.857	0.479
807.000	475.798	79.983	19.993	99.552	16.850	206.029	0.522
807.500	476.039	79.981	19.993	99.557	16.857	205.580	0.550
808.000	476.276	79.981	19.992	99.541	16.869	204.843	0.517
808.500	476.557	79.983	19.993	99.534	16.877	204.339	0.498
809.000	476.804	79.982	19.992	99.536	16.888	203.617	0.523
809.500	477.048	79.982	19.993	99.531	16.900	202.853	0.509
810.000	477.326	79.982	19.994	99.523	16.912	202.120	0.507
810.500	477.585	79.981	19.991	99.519	16.925	201.275	0.529
811.000	477.838	79.982	19.992	99.524	16.940	200.372	0.524
811.500	478.087	79.981	19.992	99.522	16.963	198.944	0.507
812.000	478.354	79.982	19.992	99.515	16.977	198.053	0.509
812.500	478.610	79.983	19.992	99.515	17.001	196.551	0.520
813.000	478.855	79.982	19.993	99.520	17.019	195.432	0.512
813.500	479.125	79.980	19.993	99.518	17.036	194.332	0.508
814.000	479.396	79.982	19.993	99.518	17.056	193.052	0.528
814.500	479.608	79.981	19.992	99.518	17.084	191.333	0.512
815.000	479.846	79.983	19.991	99.517	17.107	189.842	0.466
815.500	480.152	79.980	19.991	99.516	17.135	188.096	0.497
816.000	480.378	79.982	19.993	99.517	17.160	186.569	0.538
816.500	480.679	79.981	19.993	99.517	17.188	184.751	0.529
817.000	480.895	79.981	19.993	99.519	17.217	182.967	0.522
817.500	481.144	79.982	19.994	99.520	17.253	180.658	0.491
818.000	481.407	79.982	19.993	99.520	17.277	179.180	0.489
818.500	481.642	79.982	19.993	99.521	17.313	176.883	0.505
819.000	481.951	79.982	19.993	99.521	17.348	174.670	0.521
819.500	482.162	79.981	19.993	99.523	17.378	172.823	0.532
820.000	482.429	79.980	19.993	99.525	17.412	170.650	0.499
820.500	482.670	79.980	19.992	99.525	17.446	168.508	0.492
821.000	482.931	79.981	19.992	99.525	17.482	166.232	0.505
821.500	483.174	79.980	19.994	99.530	17.526	163.495	0.503
822.000	483.447	79.981	19.994	99.537	17.562	161.199	0.510
822.500	483.722	79.981	19.993	99.542	17.597	159.015	0.532
823.000	483.944	79.980	19.992	99.549	17.637	156.501	0.523
823.500	484.226	79.981	19.993	99.556	17.673	154.230	0.501
824.000	484.501	79.982	19.993	99.558	17.713	151.687	0.530
824.500	484.746	79.980	19.992	99.559	17.755	149.022	0.538
825.000	484.985	79.980	19.992	99.562	17.792	146.699	0.502
825.500	485.243	79.982	19.993	99.568	17.837	143.846	0.491
826.000	485.547	79.982	19.992	99.574	17.878	141.272	0.530
826.500	485.754	79.985	19.993	99.580	17.927	138.205	0.537
827.000	486.035	79.982	19.992	99.588	17.967	135.665	0.500
827.500	486.274	79.981	19.992	99.595	18.011	132.874	0.504
828.000	486.531	79.982	19.993	99.598	18.050	130.440	0.508
828.500	486.765	79.982	19.992	99.602	18.092	127.746	0.493
829.000	487.041	79.983	19.993	99.606	18.138	124.862	0.500
829.500	487.292	79.984	19.992	99.609	18.178	122.340	0.518
830.000	487.562	79.982	19.992	99.617	18.226	119.282	0.524
830.500	487.855	79.985	19.993	99.624	18.265	116.849	0.542
831.000	488.069	79.983	19.992	99.631	18.306	114.255	0.535
831.500	488.333	79.985	19.992	99.636	18.354	111.181	0.493
832.000	488.570	79.983	19.992	99.641	18.396	108.554	0.489
832.500	488.835	79.984	19.992	99.643	18.437	105.971	0.501
833.000	489.114	79.984	19.992	99.651	18.478	103.393	0.523
833.500	489.338	79.985	19.992	99.658	18.522	100.611	0.524
834.000	489.599	79.983	19.992	99.665	18.567	97.724	0.494
834.500	489.866	79.983	19.992	99.674	18.607	95.226	0.507
835.000	490.110	79.983	19.992	99.681	18.644	92.884	0.519
835.500	490.382	79.983	19.992	99.686	18.687	90.106	0.513
836.000	490.649	79.982	19.992	99.694	18.729	87.496	0.528
836.500	490.883	79.982	19.992	99.701	18.766	85.100	0.520
837.000	491.170	79.982	19.993	99.708	18.802	82.830	0.511
837.500	491.438	79.982	19.992	99.715	18.840	80.468	0.538
838.000	491.656	79.982	19.992	99.719	18.882	77.797	0.520
838.500	491.915	79.982	19.993	99.728	18.917	75.550	0.481
839.000	492.171	79.981	19.992	99.737	18.955	73.166	0.496
839.500	492.460	79.981	19.992	99.745	18.996	70.548	0.530
840.000	492.681	79.982	19.992	99.753	19.024	68.791	0.528
840.500	492.982	79.983	19.993	99.760	19.062	66.394	0.516
841.000	493.225	79.983	19.992	99.761	19.093	64.419	0.533
841.500	493.508	79.983	19.993	99.765	19.126	62.309	0.535
842.000	493.753	79.982	19.993	99.772	19.162	60.049	0.527
842.500	494.004	79.982	19.993	99.780	19.194	58.021	0.512
843.000	494.254	79.982	19.993	99.790	19.224	56.081	0.498
843.500	494.517	79.983	19.993	99.802	19.259	53.869	0.507
844.000	494.759	79.983	19.992	99.813	19.284	52.278	0.509
844.500	495.028	79.983	19.993	99.820	19.317	50.208	0.508
845.000	495.286	79.982	19.993	99.826	19.348	48.219	0.519
845.500	495.533	79.982	19.994	99.830	19.371	46.808	0.516
846.000	495.773	79.982	19.994	99.833	19.398	45.050	0.496
846.500	496.021	79.982	19.993	99.834	19.426	43.272	0.488
847.000	496.314	79.982	19.993	99.834	19.450	41.793	0.515
847.500	496.529	79.983	19.994	99.839	19.476	40.092	0.525
848.000	496.815	79.983	19.994	99.846	19.497	38.814	0.504
848.500	497.069	79.983	19.994	99.853	19.519	37.376	0.520
849.000	497.342	79.983	19.993	99.860	19.551	35.372	0.533
849.500	497.613	79.982	19.993	99.868	19.572	34.027	0.536
850.000	497.872	79.984	19.994	99.873	19.592	32.768	0.537
850.500	498.101	79.984	19.993	99.874	19.610	31.601	0.509
851.000	498.334	79.984	19.992	99.873	19.631	30.267	0.476
851.500	498.605	79.983	19.993	99.875	19.653	28.915	0.483
852.000	498.827	79.984	19.993	99.877	19.667	27.965	0.498
852.500	499.112	79.984	19.993	99.881	19.688	26.691	0.500
853.000	499.367	79.984	19.993	99.887	19.710	25.281	0.524
853.500	499.619	79.984	19.994	99.894	19.724	24.354	0.524
854.000	499.868	79.985	19.992	99.899	19.744	23.094	0.504
854.500	500.120	79.985	19.993	99.906	19.759	22.136	0.501
855.000	500.359	79.985	19.993	99.909	19.773	21.249	0.495
855.500	500.622	79.985	19.993	99.916	19.791	20.116	0.496
856.000	500.861	79.986	19.992	99.922	19.800	19.549	0.503
856.500	501.126	79.985	19.992	99.927	19.815	18.594	0.503
857.000	501.379	79.987	19.992	99.931	19.829	17.701	0.511
857.500	501.615	79.986	19.992	99.933	19.836	17.281	0.503
858.000	501.876	79.986	19.992	99.933	19.849	16.451	0.493
858.500	502.133	79.986	19.991	99.935	19.863	15.568	0.508
859.000	502.387	79.984	19.991	99.938	19.877	14.631	0.514
859.500	502.640	79.984	19.993	99.942	19.885	14.150	0.508
860.000	502.875	79.985	19.993	99.949	19.895	13.517	0.497
860.500	503.158	79.982	19.991	99.952	19.907	12.746	0.503
861.000	503.430	79.985	19.992	99.953	19.913	12.370	0.537
861.500	503.666	79.983	19.991	99.953	19.922	11.787	0.532
862.000	503.910	79.983	19.991	99.954	19.926	11.574	0.494
862.500	504.153	79.983	19.990	99.953	19.940	10.672	0.484
863.000	504.401	79.983	19.993	99.952	19.946	10.267	0.489
863.500	504.702	79.984	19.992	99.953	19.958	9.538	0.520
864.000	504.946	79.983	19.992	99.955	19.959	9.474	0.547
864.500	505.168	79.982	19.992	99.959	19.966	8.979	0.506
865.000	505.458	79.982	19.992	99.959	19.973	8.577	0.489
865.500	505.681	79.982	19.993	99.961	19.977	8.331	0.513
866.000	505.964	79.982	19.992	99.967	19.986	7.706	0.509
866.500	506.184	79.983	19.992	99.967	19.988	7.618	0.504
867.000	506.471	79.983	19.992	99.967	19.990	7.461	0.505
867.500	506.713	79.982	19.991	99.968	19.995	7.139	0.519
868.000	506.966	79.983	19.993	99.967	19.997	7.054	0.512
868.500	507.216	79.982	19.993	99.964	20.009	6.295	0.499
869.000	507.470	79.982	19.992	99.969	20.005	6.502	0.504
869.500	507.711	79.982	19.992	99.974	20.012	6.097	0.499
870.000	507.963	79.982	19.991	99.977	20.012	6.066	0.494
870.500	508.261	79.982	19.993	99.978	20.023	5.407	0.521
871.000	508.489	79.981	19.992	99.981	20.023	5.416	0.538
871.500	508.737	79.982	19.992	99.978	20.027	5.155	0.501
872.000	508.996	79.983	19.992	99.974	20.026	5.181	0.491
872.500	509.243	79.984	19.992	99.976	20.031	4.866	0.507
873.000	509.501	79.983	19.992	99.983	20.032	4.826	0.506
873.500	509.743	79.983	19.993	99.984	20.030	4.943	0.503
874.000	509.989	79.983	19.993	99.986	20.035	4.635	0.494
874.500	510.257	79.982	19.992	99.991	20.035	4.595	0.501
875.000	510.486	79.983	19.992	99.991	20.037	4.528	0.505
875.500	510.748	79.984	19.993	99.991	20.040	4.321	0.494
876.000	510.986	79.984	19.992	99.991	20.040	4.288	0.496
876.500	511.268	79.984	19.993	99.991	20.043	4.093	0.510
877.000	511.503	79.982	19.992	99.990	20.041	4.222	0.518
877.500	511.738	79.984	19.993	99.990	20.043	4.100	0.494
878.000	511.970	79.984	19.992	99.990	20.047	3.846	0.469
878.500	512.235	79.983	19.992	99.991	20.042	4.179	0.482
879.000	512.483	79.983	19.993	99.991	20.043	4.126	0.505
879.500	512.733	79.984	19.992	99.992	20.046	3.938	0.505
880.000	513.013	79.983	19.992	99.992	20.049	3.758	0.514
880.500	513.228	79.982	19.992	99.992	20.048	3.791	0.512
881.000	513.512	79.983	19.992	99.992	20.048	3.788	0.497
881.500	513.722	79.982	19.992	99.992	20.050	3.696	0.497
882.000	513.983	79.982	19.993	99.992	20.051	3.593	0.482
882.500	514.278	79.982	19.993	99.993	20.052	3.562	0.513
883.000	514.523	79.983	19.992	99.993	20.049	3.743	0.548
883.500	514.752	79.983	19.992	99.993	20.049	3.722	0.507
884.000	515.020	79.983	19.991	99.994	20.052	3.532	0.485
884.500	515.258	79.983	19.993	99.994	20.052	3.541	0.502
885.000	515.571	79.983	19.992	99.994	20.048	3.822	0.529
885.500	515.801	79.982	19.992	99.994	20.050	3.660	0.547
886.000	516.073	79.982	19.992	99.992	20.053	3.479	0.522
886.500	516.325	79.983	19.992	99.992	20.056	3.317	0.513
887.000	516.553	79.982	19.992	99.992	20.054	3.415	0.502
887.500	516.803	79.985	19.992	99.992	20.049	3.757	0.480
888.000	517.065	79.982	19.992	99.992	20.050	3.650	0.495
888.500	517.303	79.984	19.992	99.994	20.046	3.914	0.505
889.000	517.559	79.984	19.991	99.995	20.055	3.344	0.496
889.500	517.826	79.983	19.991	99.994	20.055	3.322	0.509
890.000	518.076	79.984	19.992	99.994	20.055	3.351	0.520
890.500	518.302	79.982	19.992	99.994	20.052	3.557	0.497
891.000	518.567	79.981	19.991	99.995	20.050	3.695	0.483
891.500	518.835	79.982	19.992	99.994	20.049	3.726	0.511
892.000	519.089	79.982	19.991	99.995	20.053	3.510	0.527
892.500	519.372	79.983	19.992	99.996	20.053	3.472	0.530
893.000	519.579	79.982	19.992	99.996	20.054	3.429	0.514
893.500	519.827	79.983	19.991	99.995	20.055	3.369	0.472
894.000	520.085	79.982	19.992	99.995	20.052	3.520	0.481
894.500	520.311	79.984	19.992	99.995	20.054	3.412	0.495
895.000	520.592	79.980	19.992	99.994	20.056	3.293	0.496
895.500	520.873	79.982	19.992	99.994	20.052	3.534	0.534
896.000	521.093	79.982	19.992	99.995	20.052	3.543	0.532
896.500	521.353	79.983	19.992	99.995	20.055	3.370	0.490
897.000	521.604	79.983	19.992	99.995	20.056	3.274	0.495
897.500	521.843	79.978	19.992	99.995	20.057	3.205	0.500
898.000	522.081	79.982	19.992	99.995	20.057	3.210	0.484
898.500	522.377	79.983	19.992	99.995	20.057	3.212	0.506
899.000	522.607	79.982	19.992	99.996	20.060	3.011	0.530
899.500	522.849	79.981	19.992	99.996	20.056	3.318	0.499
900.000	523.112	79.981	19.992	99.996	20.057	3.237	0.489
900.500	523.362	79.983	19.992	99.996	20.055	3.368	0.509
901.000	523.619	79.983	19.992	99.995	20.055	3.336	0.510
901.500	523.899	79.982	19.992	99.995	20.057	3.224	0.522
902.000	524.151	79.982	19.992	99.995	20.055	3.322	0.535
902.500	524.400	79.981	19.992	99.997	20.054	3.405	0.517
903.000	524.639	79.981	19.993	99.998	20.054	3.405	0.495
903.500	524.866	79.982	19.991	99.998	20.051	3.591	0.477
904.000	525.117	79.982	19.993	99.998	20.056	3.303	0.472
904.500	525.410	79.982	19.992	99.997	20.053	3.472	0.511
905.000	525.602	79.983	19.992	99.994	20.049	3.712	0.515
905.500	525.885	79.982	19.992	99.994	20.051	3.601	0.480
906.000	526.099	79.981	19.993	99.993	20.055	3.324	0.486
906.500	526.386	79.980	19.992	99.991	20.057	3.196	0.499
907.000	526.592	79.983	19.992	99.991	20.054	3.389	0.497
907.500	526.890	79.982	19.992	99.992	20.055	3.358	0.498
908.000	527.132	79.984	19.993	99.991	20.055	3.325	0.522
908.500	527.361	79.985	19.993	99.991	20.058	3.161	0.506
909.000	527.636	79.983	19.992	99.993	20.055	3.351	0.488
909.500	527.885	79.983	19.992	99.992	20.056	3.306	0.514
910.000	528.147	79.984	19.992	99.991	20.055	3.372	0.518
910.500	528.417	79.984	19.993	99.991	20.055	3.379	0.522
911.000	528.681	79.983	19.993	99.991	20.058	3.177	0.533
911.500	528.956	79.984	19.992	99.990	20.056	3.310	0.536
912.000	529.167	79.983	19.992	99.989	20.053	3.482	0.512
912.500	529.451	79.987	19.993	99.989	20.060	3.027	0.491
913.000	529.698	79.985	19.993	99.988	20.057	3.215	0.513
913.500	529.931	79.983	19.993	99.988	20.058	3.179	0.505
914.000	530.182	79.984	19.993	99.988	20.054	3.444	0.482
914.500	530.465	79.985	19.992	99.989	20.056	3.270	0.509
915.000	530.722	79.985	19.994	99.989	20.055	3.348	0.537
915.500	530.972	79.983	19.993	99.990	20.062	2.923	0.524
916.001	531.214	79.983	19.992	99.990	20.057	3.256	0.499
916.500	531.502	79.983	19.992	99.989	20.053	3.477	0.511
917.000	531.726	79.984	19.993	99.990	20.055	3.329	0.521
917.500	531.950	79.984	19.993	99.986	20.060	3.055	0.480
918.000	532.203	79.982	19.992	99.985	20.058	3.153	0.462
918.500	532.469	79.985	19.993	99.984	20.050	3.675	0.497
919.000	532.738	79.985	19.993	99.985	20.057	3.196	0.527
919.500	532.974	79.984	19.992	99.981	20.056	3.284	0.520
920.000	533.209	79.982	19.992	99.984	20.057	3.224	0.488
920.500	533.504	79.982	19.992	99.985	20.054	3.405	0.501
921.000	533.727	79.984	19.992	99.986	20.056	3.272	0.524
921.500	534.028	79.982	19.992	99.985	20.054	3.391	0.521
922.000	534.282	79.985	19.992	99.988	20.053	3.460	0.540
922.500	534.552	79.983	19.992	99.989	20.058	3.193	0.539
923.000	534.785	79.984	19.993	99.987	20.058	3.163	0.513
923.500	535.078	79.984	19.992	99.987	20.056	3.289	0.514
924.000	535.301	79.983	19.992	99.987	20.058	3.136	0.521
924.500	535.572	79.983	19.993	99.987	20.057	3.215	0.505
925.000	535.781	79.984	19.992	99.988	20.056	3.261	0.487
925.500	536.077	79.980	19.992	99.989	20.057	3.242	0.492
926.000	536.320	79.984	19.993	99.989	20.056	3.308	0.522
926.500	536.578	79.981	19.992	99.989	20.059	3.118	0.520
927.000	536.812	79.984	19.993	99.990	20.055	3.324	0.496
927.500	537.088	79.982	19.993	99.990	20.051	3.620	0.501
928.000	537.338	79.985	19.992	99.991	20.052	3.543	0.518
928.500	537.589	79.983	19.992	99.991	20.054	3.437	0.514
929.000	537.859	79.984	19.993	99.991	20.057	3.230	0.511
929.500	538.105	79.983	19.992	99.991	20.060	3.010	0.518
930.000	538.362	79.984	19.994	99.991	20.055	3.349	0.509
930.500	538.608	79.983	19.993	99.990	20.056	3.263	0.503
931.000	538.852	79.987	19.994	99.989	20.058	3.144	0.496
931.500	539.139	79.983	19.994	99.989	20.057	3.212	0.511
932.000	539.411	79.984	19.992	99.989	20.058	3.175	0.545
932.500	539.639	79.986	19.993	99.990	20.054	3.417	0.529
933.000	539.885	79.986	19.993	99.989	20.059	3.105	0.487
933.500	540.172	79.986	19.993	99.991	20.055	3.367	0.504
934.000	540.418	79.985	19.993	99.991	20.059	3.080	0.533
934.500	540.645	79.983	19.993	99.990	20.054	3.413	0.503
935.000	540.879	79.986	19.993	99.990	20.053	3.512	0.466
935.500	541.139	79.985	19.994	99.990	20.057	3.243	0.477
936.000	541.371	79.984	19.993	99.988	20.052	3.541	0.493
936.500	541.688	79.983	19.993	99.987	20.058	3.146	0.521
937.000	541.917	79.985	19.993	99.987	20.055	3.343	0.548
937.500	542.205	79.986	19.993	99.987	20.055	3.322	0.531
938.000	542.440	79.984	19.993	99.987	20.057	3.253	0.520
938.500	542.721	79.984	19.993	99.987	20.053	3.503	0.520
939.000	542.933	79.986	19.994	99.988	20.056	3.269	0.504
939.500	543.210	79.984	19.992	99.988	20.058	3.179	0.491
940.000	543.442	79.985	19.994	99.988	20.058	3.146	0.499
940.500	543.688	79.985	19.993	99.989	20.056	3.303	0.493
941.000	543.928	79.981	19.993	99.991	20.058	3.134	0.482
941.500	544.191	79.981	19.993	99.991	20.058	3.136	0.495
942.000	544.438	79.984	19.993	99.991	20.054	3.386	0.506
942.500	544.699	79.984	19.993	99.991	20.061	2.982	0.509
943.000	544.979	79.984	19.993	99.991	20.057	3.241	0.525
943.500	545.221	79.983	19.991	99.989	20.055	3.343	0.532
944.000	545.506	79.982	19.991	99.989	20.061	2.998	0.525
944.500	545.710	79.984	19.993	99.990	20.058	3.150	0.508
945.000	545.970	79.983	19.992	99.990	20.057	3.250	0.476
945.500	546.263	79.983	19.994	99.991	20.055	3.367	0.508
946.000	546.499	79.984	19.992	99.992	20.055	3.350	0.541
946.500	546.780	79.982	19.992	99.992	20.055	3.384	0.523
947.000	546.995	79.980	19.992	99.992	20.053	3.453	0.506
947.500	547.270	79.986	19.992	99.992	20.062	2.939	0.493
948.000	547.510	79.983	19.992	99.992	20.059	3.129	0.503
948.500	547.775	79.982	19.992	99.992	20.058	3.163	0.510
949.000	548.003	79.984	19.992	99.993	20.053	3.465	0.499
949.500	548.263	79.982	19.992	99.993	20.056	3.282	0.490
950.000	548.516	79.983	19.992	99.994	20.056	3.272	0.501
950.500	548.796	79.984	19.991	99.995	20.056	3.319	0.523
951.000	549.041	79.983	19.992	99.995	20.059	3.072	0.529
951.500	549.269	79.983	19.992	99.995	20.057	3.222	0.499
952.000	549.527	79.984	19.992	99.995	20.055	3.348	0.479
952.500	549.833	79.981	19.992	99.995	20.059	3.101	0.525
953.000	550.082	79.982	19.992	99.994	20.055	3.360	0.559
953.500	550.363	79.982	19.992	99.994	20.055	3.344	0.543
954.000	550.606	79.981	19.992	99.994	20.054	3.389	0.527
954.500	550.831	79.983	19.993	99.994	20.054	3.386	0.496
955.000	551.085	79.982	19.992	99.994	20.053	3.457	0.473
955.500	551.359	79.981	19.991	99.994	20.057	3.253	0.503
956.000	551.623	79.982	19.991	99.993	20.059	3.112	0.533
956.500	551.873	79.985	19.992	99.994	20.055	3.360	0.526
957.000	552.129	79.984	19.992	99.994	20.058	3.153	0.511
957.500	552.404	79.983	19.992	99.993	20.059	3.096	0.518
958.000	552.642	79.982	19.992	99.993	20.057	3.243	0.522
958.500	552.920	79.982	19.992	99.993	20.058	3.132	0.515
959.000	553.147	79.981	19.992	99.993	20.055	3.382	0.510
959.500	553.416	79.983	19.993	99.993	20.059	3.122	0.500
960.000	553.671	79.983	19.992	99.995	20.058	3.191	0.510
960.500	553.942	79.980	19.992	99.995	20.059	3.070	0.526
961.000	554.218	79.983	19.993	99.994	20.057	3.205	0.537
961.500	554.497	79.982	19.993	99.994	20.060	3.012	0.551
962.000	554.735	79.985	19.992	99.994	20.057	3.210	0.536
962.500	554.998	79.981	19.992	99.994	20.054	3.389	0.509
963.000	555.282	79.983	19.992	99.994	20.052	3.572	0.524
963.500	555.528	79.984	19.993	99.995	20.055	3.348	0.538
964.000	555.781	79.984	19.992	99.995	20.057	3.253	0.514
964.500	556.043	79.984	19.992	99.994	20.053	3.450	0.507
965.000	556.333	79.981	19.991	99.994	20.058	3.168	0.534
965.500	556.551	79.984	19.991	99.994	20.057	3.213	0.530
966.000	556.807	79.982	19.992	99.994	20.058	3.180	0.491
966.500	557.056	79.981	19.991	99.995	20.055	3.330	0.489
967.000	557.332	79.985	19.994	99.996	20.057	3.256	0.515
967.500	557.576	79.982	19.993	99.996	20.058	3.172	0.522
968.000	557.822	79.982	19.993	99.996	20.055	3.370	0.505
968.500	558.090	79.985	19.993	99.996	20.058	3.151	0.502
969.000	558.366	79.983	19.993	99.995	20.055	3.346	0.529
969.500	558.603	79.983	19.993	99.995	20.058	3.172	0.528
970.000	558.885	79.985	19.993	99.995	20.057	3.201	0.516
970.500	559.143	79.983	19.992	99.995	20.055	3.343	0.529
971.000	559.389	79.984	19.992	99.995	20.055	3.362	0.522
971.500	559.624	79.984	19.992	99.995	20.056	3.284	0.493
972.000	559.912	79.985	19.993	99.995	20.055	3.384	0.502
972.500	560.157	79.983	19.993	99.995	20.052	3.570	0.528
973.000	560.428	79.981	19.992	99.993	20.053	3.455	0.524
973.500	560.690	79.982	19.993	99.993	20.054	3.389	0.524
974.000	560.950	79.983	19.991	99.993	20.059	3.093	0.528
974.500	561.208	79.983	19.991	99.993	20.057	3.232	0.520
975.000	561.474	79.982	19.992	99.992	20.052	3.513	0.521
975.500	561.758	79.982	19.992	99.992	20.052	3.569	0.537
976.000	562.001	79.983	19.992	99.992	20.053	3.474	0.539
976.500	562.225	79.981	19.991	99.991	20.055	3.363	0.498
977.000	562.499	79.983	19.993	99.990	20.053	3.455	0.483
977.500	562.779	79.983	19.992	99.989	20.055	3.336	0.526
978.000	563.018	79.984	19.993	99.989	20.063	2.856	0.537
978.500	563.261	79.981	19.993	99.990	20.062	2.930	0.501
979.000	563.528	79.983	19.992	99.991	20.059	3.117	0.496
979.500	563.802	79.982	19.992	99.991	20.057	3.213	0.525
980.000	564.031	79.983	19.992	99.992	20.056	3.260	0.522
980.500	564.302	79.984	19.991	99.992	20.059	3.086	0.501
981.000	564.585	79.983	19.992	99.992	20.056	3.287	0.527
981.500	564.806	79.983	19.993	99.992	20.061	2.999	0.529
982.000	565.104	79.985	19.993	99.992	20.063	2.865	0.512
982.500	565.356	79.985	19.993	99.992	20.059	3.079	0.534
983.000	565.605	79.984	19.993	99.992	20.060	3.061	0.526
983.500	565.878	79.984	19.993	99.993	20.062	2.922	0.511
984.000	566.127	79.983	19.993	99.993	20.060	3.063	0.522
984.500	566.367	79.982	19.993	99.991	20.056	3.317	0.506
985.000	566.630	79.982	19.991	99.991	20.055	3.351	0.496
985.500	566.899	79.983	19.991	99.992	20.059	3.080	0.518
986.000	567.130	79.982	19.993	99.991	20.061	2.956	0.516
986.500	567.397	79.983	19.991	99.991	20.059	3.079	0.498
987.000	567.650	79.981	19.992	99.992	20.057	3.222	0.509
987.500	567.919	79.982	19.992	99.992	20.058	3.142	0.522
988.000	568.196	79.986	19.992	99.991	20.054	3.405	0.534
988.500	568.451	79.984	19.993	99.991	20.057	3.239	0.538
989.000	568.714	79.984	19.992	99.991	20.059	3.120	0.525
989.500	568.940	79.984	19.992	99.991	20.057	3.253	0.504
990.000	569.260	79.983	19.991	99.990	20.057	3.242	0.517
990.500	569.479	79.984	19.992	99.990	20.060	3.023	0.542
991.000	569.714	79.988	19.992	99.990	20.060	3.034	0.497
991.500	570.034	79.985	19.993	99.990	20.060	3.008	0.504
992.000	570.286	79.983	19.992	99.990	20.060	3.032	0.563
992.500	570.548	79.981	19.991	99.990	20.060	3.053	0.543
993.000	570.790	79.983	19.993	99.990	20.060	3.035	0.509
993.500	571.038	79.985	19.993	99.990	20.057	3.220	0.497
994.000	571.322	79.985	19.992	99.991	20.058	3.137	0.511
994.500	571.590	79.985	19.992	99.991	20.058	3.153	0.542
995.000	571.833	79.985	19.993	99.989	20.053	3.455	0.531
995.500	572.089	79.984	19.993	99.989	20.056	3.313	0.505
996.000	572.387	79.984	19.992	99.989	20.059	3.127	0.527
996.500	572.599	79.983	19.993	99.988	20.056	3.282	0.532
997.000	572.869	79.984	19.993	99.988	20.059	3.089	0.496
997.500	573.137	79.985	19.993	99.989	20.057	3.248	0.510
998.000	573.408	79.983	19.992	99.989	20.060	3.029	0.538
998.500	573.671	79.984	19.992	99.989	20.061	2.942	0.536
999.000	573.914	79.982	19.992	99.990	20.058	3.158	0.520
999.500	574.162	79.984	19.992	99.989	20.059	3.120	0.499
1000.000	574.478	79.983	19.993	99.987	20.055	3.346	0.528
1000.500	574.766	79.984	19.992	99.987	20.058	3.168	0.584
1001.000	574.974	79.984	19.992	99.986	20.055	3.353	0.550
1001.500	575.228	79.985	19.993	99.986	20.057	3.248	0.479
1002.000	575.508	79.984	19.992	99.985	20.057	3.243	0.498
1002.500	575.775	79.984	19.993	99.986	20.062	2.937	0.541
1003.000	575.995	79.983	19.993	99.986	20.059	3.110	0.517
1003.500	576.265	79.984	19.994	99.987	20.058	3.148	0.489
1004.000	576.544	79.983	19.993	99.987	20.063	2.854	0.519
1004.500	576.812	79.983	19.992	99.989	20.059	3.073	0.548
1005.000	577.034	79.983	19.992	99.991	20.062	2.932	0.519
1005.500	577.315	79.983	19.993	99.992	20.060	3.010	0.497
1006.000	577.556	79.985	19.993	99.992	20.057	3.218	0.512
1006.500	577.831	79.984	19.993	99.993	20.056	3.293	0.519
1007.000	578.077	79.985	19.993	99.993	20.062	2.913	0.519
1007.500	578.308	79.983	19.994	99.992	20.060	3.046	0.499
1008.000	578.546	79.983	19.993	99.992	20.063	2.839	0.472
1008.500	578.828	79.986	19.991	99.992	20.060	3.037	0.495
1009.000	579.047	79.984	19.992	99.991	20.067	2.585	0.511
1009.500	579.343	79.983	19.992	99.992	20.060	3.034	0.508
1010.000	579.626	79.984	19.991	99.992	20.062	2.891	0.547
1010.500	579.837	79.984	19.993	99.988	20.061	2.970	0.537
1011.000	580.136	79.986	19.992	99.988	20.066	2.675	0.501
1011.500	580.363	79.984	19.993	99.988	20.063	2.863	0.518
1012.000	580.621	79.984	19.992	99.986	20.058	3.170	0.506
1012.500	580.911	79.985	19.992	99.986	20.064	2.813	0.517
1013.000	581.128	79.984	19.992	99.989	20.060	3.044	0.527
1013.500	581.427	79.985	19.993	99.989	20.060	3.058	0.511
1014.000	581.653	79.986	19.993	99.990	20.062	2.887	0.521
1014.500	581.920	79.984	19.992	99.991	20.059	3.103	0.509
1015.000	582.173	79.986	19.992	99.989	20.063	2.865	0.506
1015.500	582.403	79.984	19.993	99.986	20.060	3.030	0.501
1016.000	582.686	79.985	19.993	99.986	20.062	2.880	0.498
1016.500	582.938	79.983	19.993	99.986	20.060	3.056	0.524
1017.000	583.177	79.982	19.992	99.986	20.060	3.008	0.513
1017.500	583.452	79.984	19.993	99.990	20.064	2.784	0.502
1018.000	583.709	79.985	19.992	99.992	20.057	3.224	0.524
1018.500	583.985	79.986	19.992	99.992	20.058	3.149	0.533
1019.000	584.227	79.982	19.993	99.991	20.061	2.972	0.525
1019.500	584.433	79.983	19.993	99.989	20.059	3.082	0.483
1020.000	584.747	79.984	19.992	99.988	20.060	3.020	0.484
1020.500	585.002	79.983	19.993	99.988	20.059	3.112	0.545
1021.000	585.228	79.983	19.992	99.989	20.059	3.081	0.525
1021.500	585.460	79.981	19.993	99.989	20.059	3.096	0.469
1022.000	585.743	79.982	19.993	99.990	20.061	2.989	0.486
1022.500	586.021	79.982	19.993	99.990	20.059	3.096	0.538
1023.000	586.312	79.981	19.992	99.991	20.063	2.846	0.565
1023.500	586.541	79.980	19.993	99.991	20.062	2.922	0.544
1024.000	586.792	79.982	19.993	99.991	20.061	2.943	0.500
1024.499	587.064	79.980	19.993	99.991	20.062	2.906	0.502
1024.999	587.325	79.981	19.993	99.992	20.060	3.012	0.528
1025.500	587.562	79.982	19.992	99.992	20.058	3.186	0.516
1026.000	587.829	79.981	19.993	99.992	20.062	2.918	0.501
1026.499	588.077	79.982	19.993	99.993	20.064	2.810	0.509
1026.999	588.338	79.981	19.993	99.993	20.064	2.799	0.512
1027.499	588.615	79.983	19.993	99.993	20.061	2.994	0.524
1027.999	588.856	79.980	19.993	99.993	20.059	3.120	0.528
1028.499	589.075	79.982	19.993	99.994	20.061	3.001	0.489
1028.999	589.369	79.979	19.992	99.993	20.062	2.887	0.486
1029.499	589.599	79.982	19.992	99.993	20.062	2.910	0.519
1029.999	589.864	79.980	19.992	99.993	20.061	2.982	0.510
1030.499	590.137	79.982	19.992	99.993	20.062	2.930	0.516
1030.999	590.402	79.981	19.993	99.993	20.062	2.920	0.538
1031.499	590.665	79.983	19.992	99.997	20.061	2.996	0.533
1031.999	590.885	79.984	19.992	100.000	20.061	2.986	0.505
1032.500	591.173	79.982	19.993	100.000	20.059	3.068	0.495
1033.001	591.433	79.982	19.992	99.999	20.061	2.949	0.528
1033.500	591.688	79.982	19.992	99.999	20.065	2.715	0.531
1033.999	591.913	79.981	19.992	99.996	20.066	2.646	0.497
1034.500	592.187	79.983	19.992	99.994	20.063	2.816	0.489
1035.000	592.471	79.983	19.991	99.994	20.064	2.763	0.529
1035.499	592.718	79.982	19.992	99.994	20.062	2.933	0.545
1035.999	592.954	79.981	19.992	99.995	20.069	2.456	0.507
1036.499	593.258	79.983	19.992	99.994	20.066	2.665	0.511
1036.999	593.499	79.982	19.992	99.994	20.064	2.775	0.542
1037.499	593.777	79.983	19.993	99.995	20.067	2.579	0.532
1037.999	594.019	79.981	19.991	99.995	20.064	2.810	0.519
1038.499	594.287	79.982	19.993	99.994	20.067	2.579	0.515
1038.999	594.565	79.980	19.992	99.993	20.062	2.880	0.528
1039.499	594.846	79.984	19.991	99.993	20.065	2.735	0.553
1040.000	595.083	79.983	19.991	99.991	20.064	2.777	0.539
1040.500	595.348	79.981	19.991	99.988	20.061	2.991	0.510
1041.000	595.585	79.982	19.991	99.989	20.060	3.015	0.502
1041.500	595.854	79.981	19.992	99.987	20.062	2.891	0.505
1041.999	596.082	79.982	19.991	99.987	20.061	2.941	0.501
1042.499	596.342	79.983	19.992	99.988	20.061	2.956	0.492
1042.999	596.619	79.982	19.992	99.989	20.063	2.830	0.513
1043.499	596.870	79.982	19.992	99.989	20.061	2.989	0.533
1043.999	597.140	79.982	19.992	99.990	20.061	2.941	0.525
1044.499	597.375	79.981	19.992	99.985	20.061	3.001	0.513
1044.999	597.652	79.982	19.992	99.982	20.064	2.760	0.508
1045.499	597.930	79.980	19.992	99.980	20.064	2.767	0.533
1045.999	598.152	79.983	19.991	99.980	20.061	2.960	0.528
1046.499	598.412	79.983	19.992	99.980	20.066	2.673	0.491
1046.999	598.689	79.983	19.992	99.985	20.062	2.886	0.509
1047.500	598.892	79.981	19.993	99.988	20.062	2.932	0.509
1048.000	599.165	79.982	19.992	99.990	20.063	2.834	0.478
1048.499	599.417	79.984	19.993	99.990	20.061	2.961	0.501
1049.000	599.676	79.982	19.992	99.991	20.062	2.922	0.518
1049.500	599.949	79.984	19.993	99.991	20.062	2.908	0.521
1049.999	600.211	79.982	19.992	99.991	20.063	2.824	0.533
1050.499	600.423	79.983	19.991	99.991	20.064	2.782	0.504
1050.999	600.687	79.982	19.992	99.991	20.064	2.787	0.475
1051.499	600.952	79.983	19.993	99.991	20.064	2.811	0.503
1051.999	601.187	79.982	19.993	99.991	20.067	2.580	0.515
1052.499	601.461	79.980	19.992	99.991	20.061	2.970	0.504
1052.999	601.676	79.982	19.993	99.991	20.065	2.719	0.499
1053.499	601.947	79.983	19.992	99.991	20.062	2.878	0.488
1053.999	602.208	79.983	19.992	99.990	20.064	2.787	0.509
1054.499	602.459	79.982	19.993	99.989	20.065	2.737	0.522
1054.999	602.678	79.981	19.993	99.989	20.066	2.673	0.491
1055.499	602.929	79.982	19.993	99.989	20.065	2.747	0.471
1055.999	603.168	79.982	19.992	99.989	20.064	2.813	0.480
1056.499	603.416	79.982	19.993	99.991	20.064	2.803	0.488
1056.999	603.695	79.980	19.992	99.991	20.061	2.985	0.506
1057.499	603.919	79.981	19.993	99.991	20.065	2.692	0.515
1057.999	604.197	79.982	19.992	99.992	20.068	2.534	0.502
1058.499	604.451	79.982	19.993	99.994	20.067	2.615	0.517
1058.999	604.692	79.984	19.993	99.993	20.067	2.616	0.513
1059.499	604.944	79.980	19.992	99.993	20.065	2.729	0.494
1059.999	605.207	79.981	19.992	99.993	20.066	2.668	0.505
1060.499	605.448	79.983	19.992	99.992	20.067	2.622	0.510
1060.999	605.710	79.984	19.993	99.995	20.065	2.739	0.503
1061.499	605.963	79.982	19.992	99.996	20.065	2.698	0.509
1061.999	606.207	79.983	19.991	99.996	20.064	2.758	0.507
1062.499	606.472	79.983	19.993	99.993	20.065	2.744	0.503
1062.999	606.698	79.982	19.992	99.986	20.063	2.841	0.500
1063.499	606.954	79.983	19.993	99.978	20.063	2.853	0.487
1063.999	607.194	79.984	19.993	99.974	20.069	2.451	0.489
1064.499	607.455	79.984	19.993	99.972	20.064	2.761	0.498
1064.999	607.716	79.985	19.992	99.974	20.065	2.732	0.512
1065.500	607.924	79.984	19.991	99.981	20.068	2.558	0.496
1066.000	608.188	79.985	19.992	99.983	20.065	2.727	0.470
1066.499	608.431	79.985	19.992	99.986	20.063	2.818	0.489
1066.999	608.728	79.984	19.992	99.988	20.068	2.535	0.524
1067.499	608.934	79.983	19.991	99.989	20.063	2.839	0.521
1067.999	609.219	79.985	19.992	99.988	20.065	2.717	0.497
1068.499	609.448	79.984	19.992	99.988	20.068	2.542	0.503
1068.999	609.696	79.985	19.991	99.987	20.064	2.806	0.496
1069.499	609.966	79.985	19.993	99.988	20.065	2.697	0.497
1069.999	610.227	79.984	19.991	99.988	20.068	2.556	0.524
1070.499	610.449	79.985	19.992	99.989	20.065	2.692	0.507
1070.999	610.745	79.985	19.992	99.991	20.064	2.773	0.500
1071.500	611.016	79.984	19.992	99.992	20.062	2.894	0.542
1072.000	611.237	79.984	19.991	99.993	20.064	2.775	0.529
1072.500	611.489	79.984	19.992	99.992	20.065	2.692	0.483
1073.000	611.724	79.984	19.992	99.993	20.063	2.818	0.480
1073.499	611.984	79.982	19.991	99.992	20.065	2.742	0.491
1073.999	612.230	79.983	19.991	99.992	20.068	2.556	0.500
1074.499	612.513	79.983	19.991	99.992	20.065	2.737	0.517
1074.999	612.747	79.984	19.992	99.994	20.067	2.591	0.523
1075.499	612.996	79.982	19.990	99.994	20.063	2.815	0.500
1076.000	613.279	79.983	19.992	99.995	20.068	2.499	0.508
1076.500	613.517	79.983	19.993	99.995	20.068	2.520	0.527
1077.000	613.760	79.983	19.992	99.994	20.066	2.634	0.501
1077.500	614.039	79.983	19.992	99.994	20.066	2.625	0.502
1077.999	614.263	79.985	19.992	99.993	20.064	2.810	0.512
1078.499	614.544	79.982	19.992	99.994	20.065	2.692	0.504
1078.999	614.792	79.983	19.992	99.992	20.066	2.639	0.517
1079.499	615.033	79.983	19.993	99.990	20.066	2.635	0.509
1079.999	615.325	79.982	19.993	99.990	20.068	2.541	0.511
1080.499	615.539	79.983	19.992	99.988	20.069	2.466	0.520
1080.999	615.803	79.983	19.993	99.985	20.063	2.872	0.492
1081.499	616.039	79.983	19.993	99.986	20.066	2.646	0.489
1081.999	616.334	79.982	19.993	99.989	20.068	2.556	0.515
1082.499	616.566	79.982	19.994	99.989	20.065	2.711	0.529
1082.999	616.804	79.983	19.992	99.991	20.066	2.625	0.499
1083.500	617.080	79.981	19.993	99.993	20.062	2.889	0.492
1084.000	617.302	79.984	19.994	99.993	20.065	2.721	0.506
1084.499	617.554	79.982	19.992	99.993	20.065	2.739	0.486
1084.999	617.785	79.982	19.992	99.993	20.068	2.547	0.479
1085.499	618.037	79.983	19.992	99.993	20.067	2.578	0.483
1085.999	618.331	79.984	19.993	99.993	20.064	2.794	0.514
1086.499	618.563	79.984	19.993	99.993	20.063	2.829	0.535
1086.999	618.805	79.983	19.992	99.992	20.062	2.887	0.500
1087.499	619.072	79.983	19.992	99.992	20.065	2.748	0.492
1087.999	619.309	79.984	19.993	99.991	20.062	2.927	0.507
1088.499	619.569	79.983	19.992	99.990	20.063	2.865	0.500
1088.999	619.840	79.983	19.993	99.990	20.065	2.711	0.514
1089.499	620.107	79.984	19.992	99.991	20.062	2.877	0.535
1090.000	620.327	79.983	19.992	99.991	20.063	2.849	0.513
1090.501	620.575	79.986	19.992	99.992	20.065	2.696	0.477
1091.001	620.813	79.985	19.992	99.994	20.061	2.967	0.477
1091.500	621.091	79.985	19.992	99.994	20.063	2.818	0.501
1092.000	621.371	79.983	19.992	99.994	20.064	2.785	0.537
1092.501	621.611	79.986	19.992	99.994	20.064	2.799	0.539
1093.000	621.845	79.985	19.993	99.992	20.064	2.770	0.497
1093.499	622.090	79.984	19.992	99.992	20.064	2.808	0.477
1093.999	622.346	79.985	19.992	99.988	20.065	2.747	0.490
1094.499	622.561	79.985	19.992	99.987	20.064	2.796	0.486
1094.999	622.836	79.985	19.992	99.983	20.063	2.863	0.480
1095.499	623.077	79.985	19.992	99.984	20.062	2.878	0.503
1095.999	623.303	79.986	19.992	99.985	20.067	2.570	0.492
1096.499	623.545	79.987	19.993	99.989	20.066	2.644	0.467
1096.999	623.820	79.986	19.992	99.990	20.065	2.725	0.492
1097.499	624.043	79.986	19.992	99.993	20.065	2.690	0.508
1097.999	624.290	79.984	19.992	99.993	20.064	2.783	0.484
1098.499	624.530	79.985	19.992	99.993	20.068	2.547	0.479
1098.999	624.800	79.984	19.992	99.993	20.064	2.754	0.498
1099.499	625.070	79.985	19.992	99.992	20.068	2.518	0.525
1099.999	625.307	79.984	19.991	99.992	20.069	2.475	0.524
1100.499	625.548	79.985	19.992	99.992	20.065	2.692	0.492
1100.999	625.759	79.985	19.992	99.991	20.071	2.325	0.465
1101.499	626.025	79.983	19.992	99.990	20.068	2.551	0.465
1102.000	626.273	79.984	19.993	99.989	20.066	2.661	0.496
1102.500	626.529	79.983	19.993	99.988	20.069	2.473	0.508
1102.999	626.797	79.982	19.992	99.988	20.061	2.956	0.513
1103.499	627.024	79.981	19.992	99.987	20.064	2.803	0.510
1103.999	627.282	79.981	19.993	99.987	20.068	2.535	0.491
1104.499	627.555	79.983	19.993	99.988	20.066	2.679	0.508
1104.999	627.770	79.981	19.993	99.989	20.065	2.749	0.509
1105.499	628.036	79.981	19.994	99.989	20.067	2.561	0.484
1105.999	628.286	79.982	19.994	99.988	20.068	2.520	0.499
1106.499	628.521	79.982	19.992	99.985	20.069	2.475	0.501
1106.999	628.810	79.983	19.994	99.978	20.069	2.446	0.505
1107.499	629.021	79.982	19.993	99.974	20.063	2.823	0.512
1108.000	629.304	79.982	19.993	99.975	20.068	2.528	0.497
1108.500	629.522	79.982	19.993	99.975	20.067	2.587	0.498
1108.999	629.816	79.981	19.992	99.978	20.068	2.513	0.506
1109.499	630.044	79.981	19.994	99.985	20.067	2.568	0.517
1109.999	630.321	79.982	19.994	99.988	20.067	2.578	0.514
1110.499	630.569	79.983	19.992	99.988	20.071	2.346	0.515
1110.999	630.793	79.983	19.994	99.989	20.070	2.432	0.498
1111.499	631.075	79.983	19.993	99.990	20.069	2.477	0.489
1111.999	631.334	79.982	19.994	99.990	20.068	2.532	0.524
1112.499	631.582	79.981	19.993	99.990	20.064	2.770	0.524
1112.999	631.813	79.983	19.994	99.989	20.066	2.678	0.493
1113.499	632.092	79.983	19.994	99.989	20.068	2.496	0.494
1113.999	632.331	79.984	19.993	99.989	20.062	2.882	0.515
1114.499	632.566	79.981	19.994	99.990	20.066	2.660	0.496
1114.999	632.819	79.984	19.993	99.990	20.067	2.591	0.480
1115.499	633.104	79.984	19.993	99.989	20.068	2.556	0.513
1115.999	633.320	79.983	19.993	99.989	20.070	2.408	0.520
1116.499	633.612	79.982	19.993	99.990	20.069	2.492	0.505
1116.999	633.872	79.982	19.993	99.989	20.069	2.485	0.530
1117.499	634.128	79.983	19.993	99.989	20.062	2.882	0.533
1117.999	634.379	79.983	19.993	99.990	20.066	2.651	0.511
1118.499	634.635	79.985	19.993	99.990	20.066	2.644	0.507
1118.999	634.891	79.982	19.992	99.990	20.066	2.630	0.510
1119.499	635.176	79.984	19.992	99.990	20.066	2.675	0.527
1119.999	635.410	79.984	19.993	99.989	20.067	2.565	0.530
1120.499	635.663	79.983	19.992	99.986	20.068	2.547	0.503
1120.999	635.936	79.983	19.992	99.984	20.067	2.587	0.507
1121.499	636.198	79.983	19.992	99.984	20.065	2.691	0.530
1121.999	636.456	79.983	19.993	99.984	20.066	2.679	0.527
1122.499	636.668	79.985	19.993	99.985	20.066	2.675	0.495
1122.999	636.972	79.984	19.993	99.987	20.063	2.830	0.494
1123.499	637.190	79.983	19.992	99.988	20.064	2.756	0.519
1123.999	637.472	79.983	19.992	99.988	20.065	2.699	0.511
1124.499	637.693	79.984	19.992	99.987	20.064	2.758	0.501
1124.999	637.987	79.984	19.992	99.988	20.067	2.587	0.509
1125.499	638.244	79.984	19.991	99.989	20.065	2.694	0.533
1125.999	638.484	79.983	19.992	99.989	20.064	2.787	0.525
1126.499	638.717	79.985	19.992	99.989	20.062	2.903	0.485
1126.999	638.977	79.985	19.992	99.989	20.058	3.182	0.483
1127.499	639.236	79.983	19.992	99.988	20.059	3.122	0.506
1127.999	639.488	79.984	19.993	99.988	20.061	2.991	0.515
1128.499	639.746	79.984	19.991	99.990	20.061	2.942	0.510
1129.000	640.002	79.985	19.993	99.989	20.064	2.810	0.512
1129.501	640.256	79.983	19.991	99.987	20.062	2.886	0.513
1130.001	640.527	79.982	19.992	99.988	20.061	2.958	0.518
1130.500	640.779	79.983	19.993	99.988	20.059	3.080	0.524
1130.999	640.986	79.983	19.992	99.988	20.060	3.049	0.490
1131.499	641.251	79.983	19.992	99.988	20.064	2.803	0.465
1131.999	641.520	79.983	19.992	99.991	20.063	2.854	0.503
1132.499	641.781	79.981	19.993	99.991	20.062	2.887	0.532
1132.999	642.018	79.981	19.993	99.992	20.065	2.747	0.514
1133.499	642.299	79.983	19.992	99.993	20.062	2.913	0.508
1133.999	642.579	79.981	19.992	99.993	20.063	2.832	0.540
1134.499	642.831	79.983	19.992	99.994	20.065	2.741	0.546
1134.999	643.075	79.983	19.991	99.994	20.065	2.742	0.514
1135.499	643.310	79.981	19.991	99.993	20.067	2.603	0.488
1135.999	643.551	79.983	19.993	99.993	20.067	2.611	0.478
1136.499	643.821	79.982	19.992	99.991	20.066	2.684	0.494
1136.999	644.075	79.982	19.991	99.990	20.070	2.382	0.517
1137.499	644.338	79.983	19.992	99.991	20.065	2.729	0.520
1137.999	644.607	79.982	19.993	99.992	20.070	2.422	0.525
1138.499	644.827	79.981	19.993	99.991	20.066	2.656	0.510
1139.000	645.084	79.983	19.992	99.991	20.065	2.735	0.483
1139.501	645.371	79.982	19.992	99.991	20.062	2.911	0.511
1140.000	645.613	79.982	19.991	99.992	20.070	2.418	0.536
1140.499	645.866	79.981	19.993	99.992	20.066	2.649	0.512
1140.999	646.111	79.982	19.993	99.993	20.066	2.629	0.497
1141.499	646.376	79.982	19.994	99.992	20.066	2.632	0.504
1141.999	646.583	79.982	19.992	99.989	20.064	2.770	0.491
1142.499	646.855	79.983	19.992	99.985	20.067	2.568	0.476
1142.999	647.111	79.983	19.992	99.984	20.066	2.649	0.504
1143.499	647.408	79.983	19.992	99.984	20.062	2.929	0.540
1143.999	647.653	79.983	19.992	99.985	20.062	2.939	0.547
1144.499	647.881	79.981	19.993	99.988	20.064	2.756	0.508
1144.999	648.162	79.983	19.993	99.993	20.064	2.802	0.491
1145.499	648.438	79.982	19.993	99.994	20.065	2.742	0.533
1145.999	648.714	79.984	19.993	99.994	20.064	2.764	0.555
1146.499	648.975	79.984	19.992	99.995	20.064	2.766	0.545
1147.000	649.204	79.983	19.992	99.995	20.067	2.596	0.513
1147.500	649.504	79.984	19.992	99.994	20.064	2.780	0.509
1147.999	649.784	79.983	19.992	99.994	20.061	2.949	0.554
1148.499	650.025	79.985	19.992	99.992	20.065	2.739	0.550
1148.999	650.291	79.985	19.992	99.990	20.061	2.985	0.514
1149.499	650.581	79.984	19.992	99.987	20.064	2.772	0.532
1149.999	650.857	79.984	19.991	99.987	20.065	2.713	0.561
1150.499	651.111	79.983	19.991	99.986	20.066	2.644	0.548
1150.999	651.349	79.983	19.992	99.986	20.066	2.623	0.511
1151.499	651.598	79.985	19.991	99.988	20.067	2.589	0.489
1151.999	651.866	79.984	19.991	99.989	20.065	2.744	0.502
1152.499	652.113	79.983	19.992	99.990	20.069	2.461	0.516
1152.999	652.405	79.983	19.991	99.991	20.070	2.404	0.527
1153.500	652.634	79.984	19.992	99.993	20.069	2.458	0.530
1154.000	652.850	79.984	19.991	99.993	20.066	2.668	0.483
1154.499	653.184	79.982	19.991	99.993	20.065	2.736	0.498
1154.999	653.447	79.983	19.992	99.989	20.067	2.613	0.574
1155.499	653.696	79.984	19.992	99.983	20.064	2.789	0.555
1155.999	653.953	79.983	19.991	99.978	20.066	2.646	0.508
1156.499	654.233	79.983	19.991	99.975	20.066	2.678	0.521
1156.999	654.466	79.982	19.991	99.975	20.066	2.684	0.525
1157.500	654.723	79.983	19.991	99.979	20.067	2.585	0.502
1158.000	654.968	79.983	19.991	99.985	20.069	2.470	0.496
1158.499	655.248	79.983	19.990	99.989	20.068	2.534	0.513
1158.999	655.517	79.983	19.991	99.987	20.068	2.501	0.537
1159.499	655.768	79.983	19.991	99.985	20.066	2.678	0.535
1159.999	656.027	79.984	19.993	99.985	20.070	2.373	0.516
1160.499	656.266	79.983	19.992	99.985	20.068	2.511	0.504
1160.999	656.538	79.983	19.991	99.984	20.066	2.670	0.504
1161.499	656.760	79.983	19.992	99.986	20.065	2.744	0.502
1161.999	657.003	79.984	19.990	99.983	20.069	2.480	0.480
1162.499	657.298	79.983	19.991	99.982	20.068	2.516	0.502
1162.999	657.560	79.985	19.991	99.982	20.064	2.803	0.548
1163.499	657.804	79.984	19.991	99.984	20.066	2.673	0.531
1163.999	658.095	79.985	19.993	99.988	20.068	2.542	0.521
1164.499	658.338	79.985	19.992	99.993	20.067	2.597	0.534
1164.999	658.597	79.985	19.992	99.993	20.070	2.426	0.518
1165.499	658.856	79.983	19.992	99.992	20.067	2.581	0.510
1165.999	659.118	79.982	19.992	99.992	20.063	2.816	0.520
1166.499	659.372	79.983	19.993	99.991	20.068	2.545	0.519
1166.999	659.596	79.984	19.992	99.990	20.069	2.435	0.497
1167.499	659.908	79.984	19.992	99.989	20.069	2.470	0.507
1167.999	660.102	79.984	19.992	99.987	20.067	2.587	0.521
1168.499	660.395	79.984	19.994	99.985	20.069	2.451	0.497
1168.999	660.645	79.985	19.992	99.984	20.068	2.520	0.515
1169.499	660.872	79.983	19.993	99.985	20.069	2.442	0.510
1169.999	661.136	79.984	19.992	99.985	20.071	2.306	0.484
1170.499	661.391	79.986	19.993	99.986	20.069	2.439	0.505
1170.999	661.684	79.984	19.993	99.987	20.067	2.587	0.534
1171.499	661.909	79.985	19.992	99.988	20.065	2.740	0.533
1171.999	662.173	79.986	19.992	99.987	20.066	2.628	0.504
1172.499	662.446	79.985	19.993	99.988	20.069	2.451	0.513
1172.999	662.729	79.984	19.992	99.988	20.066	2.678	0.546
1173.499	662.930	79.984	19.993	99.988	20.071	2.356	0.520
1173.999	663.191	79.986	19.993	99.986	20.067	2.611	0.473
1174.499	663.475	79.986	19.992	99.984	20.068	2.538	0.503
1174.999	663.714	79.986	19.993	99.976	20.066	2.668	0.534
1175.499	663.963	79.985	19.993	99.972	20.067	2.618	0.506
1175.999	664.211	79.985	19.992	99.971	20.066	2.626	0.492
1176.499	664.500	79.986	19.993	99.971	20.063	2.835	0.517
1176.999	664.699	79.986	19.992	99.974	20.066	2.668	0.513
1177.499	664.980	79.985	19.992	99.980	20.065	2.697	0.484
1177.999	665.206	79.986	19.993	99.983	20.067	2.616	0.493
1178.499	665.496	79.986	19.992	99.982	20.065	2.728	0.511
1178.999	665.712	79.986	19.992	99.984	20.067	2.597	0.511
1179.499	666.000	79.986	19.993	99.984	20.065	2.745	0.505
1179.999	666.233	79.985	19.992	99.985	20.065	2.733	0.513
1180.499	666.503	79.984	19.993	99.986	20.068	2.518	0.512
1180.999	666.727	79.984	19.992	99.987	20.063	2.820	0.499
1181.499	667.009	79.985	19.993	99.987	20.065	2.708	0.500
1181.999	667.233	79.984	19.992	99.984	20.067	2.592	0.507
1182.499	667.477	79.983	19.993	99.982	20.067	2.608	0.487
1182.999	667.761	79.981	19.991	99.983	20.070	2.389	0.497
1183.499	668.008	79.983	19.993	99.983	20.066	2.656	0.529
1183.999	668.263	79.982	19.993	99.979	20.065	2.709	0.517
1184.499	668.524	79.983	19.994	99.981	20.064	2.768	0.509
1184.999	668.774	79.984	19.992	99.981	20.066	2.665	0.514
1185.500	669.023	79.984	19.992	99.976	20.068	2.509	0.505
1186.000	669.236	79.982	19.992	99.970	20.064	2.778	0.480
1186.499	669.504	79.980	19.992	99.968	20.068	2.497	0.471
1186.999	669.740	79.983	19.992	99.966	20.065	2.704	0.492
1187.499	670.024	79.982	19.992	99.967	20.065	2.730	0.513
1188.000	670.265	79.982	19.992	99.970	20.065	2.728	0.523
1188.500	670.529	79.981	19.992	99.970	20.064	2.801	0.514
1188.999	670.716	79.983	19.993	99.973	20.066	2.628	0.478
1189.499	670.994	79.983	19.993	99.975	20.064	2.776	0.458
1189.999	671.261	79.982	19.993	99.971	20.064	2.780	0.505
1190.499	671.474	79.982	19.993	99.972	20.065	2.732	0.512
1190.999	671.741	79.982	19.993	99.978	20.067	2.611	0.480
1191.499	671.999	79.983	19.993	99.981	20.068	2.551	0.502
1192.000	672.246	79.983	19.994	99.981	20.066	2.658	0.515
1192.501	672.477	79.982	19.993	99.986	20.067	2.620	0.492
1193.000	672.750	79.981	19.993	99.985	20.065	2.739	0.491
1193.499	673.003	79.981	19.993	99.984	20.065	2.721	0.515
1193.999	673.238	79.981	19.993	99.983	20.064	2.804	0.508
1194.499	673.475	79.981	19.993	99.986	20.065	2.704	0.480
1194.999	673.730	79.982	19.993	99.983	20.066	2.635	0.482
1195.499	674.022	79.982	19.992	99.985	20.068	2.497	0.520
1195.999	674.280	79.982	19.994	99.984	20.066	2.646	0.549
1196.499	674.531	79.982	19.993	99.981	20.064	2.777	0.529
1196.999	674.756	79.981	19.993	99.978	20.069	2.487	0.492
1197.499	675.015	79.981	19.993	99.978	20.065	2.714	0.480
1197.999	675.268	79.981	19.992	99.977	20.062	2.906	0.498
1198.499	675.526	79.981	19.993	99.974	20.064	2.797	0.512
1198.999	675.783	79.984	19.994	99.976	20.068	2.500	0.513
1199.500	676.043	79.983	19.994	99.977	20.070	2.420	0.516
1200.001	676.288	79.982	19.993	99.978	20.064	2.811	0.511
1200.500	676.581	79.982	19.994	99.977	20.064	2.797	0.521
1200.999	676.849	79.983	19.994	99.983	20.069	2.468	0.549
1201.500	677.013	79.980	19.993	99.984	20.069	2.454	0.497
1202.001	677.284	79.980	19.992	99.987	20.067	2.596	0.434
1202.500	677.554	79.982	19.992	99.988	20.067	2.577	0.488
1202.999	677.822	79.983	19.992	99.987	20.066	2.623	0.540
1203.499	678.056	79.983	19.992	99.983	20.070	2.409	0.520
1203.999	678.278	79.981	19.993	99.982	20.066	2.627	0.479
1204.499	678.553	79.982	19.993	99.982	20.069	2.485	0.476
1204.999	678.821	79.982	19.993	99.982	20.067	2.575	0.520
1205.499	679.033	79.981	19.992	99.984	20.069	2.441	0.512
1205.999	679.300	79.981	19.992	99.988	20.069	2.484	0.480
1206.499	679.601	79.983	19.992	99.986	20.068	2.506	0.524
1207.000	679.819	79.981	19.991	99.984	20.069	2.440	0.543
1207.500	680.065	79.981	19.992	99.981	20.067	2.588	0.491
1207.999	680.330	79.981	19.993	99.978	20.068	2.499	0.487
1208.499	680.586	79.982	19.992	99.976	20.066	2.657	0.516
1209.000	680.844	79.983	19.992	99.975	20.070	2.416	0.517
1209.501	681.106	79.982	19.992	99.973	20.067	2.580	0.517
1210.000	681.393	79.980	19.992	99.974	20.067	2.565	0.535
1210.499	681.621	79.981	19.992	99.979	20.067	2.560	0.532
1210.999	681.915	79.982	19.992	99.981	20.068	2.556	0.518
1211.499	682.125	79.983	19.992	99.983	20.066	2.646	0.513
1212.000	682.381	79.982	19.992	99.989	20.068	2.518	0.485
1212.500	682.635	79.982	19.992	99.990	20.067	2.596	0.488
1212.999	682.896	79.982	19.992	99.989	20.068	2.527	0.513
1213.499	683.153	79.980	19.992	99.991	20.066	2.644	0.517
1214.000	683.408	79.982	19.992	99.990	20.066	2.672	0.515
1214.500	683.653	79.982	19.993	99.991	20.067	2.606	0.506
1214.999	683.925	79.981	19.991	99.993	20.065	2.730	0.509
1215.500	684.179	79.982	19.992	99.994	20.067	2.596	0.522
1216.000	684.425	79.979	19.992	99.994	20.065	2.711	0.513
1216.499	684.704	79.981	19.992	99.995	20.067	2.609	0.513
1216.999	684.951	79.980	19.991	99.989	20.064	2.765	0.525
1217.499	685.217	79.982	19.992	99.982	20.070	2.416	0.519
1217.999	685.472	79.982	19.993	99.977	20.071	2.309	0.517
1218.500	685.718	79.981	19.992	99.976	20.067	2.596	0.511
1219.000	685.993	79.982	19.993	99.973	20.070	2.390	0.511
1219.499	686.248	79.981	19.991	99.975	20.068	2.551	0.526
1219.999	686.528	79.982	19.992	99.982	20.069	2.492	0.532
1220.499	686.758	79.983	19.991	99.986	20.070	2.376	0.522
1221.000	687.033	79.982	19.993	99.987	20.067	2.564	0.507
1221.501	687.252	79.983	19.992	99.991	20.068	2.526	0.499
1222.000	687.517	79.981	19.991	99.993	20.070	2.375	0.489
1222.500	687.746	79.981	19.992	99.994	20.067	2.587	0.489
1223.000	688.014	79.982	19.991	99.995	20.067	2.565	0.495
1223.499	688.261	79.983	19.993	99.996	20.068	2.544	0.506
1223.999	688.541	79.983	19.992	99.995	20.069	2.452	0.521
1224.499	688.801	79.984	19.992	99.995	20.069	2.451	0.534
1224.999	689.075	79.984	19.992	99.994	20.070	2.406	0.537
1225.500	689.275	79.982	19.992	99.993	20.071	2.338	0.504
1226.000	689.560	79.983	19.992	99.993	20.068	2.547	0.479
1226.499	689.791	79.983	19.993	99.992	20.068	2.500	0.501
1227.000	690.029	79.983	19.993	99.989	20.068	2.502	0.492
1227.500	690.319	79.983	19.992	99.986	20.068	2.554	0.499
1227.999	690.520	79.982	19.993	99.984	20.065	2.704	0.510
1228.499	690.785	79.982	19.992	99.983	20.067	2.568	0.479
1228.999	691.036	79.985	19.993	99.983	20.066	2.656	0.491
1229.499	691.307	79.985	19.992	99.986	20.067	2.620	0.519
1229.999	691.559	79.982	19.992	99.988	20.069	2.482	0.523
1230.499	691.835	79.984	19.993	99.981	20.067	2.613	0.525
1230.999	692.092	79.983	19.992	99.978	20.067	2.620	0.530
1231.499	692.375	79.984	19.993	99.978	20.066	2.682	0.537
1231.999	692.634	79.984	19.992	99.978	20.069	2.440	0.542
1232.499	692.870	79.984	19.992	99.980	20.070	2.394	0.518
1232.999	693.112	79.984	19.991	99.987	20.068	2.534	0.486
1233.499	693.343	79.984	19.992	99.988	20.069	2.477	0.476
1233.999	693.636	79.983	19.992	99.987	20.068	2.539	0.499
1234.499	693.923	79.984	19.992	99.985	20.069	2.451	0.552
1234.999	694.173	79.983	19.992	99.983	20.067	2.622	0.558
1235.499	694.424	79.985	19.992	99.980	20.069	2.492	0.519
1235.999	694.685	79.984	19.992	99.975	20.063	2.825	0.507
1236.500	694.952	79.984	19.993	99.972	20.069	2.478	0.520
1237.001	695.189	79.985	19.992	99.966	20.069	2.444	0.516
1237.500	695.435	79.983	19.993	99.962	20.069	2.459	0.493
1237.999	695.747	79.985	19.993	99.959	20.067	2.608	0.521
1238.499	695.965	79.984	19.993	99.965	20.067	2.584	0.544
1238.999	696.240	79.984	19.993	99.970	20.070	2.425	0.511
1239.499	696.490	79.984	19.992	99.977	20.066	2.628	0.509
1239.999	696.742	79.985	19.993	99.983	20.066	2.661	0.514
1240.499	697.005	79.983	19.992	99.987	20.070	2.406	0.508
1240.999	697.248	79.983	19.992	99.982	20.070	2.399	0.510
1241.499	697.496	79.983	19.992	99.980	20.071	2.359	0.498
1241.999	697.742	79.984	19.992	99.978	20.070	2.387	0.493
1242.499	698.001	79.983	19.992	99.977	20.064	2.768	0.500
1242.999	698.236	79.982	19.991	99.979	20.072	2.254	0.500
1243.499	698.460	79.983	19.991	99.985	20.070	2.378	0.477
1243.999	698.743	79.984	19.991	99.987	20.073	2.233	0.483
1244.499	698.986	79.983	19.992	99.989	20.072	2.304	0.517
1245.000	699.225	79.984	19.992	99.991	20.073	2.201	0.504
1245.500	699.500	79.984	19.993	99.991	20.068	2.554	0.498
1245.999	699.763	79.985	19.991	99.991	20.069	2.459	0.526
1246.499	700.007	79.984	19.991	99.985	20.070	2.371	0.523
1247.000	700.261	79.983	19.992	99.979	20.070	2.426	0.502
1247.500	700.529	79.983	19.991	99.976	20.072	2.278	0.510
1247.999	700.761	79.985	19.992	99.975	20.070	2.399	0.512
1248.500	701.022	79.985	19.991	99.975	20.071	2.364	0.497
1249.001	701.289	79.984	19.992	99.979	20.070	2.414	0.510
1249.500	701.523	79.984	19.992	99.985	20.071	2.333	0.515
1249.999	701.747	79.986	19.990	99.987	20.070	2.400	0.480
1250.499	702.021	79.986	19.993	99.986	20.072	2.288	0.478
1250.999	702.274	79.986	19.992	99.983	20.070	2.383	0.512
1251.499	702.525	79.986	19.992	99.983	20.070	2.397	0.516
1251.999	702.771	79.985	19.992	99.982	20.071	2.335	0.501
1252.499	703.013	79.985	19.991	99.978	20.071	2.327	0.493
1252.999	703.245	79.987	19.993	99.980	20.069	2.477	0.481
1253.499	703.524	79.986	19.992	99.983	20.070	2.390	0.492
1253.999	703.753	79.984	19.992	99.984	20.072	2.299	0.509
1254.500	704.027	79.984	19.993	99.983	20.072	2.285	0.506
1255.000	704.272	79.986	19.993	99.985	20.071	2.340	0.512
1255.499	704.540	79.986	19.992	99.984	20.072	2.295	0.516
1255.999	704.739	79.984	19.993	99.985	20.069	2.463	0.490
1256.499	705.016	79.983	19.992	99.984	20.068	2.501	0.471
1256.999	705.274	79.984	19.992	99.985	20.069	2.485	0.505
1257.499	705.539	79.985	19.992	99.983	20.069	2.483	0.529
1257.999	705.783	79.984	19.993	99.979	20.067	2.563	0.516
1258.499	706.023	79.984	19.994	99.978	20.070	2.388	0.496
1259.000	706.263	79.985	19.991	99.977	20.068	2.535	0.482
1259.500	706.516	79.983	19.992	99.975	20.069	2.475	0.486
1260.000	706.779	79.983	19.993	99.974	20.068	2.495	0.504
1260.500	707.014	79.985	19.993	99.975	20.068	2.530	0.507
1260.999	707.270	79.984	19.992	99.975	20.069	2.475	0.494
1261.499	707.510	79.984	19.992	99.974	20.067	2.589	0.494
1261.999	707.754	79.982	19.993	99.976	20.071	2.322	0.490
1262.499	708.024	79.981	19.994	99.980	20.067	2.597	0.499
1262.999	708.256	79.983	19.991	99.984	20.069	2.454	0.508
1263.499	708.499	79.983	19.993	99.986	20.069	2.487	0.488
1263.999	708.770	79.985	19.993	99.990	20.067	2.569	0.494
1264.499	709.027	79.984	19.993	99.989	20.064	2.793	0.521
1264.999	709.260	79.981	19.992	99.990	20.065	2.731	0.509
1265.499	709.510	79.981	19.993	99.990	20.071	2.330	0.486
1265.999	709.757	79.982	19.992	99.985	20.067	2.601	0.490
1266.499	710.007	79.982	19.992	99.981	20.065	2.735	0.497
1266.999	710.253	79.982	19.992	99.983	20.067	2.559	0.496
1267.500	710.488	79.983	19.992	99.980	20.067	2.570	0.488
1268.000	710.750	79.981	19.993	99.975	20.068	2.542	0.489
1268.499	711.002	79.983	19.992	99.978	20.066	2.650	0.505
1268.999	711.257	79.982	19.992	99.980	20.066	2.640	0.511
1269.499	711.495	79.982	19.992	99.974	20.066	2.623	0.501
1269.999	711.783	79.982	19.993	99.973	20.067	2.562	0.510
1270.499	712.000	79.981	19.993	99.975	20.069	2.486	0.515
1270.999	712.244	79.982	19.993	99.976	20.065	2.749	0.483
1271.499	712.501	79.981	19.992	99.978	20.068	2.514	0.481
1271.999	712.810	79.982	19.992	99.984	20.065	2.721	0.533
1272.499	713.070	79.982	19.993	99.990	20.067	2.578	0.568
1273.000	713.241	79.982	19.993	99.993	20.075	2.076	0.500
1273.500	713.510	79.983	19.992	99.987	20.077	1.952	0.436
1273.999	713.746	79.982	19.992	99.980	20.068	2.513	0.473
1274.499	713.996	79.982	19.992	99.974	20.068	2.515	0.496
1274.999	714.263	79.982	19.993	99.971	20.067	2.575	0.501
1275.499	714.525	79.982	19.992	99.967	20.068	2.499	0.523
1275.999	714.777	79.981	19.993	99.969	20.067	2.563	0.522
1276.499	715.042	79.983	19.992	99.975	20.070	2.413	0.516
1276.999	715.273	79.980	19.992	99.978	20.066	2.627	0.507
1277.499	715.547	79.981	19.992	99.980	20.070	2.375	0.500
1277.999	715.796	79.982	19.993	99.981	20.070	2.375	0.514
1278.499	716.008	79.983	19.993	99.980	20.070	2.384	0.492
1278.999	716.332	79.981	19.993	99.973	20.068	2.547	0.499
1279.499	716.528	79.982	19.994	99.969	20.067	2.565	0.528
1279.999	716.838	79.983	19.992	99.965	20.069	2.461	0.513
1280.499	717.065	79.981	19.993	99.962	20.066	2.654	0.522
1281.000	717.316	79.983	19.992	99.962	20.065	2.716	0.507
1281.500	717.609	79.982	19.992	99.964	20.065	2.688	0.511
1281.999	717.829	79.982	19.993	99.967	20.065	2.740	0.528
1282.499	718.068	79.980	19.993	99.970	20.066	2.624	0.486
1282.999	718.335	79.981	19.993	99.974	20.069	2.447	0.483
1283.499	718.633	79.982	19.993	99.979	20.067	2.571	0.535
1283.999	718.841	79.982	19.993	99.984	20.070	2.426	0.535
1284.499	719.175	79.982	19.993	99.987	20.070	2.402	0.524
1284.999	719.366	79.982	19.993	99.988	20.065	2.699	0.534
1285.499	719.695	79.981	19.994	99.988	20.070	2.431	0.522
1285.999	719.976	79.981	19.993	99.989	20.070	2.404	0.564
1286.499	720.236	79.981	19.993	99.985	20.069	2.476	0.575
1286.999	720.407	79.983	19.993	99.986	20.067	2.611	0.486
1287.499	720.689	79.982	19.993	99.983	20.069	2.461	0.442
1287.999	720.959	79.981	19.994	99.984	20.066	2.632	0.502
1288.499	721.209	79.981	19.994	99.984	20.069	2.487	0.536
1288.999	721.509	79.982	19.994	99.986	20.069	2.483	0.535
1289.499	721.723	79.981	19.993	99.987	20.068	2.511	0.532
1289.999	721.977	79.983	19.994	99.988	20.069	2.438	0.492
1290.499	722.220	79.983	19.994	99.983	20.068	2.519	0.483
1290.999	722.520	79.983	19.993	99.978	20.068	2.540	0.520
1291.499	722.767	79.982	19.994	99.974	20.071	2.340	0.545
1291.999	723.023	79.982	19.994	99.968	20.070	2.395	0.525
1292.499	723.275	79.983	19.995	99.969	20.069	2.440	0.505
1292.999	723.529	79.984	19.993	99.969	20.070	2.392	0.507
1293.499	723.789	79.982	19.993	99.968	20.067	2.563	0.510
1293.999	724.039	79.982	19.994	99.967	20.069	2.439	0.512
1294.499	724.318	79.981	19.993	99.966	20.069	2.494	0.519
1294.999	724.537	79.982	19.992	99.965	20.069	2.433	0.514
1295.499	724.816	79.983	19.993	99.965	20.070	2.385	0.498
1295.999	725.060	79.983	19.992	99.966	20.070	2.414	0.511
1296.500	725.343	79.983	19.992	99.964	20.070	2.382	0.525
1297.000	725.590	79.982	19.992	99.970	20.069	2.488	0.528
1297.499	725.835	79.982	19.992	99.970	20.069	2.494	0.511
1298.000	726.152	79.982	19.992	99.970	20.069	2.457	0.527
1298.500	726.364	79.982	19.992	99.972	20.069	2.493	0.546
1298.999	726.624	79.982	19.992	99.976	20.068	2.543	0.500
1299.499	726.909	79.983	19.992	99.971	20.067	2.586	0.508
1299.999	727.159	79.983	19.992	99.968	20.070	2.383	0.540
1300.500	727.389	79.982	19.992	99.966	20.068	2.533	0.508
1301.000	727.647	79.982	19.992	99.966	20.069	2.475	0.484
1301.499	727.916	79.981	19.993	99.966	20.070	2.373	0.507
1301.999	728.175	79.982	19.993	99.969	20.068	2.507	0.527
1302.499	728.432	79.983	19.993	99.977	20.069	2.483	0.522
1302.999	728.701	79.983	19.993	99.981	20.068	2.495	0.521
1303.499	728.943	79.983	19.993	99.986	20.072	2.280	0.518
1303.999	729.215	79.984	19.993	99.987	20.069	2.447	0.513
1304.499	729.470	79.984	19.992	99.984	20.069	2.454	0.521
1304.999	729.705	79.983	19.992	99.981	20.069	2.437	0.508
1305.500	729.960	79.985	19.992	99.980	20.069	2.487	0.490
1306.000	730.278	79.984	19.992	99.980	20.071	2.356	0.531
1306.500	730.475	79.984	19.992	99.977	20.070	2.378	0.544
1307.001	730.736	79.984	19.992	99.979	20.071	2.345	0.487
1307.500	730.998	79.985	19.992	99.977	20.069	2.466	0.490
1307.999	731.248	79.984	19.993	99.976	20.070	2.417	0.517
1308.499	731.510	79.984	19.992	99.972	20.069	2.493	0.513
1308.999	731.761	79.985	19.992	99.971	20.071	2.331	0.513
1309.499	732.021	79.983	19.992	99.966	20.070	2.373	0.512
1309.999	732.280	79.983	19.991	99.965	20.072	2.269	0.515
1310.499	732.506	79.985	19.992	99.963	20.070	2.414	0.502
1310.999	732.749	79.984	19.991	99.962	20.069	2.466	0.477
1311.499	733.009	79.983	19.993	99.966	20.070	2.424	0.486
1311.999	733.306	79.984	19.992	99.972	20.071	2.362	0.530
1312.499	733.531	79.985	19.992	99.977	20.070	2.402	0.539
1312.999	733.780	79.985	19.992	99.976	20.068	2.517	0.499
1313.499	734.042	79.984	19.992	99.973	20.067	2.562	0.493
1314.000	734.306	79.985	19.993	99.969	20.069	2.469	0.518
1314.500	734.558	79.984	19.992	99.970	20.066	2.668	0.521
1314.999	734.809	79.984	19.993	99.971	20.067	2.616	0.509
1315.499	735.036	79.983	19.992	99.975	20.068	2.545	0.490
1315.999	735.291	79.983	19.993	99.978	20.069	2.480	0.480
1316.499	735.560	79.984	19.992	99.977	20.069	2.445	0.503
1316.999	735.830	79.984	19.993	99.973	20.070	2.369	0.531
1317.499	736.054	79.984	19.993	99.970	20.072	2.293	0.516
1317.999	736.308	79.984	19.992	99.965	20.071	2.314	0.486
1318.499	736.537	79.984	19.992	99.963	20.072	2.266	0.481
1319.000	736.829	79.983	19.993	99.964	20.070	2.376	0.502
1319.500	737.089	79.983	19.992	99.967	20.070	2.412	0.537
1319.999	737.340	79.983	19.992	99.968	20.071	2.359	0.532
1320.500	737.582	79.983	19.992	99.971	20.068	2.554	0.502
1321.001	737.823	79.982	19.992	99.969	20.068	2.555	0.488
1321.500	738.111	79.984	19.992	99.969	20.072	2.269	0.506
1321.999	738.363	79.983	19.992	99.964	20.071	2.352	0.534
1322.499	738.598	79.984	19.992	99.961	20.073	2.225	0.513
1322.999	738.873	79.983	19.992	99.959	20.073	2.204	0.498
1323.500	739.104	79.983	19.992	99.962	20.076	2.014	0.508
1324.000	739.360	79.985	19.992	99.964	20.073	2.226	0.496
1324.499	739.607	79.985	19.992	99.969	20.071	2.338	0.495
1324.999	739.858	79.982	19.993	99.969	20.070	2.423	0.501
1325.499	740.104	79.984	19.992	99.970	20.073	2.179	0.498
1326.000	740.371	79.984	19.992	99.971	20.070	2.376	0.505
1326.500	740.596	79.984	19.992	99.972	20.076	2.007	0.502
1326.999	740.858	79.984	19.992	99.967	20.070	2.376	0.490
1327.500	741.102	79.985	19.992	99.966	20.070	2.386	0.497
1328.000	741.393	79.985	19.993	99.967	20.073	2.214	0.520
1328.499	741.610	79.984	19.991	99.965	20.071	2.312	0.521
1328.999	741.860	79.986	19.992	99.963	20.074	2.128	0.487
1329.499	742.103	79.985	19.991	99.964	20.072	2.245	0.480
1330.000	742.344	79.985	19.992	99.963	20.073	2.221	0.488
1330.500	742.603	79.984	19.991	99.960	20.071	2.353	0.492
1331.000	742.907	79.986	19.991	99.963	20.074	2.159	0.532
1331.500	743.138	79.985	19.992	99.965	20.072	2.283	0.549
1332.000	743.362	79.987	19.992	99.965	20.071	2.326	0.495
1332.500	743.613	79.984	19.992	99.968	20.069	2.466	0.465
