Sample ID:	C:\MCC\MCC Cal\Test\Cinder_Block_MCC_30K_min_220224_R3.txt
Sample Weight (mg):	4.86
Heating Rate (C/s):	0.5
Combustor Temp (C):	900
N2 Flow Rate (cc/min):	80
O2 Flow Rate (cc/min):	20
Calibration File:	C:\MCC\MCC Cal\Coeff1 JN10440_30_210304.txt.txt
T Correction Coefficients:	0	1.024463	0
Time Shift (s):	14
*
Time (s)	Temperature (C)	N2 flow rate (cc/min)	O2 flow rate (cc/min)	Flow Rate (cc/min)	Oxygen (%)	HRR (W/g)	Heating rate (C/s)
0.000	112.640	80.003	19.994	103.759	20.043	0.171	-0.004
0.500	112.643	80.001	19.995	103.759	20.046	0.005	0.002
1.000	112.644	80.001	19.993	103.759	20.046	-0.016	0.007
1.500	112.621	80.003	19.995	103.760	20.042	0.271	-0.009
2.000	112.614	80.001	19.993	103.761	20.047	-0.076	-0.026
2.500	112.650	80.001	19.994	103.759	20.042	0.257	-0.000
3.000	112.637	80.002	19.994	103.759	20.045	0.073	0.026
3.500	112.633	80.002	19.993	103.759	20.044	0.102	0.004
4.000	112.588	80.003	19.995	103.759	20.045	0.087	-0.033
4.500	112.626	80.002	19.995	103.759	20.042	0.226	-0.028
5.001	112.629	80.002	19.994	103.761	20.043	0.167	0.017
5.501	112.637	80.003	19.993	103.761	20.042	0.244	0.026
6.000	112.628	80.001	19.993	103.760	20.044	0.089	0.005
6.500	112.647	80.003	19.997	103.761	20.044	0.109	0.004
7.000	112.608	80.003	19.995	103.761	20.041	0.348	-0.005
7.500	112.606	80.003	19.996	103.762	20.041	0.295	-0.030
8.000	112.640	80.000	19.994	103.761	20.045	0.073	-0.004
8.500	112.603	80.003	19.996	103.762	20.043	0.198	0.014
9.000	112.602	80.002	19.995	103.763	20.042	0.271	-0.021
9.501	112.619	80.003	19.995	103.763	20.046	0.002	-0.011
10.001	112.638	80.001	19.994	103.764	20.045	0.060	0.026
10.500	112.644	80.001	19.996	103.764	20.041	0.300	0.030
11.000	112.615	80.001	19.994	103.764	20.040	0.355	0.001
11.500	112.626	80.001	19.994	103.764	20.038	0.535	-0.020
12.000	112.623	80.002	19.995	103.763	20.044	0.095	-0.005
12.500	112.607	80.000	19.995	103.762	20.045	0.080	-0.005
13.000	112.625	80.002	19.996	103.762	20.045	0.049	-0.008
13.500	112.599	80.001	19.994	103.762	20.047	-0.053	-0.003
14.000	112.614	80.001	19.996	103.762	20.046	0.007	-0.009
14.500	112.640	80.001	19.996	103.763	20.043	0.215	0.015
15.000	112.607	79.999	19.994	103.763	20.044	0.115	0.017
15.500	112.627	80.000	19.994	103.763	20.044	0.093	-0.010
16.000	112.600	80.001	19.996	103.765	20.045	0.047	-0.010
16.500	112.610	80.002	19.995	103.771	20.044	0.104	-0.012
17.000	112.620	80.001	19.997	103.778	20.040	0.414	0.002
17.500	112.660	80.000	19.995	103.785	20.041	0.308	0.035
18.000	112.637	80.001	19.996	103.793	20.039	0.461	0.034
18.500	112.635	80.000	19.995	103.799	20.041	0.343	-0.004
19.000	112.625	80.002	19.995	103.801	20.042	0.262	-0.019
19.500	112.626	80.001	19.995	103.801	20.040	0.394	-0.011
20.000	112.645	80.000	19.995	103.801	20.036	0.643	0.006
20.500	112.633	80.002	19.996	103.801	20.041	0.310	0.014
21.000	112.630	80.002	19.996	103.803	20.041	0.314	-0.004
21.500	112.634	80.002	19.994	103.803	20.035	0.691	-0.007
22.000	112.649	80.000	19.996	103.804	20.035	0.753	0.010
22.500	112.640	80.002	19.997	103.811	20.037	0.613	0.012
23.000	112.670	80.000	19.994	103.822	20.034	0.802	0.013
23.500	112.634	80.003	19.995	103.829	20.036	0.653	0.008
24.000	112.684	80.003	19.995	103.837	20.031	0.970	0.004
24.500	112.683	80.002	19.995	103.846	20.029	1.120	0.031
25.000	112.697	80.002	19.994	103.850	20.029	1.138	0.031
25.500	112.703	80.002	19.994	103.855	20.033	0.879	0.017
26.000	112.717	80.004	19.994	103.860	20.028	1.186	0.020
26.500	112.746	80.003	19.993	103.867	20.032	0.928	0.032
27.000	112.772	80.003	19.994	103.873	20.030	1.072	0.049
27.500	112.794	80.004	19.995	103.879	20.025	1.372	0.051
28.000	112.797	80.004	19.995	103.882	20.027	1.275	0.036
28.500	112.848	80.004	19.993	103.890	20.028	1.209	0.040
29.000	112.867	80.003	19.995	103.898	20.022	1.622	0.063
29.500	112.881	80.003	19.994	103.905	20.024	1.472	0.052
30.000	112.920	80.003	19.994	103.913	20.025	1.405	0.043
30.500	112.942	80.003	19.994	103.918	20.022	1.623	0.057
31.000	112.929	80.003	19.994	103.924	20.019	1.817	0.035
31.500	112.964	80.003	19.996	103.926	20.019	1.822	0.016
32.000	113.044	80.004	19.992	103.931	20.016	2.007	0.069
32.501	113.086	80.003	19.993	103.938	20.016	1.992	0.118
33.001	113.085	80.003	19.992	103.946	20.015	2.049	0.081
33.501	113.106	80.003	19.992	103.951	20.011	2.302	0.030
34.001	113.198	80.001	19.993	103.959	20.010	2.395	0.067
34.500	113.238	80.004	19.994	103.964	20.014	2.136	0.123
35.000	113.265	80.003	19.993	103.972	20.012	2.258	0.099
35.500	113.346	80.003	19.993	103.980	20.010	2.361	0.087
36.001	113.365	80.004	19.994	103.983	20.008	2.530	0.104
36.501	113.422	80.003	19.994	103.988	20.008	2.510	0.088
37.000	113.455	80.003	19.994	103.994	20.009	2.485	0.083
37.500	113.532	80.003	19.995	103.994	20.006	2.675	0.100
38.001	113.555	80.001	19.992	103.990	20.007	2.602	0.105
38.501	113.631	80.002	19.995	103.993	20.004	2.779	0.099
39.000	113.779	80.002	19.994	103.992	20.009	2.490	0.161
39.500	113.780	80.002	19.994	103.992	20.003	2.871	0.186
40.000	113.878	80.002	19.994	103.993	20.001	2.962	0.124
40.500	113.946	80.002	19.995	103.997	20.002	2.915	0.133
41.000	114.037	80.003	19.994	104.000	20.001	2.973	0.162
41.500	114.097	80.002	19.993	104.001	20.003	2.860	0.155
42.000	114.203	80.002	19.993	104.004	20.003	2.855	0.159
42.500	114.244	80.004	19.994	104.004	20.003	2.881	0.157
43.001	114.335	80.002	19.994	104.005	20.001	2.979	0.140
43.501	114.418	80.002	19.992	104.004	19.996	3.358	0.153
44.000	114.512	80.004	19.993	104.004	20.001	2.988	0.175
44.500	114.597	80.002	19.995	104.002	19.998	3.170	0.178
45.000	114.661	80.003	19.993	104.004	20.000	3.046	0.164
45.500	114.795	80.004	19.994	104.005	19.999	3.118	0.174
46.000	114.858	80.003	19.992	104.005	19.998	3.182	0.197
46.500	114.952	80.003	19.992	104.007	19.996	3.304	0.177
47.000	115.041	80.004	19.994	104.011	19.995	3.410	0.170
47.500	115.150	80.003	19.994	104.013	19.996	3.315	0.190
48.000	115.237	80.003	19.993	104.017	19.995	3.424	0.197
48.500	115.325	80.003	19.994	104.020	19.994	3.442	0.185
49.001	115.414	80.003	19.993	104.020	19.997	3.247	0.176
49.501	115.568	80.004	19.993	104.018	19.997	3.240	0.210
50.000	115.673	80.003	19.993	104.012	19.997	3.260	0.251
50.500	115.787	80.003	19.993	104.007	19.996	3.343	0.239
51.000	115.903	80.005	19.994	104.006	19.996	3.303	0.225
51.500	116.002	80.004	19.992	104.008	19.996	3.339	0.222
52.000	116.111	80.005	19.992	104.008	19.995	3.376	0.212
52.500	116.210	80.004	19.994	104.011	19.997	3.241	0.209
53.000	116.324	80.005	19.993	104.015	19.993	3.503	0.210
53.500	116.443	80.005	19.992	104.014	19.995	3.374	0.222
54.000	116.579	80.004	19.992	104.010	19.994	3.483	0.244
54.500	116.674	80.005	19.994	104.007	19.991	3.635	0.243
55.000	116.798	80.006	19.995	104.006	19.994	3.483	0.225
55.500	116.939	80.004	19.993	104.003	19.993	3.516	0.243
56.001	117.057	80.006	19.993	104.006	19.992	3.597	0.262
56.501	117.202	80.005	19.993	104.012	19.991	3.674	0.261
57.000	117.356	80.004	19.993	104.017	19.989	3.798	0.281
57.500	117.466	80.005	19.993	104.017	19.992	3.564	0.282
58.000	117.608	80.005	19.993	104.021	19.992	3.613	0.258
58.500	117.741	80.004	19.994	104.018	19.992	3.568	0.263
59.000	117.898	80.004	19.992	104.012	19.992	3.602	0.282
59.500	118.024	80.004	19.994	104.012	19.993	3.509	0.287
60.000	118.172	80.003	19.993	104.016	19.991	3.688	0.278
60.500	118.300	80.004	19.994	104.016	19.989	3.807	0.275
61.000	118.433	80.003	19.993	104.022	19.991	3.662	0.269
61.500	118.586	80.003	19.992	104.029	19.990	3.695	0.274
62.000	118.726	80.003	19.993	104.033	19.991	3.635	0.289
62.500	118.863	80.002	19.992	104.035	19.990	3.723	0.285
63.000	119.011	80.003	19.994	104.036	19.989	3.807	0.281
63.500	119.149	80.003	19.993	104.037	19.991	3.694	0.286
64.001	119.313	80.004	19.994	104.037	19.989	3.785	0.294
64.501	119.495	80.003	19.994	104.038	19.991	3.632	0.324
65.000	119.638	80.003	19.993	104.039	19.987	3.961	0.336
65.501	119.796	80.004	19.994	104.039	19.990	3.736	0.312
66.001	119.924	80.003	19.994	104.038	19.989	3.807	0.293
66.500	120.117	80.003	19.994	104.038	19.989	3.826	0.304
67.000	120.243	80.003	19.993	104.043	19.989	3.820	0.321
67.501	120.419	80.003	19.995	104.046	19.986	4.008	0.311
68.001	120.558	80.003	19.994	104.050	19.989	3.796	0.309
68.501	120.747	80.002	19.994	104.050	19.994	3.466	0.321
69.000	120.904	80.003	19.993	104.050	19.988	3.894	0.337
69.500	121.098	80.003	19.994	104.044	19.989	3.781	0.349
70.000	121.263	80.004	19.994	104.039	19.986	3.984	0.355
70.500	121.403	80.002	19.993	104.037	19.991	3.637	0.332
71.000	121.568	80.004	19.993	104.039	19.986	3.978	0.305
71.500	121.778	80.003	19.993	104.041	19.989	3.772	0.340
72.000	121.944	80.004	19.994	104.041	19.988	3.851	0.376
72.500	122.108	80.003	19.993	104.047	19.986	3.994	0.353
73.000	122.308	80.001	19.993	104.053	19.990	3.727	0.347
73.500	122.477	80.003	19.994	104.054	19.987	3.910	0.366
74.000	122.671	80.003	19.993	104.057	19.988	3.831	0.366
74.500	122.842	80.002	19.994	104.062	19.988	3.873	0.364
75.000	123.016	80.002	19.994	104.062	19.988	3.842	0.355
75.500	123.239	80.002	19.993	104.057	19.991	3.639	0.371
76.000	123.416	80.002	19.994	104.061	19.990	3.756	0.398
76.500	123.586	80.003	19.994	104.061	19.990	3.749	0.373
77.000	123.806	80.003	19.994	104.062	19.988	3.835	0.368
77.500	123.976	80.002	19.993	104.065	19.990	3.751	0.390
78.000	124.157	80.002	19.994	104.066	19.988	3.880	0.370
78.500	124.388	80.003	19.994	104.064	19.987	3.908	0.381
79.000	124.549	80.002	19.994	104.059	19.986	4.019	0.402
79.500	124.743	80.002	19.994	104.054	19.988	3.840	0.373
80.000	124.951	80.002	19.994	104.047	19.988	3.864	0.379
80.500	125.135	80.004	19.994	104.042	19.988	3.855	0.397
81.001	125.348	80.003	19.995	104.045	19.988	3.879	0.394
81.501	125.544	80.003	19.994	104.050	19.982	4.246	0.403
82.000	125.722	80.003	19.994	104.051	19.990	3.751	0.392
82.501	125.941	80.003	19.997	104.056	19.986	3.965	0.386
83.001	126.165	80.002	19.995	104.064	19.985	4.078	0.420
83.500	126.331	80.003	19.994	104.065	19.987	3.925	0.416
84.001	126.535	80.002	19.994	104.067	19.983	4.171	0.379
84.501	126.751	80.003	19.995	104.068	19.984	4.102	0.395
85.000	126.957	80.002	19.996	104.068	19.985	4.094	0.421
85.500	127.158	80.002	19.995	104.066	19.986	3.992	0.414
86.000	127.364	80.003	19.994	104.062	19.985	4.069	0.407
86.500	127.555	80.003	19.994	104.059	19.988	3.857	0.402
87.000	127.787	80.003	19.996	104.058	19.982	4.253	0.410
87.501	128.000	80.002	19.995	104.057	19.986	3.970	0.434
88.001	128.202	80.003	19.995	104.059	19.986	4.007	0.430
88.501	128.462	80.001	19.994	104.056	19.986	3.989	0.439
89.001	128.645	80.002	19.994	104.058	19.983	4.209	0.452
89.501	128.882	80.002	19.995	104.059	19.983	4.180	0.432
90.000	129.098	80.002	19.994	104.060	19.988	3.879	0.437
90.501	129.298	80.003	19.993	104.054	19.987	3.957	0.435
91.001	129.545	80.001	19.996	104.060	19.984	4.122	0.431
91.500	129.728	80.002	19.995	104.062	19.983	4.193	0.439
92.000	129.954	80.001	19.994	104.064	19.985	4.061	0.420
92.500	130.159	80.002	19.994	104.067	19.983	4.184	0.420
93.000	130.391	80.000	19.994	104.073	19.983	4.222	0.434
93.500	130.588	80.000	19.994	104.073	19.984	4.145	0.433
94.000	130.838	80.002	19.994	104.072	19.983	4.184	0.438
94.500	131.072	80.002	19.993	104.072	19.982	4.251	0.465
95.000	131.263	80.002	19.994	104.071	19.984	4.151	0.454
95.500	131.490	80.001	19.994	104.072	19.986	3.979	0.422
96.000	131.702	80.001	19.996	104.072	19.984	4.136	0.429
96.500	131.935	80.001	19.994	104.071	19.981	4.342	0.442
97.000	132.151	80.002	19.995	104.072	19.983	4.214	0.447
97.500	132.375	80.002	19.995	104.072	19.986	4.010	0.444
98.000	132.612	80.000	19.992	104.073	19.982	4.283	0.450
98.500	132.829	80.003	19.997	104.073	19.985	4.037	0.458
99.000	133.062	80.001	19.995	104.075	19.984	4.141	0.452
99.500	133.310	80.001	19.995	104.076	19.986	4.015	0.465
100.000	133.537	80.001	19.995	104.076	19.986	4.010	0.478
100.500	133.751	80.002	19.995	104.076	19.984	4.111	0.458
101.000	133.983	80.002	19.994	104.074	19.985	4.074	0.444
101.500	134.221	79.999	19.994	104.073	19.987	3.934	0.458
102.001	134.431	80.001	19.996	104.073	19.982	4.235	0.459
102.501	134.668	80.000	19.995	104.073	19.983	4.174	0.448
103.001	134.902	80.003	19.995	104.072	19.985	4.057	0.459
103.500	135.157	80.003	19.995	104.073	19.981	4.327	0.480
104.000	135.407	80.001	19.994	104.069	19.985	4.053	0.497
104.500	135.634	80.002	19.994	104.067	19.985	4.055	0.491
105.000	135.903	80.002	19.995	104.068	19.985	4.095	0.486
105.500	136.114	80.002	19.994	104.068	19.985	4.074	0.488
106.000	136.333	80.002	19.995	104.065	19.984	4.138	0.455
106.500	136.549	80.002	19.995	104.064	19.984	4.119	0.433
107.000	136.849	80.002	19.994	104.062	19.983	4.185	0.475
107.500	137.053	80.003	19.995	104.061	19.982	4.287	0.510
108.000	137.306	80.004	19.995	104.057	19.983	4.220	0.481
108.500	137.572	80.002	19.995	104.057	19.987	3.926	0.488
109.000	137.777	80.003	19.995	104.058	19.986	3.969	0.495
109.500	138.048	80.003	19.995	104.060	19.986	3.964	0.474
110.000	138.256	80.002	19.993	104.058	19.988	3.883	0.478
110.500	138.526	80.003	19.995	104.061	19.982	4.283	0.479
111.000	138.770	80.002	19.994	104.066	19.984	4.099	0.496
111.500	139.004	80.003	19.995	104.071	19.983	4.203	0.496
112.000	139.232	80.001	19.996	104.071	19.984	4.106	0.470
112.500	139.503	80.003	19.994	104.071	19.983	4.214	0.481
113.000	139.763	80.002	19.993	104.066	19.983	4.168	0.515
113.500	139.971	80.002	19.995	104.061	19.981	4.300	0.499
114.001	140.243	80.003	19.996	104.055	19.984	4.099	0.474
114.501	140.505	80.003	19.994	104.051	19.983	4.177	0.507
115.001	140.767	80.004	19.996	104.051	19.986	3.985	0.529
115.500	140.960	80.003	19.995	104.051	19.984	4.124	0.489
116.000	141.263	80.003	19.995	104.054	19.985	4.066	0.475
116.500	141.493	80.002	19.995	104.059	19.984	4.130	0.515
117.000	141.717	80.003	19.996	104.063	19.983	4.214	0.494
117.500	141.982	80.004	19.995	104.062	19.986	4.028	0.472
118.000	142.226	80.002	19.994	104.064	19.989	3.778	0.499
118.500	142.492	80.002	19.996	104.062	19.988	3.840	0.509
119.001	142.725	80.003	19.996	104.056	19.985	4.092	0.504
119.501	142.968	80.003	19.994	104.053	19.988	3.838	0.487
120.000	143.226	80.001	19.996	104.049	19.988	3.850	0.488
120.500	143.477	80.003	19.995	104.046	19.986	4.025	0.506
121.000	143.732	80.004	19.995	104.043	19.985	4.044	0.508
121.500	144.008	80.003	19.995	104.043	19.987	3.920	0.518
122.000	144.276	80.003	19.995	104.043	19.988	3.878	0.537
122.500	144.510	80.002	19.994	104.050	19.983	4.170	0.523
123.000	144.768	80.003	19.994	104.056	19.988	3.832	0.498
123.500	145.011	80.004	19.995	104.058	19.987	3.943	0.497
124.000	145.303	80.004	19.994	104.056	19.984	4.100	0.518
124.500	145.490	80.004	19.996	104.052	19.988	3.863	0.507
125.000	145.752	80.003	19.994	104.045	19.989	3.806	0.464
125.500	146.014	80.003	19.994	104.039	19.985	4.082	0.487
126.000	146.258	80.003	19.992	104.039	19.983	4.169	0.515
126.500	146.540	80.004	19.993	104.041	19.989	3.816	0.515
127.000	146.800	80.002	19.994	104.044	19.988	3.892	0.534
127.500	147.030	80.003	19.993	104.046	19.989	3.770	0.516
128.000	147.310	80.004	19.994	104.054	19.987	3.916	0.500
128.500	147.512	80.003	19.994	104.054	19.989	3.783	0.496
129.000	147.785	80.003	19.993	104.054	19.989	3.801	0.479
129.500	148.073	80.004	19.994	104.051	19.986	3.980	0.518
130.000	148.326	80.005	19.994	104.049	19.989	3.803	0.551
130.500	148.623	80.005	19.994	104.041	19.984	4.122	0.545
131.000	148.843	80.005	19.994	104.038	19.989	3.815	0.534
131.500	149.105	80.005	19.994	104.038	19.987	3.907	0.499
132.000	149.398	80.004	19.994	104.037	19.986	3.967	0.518
132.500	149.662	80.005	19.993	104.038	19.984	4.135	0.556
133.000	149.883	80.004	19.994	104.040	19.986	3.994	0.521
133.500	150.192	80.005	19.992	104.040	19.985	4.044	0.507
134.000	150.382	80.005	19.994	104.039	19.988	3.861	0.514
134.500	150.698	80.005	19.993	104.038	19.988	3.834	0.502
135.000	150.977	80.006	19.993	104.037	19.988	3.872	0.551
135.500	151.195	80.006	19.992	104.035	19.989	3.768	0.546
136.000	151.430	80.006	19.994	104.035	19.988	3.874	0.475
136.500	151.723	80.006	19.994	104.035	19.984	4.149	0.490
137.000	151.977	80.006	19.993	104.036	19.991	3.684	0.538
137.500	152.199	80.006	19.994	104.037	19.989	3.766	0.512
138.000	152.475	80.005	19.994	104.038	19.987	3.903	0.487
138.500	152.767	80.007	19.994	104.038	19.988	3.887	0.533
139.000	153.011	80.006	19.993	104.037	19.991	3.686	0.552
139.500	153.241	80.006	19.994	104.036	19.987	3.896	0.504
140.000	153.485	80.004	19.992	104.036	19.989	3.777	0.474
140.500	153.772	80.005	19.995	104.034	19.989	3.786	0.503
141.000	154.052	80.005	19.994	104.034	19.991	3.646	0.549
141.500	154.270	80.005	19.994	104.035	19.992	3.616	0.532
142.000	154.524	80.005	19.994	104.035	19.989	3.828	0.485
142.500	154.780	80.004	19.993	104.035	19.990	3.718	0.491
143.000	155.037	80.004	19.995	104.035	19.990	3.760	0.512
143.500	155.297	80.003	19.993	104.035	19.990	3.713	0.515
144.000	155.510	80.003	19.994	104.035	19.991	3.660	0.495
144.500	155.785	80.003	19.993	104.035	19.986	3.970	0.481
145.001	156.049	80.003	19.994	104.035	19.987	3.926	0.513
145.501	156.312	80.001	19.994	104.035	19.991	3.653	0.532
146.000	156.556	80.003	19.994	104.035	19.989	3.808	0.517
146.500	156.827	80.002	19.993	104.036	19.988	3.879	0.511
147.000	157.059	80.002	19.993	104.036	19.990	3.740	0.509
147.500	157.335	80.003	19.994	104.036	19.990	3.698	0.505
148.000	157.589	80.002	19.993	104.037	19.989	3.788	0.520
148.500	157.844	80.003	19.994	104.037	19.986	3.976	0.520
149.000	158.129	80.004	19.994	104.035	19.990	3.733	0.524
149.500	158.381	80.002	19.993	104.034	19.988	3.837	0.538
150.000	158.675	80.003	19.993	104.033	19.990	3.726	0.541
150.500	158.875	80.003	19.994	104.030	19.989	3.781	0.520
151.000	159.116	80.002	19.993	104.030	19.990	3.709	0.468
151.500	159.368	80.002	19.994	104.029	19.989	3.815	0.467
152.000	159.644	80.003	19.994	104.029	19.992	3.578	0.511
152.500	159.894	80.002	19.994	104.029	19.991	3.689	0.527
153.000	160.148	80.003	19.994	104.030	19.989	3.788	0.515
153.500	160.402	80.003	19.994	104.028	19.986	4.007	0.506
154.000	160.671	80.002	19.994	104.027	19.991	3.662	0.515
154.500	160.937	80.001	19.993	104.024	19.991	3.656	0.529
155.000	161.196	80.002	19.992	104.021	19.989	3.785	0.530
155.500	161.486	80.002	19.992	104.022	19.989	3.774	0.537
156.000	161.728	80.002	19.994	104.025	19.991	3.663	0.541
156.500	161.941	80.002	19.994	104.029	19.988	3.838	0.493
157.000	162.207	80.003	19.993	104.029	19.994	3.488	0.467
157.500	162.470	80.002	19.994	104.030	19.993	3.541	0.504
158.000	162.696	80.001	19.993	104.030	19.989	3.762	0.509
158.500	162.963	80.002	19.993	104.024	19.992	3.587	0.491
159.000	163.218	80.003	19.994	104.024	19.989	3.774	0.508
159.500	163.481	80.002	19.993	104.027	19.993	3.552	0.520
160.000	163.712	80.003	19.995	104.030	19.991	3.630	0.506
160.500	163.971	80.002	19.994	104.030	19.993	3.517	0.492
161.000	164.234	80.003	19.993	104.035	19.994	3.477	0.506
161.500	164.460	80.002	19.994	104.035	19.994	3.462	0.505
162.000	164.774	80.003	19.994	104.032	19.994	3.457	0.514
162.500	164.994	80.003	19.993	104.031	19.993	3.546	0.537
163.000	165.289	80.004	19.993	104.031	19.994	3.491	0.524
163.500	165.502	80.003	19.994	104.030	19.992	3.575	0.511
164.000	165.797	80.002	19.993	104.025	19.993	3.501	0.508
164.500	166.027	80.003	19.993	104.023	19.992	3.575	0.516
165.000	166.301	80.002	19.993	104.017	19.988	3.876	0.515
165.500	166.543	80.002	19.993	104.010	19.995	3.393	0.510
166.000	166.839	80.002	19.994	104.005	19.990	3.703	0.528
166.501	167.061	80.002	19.993	104.004	19.993	3.513	0.528
167.000	167.320	80.003	19.993	104.010	19.994	3.486	0.499
167.500	167.562	80.002	19.993	104.014	19.991	3.634	0.491
168.000	167.810	80.001	19.992	104.016	19.997	3.291	0.495
168.500	168.064	80.001	19.994	104.019	19.994	3.448	0.496
169.000	168.317	80.001	19.994	104.022	19.991	3.681	0.504
169.500	168.544	80.002	19.992	104.015	19.989	3.809	0.494
170.000	168.828	80.002	19.994	104.012	19.997	3.254	0.496
170.500	169.031	80.001	19.993	104.009	19.996	3.333	0.499
171.000	169.284	80.001	19.993	104.006	19.996	3.303	0.472
171.500	169.531	80.002	19.995	104.002	19.992	3.619	0.478
172.000	169.851	80.002	19.993	104.001	19.997	3.271	0.533
172.500	170.100	80.001	19.993	104.001	19.996	3.334	0.568
173.000	170.335	80.000	19.993	104.001	19.994	3.468	0.526
173.500	170.578	80.003	19.993	104.002	19.995	3.393	0.481
174.000	170.843	80.001	19.995	104.003	19.994	3.458	0.493
174.500	171.099	80.001	19.993	104.003	19.996	3.296	0.514
175.000	171.354	80.001	19.994	104.003	19.995	3.389	0.516
175.500	171.588	80.002	19.993	104.003	19.993	3.519	0.500
176.000	171.838	80.002	19.992	104.003	19.994	3.475	0.486
176.500	172.115	80.002	19.994	104.001	19.996	3.358	0.505
177.001	172.363	80.002	19.994	104.001	19.992	3.599	0.526
177.501	172.578	80.002	19.995	104.002	19.994	3.480	0.494
178.000	172.821	80.001	19.994	104.002	19.996	3.349	0.461
178.500	173.052	80.002	19.995	104.001	19.992	3.606	0.466
179.000	173.366	80.002	19.993	104.001	19.995	3.365	0.510
179.500	173.550	80.003	19.996	104.002	20.000	3.064	0.521
180.000	173.805	80.001	19.995	104.002	19.994	3.440	0.468
180.500	174.101	80.002	19.995	104.001	19.999	3.147	0.495
181.000	174.331	80.001	19.994	104.001	19.997	3.229	0.538
181.500	174.606	80.002	19.996	104.001	20.000	3.083	0.515
182.000	174.836	80.002	19.995	103.999	19.997	3.230	0.505
182.500	175.099	80.002	19.994	103.998	19.995	3.365	0.500
183.000	175.339	80.002	19.995	103.997	19.999	3.148	0.498
183.500	175.576	80.001	19.995	103.997	19.994	3.488	0.490
184.000	175.843	80.002	19.995	103.998	19.998	3.221	0.490
184.500	176.068	80.004	19.995	103.998	19.996	3.353	0.498
185.000	176.342	80.003	19.995	103.998	19.999	3.119	0.496
185.500	176.551	80.003	19.994	103.999	19.995	3.425	0.491
186.000	176.813	80.004	19.996	103.999	19.997	3.291	0.477
186.500	177.068	80.003	19.996	103.999	19.995	3.404	0.494
187.000	177.300	80.002	19.993	103.998	19.999	3.154	0.502
187.500	177.586	80.004	19.994	103.998	19.999	3.121	0.502
188.000	177.818	80.004	19.995	103.997	19.999	3.143	0.518
188.500	178.041	80.004	19.995	103.997	19.997	3.254	0.486
189.000	178.329	80.004	19.995	103.998	19.998	3.210	0.483
189.500	178.533	80.004	19.996	103.999	19.998	3.166	0.502
190.000	178.771	80.003	19.994	104.000	19.997	3.232	0.467
190.500	179.031	80.004	19.995	104.000	19.995	3.416	0.470
191.000	179.275	80.004	19.994	104.000	20.000	3.030	0.501
191.500	179.517	80.004	19.995	103.999	20.003	2.887	0.495
192.000	179.804	80.004	19.994	103.998	19.998	3.190	0.507
192.500	180.043	80.004	19.995	103.996	20.002	2.926	0.528
193.000	180.262	80.005	19.994	103.996	20.000	3.044	0.492
193.500	180.548	80.005	19.994	103.996	19.997	3.265	0.482
194.000	180.747	80.006	19.994	103.997	20.000	3.046	0.495
194.500	181.027	80.005	19.994	103.997	20.001	3.013	0.482
195.000	181.255	80.005	19.995	103.996	20.000	3.090	0.493
195.500	181.520	80.005	19.995	103.996	20.000	3.052	0.500
196.000	181.776	80.005	19.994	103.996	19.999	3.152	0.507
196.500	181.996	80.005	19.995	103.996	20.000	3.026	0.499
197.000	182.255	80.004	19.993	103.996	20.001	3.017	0.477
197.500	182.507	80.004	19.993	103.997	20.004	2.825	0.495
198.000	182.754	80.004	19.994	103.995	20.000	3.028	0.505
198.500	182.995	80.004	19.995	103.995	19.998	3.163	0.493
199.000	183.233	80.003	19.994	103.995	20.000	3.031	0.483
199.500	183.482	80.003	19.993	103.994	20.002	2.957	0.483
200.000	183.695	80.003	19.994	103.993	20.000	3.090	0.475
200.500	183.961	80.003	19.994	103.993	19.998	3.208	0.470
201.000	184.231	80.003	19.994	103.992	20.002	2.947	0.508
201.500	184.431	80.003	19.996	103.990	20.000	3.031	0.503
202.000	184.712	80.004	19.995	103.991	19.996	3.305	0.475
202.500	184.921	80.003	19.994	103.993	20.001	3.013	0.486
203.000	185.166	80.003	19.995	103.994	19.997	3.230	0.472
203.500	185.400	80.003	19.995	103.995	20.002	2.915	0.466
204.000	185.661	80.004	19.995	103.997	20.000	3.057	0.487
204.500	185.928	80.003	19.996	103.997	20.002	2.944	0.511
205.000	186.206	80.002	19.995	103.996	19.999	3.095	0.537
205.500	186.439	80.003	19.995	103.996	20.001	2.973	0.529
206.000	186.708	80.003	19.995	103.996	20.001	2.984	0.507
206.500	186.967	80.004	19.997	103.996	19.997	3.243	0.515
207.000	187.172	80.003	19.996	103.996	20.002	2.957	0.496
207.500	187.411	80.004	19.995	103.996	19.999	3.139	0.454
208.000	187.649	80.005	19.995	103.996	20.002	2.929	0.461
208.500	187.914	80.004	19.995	103.996	20.001	2.995	0.490
209.000	188.154	80.003	19.995	103.996	20.004	2.796	0.504
209.500	188.420	80.003	19.994	103.995	20.002	2.920	0.506
210.000	188.622	80.004	19.995	103.995	19.999	3.103	0.487
210.500	188.888	80.004	19.994	103.993	20.004	2.825	0.468
211.000	189.128	80.004	19.995	103.993	20.000	3.048	0.487
211.500	189.368	80.005	19.995	103.992	20.000	3.041	0.493
212.000	189.634	80.004	19.996	103.992	20.002	2.918	0.493
212.500	189.845	80.006	19.996	103.990	20.003	2.884	0.492
213.000	190.113	80.005	19.995	103.989	20.002	2.916	0.478
213.500	190.264	80.005	19.996	103.987	20.002	2.929	0.449
214.000	190.554	80.005	19.995	103.987	20.003	2.880	0.430
214.500	190.745	80.005	19.994	103.988	20.003	2.831	0.461
215.000	191.008	80.004	19.994	103.989	20.002	2.904	0.468
215.500	191.249	80.006	19.996	103.993	19.999	3.115	0.479
216.000	191.529	80.005	19.996	103.996	20.002	2.927	0.512
216.500	191.716	80.005	19.995	103.994	20.002	2.916	0.494
217.000	191.982	80.005	19.995	103.992	20.001	2.968	0.460
217.500	192.216	80.005	19.995	103.992	20.001	3.019	0.476
218.000	192.463	80.005	19.991	103.991	20.001	2.998	0.490
218.500	192.676	80.006	19.994	103.990	19.998	3.181	0.470
219.000	192.959	80.005	19.995	103.992	20.003	2.858	0.478
219.500	193.194	80.005	19.995	103.994	20.002	2.954	0.507
220.000	193.438	80.005	19.995	103.994	20.001	2.967	0.498
220.500	193.644	80.005	19.994	103.995	20.005	2.748	0.464
221.000	193.910	80.005	19.994	103.996	20.002	2.909	0.461
221.500	194.163	80.004	19.993	103.996	20.003	2.887	0.496
222.000	194.389	80.004	19.994	103.996	20.004	2.778	0.499
222.500	194.602	80.004	19.994	103.995	20.001	3.006	0.459
223.000	194.906	80.005	19.993	103.996	20.001	2.966	0.478
223.500	195.142	80.005	19.995	103.994	20.003	2.840	0.528
224.000	195.346	80.005	19.993	103.992	20.004	2.771	0.490
224.500	195.604	80.004	19.993	103.993	20.000	3.042	0.451
225.000	195.833	80.004	19.994	103.994	20.003	2.876	0.475
225.500	196.093	80.003	19.993	103.994	20.002	2.951	0.488
226.000	196.313	80.002	19.993	103.995	20.002	2.900	0.485
226.500	196.555	80.003	19.992	103.994	20.005	2.745	0.471
227.000	196.792	80.003	19.993	103.991	20.002	2.906	0.471
227.500	197.051	80.002	19.993	103.992	20.000	3.061	0.488
228.000	197.259	80.003	19.994	103.991	20.002	2.893	0.481
228.500	197.503	80.003	19.994	103.992	20.003	2.856	0.459
229.000	197.775	80.003	19.994	103.988	20.001	3.013	0.484
229.500	197.996	80.003	19.993	103.987	20.005	2.730	0.505
230.000	198.237	80.003	19.994	103.985	20.000	3.031	0.478
230.500	198.463	80.002	19.993	103.980	20.000	3.042	0.464
231.000	198.686	80.003	19.994	103.979	20.002	2.957	0.458
231.500	198.898	80.003	19.994	103.985	20.000	3.042	0.442
232.000	199.146	80.003	19.993	103.988	20.000	3.081	0.447
232.501	199.410	80.003	19.993	103.990	20.001	2.991	0.486
233.001	199.653	80.002	19.993	103.996	20.002	2.922	0.510
233.501	199.930	80.003	19.993	103.997	20.003	2.871	0.514
234.000	200.125	80.003	19.994	103.997	20.000	3.037	0.496
234.500	200.373	80.003	19.994	103.996	20.001	2.997	0.457
235.000	200.626	80.003	19.994	103.996	20.001	3.009	0.472
235.500	200.846	80.002	19.993	103.993	20.002	2.929	0.487
236.000	201.107	80.003	19.994	103.992	20.002	2.918	0.477
236.500	201.323	80.001	19.995	103.993	20.001	2.982	0.480
237.000	201.594	80.003	19.994	103.993	20.000	3.068	0.482
237.500	201.830	80.002	19.995	103.993	20.000	3.040	0.497
238.000	202.050	80.003	19.994	103.996	20.002	2.893	0.482
238.500	202.303	80.002	19.994	103.997	19.999	3.123	0.465
239.000	202.537	80.001	19.994	103.995	20.001	2.980	0.480
239.500	202.761	80.002	19.994	103.994	19.998	3.170	0.472
240.000	203.028	80.002	19.994	103.994	20.002	2.916	0.475
240.500	203.296	80.003	19.994	103.994	20.002	2.926	0.513
241.000	203.520	80.002	19.993	103.992	20.002	2.922	0.513
241.500	203.734	80.003	19.994	103.990	20.001	2.971	0.465
242.000	203.958	80.002	19.995	103.990	20.000	3.031	0.438
242.500	204.248	80.003	19.994	103.990	20.000	3.050	0.476
243.000	204.446	80.003	19.994	103.991	19.998	3.166	0.501
243.500	204.722	80.003	19.994	103.990	20.000	3.064	0.481
244.000	204.944	80.003	19.993	103.994	20.002	2.913	0.486
244.500	205.166	80.003	19.993	103.994	19.998	3.183	0.471
245.000	205.435	80.002	19.994	103.992	20.000	3.037	0.468
245.500	205.670	80.002	19.994	103.991	20.001	2.988	0.498
246.000	205.881	80.003	19.995	103.992	20.001	2.993	0.475
246.500	206.155	80.002	19.993	103.986	19.999	3.134	0.465
247.000	206.405	80.003	19.994	103.985	20.003	2.827	0.504
247.500	206.642	80.004	19.993	103.985	19.999	3.152	0.505
248.000	206.914	80.002	19.993	103.983	20.000	3.053	0.498
248.500	207.100	80.003	19.994	103.984	20.003	2.891	0.484
249.000	207.360	80.002	19.993	103.989	20.003	2.889	0.452
249.500	207.632	80.002	19.993	103.990	20.002	2.902	0.489
250.000	207.827	80.004	19.994	103.989	20.001	2.971	0.500
250.501	208.076	80.004	19.995	103.991	20.000	3.048	0.456
251.000	208.309	80.004	19.995	103.990	20.000	3.066	0.463
251.500	208.597	80.003	19.993	103.989	20.005	2.732	0.501
252.000	208.815	80.003	19.993	103.989	20.001	2.993	0.513
252.500	209.078	80.003	19.993	103.988	20.001	3.020	0.494
253.000	209.292	80.003	19.994	103.988	20.000	3.073	0.479
253.500	209.538	80.003	19.993	103.988	20.000	3.073	0.468
254.000	209.763	80.003	19.994	103.988	20.004	2.816	0.466
254.500	210.006	80.003	19.994	103.990	20.003	2.880	0.470
255.000	210.233	80.003	19.993	103.991	20.005	2.720	0.469
255.500	210.496	80.004	19.994	103.990	20.000	3.026	0.479
256.000	210.776	80.004	19.994	103.990	20.000	3.028	0.516
256.500	210.943	80.003	19.993	103.990	20.000	3.044	0.495
257.000	211.252	80.004	19.994	103.990	20.001	2.984	0.461
257.500	211.463	80.003	19.995	103.991	20.001	2.965	0.498
258.000	211.710	80.003	19.994	103.993	19.999	3.122	0.489
258.500	211.947	80.002	19.994	103.993	20.002	2.918	0.471
259.000	212.192	80.003	19.994	103.994	20.003	2.883	0.483
259.500	212.436	80.003	19.994	103.993	20.000	3.068	0.486
260.000	212.683	80.003	19.994	103.993	20.001	3.011	0.490
260.500	212.937	80.002	19.994	103.992	20.000	3.071	0.496
261.000	213.169	80.003	19.995	103.994	20.002	2.924	0.493
261.500	213.409	80.002	19.995	103.995	20.001	3.020	0.479
262.000	213.670	80.002	19.994	103.994	20.001	2.993	0.487
262.500	213.894	80.002	19.994	103.992	19.998	3.216	0.493
263.000	214.163	80.002	19.994	103.993	19.998	3.163	0.489
263.500	214.405	80.003	19.994	103.993	20.000	3.039	0.502
264.000	214.646	80.002	19.994	103.992	20.002	2.937	0.497
264.500	214.863	80.003	19.993	103.993	20.000	3.083	0.471
265.000	215.126	80.003	19.994	103.994	19.998	3.166	0.469
265.500	215.365	80.004	19.993	103.994	20.001	3.006	0.491
266.000	215.612	80.002	19.994	103.993	20.003	2.833	0.494
266.500	215.836	80.002	19.994	103.992	20.002	2.913	0.479
267.000	216.105	80.002	19.994	103.991	20.003	2.876	0.482
267.500	216.327	80.004	19.994	103.986	20.001	3.002	0.492
268.000	216.593	80.005	19.994	103.979	19.999	3.130	0.490
268.500	216.850	80.003	19.994	103.975	20.003	2.875	0.505
269.000	217.110	80.005	19.995	103.973	20.004	2.823	0.520
269.500	217.310	80.004	19.994	103.975	20.003	2.849	0.489
270.000	217.555	80.004	19.995	103.976	19.999	3.121	0.452
270.500	217.814	80.002	19.994	103.980	20.001	2.989	0.475
271.001	218.036	80.004	19.995	103.984	20.002	2.913	0.493
271.500	218.299	80.003	19.994	103.983	20.003	2.874	0.483
272.000	218.558	80.003	19.995	103.984	20.000	3.040	0.503
272.500	218.784	80.004	19.995	103.987	19.999	3.095	0.503
273.000	219.022	80.003	19.995	103.990	20.000	3.042	0.474
273.500	219.287	80.004	19.994	103.991	20.000	3.062	0.483
274.000	219.536	80.004	19.995	103.994	20.002	2.907	0.508
274.500	219.767	80.005	19.994	103.994	20.000	3.080	0.497
275.000	220.034	80.004	19.996	103.994	19.999	3.117	0.489
275.500	220.266	80.005	19.994	103.994	20.000	3.091	0.499
276.000	220.480	80.005	19.996	103.991	20.003	2.862	0.472
276.500	220.720	80.005	19.994	103.991	20.001	2.962	0.450
277.001	220.963	80.004	19.994	103.991	20.002	2.929	0.468
277.500	221.219	80.006	19.994	103.991	20.004	2.809	0.491
278.000	221.481	80.004	19.993	103.990	19.999	3.106	0.509
278.500	221.698	80.004	19.996	103.991	20.001	2.986	0.498
279.000	221.959	80.005	19.996	103.991	19.998	3.219	0.478
279.500	222.213	80.005	19.996	103.992	20.001	3.002	0.497
280.000	222.439	80.005	19.996	103.990	20.001	3.006	0.498
280.500	222.719	80.005	19.994	103.990	19.999	3.106	0.493
281.000	222.976	80.005	19.996	103.992	19.999	3.112	0.521
281.500	223.233	80.004	19.994	103.992	20.000	3.048	0.525
282.000	223.478	80.006	19.994	103.990	20.000	3.071	0.508
282.500	223.740	80.006	19.994	103.989	19.999	3.137	0.505
283.000	223.968	80.004	19.994	103.991	20.001	2.987	0.499
283.500	224.213	80.003	19.994	103.992	20.001	2.967	0.481
284.000	224.419	80.003	19.995	103.990	20.002	2.947	0.461
284.500	224.709	80.004	19.994	103.987	20.002	2.931	0.474
285.000	224.919	80.005	19.995	103.988	20.001	3.024	0.498
285.500	225.169	80.004	19.994	103.987	20.000	3.040	0.480
286.000	225.446	80.004	19.995	103.982	19.999	3.159	0.493
286.500	225.672	80.004	19.994	103.982	19.999	3.111	0.515
287.000	225.940	80.003	19.995	103.985	20.000	3.066	0.499
287.500	226.203	80.004	19.994	103.984	20.000	3.069	0.513
288.000	226.455	80.003	19.994	103.985	19.998	3.166	0.523
288.500	226.688	80.004	19.994	103.989	19.999	3.108	0.500
289.000	226.924	80.004	19.995	103.990	19.998	3.188	0.477
289.500	227.158	80.005	19.995	103.992	20.000	3.090	0.469
290.000	227.446	80.004	19.995	103.994	20.001	2.969	0.496
290.500	227.677	80.005	19.995	103.993	20.002	2.896	0.520
291.000	227.954	80.004	19.995	103.989	20.003	2.891	0.513
291.500	228.213	80.003	19.994	103.990	20.001	3.004	0.522
292.000	228.456	80.004	19.994	103.990	20.003	2.860	0.520
292.500	228.703	80.004	19.994	103.983	20.002	2.911	0.496
293.000	228.942	80.004	19.994	103.980	20.002	2.905	0.488
293.500	229.235	80.004	19.993	103.981	20.003	2.841	0.509
294.000	229.470	80.003	19.993	103.982	20.004	2.781	0.529
294.500	229.731	80.004	19.995	103.981	20.001	2.965	0.512
295.000	229.998	80.004	19.993	103.984	20.001	3.002	0.513
295.500	230.234	80.004	19.994	103.984	20.002	2.916	0.516
296.000	230.494	80.004	19.994	103.986	20.002	2.892	0.499
296.500	230.710	80.005	19.995	103.983	20.004	2.821	0.486
297.000	231.003	80.006	19.994	103.982	20.000	3.038	0.492
297.500	231.272	80.004	19.994	103.983	20.003	2.871	0.535
298.000	231.480	80.005	19.994	103.982	20.003	2.869	0.520
298.500	231.734	80.005	19.994	103.976	20.003	2.842	0.470
299.000	232.007	80.005	19.993	103.977	20.002	2.905	0.494
299.500	232.254	80.004	19.994	103.978	20.005	2.696	0.523
300.000	232.477	80.006	19.995	103.980	20.005	2.697	0.495
300.500	232.767	80.005	19.994	103.985	20.005	2.692	0.492
301.000	232.971	80.004	19.994	103.991	20.004	2.821	0.504
301.500	233.229	80.005	19.993	103.993	20.004	2.810	0.478
302.001	233.471	80.004	19.994	103.992	20.002	2.905	0.481
302.501	233.728	80.004	19.994	103.989	20.004	2.770	0.499
303.000	233.976	80.004	19.995	103.983	20.001	2.964	0.502
303.500	234.260	80.003	19.993	103.976	20.003	2.850	0.519
304.000	234.485	80.005	19.994	103.973	20.003	2.854	0.521
304.500	234.749	80.003	19.996	103.974	20.006	2.684	0.499
305.000	235.011	80.004	19.995	103.973	20.004	2.793	0.507
305.500	235.287	80.004	19.994	103.976	20.004	2.797	0.532
306.000	235.524	80.004	19.994	103.978	20.004	2.782	0.526
306.500	235.773	80.003	19.994	103.979	20.003	2.839	0.499
307.000	236.031	80.003	19.993	103.978	20.006	2.626	0.496
307.500	236.277	80.004	19.995	103.982	20.002	2.952	0.505
308.000	236.556	80.002	19.994	103.985	20.002	2.901	0.514
308.500	236.794	80.003	19.995	103.988	20.002	2.939	0.521
309.001	237.044	80.002	19.995	103.989	20.004	2.781	0.503
309.500	237.300	80.002	19.995	103.986	20.006	2.679	0.497
310.000	237.514	80.002	19.994	103.986	20.002	2.936	0.488
310.500	237.815	80.003	19.995	103.985	20.003	2.863	0.492
311.000	238.060	80.003	19.994	103.979	20.001	2.998	0.530
311.500	238.291	80.003	19.995	103.976	20.009	2.491	0.511
312.000	238.549	80.004	19.993	103.976	20.001	2.996	0.482
312.500	238.821	80.003	19.996	103.976	20.007	2.573	0.509
313.000	239.041	80.003	19.994	103.977	20.005	2.708	0.511
313.500	239.316	80.003	19.995	103.981	20.004	2.812	0.494
314.000	239.560	80.003	19.994	103.980	20.003	2.886	0.507
314.500	239.795	80.004	19.994	103.976	20.005	2.739	0.499
315.000	240.052	80.003	19.993	103.972	20.004	2.823	0.486
315.500	240.293	80.003	19.994	103.963	20.007	2.618	0.495
316.000	240.560	80.003	19.996	103.959	20.005	2.752	0.503
316.500	240.783	80.002	19.993	103.958	20.008	2.522	0.499
317.000	241.035	80.002	19.994	103.958	20.004	2.783	0.483
317.500	241.286	80.002	19.994	103.958	20.004	2.781	0.489
318.000	241.535	80.002	19.994	103.959	20.001	2.989	0.501
318.500	241.773	80.002	19.993	103.958	20.001	3.020	0.494
319.000	242.059	80.003	19.994	103.959	20.003	2.866	0.506
319.500	242.313	80.003	19.993	103.960	20.002	2.916	0.532
320.000	242.549	80.003	19.994	103.960	20.001	2.992	0.515
320.500	242.786	80.003	19.994	103.959	20.004	2.790	0.482
321.000	243.043	80.003	19.992	103.959	20.003	2.888	0.483
321.500	243.322	80.002	19.994	103.957	20.004	2.792	0.515
322.000	243.614	80.003	19.993	103.957	20.005	2.726	0.553
322.500	243.830	80.003	19.995	103.957	20.001	2.972	0.539
323.000	244.099	80.003	19.993	103.958	20.003	2.828	0.496
323.500	244.317	80.004	19.995	103.958	20.005	2.721	0.486
324.000	244.555	80.003	19.995	103.959	20.004	2.777	0.472
324.500	244.815	80.003	19.994	103.959	20.005	2.715	0.477
325.000	245.065	80.003	19.993	103.959	20.005	2.723	0.504
325.500	245.368	80.002	19.993	103.962	20.002	2.923	0.532
326.000	245.556	80.004	19.994	103.964	20.007	2.608	0.522
326.500	245.863	80.004	19.994	103.963	20.004	2.814	0.493
327.000	246.111	80.003	19.992	103.966	20.004	2.823	0.524
327.500	246.372	80.004	19.994	103.966	20.007	2.589	0.532
328.000	246.596	80.004	19.994	103.965	20.007	2.617	0.497
328.500	246.850	80.003	19.992	103.964	20.009	2.484	0.482
329.000	247.088	80.003	19.995	103.963	20.002	2.914	0.486
329.500	247.362	80.002	19.994	103.962	20.007	2.604	0.502
330.000	247.584	80.002	19.993	103.961	20.001	2.985	0.503
330.500	247.856	80.002	19.993	103.963	20.004	2.810	0.494
331.000	248.113	80.004	19.993	103.964	20.003	2.881	0.512
331.500	248.334	80.003	19.994	103.965	20.008	2.542	0.504
332.000	248.603	80.004	19.993	103.964	20.007	2.618	0.484
332.500	248.819	80.003	19.994	103.962	20.009	2.443	0.488
333.000	249.094	80.002	19.994	103.958	20.008	2.525	0.488
333.500	249.336	80.004	19.993	103.958	20.006	2.662	0.504
334.000	249.609	80.004	19.994	103.959	20.007	2.571	0.516
334.500	249.890	80.004	19.993	103.961	20.005	2.693	0.535
335.000	250.133	80.003	19.995	103.967	20.003	2.861	0.539
335.500	250.406	80.005	19.995	103.970	20.005	2.752	0.519
336.000	250.617	80.003	19.994	103.970	20.005	2.726	0.500
336.500	250.898	80.003	19.994	103.970	20.004	2.759	0.488
337.000	251.138	80.003	19.994	103.969	20.006	2.668	0.506
337.500	251.383	80.004	19.993	103.963	20.003	2.850	0.503
338.000	251.643	80.002	19.992	103.960	20.004	2.773	0.495
338.500	251.895	80.002	19.995	103.961	20.003	2.852	0.509
339.000	252.172	80.003	19.996	103.967	20.001	2.961	0.521
339.501	252.424	80.003	19.997	103.972	20.006	2.648	0.529
340.000	252.649	80.002	19.996	103.977	20.001	3.007	0.503
340.500	252.885	80.003	19.995	103.981	20.007	2.604	0.469
341.000	253.169	80.001	19.994	103.980	20.002	2.901	0.491
341.500	253.407	80.001	19.994	103.973	20.005	2.755	0.521
342.000	253.679	80.002	19.995	103.967	20.003	2.887	0.515
342.500	253.883	80.004	19.995	103.962	20.003	2.883	0.493
343.000	254.141	80.003	19.995	103.959	20.003	2.872	0.469
343.500	254.420	80.003	19.995	103.960	19.999	3.149	0.499
344.000	254.662	80.003	19.995	103.964	20.003	2.866	0.528
344.500	254.928	80.004	19.995	103.966	20.003	2.834	0.515
345.000	255.184	80.003	19.995	103.966	20.001	2.978	0.516
345.501	255.425	80.003	19.994	103.965	20.004	2.803	0.509
346.001	255.696	80.002	19.995	103.966	20.000	3.060	0.504
346.500	255.916	80.003	19.995	103.961	20.003	2.837	0.502
347.000	256.195	80.002	19.993	103.960	20.003	2.870	0.495
347.500	256.415	80.003	19.994	103.960	20.003	2.857	0.499
348.000	256.687	80.002	19.993	103.961	20.001	2.999	0.496
348.500	256.949	80.003	19.993	103.961	20.005	2.730	0.513
349.000	257.152	80.002	19.993	103.961	20.004	2.824	0.499
349.500	257.403	80.003	19.994	103.961	20.002	2.892	0.459
350.000	257.674	80.002	19.993	103.961	20.003	2.826	0.488
350.500	257.936	80.004	19.994	103.959	20.002	2.957	0.528
351.000	258.124	80.003	19.995	103.960	20.004	2.802	0.492
351.500	258.370	80.003	19.993	103.961	20.000	3.027	0.442
352.000	258.650	80.003	19.993	103.962	19.999	3.098	0.480
352.500	258.932	80.005	19.993	103.963	20.007	2.613	0.544
353.000	259.141	80.005	19.995	103.964	20.002	2.934	0.526
353.500	259.378	80.004	19.993	103.964	20.003	2.835	0.468
354.000	259.618	80.004	19.994	103.962	20.002	2.903	0.461
354.501	259.895	80.004	19.994	103.961	20.000	3.073	0.497
355.000	260.106	80.005	19.994	103.960	20.000	3.045	0.503
355.500	260.404	80.004	19.995	103.960	19.999	3.158	0.499
356.000	260.625	80.004	19.993	103.960	19.999	3.135	0.514
356.500	260.877	80.005	19.994	103.961	20.003	2.837	0.495
357.000	261.113	80.006	19.993	103.961	20.004	2.817	0.480
357.500	261.357	80.004	19.993	103.961	20.005	2.748	0.484
358.000	261.595	80.004	19.993	103.961	20.006	2.626	0.482
358.500	261.867	80.005	19.993	103.960	19.999	3.136	0.496
359.000	262.112	80.004	19.994	103.959	20.003	2.875	0.513
359.500	262.382	80.005	19.993	103.959	20.004	2.782	0.516
360.000	262.606	80.005	19.993	103.960	20.004	2.797	0.505
360.500	262.845	80.004	19.994	103.960	20.003	2.870	0.479
361.000	263.100	80.005	19.993	103.959	20.005	2.741	0.478
361.500	263.353	80.004	19.993	103.959	20.003	2.850	0.501
362.000	263.584	80.005	19.993	103.959	20.007	2.567	0.496
362.500	263.839	80.002	19.992	103.958	19.999	3.122	0.485
363.001	264.089	80.004	19.994	103.959	20.000	3.025	0.496
363.500	264.329	80.003	19.994	103.959	20.002	2.892	0.498
364.000	264.579	80.003	19.997	103.960	20.005	2.708	0.490
364.500	264.826	80.002	19.995	103.962	20.005	2.741	0.493
365.000	265.095	80.003	19.995	103.963	20.005	2.715	0.506
365.500	265.359	80.003	19.996	103.964	20.005	2.708	0.524
366.000	265.604	80.003	19.995	103.965	20.005	2.693	0.521
366.500	265.860	80.003	19.995	103.964	20.012	2.252	0.505
367.000	266.075	80.003	19.994	103.964	20.003	2.877	0.486
367.500	266.333	80.004	19.995	103.963	20.003	2.864	0.473
368.000	266.593	80.003	19.994	103.962	20.001	3.012	0.496
368.500	266.814	80.003	19.994	103.961	20.008	2.494	0.500
369.000	267.035	80.003	19.994	103.961	20.001	2.983	0.462
369.500	267.327	80.004	19.995	103.960	20.005	2.719	0.478
370.000	267.603	80.004	19.994	103.960	20.007	2.589	0.540
370.500	267.836	80.004	19.995	103.960	20.004	2.824	0.538
371.000	268.084	80.002	19.994	103.960	20.008	2.554	0.495
371.500	268.331	80.004	19.995	103.960	20.002	2.952	0.488
372.000	268.581	80.004	19.994	103.960	20.000	3.043	0.496
372.500	268.820	80.004	19.994	103.961	20.001	3.012	0.493
373.000	269.063	80.004	19.994	103.960	20.003	2.848	0.485
373.500	269.322	80.006	19.994	103.959	20.001	2.983	0.492
374.000	269.586	80.004	19.995	103.959	20.006	2.629	0.512
374.500	269.810	80.004	19.994	103.959	20.003	2.859	0.505
375.000	270.083	80.005	19.996	103.958	20.004	2.821	0.493
375.500	270.338	80.005	19.995	103.958	20.005	2.735	0.513
376.000	270.647	80.005	19.994	103.961	20.001	2.965	0.546
376.500	270.837	80.004	19.994	103.961	20.006	2.658	0.532
377.000	271.086	80.005	19.994	103.961	20.002	2.937	0.469
377.500	271.367	80.004	19.995	103.961	20.004	2.777	0.484
378.000	271.625	80.006	19.994	103.960	20.002	2.925	0.534
378.500	271.846	80.007	19.994	103.957	20.007	2.587	0.509
379.000	272.131	80.005	19.993	103.956	20.005	2.753	0.492
379.500	272.356	80.006	19.993	103.956	20.000	3.065	0.507
380.000	272.661	80.006	19.994	103.956	20.003	2.875	0.520
380.500	272.892	80.006	19.994	103.957	20.005	2.753	0.533
381.000	273.136	80.006	19.995	103.957	20.002	2.903	0.506
381.500	273.362	80.006	19.994	103.957	20.002	2.936	0.472
382.000	273.632	80.006	19.994	103.957	20.004	2.788	0.483
382.500	273.871	80.006	19.994	103.957	20.003	2.850	0.503
383.000	274.079	80.007	19.994	103.956	20.003	2.872	0.478
383.500	274.368	80.005	19.994	103.956	20.000	3.087	0.472
384.000	274.614	80.006	19.994	103.954	20.003	2.854	0.516
384.500	274.869	80.005	19.994	103.953	20.002	2.917	0.518
385.000	275.111	80.006	19.994	103.953	19.999	3.098	0.499
385.500	275.351	80.006	19.995	103.953	20.007	2.619	0.490
386.000	275.631	80.005	19.993	103.954	20.003	2.879	0.501
386.500	275.827	80.004	19.994	103.955	20.001	3.016	0.498
387.000	276.080	80.006	19.994	103.957	20.005	2.724	0.463
387.500	276.335	80.004	19.994	103.956	20.004	2.773	0.478
388.000	276.615	80.004	19.994	103.956	20.005	2.752	0.521
388.500	276.856	80.005	19.994	103.956	19.999	3.116	0.528
389.000	277.106	80.004	19.995	103.956	20.004	2.777	0.506
389.500	277.378	80.004	19.995	103.956	20.000	3.084	0.507
390.000	277.636	80.003	19.995	103.956	20.006	2.648	0.526
390.501	277.851	80.002	19.994	103.956	20.002	2.908	0.502
391.001	278.108	80.003	19.995	103.956	20.005	2.735	0.472
391.500	278.408	80.003	19.993	103.956	20.002	2.903	0.514
392.000	278.627	80.004	19.994	103.957	20.006	2.657	0.538
392.500	278.877	80.003	19.994	103.958	20.003	2.872	0.494
393.000	279.138	80.004	19.994	103.958	20.006	2.646	0.490
393.500	279.420	80.004	19.994	103.958	20.001	2.979	0.527
394.000	279.627	80.002	19.994	103.959	19.998	3.185	0.516
394.500	279.924	80.002	19.994	103.957	20.005	2.710	0.496
395.000	280.127	80.003	19.993	103.958	20.003	2.828	0.502
395.500	280.395	80.003	19.996	103.959	20.003	2.866	0.485
396.000	280.642	80.003	19.995	103.962	20.002	2.947	0.493
396.500	280.897	80.003	19.995	103.965	20.005	2.695	0.509
397.000	281.171	80.003	19.995	103.965	20.004	2.824	0.515
397.500	281.393	80.003	19.995	103.964	20.002	2.893	0.512
398.000	281.634	80.003	19.993	103.963	20.008	2.502	0.480
398.500	281.893	80.003	19.996	103.961	20.007	2.582	0.481
399.000	282.174	80.003	19.995	103.962	20.007	2.596	0.520
399.500	282.438	80.002	19.995	103.969	20.005	2.729	0.543
400.000	282.643	80.001	19.997	103.971	20.004	2.781	0.507
400.501	282.938	80.003	19.996	103.970	20.006	2.673	0.484
401.000	283.199	80.003	19.995	103.969	20.003	2.833	0.528
401.500	283.453	80.002	19.996	103.965	20.004	2.770	0.535
402.000	283.704	80.003	19.996	103.957	20.004	2.808	0.510
402.500	283.962	80.003	19.996	103.956	20.004	2.823	0.507
403.000	284.231	80.003	19.995	103.956	20.001	3.005	0.518
403.500	284.448	80.003	19.995	103.956	20.003	2.843	0.506
404.000	284.735	80.002	19.995	103.956	20.005	2.708	0.495
404.500	285.006	80.004	19.995	103.958	20.002	2.915	0.531
405.000	285.256	80.004	19.994	103.960	20.004	2.822	0.540
405.500	285.524	80.004	19.995	103.961	19.998	3.203	0.520
406.000	285.785	80.004	19.994	103.961	20.005	2.693	0.523
406.501	286.006	80.004	19.994	103.961	20.003	2.864	0.505
407.000	286.279	80.003	19.994	103.958	20.004	2.813	0.488
407.500	286.508	80.004	19.993	103.953	20.004	2.772	0.498
408.000	286.777	80.004	19.993	103.952	20.001	3.003	0.499
408.500	287.052	80.003	19.994	103.952	20.002	2.916	0.521
409.000	287.314	80.003	19.994	103.953	20.002	2.956	0.541
409.500	287.581	80.005	19.994	103.955	20.005	2.748	0.533
410.000	287.817	80.004	19.994	103.957	20.000	3.071	0.516
410.500	288.078	80.004	19.994	103.956	20.001	2.967	0.500
411.000	288.304	80.004	19.994	103.956	20.002	2.941	0.491
411.500	288.574	80.004	19.994	103.956	20.003	2.888	0.491
412.000	288.836	80.002	19.994	103.957	20.003	2.841	0.514
412.500	289.120	80.004	19.994	103.958	20.003	2.874	0.539
413.000	289.391	80.004	19.993	103.959	20.006	2.627	0.551
413.500	289.563	80.004	19.993	103.959	20.002	2.943	0.499
414.000	289.860	80.004	19.994	103.959	20.002	2.903	0.456
414.500	290.129	80.004	19.993	103.958	20.007	2.569	0.518
415.000	290.395	80.003	19.993	103.958	20.002	2.956	0.551
415.500	290.625	80.003	19.994	103.954	20.004	2.760	0.515
416.000	290.886	80.004	19.992	103.952	20.000	3.052	0.494
416.500	291.148	80.005	19.993	103.953	20.003	2.844	0.507
417.000	291.410	80.004	19.993	103.954	20.002	2.921	0.523
417.500	291.662	80.004	19.994	103.954	20.009	2.474	0.519
418.000	291.926	80.003	19.994	103.957	20.005	2.724	0.515
418.500	292.196	80.003	19.993	103.959	20.005	2.702	0.525
419.000	292.424	80.003	19.993	103.959	20.004	2.804	0.516
419.500	292.673	80.003	19.993	103.959	20.002	2.950	0.488
420.000	292.933	80.002	19.994	103.958	20.002	2.897	0.493
420.500	293.183	80.002	19.993	103.960	20.007	2.613	0.510
421.000	293.441	80.003	19.992	103.959	20.010	2.416	0.509
421.500	293.739	80.003	19.994	103.959	20.006	2.629	0.532
422.000	293.983	80.004	19.993	103.959	20.002	2.934	0.549
422.500	294.190	80.004	19.995	103.959	20.008	2.556	0.496
423.000	294.468	80.002	19.994	103.959	20.002	2.910	0.468
423.500	294.725	80.004	19.994	103.960	20.005	2.730	0.510
424.000	294.969	80.002	19.995	103.960	20.007	2.604	0.518
424.500	295.248	80.003	19.994	103.961	20.003	2.861	0.512
425.000	295.477	80.003	19.995	103.959	20.005	2.697	0.516
425.500	295.731	80.003	19.995	103.957	20.004	2.788	0.496
426.000	296.002	80.003	19.994	103.955	20.002	2.957	0.504
426.500	296.284	80.002	19.993	103.955	20.002	2.899	0.539
427.000	296.508	80.002	19.993	103.953	20.006	2.680	0.529
427.500	296.750	80.003	19.993	103.954	20.006	2.689	0.485
428.000	296.989	80.003	19.994	103.957	20.002	2.945	0.473
428.500	297.272	80.002	19.994	103.958	20.006	2.678	0.502
429.000	297.517	80.003	19.994	103.958	20.003	2.874	0.525
429.500	297.779	80.002	19.994	103.960	20.009	2.456	0.517
430.000	298.038	80.002	19.994	103.961	20.003	2.864	0.514
430.500	298.294	80.003	19.993	103.958	20.005	2.740	0.518
431.000	298.558	80.003	19.993	103.957	20.005	2.728	0.518
431.500	298.819	80.003	19.994	103.956	20.004	2.797	0.522
432.000	299.054	80.002	19.993	103.956	20.003	2.890	0.510
432.500	299.319	80.003	19.993	103.954	20.006	2.673	0.498
433.000	299.587	80.003	19.994	103.956	19.996	3.322	0.517
433.500	299.839	80.003	19.993	103.957	20.001	2.963	0.527
434.000	300.075	80.004	19.994	103.957	20.005	2.709	0.504
434.500	300.351	80.003	19.994	103.958	20.002	2.924	0.500
435.000	300.611	80.004	19.993	103.957	19.999	3.109	0.524
435.500	300.859	80.005	19.994	103.957	20.000	3.063	0.522
436.000	301.107	80.006	19.994	103.955	20.001	3.008	0.502
436.500	301.335	80.005	19.993	103.955	20.007	2.587	0.486
437.000	301.615	80.004	19.995	103.955	20.001	2.986	0.492
437.500	301.871	80.006	19.994	103.956	20.001	2.982	0.522
438.000	302.111	80.006	19.994	103.958	20.000	3.030	0.516
438.500	302.388	80.004	19.994	103.959	20.006	2.689	0.506
439.000	302.630	80.005	19.993	103.959	20.000	3.037	0.518
439.500	302.885	80.006	19.993	103.958	20.003	2.882	0.508
440.000	303.125	80.006	19.994	103.957	20.005	2.746	0.496
440.500	303.388	80.006	19.993	103.955	20.001	2.968	0.499
441.000	303.620	80.005	19.994	103.955	20.005	2.745	0.499
441.500	303.868	80.006	19.994	103.954	20.006	2.631	0.487
442.000	304.154	80.006	19.993	103.955	20.002	2.942	0.507
442.500	304.389	80.005	19.993	103.955	20.004	2.795	0.528
443.000	304.639	80.006	19.993	103.953	20.003	2.852	0.503
443.500	304.905	80.006	19.995	103.947	20.002	2.932	0.501
444.000	305.144	80.006	19.994	103.945	20.004	2.788	0.511
444.500	305.404	80.006	19.995	103.945	20.004	2.762	0.502
445.000	305.635	80.005	19.993	103.945	20.003	2.868	0.494
445.500	305.872	80.005	19.993	103.948	20.003	2.833	0.479
446.000	306.131	80.005	19.993	103.954	20.007	2.570	0.482
446.500	306.370	80.005	19.994	103.955	20.008	2.501	0.497
447.000	306.620	80.005	19.994	103.951	20.005	2.745	0.493
447.500	306.875	80.005	19.993	103.947	20.006	2.665	0.497
448.000	307.143	80.005	19.994	103.945	20.000	3.025	0.514
448.500	307.389	80.004	19.993	103.940	20.005	2.698	0.518
449.000	307.624	80.005	19.994	103.935	20.005	2.746	0.497
449.500	307.872	80.006	19.993	103.939	20.003	2.859	0.482
450.000	308.094	80.004	19.993	103.942	20.005	2.713	0.477
450.500	308.376	80.005	19.993	103.941	20.004	2.777	0.487
451.001	308.632	80.004	19.994	103.943	20.002	2.913	0.521
451.501	308.865	80.004	19.993	103.943	20.004	2.784	0.513
452.000	309.174	80.005	19.994	103.940	20.006	2.689	0.516
452.500	309.402	80.005	19.994	103.939	20.008	2.554	0.540
453.000	309.633	80.003	19.994	103.942	20.005	2.755	0.498
453.500	309.903	80.004	19.994	103.945	20.003	2.853	0.479
454.000	310.166	80.004	19.994	103.951	20.005	2.748	0.517
454.500	310.395	80.004	19.995	103.955	19.999	3.103	0.513
455.000	310.660	80.005	19.995	103.957	20.004	2.780	0.493
455.500	310.907	80.004	19.995	103.955	20.001	2.966	0.503
456.000	311.177	80.005	19.994	103.948	20.003	2.839	0.514
456.500	311.460	80.005	19.994	103.941	20.005	2.737	0.535
457.000	311.682	80.005	19.994	103.933	20.005	2.713	0.529
457.500	311.925	80.005	19.994	103.930	20.005	2.724	0.485
458.000	312.173	80.003	19.992	103.932	20.004	2.797	0.478
458.500	312.428	80.006	19.995	103.939	20.002	2.928	0.497
459.000	312.719	80.006	19.995	103.946	20.001	2.959	0.525
459.500	312.976	80.005	19.995	103.954	20.001	2.979	0.547
460.000	313.253	80.006	19.995	103.957	20.000	3.025	0.541
460.500	313.459	80.005	19.993	103.954	20.003	2.826	0.509
461.000	313.705	80.006	19.995	103.953	20.000	3.025	0.467
461.500	313.970	80.005	19.994	103.952	20.003	2.835	0.481
462.000	314.215	80.006	19.995	103.948	20.003	2.842	0.511
462.500	314.478	80.007	19.993	103.946	20.005	2.742	0.509
463.000	314.695	80.006	19.993	103.947	20.003	2.873	0.494
463.500	314.953	80.005	19.993	103.948	20.003	2.873	0.477
464.000	315.216	80.005	19.994	103.948	20.000	3.045	0.498
464.500	315.437	80.005	19.994	103.952	19.999	3.134	0.503
465.000	315.716	80.007	19.994	103.953	20.002	2.953	0.492
465.500	315.972	80.008	19.994	103.952	20.003	2.828	0.518
466.000	316.260	80.006	19.994	103.950	20.004	2.811	0.539
466.500	316.482	80.007	19.996	103.947	20.002	2.906	0.526
467.000	316.741	80.006	19.995	103.946	20.002	2.908	0.495
467.500	316.955	80.007	19.994	103.947	20.006	2.687	0.477
468.000	317.241	80.006	19.996	103.950	20.004	2.813	0.487
468.500	317.472	80.006	19.994	103.947	20.004	2.766	0.509
469.000	317.744	80.006	19.994	103.944	20.005	2.720	0.510
469.500	317.992	80.006	19.994	103.945	20.003	2.846	0.511
470.000	318.237	80.006	19.995	103.945	20.002	2.940	0.506
470.500	318.473	80.005	19.995	103.946	20.001	2.979	0.487
471.000	318.740	80.003	19.994	103.949	20.007	2.623	0.492
471.500	318.972	80.005	19.996	103.952	20.001	2.979	0.501
472.000	319.248	80.004	19.994	103.948	20.004	2.815	0.503
472.500	319.473	80.004	19.994	103.947	20.004	2.775	0.504
473.000	319.723	80.003	19.993	103.946	20.005	2.736	0.488
473.500	319.983	80.004	19.995	103.947	20.004	2.766	0.492
474.000	320.207	80.004	19.994	103.946	20.007	2.574	0.497
474.500	320.485	80.003	19.995	103.948	20.007	2.602	0.493
475.000	320.723	80.003	19.994	103.949	20.009	2.429	0.509
475.500	320.993	80.004	19.995	103.947	20.005	2.746	0.512
476.000	321.214	80.003	19.994	103.943	20.002	2.933	0.499
476.500	321.501	80.003	19.994	103.941	20.006	2.687	0.499
477.000	321.759	80.002	19.994	103.942	20.002	2.953	0.527
477.500	321.993	80.003	19.994	103.942	20.007	2.594	0.519
478.000	322.256	80.004	19.995	103.943	20.004	2.804	0.494
478.500	322.512	80.002	19.994	103.943	20.005	2.709	0.508
479.000	322.743	80.002	19.994	103.946	20.004	2.778	0.503
479.500	322.977	80.002	19.994	103.942	20.004	2.820	0.476
480.000	323.258	80.002	19.994	103.938	20.006	2.667	0.490
480.500	323.523	80.001	19.994	103.937	20.004	2.815	0.530
481.000	323.777	80.002	19.993	103.937	20.001	2.995	0.532
481.500	324.023	80.003	19.995	103.938	20.001	2.990	0.509
482.000	324.291	80.002	19.994	103.937	20.004	2.807	0.507
482.500	324.513	80.002	19.993	103.935	20.001	3.004	0.502
483.000	324.765	80.002	19.993	103.935	20.005	2.694	0.482
483.500	325.014	80.003	19.994	103.936	20.002	2.922	0.487
484.000	325.250	80.003	19.994	103.938	20.006	2.660	0.493
484.500	325.531	80.003	19.995	103.943	20.005	2.693	0.501
485.000	325.791	80.002	19.995	103.949	20.004	2.762	0.529
485.500	326.050	80.003	19.994	103.950	20.007	2.591	0.530
486.000	326.269	80.003	19.993	103.951	20.004	2.811	0.498
486.500	326.534	80.003	19.995	103.950	20.004	2.802	0.481
487.000	326.816	80.003	19.993	103.944	20.002	2.904	0.516
487.500	327.066	80.002	19.994	103.941	20.003	2.846	0.540
488.000	327.331	80.003	19.995	103.938	20.004	2.808	0.524
488.500	327.572	80.002	19.994	103.936	20.004	2.780	0.511
489.000	327.813	80.003	19.995	103.932	20.008	2.523	0.494
489.500	328.055	80.002	19.995	103.930	20.004	2.760	0.482
490.000	328.323	80.001	19.994	103.931	20.004	2.764	0.496
490.500	328.540	80.003	19.994	103.935	20.004	2.779	0.497
491.000	328.818	80.003	19.995	103.940	20.007	2.618	0.490
491.500	329.057	80.002	19.995	103.942	20.004	2.824	0.506
492.000	329.337	80.002	19.994	103.941	20.001	2.970	0.518
492.500	329.540	80.002	19.995	103.937	20.005	2.693	0.501
493.000	329.816	80.003	19.995	103.934	20.005	2.751	0.481
493.500	330.050	80.003	19.994	103.932	20.005	2.744	0.495
494.000	330.340	80.003	19.995	103.933	20.005	2.709	0.517
494.500	330.568	80.002	19.993	103.939	20.004	2.762	0.521
495.000	330.843	80.002	19.994	103.942	20.004	2.802	0.511
495.500	331.080	80.002	19.994	103.941	20.006	2.647	0.508
496.000	331.278	80.003	19.994	103.940	20.007	2.623	0.473
496.500	331.609	80.003	19.993	103.939	20.008	2.538	0.482
497.000	331.848	80.003	19.994	103.939	20.004	2.793	0.550
497.500	332.124	80.002	19.995	103.944	20.003	2.857	0.542
498.000	332.346	80.002	19.994	103.947	20.004	2.824	0.506
498.500	332.619	80.003	19.994	103.946	20.003	2.875	0.496
499.000	332.857	80.003	19.995	103.944	20.001	2.975	0.503
499.500	333.133	80.004	19.993	103.944	20.003	2.826	0.512
500.000	333.354	80.004	19.995	103.943	20.007	2.607	0.505
500.500	333.628	80.003	19.993	103.944	20.002	2.893	0.496
501.000	333.886	80.003	19.993	103.948	20.003	2.888	0.514
501.500	334.110	80.003	19.994	103.952	20.002	2.919	0.507
502.000	334.380	80.002	19.993	103.948	20.005	2.702	0.488
502.500	334.642	80.002	19.993	103.949	19.998	3.211	0.512
503.000	334.880	80.003	19.994	103.951	20.000	3.036	0.516
503.500	335.168	80.004	19.993	103.951	20.002	2.910	0.513
504.000	335.401	80.003	19.994	103.952	20.002	2.954	0.523
504.500	335.643	80.002	19.994	103.959	20.005	2.749	0.498
505.000	335.927	80.003	19.995	103.958	20.007	2.614	0.501
505.500	336.166	80.004	19.994	103.953	20.005	2.757	0.525
506.000	336.406	80.002	19.995	103.947	20.002	2.899	0.501
506.500	336.691	80.004	19.994	103.940	20.004	2.778	0.502
507.000	336.912	80.002	19.994	103.938	20.000	3.074	0.515
507.500	337.132	80.003	19.993	103.938	20.004	2.775	0.473
508.000	337.409	80.003	19.993	103.938	20.007	2.558	0.469
508.500	337.669	80.004	19.994	103.943	20.007	2.616	0.517
509.000	337.892	80.003	19.994	103.949	20.004	2.771	0.510
509.500	338.171	80.002	19.994	103.949	20.004	2.804	0.493
510.000	338.457	80.003	19.993	103.949	20.007	2.621	0.533
510.500	338.678	80.003	19.994	103.950	20.005	2.696	0.536
511.000	338.927	80.003	19.994	103.950	20.005	2.698	0.488
511.500	339.160	80.004	19.993	103.949	20.009	2.465	0.477
512.000	339.395	80.002	19.993	103.951	20.008	2.492	0.475
512.501	339.636	80.004	19.993	103.951	20.006	2.627	0.472
513.000	339.923	80.004	19.994	103.953	20.008	2.503	0.502
513.500	340.162	80.004	19.994	103.952	20.005	2.756	0.527
514.000	340.414	80.004	19.995	103.954	20.005	2.756	0.508
514.500	340.670	80.003	19.993	103.954	20.005	2.704	0.499
515.000	340.940	80.005	19.995	103.953	20.001	2.963	0.517
515.500	341.178	80.004	19.994	103.953	20.020	1.741	0.517
516.000	341.424	80.004	19.994	103.949	20.013	2.158	0.496
516.500	341.655	80.004	19.995	103.944	20.010	2.395	0.480
517.000	341.929	80.006	19.993	103.943	20.010	2.388	0.491
517.500	342.148	80.005	19.994	103.944	20.016	1.965	0.499
518.000	342.421	80.003	19.993	103.945	20.015	2.058	0.492
518.500	342.637	80.005	19.995	103.950	20.006	2.649	0.490
519.000	342.923	80.005	19.996	103.951	20.010	2.412	0.496
519.500	343.153	80.006	19.995	103.949	20.001	2.986	0.509
520.000	343.409	80.004	19.994	103.942	20.000	3.025	0.501
520.500	343.654	80.005	19.994	103.940	20.009	2.456	0.493
521.000	343.930	80.005	19.994	103.936	20.001	2.960	0.511
521.500	344.168	80.004	19.995	103.939	20.021	1.672	0.517
522.000	344.409	80.005	19.994	103.940	20.016	1.983	0.497
522.500	344.642	80.004	19.993	103.944	20.010	2.379	0.476
523.000	344.897	80.005	19.993	103.942	20.008	2.536	0.481
523.500	345.102	80.004	19.993	103.939	20.011	2.335	0.474
524.000	345.427	80.004	19.994	103.939	20.004	2.804	0.496
524.500	345.672	80.005	19.994	103.936	20.002	2.924	0.550
525.000	345.927	80.004	19.993	103.935	19.999	3.152	0.535
525.500	346.153	80.004	19.993	103.939	20.000	3.088	0.490
526.000	346.450	80.003	19.994	103.944	20.005	2.729	0.502
526.500	346.687	80.005	19.995	103.943	20.001	2.995	0.528
527.000	346.898	80.005	19.994	103.939	20.000	3.053	0.491
527.500	347.137	80.007	19.994	103.937	20.003	2.836	0.449
528.000	347.401	80.004	19.993	103.936	20.002	2.935	0.476
528.500	347.606	80.004	19.992	103.934	20.001	3.011	0.486
529.000	347.951	80.005	19.994	103.939	20.004	2.778	0.509
529.500	348.143	80.004	19.994	103.945	20.000	3.072	0.543
530.000	348.397	80.004	19.993	103.951	20.011	2.311	0.492
530.500	348.645	80.004	19.994	103.950	20.011	2.319	0.474
531.000	348.858	80.006	19.992	103.946	20.007	2.567	0.482
531.500	349.121	80.005	19.992	103.939	19.999	3.104	0.468
532.000	349.371	80.004	19.994	103.933	20.003	2.827	0.494
532.500	349.657	80.005	19.993	103.928	20.009	2.467	0.525
533.000	349.915	80.006	19.994	103.923	20.015	2.053	0.540
533.500	350.145	80.005	19.993	103.924	20.015	2.035	0.516
534.000	350.422	80.005	19.993	103.928	20.011	2.303	0.497
534.500	350.632	80.005	19.993	103.933	20.006	2.656	0.497
535.000	350.887	80.005	19.994	103.936	20.001	2.966	0.476
535.500	351.160	80.004	19.993	103.943	20.001	2.964	0.496
536.001	351.394	80.005	19.993	103.948	20.002	2.918	0.517
536.500	351.681	80.004	19.993	103.944	20.001	2.999	0.514
537.000	351.931	80.005	19.993	103.939	20.007	2.598	0.529
537.501	352.157	80.004	19.994	103.936	20.003	2.871	0.506
538.000	352.402	80.004	19.994	103.932	20.002	2.917	0.474
538.500	352.696	80.004	19.993	103.929	20.007	2.567	0.505
539.000	352.940	80.006	19.994	103.930	20.005	2.698	0.539
539.500	353.206	80.004	19.993	103.931	20.004	2.807	0.524
540.000	353.497	80.005	19.993	103.934	20.005	2.738	0.533
540.500	353.675	80.005	19.993	103.935	20.004	2.804	0.514
541.000	353.972	80.005	19.992	103.934	20.001	2.994	0.472
541.500	354.187	80.005	19.994	103.936	20.006	2.664	0.493
542.000	354.428	80.005	19.993	103.937	20.005	2.740	0.485
542.500	354.710	80.004	19.993	103.936	20.003	2.888	0.490
543.000	354.920	80.005	19.994	103.937	20.002	2.904	0.507
543.500	355.177	80.007	19.993	103.941	20.005	2.718	0.480
544.000	355.434	80.006	19.993	103.945	20.004	2.809	0.490
544.500	355.658	80.006	19.992	103.950	20.004	2.771	0.497
545.000	355.885	80.007	19.993	103.950	20.001	2.992	0.466
545.500	356.161	80.005	19.993	103.945	20.003	2.840	0.477
546.000	356.460	80.006	19.993	103.944	20.001	2.963	0.539
546.500	356.660	80.005	19.993	103.940	20.003	2.877	0.537
547.000	356.935	80.006	19.995	103.933	20.002	2.952	0.487
547.500	357.159	80.005	19.992	103.934	20.002	2.897	0.487
548.000	357.463	80.006	19.993	103.940	20.004	2.820	0.513
548.500	357.707	80.006	19.994	103.938	20.003	2.855	0.538
549.000	357.939	80.005	19.994	103.939	20.001	2.980	0.512
549.500	358.167	80.005	19.993	103.940	19.999	3.155	0.468
550.000	358.431	80.005	19.993	103.941	19.999	3.101	0.475
550.500	358.707	80.005	19.993	103.938	20.004	2.813	0.516
551.000	358.950	80.003	19.994	103.936	20.007	2.616	0.530
551.500	359.207	80.005	19.993	103.940	19.999	3.115	0.510
552.000	359.446	80.005	19.994	103.944	20.001	2.973	0.498
552.500	359.701	80.003	19.993	103.944	20.001	2.968	0.495
553.000	359.958	80.003	19.993	103.943	20.001	3.015	0.503
553.500	360.219	80.004	19.994	103.943	20.001	3.010	0.515
554.000	360.561	80.003	19.995	103.937	19.999	3.157	0.561
554.500	360.717	80.003	19.994	103.933	20.002	2.915	0.551
555.000	360.965	80.003	19.994	103.932	19.999	3.132	0.451
555.500	361.252	80.002	19.995	103.934	20.000	3.086	0.470
556.000	361.459	80.002	19.994	103.939	20.001	2.966	0.515
556.500	361.740	80.003	19.995	103.944	20.002	2.924	0.491
557.000	361.956	80.002	19.995	103.948	19.998	3.205	0.492
557.500	362.228	80.002	19.994	103.948	20.000	3.077	0.493
558.000	362.490	80.003	19.995	103.945	20.002	2.924	0.511
558.500	362.703	80.003	19.994	103.944	20.000	3.083	0.505
559.000	362.969	80.004	19.995	103.942	20.001	3.012	0.477
559.500	363.239	80.002	19.995	103.935	19.999	3.152	0.507
560.000	363.497	80.002	19.994	103.931	20.000	3.035	0.532
560.500	363.729	80.003	19.994	103.929	20.003	2.855	0.509
561.000	363.992	80.002	19.995	103.927	20.003	2.839	0.492
561.500	364.236	80.003	19.993	103.930	20.000	3.046	0.501
562.000	364.480	80.002	19.994	103.932	20.002	2.946	0.497
562.500	364.722	80.001	19.994	103.934	20.000	3.075	0.487
563.000	365.004	80.001	19.994	103.939	20.000	3.044	0.505
563.500	365.245	80.002	19.993	103.940	20.000	3.066	0.523
564.000	365.493	80.002	19.994	103.936	20.001	3.010	0.506
564.500	365.754	80.002	19.994	103.936	19.999	3.143	0.499
565.000	366.009	80.002	19.994	103.936	19.997	3.256	0.512
565.500	366.267	80.003	19.994	103.932	19.998	3.216	0.514
566.000	366.489	80.003	19.994	103.935	19.999	3.119	0.497
566.500	366.756	80.002	19.995	103.941	20.001	2.981	0.485
567.000	367.018	80.001	19.994	103.940	20.002	2.950	0.509
567.500	367.275	80.002	19.994	103.940	19.998	3.201	0.524
568.000	367.474	80.003	19.994	103.939	20.001	2.979	0.487
568.500	367.748	80.003	19.995	103.936	19.998	3.199	0.465
569.001	368.012	80.003	19.994	103.931	19.998	3.183	0.505
569.500	368.247	80.003	19.994	103.933	19.999	3.105	0.519
570.000	368.526	80.002	19.993	103.937	20.003	2.881	0.507
570.500	368.756	80.003	19.994	103.942	20.002	2.909	0.511
571.000	369.016	80.004	19.993	103.945	20.002	2.929	0.500
571.500	369.312	80.002	19.995	103.944	19.998	3.164	0.523
572.000	369.511	80.004	19.994	103.942	20.001	3.015	0.525
572.500	369.779	80.003	19.995	103.940	20.003	2.869	0.481
573.000	370.051	80.002	19.994	103.939	20.001	2.986	0.504
573.500	370.315	80.003	19.994	103.936	20.001	2.973	0.538
574.000	370.565	80.003	19.994	103.936	20.002	2.904	0.525
574.500	370.803	80.004	19.996	103.938	20.000	3.048	0.501
575.000	371.067	80.003	19.995	103.940	19.999	3.144	0.495
575.500	371.314	80.003	19.994	103.938	20.000	3.053	0.506
576.000	371.558	80.004	19.994	103.940	20.000	3.086	0.501
576.500	371.800	80.003	19.995	103.945	20.000	3.080	0.489
577.000	372.082	80.003	19.995	103.945	20.001	2.966	0.505
577.500	372.301	80.002	19.995	103.941	20.001	3.013	0.512
578.000	372.587	80.003	19.992	103.937	20.002	2.909	0.502
578.500	372.832	80.004	19.996	103.937	20.003	2.833	0.518
579.000	373.102	80.003	19.996	103.937	19.999	3.125	0.523
579.500	373.362	80.001	19.995	103.938	20.002	2.928	0.522
580.000	373.637	80.002	19.995	103.943	19.999	3.116	0.532
580.500	373.886	80.003	19.995	103.948	19.996	3.345	0.530
581.000	374.139	80.003	19.996	103.945	19.999	3.157	0.513
581.500	374.358	80.003	19.995	103.937	19.997	3.237	0.487
582.000	374.643	80.002	19.995	103.930	19.996	3.328	0.488
582.500	374.907	80.002	19.994	103.926	19.998	3.172	0.526
583.000	375.125	80.003	19.995	103.928	19.995	3.403	0.515
583.500	375.411	80.002	19.995	103.932	19.997	3.270	0.493
584.000	375.651	80.002	19.995	103.934	20.001	2.961	0.515
584.500	375.922	80.002	19.995	103.936	19.998	3.163	0.519
585.000	376.165	80.003	19.994	103.937	19.998	3.208	0.512
585.500	376.432	80.001	19.995	103.930	19.999	3.119	0.512
586.000	376.700	80.002	19.996	103.925	20.000	3.059	0.523
586.500	376.948	80.002	19.995	103.922	20.001	2.972	0.526
587.001	377.205	80.003	19.995	103.921	20.001	2.977	0.511
587.500	377.444	80.002	19.997	103.919	20.000	3.052	0.500
588.000	377.718	80.002	19.994	103.922	20.002	2.946	0.504
588.500	377.961	80.001	19.996	103.929	20.000	3.040	0.515
589.000	378.195	80.003	19.996	103.936	19.999	3.137	0.497
589.500	378.434	80.002	19.996	103.941	20.000	3.058	0.475
590.000	378.709	80.003	19.994	103.945	20.001	3.017	0.494
590.500	378.977	80.003	19.995	103.944	20.000	3.079	0.529
591.000	379.241	80.003	19.995	103.939	20.002	2.953	0.537
591.500	379.486	80.002	19.995	103.935	20.002	2.900	0.520
592.000	379.704	80.002	19.994	103.932	19.997	3.245	0.486
592.500	379.982	80.002	19.995	103.929	19.998	3.210	0.479
593.000	380.251	80.003	19.995	103.928	20.002	2.928	0.521
593.500	380.498	80.003	19.994	103.931	20.001	3.017	0.532
594.000	380.751	80.004	19.994	103.936	20.001	2.982	0.508
594.500	380.983	80.004	19.993	103.938	19.998	3.196	0.492
595.000	381.245	80.004	19.995	103.937	19.999	3.123	0.490
595.500	381.477	80.003	19.994	103.939	20.003	2.868	0.494
596.000	381.759	80.003	19.995	103.936	19.999	3.135	0.504
596.500	381.992	80.003	19.993	103.934	20.003	2.840	0.514
597.000	382.255	80.004	19.994	103.936	19.998	3.175	0.505
597.500	382.509	80.004	19.993	103.941	19.998	3.161	0.507
598.000	382.783	80.004	19.994	103.942	20.000	3.051	0.523
598.500	383.048	80.004	19.995	103.938	20.000	3.051	0.533
599.000	383.296	80.004	19.992	103.933	20.002	2.926	0.526
599.500	383.537	80.003	19.994	103.927	20.001	2.999	0.501
600.000	383.790	80.004	19.994	103.923	20.000	3.073	0.492
600.500	384.077	80.005	19.993	103.921	19.998	3.208	0.517
601.000	384.318	80.005	19.993	103.925	19.996	3.314	0.534
601.500	384.592	80.004	19.993	103.929	20.003	2.825	0.521
602.000	384.839	80.006	19.993	103.935	19.999	3.097	0.518
602.500	385.079	80.004	19.993	103.937	20.001	2.975	0.504
603.000	385.323	80.005	19.993	103.934	19.998	3.183	0.486
603.500	385.581	80.006	19.993	103.933	19.999	3.158	0.493
604.000	385.823	80.005	19.994	103.931	19.998	3.199	0.500
604.500	386.127	80.004	19.994	103.929	20.002	2.891	0.523
605.000	386.345	80.003	19.993	103.928	20.000	3.050	0.534
605.500	386.591	80.005	19.994	103.932	20.002	2.913	0.493
606.000	386.869	80.005	19.994	103.936	19.998	3.210	0.494
606.500	387.112	80.005	19.994	103.938	19.999	3.156	0.523
607.000	387.402	80.005	19.995	103.935	20.001	2.963	0.527
607.500	387.626	80.005	19.993	103.934	20.002	2.928	0.523
608.000	387.864	80.005	19.993	103.933	19.999	3.155	0.488
608.500	388.156	80.005	19.994	103.927	19.999	3.111	0.496
609.000	388.396	80.004	19.994	103.925	19.998	3.179	0.531
609.500	388.627	80.004	19.994	103.926	20.002	2.902	0.501
610.000	388.899	80.003	19.994	103.932	19.998	3.215	0.487
610.500	389.178	80.004	19.994	103.932	20.003	2.843	0.527
611.000	389.409	80.004	19.993	103.932	20.000	3.062	0.530
611.500	389.652	80.002	19.993	103.934	20.002	2.940	0.492
612.000	389.869	80.003	19.993	103.931	20.001	3.000	0.467
612.500	390.174	80.004	19.993	103.927	20.001	2.966	0.492
613.000	390.453	80.004	19.993	103.930	20.002	2.944	0.553
613.500	390.683	80.003	19.993	103.932	20.000	3.068	0.546
614.000	390.941	80.004	19.994	103.936	20.003	2.846	0.498
614.500	391.185	80.004	19.994	103.942	19.997	3.245	0.495
615.000	391.440	80.002	19.995	103.942	20.001	2.984	0.500
615.500	391.689	80.003	19.993	103.940	20.002	2.908	0.502
616.000	391.957	80.004	19.995	103.940	20.001	3.006	0.510
616.500	392.194	80.003	19.994	103.942	20.001	3.004	0.510
617.000	392.453	80.004	19.994	103.942	20.002	2.913	0.501
617.500	392.672	80.004	19.994	103.943	20.001	2.975	0.487
618.000	392.983	80.004	19.993	103.943	20.002	2.946	0.504
618.500	393.251	80.002	19.994	103.940	20.000	3.042	0.554
619.000	393.490	80.003	19.994	103.932	20.000	3.042	0.543
619.500	393.776	80.003	19.994	103.926	20.001	2.969	0.516
620.000	394.052	80.003	19.993	103.923	20.002	2.957	0.543
620.500	394.276	80.003	19.994	103.921	19.998	3.192	0.531
621.000	394.537	80.003	19.993	103.921	20.000	3.053	0.492
621.500	394.789	80.003	19.994	103.923	19.998	3.206	0.499
622.000	395.035	80.004	19.994	103.923	20.000	3.050	0.506
622.500	395.301	80.004	19.993	103.924	20.001	2.958	0.505
623.000	395.568	80.005	19.993	103.928	20.001	2.998	0.522
623.500	395.865	80.004	19.993	103.930	20.000	3.075	0.548
624.000	396.074	80.005	19.993	103.929	20.001	3.002	0.535
624.500	396.343	80.006	19.995	103.929	19.999	3.108	0.492
625.000	396.606	80.005	19.994	103.933	19.999	3.117	0.505
625.500	396.869	80.005	19.993	103.932	19.999	3.104	0.529
626.000	397.102	80.006	19.993	103.935	19.998	3.203	0.511
626.500	397.364	80.005	19.994	103.939	20.000	3.090	0.495
627.000	397.622	80.005	19.994	103.939	20.001	3.006	0.507
627.500	397.906	80.007	19.993	103.936	19.997	3.272	0.531
628.000	398.111	80.005	19.994	103.933	19.999	3.135	0.516
628.500	398.384	80.006	19.992	103.928	20.000	3.050	0.483
629.000	398.657	80.006	19.993	103.925	19.997	3.236	0.512
629.500	398.902	80.006	19.995	103.926	19.999	3.106	0.532
630.000	399.162	80.007	19.993	103.925	19.998	3.181	0.511
630.500	399.400	80.006	19.992	103.926	20.001	2.988	0.501
631.000	399.665	80.004	19.993	103.924	20.002	2.939	0.500
631.500	399.913	80.004	19.993	103.924	19.997	3.247	0.508
632.000	400.160	80.005	19.994	103.924	19.997	3.289	0.505
632.500	400.430	80.006	19.993	103.926	19.999	3.139	0.506
633.000	400.659	80.005	19.992	103.926	19.999	3.124	0.508
633.500	400.914	80.004	19.993	103.926	19.997	3.265	0.491
634.000	401.201	80.005	19.993	103.925	19.999	3.108	0.513
634.500	401.417	80.005	19.992	103.924	19.998	3.192	0.523
635.000	401.686	80.005	19.993	103.923	19.999	3.113	0.494
635.500	401.911	80.004	19.992	103.924	19.998	3.194	0.489
636.000	402.169	80.003	19.994	103.926	19.998	3.177	0.489
636.500	402.448	80.003	19.993	103.928	20.001	2.991	0.510
637.000	402.722	80.005	19.992	103.931	20.000	3.079	0.545
637.500	402.974	80.003	19.993	103.932	20.000	3.075	0.540
638.000	403.197	80.003	19.992	103.932	19.999	3.117	0.501
638.500	403.490	80.004	19.994	103.929	19.999	3.126	0.495
639.000	403.729	80.004	19.995	103.927	20.001	3.000	0.524
639.500	403.982	80.003	19.995	103.928	20.001	2.964	0.512
640.000	404.205	80.003	19.994	103.929	20.001	2.976	0.484
640.500	404.465	80.003	19.994	103.930	20.001	3.000	0.479
641.000	404.711	80.003	19.994	103.933	19.998	3.186	0.495
641.500	404.945	80.003	19.994	103.936	20.004	2.769	0.494
642.000	405.211	80.003	19.995	103.933	20.000	3.082	0.490
642.500	405.504	80.004	19.994	103.934	20.000	3.030	0.529
643.000	405.729	80.003	19.994	103.933	19.999	3.091	0.539
643.500	406.010	80.004	19.995	103.931	20.003	2.827	0.512
644.000	406.260	80.003	19.995	103.929	20.003	2.882	0.518
644.500	406.482	80.001	19.995	103.927	20.003	2.863	0.502
645.000	406.778	80.003	19.994	103.924	20.000	3.033	0.495
645.500	406.996	80.004	19.995	103.924	20.003	2.885	0.515
646.000	407.261	80.002	19.994	103.925	20.004	2.787	0.498
646.500	407.518	80.003	19.994	103.926	20.003	2.874	0.503
647.000	407.750	80.004	19.994	103.926	20.002	2.909	0.506
647.500	407.990	80.002	19.994	103.926	20.000	3.026	0.481
648.000	408.275	80.003	19.994	103.925	20.005	2.725	0.498
648.500	408.512	80.003	19.995	103.924	20.003	2.858	0.523
649.000	408.757	80.003	19.994	103.922	19.999	3.119	0.502
649.500	409.049	80.003	19.996	103.922	20.001	3.007	0.510
650.000	409.265	80.004	19.994	103.922	20.003	2.847	0.522
650.500	409.522	80.004	19.994	103.922	20.002	2.949	0.491
651.000	409.822	80.002	19.994	103.920	20.001	3.000	0.515
651.500	410.037	80.004	19.994	103.923	19.999	3.104	0.536
652.000	410.299	80.002	19.995	103.926	20.002	2.913	0.496
652.500	410.558	80.004	19.994	103.929	20.000	3.051	0.499
653.000	410.833	80.004	19.993	103.928	20.001	2.993	0.528
653.500	411.092	80.004	19.995	103.928	20.002	2.926	0.534
654.000	411.316	80.004	19.995	103.925	20.000	3.029	0.508
654.500	411.579	80.002	19.996	103.922	20.000	3.069	0.485
655.000	411.827	80.004	19.995	103.918	20.000	3.038	0.499
655.500	412.121	80.005	19.994	103.918	20.000	3.033	0.526
656.000	412.319	80.004	19.994	103.918	19.998	3.177	0.516
656.500	412.583	80.004	19.993	103.920	20.002	2.946	0.477
657.000	412.853	80.003	19.994	103.922	20.000	3.080	0.499
657.500	413.110	80.005	19.994	103.923	20.003	2.865	0.531
658.000	413.338	80.004	19.995	103.923	20.001	2.958	0.506
658.500	413.619	80.005	19.995	103.922	20.003	2.858	0.496
659.000	413.847	80.004	19.994	103.921	20.001	2.966	0.509
659.500	414.123	80.002	19.994	103.919	20.002	2.929	0.507
660.000	414.342	80.004	19.994	103.919	20.000	3.082	0.500
660.500	414.614	80.003	19.994	103.920	20.002	2.937	0.492
661.000	414.854	80.003	19.995	103.919	20.001	3.017	0.501
661.500	415.120	80.003	19.994	103.920	20.000	3.030	0.509
662.000	415.336	80.004	19.995	103.919	20.001	3.012	0.494
662.500	415.616	80.002	19.994	103.920	20.001	2.990	0.489
663.000	415.839	80.004	19.993	103.923	19.998	3.185	0.500
663.500	416.095	80.003	19.993	103.925	19.999	3.139	0.491
664.000	416.363	80.003	19.993	103.927	19.998	3.182	0.501
664.500	416.620	80.002	19.993	103.928	20.000	3.064	0.524
665.000	416.859	80.003	19.994	103.927	20.000	3.077	0.510
665.500	417.109	80.003	19.995	103.923	20.000	3.062	0.492
666.000	417.384	80.002	19.992	103.922	20.000	3.057	0.507
666.500	417.653	80.002	19.993	103.919	19.999	3.122	0.535
667.000	417.875	80.001	19.994	103.919	20.001	2.962	0.517
667.500	418.156	80.002	19.994	103.923	20.000	3.046	0.497
668.000	418.344	80.002	19.993	103.924	20.000	3.038	0.486
668.500	418.613	80.002	19.994	103.925	19.999	3.099	0.463
669.000	418.905	80.002	19.994	103.928	20.002	2.936	0.509
669.500	419.154	80.001	19.995	103.928	20.002	2.902	0.551
670.000	419.415	80.002	19.996	103.925	20.000	3.026	0.526
670.500	419.664	80.003	19.995	103.923	19.999	3.134	0.510
671.000	419.908	80.002	19.994	103.925	20.000	3.072	0.501
671.500	420.163	80.003	19.995	103.929	20.000	3.088	0.496
672.000	420.446	80.002	19.996	103.934	20.001	3.004	0.519
672.500	420.676	80.001	19.996	103.939	20.001	2.971	0.526
673.000	420.933	80.003	19.995	103.939	20.002	2.929	0.500
673.500	421.189	80.002	19.995	103.936	19.998	3.219	0.500
674.000	421.444	80.002	19.994	103.931	19.999	3.157	0.512
674.500	421.678	80.003	19.994	103.927	19.999	3.117	0.500
675.000	421.950	80.004	19.995	103.922	19.999	3.110	0.497
675.500	422.218	80.001	19.994	103.922	19.999	3.093	0.523
676.000	422.441	80.001	19.995	103.922	19.997	3.275	0.515
676.500	422.701	80.002	19.995	103.922	20.002	2.911	0.487
677.000	422.916	80.002	19.995	103.921	20.001	2.993	0.479
677.500	423.160	80.002	19.996	103.922	19.998	3.210	0.467
678.000	423.439	80.003	19.995	103.921	19.996	3.356	0.491
678.500	423.690	80.003	19.995	103.923	20.000	3.044	0.526
679.001	423.930	80.004	19.995	103.923	19.997	3.232	0.511
679.500	424.181	80.003	19.996	103.925	20.004	2.798	0.491
680.000	424.460	80.003	19.996	103.925	19.996	3.316	0.510
680.500	424.723	80.003	19.995	103.927	19.997	3.265	0.536
681.000	424.921	80.004	19.994	103.931	19.999	3.119	0.502
681.500	425.211	80.003	19.994	103.938	19.995	3.360	0.475
682.000	425.456	80.004	19.995	103.938	19.999	3.104	0.511
682.500	425.736	80.004	19.996	103.939	19.998	3.199	0.530
683.000	426.004	80.004	19.995	103.939	19.999	3.150	0.536
683.500	426.255	80.004	19.996	103.934	20.000	3.043	0.533
684.000	426.487	80.004	19.996	103.927	20.001	2.966	0.501
684.500	426.752	80.004	19.995	103.925	19.995	3.358	0.490
685.000	426.990	80.004	19.994	103.922	19.999	3.139	0.500
685.500	427.267	80.004	19.995	103.923	20.001	2.993	0.509
686.000	427.502	80.003	19.994	103.923	19.998	3.163	0.513
686.500	427.764	80.004	19.995	103.922	20.000	3.084	0.505
687.000	428.014	80.005	19.994	103.922	19.998	3.223	0.504
687.500	428.257	80.006	19.993	103.922	19.998	3.181	0.502
688.000	428.507	80.003	19.993	103.920	19.999	3.101	0.493
688.500	428.757	80.004	19.995	103.924	19.999	3.112	0.497
689.000	429.026	80.004	19.994	103.929	20.001	2.997	0.510
689.500	429.256	80.005	19.993	103.930	19.999	3.114	0.509
690.000	429.521	80.004	19.992	103.931	19.998	3.190	0.497
690.500	429.753	80.004	19.994	103.930	20.004	2.776	0.496
691.001	430.021	80.004	19.993	103.927	20.003	2.865	0.498
691.500	430.291	80.003	19.994	103.926	20.002	2.905	0.519
692.000	430.502	80.003	19.993	103.926	20.000	3.037	0.510
692.500	430.771	80.004	19.994	103.930	19.998	3.175	0.480
693.000	431.035	80.002	19.993	103.932	20.004	2.778	0.506
693.500	431.294	80.003	19.993	103.937	19.999	3.120	0.528
694.000	431.549	80.003	19.994	103.937	20.001	2.986	0.519
694.500	431.811	80.004	19.992	103.937	20.003	2.851	0.516
695.000	432.057	80.003	19.995	103.936	20.000	3.037	0.512
695.500	432.319	80.004	19.993	103.935	20.001	2.973	0.508
696.000	432.582	80.003	19.994	103.929	19.999	3.110	0.516
696.501	432.840	80.003	19.993	103.926	20.003	2.831	0.523
697.000	433.070	80.005	19.994	103.926	19.997	3.246	0.505
697.500	433.351	80.002	19.992	103.925	19.997	3.264	0.499
698.000	433.587	80.004	19.993	103.928	20.002	2.914	0.514
698.500	433.886	80.003	19.993	103.934	20.001	2.985	0.526
699.000	434.120	80.003	19.994	103.941	19.997	3.233	0.534
699.500	434.382	80.003	19.994	103.944	20.001	2.991	0.514
700.000	434.665	80.005	19.994	103.942	19.999	3.150	0.520
700.500	434.898	80.004	19.993	103.938	19.996	3.325	0.531
701.001	435.133	80.004	19.994	103.932	19.998	3.208	0.492
701.501	435.406	80.004	19.995	103.926	19.995	3.414	0.488
702.001	435.656	80.005	19.993	103.922	19.998	3.164	0.516
702.500	435.929	80.004	19.995	103.921	19.998	3.204	0.523
703.000	436.195	80.004	19.993	103.921	19.997	3.250	0.531
703.500	436.424	80.005	19.995	103.922	20.000	3.028	0.517
704.000	436.669	80.005	19.995	103.921	19.997	3.253	0.485
704.500	436.946	80.005	19.995	103.922	20.002	2.954	0.498
705.000	437.199	80.006	19.995	103.923	19.999	3.151	0.526
705.500	437.452	80.004	19.995	103.928	19.998	3.202	0.518
706.000	437.743	80.005	19.995	103.929	20.001	2.982	0.525
706.500	437.961	80.005	19.993	103.929	20.000	3.060	0.527
707.000	438.197	80.005	19.994	103.929	20.000	3.049	0.482
707.500	438.451	80.005	19.994	103.928	20.001	3.009	0.472
708.000	438.727	80.006	19.993	103.922	20.001	3.006	0.510
708.500	438.961	80.005	19.995	103.919	19.999	3.135	0.520
709.000	439.215	80.006	19.996	103.919	20.002	2.902	0.499
709.500	439.487	80.005	19.994	103.918	20.001	2.958	0.507
710.000	439.730	80.005	19.994	103.918	20.001	3.020	0.520
710.500	439.992	80.007	19.994	103.918	20.000	3.060	0.510
711.000	440.210	80.005	19.994	103.918	19.997	3.246	0.493
711.500	440.478	80.005	19.992	103.918	19.998	3.188	0.483
712.000	440.746	80.006	19.994	103.920	20.002	2.951	0.511
712.500	441.020	80.006	19.994	103.923	20.000	3.038	0.539
713.000	441.237	80.005	19.994	103.925	20.002	2.951	0.516
713.500	441.488	80.006	19.994	103.925	20.002	2.957	0.480
714.000	441.718	80.005	19.994	103.924	20.001	2.962	0.474
714.500	441.980	80.004	19.993	103.922	20.002	2.957	0.486
715.001	442.225	80.005	19.993	103.919	20.001	3.001	0.500
715.500	442.503	80.006	19.994	103.917	19.997	3.247	0.515
716.000	442.745	80.005	19.993	103.916	20.002	2.935	0.521
716.500	443.007	80.005	19.994	103.916	20.001	2.960	0.512
717.000	443.283	80.006	19.993	103.915	20.003	2.889	0.521
717.500	443.500	80.003	19.993	103.918	19.999	3.092	0.516
718.000	443.751	80.004	19.993	103.919	20.002	2.946	0.481
718.500	444.011	80.004	19.993	103.921	20.002	2.948	0.490
719.000	444.270	80.004	19.994	103.923	20.001	2.991	0.515
719.500	444.519	80.004	19.994	103.924	20.003	2.885	0.513
720.000	444.788	80.004	19.995	103.923	20.001	3.017	0.513
720.500	445.019	80.003	19.994	103.923	20.000	3.059	0.508
721.000	445.271	80.003	19.993	103.922	20.000	3.035	0.491
721.500	445.515	80.003	19.995	103.920	20.002	2.949	0.489
722.000	445.791	80.004	19.994	103.920	20.001	2.993	0.508
722.500	446.043	80.004	19.993	103.920	19.999	3.095	0.524
723.000	446.309	80.003	19.992	103.919	20.000	3.037	0.523
723.500	446.522	80.003	19.993	103.920	19.997	3.238	0.499
724.000	446.809	80.003	19.994	103.926	20.000	3.085	0.490
724.500	447.037	80.004	19.993	103.933	19.999	3.138	0.507
725.000	447.305	80.003	19.993	103.938	19.998	3.218	0.505
725.500	447.553	80.002	19.994	103.941	19.999	3.099	0.506
726.000	447.807	80.003	19.994	103.941	20.000	3.061	0.509
726.500	448.077	80.004	19.995	103.938	20.001	2.979	0.513
727.000	448.313	80.004	19.994	103.931	19.999	3.103	0.515
727.500	448.597	80.003	19.994	103.931	20.000	3.073	0.513
728.000	448.841	80.003	19.994	103.932	20.002	2.927	0.524
728.500	449.088	80.003	19.994	103.932	19.999	3.091	0.510
729.000	449.365	80.002	19.994	103.933	19.997	3.259	0.507
729.500	449.577	80.005	19.993	103.934	20.001	3.000	0.507
730.000	449.875	80.004	19.993	103.929	20.000	3.037	0.500
730.500	450.104	80.004	19.994	103.927	19.998	3.184	0.519
731.000	450.360	80.004	19.993	103.929	20.000	3.090	0.506
731.500	450.620	80.002	19.994	103.927	20.003	2.858	0.500
732.000	450.878	80.004	19.994	103.927	19.999	3.135	0.517
732.500	451.138	80.004	19.995	103.929	20.001	2.964	0.518
733.000	451.384	80.004	19.996	103.932	20.001	3.010	0.512
733.500	451.639	80.004	19.993	103.936	20.000	3.063	0.504
734.000	451.890	80.003	19.995	103.938	20.001	2.975	0.504
734.500	452.138	80.003	19.994	103.939	20.001	2.991	0.503
735.000	452.409	80.004	19.994	103.941	20.001	3.015	0.509
735.500	452.677	80.003	19.994	103.944	19.998	3.192	0.529
736.000	452.924	80.003	19.994	103.944	19.998	3.161	0.527
736.500	453.182	80.003	19.993	103.943	20.001	2.964	0.510
737.000	453.435	80.004	19.994	103.942	19.998	3.197	0.508
737.500	453.685	80.004	19.992	103.938	20.001	3.022	0.508
738.000	453.941	80.004	19.995	103.931	20.001	3.022	0.505
738.500	454.230	80.003	19.993	103.924	20.002	2.891	0.525
739.000	454.473	80.003	19.994	103.921	20.002	2.920	0.538
739.500	454.743	80.004	19.994	103.921	19.999	3.144	0.523
740.000	455.012	80.003	19.994	103.920	20.001	3.017	0.526
740.500	455.266	80.003	19.995	103.923	19.999	3.153	0.531
741.000	455.535	80.003	19.993	103.926	19.999	3.141	0.522
741.500	455.753	80.003	19.995	103.928	19.999	3.141	0.505
742.000	456.016	80.002	19.994	103.929	19.998	3.177	0.485
742.500	456.294	80.002	19.995	103.930	20.001	2.995	0.511
743.000	456.505	80.003	19.994	103.930	19.998	3.212	0.515
743.500	456.790	80.003	19.996	103.934	19.998	3.179	0.493
744.000	457.068	80.001	19.995	103.936	20.001	2.964	0.530
744.500	457.302	80.003	19.994	103.936	19.999	3.144	0.537
745.000	457.581	80.003	19.993	103.936	19.997	3.259	0.512
745.500	457.821	80.003	19.995	103.935	19.999	3.115	0.516
746.000	458.073	80.003	19.995	103.929	20.000	3.075	0.505
746.500	458.351	80.003	19.995	103.924	19.997	3.225	0.511
747.000	458.583	80.003	19.994	103.924	19.997	3.225	0.521
747.500	458.879	80.002	19.994	103.923	19.999	3.148	0.519
748.000	459.148	80.003	19.995	103.921	19.999	3.148	0.546
748.500	459.416	80.002	19.994	103.921	19.998	3.214	0.551
749.000	459.646	80.001	19.995	103.922	19.997	3.272	0.518
749.500	459.929	80.001	19.995	103.921	19.997	3.281	0.505
750.000	460.169	80.003	19.994	103.922	19.998	3.186	0.518
750.500	460.413	80.003	19.993	103.923	20.001	3.017	0.504
751.000	460.691	80.002	19.995	103.922	20.000	3.066	0.503
751.500	460.951	80.002	19.994	103.922	20.001	2.997	0.530
752.000	461.204	80.002	19.994	103.922	19.998	3.166	0.525
752.500	461.479	80.003	19.994	103.922	19.996	3.332	0.521
753.000	461.741	80.003	19.994	103.922	19.996	3.294	0.533
753.500	462.001	80.001	19.994	103.924	20.000	3.084	0.530
754.000	462.259	80.004	19.993	103.924	19.997	3.261	0.519
754.500	462.516	80.002	19.994	103.924	19.998	3.162	0.516
755.000	462.795	80.004	19.993	103.924	19.995	3.361	0.526
755.500	463.057	80.001	19.995	103.924	19.997	3.286	0.539
756.000	463.309	80.001	19.994	103.927	19.996	3.330	0.528
756.500	463.552	80.003	19.994	103.928	19.996	3.332	0.504
757.000	463.847	80.001	19.994	103.928	19.998	3.166	0.516
757.500	464.082	80.003	19.994	103.928	19.999	3.148	0.534
758.000	464.298	80.001	19.992	103.927	19.995	3.403	0.490
758.500	464.587	80.003	19.993	103.927	19.995	3.385	0.478
759.000	464.840	80.001	19.996	103.932	19.997	3.261	0.524
759.500	465.097	80.002	19.995	103.935	19.999	3.150	0.526
760.000	465.314	80.002	19.994	103.936	19.996	3.297	0.492
760.500	465.621	80.003	19.995	103.937	19.997	3.244	0.500
761.000	465.870	80.001	19.993	103.933	19.997	3.272	0.540
761.500	466.126	80.003	19.993	103.926	19.998	3.181	0.530
762.000	466.397	80.002	19.993	103.923	19.997	3.231	0.515
762.500	466.672	80.003	19.995	103.922	19.998	3.195	0.536
763.000	466.924	80.003	19.995	103.921	19.996	3.352	0.536
763.500	467.217	80.003	19.994	103.922	19.997	3.250	0.536
764.000	467.425	80.004	19.994	103.922	19.999	3.093	0.524
764.500	467.721	80.003	19.994	103.922	19.996	3.308	0.503
765.000	467.935	80.004	19.994	103.924	19.998	3.206	0.507
765.500	468.199	80.004	19.995	103.924	19.999	3.148	0.494
766.000	468.453	80.005	19.993	103.923	19.999	3.150	0.498
766.500	468.752	80.003	19.994	103.923	19.998	3.162	0.536
767.000	468.975	80.005	19.994	103.926	19.996	3.350	0.537
767.500	469.246	80.005	19.994	103.925	19.998	3.175	0.508
768.000	469.491	80.002	19.996	103.925	19.996	3.292	0.505
768.500	469.736	80.005	19.995	103.924	19.996	3.299	0.503
769.000	469.987	80.004	19.995	103.923	19.993	3.494	0.493
769.500	470.266	80.003	19.995	103.919	19.997	3.226	0.514
770.000	470.556	80.004	19.994	103.917	19.995	3.370	0.549
770.500	470.802	80.003	19.995	103.918	19.999	3.126	0.552
771.000	471.071	80.005	19.995	103.918	19.994	3.425	0.526
771.500	471.338	80.003	19.995	103.918	19.996	3.297	0.526
772.000	471.555	80.003	19.995	103.917	19.997	3.241	0.510
772.500	471.843	80.005	19.995	103.918	19.993	3.499	0.494
773.000	472.057	80.005	19.995	103.916	19.996	3.326	0.503
773.500	472.316	80.003	19.995	103.917	19.997	3.286	0.487
774.000	472.592	80.003	19.996	103.916	19.997	3.283	0.504
774.500	472.854	80.003	19.994	103.917	20.000	3.088	0.536
775.000	473.123	80.002	19.994	103.916	19.997	3.255	0.534
775.500	473.396	80.003	19.995	103.916	19.995	3.392	0.536
776.000	473.628	80.004	19.996	103.916	19.995	3.394	0.524
776.500	473.920	80.004	19.995	103.919	19.998	3.222	0.515
777.000	474.196	80.004	19.995	103.920	19.997	3.273	0.546
777.500	474.434	80.002	19.995	103.921	19.996	3.306	0.541
778.000	474.693	80.002	19.996	103.921	20.000	3.064	0.505
778.500	474.937	80.005	19.995	103.921	19.997	3.241	0.500
779.000	475.235	80.005	19.995	103.919	19.994	3.432	0.523
779.500	475.481	80.004	19.993	103.920	19.998	3.219	0.543
780.000	475.715	80.005	19.993	103.920	19.996	3.299	0.512
780.500	475.973	80.004	19.994	103.921	19.994	3.463	0.486
781.000	476.237	80.005	19.995	103.924	19.994	3.447	0.507
781.500	476.519	80.004	19.994	103.923	19.995	3.392	0.534
782.000	476.766	80.005	19.994	103.920	19.998	3.171	0.537
782.500	477.006	80.004	19.993	103.921	19.994	3.448	0.508
783.000	477.251	80.004	19.993	103.920	19.998	3.188	0.486
783.500	477.531	80.005	19.994	103.918	19.998	3.179	0.505
784.000	477.756	80.005	19.993	103.918	19.997	3.266	0.515
784.500	478.006	80.006	19.995	103.918	19.994	3.456	0.490
785.000	478.274	80.005	19.994	103.917	19.998	3.217	0.497
785.500	478.518	80.003	19.993	103.918	19.998	3.188	0.515
786.000	478.803	80.005	19.994	103.919	19.994	3.491	0.520
786.500	479.045	80.004	19.993	103.919	20.000	3.064	0.527
787.000	479.331	80.004	19.994	103.918	19.996	3.349	0.527
787.500	479.566	80.004	19.995	103.918	19.999	3.135	0.525
788.000	479.825	80.005	19.995	103.917	19.996	3.292	0.508
788.500	480.081	80.006	19.993	103.917	19.997	3.288	0.505
789.000	480.353	80.006	19.993	103.917	19.995	3.376	0.522
789.500	480.579	80.004	19.993	103.917	19.999	3.117	0.513
790.000	480.845	80.006	19.995	103.919	19.998	3.219	0.495
790.500	481.097	80.004	19.994	103.921	19.998	3.199	0.505
791.000	481.356	80.007	19.992	103.921	20.000	3.057	0.515
791.500	481.631	80.006	19.994	103.922	19.999	3.097	0.522
792.000	481.876	80.007	19.995	103.922	19.997	3.228	0.527
792.500	482.138	80.007	19.992	103.920	19.996	3.326	0.513
793.000	482.383	80.006	19.995	103.918	19.996	3.334	0.507
793.500	482.619	80.006	19.994	103.917	19.996	3.346	0.494
794.000	482.913	80.006	19.994	103.916	20.000	3.069	0.505
794.500	483.141	80.007	19.993	103.915	19.995	3.370	0.526
795.000	483.415	80.006	19.994	103.917	19.993	3.505	0.512
795.500	483.664	80.005	19.995	103.917	19.996	3.297	0.513
796.000	483.887	80.005	19.993	103.918	19.997	3.230	0.497
796.500	484.151	80.006	19.995	103.922	19.997	3.250	0.479
797.000	484.407	80.005	19.993	103.926	19.997	3.239	0.503
797.500	484.680	80.006	19.992	103.927	19.996	3.308	0.525
798.000	484.896	80.005	19.994	103.928	20.001	2.969	0.509
798.500	485.175	80.002	19.993	103.927	19.998	3.184	0.492
799.000	485.393	80.004	19.994	103.924	20.001	3.006	0.496
799.500	485.662	80.004	19.994	103.920	20.000	3.062	0.492
800.000	485.969	80.005	19.995	103.918	20.000	3.051	0.532
800.500	486.239	80.003	19.995	103.918	19.998	3.164	0.577
801.000	486.470	80.003	19.994	103.918	19.997	3.257	0.539
801.500	486.739	80.004	19.994	103.918	19.992	3.558	0.501
802.000	487.007	80.001	19.993	103.918	19.996	3.352	0.518
802.500	487.255	80.002	19.994	103.918	19.995	3.376	0.526
803.000	487.459	80.003	19.994	103.918	19.996	3.332	0.484
803.500	487.741	80.004	19.993	103.919	19.996	3.343	0.469
804.000	488.000	80.002	19.995	103.919	19.998	3.164	0.514
804.500	488.288	80.003	19.993	103.920	19.994	3.429	0.544
805.000	488.526	80.002	19.995	103.921	19.996	3.314	0.537
805.500	488.779	80.003	19.994	103.923	19.993	3.543	0.509
806.000	489.030	80.002	19.993	103.922	19.992	3.604	0.498
806.500	489.299	80.001	19.994	103.923	19.996	3.330	0.512
807.000	489.533	80.003	19.995	103.923	19.993	3.525	0.511
807.500	489.792	80.003	19.995	103.922	19.993	3.496	0.498
808.000	490.026	80.004	19.994	103.921	19.995	3.381	0.493
808.500	490.288	80.002	19.994	103.921	19.992	3.585	0.494
809.001	490.547	80.001	19.993	103.922	19.993	3.545	0.509
809.500	490.769	80.003	19.994	103.922	19.996	3.350	0.501
810.000	491.087	80.002	19.996	103.921	19.996	3.343	0.510
810.500	491.292	80.001	19.995	103.921	19.996	3.343	0.532
811.000	491.591	80.004	19.994	103.921	19.998	3.195	0.514
811.500	491.844	80.003	19.994	103.921	19.997	3.259	0.528
812.000	492.086	80.003	19.993	103.923	19.996	3.354	0.524
812.500	492.327	80.003	19.993	103.925	19.993	3.534	0.489
813.000	492.601	80.005	19.993	103.925	19.997	3.268	0.499
813.500	492.873	80.003	19.993	103.925	20.000	3.044	0.531
814.000	493.078	80.004	19.994	103.925	19.995	3.392	0.511
814.500	493.340	80.003	19.994	103.923	19.997	3.290	0.472
815.000	493.618	80.002	19.994	103.922	19.995	3.388	0.504
815.500	493.896	80.003	19.993	103.922	19.996	3.328	0.548
816.000	494.115	80.003	19.992	103.922	19.994	3.491	0.526
816.500	494.403	80.003	19.994	103.922	19.994	3.481	0.502
817.000	494.662	80.002	19.994	103.922	19.994	3.480	0.527
817.500	494.911	80.002	19.994	103.921	19.997	3.277	0.528
818.000	495.157	80.003	19.992	103.921	19.994	3.452	0.502
818.500	495.428	80.003	19.996	103.921	19.993	3.503	0.506
819.000	495.696	80.003	19.995	103.922	19.994	3.458	0.528
819.500	495.911	80.002	19.993	103.922	19.997	3.279	0.511
820.000	496.188	80.002	19.996	103.922	19.997	3.268	0.487
820.500	496.391	80.003	19.994	103.922	19.995	3.423	0.486
821.000	496.671	80.003	19.995	103.921	19.996	3.315	0.482
821.501	496.935	80.003	19.993	103.919	19.998	3.159	0.514
822.000	497.196	80.005	19.992	103.920	19.998	3.201	0.535
822.500	497.430	80.003	19.993	103.920	19.994	3.452	0.510
823.000	497.684	80.005	19.993	103.920	19.994	3.465	0.492
823.500	497.936	80.004	19.993	103.920	19.997	3.264	0.497
824.000	498.230	80.003	19.994	103.922	19.995	3.385	0.525
824.500	498.467	80.003	19.994	103.921	19.991	3.654	0.539
825.000	498.738	80.003	19.994	103.922	19.993	3.494	0.520
825.500	499.003	80.003	19.994	103.923	19.997	3.263	0.522
826.000	499.259	80.003	19.995	103.923	19.992	3.571	0.529
826.500	499.487	80.004	19.993	103.922	19.993	3.510	0.502
827.000	499.766	80.003	19.994	103.923	19.994	3.487	0.495
827.500	500.021	80.004	19.993	103.922	19.992	3.603	0.521
828.000	500.268	80.002	19.994	103.922	19.994	3.450	0.518
828.500	500.539	80.004	19.993	103.921	19.992	3.567	0.510
829.000	500.774	80.002	19.995	103.921	19.991	3.631	0.512
829.500	501.065	80.003	19.994	103.921	19.992	3.580	0.516
830.000	501.280	80.004	19.994	103.921	19.994	3.439	0.516
830.500	501.565	80.002	19.994	103.921	19.995	3.416	0.503
831.000	501.787	80.003	19.993	103.921	19.995	3.399	0.504
831.500	502.084	80.003	19.994	103.921	19.996	3.339	0.513
832.000	502.328	80.003	19.993	103.921	19.996	3.332	0.530
832.500	502.564	80.003	19.993	103.920	19.992	3.591	0.511
833.000	502.818	80.002	19.993	103.919	19.995	3.396	0.485
833.500	503.094	80.001	19.995	103.919	19.995	3.390	0.510
834.000	503.354	80.004	19.994	103.918	19.996	3.348	0.533
834.500	503.602	80.001	19.995	103.918	19.996	3.303	0.522
835.000	503.835	80.003	19.995	103.918	19.994	3.458	0.495
835.500	504.068	80.004	19.994	103.919	19.994	3.450	0.474
836.000	504.334	80.002	19.995	103.920	19.994	3.487	0.482
836.500	504.605	80.004	19.994	103.920	19.996	3.295	0.518
837.000	504.854	80.003	19.994	103.919	19.995	3.385	0.528
837.500	505.109	80.003	19.995	103.919	19.997	3.288	0.512
838.000	505.372	80.002	19.995	103.919	19.993	3.501	0.511
838.500	505.645	80.001	19.997	103.918	19.994	3.445	0.527
839.000	505.910	80.004	19.997	103.918	19.994	3.443	0.537
839.500	506.138	80.006	19.996	103.919	19.995	3.408	0.515
840.000	506.383	80.002	19.995	103.918	19.994	3.430	0.483
840.500	506.649	80.003	19.995	103.918	19.992	3.614	0.492
841.000	506.917	80.003	19.995	103.918	19.993	3.532	0.523
841.500	507.138	80.001	19.995	103.918	19.993	3.536	0.512
842.000	507.416	80.003	19.995	103.917	19.997	3.271	0.494
842.500	507.684	80.004	19.995	103.916	19.994	3.483	0.522
843.000	507.926	80.003	19.996	103.916	19.993	3.545	0.528
843.500	508.214	80.004	19.994	103.916	19.996	3.306	0.520
844.000	508.455	80.003	19.994	103.917	19.992	3.592	0.529
844.500	508.683	80.005	19.995	103.917	19.992	3.581	0.499
845.000	509.012	80.004	19.995	103.919	19.996	3.328	0.513
845.500	509.226	80.006	19.994	103.918	19.992	3.560	0.550
846.000	509.485	80.005	19.995	103.918	19.996	3.299	0.508
846.500	509.705	80.005	19.994	103.917	19.995	3.367	0.476
847.000	510.014	80.004	19.995	103.918	19.995	3.383	0.504
847.500	510.252	80.005	19.995	103.918	19.997	3.261	0.538
848.000	510.526	80.003	19.994	103.918	19.993	3.507	0.530
848.500	510.767	80.006	19.994	103.917	19.994	3.476	0.514
849.000	511.004	80.005	19.995	103.918	19.993	3.554	0.497
849.500	511.269	80.006	19.994	103.917	19.994	3.483	0.490
850.000	511.522	80.004	19.995	103.918	19.994	3.441	0.510
850.500	511.758	80.005	19.995	103.919	19.994	3.467	0.503
851.000	512.012	80.006	19.994	103.919	19.993	3.508	0.490
851.500	512.267	80.005	19.993	103.918	19.994	3.448	0.499
852.000	512.488	80.005	19.993	103.916	19.995	3.421	0.493
852.500	512.757	80.005	19.994	103.914	19.997	3.286	0.484
853.000	513.037	80.004	19.993	103.911	19.995	3.357	0.519
853.500	513.269	80.004	19.994	103.906	19.997	3.228	0.530
854.000	513.533	80.004	19.994	103.907	19.994	3.472	0.504
854.500	513.766	80.003	19.994	103.908	19.996	3.312	0.497
855.000	514.040	80.005	19.994	103.910	19.994	3.447	0.502
855.500	514.269	80.003	19.994	103.914	19.994	3.487	0.505
856.000	514.579	80.004	19.994	103.918	19.995	3.410	0.521
856.500	514.826	80.005	19.995	103.920	19.995	3.418	0.548
857.000	515.062	80.005	19.994	103.921	19.995	3.401	0.519
857.500	515.342	80.004	19.994	103.921	19.995	3.381	0.499
858.000	515.618	80.001	19.994	103.920	19.996	3.328	0.537
858.500	515.874	80.003	19.996	103.921	19.997	3.266	0.544
859.000	516.085	80.004	19.993	103.919	19.996	3.299	0.499
859.500	516.355	80.005	19.995	103.918	19.996	3.314	0.473
860.000	516.612	80.004	19.994	103.917	19.996	3.299	0.504
860.500	516.860	80.003	19.996	103.916	19.997	3.235	0.516
861.000	517.150	80.002	19.994	103.915	19.997	3.263	0.522
861.500	517.367	80.002	19.994	103.914	19.998	3.221	0.523
862.000	517.624	80.001	19.995	103.914	19.993	3.556	0.491
862.500	517.832	80.003	19.995	103.913	19.998	3.197	0.469
863.000	518.105	80.004	19.994	103.915	19.994	3.430	0.473
863.500	518.331	80.003	19.995	103.915	19.997	3.290	0.490
864.000	518.592	80.003	19.994	103.916	19.996	3.315	0.493
864.500	518.905	80.004	19.995	103.919	19.994	3.483	0.531
865.000	519.135	80.004	19.996	103.920	19.997	3.274	0.558
865.500	519.380	80.003	19.994	103.920	19.997	3.259	0.509
866.000	519.600	80.003	19.995	103.920	19.993	3.552	0.470
866.500	519.888	80.004	19.995	103.921	19.999	3.095	0.486
867.000	520.154	80.003	19.996	103.919	20.000	3.076	0.531
867.500	520.420	80.002	19.995	103.920	19.994	3.434	0.543
868.000	520.660	80.002	19.995	103.920	19.996	3.355	0.519
868.500	520.893	80.004	19.995	103.919	19.996	3.310	0.490
869.000	521.160	80.004	19.995	103.917	19.993	3.494	0.487
869.500	521.428	80.003	19.996	103.917	19.996	3.346	0.517
870.000	521.659	80.003	19.994	103.917	19.994	3.448	0.517
870.500	521.937	80.002	19.997	103.918	19.995	3.397	0.504
871.000	522.186	80.003	19.994	103.920	19.993	3.527	0.518
871.500	522.426	80.005	19.994	103.920	19.996	3.314	0.508
872.000	522.664	80.005	19.995	103.920	19.996	3.323	0.483
872.500	522.966	80.005	19.994	103.920	19.998	3.219	0.509
873.000	523.225	80.004	19.995	103.919	19.993	3.499	0.550
873.500	523.428	80.004	19.994	103.918	19.996	3.346	0.512
874.000	523.712	80.007	19.994	103.918	19.993	3.550	0.475
874.500	523.947	80.005	19.995	103.918	19.991	3.660	0.503
875.000	524.206	80.005	19.993	103.919	19.994	3.463	0.506
875.500	524.474	80.007	19.993	103.921	19.995	3.410	0.511
876.000	524.703	80.006	19.993	103.920	19.992	3.563	0.512
876.500	524.973	80.006	19.993	103.920	19.996	3.354	0.497
877.000	525.212	80.005	19.994	103.920	19.993	3.505	0.504
877.500	525.487	80.004	19.994	103.919	19.992	3.607	0.512
878.000	525.742	80.006	19.992	103.913	19.995	3.414	0.522
878.500	525.981	80.005	19.995	103.913	19.992	3.624	0.512
879.000	526.241	80.006	19.995	103.914	19.995	3.374	0.496
879.500	526.533	80.004	19.993	103.914	19.994	3.449	0.526
880.000	526.771	80.004	19.995	103.915	19.990	3.702	0.541
880.500	527.029	80.006	19.993	103.918	19.997	3.263	0.513
881.000	527.295	80.004	19.994	103.919	19.994	3.432	0.510
881.500	527.543	80.003	19.994	103.918	19.994	3.450	0.519
882.000	527.788	80.005	19.992	103.918	19.996	3.325	0.503
882.500	528.056	80.004	19.994	103.919	19.990	3.718	0.503
883.000	528.303	80.003	19.993	103.919	19.990	3.738	0.514
883.500	528.538	80.004	19.994	103.917	19.994	3.425	0.498
884.000	528.819	80.003	19.994	103.916	19.996	3.334	0.499
884.500	529.058	80.006	19.994	103.916	19.993	3.551	0.518
885.000	529.315	80.005	19.993	103.916	19.994	3.461	0.508
885.500	529.561	80.007	19.993	103.917	19.997	3.241	0.500
886.001	529.813	80.004	19.995	103.919	19.993	3.503	0.500
886.500	530.061	80.004	19.993	103.921	19.995	3.399	0.499
887.000	530.338	80.004	19.993	103.921	19.998	3.177	0.513
887.500	530.615	80.006	19.992	103.921	19.995	3.376	0.540
888.000	530.870	80.003	19.993	103.921	19.994	3.425	0.543
888.501	531.076	80.006	19.993	103.921	19.996	3.314	0.496
889.000	531.372	80.002	19.993	103.922	19.995	3.396	0.481
889.500	531.612	80.003	19.993	103.922	19.998	3.160	0.520
890.000	531.925	80.003	19.993	103.923	19.996	3.308	0.545
890.500	532.136	80.003	19.993	103.922	19.994	3.470	0.538
891.000	532.390	80.003	19.992	103.922	19.996	3.299	0.494
891.500	532.644	80.003	19.994	103.921	19.996	3.312	0.486
892.000	532.907	80.004	19.994	103.921	19.995	3.365	0.512
892.500	533.148	80.003	19.994	103.922	19.996	3.330	0.510
893.000	533.394	80.003	19.992	103.922	19.996	3.352	0.496
893.500	533.662	80.004	19.993	103.922	19.997	3.224	0.501
894.000	533.911	80.003	19.994	103.923	19.993	3.525	0.515
894.500	534.197	80.003	19.994	103.922	19.998	3.170	0.526
895.000	534.443	80.002	19.994	103.920	19.996	3.354	0.534
895.500	534.726	80.002	19.993	103.920	19.994	3.425	0.531
896.000	534.987	80.002	19.993	103.920	19.995	3.396	0.536
896.500	535.248	80.002	19.994	103.919	19.997	3.244	0.532
897.000	535.512	80.003	19.992	103.919	19.997	3.246	0.523
897.500	535.768	80.003	19.993	103.919	19.999	3.153	0.523
898.000	536.028	80.004	19.994	103.919	19.996	3.297	0.518
898.500	536.295	80.001	19.994	103.919	19.994	3.447	0.521
899.000	536.548	80.002	19.995	103.919	19.994	3.428	0.524
899.500	536.809	80.005	19.994	103.919	19.996	3.297	0.517
900.000	537.051	80.001	19.994	103.918	19.997	3.239	0.509
900.500	537.306	80.004	19.994	103.917	19.993	3.499	0.500
901.000	537.575	80.003	19.995	103.918	19.997	3.241	0.511
901.500	537.868	80.002	19.994	103.917	19.997	3.272	0.543
902.000	538.093	80.001	19.993	103.916	19.994	3.436	0.540
902.501	538.330	80.002	19.994	103.917	19.994	3.476	0.490
903.000	538.605	80.001	19.994	103.917	19.995	3.407	0.487
903.500	538.884	80.005	19.992	103.916	19.995	3.361	0.532
904.000	539.094	80.003	19.993	103.916	19.995	3.418	0.521
904.500	539.386	80.003	19.994	103.916	19.996	3.315	0.496
905.000	539.643	80.003	19.994	103.916	19.994	3.481	0.526
905.500	539.873	80.005	19.993	103.916	19.997	3.246	0.518
906.000	540.124	80.002	19.994	103.915	19.993	3.505	0.484
906.500	540.370	80.003	19.993	103.916	19.993	3.492	0.489
907.000	540.654	80.004	19.994	103.917	19.993	3.543	0.513
907.500	540.903	80.002	19.993	103.918	19.994	3.459	0.532
908.000	541.118	80.003	19.994	103.916	19.993	3.512	0.499
908.500	541.393	80.003	19.994	103.917	19.992	3.562	0.477
909.000	541.654	80.004	19.995	103.917	19.991	3.651	0.513
909.501	541.938	80.003	19.995	103.917	19.995	3.407	0.540
910.001	542.171	80.006	19.993	103.915	19.994	3.481	0.531
910.500	542.447	80.004	19.995	103.917	19.991	3.644	0.513
911.000	542.691	80.003	19.993	103.916	19.993	3.540	0.514
911.500	542.953	80.006	19.992	103.916	19.992	3.574	0.513
912.000	543.206	80.002	19.993	103.917	19.994	3.483	0.511
912.500	543.414	80.003	19.994	103.918	19.995	3.407	0.488
913.000	543.692	80.003	19.994	103.920	19.994	3.454	0.473
913.500	543.946	80.004	19.992	103.921	19.995	3.383	0.509
914.000	544.207	80.003	19.993	103.922	19.993	3.498	0.524
914.500	544.449	80.004	19.994	103.921	19.992	3.618	0.509
915.000	544.686	80.004	19.994	103.920	19.995	3.397	0.491
915.500	544.942	80.002	19.993	103.921	19.992	3.589	0.486
916.000	545.218	80.002	19.993	103.920	19.993	3.509	0.513
916.500	545.467	80.005	19.993	103.920	19.993	3.552	0.529
917.000	545.693	80.002	19.994	103.919	19.992	3.620	0.500
917.500	545.971	80.004	19.993	103.919	19.992	3.567	0.489
918.000	546.194	80.005	19.993	103.917	19.991	3.634	0.502
918.500	546.447	80.002	19.992	103.918	19.992	3.581	0.489
919.000	546.707	80.005	19.993	103.918	19.996	3.299	0.495
919.500	546.939	80.004	19.992	103.920	19.995	3.401	0.503
920.000	547.179	80.003	19.993	103.920	19.994	3.467	0.482
920.500	547.469	80.003	19.993	103.921	19.994	3.465	0.501
921.000	547.702	80.003	19.994	103.920	19.994	3.479	0.527
921.500	547.996	80.002	19.993	103.921	19.991	3.653	0.525
922.000	548.248	80.005	19.994	103.920	19.994	3.459	0.536
922.500	548.446	80.003	19.993	103.920	19.994	3.454	0.498
923.000	548.723	80.004	19.993	103.919	19.993	3.514	0.463
923.500	548.975	80.003	19.993	103.919	19.992	3.595	0.502
924.000	549.206	80.004	19.994	103.918	19.994	3.427	0.506
924.500	549.469	80.003	19.994	103.919	19.992	3.604	0.489
925.000	549.701	80.004	19.994	103.918	19.989	3.759	0.495
925.500	549.984	80.003	19.994	103.918	19.991	3.660	0.505
926.000	550.253	80.004	19.993	103.920	19.993	3.523	0.533
926.500	550.483	80.005	19.994	103.921	19.994	3.459	0.526
927.000	550.774	80.002	19.994	103.921	19.994	3.434	0.510
927.500	550.980	80.004	19.993	103.920	19.989	3.777	0.509
928.000	551.244	80.004	19.993	103.919	19.991	3.665	0.483
928.500	551.500	80.005	19.994	103.918	19.991	3.625	0.495
929.000	551.736	80.005	19.994	103.918	19.990	3.706	0.506
929.500	551.990	80.005	19.995	103.918	19.988	3.840	0.491
930.000	552.242	80.004	19.994	103.918	19.989	3.769	0.498
930.500	552.496	80.006	19.994	103.918	19.989	3.773	0.506
931.000	552.754	80.005	19.994	103.917	19.986	3.982	0.509
931.500	553.001	80.005	19.995	103.917	19.990	3.726	0.509
932.000	553.251	80.007	19.993	103.917	19.988	3.859	0.501
932.500	553.500	80.005	19.994	103.917	19.989	3.771	0.498
933.000	553.779	80.004	19.994	103.918	19.990	3.717	0.513
933.500	554.025	80.005	19.993	103.922	19.992	3.611	0.526
934.000	554.249	80.004	19.994	103.928	19.990	3.724	0.497
934.500	554.543	80.004	19.994	103.928	19.991	3.653	0.494
935.000	554.801	80.004	19.994	103.929	19.990	3.746	0.535
935.500	555.036	80.004	19.993	103.928	19.989	3.804	0.522
936.000	555.284	80.004	19.994	103.925	19.989	3.758	0.488
936.500	555.544	80.005	19.993	103.918	19.991	3.642	0.496
937.000	555.827	80.004	19.995	103.918	19.990	3.751	0.526
937.500	556.086	80.004	19.994	103.918	19.987	3.915	0.542
938.000	556.326	80.003	19.992	103.919	19.989	3.804	0.520
938.500	556.558	80.003	19.995	103.920	19.992	3.611	0.486
939.000	556.801	80.003	19.996	103.922	19.991	3.647	0.474
939.500	557.112	80.003	19.994	103.923	19.991	3.649	0.515
940.000	557.359	80.004	19.996	103.923	19.988	3.826	0.556
940.500	557.568	80.004	19.993	103.922	19.988	3.850	0.507
941.000	557.870	80.004	19.993	103.914	19.991	3.664	0.484
941.500	558.082	80.005	19.995	103.913	19.993	3.547	0.513
942.000	558.355	80.004	19.994	103.916	19.992	3.622	0.499
942.500	558.612	80.003	19.995	103.919	19.992	3.614	0.508
943.000	558.847	80.003	19.994	103.920	19.990	3.716	0.511
943.500	559.128	80.004	19.994	103.928	19.993	3.556	0.504
944.000	559.377	80.005	19.993	103.928	19.992	3.613	0.523
944.500	559.588	80.005	19.993	103.924	19.990	3.693	0.495
945.000	559.883	80.004	19.992	103.921	19.990	3.735	0.483
945.500	560.097	80.004	19.993	103.920	19.989	3.789	0.508
946.000	560.377	80.005	19.993	103.919	19.989	3.778	0.502
946.500	560.603	80.005	19.994	103.918	19.988	3.833	0.500
947.000	560.870	80.004	19.994	103.918	19.990	3.736	0.500
947.500	561.141	80.002	19.994	103.921	19.991	3.653	0.516
948.000	561.428	80.004	19.994	103.921	19.988	3.835	0.548
948.500	561.685	80.006	19.994	103.922	19.991	3.658	0.551
949.000	561.916	80.004	19.994	103.923	19.991	3.625	0.516
949.500	562.151	80.003	19.994	103.924	19.989	3.778	0.477
950.000	562.421	80.003	19.994	103.923	19.990	3.724	0.486
950.500	562.661	80.004	19.993	103.923	19.990	3.725	0.508
951.000	562.912	80.004	19.993	103.922	19.989	3.778	0.501
951.500	563.158	80.004	19.994	103.922	19.990	3.742	0.494
952.000	563.412	80.005	19.994	103.921	19.991	3.638	0.498
952.500	563.700	80.006	19.994	103.920	19.992	3.614	0.521
953.000	563.933	80.006	19.993	103.920	19.990	3.715	0.532
953.500	564.162	80.005	19.995	103.919	19.992	3.620	0.491
954.000	564.450	80.004	19.993	103.919	19.987	3.919	0.490
954.500	564.701	80.004	19.993	103.920	19.988	3.826	0.528
955.000	564.933	80.005	19.993	103.919	19.988	3.875	0.511
955.500	565.221	80.005	19.994	103.919	19.990	3.756	0.502
956.000	565.474	80.006	19.993	103.918	19.987	3.902	0.530
956.500	565.726	80.005	19.993	103.919	19.988	3.888	0.523
957.000	565.997	80.004	19.993	103.918	19.989	3.804	0.514
957.500	566.247	80.006	19.994	103.918	19.991	3.673	0.522
958.000	566.487	80.004	19.994	103.918	19.991	3.673	0.505
958.500	566.735	80.003	19.994	103.919	19.991	3.669	0.488
959.000	567.013	80.008	19.994	103.919	19.989	3.808	0.507
959.500	567.248	80.006	19.995	103.919	19.989	3.806	0.520
960.000	567.532	80.006	19.994	103.918	19.991	3.689	0.516
960.500	567.754	80.004	19.994	103.919	19.990	3.736	0.512
961.000	568.045	80.004	19.994	103.918	19.990	3.707	0.510
961.500	568.302	80.006	19.993	103.918	19.988	3.846	0.531
962.000	568.521	80.004	19.993	103.918	19.989	3.788	0.512
962.500	568.823	80.004	19.995	103.917	19.990	3.698	0.498
963.000	569.101	80.005	19.995	103.917	19.988	3.857	0.550
963.500	569.327	80.003	19.995	103.917	19.991	3.627	0.542
964.000	569.584	80.004	19.995	103.917	19.991	3.676	0.494
964.500	569.860	80.004	19.995	103.917	19.989	3.780	0.508
965.000	570.121	80.003	19.994	103.917	19.991	3.634	0.535
965.500	570.390	80.006	19.995	103.917	19.989	3.758	0.533
966.000	570.650	80.003	19.994	103.918	19.990	3.722	0.530
966.500	570.901	80.003	19.994	103.918	19.988	3.882	0.520
967.000	571.164	80.004	19.995	103.917	19.984	4.135	0.512
967.500	571.384	80.004	19.995	103.917	19.987	3.900	0.499
968.000	571.648	80.004	19.995	103.917	19.989	3.771	0.483
968.500	571.896	80.002	19.994	103.916	19.990	3.731	0.497
969.000	572.165	80.004	19.994	103.917	19.987	3.910	0.514
969.500	572.451	80.003	19.995	103.917	19.988	3.828	0.536
970.000	572.681	80.003	19.995	103.918	19.988	3.890	0.535
970.500	572.966	80.004	19.994	103.919	19.986	3.961	0.515
971.000	573.244	80.004	19.994	103.920	19.988	3.844	0.539
971.500	573.479	80.004	19.994	103.920	19.990	3.691	0.538
972.000	573.745	80.003	19.994	103.920	19.990	3.746	0.507
972.500	574.047	80.005	19.994	103.920	19.990	3.757	0.535
973.000	574.304	80.002	19.994	103.920	19.986	3.965	0.563
973.500	574.618	80.003	19.993	103.919	19.987	3.926	0.565
974.000	574.830	80.004	19.994	103.918	19.986	4.008	0.549
974.500	575.096	80.004	19.993	103.917	19.988	3.842	0.502
975.000	575.343	80.002	19.993	103.917	19.989	3.762	0.496
975.500	575.597	80.005	19.994	103.916	19.992	3.623	0.507
976.000	575.882	80.004	19.993	103.916	19.988	3.846	0.520
976.500	576.137	80.003	19.993	103.917	19.990	3.702	0.540
977.000	576.432	80.003	19.994	103.917	19.991	3.640	0.545
977.500	576.672	80.002	19.993	103.916	19.989	3.766	0.542
978.000	576.922	80.003	19.994	103.916	19.988	3.835	0.512
978.500	577.172	80.005	19.993	103.916	19.989	3.769	0.495
979.000	577.415	80.003	19.993	103.915	19.987	3.926	0.497
979.500	577.693	80.004	19.993	103.916	19.988	3.840	0.507
980.000	577.941	80.004	19.993	103.917	19.988	3.857	0.523
980.500	578.199	80.004	19.993	103.918	19.988	3.838	0.516
981.000	578.465	80.004	19.992	103.918	19.986	3.993	0.515
981.500	578.720	80.005	19.993	103.919	19.990	3.693	0.522
982.000	578.983	80.003	19.994	103.919	19.992	3.580	0.519
982.500	579.247	80.004	19.993	103.922	19.990	3.738	0.522
983.000	579.490	80.004	19.994	103.925	19.990	3.746	0.517
983.500	579.756	80.004	19.994	103.926	19.990	3.705	0.508
984.000	580.019	80.006	19.993	103.926	19.991	3.676	0.519
984.500	580.310	80.005	19.993	103.925	19.988	3.835	0.541
985.000	580.488	80.005	19.995	103.923	19.989	3.760	0.511
985.500	580.807	80.004	19.994	103.920	19.991	3.658	0.483
986.000	581.061	80.004	19.994	103.918	19.986	3.961	0.535
986.500	581.341	80.005	19.994	103.918	19.989	3.819	0.553
987.000	581.590	80.004	19.994	103.919	19.986	3.995	0.531
987.500	581.855	80.005	19.994	103.919	19.988	3.871	0.522
988.000	582.123	80.005	19.995	103.918	19.987	3.944	0.524
988.500	582.404	80.005	19.994	103.918	19.990	3.697	0.541
989.000	582.637	80.006	19.993	103.918	19.986	3.966	0.532
989.500	582.867	80.004	19.994	103.917	19.988	3.844	0.489
990.000	583.163	80.004	19.994	103.916	19.985	4.034	0.494
990.500	583.418	80.004	19.994	103.917	19.989	3.822	0.538
991.001	583.687	80.005	19.994	103.918	19.984	4.152	0.537
991.500	583.904	80.004	19.994	103.918	19.987	3.935	0.505
992.000	584.168	80.004	19.995	103.917	19.985	4.032	0.484
992.500	584.437	80.002	19.994	103.918	19.988	3.888	0.507
993.000	584.707	80.005	19.994	103.918	19.987	3.917	0.536
993.500	584.960	80.004	19.994	103.918	19.991	3.640	0.531
994.000	585.217	80.004	19.994	103.917	19.987	3.930	0.517
994.500	585.496	80.004	19.994	103.918	19.986	3.961	0.523
995.000	585.731	80.003	19.993	103.919	19.986	3.984	0.524
995.500	586.018	80.004	19.994	103.919	19.989	3.804	0.518
996.000	586.268	80.003	19.994	103.919	19.986	3.981	0.530
996.500	586.526	80.004	19.994	103.920	19.986	3.972	0.522
997.000	586.782	80.003	19.994	103.920	19.989	3.818	0.511
997.500	587.060	80.003	19.995	103.920	19.986	4.003	0.524
998.000	587.288	80.002	19.992	103.920	19.988	3.859	0.520
998.500	587.542	80.003	19.997	103.921	19.987	3.953	0.494
999.000	587.792	80.002	19.996	103.924	19.986	3.964	0.493
999.500	588.061	80.002	19.994	103.925	19.990	3.740	0.512
1000.000	588.307	80.003	19.995	103.924	19.988	3.827	0.517
1000.500	588.544	80.002	19.994	103.925	19.991	3.673	0.499
1001.000	588.798	80.002	19.994	103.924	19.989	3.786	0.487
1001.500	589.065	80.002	19.993	103.922	19.986	3.959	0.505
1002.000	589.313	80.004	19.994	103.920	19.990	3.744	0.518
1002.500	589.575	80.003	19.995	103.921	19.986	3.961	0.513
1003.000	589.846	80.005	19.994	103.920	19.986	4.023	0.522
1003.500	590.102	80.004	19.994	103.921	19.988	3.846	0.530
1004.000	590.370	80.003	19.993	103.920	19.989	3.778	0.525
1004.501	590.580	80.004	19.993	103.920	19.990	3.711	0.501
1005.000	590.836	80.003	19.994	103.920	19.988	3.842	0.472
1005.500	591.122	80.004	19.994	103.920	19.990	3.713	0.504
1006.000	591.412	80.004	19.994	103.920	19.987	3.902	0.559
1006.500	591.615	80.004	19.993	103.918	19.990	3.727	0.534
1007.000	591.872	80.004	19.994	103.918	19.990	3.713	0.477
1007.500	592.140	80.005	19.994	103.917	19.990	3.713	0.493
1008.001	592.392	80.004	19.992	103.918	19.991	3.660	0.522
1008.500	592.669	80.005	19.993	103.917	19.989	3.771	0.525
1009.000	592.906	80.004	19.994	103.918	19.990	3.715	0.522
1009.500	593.193	80.004	19.993	103.918	19.989	3.762	0.519
1010.000	593.425	80.005	19.994	103.919	19.990	3.727	0.521
1010.500	593.679	80.006	19.993	103.916	19.986	3.975	0.502
1011.000	593.979	80.006	19.994	103.917	19.987	3.891	0.520
1011.500	594.226	80.005	19.993	103.917	19.989	3.775	0.551
1012.000	594.462	80.006	19.994	103.918	19.986	3.972	0.515
1012.500	594.747	80.005	19.993	103.918	19.990	3.747	0.502
1013.000	594.980	80.005	19.993	103.920	19.986	3.986	0.519
1013.500	595.256	80.006	19.994	103.920	19.987	3.946	0.514
1014.000	595.524	80.005	19.993	103.920	19.985	4.046	0.527
1014.500	595.801	80.006	19.994	103.920	19.990	3.707	0.545
1015.000	596.032	80.006	19.993	103.919	19.984	4.123	0.526
1015.500	596.260	80.005	19.993	103.919	19.988	3.890	0.483
1016.000	596.527	80.005	19.994	103.919	19.987	3.899	0.477
1016.500	596.747	80.004	19.994	103.920	19.989	3.818	0.491
1017.000	597.019	80.004	19.994	103.920	19.989	3.818	0.490
1017.500	597.271	80.004	19.993	103.921	19.990	3.694	0.508
1018.000	597.553	80.005	19.994	103.921	19.988	3.869	0.529
1018.500	597.799	80.004	19.992	103.921	19.991	3.647	0.531
1019.000	598.011	80.003	19.994	103.921	19.986	3.973	0.493
1019.500	598.311	80.003	19.994	103.922	19.988	3.837	0.485
1020.000	598.557	80.004	19.993	103.922	19.987	3.891	0.529
1020.501	598.791	80.005	19.994	103.921	19.986	4.002	0.512
1021.000	599.054	80.004	19.994	103.921	19.990	3.749	0.488
1021.500	599.310	80.004	19.993	103.922	19.987	3.900	0.508
1022.000	599.598	80.004	19.993	103.921	19.987	3.928	0.532
1022.500	599.867	80.004	19.994	103.921	19.988	3.849	0.551
1023.000	600.064	80.004	19.993	103.921	19.986	4.002	0.512
1023.500	600.315	80.003	19.994	103.918	19.987	3.957	0.457
1024.000	600.590	80.004	19.993	103.918	19.988	3.829	0.487
1024.500	600.840	80.003	19.993	103.918	19.987	3.935	0.525
1025.000	601.028	80.004	19.994	103.919	19.988	3.846	0.481
1025.500	601.334	80.003	19.994	103.919	19.987	3.935	0.466
1026.000	601.601	80.005	19.994	103.921	19.986	3.970	0.533
1026.500	601.818	80.005	19.994	103.921	19.988	3.840	0.529
1027.000	602.060	80.004	19.994	103.920	19.986	3.986	0.472
1027.500	602.315	80.004	19.995	103.917	19.990	3.727	0.478
1028.000	602.557	80.004	19.994	103.915	19.991	3.665	0.497
1028.500	602.858	80.006	19.994	103.914	19.988	3.855	0.520
1029.001	603.059	80.004	19.993	103.914	19.989	3.758	0.522
1029.501	603.322	80.006	19.995	103.913	19.987	3.895	0.482
1030.000	603.549	80.004	19.994	103.915	19.987	3.922	0.477
1030.500	603.806	80.003	19.995	103.917	19.990	3.734	0.487
1031.000	604.081	80.005	19.994	103.916	19.990	3.755	0.508
1031.500	604.365	80.005	19.995	103.916	19.989	3.817	0.546
1032.001	604.559	80.005	19.993	103.917	19.987	3.951	0.518
1032.501	604.837	80.005	19.994	103.917	19.987	3.935	0.475
1033.000	605.112	80.005	19.993	103.917	19.990	3.718	0.512
1033.500	605.325	80.005	19.993	103.916	19.990	3.722	0.520
1034.000	605.606	80.005	19.992	103.916	19.986	3.981	0.491
1034.500	605.824	80.004	19.995	103.915	19.988	3.862	0.497
1035.000	606.105	80.005	19.993	103.914	19.986	3.988	0.499
1035.501	606.305	80.005	19.994	103.914	19.986	3.959	0.490
1036.001	606.614	80.004	19.995	103.914	19.984	4.095	0.495
1036.500	606.882	80.005	19.994	103.915	19.986	3.969	0.543
1037.000	607.055	80.007	19.994	103.915	19.988	3.878	0.509
1037.500	607.354	80.005	19.994	103.915	19.983	4.203	0.456
1038.000	607.603	80.005	19.994	103.915	19.985	4.035	0.510
1038.500	607.852	80.004	19.994	103.915	19.983	4.168	0.523
1039.000	608.120	80.007	19.993	103.915	19.987	3.922	0.507
1039.500	608.349	80.006	19.994	103.915	19.986	4.022	0.507
1040.001	608.607	80.007	19.994	103.915	19.983	4.172	0.492
1040.501	608.855	80.006	19.993	103.916	19.987	3.935	0.497
1041.000	609.124	80.006	19.993	103.916	19.985	4.044	0.511
1041.500	609.385	80.003	19.994	103.915	19.985	4.086	0.523
1042.000	609.616	80.005	19.994	103.916	19.986	4.019	0.511
1042.500	609.935	80.004	19.994	103.917	19.985	4.046	0.521
1043.000	610.121	80.010	19.994	103.917	19.983	4.187	0.528
1043.500	610.363	80.004	19.993	103.917	19.984	4.134	0.467
1044.000	610.638	80.004	19.994	103.917	19.981	4.327	0.472
1044.500	610.871	80.008	19.994	103.916	19.987	3.908	0.512
1045.001	611.131	80.004	19.993	103.916	19.985	4.084	0.501
1045.501	611.367	80.004	19.994	103.915	19.984	4.157	0.495
1046.000	611.610	80.004	19.993	103.916	19.986	3.993	0.488
1046.500	611.885	80.004	19.994	103.913	19.985	4.061	0.498
1047.000	612.124	80.004	19.993	103.912	19.985	4.030	0.516
1047.500	612.382	80.002	19.994	103.911	19.984	4.135	0.505
1048.000	612.664	80.003	19.994	103.910	19.985	4.068	0.519
1048.500	612.852	80.002	19.995	103.908	19.984	4.150	0.506
1049.001	613.152	80.005	19.994	103.908	19.985	4.048	0.479
1049.501	613.399	80.003	19.995	103.908	19.984	4.112	0.517
1050.000	613.644	80.003	19.994	103.910	19.980	4.395	0.519
1050.501	613.910	80.004	19.994	103.910	19.987	3.954	0.502
1051.001	614.096	80.004	19.995	103.914	19.979	4.446	0.482
1051.501	614.427	80.002	19.995	103.917	19.983	4.205	0.484
1052.000	614.679	80.004	19.995	103.918	19.983	4.169	0.550
1052.500	614.908	80.003	19.995	103.918	19.985	4.030	0.532
1053.000	615.198	80.005	19.995	103.917	19.983	4.194	0.500
1053.500	615.449	80.001	19.995	103.915	19.986	4.010	0.529
1054.000	615.660	80.003	19.995	103.915	19.985	4.068	0.502
1054.500	615.910	80.004	19.995	103.915	19.985	4.088	0.462
1055.000	616.204	80.002	19.996	103.914	19.986	3.963	0.502
1055.500	616.435	80.002	19.995	103.915	19.981	4.303	0.534
1056.000	616.685	80.003	19.995	103.916	19.982	4.247	0.503
1056.500	616.955	80.003	19.996	103.915	19.989	3.758	0.501
1057.000	617.236	80.004	19.995	103.916	19.978	4.553	0.536
1057.500	617.419	80.001	19.995	103.917	19.971	5.021	0.507
1058.000	617.705	80.000	19.993	103.916	19.969	5.094	0.466
1058.500	617.975	80.002	19.997	103.916	19.977	4.621	0.513
1059.000	618.275	80.002	19.996	103.917	19.991	3.658	0.563
1059.501	618.435	80.003	19.997	103.918	19.988	3.839	0.515
1060.001	618.766	80.002	19.996	103.920	19.984	4.101	0.475
1060.500	618.896	80.003	19.995	103.922	19.982	4.234	0.476
1061.000	619.312	80.002	19.995	103.922	19.986	3.986	0.504
1061.500	619.483	80.000	19.994	103.928	19.987	3.908	0.567
1062.000	619.751	80.003	19.994	103.930	19.986	4.008	0.513
1062.500	619.982	80.003	19.994	103.929	19.987	3.921	0.469
1063.000	620.219	80.003	19.996	103.929	19.982	4.278	0.483
1063.500	620.574	80.003	19.995	103.929	19.986	3.972	0.529
1064.000	620.685	80.002	19.994	103.922	19.987	3.899	0.529
1064.500	621.065	80.003	19.993	103.923	19.986	3.997	0.478
1065.000	621.271	80.003	19.994	103.923	19.985	4.028	0.539
1065.500	621.473	80.003	19.994	103.923	19.989	3.767	0.498
1066.000	621.828	80.003	19.994	103.923	19.987	3.935	0.483
1066.500	622.013	80.002	19.993	103.924	19.987	3.946	0.548
1067.000	622.329	80.003	19.994	103.921	19.988	3.859	0.520
1067.500	622.565	80.004	19.994	103.919	19.988	3.828	0.526
1068.000	622.934	80.004	19.993	103.919	19.986	4.021	0.579
1068.500	623.101	80.003	19.993	103.920	19.984	4.134	0.571
1069.000	623.258	80.003	19.994	103.920	19.985	4.068	0.430
1069.500	623.468	80.004	19.993	103.921	19.985	4.052	0.345
1070.000	623.870	80.001	19.993	103.921	19.985	4.046	0.490
1070.500	624.313	80.003	19.994	103.921	19.986	3.961	0.729
1071.000	623.843	80.003	19.993	103.921	19.985	4.057	0.409
1071.500	624.549	80.003	19.993	103.921	19.986	3.972	0.105
1072.000	624.854	80.001	19.993	103.921	19.986	4.019	0.623
1072.500	624.589	80.002	19.993	103.921	19.985	4.072	0.525
1073.000	625.184	80.003	19.993	103.920	19.987	3.955	0.185
1073.500	625.740	80.002	19.993	103.921	19.984	4.096	0.740
1074.000	625.886	80.002	19.993	103.920	19.984	4.141	0.926
1074.500	625.937	80.002	19.993	103.920	19.988	3.833	0.450
1075.000	626.375	80.002	19.994	103.919	19.986	4.010	0.343
1075.500	626.630	80.006	19.993	103.918	19.989	3.777	0.591
1076.000	626.883	80.004	19.993	103.918	19.988	3.826	0.600
1076.500	627.217	80.003	19.993	103.918	19.986	3.966	0.547
1077.000	627.350	80.002	19.994	103.918	19.988	3.830	0.527
1077.500	627.596	80.003	19.994	103.920	19.987	3.912	0.423
1078.000	627.955	80.003	19.993	103.922	19.986	3.990	0.492
1078.500	628.214	80.005	19.993	103.922	19.985	4.059	0.612
1079.000	628.397	80.003	19.994	103.922	19.984	4.092	0.530
1079.500	628.707	80.001	19.993	103.921	19.986	3.990	0.467
1080.000	628.971	80.001	19.993	103.920	19.985	4.037	0.533
1080.500	629.176	80.004	19.994	103.920	19.985	4.088	0.521
1081.001	629.438	80.000	19.993	103.920	19.987	3.903	0.468
1081.501	629.698	80.004	19.993	103.920	19.987	3.894	0.495
1082.001	629.906	80.002	19.993	103.922	19.986	3.985	0.495
1082.501	630.232	80.002	19.993	103.922	19.987	3.917	0.501
1083.000	630.438	80.003	19.994	103.921	19.986	4.021	0.533
1083.501	630.687	80.003	19.994	103.921	19.987	3.938	0.493
1084.001	630.967	80.003	19.993	103.921	19.986	3.989	0.492
1084.500	631.188	80.002	19.993	103.920	19.986	3.978	0.515
1085.000	631.477	80.003	19.994	103.921	19.989	3.783	0.505
1085.500	631.731	80.002	19.993	103.921	19.990	3.693	0.526
1086.000	631.996	80.002	19.993	103.921	19.989	3.819	0.531
1086.500	632.240	80.002	19.995	103.922	19.987	3.899	0.514
1087.000	632.484	80.002	19.995	103.922	19.988	3.866	0.499
1087.500	632.754	80.000	19.994	103.924	19.989	3.820	0.501
1088.000	632.995	80.003	19.994	103.925	19.990	3.727	0.513
1088.500	633.242	80.002	19.993	103.925	19.990	3.740	0.500
1089.001	633.533	80.002	19.994	103.925	19.989	3.793	0.513
1089.501	633.829	80.004	19.994	103.925	19.988	3.864	0.562
1090.000	634.055	80.004	19.994	103.923	19.986	3.970	0.554
1090.500	634.282	80.004	19.994	103.922	19.986	4.013	0.488
1091.001	634.559	80.002	19.994	103.922	19.991	3.655	0.479
1091.501	634.823	80.003	19.993	103.924	19.987	3.914	0.522
1092.000	635.048	80.003	19.992	103.925	19.985	4.047	0.515
1092.500	635.327	80.006	19.994	103.927	19.987	3.908	0.497
1093.000	635.601	80.000	19.993	103.930	19.986	3.972	0.529
1093.500	635.886	80.007	19.994	103.934	19.984	4.116	0.556
1094.000	636.099	80.003	19.993	103.935	19.988	3.859	0.528
1094.500	636.401	80.005	19.994	103.935	19.986	3.970	0.506
1095.000	636.655	80.004	19.993	103.933	19.989	3.820	0.536
1095.500	636.923	80.004	19.994	103.934	19.988	3.883	0.539
1096.000	637.194	80.001	19.992	103.934	19.987	3.901	0.531
1096.501	637.456	80.005	19.993	103.932	19.990	3.750	0.536
1097.001	637.693	80.005	19.993	103.930	19.988	3.878	0.516
1097.500	637.971	80.003	19.994	103.929	19.986	4.013	0.507
1098.000	638.188	80.004	19.994	103.925	19.989	3.788	0.505
1098.500	638.469	80.006	19.994	103.921	19.986	4.007	0.496
1099.001	638.744	80.002	19.993	103.920	19.986	3.988	0.528
1099.501	638.986	80.005	19.993	103.920	19.987	3.946	0.537
1100.000	639.240	80.004	19.992	103.920	19.984	4.121	0.506
1100.500	639.508	80.006	19.992	103.920	19.989	3.810	0.508
1101.000	639.739	80.004	19.994	103.920	19.987	3.917	0.510
1101.500	640.026	80.004	19.993	103.918	19.987	3.954	0.509
1102.001	640.264	80.004	19.993	103.921	19.985	4.065	0.522
1102.501	640.525	80.005	19.993	103.926	19.983	4.200	0.512
1103.000	640.810	80.004	19.993	103.927	19.985	4.076	0.522
1103.500	641.045	80.005	19.993	103.927	19.985	4.045	0.533
1104.001	641.333	80.005	19.994	103.927	19.981	4.307	0.521
1104.501	641.575	80.004	19.994	103.924	19.983	4.199	0.526
1105.000	641.874	80.004	19.993	103.920	19.985	4.081	0.536
1105.500	642.073	80.005	19.993	103.919	19.984	4.136	0.520
1106.000	642.344	80.004	19.994	103.921	19.985	4.056	0.484
1106.500	642.595	80.004	19.994	103.927	19.984	4.132	0.496
1107.000	642.839	80.005	19.995	103.934	19.985	4.028	0.509
1107.501	643.122	80.003	19.993	103.939	19.988	3.833	0.511
1108.001	643.408	80.005	19.994	103.944	19.987	3.908	0.549
1108.500	643.648	80.003	19.994	103.946	19.984	4.092	0.547
1109.000	643.893	80.007	19.993	103.942	19.983	4.189	0.505
1109.500	644.147	80.004	19.994	103.935	19.985	4.085	0.492
1110.000	644.422	80.000	19.992	103.930	19.986	3.995	0.514
1110.501	644.673	80.005	19.993	103.928	19.984	4.097	0.528
1111.001	644.906	80.003	19.993	103.924	19.984	4.130	0.505
1111.500	645.161	80.004	19.994	103.923	19.975	4.695	0.486
1112.000	645.444	80.005	19.993	103.923	19.985	4.039	0.513
1112.500	645.655	80.004	19.993	103.923	19.980	4.376	0.516
1113.000	645.921	80.003	19.994	103.924	19.984	4.099	0.485
1113.500	646.198	80.005	19.993	103.923	19.982	4.236	0.510
1114.000	646.491	80.006	19.993	103.924	19.984	4.149	0.557
1114.500	646.716	80.009	19.993	103.923	19.988	3.863	0.544
1115.000	646.977	80.005	19.994	103.923	19.984	4.129	0.502
1115.500	647.241	80.007	19.993	103.920	19.983	4.162	0.505
1116.000	647.485	80.004	19.995	103.921	19.984	4.127	0.517
1116.500	647.744	80.004	19.994	103.921	19.981	4.328	0.506
1117.000	648.021	80.007	19.995	103.921	19.983	4.173	0.519
1117.500	648.230	80.005	19.995	103.921	19.987	3.958	0.511
1118.000	648.471	80.005	19.993	103.921	19.980	4.392	0.469
1118.501	648.749	80.006	19.995	103.923	19.983	4.187	0.485
1119.001	648.983	80.005	19.996	103.930	19.986	3.978	0.515
1119.500	649.275	80.006	19.995	103.930	19.985	4.082	0.519
1120.000	649.568	80.007	19.996	103.930	19.984	4.124	0.555
1120.500	649.752	80.008	19.995	103.930	19.983	4.197	0.530
1121.000	650.064	80.007	19.994	103.925	19.984	4.113	0.486
1121.500	650.283	80.014	19.993	103.917	19.987	3.912	0.513
1122.000	650.528	80.006	19.994	103.915	19.984	4.158	0.498
1122.500	650.866	80.007	19.994	103.917	19.983	4.196	0.524
1123.000	651.083	80.005	19.994	103.916	19.981	4.304	0.569
1123.501	651.242	80.006	19.994	103.918	19.984	4.105	0.466
1124.001	651.580	80.006	19.994	103.921	19.982	4.258	0.437
1124.500	651.923	80.005	19.993	103.922	19.983	4.166	0.589
1125.000	651.992	80.008	19.994	103.924	19.984	4.129	0.546
1125.500	651.605	80.005	19.994	103.928	19.984	4.123	0.047
1126.000	652.880	80.004	19.994	103.928	19.985	4.025	0.286
1126.500	652.767	80.004	19.994	103.930	19.985	4.053	1.025
1127.000	652.987	80.007	19.995	103.935	19.983	4.209	0.634
1127.500	653.380	80.006	19.995	103.938	19.985	4.082	0.360
1128.000	653.454	80.005	19.994	103.940	19.986	4.020	0.540
1128.500	653.957	80.003	19.995	103.943	19.986	4.016	0.522
1129.000	654.087	80.005	19.994	103.940	19.985	4.087	0.605
1129.500	654.347	80.002	19.995	103.939	19.983	4.205	0.511
1130.000	654.608	80.003	19.995	103.939	19.985	4.080	0.456
1130.500	654.815	80.003	19.994	103.941	19.985	4.033	0.495
1131.000	655.080	80.001	19.994	103.942	19.984	4.159	0.470
1131.500	655.401	80.007	19.993	103.946	19.983	4.192	0.529
1132.001	655.604	80.004	19.994	103.944	19.984	4.117	0.555
1132.501	655.881	80.002	19.994	103.938	19.982	4.232	0.502
1133.000	656.119	80.000	19.995	103.931	19.981	4.294	0.497
1133.500	656.357	80.003	19.995	103.933	19.982	4.274	0.495
1134.000	656.645	80.000	19.995	103.935	19.985	4.086	0.501
1134.500	656.825	80.003	19.994	103.937	19.983	4.181	0.497
1135.000	657.088	80.002	19.994	103.937	19.985	4.086	0.455
1135.500	657.390	80.004	19.993	103.940	19.984	4.126	0.504
1136.000	657.561	80.005	19.995	103.934	19.984	4.108	0.519
1136.500	657.888	80.003	19.994	103.931	19.984	4.126	0.485
1137.000	658.085	80.005	19.995	103.935	19.983	4.173	0.511
1137.500	658.388	80.003	19.993	103.939	19.984	4.133	0.512
1138.000	658.646	80.004	19.994	103.942	19.985	4.091	0.531
1138.500	658.909	80.003	19.994	103.945	19.985	4.062	0.541
1139.000	659.142	80.003	19.995	103.945	19.982	4.235	0.508
1139.500	659.390	80.002	19.994	103.938	19.981	4.345	0.489
1140.000	659.655	80.003	19.994	103.934	19.981	4.317	0.497
1140.500	659.904	80.002	19.994	103.933	19.981	4.306	0.514
1141.000	660.098	80.003	19.994	103.935	19.982	4.261	0.478
1141.500	660.381	80.003	19.995	103.940	19.981	4.303	0.460
1142.000	660.632	80.003	19.994	103.948	19.985	4.090	0.506
1142.500	660.926	80.002	19.994	103.955	19.981	4.296	0.539
1143.000	661.119	80.006	19.995	103.958	19.979	4.436	0.516
1143.500	661.393	80.001	19.994	103.958	19.982	4.226	0.476
1144.001	661.648	80.003	19.994	103.958	19.980	4.414	0.498
1144.501	661.901	80.005	19.994	103.956	19.981	4.332	0.519
1145.001	662.117	80.004	19.994	103.957	19.984	4.128	0.489
1145.501	662.395	80.004	19.994	103.956	19.979	4.445	0.481
1146.000	662.644	80.002	19.995	103.952	19.982	4.279	0.510
1146.500	662.875	80.003	19.994	103.950	19.979	4.434	0.503
1147.000	663.114	80.000	19.993	103.949	19.980	4.385	0.475
1147.500	663.388	80.002	19.995	103.948	19.982	4.259	0.491
1148.000	663.620	80.002	19.994	103.950	19.981	4.310	0.509
1148.500	663.899	80.005	19.993	103.954	19.980	4.360	0.508
1149.000	664.154	80.003	19.994	103.955	19.982	4.278	0.523
1149.500	664.382	80.002	19.995	103.952	19.980	4.367	0.509
1150.000	664.644	80.002	19.995	103.947	19.979	4.474	0.487
1150.500	664.935	80.003	19.995	103.947	19.981	4.329	0.522
1151.000	665.125	80.003	19.994	103.947	19.979	4.440	0.517
1151.500	665.435	80.003	19.993	103.949	19.981	4.319	0.491
1152.000	665.682	80.004	19.994	103.954	19.980	4.414	0.528
1152.500	665.913	80.004	19.995	103.959	19.978	4.527	0.517
1153.000	666.132	80.001	19.995	103.958	19.976	4.640	0.464
1153.500	666.372	80.004	19.995	103.955	19.979	4.487	0.455
1154.000	666.630	80.002	19.995	103.954	19.980	4.425	0.478
1154.501	666.870	80.006	19.994	103.953	19.978	4.525	0.498
1155.001	667.177	79.998	19.995	103.953	19.979	4.434	0.522
1155.500	667.421	80.004	19.994	103.950	19.982	4.281	0.549
1156.000	667.559	80.004	19.994	103.951	19.980	4.409	0.467
1156.500	667.932	80.003	19.994	103.952	19.980	4.361	0.447
1157.000	668.119	80.001	19.995	103.953	19.980	4.382	0.535
1157.500	668.364	80.003	19.994	103.954	19.978	4.495	0.496
1158.000	668.615	80.004	19.993	103.957	19.981	4.358	0.464
1158.500	668.865	80.003	19.994	103.959	19.978	4.553	0.499
1159.000	669.155	80.004	19.994	103.958	19.981	4.320	0.520
1159.500	669.387	80.002	19.994	103.958	19.983	4.179	0.531
1160.000	669.605	80.003	19.995	103.958	19.981	4.321	0.486
1160.500	669.883	80.004	19.994	103.957	19.981	4.354	0.473
1161.000	670.155	80.004	19.995	103.957	19.978	4.509	0.522
1161.500	670.403	80.002	19.994	103.957	19.978	4.500	0.535
1162.000	670.695	80.004	19.994	103.955	19.977	4.616	0.530
1162.500	670.896	80.001	19.994	103.951	19.979	4.442	0.517
1163.000	671.151	80.003	19.993	103.951	19.976	4.653	0.475
1163.500	671.409	80.003	19.994	103.950	19.977	4.585	0.484
1164.000	671.649	80.002	19.994	103.950	19.978	4.522	0.505
1164.500	671.887	80.003	19.994	103.952	19.978	4.498	0.488
1165.000	672.122	80.002	19.994	103.956	19.980	4.392	0.475
1165.500	672.353	80.003	19.994	103.957	19.978	4.551	0.469
1166.001	672.638	80.003	19.994	103.958	19.978	4.498	0.491
1166.501	672.886	80.004	19.996	103.958	19.977	4.620	0.525
1167.000	673.166	80.004	19.993	103.958	19.980	4.425	0.530
1167.500	673.396	80.003	19.995	103.958	19.979	4.462	0.519
1168.000	673.662	80.004	19.994	103.958	19.975	4.701	0.503
1168.500	673.927	80.005	19.993	103.958	19.976	4.655	0.514
1169.000	674.171	80.003	19.994	103.958	19.981	4.308	0.521
1169.501	674.449	80.006	19.994	103.959	19.977	4.626	0.516
1170.001	674.708	80.002	19.994	103.958	19.976	4.655	0.529
1170.501	674.996	80.004	19.994	103.958	19.978	4.516	0.542
1171.001	675.198	80.003	19.993	103.952	19.977	4.591	0.518
1171.501	675.482	80.003	19.994	103.953	19.975	4.713	0.488
1172.001	675.754	80.005	19.994	103.953	19.976	4.673	0.521
1172.500	675.978	80.002	19.994	103.952	19.978	4.558	0.526
1173.000	676.262	80.004	19.993	103.952	19.985	4.071	0.502
1173.500	676.532	80.006	19.994	103.956	19.970	5.054	0.531
1174.000	676.721	80.003	19.993	103.953	19.974	4.768	0.507
1174.500	677.003	80.004	19.993	103.952	19.974	4.775	0.465
1175.000	677.243	80.005	19.994	103.952	19.977	4.613	0.496
1175.500	677.496	80.004	19.994	103.953	19.974	4.773	0.508
1176.000	677.759	80.006	19.993	103.953	19.977	4.571	0.505
1176.501	677.987	80.004	19.994	103.956	19.976	4.657	0.503
1177.001	678.254	80.006	19.993	103.956	19.976	4.633	0.493
1177.500	678.490	80.005	19.994	103.957	19.976	4.664	0.499
1178.000	678.758	80.004	19.992	103.956	19.977	4.591	0.503
1178.500	679.023	80.015	19.993	103.956	19.978	4.535	0.518
1179.000	679.312	80.008	19.993	103.956	19.975	4.748	0.543
1179.500	679.538	80.003	19.995	103.956	19.974	4.788	0.534
1180.000	679.754	80.005	19.995	103.956	19.972	4.927	0.479
1180.500	679.978	80.005	19.995	103.958	19.973	4.828	0.442
1181.000	680.258	80.004	19.994	103.958	19.975	4.733	0.472
1181.500	680.525	80.005	19.994	103.958	19.973	4.881	0.525
1182.000	680.713	80.004	19.994	103.959	19.973	4.889	0.501
1182.500	681.032	80.009	19.994	103.959	19.972	4.902	0.481
1183.000	681.280	80.006	19.994	103.957	19.974	4.816	0.537
1183.501	681.481	80.004	19.995	103.957	19.973	4.853	0.508
1184.001	681.790	80.007	19.993	103.957	19.972	4.924	0.479
1184.500	682.004	80.002	19.993	103.957	19.969	5.139	0.517
1185.000	682.292	80.004	19.993	103.956	19.973	4.847	0.513
1185.500	682.489	80.004	19.994	103.956	19.973	4.853	0.494
1186.000	682.647	80.005	19.993	103.957	19.972	4.924	0.420
1186.500	683.353	80.005	19.994	103.957	19.974	4.791	0.609
1187.000	683.673	80.004	19.994	103.957	19.970	5.040	0.945
1187.500	683.440	80.003	19.995	103.958	19.973	4.875	0.557
1188.000	683.724	79.998	19.998	103.959	19.974	4.769	0.069
1188.500	684.051	80.006	19.994	103.959	19.971	5.026	0.330
1189.000	684.300	80.001	19.992	103.957	19.974	4.765	0.593
1189.500	684.546	80.008	19.993	103.958	19.969	5.111	0.536
1190.000	684.827	80.003	19.993	103.958	19.972	4.913	0.511
1190.500	685.069	80.001	19.995	103.958	19.972	4.908	0.525
1191.000	685.310	80.009	19.995	103.959	19.973	4.862	0.503
1191.500	685.609	80.006	19.992	103.959	19.974	4.808	0.512
1192.000	685.851	80.006	19.993	103.959	19.972	4.941	0.540
1192.500	686.063	80.003	19.994	103.959	19.969	5.100	0.498
1193.000	686.363	80.004	19.992	103.961	19.968	5.171	0.483
1193.500	686.593	80.005	19.993	103.966	19.967	5.286	0.520
1194.000	686.859	80.002	19.993	103.970	19.970	5.089	0.513
1194.500	687.116	80.006	19.990	103.974	19.968	5.191	0.510
1195.000	687.325	80.006	19.993	103.979	19.970	5.087	0.495
1195.500	687.571	80.015	19.992	103.976	19.970	5.052	0.461
1196.000	687.840	80.003	19.994	103.972	19.970	5.078	0.485
1196.501	688.055	80.005	19.993	103.972	19.971	5.002	0.499
1197.001	688.369	80.004	19.995	103.971	19.970	5.040	0.506
1197.501	688.559	80.003	19.995	103.975	19.972	4.910	0.517
1198.001	688.819	80.010	19.992	103.974	19.973	4.869	0.477
1198.501	689.070	80.012	19.995	103.975	19.972	4.900	0.481
1199.000	689.352	80.004	19.994	103.973	19.968	5.175	0.522
1199.501	689.608	80.019	19.992	103.971	19.970	5.033	0.535
1200.001	689.847	80.006	19.993	103.963	19.972	4.907	0.516
1200.501	690.106	80.012	19.991	103.968	19.971	4.983	0.497
1201.000	690.362	80.010	19.993	103.973	19.967	5.288	0.507
1201.500	690.606	80.010	19.992	103.977	19.969	5.100	0.507
1202.000	690.888	80.004	19.991	103.979	19.970	5.067	0.512
1202.500	691.162	80.007	19.993	103.988	19.969	5.122	0.541
1203.000	691.359	79.999	19.994	103.990	19.967	5.235	0.514
1203.500	691.627	80.004	19.995	103.992	19.968	5.169	0.468
1204.000	691.910	80.006	19.994	103.996	19.969	5.111	0.508
1204.500	692.170	80.004	19.993	104.000	19.969	5.130	0.547
1205.000	692.416	80.007	19.993	103.996	19.967	5.281	0.524
1205.500	692.628	80.007	19.994	103.996	19.970	5.064	0.482
1206.000	692.909	80.006	19.993	103.994	19.969	5.150	0.476
1206.500	693.174	80.007	19.993	103.994	19.966	5.349	0.519
1207.000	693.377	80.004	19.993	103.995	19.966	5.345	0.507
1207.501	693.654	80.005	19.993	103.998	19.966	5.352	0.474
1208.001	693.924	80.005	19.994	103.999	19.965	5.418	0.513
1208.501	694.175	80.001	19.994	104.001	19.963	5.504	0.534
1209.000	694.424	80.001	19.991	104.001	19.965	5.390	0.511
1209.500	694.681	80.003	19.993	104.001	19.965	5.400	0.503
1210.000	694.953	80.005	19.994	104.001	19.965	5.364	0.517
1210.500	695.178	80.003	19.994	104.000	19.966	5.318	0.513
1211.000	695.440	80.004	19.993	103.998	19.967	5.238	0.492
1211.500	695.723	80.001	19.994	103.997	19.968	5.183	0.517
1212.001	695.954	80.002	19.994	103.997	19.965	5.407	0.529
1212.501	696.253	80.004	19.994	103.997	19.966	5.300	0.522
1213.000	696.467	80.001	19.993	103.997	19.965	5.364	0.522
1213.500	696.745	79.999	19.994	103.998	19.963	5.513	0.503
1214.000	697.009	80.003	19.993	103.999	19.966	5.321	0.517
1214.500	697.252	80.001	19.993	103.999	19.966	5.358	0.524
1215.001	697.465	80.001	19.994	104.002	19.970	5.046	0.481
1215.501	697.782	79.996	19.993	104.007	19.968	5.216	0.493
1216.001	697.975	80.005	19.995	104.012	19.967	5.252	0.521
1216.500	698.250	80.001	19.994	104.013	19.967	5.291	0.489
1217.000	698.494	80.005	19.995	104.017	19.964	5.453	0.493
1217.500	698.750	80.002	19.995	104.016	19.970	5.041	0.510
1218.000	698.954	80.001	19.994	104.012	19.964	5.457	0.480
1218.500	699.233	80.001	19.996	104.007	19.965	5.370	0.472
1219.000	699.478	79.999	19.994	104.006	19.965	5.383	0.504
1219.500	699.742	80.002	19.995	104.007	19.965	5.392	0.516
1220.000	700.006	80.002	19.994	104.004	19.967	5.275	0.518
1220.500	700.249	80.005	19.993	104.008	19.967	5.276	0.518
1221.000	700.512	80.002	19.994	104.014	19.966	5.318	0.507
1221.500	700.726	80.002	19.994	104.018	19.964	5.490	0.491
1222.000	700.983	80.005	19.994	104.017	19.967	5.275	0.474
1222.500	701.230	79.997	19.995	104.020	19.967	5.273	0.488
1223.000	701.466	80.000	19.994	104.017	19.968	5.206	0.494
1223.501	701.753	79.996	19.993	104.015	19.965	5.396	0.503
1224.001	702.016	80.004	19.995	104.018	19.963	5.503	0.536
1224.500	702.272	80.002	19.994	104.015	19.963	5.538	0.534
1225.000	702.533	80.009	19.992	104.011	19.961	5.682	0.518
1225.500	702.726	80.013	19.994	104.015	19.964	5.463	0.485
1226.000	702.988	80.006	19.994	104.016	19.963	5.507	0.454
1226.500	703.276	80.004	19.995	104.014	19.965	5.430	0.502
1227.000	703.514	80.003	19.992	104.015	19.968	5.230	0.538
1227.500	703.762	79.997	19.994	104.021	19.964	5.496	0.506
1228.000	704.035	80.003	19.996	104.023	19.966	5.321	0.504
1228.500	704.281	80.002	19.995	104.023	19.963	5.536	0.520
1229.000	704.539	79.993	19.994	104.025	19.961	5.679	0.512
1229.501	704.797	79.999	19.994	104.031	19.964	5.436	0.510
1230.001	705.068	80.002	19.996	104.029	19.965	5.427	0.522
1230.501	705.308	80.006	19.994	104.026	19.963	5.523	0.520
1231.001	705.550	80.000	19.994	104.025	19.965	5.376	0.497
1231.501	705.860	80.010	19.993	104.020	19.962	5.611	0.517
1232.001	706.044	80.002	19.992	104.018	19.964	5.443	0.523
1232.500	706.363	80.011	19.995	104.022	19.964	5.463	0.499
1233.000	706.538	80.004	19.993	104.025	19.964	5.465	0.498
1233.501	706.846	80.003	19.994	104.029	19.962	5.575	0.489
1234.001	707.077	80.003	19.994	104.035	19.961	5.666	0.511
1234.500	707.313	80.002	19.994	104.036	19.958	5.858	0.503
1235.001	707.564	79.998	19.995	104.035	19.959	5.776	0.477
1235.501	707.827	80.004	19.995	104.035	19.960	5.713	0.501
1236.001	708.056	80.001	19.995	104.034	19.962	5.608	0.503
1236.500	708.313	80.003	19.994	104.035	19.961	5.654	0.488
1237.001	708.592	80.004	19.994	104.035	19.957	5.926	0.511
1237.501	708.815	80.005	19.993	104.036	19.960	5.762	0.520
1238.000	709.083	80.002	19.993	104.035	19.962	5.587	0.496
1238.500	709.335	80.004	19.994	104.035	19.965	5.370	0.505
1239.001	709.556	79.998	19.995	104.035	19.963	5.556	0.497
1239.501	709.848	80.002	19.994	104.036	19.962	5.629	0.493
1240.000	710.094	80.001	19.996	104.036	19.961	5.678	0.526
1240.500	710.373	80.001	19.994	104.036	19.961	5.665	0.532
1241.000	710.579	80.003	19.995	104.037	19.963	5.539	0.505
1241.501	710.803	79.999	19.997	104.036	19.960	5.762	0.457
1242.001	711.091	80.000	19.995	104.036	19.964	5.479	0.470
1242.501	711.362	80.005	19.994	104.035	19.959	5.782	0.536
1243.000	711.584	80.003	19.995	104.036	19.955	6.073	0.526
1243.500	711.809	80.005	19.995	104.036	19.959	5.832	0.470
1244.001	712.119	80.005	19.995	104.039	19.959	5.816	0.491
1244.501	712.346	80.001	19.997	104.038	19.959	5.777	0.536
1245.001	712.602	80.002	19.994	104.039	19.959	5.783	0.510
1245.501	712.885	80.006	19.993	104.040	19.958	5.843	0.511
1246.001	713.082	80.005	19.996	104.041	19.958	5.870	0.509
1246.501	713.374	80.000	19.994	104.040	19.958	5.887	0.484
1247.000	713.649	79.997	19.992	104.044	19.958	5.867	0.528
1247.500	713.868	80.002	19.996	104.050	19.959	5.789	0.531
1248.001	714.115	80.002	19.995	104.050	19.956	6.008	0.480
1248.501	714.373	80.002	19.995	104.054	19.955	6.099	0.486
1249.000	714.665	79.997	19.994	104.059	19.957	5.933	0.527
1249.500	714.887	80.005	19.994	104.064	19.955	6.052	0.532
1250.000	715.153	80.004	19.996	104.063	19.952	6.278	0.501
1250.500	715.437	80.010	19.995	104.064	19.956	5.973	0.519
1251.000	715.673	80.005	19.993	104.059	19.956	5.999	0.535
1251.500	715.905	80.010	19.994	104.055	19.954	6.118	0.494
1252.000	716.182	80.004	19.994	104.055	19.955	6.090	0.488
1252.500	716.451	80.020	19.993	104.055	19.955	6.096	0.527
1253.000	716.719	80.007	19.993	104.062	19.952	6.250	0.541
1253.501	716.938	80.008	19.994	104.067	19.955	6.082	0.512
1254.001	717.167	79.995	19.994	104.071	19.952	6.255	0.467
1254.500	717.447	80.001	19.995	104.073	19.957	5.914	0.478
1255.000	717.700	80.013	19.992	104.073	19.952	6.270	0.521
1255.500	717.947	80.000	19.995	104.071	19.955	6.070	0.517
1256.000	718.172	80.006	19.992	104.072	19.954	6.150	0.486
1256.500	718.430	80.010	19.994	104.072	19.954	6.115	0.478
1257.000	718.667	80.003	19.995	104.073	19.955	6.071	0.489
1257.500	718.912	80.011	19.995	104.080	19.954	6.165	0.488
1258.000	719.186	80.002	19.993	104.083	19.953	6.203	0.501
1258.501	719.479	80.011	19.992	104.084	19.952	6.245	0.543
1259.001	719.697	80.008	19.992	104.084	19.953	6.214	0.539
1259.500	719.942	80.008	19.993	104.084	19.955	6.094	0.487
1260.000	720.230	80.004	19.992	104.078	19.951	6.317	0.499
1260.501	720.432	80.002	19.994	104.083	19.952	6.267	0.512
1261.001	720.727	80.010	19.993	104.083	19.953	6.227	0.493
1261.500	720.942	80.010	19.993	104.083	19.951	6.329	0.504
1262.000	721.166	80.011	19.993	104.087	19.950	6.433	0.475
1262.500	721.447	80.000	19.992	104.093	19.951	6.326	0.472
1263.000	721.703	79.995	19.992	104.091	19.949	6.474	0.521
1263.500	721.951	80.006	19.992	104.094	19.951	6.339	0.520
1264.001	722.227	79.998	19.994	104.096	19.951	6.344	0.514
1264.501	722.474	79.994	19.993	104.095	19.949	6.441	0.524
1265.001	722.685	80.002	19.994	104.099	19.951	6.322	0.490
1265.501	722.963	80.004	19.995	104.103	19.949	6.468	0.473
1266.000	723.231	80.011	19.992	104.105	19.948	6.549	0.518
1266.500	723.464	79.998	19.993	104.107	19.949	6.487	0.524
1267.000	723.721	79.999	19.992	104.108	19.948	6.525	0.495
1267.500	723.982	79.999	19.995	104.107	19.949	6.469	0.504
1268.000	724.224	80.009	19.992	104.108	19.951	6.348	0.511
1268.500	724.475	80.004	19.992	104.110	19.949	6.467	0.498
1269.000	724.709	80.004	19.993	104.115	19.950	6.420	0.489
1269.500	724.989	80.001	19.994	104.117	19.946	6.692	0.499
1270.000	725.230	79.995	19.994	104.116	19.947	6.634	0.517
1270.500	725.451	80.000	19.993	104.117	19.948	6.532	0.491
1271.000	725.733	80.008	19.993	104.118	19.948	6.558	0.483
1271.500	725.988	80.007	19.993	104.116	19.949	6.492	0.520
1272.000	726.219	80.006	19.992	104.115	19.948	6.549	0.512
1272.500	726.501	80.004	19.994	104.116	19.949	6.453	0.500
1273.000	726.775	80.000	19.994	104.113	19.946	6.678	0.534
1273.500	726.970	80.006	19.994	104.115	19.948	6.548	0.512
1274.001	727.234	79.995	19.995	104.116	19.944	6.826	0.464
1274.501	727.527	80.001	19.994	104.118	19.948	6.556	0.508
1275.000	727.743	80.010	19.992	104.119	19.946	6.699	0.533
1275.500	728.005	80.004	19.993	104.121	19.946	6.644	0.494
1276.000	728.245	79.995	19.993	104.119	19.944	6.836	0.491
1276.501	728.501	80.006	19.994	104.120	19.942	6.916	0.499
1277.001	728.778	79.996	19.994	104.120	19.947	6.580	0.515
1277.500	729.031	80.005	19.994	104.122	19.946	6.666	0.531
1278.000	729.272	80.009	19.992	104.123	19.946	6.682	0.512
1278.500	729.519	80.000	19.995	104.127	19.945	6.735	0.491
1279.000	729.758	80.001	19.994	104.127	19.945	6.715	0.487
1279.500	730.007	80.002	19.993	104.127	19.949	6.456	0.487
1280.001	730.263	80.003	19.996	104.131	19.945	6.762	0.496
1280.501	730.543	79.997	19.994	104.136	19.945	6.744	0.521
1281.000	730.797	79.996	19.993	104.142	19.946	6.656	0.535
1281.500	731.053	79.998	19.992	104.149	19.944	6.823	0.522
1282.001	731.330	80.001	19.994	104.154	19.946	6.661	0.522
1282.501	731.597	80.007	19.993	104.148	19.946	6.646	0.539
1283.000	731.809	80.009	19.993	104.146	19.943	6.902	0.511
1283.500	732.058	79.990	19.995	104.144	19.947	6.635	0.470
1284.000	732.340	80.010	19.994	104.143	19.947	6.620	0.496
1284.501	732.578	80.008	19.993	104.144	19.946	6.683	0.525
1285.001	732.862	80.005	19.992	104.148	19.947	6.586	0.521
1285.501	733.097	80.005	19.993	104.151	19.948	6.556	0.521
1286.001	733.318	80.003	19.993	104.151	19.941	7.013	0.488
1286.501	733.621	80.002	19.991	104.151	19.946	6.662	0.490
1287.000	733.832	80.011	19.994	104.154	19.945	6.739	0.519
1287.500	734.117	80.006	19.992	104.153	19.944	6.803	0.505
1288.000	734.381	80.005	19.994	104.151	19.944	6.815	0.523
1288.500	734.597	80.007	19.996	104.151	19.944	6.778	0.514
1289.000	734.874	80.005	19.989	104.149	19.943	6.881	0.486
1289.500	735.104	80.008	19.996	104.151	19.945	6.717	0.500
1290.000	735.355	80.001	19.992	104.153	19.944	6.837	0.495
1290.501	735.619	79.995	19.995	104.157	19.940	7.049	0.498
1291.001	735.858	80.000	19.992	104.165	19.941	7.000	0.509
1291.500	736.129	80.008	19.993	104.174	19.942	6.928	0.506
1292.000	736.405	80.017	19.992	104.177	19.941	7.016	0.528
1292.500	736.625	80.007	19.994	104.183	19.942	6.948	0.522
1293.000	736.880	80.001	19.994	104.185	19.942	6.947	0.486
1293.500	737.164	80.007	19.992	104.182	19.941	6.984	0.507
1294.000	737.375	80.003	19.993	104.183	19.945	6.721	0.517
1294.500	737.650	79.994	19.993	104.182	19.941	7.011	0.491
1295.000	737.937	80.006	19.991	104.186	19.944	6.821	0.525
1295.501	738.179	80.004	19.997	104.188	19.939	7.117	0.546
1296.001	738.433	80.018	19.992	104.187	19.940	7.055	0.512
1296.501	738.718	80.003	19.994	104.183	19.940	7.101	0.517
1297.000	738.947	79.993	19.995	104.183	19.941	7.002	0.526
1297.500	739.219	80.007	19.992	104.181	19.940	7.090	0.507
1298.000	739.475	79.997	19.992	104.181	19.944	6.791	0.515
1298.500	739.700	79.996	19.994	104.186	19.945	6.775	0.505
1299.000	739.975	79.998	19.995	104.193	19.941	6.992	0.490
1299.500	740.237	79.995	19.995	104.196	19.939	7.142	0.518
1300.001	740.436	80.001	19.996	104.204	19.943	6.908	0.499
1300.501	740.721	80.001	19.994	104.206	19.941	6.991	0.473
1301.001	740.947	79.999	19.994	104.204	19.940	7.055	0.497
1301.501	741.220	79.999	19.994	104.200	19.941	7.025	0.505
1302.000	741.498	80.003	19.992	104.200	19.940	7.077	0.525
1302.500	741.752	80.009	19.993	104.193	19.940	7.077	0.541
1303.000	741.998	80.000	19.993	104.193	19.938	7.197	0.516
1303.500	742.274	80.001	19.995	104.199	19.938	7.194	0.511
1304.000	742.495	79.997	19.995	104.206	19.938	7.194	0.510
1304.500	742.759	80.001	19.994	104.208	19.938	7.203	0.491
1305.000	742.993	79.994	19.994	104.209	19.937	7.294	0.492
1305.500	743.269	79.993	19.993	104.210	19.937	7.303	0.504
1306.000	743.509	80.003	19.995	104.208	19.939	7.155	0.513
1306.500	743.779	79.997	19.994	104.201	19.936	7.375	0.513
1307.000	744.025	80.010	19.993	104.202	19.934	7.512	0.513
1307.500	744.284	79.999	19.996	104.207	19.933	7.582	0.510
1308.000	744.550	80.006	19.993	104.213	19.936	7.364	0.515
1308.500	744.801	80.003	19.996	104.215	19.936	7.360	0.521
1309.000	745.070	79.998	19.992	104.221	19.937	7.307	0.518
