Sample ID:	C:\MCC\MCC Cal\Test\Oak_HWF_MCC_30K_min_211105_R3.txt
Sample Weight (mg):	4.93
Heating Rate (C/s):	0.5
Combustor Temp (C):	900
N2 Flow Rate (cc/min):	80
O2 Flow Rate (cc/min):	20
Calibration File:	C:\MCC\MCC Cal\Coeff1 JN10440_30_210304.txt.txt
T Correction Coefficients:	0	1.024463	0
Time Shift (s):	14
*
Time (s)	Temperature (C)	N2 flow rate (cc/min)	O2 flow rate (cc/min)	Flow Rate (cc/min)	Oxygen (%)	HRR (W/g)	Heating rate (C/s)
0.000	106.267	80.004	19.994	102.978	19.992	-0.466	0.017
0.500	106.258	80.008	19.995	102.979	19.984	0.005	0.010
1.000	106.268	80.006	19.995	102.985	19.989	-0.286	-0.003
1.500	106.224	80.006	19.995	102.988	19.990	-0.325	-0.016
2.000	106.251	80.006	19.996	102.990	19.987	-0.180	-0.026
2.500	106.261	80.008	19.994	102.991	19.990	-0.377	0.010
3.000	106.265	80.006	19.995	102.990	19.991	-0.403	0.026
3.500	106.218	80.006	19.994	102.987	19.988	-0.196	-0.014
4.000	106.255	80.006	19.994	102.985	19.991	-0.402	-0.026
4.500	106.274	80.006	19.994	102.983	19.988	-0.232	0.022
5.000	106.245	80.008	19.994	102.986	19.986	-0.088	0.023
5.500	106.236	80.007	19.994	102.988	19.988	-0.242	-0.024
6.000	106.263	80.006	19.995	102.986	19.988	-0.208	-0.010
6.500	106.263	80.006	19.993	102.990	19.989	-0.279	0.023
7.000	106.254	80.007	19.994	102.996	19.986	-0.090	0.009
7.500	106.261	80.008	19.994	103.001	19.988	-0.228	-0.006
8.000	106.262	80.008	19.994	103.005	19.985	-0.054	0.003
8.500	106.299	80.007	19.994	103.012	19.985	-0.042	0.023
9.000	106.272	80.006	19.995	103.015	19.987	-0.183	0.024
9.500	106.250	80.007	19.994	103.016	19.988	-0.215	-0.019
10.000	106.278	80.007	19.995	103.014	19.987	-0.163	-0.021
10.500	106.278	80.007	19.994	103.013	19.988	-0.215	0.017
11.000	106.299	80.007	19.994	103.012	19.983	0.111	0.025
11.501	106.255	80.007	19.995	103.011	19.984	0.031	-0.001
12.001	106.267	80.006	19.995	103.011	19.984	0.047	-0.027
12.500	106.285	80.007	19.994	103.012	19.981	0.227	-0.001
13.000	106.282	80.006	19.995	103.015	19.982	0.137	0.022
13.500	106.245	80.004	19.994	103.016	19.982	0.166	-0.013
14.000	106.317	80.004	19.995	103.017	19.982	0.156	-0.003
14.500	106.269	80.003	19.994	103.018	19.981	0.255	0.030
15.000	106.325	80.005	19.994	103.018	19.980	0.324	0.017
15.500	106.331	80.005	19.994	103.018	19.982	0.166	0.035
16.000	106.324	80.004	19.995	103.020	19.978	0.404	0.030
16.500	106.345	80.004	19.996	103.020	19.979	0.383	0.006
17.000	106.350	80.004	19.994	103.020	19.977	0.523	0.020
17.501	106.310	80.002	19.995	103.020	19.976	0.553	-0.004
18.000	106.362	80.004	19.996	103.021	19.976	0.577	-0.011
18.500	106.359	80.003	19.995	103.020	19.978	0.445	0.030
19.000	106.379	80.005	19.995	103.025	19.977	0.484	0.033
19.500	106.372	80.004	19.996	103.027	19.976	0.546	0.015
20.000	106.385	80.004	19.995	103.028	19.975	0.636	0.010
20.500	106.401	80.006	19.996	103.032	19.977	0.510	0.017
21.000	106.413	80.004	19.997	103.038	19.974	0.718	0.028
21.500	106.423	80.004	19.994	103.040	19.974	0.673	0.025
22.000	106.403	80.005	19.995	103.047	19.976	0.577	0.006
22.500	106.434	80.005	19.995	103.054	19.973	0.780	0.000
23.000	106.471	80.003	19.996	103.064	19.973	0.763	0.039
23.500	106.468	80.003	19.995	103.071	19.970	0.979	0.051
24.000	106.507	80.002	19.997	103.079	19.970	0.976	0.036
24.500	106.511	80.004	19.995	103.088	19.966	1.234	0.040
25.000	106.548	80.004	19.994	103.099	19.967	1.130	0.042
25.500	106.531	80.003	19.995	103.108	19.963	1.383	0.031
26.000	106.539	80.003	19.995	103.118	19.966	1.236	0.006
26.500	106.576	80.004	19.994	103.130	19.963	1.385	0.017
27.000	106.647	80.002	19.995	103.143	19.960	1.629	0.076
27.500	106.665	80.005	19.996	103.155	19.958	1.720	0.099
28.000	106.665	80.004	19.994	103.163	19.960	1.617	0.054
28.500	106.684	80.003	19.995	103.171	19.956	1.855	0.018
29.000	106.730	80.004	19.995	103.175	19.956	1.832	0.042
29.500	106.757	80.004	19.995	103.177	19.953	2.049	0.069
30.000	106.823	80.003	19.995	103.178	19.957	1.822	0.083
30.500	106.850	80.004	19.995	103.178	19.951	2.195	0.093
31.000	106.927	80.005	19.995	103.178	19.951	2.204	0.099
31.500	106.926	80.004	19.995	103.180	19.954	1.989	0.090
32.001	107.001	80.005	19.995	103.183	19.953	2.065	0.074
32.501	107.056	80.004	19.994	103.183	19.953	2.065	0.102
33.001	107.116	80.004	19.994	103.184	19.953	2.067	0.123
33.501	107.209	80.004	19.995	103.184	19.951	2.190	0.134
34.001	107.197	80.003	19.994	103.182	19.949	2.299	0.117
34.501	107.273	80.004	19.994	103.176	19.950	2.277	0.072
35.001	107.342	80.003	19.994	103.175	19.950	2.284	0.105
35.501	107.411	80.003	19.994	103.175	19.948	2.400	0.142
36.001	107.497	80.005	19.994	103.175	19.947	2.452	0.147
36.501	107.547	80.003	19.993	103.176	19.947	2.451	0.145
37.001	107.628	80.006	19.994	103.178	19.946	2.537	0.134
37.501	107.682	80.004	19.993	103.179	19.947	2.451	0.133
38.001	107.740	80.004	19.995	103.180	19.945	2.586	0.123
38.500	107.804	80.004	19.993	103.178	19.944	2.619	0.117
39.001	107.913	80.004	19.995	103.178	19.948	2.409	0.148
39.501	107.960	80.006	19.994	103.177	19.946	2.544	0.165
40.001	108.081	80.005	19.995	103.177	19.945	2.612	0.162
40.501	108.135	80.005	19.994	103.178	19.946	2.539	0.171
41.001	108.192	80.005	19.995	103.182	19.943	2.713	0.143
41.501	108.265	80.004	19.994	103.190	19.943	2.683	0.121
42.001	108.363	80.004	19.994	103.198	19.943	2.742	0.151
42.501	108.462	80.005	19.995	103.205	19.944	2.633	0.184
43.001	108.527	80.003	19.995	103.213	19.940	2.887	0.181
43.500	108.653	80.003	19.994	103.217	19.941	2.816	0.177
44.000	108.696	80.004	19.993	103.217	19.942	2.760	0.179
44.500	108.795	80.003	19.994	103.217	19.942	2.779	0.155
45.000	108.853	80.004	19.995	103.217	19.941	2.821	0.150
45.500	108.976	80.004	19.994	103.217	19.939	2.972	0.169
46.001	109.091	80.003	19.995	103.218	19.941	2.852	0.209
46.501	109.184	80.003	19.994	103.221	19.937	3.088	0.223
47.000	109.281	80.003	19.994	103.223	19.940	2.907	0.199
47.500	109.383	80.003	19.994	103.227	19.938	3.020	0.194
48.001	109.515	80.003	19.994	103.230	19.942	2.803	0.217
48.501	109.571	80.002	19.993	103.230	19.941	2.869	0.211
49.000	109.728	80.002	19.994	103.230	19.939	2.998	0.200
49.500	109.776	80.003	19.995	103.231	19.940	2.907	0.209
50.000	109.938	80.003	19.996	103.231	19.940	2.890	0.208
50.500	110.036	80.004	19.995	103.229	19.937	3.074	0.235
51.000	110.126	80.003	19.994	103.231	19.938	3.029	0.224
51.500	110.220	80.004	19.994	103.231	19.940	2.911	0.186
52.000	110.338	80.003	19.994	103.235	19.939	2.973	0.199
52.500	110.493	80.003	19.996	103.240	19.938	3.067	0.243
53.000	110.613	80.005	19.995	103.246	19.935	3.221	0.274
53.500	110.720	80.003	19.993	103.251	19.938	3.048	0.251
54.000	110.855	80.003	19.995	103.256	19.937	3.112	0.234
54.500	110.979	80.004	19.994	103.257	19.936	3.161	0.251
55.000	111.090	80.003	19.994	103.256	19.935	3.216	0.247
55.500	111.218	80.004	19.995	103.256	19.936	3.204	0.237
56.000	111.337	80.004	19.994	103.254	19.934	3.332	0.243
56.500	111.478	80.006	19.995	103.253	19.933	3.336	0.254
57.000	111.618	80.005	19.995	103.252	19.937	3.129	0.271
57.500	111.781	80.006	19.994	103.247	19.936	3.176	0.292
58.000	111.917	80.005	19.994	103.244	19.934	3.277	0.301
58.500	112.064	80.005	19.995	103.245	19.934	3.322	0.291
59.000	112.174	80.005	19.994	103.246	19.935	3.254	0.270
59.500	112.337	80.005	19.994	103.246	19.932	3.465	0.265
60.000	112.462	80.006	19.993	103.250	19.932	3.439	0.280
60.500	112.618	80.005	19.995	103.254	19.933	3.345	0.284
61.000	112.749	80.006	19.995	103.254	19.931	3.470	0.284
61.500	112.872	80.005	19.995	103.254	19.933	3.336	0.270
62.000	113.061	80.007	19.993	103.254	19.930	3.552	0.283
62.501	113.226	80.006	19.994	103.254	19.933	3.378	0.333
63.001	113.368	80.006	19.993	103.253	19.934	3.324	0.331
63.500	113.508	80.006	19.994	103.253	19.931	3.491	0.295
64.000	113.617	80.007	19.994	103.254	19.932	3.461	0.265
64.500	113.812	80.006	19.993	103.257	19.928	3.690	0.276
65.000	113.956	80.005	19.994	103.257	19.931	3.522	0.321
65.500	114.145	80.006	19.993	103.258	19.931	3.484	0.336
66.000	114.291	80.006	19.995	103.260	19.929	3.611	0.334
66.500	114.487	80.005	19.994	103.259	19.928	3.691	0.339
67.000	114.635	80.005	19.994	103.255	19.926	3.805	0.344
67.500	114.801	80.006	19.994	103.255	19.931	3.496	0.329
68.000	114.934	80.004	19.994	103.255	19.931	3.506	0.307
68.500	115.124	80.005	19.994	103.254	19.930	3.544	0.311
69.000	115.295	80.007	19.994	103.256	19.931	3.506	0.342
69.500	115.462	80.007	19.993	103.257	19.932	3.433	0.349
70.000	115.624	80.005	19.994	103.258	19.930	3.558	0.333
70.500	115.767	80.006	19.994	103.264	19.931	3.524	0.317
71.000	115.937	80.006	19.996	103.267	19.930	3.591	0.309
71.500	116.152	80.005	19.994	103.266	19.930	3.539	0.349
72.000	116.281	80.005	19.994	103.268	19.929	3.645	0.365
72.500	116.456	80.006	19.995	103.272	19.930	3.534	0.324
73.000	116.662	80.004	19.995	103.270	19.929	3.633	0.342
73.500	116.835	80.005	19.995	103.272	19.929	3.646	0.380
74.001	117.021	80.006	19.994	103.276	19.932	3.449	0.369
74.501	117.177	80.004	19.993	103.276	19.932	3.418	0.351
75.000	117.405	80.005	19.995	103.273	19.934	3.283	0.363
75.500	117.560	80.006	19.994	103.273	19.934	3.272	0.383
76.000	117.748	80.005	19.994	103.275	19.931	3.529	0.363
76.500	117.932	80.005	19.995	103.277	19.931	3.504	0.358
77.000	118.115	80.007	19.994	103.279	19.931	3.466	0.370
77.500	118.330	80.005	19.994	103.279	19.929	3.620	0.383
78.000	118.504	80.006	19.995	103.279	19.932	3.447	0.394
78.500	118.697	80.006	19.994	103.271	19.931	3.523	0.378
79.000	118.885	80.005	19.993	103.265	19.927	3.737	0.374
79.500	119.074	80.005	19.994	103.262	19.931	3.496	0.379
80.000	119.252	80.006	19.995	103.262	19.929	3.654	0.372
80.501	119.436	80.007	19.995	103.259	19.930	3.569	0.365
81.001	119.640	80.006	19.994	103.260	19.930	3.574	0.375
81.501	119.834	80.006	19.994	103.264	19.930	3.555	0.393
82.001	120.045	80.006	19.996	103.264	19.930	3.597	0.402
82.500	120.269	80.007	19.994	103.261	19.931	3.468	0.420
83.000	120.407	80.007	19.995	103.265	19.930	3.557	0.398
83.500	120.631	80.007	19.994	103.271	19.928	3.696	0.362
84.000	120.834	80.006	19.996	103.273	19.929	3.659	0.395
84.501	121.046	80.007	19.995	103.277	19.930	3.536	0.421
85.001	121.250	80.007	19.995	103.278	19.928	3.716	0.415
85.501	121.473	80.007	19.994	103.273	19.930	3.593	0.421
86.001	121.698	80.007	19.995	103.267	19.928	3.683	0.437
86.501	121.889	80.007	19.994	103.261	19.929	3.602	0.432
87.000	122.086	80.007	19.995	103.259	19.927	3.777	0.402
87.500	122.364	80.006	19.995	103.258	19.927	3.781	0.432
88.000	122.513	80.006	19.995	103.258	19.929	3.607	0.451
88.500	122.745	80.006	19.994	103.256	19.927	3.782	0.404
89.001	122.956	80.007	19.994	103.258	19.930	3.543	0.412
89.501	123.169	80.007	19.994	103.261	19.928	3.678	0.434
90.000	123.339	80.007	19.995	103.264	19.928	3.703	0.403
90.500	123.570	80.006	19.995	103.269	19.929	3.640	0.391
91.000	123.764	80.007	19.995	103.273	19.930	3.555	0.413
91.500	123.996	80.005	19.996	103.275	19.926	3.801	0.425
92.000	124.202	80.007	19.995	103.274	19.930	3.544	0.432
92.500	124.415	80.006	19.996	103.278	19.932	3.465	0.429
93.000	124.620	80.005	19.993	103.276	19.930	3.593	0.419
93.500	124.826	80.005	19.994	103.277	19.931	3.473	0.414
94.000	125.060	80.005	19.994	103.279	19.930	3.569	0.426
94.500	125.270	80.004	19.994	103.278	19.931	3.519	0.442
95.000	125.534	80.003	19.994	103.273	19.932	3.406	0.459
95.501	125.746	80.005	19.994	103.273	19.932	3.461	0.475
96.001	125.969	80.005	19.994	103.272	19.931	3.500	0.456
96.500	126.152	80.005	19.994	103.272	19.930	3.548	0.421
97.000	126.402	80.004	19.995	103.272	19.931	3.515	0.419
97.500	126.588	80.003	19.995	103.271	19.933	3.385	0.434
98.000	126.821	80.003	19.995	103.267	19.929	3.606	0.428
98.500	127.040	80.004	19.995	103.269	19.933	3.351	0.436
99.000	127.262	80.004	19.994	103.267	19.932	3.454	0.446
99.500	127.449	80.004	19.994	103.268	19.931	3.479	0.425
100.000	127.716	80.004	19.995	103.271	19.929	3.652	0.432
100.500	127.925	80.004	19.994	103.277	19.931	3.529	0.466
101.000	128.150	80.004	19.995	103.279	19.932	3.459	0.455
101.501	128.384	80.006	19.995	103.278	19.927	3.747	0.446
102.001	128.585	80.004	19.994	103.275	19.930	3.570	0.446
102.500	128.829	80.003	19.995	103.272	19.930	3.579	0.440
103.000	129.058	80.003	19.994	103.266	19.930	3.559	0.459
103.500	129.298	80.003	19.995	103.262	19.931	3.526	0.471
104.000	129.543	80.004	19.994	103.261	19.932	3.436	0.477
104.500	129.773	80.004	19.995	103.262	19.930	3.546	0.480
105.000	130.030	80.003	19.995	103.264	19.931	3.489	0.481
105.500	130.247	80.003	19.995	103.270	19.932	3.404	0.481
106.000	130.465	80.003	19.994	103.270	19.931	3.515	0.455
106.500	130.731	80.003	19.995	103.270	19.931	3.478	0.460
107.000	130.912	80.003	19.996	103.273	19.934	3.305	0.465
107.500	131.163	80.003	19.994	103.277	19.932	3.404	0.439
108.001	131.399	80.003	19.994	103.278	19.931	3.503	0.459
108.501	131.648	80.003	19.995	103.277	19.932	3.459	0.486
109.000	131.882	80.002	19.995	103.278	19.933	3.345	0.484
109.500	132.119	80.003	19.996	103.277	19.932	3.437	0.477
110.000	132.313	80.004	19.996	103.272	19.934	3.308	0.451
110.500	132.565	80.003	19.996	103.267	19.933	3.400	0.438
111.000	132.831	80.004	19.996	103.267	19.933	3.352	0.482
111.500	133.062	80.003	19.996	103.266	19.933	3.352	0.508
112.000	133.273	80.002	19.996	103.264	19.936	3.201	0.470
112.500	133.510	80.002	19.996	103.263	19.931	3.498	0.445
113.000	133.753	80.004	19.995	103.265	19.931	3.491	0.464
113.500	133.951	80.003	19.995	103.272	19.932	3.452	0.461
114.000	134.206	80.002	19.996	103.277	19.931	3.513	0.447
114.501	134.464	80.004	19.995	103.278	19.933	3.391	0.483
115.001	134.687	80.003	19.995	103.278	19.932	3.428	0.497
115.500	134.920	80.003	19.996	103.273	19.931	3.487	0.469
116.000	135.137	80.004	19.996	103.267	19.933	3.348	0.453
116.501	135.400	80.003	19.995	103.260	19.931	3.492	0.465
117.001	135.645	80.004	19.995	103.257	19.929	3.622	0.494
117.501	135.897	80.003	19.996	103.256	19.929	3.600	0.502
118.001	136.187	80.004	19.995	103.257	19.931	3.482	0.520
118.500	136.368	80.004	19.994	103.257	19.932	3.442	0.506
119.000	136.659	80.004	19.995	103.258	19.931	3.490	0.471
119.500	136.886	80.004	19.996	103.257	19.933	3.338	0.495
120.000	137.159	80.003	19.996	103.260	19.928	3.676	0.510
120.500	137.371	80.004	19.995	103.261	19.934	3.277	0.493
121.000	137.655	80.004	19.995	103.261	19.932	3.436	0.490
121.500	137.907	80.003	19.995	103.261	19.934	3.317	0.516
122.000	138.110	80.003	19.995	103.267	19.929	3.608	0.496
122.500	138.362	80.004	19.995	103.264	19.933	3.388	0.455
123.000	138.601	80.005	19.995	103.263	19.931	3.508	0.473
123.500	138.869	80.005	19.995	103.264	19.933	3.367	0.499
124.000	139.115	80.004	19.996	103.263	19.931	3.495	0.510
124.500	139.327	80.002	19.995	103.257	19.932	3.436	0.486
125.000	139.611	80.003	19.996	103.257	19.932	3.457	0.478
125.500	139.839	80.004	19.995	103.255	19.930	3.554	0.504
126.000	140.048	80.004	19.995	103.254	19.933	3.376	0.474
126.500	140.331	80.003	19.994	103.254	19.931	3.499	0.465
127.000	140.559	80.003	19.995	103.255	19.934	3.282	0.502
127.500	140.814	80.003	19.995	103.254	19.934	3.275	0.497
128.000	141.080	80.003	19.994	103.254	19.932	3.409	0.502
128.500	141.324	80.005	19.995	103.253	19.930	3.540	0.516
129.000	141.577	80.004	19.995	103.254	19.933	3.372	0.503
129.500	141.798	80.003	19.994	103.254	19.934	3.315	0.486
130.000	142.073	80.004	19.995	103.254	19.931	3.492	0.485
130.500	142.289	80.002	19.997	103.254	19.932	3.434	0.493
131.000	142.583	80.003	19.995	103.254	19.930	3.578	0.500
131.500	142.798	80.004	19.995	103.253	19.931	3.478	0.509
132.000	143.054	80.004	19.994	103.253	19.934	3.277	0.490
132.500	143.341	80.003	19.994	103.253	19.933	3.339	0.507
133.000	143.562	80.005	19.994	103.253	19.929	3.632	0.526
133.501	143.814	80.004	19.993	103.253	19.932	3.417	0.491
134.001	144.054	80.004	19.994	103.253	19.932	3.448	0.482
134.500	144.307	80.003	19.995	103.253	19.930	3.566	0.493
135.000	144.557	80.005	19.993	103.253	19.933	3.377	0.498
135.500	144.791	80.004	19.996	103.253	19.931	3.514	0.493
136.000	145.102	80.005	19.995	103.253	19.933	3.392	0.514
136.500	145.279	80.004	19.994	103.252	19.931	3.488	0.516
137.000	145.578	80.004	19.996	103.252	19.929	3.609	0.482
137.500	145.826	80.005	19.995	103.252	19.931	3.472	0.512
138.000	146.057	80.006	19.995	103.252	19.931	3.516	0.513
138.500	146.280	80.005	19.995	103.250	19.932	3.433	0.467
139.000	146.538	80.006	19.993	103.249	19.931	3.488	0.467
139.500	146.772	80.005	19.995	103.248	19.931	3.516	0.487
140.000	147.069	80.005	19.994	103.246	19.933	3.368	0.512
140.500	147.301	80.006	19.994	103.245	19.932	3.462	0.530
141.000	147.512	80.006	19.995	103.243	19.932	3.453	0.485
141.500	147.783	80.007	19.995	103.244	19.932	3.455	0.463
142.000	148.022	80.006	19.996	103.245	19.931	3.490	0.496
142.500	148.281	80.007	19.994	103.246	19.931	3.488	0.504
143.000	148.544	80.004	19.995	103.247	19.934	3.297	0.510
143.500	148.802	80.007	19.995	103.250	19.931	3.516	0.521
144.000	149.048	80.006	19.995	103.246	19.931	3.498	0.512
144.500	149.295	80.008	19.994	103.243	19.933	3.351	0.498
145.000	149.524	80.008	19.996	103.240	19.929	3.609	0.485
145.500	149.775	80.007	19.995	103.234	19.932	3.415	0.478
146.000	150.078	80.006	19.994	103.232	19.932	3.420	0.517
146.500	150.290	80.005	19.995	103.232	19.932	3.404	0.535
147.000	150.539	80.005	19.995	103.229	19.933	3.394	0.488
147.500	150.779	80.006	19.993	103.229	19.932	3.429	0.475
148.000	151.025	80.005	19.995	103.233	19.933	3.361	0.487
148.500	151.269	80.007	19.994	103.231	19.931	3.508	0.488
149.000	151.531	80.005	19.995	103.233	19.933	3.378	0.498
149.500	151.771	80.005	19.994	103.238	19.933	3.371	0.504
150.000	152.005	80.006	19.994	103.239	19.933	3.370	0.488
150.500	152.224	80.004	19.996	103.238	19.932	3.430	0.463
151.000	152.533	80.004	19.996	103.241	19.931	3.472	0.491
151.500	152.784	80.006	19.994	103.244	19.933	3.396	0.544
152.000	153.008	80.005	19.994	103.241	19.936	3.139	0.517
152.500	153.252	80.006	19.994	103.243	19.931	3.503	0.472
153.000	153.491	80.006	19.993	103.245	19.932	3.418	0.476
153.500	153.759	80.006	19.994	103.244	19.932	3.401	0.495
154.000	153.974	80.006	19.994	103.238	19.933	3.337	0.495
154.500	154.267	80.005	19.995	103.236	19.934	3.302	0.496
155.000	154.480	80.006	19.994	103.233	19.933	3.390	0.507
155.500	154.718	80.006	19.995	103.227	19.936	3.182	0.479
156.001	154.959	80.005	19.994	103.229	19.934	3.293	0.465
156.501	155.232	80.004	19.994	103.232	19.936	3.182	0.496
157.000	155.435	80.004	19.993	103.233	19.936	3.139	0.495
157.500	155.699	80.004	19.994	103.230	19.935	3.259	0.472
158.000	155.964	80.005	19.994	103.229	19.935	3.227	0.498
158.500	156.179	80.006	19.994	103.225	19.934	3.319	0.505
159.000	156.421	80.006	19.993	103.224	19.935	3.217	0.469
159.500	156.658	80.006	19.994	103.222	19.936	3.198	0.468
160.000	156.906	80.006	19.993	103.223	19.933	3.356	0.482
160.500	157.175	80.004	19.994	103.223	19.935	3.243	0.501
161.000	157.413	80.005	19.995	103.225	19.934	3.328	0.512
161.500	157.656	80.006	19.993	103.224	19.936	3.201	0.494
162.000	157.865	80.007	19.993	103.224	19.933	3.394	0.467
162.500	158.150	80.007	19.994	103.224	19.933	3.368	0.473
163.000	158.399	80.008	19.993	103.230	19.932	3.411	0.514
163.500	158.682	80.007	19.994	103.231	19.933	3.345	0.533
164.000	158.899	80.008	19.994	103.230	19.932	3.420	0.516
164.500	159.155	80.006	19.994	103.230	19.933	3.387	0.486
165.000	159.422	80.007	19.994	103.230	19.933	3.366	0.498
165.500	159.632	80.007	19.993	103.226	19.933	3.399	0.500
166.000	159.916	80.007	19.994	103.222	19.934	3.316	0.485
166.500	160.134	80.008	19.994	103.222	19.934	3.271	0.498
167.000	160.376	80.008	19.994	103.222	19.932	3.441	0.481
167.500	160.633	80.006	19.994	103.222	19.934	3.286	0.479
168.000	160.883	80.006	19.993	103.222	19.933	3.350	0.503
168.500	161.115	80.007	19.994	103.225	19.933	3.343	0.495
169.000	161.397	80.007	19.994	103.225	19.935	3.238	0.498
169.500	161.626	80.007	19.995	103.224	19.935	3.243	0.512
170.000	161.874	80.007	19.995	103.223	19.933	3.399	0.494
170.500	162.142	80.006	19.995	103.221	19.934	3.321	0.497
171.000	162.347	80.007	19.995	103.217	19.935	3.253	0.494
171.500	162.632	80.006	19.994	103.217	19.934	3.317	0.481
172.000	162.858	80.008	19.994	103.217	19.936	3.196	0.501
172.500	163.101	80.006	19.994	103.216	19.936	3.177	0.490
173.000	163.316	80.006	19.995	103.216	19.933	3.371	0.464
173.500	163.562	80.006	19.995	103.216	19.934	3.314	0.459
174.000	163.844	80.007	19.994	103.216	19.934	3.298	0.494
174.500	164.121	80.005	19.994	103.216	19.931	3.486	0.544
175.000	164.344	80.005	19.995	103.217	19.932	3.463	0.530
175.500	164.582	80.003	19.994	103.221	19.934	3.330	0.480
176.000	164.821	80.004	19.993	103.221	19.934	3.307	0.469
176.500	165.032	80.003	19.995	103.222	19.933	3.399	0.464
177.000	165.283	80.003	19.995	103.223	19.930	3.538	0.456
177.500	165.565	80.004	19.994	103.222	19.933	3.338	0.497
178.001	165.806	80.003	19.994	103.219	19.933	3.342	0.528
178.500	166.066	80.003	19.994	103.219	19.936	3.142	0.512
179.000	166.279	80.003	19.995	103.219	19.934	3.326	0.488
179.500	166.585	80.004	19.995	103.219	19.934	3.305	0.496
180.000	166.826	80.003	19.996	103.219	19.935	3.257	0.533
180.500	167.073	80.005	19.994	103.220	19.936	3.179	0.517
181.000	167.277	80.003	19.995	103.220	19.934	3.331	0.469
181.500	167.534	80.003	19.995	103.220	19.937	3.101	0.456
182.000	167.792	80.005	19.994	103.220	19.937	3.073	0.488
182.500	168.008	80.004	19.995	103.219	19.934	3.324	0.494
183.000	168.264	80.005	19.995	103.218	19.936	3.196	0.473
183.500	168.495	80.005	19.995	103.217	19.937	3.102	0.479
184.000	168.740	80.004	19.994	103.218	19.936	3.154	0.482
184.500	168.959	80.003	19.994	103.218	19.936	3.189	0.470
185.000	169.228	80.004	19.994	103.218	19.936	3.193	0.476
185.500	169.504	80.004	19.994	103.218	19.935	3.207	0.516
186.000	169.755	80.006	19.996	103.218	19.935	3.236	0.536
186.500	169.993	80.004	19.996	103.218	19.933	3.345	0.508
187.000	170.195	80.004	19.996	103.218	19.934	3.312	0.465
187.500	170.445	80.004	19.995	103.217	19.936	3.203	0.447
188.000	170.690	80.004	19.995	103.216	19.936	3.168	0.474
188.500	170.929	80.004	19.995	103.216	19.935	3.208	0.489
189.000	171.190	80.005	19.995	103.216	19.934	3.296	0.491
189.500	171.414	80.005	19.995	103.215	19.932	3.401	0.492
190.000	171.682	80.004	19.995	103.214	19.935	3.211	0.489
190.500	171.909	80.005	19.996	103.215	19.935	3.206	0.493
191.000	172.126	80.005	19.994	103.214	19.934	3.277	0.470
191.500	172.420	80.004	19.994	103.214	19.934	3.276	0.478
192.000	172.666	80.004	19.995	103.215	19.936	3.161	0.525
192.500	172.900	80.005	19.995	103.215	19.935	3.227	0.510
193.000	173.126	80.006	19.994	103.215	19.932	3.407	0.470
193.500	173.400	80.005	19.994	103.214	19.935	3.260	0.480
194.000	173.652	80.004	19.995	103.214	19.935	3.244	0.513
194.500	173.900	80.005	19.995	103.219	19.934	3.283	0.513
195.000	174.138	80.004	19.995	103.221	19.935	3.248	0.492
195.500	174.387	80.006	19.994	103.221	19.934	3.298	0.487
196.000	174.647	80.004	19.994	103.221	19.934	3.277	0.499
196.500	174.877	80.005	19.994	103.221	19.936	3.154	0.500
197.000	175.111	80.004	19.994	103.216	19.934	3.289	0.476
197.500	175.364	80.004	19.995	103.214	19.933	3.367	0.475
198.000	175.638	80.005	19.995	103.215	19.937	3.111	0.507
198.500	175.901	80.005	19.997	103.216	19.933	3.392	0.532
199.000	176.096	80.004	19.995	103.215	19.934	3.331	0.498
199.500	176.365	80.004	19.995	103.216	19.932	3.405	0.461
200.000	176.582	80.003	19.995	103.215	19.931	3.513	0.475
200.500	176.873	80.003	19.994	103.214	19.934	3.308	0.497
201.000	177.065	80.003	19.995	103.214	19.935	3.227	0.495
201.500	177.366	80.005	19.994	103.214	19.930	3.553	0.488
202.000	177.604	80.005	19.995	103.213	19.933	3.348	0.516
202.500	177.862	80.006	19.996	103.213	19.936	3.196	0.518
203.000	178.058	80.004	19.995	103.213	19.933	3.348	0.475
203.501	178.371	80.004	19.996	103.213	19.936	3.180	0.481
204.000	178.565	80.003	19.995	103.213	19.933	3.336	0.508
204.500	178.817	80.005	19.996	103.213	19.933	3.346	0.477
205.000	179.118	80.003	19.997	103.213	19.933	3.388	0.499
205.500	179.327	80.004	19.994	103.213	19.934	3.294	0.531
206.000	179.559	80.004	19.996	103.213	19.931	3.470	0.476
206.501	179.843	80.004	19.995	103.211	19.935	3.246	0.479
207.000	180.066	80.003	19.996	103.211	19.935	3.246	0.511
207.500	180.347	80.005	19.996	103.212	19.935	3.222	0.505
208.000	180.542	80.004	19.996	103.212	19.935	3.208	0.490
208.500	180.787	80.005	19.996	103.211	19.933	3.380	0.458
209.000	181.096	80.003	19.997	103.212	19.932	3.430	0.497
209.500	181.317	80.004	19.996	103.211	19.934	3.307	0.542
210.000	181.544	80.004	19.996	103.205	19.933	3.359	0.489
210.500	181.802	80.003	19.996	103.204	19.933	3.347	0.467
211.000	182.058	80.003	19.996	103.203	19.936	3.179	0.499
211.500	182.300	80.004	19.997	103.203	19.936	3.201	0.506
212.000	182.525	80.004	19.996	103.204	19.937	3.128	0.483
212.500	182.792	80.004	19.996	103.209	19.934	3.295	0.480
213.000	183.024	80.003	19.996	103.211	19.937	3.087	0.496
213.500	183.275	80.004	19.995	103.211	19.938	3.050	0.491
214.000	183.494	80.004	19.997	103.211	19.934	3.303	0.476
214.500	183.769	80.004	19.996	103.209	19.934	3.307	0.481
215.000	183.995	80.003	19.994	103.209	19.933	3.334	0.497
215.500	184.236	80.004	19.995	103.206	19.934	3.272	0.485
216.000	184.480	80.003	19.996	103.205	19.937	3.132	0.476
216.500	184.715	80.005	19.995	103.203	19.938	3.047	0.482
217.000	185.032	80.005	19.995	103.204	19.938	3.017	0.515
217.500	185.268	80.005	19.995	103.205	19.936	3.149	0.552
218.000	185.497	80.005	19.996	103.207	19.934	3.328	0.509
218.500	185.779	80.005	19.994	103.209	19.936	3.154	0.489
219.000	185.973	80.006	19.994	103.213	19.934	3.284	0.494
219.500	186.230	80.005	19.994	103.213	19.936	3.163	0.464
220.000	186.508	80.006	19.994	103.214	19.935	3.204	0.493
220.500	186.726	80.004	19.994	103.214	19.932	3.459	0.515
221.000	187.005	80.005	19.995	103.213	19.933	3.364	0.497
221.500	187.247	80.006	19.995	103.214	19.935	3.234	0.509
222.000	187.508	80.005	19.994	103.214	19.934	3.279	0.512
222.500	187.747	80.005	19.994	103.214	19.932	3.409	0.502
223.000	187.995	80.005	19.995	103.214	19.933	3.374	0.493
223.500	188.257	80.006	19.994	103.213	19.932	3.412	0.499
224.000	188.494	80.007	19.994	103.212	19.930	3.542	0.505
224.500	188.714	80.007	19.994	103.212	19.931	3.464	0.478
225.000	188.991	80.005	19.994	103.212	19.933	3.336	0.477
225.500	189.202	80.007	19.994	103.209	19.933	3.345	0.492
226.000	189.454	80.007	19.994	103.209	19.934	3.326	0.475
226.500	189.755	80.006	19.995	103.211	19.933	3.381	0.508
227.000	189.995	80.006	19.993	103.211	19.933	3.364	0.547
227.500	190.215	80.006	19.994	103.211	19.932	3.442	0.500
228.000	190.487	80.006	19.994	103.214	19.933	3.338	0.477
228.500	190.670	80.006	19.994	103.215	19.934	3.282	0.474
229.000	190.952	80.006	19.995	103.212	19.932	3.447	0.460
229.500	191.221	80.006	19.995	103.210	19.931	3.514	0.508
230.000	191.462	80.007	19.996	103.209	19.932	3.408	0.531
230.500	191.698	80.005	19.994	103.208	19.932	3.454	0.494
231.000	191.966	80.005	19.995	103.209	19.933	3.379	0.490
231.500	192.193	80.006	19.995	103.212	19.932	3.435	0.499
232.000	192.426	80.005	19.995	103.212	19.934	3.279	0.477
232.500	192.658	80.006	19.994	103.213	19.930	3.584	0.462
233.000	192.903	80.005	19.995	103.212	19.930	3.560	0.471
233.500	193.159	80.005	19.995	103.210	19.932	3.421	0.489
234.000	193.423	80.004	19.994	103.209	19.930	3.557	0.511
234.500	193.643	80.005	19.995	103.209	19.929	3.602	0.502
235.000	193.916	80.005	19.995	103.206	19.934	3.320	0.488
235.500	194.171	80.004	19.995	103.206	19.930	3.542	0.511
236.000	194.433	80.006	19.994	103.208	19.928	3.721	0.522
236.500	194.625	80.005	19.996	103.210	19.928	3.675	0.485
237.000	194.905	80.005	19.994	103.211	19.927	3.743	0.463
237.500	195.136	80.005	19.994	103.214	19.930	3.587	0.492
238.000	195.383	80.006	19.994	103.216	19.926	3.809	0.494
238.500	195.615	80.005	19.995	103.210	19.930	3.587	0.479
239.000	195.863	80.005	19.994	103.204	19.929	3.625	0.480
239.500	196.093	80.004	19.995	103.198	19.927	3.769	0.479
240.000	196.367	80.004	19.994	103.193	19.931	3.520	0.491
240.500	196.628	80.003	19.995	103.190	19.928	3.699	0.520
241.000	196.869	80.005	19.995	103.190	19.928	3.671	0.519
241.500	197.096	80.005	19.994	103.194	19.931	3.489	0.485
242.000	197.343	80.005	19.996	103.197	19.929	3.641	0.470
242.500	197.610	80.004	19.994	103.202	19.928	3.705	0.494
243.000	197.823	80.006	19.994	103.205	19.926	3.797	0.497
243.500	198.080	80.004	19.995	103.208	19.931	3.492	0.475
244.000	198.317	80.006	19.995	103.212	19.929	3.626	0.482
244.500	198.583	80.006	19.994	103.212	19.926	3.797	0.498
245.000	198.831	80.005	19.995	103.212	19.924	3.931	0.508
245.500	199.088	80.005	19.993	103.210	19.925	3.917	0.509
246.000	199.329	80.005	19.993	103.205	19.923	3.988	0.502
246.500	199.609	80.006	19.993	103.198	19.925	3.858	0.509
247.000	199.824	80.007	19.995	103.193	19.925	3.919	0.508
247.500	200.086	80.007	19.995	103.186	19.926	3.796	0.486
248.000	200.331	80.007	19.994	103.185	19.924	3.941	0.493
248.500	200.565	80.006	19.994	103.185	19.924	3.981	0.494
249.000	200.783	80.006	19.994	103.186	19.927	3.773	0.466
249.500	201.077	80.007	19.994	103.191	19.926	3.799	0.482
250.000	201.278	80.006	19.994	103.197	19.925	3.870	0.503
250.500	201.517	80.007	19.994	103.202	19.928	3.698	0.468
251.000	201.744	80.008	19.994	103.207	19.928	3.675	0.453
251.500	202.064	80.008	19.994	103.211	19.922	4.111	0.506
252.000	202.228	80.007	19.994	103.207	19.925	3.857	0.516
252.500	202.540	80.008	19.994	103.207	19.925	3.920	0.480
253.000	202.819	80.007	19.994	103.205	19.928	3.705	0.533
253.500	203.048	80.009	19.993	103.205	19.925	3.905	0.549
254.000	203.284	80.007	19.993	103.203	19.923	3.991	0.487
254.500	203.535	80.005	19.994	103.206	19.925	3.866	0.476
255.000	203.785	80.007	19.993	103.206	19.925	3.906	0.494
255.500	204.018	80.006	19.994	103.203	19.925	3.903	0.492
256.000	204.251	80.006	19.993	103.199	19.926	3.837	0.474
256.500	204.507	80.006	19.995	103.200	19.927	3.756	0.477
257.000	204.777	80.006	19.995	103.201	19.927	3.766	0.508
257.500	204.987	80.006	19.995	103.201	19.924	3.986	0.503
258.000	205.238	80.005	19.994	103.204	19.924	3.952	0.471
258.500	205.502	80.004	19.994	103.206	19.925	3.903	0.488
259.000	205.769	80.005	19.993	103.204	19.925	3.903	0.523
259.500	206.014	80.005	19.993	103.204	19.923	4.033	0.522
260.000	206.256	80.004	19.994	103.200	19.921	4.159	0.499
260.500	206.485	80.004	19.993	103.199	19.921	4.133	0.479
261.000	206.695	80.003	19.994	103.196	19.923	4.028	0.455
261.500	207.007	80.004	19.995	103.192	19.921	4.153	0.481
262.000	207.218	80.006	19.995	103.188	19.922	4.080	0.523
262.500	207.481	80.005	19.995	103.191	19.923	4.016	0.498
263.000	207.763	80.006	19.994	103.193	19.920	4.189	0.509
263.500	207.989	80.005	19.994	103.198	19.920	4.223	0.527
264.000	208.254	80.005	19.995	103.204	19.921	4.176	0.500
264.500	208.517	80.004	19.994	103.207	19.922	4.062	0.509
265.000	208.784	80.004	19.994	103.204	19.922	4.064	0.529
265.500	209.044	80.004	19.994	103.197	19.921	4.147	0.529
266.000	209.279	80.004	19.995	103.197	19.918	4.338	0.511
266.500	209.520	80.005	19.994	103.199	19.919	4.293	0.485
267.000	209.766	80.004	19.994	103.200	19.920	4.227	0.482
267.500	210.022	80.005	19.994	103.203	19.922	4.097	0.495
268.000	210.250	80.003	19.995	103.210	19.921	4.139	0.493
268.500	210.558	80.006	19.995	103.211	19.924	3.976	0.510
269.000	210.820	80.004	19.996	103.207	19.919	4.252	0.553
269.500	211.013	80.005	19.995	103.201	19.918	4.364	0.513
270.000	211.262	80.005	19.995	103.203	19.919	4.269	0.449
270.500	211.535	80.004	19.996	103.199	19.918	4.364	0.482
271.000	211.750	80.005	19.994	103.197	19.917	4.407	0.505
271.500	212.005	80.005	19.996	103.197	19.919	4.298	0.479
272.000	212.251	80.005	19.994	103.202	19.918	4.359	0.485
272.500	212.504	80.004	19.995	103.201	19.917	4.407	0.500
273.001	212.755	80.005	19.996	103.203	19.917	4.431	0.502
273.500	213.028	80.005	19.995	103.202	19.917	4.386	0.514
274.000	213.277	80.003	19.996	103.199	19.918	4.315	0.523
274.500	213.508	80.004	19.995	103.195	19.918	4.315	0.501
275.000	213.757	80.005	19.995	103.189	19.915	4.516	0.480
275.500	213.997	80.004	19.995	103.186	19.917	4.433	0.484
276.000	214.292	80.004	19.995	103.188	19.915	4.552	0.512
276.500	214.543	80.005	19.995	103.195	19.915	4.566	0.540
277.000	214.749	80.003	19.996	103.199	19.913	4.674	0.501
277.500	214.988	80.005	19.995	103.206	19.912	4.754	0.451
278.000	215.280	80.006	19.996	103.210	19.913	4.699	0.489
278.500	215.512	80.006	19.994	103.208	19.912	4.710	0.528
279.000	215.786	80.006	19.995	103.208	19.910	4.893	0.514
279.500	216.029	80.006	19.996	103.210	19.909	4.912	0.512
280.000	216.251	80.004	19.995	103.208	19.912	4.749	0.491
280.500	216.510	80.006	19.994	103.207	19.911	4.803	0.473
281.000	216.796	80.005	19.995	103.211	19.910	4.884	0.513
281.500	217.044	80.004	19.995	103.207	19.909	4.910	0.540
282.000	217.305	80.005	19.995	103.202	19.912	4.725	0.522
282.500	217.541	80.004	19.995	103.197	19.911	4.815	0.503
283.000	217.787	80.005	19.995	103.193	19.910	4.848	0.489
283.500	218.008	80.005	19.995	103.186	19.913	4.675	0.474
284.000	218.277	80.005	19.994	103.182	19.908	4.997	0.479
284.500	218.519	80.005	19.996	103.180	19.909	4.936	0.501
285.000	218.799	80.004	19.994	103.181	19.908	5.013	0.516
285.500	219.044	80.005	19.994	103.182	19.907	5.039	0.524
286.000	219.286	80.005	19.994	103.180	19.910	4.884	0.506
286.500	219.534	80.004	19.996	103.180	19.904	5.235	0.488
287.000	219.783	80.005	19.994	103.182	19.904	5.266	0.493
287.500	220.036	80.005	19.995	103.187	19.906	5.098	0.500
288.000	220.295	80.004	19.996	103.191	19.906	5.158	0.507
288.500	220.550	80.004	19.994	103.199	19.906	5.132	0.513
289.000	220.775	80.007	19.995	103.207	19.903	5.319	0.497
289.500	221.044	80.012	19.998	103.212	19.907	5.087	0.487
290.000	221.284	80.011	19.996	103.212	19.903	5.299	0.502
290.500	221.517	80.007	19.998	103.210	19.903	5.317	0.491
291.000	221.777	80.006	19.996	103.208	19.902	5.401	0.483
291.500	221.981	80.004	19.997	103.205	19.900	5.524	0.479
292.000	222.265	80.003	19.995	103.202	19.902	5.394	0.476
292.500	222.528	80.002	19.996	103.203	19.901	5.471	0.517
293.000	222.761	80.004	19.995	103.207	19.903	5.354	0.522
293.500	223.023	80.003	19.995	103.205	19.898	5.623	0.496
294.000	223.266	80.004	19.996	103.207	19.898	5.619	0.500
294.500	223.535	80.003	19.995	103.206	19.895	5.877	0.509
295.000	223.781	80.005	19.996	103.201	19.899	5.579	0.513
295.500	223.990	80.004	19.995	103.198	19.897	5.726	0.484
296.000	224.219	80.003	19.995	103.201	19.899	5.584	0.446
296.500	224.516	80.005	19.995	103.201	19.900	5.534	0.483
297.000	224.763	80.003	19.996	103.204	19.900	5.543	0.535
297.500	225.003	80.003	19.995	103.209	19.900	5.533	0.515
298.000	225.287	80.005	19.994	103.207	19.898	5.679	0.506
298.500	225.487	80.005	19.995	103.204	19.898	5.669	0.504
299.000	225.753	80.004	19.995	103.205	19.899	5.563	0.475
299.500	226.010	80.004	19.996	103.202	19.897	5.726	0.494
300.000	226.211	80.004	19.997	103.200	19.898	5.675	0.490
300.500	226.497	80.004	19.996	103.200	19.895	5.823	0.473
301.000	226.749	80.003	19.995	103.201	19.897	5.722	0.513
301.500	227.013	80.003	19.996	103.197	19.896	5.800	0.527
302.000	227.273	80.005	19.996	103.200	19.895	5.864	0.520
302.500	227.536	80.004	19.997	103.199	19.895	5.847	0.523
303.000	227.763	80.004	19.996	103.204	19.894	5.892	0.507
303.500	228.039	80.005	19.997	103.207	19.891	6.104	0.497
304.000	228.251	80.004	19.994	103.204	19.895	5.878	0.495
304.500	228.531	80.006	19.994	103.203	19.890	6.174	0.490
305.000	228.780	80.005	19.995	103.200	19.889	6.251	0.511
305.500	229.023	80.004	19.995	103.193	19.893	5.952	0.510
306.000	229.245	80.005	19.994	103.188	19.889	6.225	0.478
306.500	229.528	80.005	19.995	103.191	19.891	6.126	0.485
307.000	229.784	80.005	19.995	103.192	19.888	6.287	0.522
307.500	230.057	80.004	19.996	103.196	19.888	6.330	0.534
308.000	230.274	80.004	19.995	103.203	19.882	6.679	0.509
308.500	230.499	80.004	19.995	103.209	19.885	6.500	0.466
309.000	230.826	80.005	19.995	103.213	19.884	6.537	0.497
309.500	231.093	80.005	19.995	103.214	19.882	6.686	0.573
310.000	231.275	80.006	19.995	103.212	19.884	6.593	0.521
310.500	231.575	80.004	19.995	103.210	19.882	6.683	0.466
311.000	231.845	80.006	19.995	103.208	19.881	6.783	0.526
311.500	232.080	80.005	19.994	103.206	19.880	6.797	0.538
312.000	232.296	80.005	19.994	103.204	19.880	6.842	0.478
312.500	232.577	80.005	19.994	103.207	19.880	6.798	0.474
313.000	232.844	80.005	19.995	103.209	19.880	6.833	0.523
313.500	233.046	80.006	19.995	103.211	19.880	6.847	0.508
314.000	233.295	80.004	19.994	103.210	19.881	6.759	0.460
314.500	233.534	80.006	19.994	103.208	19.879	6.873	0.470
315.000	233.829	80.005	19.994	103.207	19.876	7.100	0.511
315.500	234.051	80.005	19.994	103.205	19.878	6.967	0.526
316.000	234.319	80.006	19.994	103.201	19.878	6.982	0.503
316.500	234.579	80.005	19.995	103.203	19.873	7.263	0.508
317.000	234.820	80.007	19.996	103.205	19.875	7.171	0.514
317.500	235.080	80.006	19.995	103.202	19.873	7.297	0.501
318.001	235.289	80.006	19.995	103.201	19.872	7.361	0.485
318.501	235.572	80.005	19.994	103.203	19.873	7.269	0.480
319.000	235.814	80.005	19.994	103.203	19.872	7.357	0.508
319.500	236.053	80.005	19.994	103.204	19.871	7.383	0.504
320.000	236.279	80.005	19.995	103.210	19.869	7.522	0.473
320.500	236.575	80.006	19.995	103.213	19.867	7.664	0.493
321.000	236.768	80.005	19.995	103.213	19.869	7.519	0.506
321.500	237.012	80.007	19.994	103.210	19.867	7.700	0.463
322.000	237.250	80.006	19.994	103.209	19.868	7.617	0.459
322.500	237.507	80.006	19.995	103.205	19.867	7.705	0.489
323.000	237.753	80.007	19.995	103.203	19.865	7.809	0.499
323.500	238.020	80.005	19.995	103.202	19.864	7.889	0.508
324.000	238.231	80.005	19.995	103.205	19.864	7.868	0.496
324.500	238.475	80.006	19.995	103.206	19.863	7.969	0.466
325.000	238.740	80.007	19.996	103.209	19.865	7.780	0.481
325.500	238.991	80.006	19.996	103.207	19.863	7.968	0.512
326.000	239.220	80.007	19.995	103.205	19.859	8.218	0.498
326.500	239.501	80.006	19.995	103.204	19.860	8.121	0.495
327.000	239.716	80.008	19.995	103.202	19.860	8.110	0.503
327.500	239.971	80.007	19.995	103.202	19.860	8.147	0.482
328.000	240.215	80.007	19.995	103.205	19.859	8.190	0.484
328.500	240.443	80.008	19.994	103.209	19.860	8.147	0.486
329.000	240.726	80.007	19.995	103.210	19.859	8.167	0.492
329.500	240.965	80.007	19.995	103.210	19.859	8.218	0.516
330.000	241.219	80.007	19.994	103.211	19.855	8.436	0.508
330.500	241.433	80.007	19.994	103.212	19.857	8.304	0.480
331.000	241.682	80.008	19.996	103.210	19.855	8.441	0.466
331.500	241.949	80.007	19.994	103.209	19.855	8.488	0.490
332.000	242.223	80.009	19.995	103.209	19.856	8.396	0.528
332.500	242.406	80.008	19.994	103.206	19.852	8.656	0.499
333.000	242.688	80.009	19.993	103.206	19.855	8.439	0.461
333.500	242.916	80.008	19.994	103.203	19.854	8.552	0.488
334.000	243.182	80.008	19.995	103.200	19.855	8.464	0.502
334.500	243.434	80.007	19.993	103.199	19.851	8.722	0.506
335.000	243.699	80.008	19.995	103.201	19.851	8.712	0.518
335.500	243.944	80.007	19.993	103.202	19.852	8.630	0.513
336.000	244.173	80.007	19.993	103.206	19.853	8.596	0.492
336.500	244.419	80.008	19.994	103.210	19.851	8.714	0.475
337.000	244.665	80.007	19.994	103.212	19.851	8.715	0.484
337.500	244.949	80.007	19.995	103.213	19.848	8.894	0.511
338.000	245.145	80.006	19.994	103.213	19.850	8.793	0.505
338.500	245.405	80.005	19.995	103.213	19.847	8.961	0.468
339.000	245.675	80.006	19.994	103.213	19.849	8.876	0.493
339.500	245.894	80.005	19.994	103.213	19.845	9.104	0.510
340.000	246.132	80.005	19.994	103.213	19.846	9.031	0.473
340.500	246.392	80.005	19.994	103.212	19.846	9.049	0.478
341.000	246.638	80.004	19.995	103.212	19.843	9.229	0.502
341.500	246.912	80.004	19.995	103.212	19.838	9.548	0.513
342.000	247.134	80.005	19.994	103.212	19.843	9.241	0.508
342.500	247.378	80.004	19.994	103.212	19.840	9.449	0.481
343.000	247.642	80.004	19.994	103.209	19.840	9.444	0.487
343.500	247.879	80.005	19.994	103.208	19.841	9.373	0.505
344.000	248.113	80.006	19.994	103.208	19.838	9.567	0.486
344.500	248.343	80.005	19.993	103.208	19.836	9.732	0.467
345.000	248.634	80.004	19.995	103.208	19.836	9.706	0.492
345.500	248.882	80.005	19.996	103.212	19.836	9.673	0.530
346.000	249.174	80.005	19.995	103.213	19.833	9.881	0.540
346.500	249.424	80.005	19.995	103.213	19.831	10.021	0.541
347.000	249.697	80.004	19.994	103.213	19.832	9.987	0.532
347.500	249.960	80.006	19.996	103.213	19.830	10.072	0.530
348.000	250.232	80.005	19.995	103.211	19.829	10.160	0.536
348.500	250.443	80.005	19.994	103.210	19.829	10.190	0.509
349.000	250.722	80.005	19.995	103.210	19.825	10.432	0.486
349.500	250.989	80.005	19.996	103.210	19.826	10.365	0.518
350.000	251.218	80.005	19.995	103.211	19.823	10.575	0.521
350.500	251.498	80.004	19.995	103.213	19.822	10.641	0.503
351.000	251.725	80.005	19.994	103.215	19.821	10.681	0.508
351.500	251.977	80.003	19.995	103.216	19.822	10.591	0.493
352.000	252.207	80.005	19.995	103.216	19.821	10.691	0.480
352.500	252.494	80.003	19.995	103.217	19.821	10.686	0.500
353.000	252.770	80.004	19.994	103.217	19.818	10.900	0.540
353.500	253.001	80.005	19.995	103.216	19.820	10.774	0.534
354.000	253.202	80.004	19.994	103.216	19.816	11.027	0.470
354.500	253.459	80.004	19.995	103.217	19.817	10.938	0.446
355.000	253.696	80.004	19.995	103.217	19.815	11.046	0.476
355.500	253.932	80.005	19.995	103.215	19.812	11.279	0.483
356.000	254.221	80.004	19.995	103.215	19.810	11.401	0.499
356.500	254.472	80.005	19.994	103.215	19.809	11.495	0.533
357.000	254.729	80.005	19.994	103.214	19.809	11.462	0.524
357.500	254.955	80.005	19.994	103.214	19.806	11.660	0.495
358.000	255.191	80.005	19.994	103.216	19.805	11.736	0.473
358.500	255.474	80.005	19.994	103.217	19.806	11.683	0.491
359.000	255.716	80.006	19.994	103.216	19.806	11.688	0.522
359.500	255.940	80.005	19.994	103.217	19.801	11.976	0.495
360.000	256.205	80.005	19.994	103.217	19.801	11.964	0.478
360.500	256.472	80.005	19.994	103.219	19.800	12.052	0.510
361.000	256.678	80.004	19.995	103.219	19.797	12.235	0.502
361.500	256.955	80.005	19.994	103.220	19.796	12.303	0.478
362.000	257.168	80.005	19.995	103.220	19.792	12.578	0.487
362.500	257.432	80.006	19.995	103.221	19.792	12.567	0.483
363.000	257.679	80.005	19.995	103.219	19.791	12.644	0.494
363.500	257.945	80.005	19.995	103.220	19.789	12.763	0.512
364.000	258.202	80.006	19.995	103.225	19.785	13.037	0.518
364.500	258.441	80.005	19.994	103.230	19.785	13.013	0.510
365.000	258.712	80.004	19.995	103.230	19.780	13.360	0.503
365.500	258.959	80.004	19.996	103.230	19.784	13.113	0.514
366.000	259.215	80.004	19.995	103.229	19.781	13.322	0.511
366.500	259.467	80.005	19.996	103.223	19.780	13.389	0.505
367.000	259.721	80.004	19.995	103.223	19.775	13.686	0.507
367.500	259.969	80.005	19.995	103.225	19.775	13.687	0.504
368.000	260.180	80.004	19.995	103.225	19.775	13.723	0.480
368.500	260.447	80.004	19.994	103.226	19.771	13.977	0.469
369.000	260.666	80.004	19.995	103.230	19.769	14.057	0.482
369.500	260.943	80.005	19.996	103.231	19.768	14.152	0.490
370.000	261.203	80.004	19.995	103.232	19.765	14.348	0.517
370.500	261.407	80.003	19.996	103.233	19.763	14.492	0.501
371.000	261.662	80.003	19.996	103.235	19.760	14.648	0.461
371.500	261.939	80.003	19.995	103.232	19.757	14.868	0.495
372.000	262.145	80.004	19.995	103.228	19.759	14.752	0.508
372.500	262.430	80.004	19.994	103.230	19.755	15.027	0.487
373.000	262.671	80.006	19.995	103.235	19.753	15.106	0.508
373.500	262.910	80.004	19.994	103.234	19.751	15.264	0.504
374.000	263.176	80.003	19.995	103.235	19.748	15.453	0.493
374.500	263.437	80.004	19.995	103.234	19.747	15.500	0.515
375.000	263.660	80.003	19.995	103.231	19.747	15.544	0.505
375.500	263.927	80.004	19.993	103.231	19.743	15.790	0.487
376.000	264.159	80.003	19.996	103.235	19.741	15.920	0.495
376.500	264.411	80.004	19.994	103.238	19.739	16.031	0.492
377.000	264.645	80.005	19.994	103.244	19.738	16.095	0.485
377.500	264.910	80.003	19.994	103.246	19.735	16.336	0.492
378.000	265.139	80.003	19.994	103.246	19.731	16.589	0.496
378.500	265.377	80.004	19.994	103.250	19.726	16.908	0.480
379.000	265.621	80.002	19.995	103.252	19.727	16.844	0.475
379.500	265.879	80.003	19.995	103.253	19.725	16.982	0.492
380.000	266.146	80.004	19.995	103.257	19.723	17.107	0.513
380.500	266.364	80.005	19.995	103.257	19.723	17.072	0.505
381.000	266.656	80.005	19.995	103.255	19.718	17.433	0.497
381.500	266.886	80.004	19.995	103.255	19.715	17.614	0.516
382.000	267.157	80.005	19.994	103.254	19.713	17.739	0.512
382.500	267.394	80.005	19.994	103.254	19.712	17.783	0.505
383.000	267.655	80.005	19.996	103.255	19.712	17.804	0.503
383.500	267.881	80.006	19.995	103.256	19.706	18.216	0.492
384.000	268.156	80.005	19.996	103.256	19.702	18.437	0.494
384.500	268.367	80.006	19.995	103.255	19.705	18.246	0.494
385.000	268.598	80.006	19.995	103.254	19.699	18.644	0.464
385.500	268.878	80.008	19.995	103.256	19.700	18.593	0.476
386.000	269.126	80.007	19.995	103.256	19.695	18.912	0.519
386.500	269.356	80.006	19.995	103.255	19.694	18.994	0.503
387.000	269.630	80.005	19.995	103.255	19.690	19.268	0.491
387.500	269.866	80.006	19.995	103.254	19.687	19.424	0.507
388.000	270.122	80.005	19.995	103.252	19.685	19.600	0.501
388.500	270.380	80.007	19.995	103.252	19.681	19.828	0.503
389.000	270.640	80.006	19.995	103.252	19.680	19.891	0.516
389.500	270.911	80.006	19.996	103.253	19.682	19.774	0.524
390.000	271.133	80.008	19.996	103.254	19.675	20.237	0.512
390.500	271.420	80.006	19.995	103.256	19.674	20.314	0.501
391.000	271.675	80.007	19.994	103.258	19.671	20.482	0.526
391.500	271.888	80.007	19.995	103.259	19.666	20.795	0.505
392.000	272.151	80.006	19.995	103.258	19.665	20.886	0.472
392.500	272.396	80.006	19.995	103.261	19.663	21.017	0.492
393.000	272.664	80.006	19.995	103.264	19.661	21.151	0.511
393.500	272.912	80.005	19.995	103.266	19.657	21.417	0.514
394.000	273.191	80.006	19.995	103.269	19.656	21.490	0.522
394.500	273.431	80.005	19.995	103.270	19.651	21.801	0.523
395.000	273.674	80.006	19.996	103.267	19.653	21.700	0.500
395.500	273.917	80.004	19.995	103.266	19.647	22.040	0.485
396.000	274.143	80.006	19.996	103.265	19.643	22.306	0.478
396.500	274.396	80.005	19.995	103.265	19.646	22.145	0.474
397.000	274.694	80.004	19.996	103.265	19.642	22.370	0.515
397.500	274.916	80.005	19.996	103.265	19.639	22.613	0.536
398.000	275.183	80.003	19.996	103.263	19.635	22.820	0.505
398.500	275.457	80.004	19.995	103.265	19.632	23.024	0.516
399.000	275.704	80.005	19.995	103.267	19.628	23.328	0.531
399.500	275.946	80.007	19.996	103.270	19.626	23.422	0.505
400.000	276.184	80.004	19.995	103.275	19.625	23.509	0.484
400.501	276.426	80.004	19.995	103.282	19.622	23.696	0.480
401.000	276.702	80.005	19.996	103.280	19.618	23.976	0.499
401.500	276.961	80.005	19.995	103.282	19.615	24.169	0.527
402.000	277.153	80.004	19.995	103.282	19.613	24.287	0.493
402.500	277.460	80.004	19.995	103.281	19.609	24.533	0.475
403.000	277.729	80.006	19.996	103.281	19.606	24.759	0.538
403.500	277.977	80.006	19.996	103.284	19.605	24.802	0.547
404.000	278.226	80.006	19.995	103.284	19.602	25.014	0.507
404.501	278.469	80.005	19.995	103.287	19.601	25.078	0.495
405.000	278.720	80.006	19.995	103.289	19.596	25.369	0.493
405.500	278.970	80.006	19.996	103.289	19.597	25.352	0.497
406.000	279.200	80.005	19.996	103.289	19.592	25.653	0.490
406.500	279.424	80.005	19.995	103.289	19.593	25.589	0.467
407.000	279.684	80.005	19.994	103.290	19.586	26.027	0.469
407.500	279.950	80.006	19.995	103.289	19.583	26.259	0.506
408.000	280.202	80.005	19.995	103.289	19.579	26.503	0.522
408.500	280.464	80.007	19.995	103.289	19.579	26.482	0.516
409.000	280.727	80.005	19.996	103.289	19.579	26.530	0.520
409.500	280.981	80.007	19.996	103.289	19.573	26.895	0.521
410.000	281.190	80.005	19.995	103.289	19.571	27.063	0.490
410.500	281.455	80.007	19.995	103.291	19.572	26.987	0.468
411.000	281.714	80.006	19.995	103.292	19.565	27.452	0.499
411.500	281.982	80.007	19.996	103.291	19.563	27.529	0.526
412.000	282.212	80.006	19.994	103.291	19.561	27.675	0.513
412.500	282.448	80.006	19.995	103.292	19.557	27.973	0.482
413.000	282.726	80.007	19.995	103.292	19.555	28.099	0.490
413.500	282.955	80.007	19.994	103.292	19.552	28.270	0.511
414.000	283.175	80.007	19.994	103.292	19.549	28.505	0.478
414.500	283.447	80.005	19.994	103.292	19.546	28.648	0.470
415.000	283.664	80.007	19.994	103.292	19.545	28.733	0.491
415.500	283.951	80.008	19.994	103.293	19.542	28.932	0.496
416.000	284.198	80.007	19.994	103.296	19.537	29.282	0.519
416.500	284.440	80.006	19.993	103.299	19.535	29.390	0.512
417.000	284.719	80.007	19.994	103.303	19.533	29.541	0.505
417.500	284.932	80.007	19.993	103.309	19.528	29.846	0.506
418.000	285.195	80.006	19.993	103.313	19.526	29.995	0.484
418.500	285.428	80.006	19.994	103.310	19.525	30.060	0.486
419.000	285.689	80.005	19.994	103.308	19.520	30.350	0.495
419.500	285.944	80.006	19.994	103.304	19.515	30.684	0.505
420.000	286.208	80.006	19.994	103.302	19.516	30.658	0.517
420.500	286.447	80.007	19.994	103.304	19.511	30.946	0.511
421.000	286.711	80.005	19.994	103.312	19.509	31.094	0.503
421.500	286.963	80.006	19.995	103.317	19.508	31.179	0.510
422.000	287.204	80.006	19.994	103.317	19.504	31.450	0.505
422.500	287.450	80.005	19.994	103.315	19.501	31.633	0.490
423.000	287.730	80.004	19.993	103.308	19.497	31.872	0.506
423.500	287.953	80.005	19.995	103.302	19.493	32.138	0.514
424.000	288.239	80.005	19.994	103.299	19.492	32.182	0.507
424.500	288.476	80.004	19.994	103.306	19.490	32.335	0.516
425.000	288.694	80.004	19.994	103.310	19.486	32.604	0.489
425.500	288.953	80.004	19.994	103.318	19.485	32.669	0.466
426.000	289.211	80.005	19.994	103.323	19.479	33.048	0.497
426.500	289.451	80.004	19.994	103.329	19.478	33.122	0.508
427.000	289.732	80.004	19.994	103.327	19.474	33.367	0.510
427.500	289.961	80.004	19.994	103.329	19.471	33.586	0.515
428.000	290.215	80.004	19.994	103.327	19.468	33.807	0.496
428.500	290.489	80.005	19.994	103.327	19.465	33.965	0.505
429.000	290.705	80.004	19.993	103.326	19.465	33.986	0.510
429.500	290.972	80.006	19.994	103.328	19.459	34.394	0.487
430.000	291.254	80.004	19.994	103.328	19.458	34.465	0.516
430.500	291.468	80.005	19.994	103.331	19.456	34.555	0.522
431.000	291.763	80.003	19.994	103.330	19.455	34.599	0.503
431.500	291.993	80.005	19.994	103.331	19.453	34.757	0.517
432.000	292.219	80.005	19.995	103.331	19.450	34.987	0.491
432.500	292.428	80.005	19.995	103.331	19.442	35.455	0.445
433.000	292.720	80.006	19.994	103.331	19.443	35.385	0.468
433.500	292.971	80.006	19.994	103.332	19.439	35.683	0.522
434.000	293.216	80.004	19.994	103.331	19.437	35.810	0.519
434.500	293.476	80.004	19.994	103.331	19.436	35.900	0.500
435.000	293.691	80.006	19.994	103.331	19.435	35.947	0.490
435.500	293.948	80.004	19.995	103.331	19.431	36.223	0.474
436.000	294.219	80.005	19.994	103.330	19.429	36.355	0.500
436.500	294.476	80.004	19.994	103.332	19.426	36.525	0.528
437.000	294.750	80.005	19.993	103.332	19.422	36.780	0.529
437.500	294.967	80.004	19.994	103.333	19.423	36.736	0.512
438.000	295.216	80.004	19.995	103.334	19.416	37.151	0.479
438.500	295.446	80.004	19.995	103.334	19.416	37.206	0.472
439.000	295.683	80.004	19.993	103.335	19.416	37.212	0.473
439.500	295.936	80.005	19.994	103.335	19.408	37.694	0.479
440.000	296.216	80.004	19.995	103.335	19.404	37.968	0.511
440.500	296.419	80.005	19.993	103.335	19.405	37.890	0.508
441.000	296.703	80.003	19.994	103.335	19.404	38.001	0.485
441.500	296.904	80.005	19.995	103.335	19.403	38.064	0.486
442.000	297.150	80.003	19.994	103.335	19.400	38.254	0.465
442.500	297.436	80.005	19.994	103.335	19.397	38.439	0.489
443.000	297.674	80.005	19.995	103.334	19.395	38.579	0.528
443.500	297.957	80.006	19.993	103.335	19.394	38.651	0.523
444.000	298.198	80.004	19.994	103.336	19.391	38.833	0.522
444.500	298.430	80.005	19.993	103.337	19.388	39.037	0.498
445.000	298.661	80.006	19.995	103.337	19.384	39.274	0.468
445.500	298.922	80.005	19.993	103.343	19.384	39.293	0.478
446.000	299.196	80.006	19.993	103.344	19.380	39.564	0.514
446.500	299.437	80.004	19.993	103.344	19.379	39.586	0.525
447.000	299.662	80.006	19.993	103.343	19.379	39.630	0.490
447.500	299.929	80.004	19.994	103.343	19.378	39.697	0.479
448.000	300.208	80.005	19.993	103.338	19.375	39.863	0.519
448.500	300.467	80.005	19.994	103.335	19.374	39.932	0.542
449.000	300.705	80.005	19.993	103.334	19.369	40.235	0.518
449.500	300.933	80.005	19.994	103.338	19.364	40.586	0.482
450.000	301.204	80.005	19.993	103.342	19.365	40.522	0.483
450.500	301.442	80.004	19.995	103.348	19.361	40.756	0.504
451.000	301.706	80.006	19.994	103.352	19.360	40.877	0.505
451.500	301.932	80.005	19.994	103.353	19.357	41.039	0.496
452.000	302.153	80.004	19.995	103.352	19.354	41.246	0.469
452.500	302.439	80.005	19.994	103.350	19.352	41.371	0.477
453.000	302.700	80.005	19.994	103.348	19.351	41.432	0.527
453.500	302.952	80.005	19.994	103.344	19.351	41.425	0.530
454.000	303.251	80.004	19.994	103.346	19.345	41.808	0.532
454.500	303.459	80.005	19.996	103.349	19.344	41.873	0.529
455.000	303.694	80.004	19.995	103.348	19.341	42.070	0.475
455.500	303.976	80.004	19.995	103.347	19.338	42.290	0.480
456.000	304.231	80.005	19.994	103.350	19.339	42.205	0.527
456.500	304.493	80.004	19.994	103.349	19.336	42.449	0.527
457.000	304.706	80.003	19.995	103.345	19.337	42.351	0.496
457.500	304.939	80.004	19.995	103.347	19.332	42.662	0.460
458.000	305.196	80.004	19.995	103.350	19.332	42.702	0.468
458.500	305.431	80.004	19.996	103.351	19.329	42.858	0.491
459.000	305.706	80.003	19.995	103.354	19.326	43.055	0.501
459.500	306.014	80.004	19.995	103.357	19.326	43.074	0.547
460.000	306.227	80.004	19.995	103.356	19.323	43.294	0.552
460.500	306.509	80.005	19.995	103.357	19.320	43.473	0.508
461.000	306.751	80.004	19.996	103.356	19.320	43.456	0.509
461.500	307.027	80.005	19.995	103.355	19.317	43.680	0.520
462.000	307.280	80.005	19.994	103.354	19.314	43.850	0.523
462.500	307.531	80.005	19.995	103.356	19.314	43.861	0.517
463.000	307.763	80.003	19.996	103.352	19.313	43.910	0.494
463.500	308.001	80.004	19.996	103.356	19.312	43.971	0.477
464.000	308.262	80.004	19.995	103.358	19.305	44.464	0.484
464.500	308.507	80.005	19.995	103.361	19.303	44.603	0.502
465.000	308.779	80.006	19.995	103.363	19.306	44.392	0.512
465.500	309.021	80.005	19.996	103.364	19.301	44.707	0.516
466.000	309.291	80.004	19.996	103.363	19.301	44.744	0.513
466.500	309.516	80.004	19.995	103.365	19.297	44.982	0.503
467.000	309.779	80.006	19.995	103.365	19.295	45.092	0.491
467.500	310.004	80.005	19.995	103.365	19.294	45.156	0.488
468.000	310.294	80.007	19.995	103.366	19.293	45.220	0.501
468.500	310.552	80.007	19.994	103.367	19.289	45.522	0.531
469.000	310.795	80.005	19.995	103.366	19.288	45.573	0.524
469.500	311.035	80.006	19.996	103.366	19.288	45.575	0.492
470.000	311.328	80.007	19.995	103.367	19.284	45.806	0.509
470.500	311.586	80.007	19.995	103.368	19.281	46.040	0.542
471.000	311.822	80.006	19.995	103.367	19.279	46.167	0.522
471.500	312.096	80.007	19.995	103.367	19.277	46.305	0.502
472.000	312.389	80.006	19.995	103.366	19.278	46.204	0.539
472.500	312.611	80.008	19.995	103.366	19.277	46.320	0.541
473.000	312.892	80.006	19.994	103.366	19.276	46.336	0.509
473.500	313.128	80.005	19.994	103.368	19.270	46.731	0.510
474.000	313.399	80.006	19.995	103.369	19.269	46.803	0.511
474.500	313.678	80.007	19.994	103.369	19.267	46.908	0.528
475.000	313.921	80.007	19.994	103.369	19.265	47.080	0.536
475.500	314.158	80.005	19.995	103.369	19.262	47.295	0.502
476.000	314.361	80.007	19.995	103.368	19.263	47.237	0.460
476.500	314.685	80.005	19.994	103.368	19.256	47.668	0.483
477.000	314.940	80.007	19.995	103.366	19.255	47.709	0.553
477.500	315.203	80.006	19.994	103.366	19.256	47.670	0.548
478.000	315.471	80.005	19.995	103.366	19.252	47.950	0.524
478.500	315.671	80.006	19.994	103.367	19.251	47.968	0.499
479.000	315.927	80.006	19.995	103.367	19.248	48.193	0.462
479.500	316.179	80.005	19.994	103.370	19.247	48.241	0.482
480.000	316.479	80.006	19.995	103.370	19.243	48.512	0.530
480.500	316.685	80.006	19.995	103.371	19.246	48.340	0.529
481.000	316.963	80.005	19.995	103.372	19.245	48.413	0.495
481.500	317.215	80.005	19.996	103.374	19.241	48.654	0.506
482.000	317.479	80.006	19.995	103.375	19.241	48.686	0.523
482.500	317.716	80.004	19.996	103.377	19.235	49.037	0.509
483.000	317.985	80.005	19.995	103.376	19.232	49.233	0.504
483.500	318.246	80.005	19.995	103.376	19.229	49.435	0.518
484.000	318.524	80.005	19.995	103.373	19.229	49.421	0.535
484.500	318.741	80.005	19.994	103.371	19.229	49.435	0.517
485.000	318.979	80.006	19.994	103.369	19.226	49.640	0.475
485.500	319.249	80.005	19.994	103.371	19.223	49.859	0.481
486.000	319.494	80.005	19.996	103.373	19.222	49.887	0.512
486.500	319.736	80.006	19.996	103.377	19.220	50.063	0.502
487.000	320.020	80.006	19.995	103.380	19.217	50.212	0.507
487.500	320.257	80.005	19.994	103.379	19.214	50.437	0.523
488.000	320.512	80.005	19.995	103.379	19.213	50.488	0.506
488.500	320.752	80.005	19.996	103.377	19.212	50.582	0.494
489.000	321.012	80.004	19.996	103.374	19.208	50.804	0.498
489.500	321.271	80.005	19.996	103.372	19.203	51.125	0.510
490.000	321.533	80.005	19.994	103.373	19.204	51.079	0.520
490.500	321.779	80.005	19.996	103.376	19.200	51.371	0.514
491.000	321.974	80.005	19.994	103.381	19.196	51.585	0.474
491.500	322.275	80.005	19.995	103.387	19.196	51.619	0.469
492.000	322.541	80.005	19.995	103.391	19.192	51.878	0.532
492.500	322.776	80.006	19.996	103.398	19.190	52.014	0.534
493.000	323.020	80.005	19.995	103.399	19.188	52.146	0.490
493.500	323.312	80.007	19.995	103.399	19.180	52.636	0.507
494.000	323.516	80.006	19.995	103.398	19.180	52.682	0.515
494.500	323.804	80.007	19.996	103.399	19.180	52.638	0.493
495.000	324.034	80.006	19.995	103.400	19.174	53.023	0.505
495.500	324.321	80.006	19.995	103.403	19.173	53.141	0.518
496.000	324.538	80.007	19.995	103.406	19.169	53.383	0.511
496.500	324.817	80.005	19.995	103.408	19.165	53.676	0.500
497.000	325.041	80.007	19.995	103.408	19.161	53.878	0.499
497.500	325.289	80.006	19.996	103.408	19.163	53.789	0.487
498.000	325.581	80.007	19.995	103.407	19.162	53.851	0.506
498.500	325.792	80.007	19.996	103.406	19.157	54.154	0.521
499.000	326.109	80.008	19.995	103.403	19.155	54.270	0.516
499.500	326.291	80.007	19.994	103.404	19.154	54.391	0.514
500.000	326.583	80.008	19.994	103.403	19.147	54.791	0.486
500.500	326.825	80.007	19.994	103.403	19.141	55.194	0.504
501.000	327.080	80.007	19.995	103.405	19.139	55.322	0.515
501.500	327.313	80.007	19.995	103.408	19.135	55.594	0.493
502.000	327.577	80.008	19.994	103.408	19.132	55.807	0.492
502.501	327.828	80.007	19.994	103.408	19.133	55.761	0.506
503.000	328.076	80.007	19.995	103.408	19.128	56.059	0.507
503.500	328.332	80.006	19.995	103.409	19.126	56.238	0.502
504.000	328.562	80.008	19.994	103.409	19.121	56.521	0.495
504.500	328.825	80.006	19.996	103.414	19.118	56.719	0.489
505.000	329.081	80.007	19.994	103.420	19.113	57.065	0.506
505.500	329.341	80.007	19.994	103.426	19.110	57.225	0.517
506.000	329.583	80.007	19.994	103.428	19.104	57.624	0.509
506.500	329.868	80.006	19.993	103.428	19.101	57.830	0.514
507.000	330.074	80.006	19.994	103.428	19.098	58.018	0.509
507.500	330.315	80.006	19.994	103.430	19.094	58.275	0.469
508.000	330.581	80.006	19.994	103.431	19.092	58.404	0.478
508.500	330.838	80.005	19.994	103.431	19.089	58.613	0.515
509.000	331.059	80.005	19.994	103.434	19.084	58.944	0.500
509.500	331.310	80.005	19.994	103.431	19.084	58.982	0.475
510.000	331.582	80.005	19.994	103.429	19.082	59.114	0.497
510.500	331.821	80.005	19.995	103.428	19.075	59.570	0.517
511.000	332.070	80.005	19.995	103.433	19.073	59.701	0.500
511.500	332.332	80.004	19.993	103.435	19.066	60.139	0.500
512.000	332.603	80.005	19.994	103.437	19.062	60.383	0.521
512.500	332.864	80.005	19.994	103.439	19.061	60.437	0.532
513.000	333.089	80.004	19.994	103.442	19.056	60.830	0.510
513.500	333.338	80.005	19.993	103.444	19.051	61.116	0.480
514.000	333.590	80.004	19.994	103.445	19.046	61.460	0.487
514.500	333.864	80.005	19.994	103.448	19.045	61.503	0.513
515.000	334.090	80.004	19.994	103.448	19.039	61.927	0.513
515.500	334.360	80.005	19.994	103.448	19.035	62.158	0.499
516.000	334.619	80.005	19.994	103.447	19.032	62.351	0.513
516.500	334.867	80.006	19.994	103.448	19.028	62.641	0.518
517.000	335.137	80.005	19.994	103.449	19.025	62.813	0.513
517.500	335.374	80.006	19.994	103.448	19.019	63.240	0.512
518.000	335.627	80.006	19.993	103.448	19.016	63.457	0.498
518.500	335.863	80.005	19.994	103.448	19.012	63.662	0.490
519.000	336.101	80.006	19.994	103.448	19.006	64.067	0.482
519.500	336.375	80.005	19.994	103.449	19.002	64.329	0.493
520.001	336.636	80.005	19.994	103.450	18.998	64.610	0.523
520.500	336.888	80.006	19.994	103.450	18.993	64.963	0.524
521.000	337.112	80.004	19.994	103.450	18.988	65.252	0.495
521.500	337.355	80.006	19.995	103.451	18.987	65.360	0.472
522.000	337.608	80.006	19.995	103.453	18.983	65.623	0.482
522.500	337.871	80.005	19.994	103.452	18.978	65.902	0.506
523.000	338.148	80.006	19.994	103.454	18.973	66.241	0.528
523.500	338.408	80.005	19.994	103.459	18.971	66.383	0.538
524.000	338.670	80.005	19.994	103.462	18.964	66.848	0.529
524.500	338.904	80.006	19.994	103.464	18.961	67.060	0.509
525.000	339.170	80.006	19.995	103.471	18.957	67.270	0.498
525.500	339.388	80.007	19.995	103.475	18.952	67.630	0.492
526.000	339.654	80.007	19.994	103.475	18.947	67.929	0.483
526.500	339.898	80.006	19.994	103.478	18.943	68.227	0.497
527.000	340.143	80.006	19.994	103.478	18.937	68.608	0.500
527.500	340.380	80.005	19.994	103.479	18.934	68.804	0.485
528.000	340.622	80.005	19.994	103.479	18.932	68.959	0.481
528.500	340.902	80.006	19.995	103.479	18.926	69.309	0.500
529.000	341.156	80.007	19.995	103.480	18.924	69.473	0.528
529.500	341.370	80.005	19.995	103.483	18.919	69.776	0.501
530.000	341.683	80.007	19.994	103.484	18.913	70.167	0.497
530.500	341.921	80.004	19.995	103.485	18.910	70.383	0.538
531.000	342.189	80.006	19.995	103.487	18.907	70.575	0.528
531.500	342.431	80.004	19.995	103.487	18.904	70.748	0.508
532.000	342.669	80.004	19.995	103.488	18.901	70.974	0.495
532.500	342.931	80.005	19.994	103.488	18.894	71.435	0.490
533.000	343.175	80.004	19.995	103.489	18.895	71.361	0.504
533.500	343.399	80.005	19.993	103.489	18.887	71.916	0.487
534.000	343.667	80.005	19.996	103.489	18.886	71.979	0.480
534.500	343.878	80.005	19.994	103.490	18.878	72.480	0.485
535.000	344.155	80.004	19.996	103.490	18.878	72.453	0.483
535.500	344.364	80.005	19.994	103.490	18.873	72.809	0.487
536.000	344.678	80.006	19.995	103.492	18.870	73.017	0.505
536.500	344.922	80.006	19.993	103.493	18.864	73.421	0.541
537.000	345.157	80.005	19.995	103.494	18.864	73.398	0.519
537.500	345.419	80.006	19.995	103.493	18.858	73.757	0.488
538.000	345.672	80.005	19.995	103.493	18.855	74.012	0.506
538.500	345.932	80.005	19.995	103.493	18.853	74.102	0.514
539.000	346.157	80.005	19.994	103.496	18.849	74.386	0.499
539.500	346.390	80.005	19.996	103.496	18.846	74.601	0.471
540.000	346.641	80.005	19.995	103.497	18.842	74.808	0.470
540.500	346.873	80.007	19.996	103.500	18.841	74.871	0.483
541.000	347.158	80.004	19.995	103.502	18.830	75.623	0.500
541.500	347.402	80.007	19.994	103.505	18.836	75.223	0.523
542.000	347.655	80.005	19.995	103.506	18.827	75.799	0.513
542.500	347.894	80.006	19.995	103.506	18.822	76.160	0.495
543.000	348.170	80.005	19.995	103.505	18.820	76.279	0.504
543.500	348.434	80.004	19.994	103.501	18.818	76.387	0.527
544.000	348.645	80.006	19.994	103.493	18.821	76.180	0.507
544.500	348.919	80.004	19.995	103.493	18.815	76.614	0.480
545.000	349.162	80.005	19.994	103.493	18.814	76.684	0.501
545.500	349.409	80.004	19.994	103.491	18.811	76.877	0.504
546.000	349.687	80.006	19.994	103.492	18.808	77.039	0.508
546.500	349.969	80.005	19.994	103.493	18.809	77.006	0.542
547.000	350.174	80.005	19.995	103.495	18.805	77.270	0.523
547.500	350.434	80.005	19.994	103.494	18.805	77.225	0.476
548.000	350.674	80.004	19.994	103.495	18.802	77.476	0.483
548.500	350.944	80.005	19.994	103.497	18.800	77.547	0.505
549.000	351.240	80.005	19.994	103.501	18.796	77.856	0.538
549.501	351.465	80.005	19.994	103.498	18.795	77.920	0.543
550.000	351.716	80.005	19.994	103.498	18.793	78.014	0.499
550.500	351.958	80.005	19.995	103.497	18.788	78.352	0.485
551.000	352.186	80.006	19.994	103.495	18.789	78.299	0.482
551.500	352.439	80.006	19.993	103.489	18.788	78.331	0.475
552.000	352.682	80.006	19.994	103.490	18.786	78.483	0.488
552.500	352.942	80.005	19.994	103.490	18.788	78.366	0.500
553.000	353.172	80.005	19.994	103.490	18.786	78.501	0.497
553.500	353.486	80.007	19.994	103.490	18.785	78.573	0.517
554.000	353.713	80.007	19.994	103.490	18.783	78.678	0.543
554.500	354.093	80.005	19.995	103.489	18.781	78.794	0.574
555.000	354.233	80.006	19.993	103.488	18.782	78.725	0.563
555.500	354.691	80.005	19.995	103.489	18.783	78.662	0.559
556.000	354.597	80.006	19.994	103.488	18.784	78.571	0.481
556.500	355.104	80.006	19.993	103.488	18.785	78.528	0.388
557.000	355.128	80.007	19.994	103.488	18.785	78.513	0.471
557.500	355.246	80.004	19.995	103.489	18.788	78.351	0.336
558.000	356.009	80.006	19.995	103.488	18.788	78.326	0.512
558.500	355.862	80.005	19.995	103.489	18.788	78.297	0.749
559.000	356.290	80.006	19.993	103.489	18.790	78.153	0.449
559.500	356.601	80.005	19.994	103.489	18.788	78.335	0.510
560.000	356.731	80.006	19.995	103.488	18.791	78.120	0.590
560.500	357.068	80.006	19.995	103.487	18.795	77.838	0.454
561.000	357.241	80.005	19.995	103.486	18.791	78.109	0.488
561.500	357.525	80.006	19.993	103.484	18.794	77.885	0.483
562.000	357.837	80.004	19.994	103.478	18.797	77.733	0.526
562.500	358.062	80.005	19.994	103.475	18.799	77.558	0.567
563.000	358.275	80.006	19.995	103.471	18.804	77.270	0.488
563.500	358.509	80.005	19.994	103.469	18.806	77.075	0.443
564.000	358.825	80.006	19.995	103.465	18.807	77.050	0.498
564.500	359.052	80.004	19.995	103.463	18.811	76.775	0.546
565.000	359.299	80.004	19.995	103.460	18.816	76.483	0.508
565.500	359.576	80.005	19.995	103.456	18.820	76.196	0.499
566.000	359.797	80.005	19.995	103.453	18.821	76.109	0.511
566.500	360.044	80.006	19.994	103.448	18.826	75.783	0.483
567.000	360.321	80.005	19.996	103.443	18.830	75.529	0.496
567.500	360.557	80.005	19.994	103.441	18.835	75.183	0.518
568.000	360.820	80.004	19.995	103.438	18.840	74.859	0.506
568.500	361.023	80.004	19.994	103.430	18.845	74.522	0.483
569.000	361.322	80.005	19.994	103.425	18.849	74.259	0.484
569.500	361.537	80.004	19.995	103.423	18.855	73.878	0.508
570.000	361.792	80.006	19.993	103.416	18.862	73.410	0.492
570.500	362.054	80.004	19.994	103.414	18.865	73.200	0.493
571.000	362.371	80.004	19.994	103.414	18.873	72.677	0.548
571.500	362.571	80.007	19.995	103.414	18.878	72.318	0.548
572.000	362.818	80.006	19.995	103.413	18.885	71.860	0.482
572.500	363.080	80.006	19.995	103.406	18.889	71.608	0.478
573.000	363.308	80.005	19.995	103.397	18.897	71.061	0.499
573.500	363.555	80.006	19.994	103.390	18.903	70.718	0.483
574.000	363.825	80.005	19.995	103.383	18.911	70.193	0.496
574.500	364.083	80.006	19.994	103.381	18.921	69.521	0.522
575.000	364.328	80.006	19.994	103.382	18.927	69.131	0.515
575.500	364.544	80.005	19.994	103.383	18.934	68.670	0.482
576.000	364.834	80.006	19.994	103.381	18.943	68.037	0.483
576.500	365.058	80.006	19.994	103.380	18.949	67.651	0.510
577.000	365.310	80.005	19.994	103.372	18.958	67.055	0.495
577.500	365.618	80.006	19.994	103.364	18.966	66.525	0.518
578.000	365.835	80.007	19.995	103.361	18.977	65.823	0.542
578.500	366.057	80.007	19.994	103.356	18.985	65.339	0.482
579.000	366.396	80.007	19.995	103.352	18.995	64.660	0.501
579.500	366.581	80.007	19.994	103.347	19.005	63.976	0.543
580.000	366.854	80.007	19.993	103.344	19.014	63.407	0.491
580.500	367.119	80.007	19.994	103.338	19.025	62.676	0.498
581.000	367.360	80.007	19.995	103.334	19.033	62.188	0.522
581.500	367.620	80.007	19.995	103.329	19.046	61.333	0.503
582.000	367.882	80.007	19.995	103.324	19.056	60.624	0.511
582.500	368.115	80.007	19.993	103.316	19.065	60.037	0.509
583.000	368.357	80.006	19.995	103.309	19.075	59.405	0.485
583.500	368.634	80.006	19.995	103.301	19.085	58.761	0.497
584.000	368.865	80.008	19.995	103.294	19.095	58.112	0.514
584.500	369.164	80.007	19.994	103.289	19.109	57.157	0.519
585.000	369.433	80.007	19.995	103.287	19.117	56.626	0.549
585.500	369.634	80.007	19.995	103.285	19.132	55.695	0.519
586.000	369.915	80.006	19.995	103.278	19.142	54.993	0.476
586.500	370.175	80.008	19.995	103.270	19.156	54.129	0.512
587.001	370.436	80.006	19.995	103.263	19.166	53.469	0.531
587.500	370.640	80.006	19.995	103.256	19.177	52.718	0.493
588.000	370.898	80.006	19.995	103.250	19.191	51.843	0.463
588.500	371.161	80.006	19.995	103.247	19.199	51.299	0.492
589.000	371.415	80.006	19.996	103.246	19.212	50.442	0.519
589.500	371.686	80.005	19.997	103.246	19.224	49.680	0.521
590.000	371.956	80.006	19.996	103.244	19.236	48.884	0.533
590.500	372.175	80.004	19.996	103.241	19.249	48.048	0.515
591.000	372.442	80.003	19.996	103.240	19.260	47.294	0.487
591.500	372.672	80.005	19.996	103.237	19.270	46.667	0.491
592.000	372.958	80.005	19.996	103.230	19.285	45.652	0.507
592.500	373.176	80.005	19.996	103.224	19.295	44.988	0.511
593.000	373.439	80.005	19.996	103.216	19.307	44.256	0.493
593.500	373.693	80.004	19.996	103.211	19.316	43.633	0.499
594.000	374.003	80.004	19.996	103.208	19.330	42.723	0.540
594.500	374.226	80.004	19.995	103.203	19.343	41.907	0.549
595.000	374.489	80.004	19.995	103.198	19.354	41.147	0.510
595.500	374.733	80.004	19.996	103.195	19.367	40.306	0.496
596.000	375.013	80.005	19.996	103.189	19.376	39.715	0.515
596.500	375.263	80.005	19.996	103.183	19.387	39.035	0.527
597.000	375.538	80.005	19.995	103.179	19.399	38.207	0.528
597.500	375.730	80.005	19.995	103.177	19.413	37.339	0.496
598.000	376.024	80.005	19.996	103.175	19.423	36.623	0.477
598.500	376.293	80.005	19.995	103.174	19.435	35.856	0.525
599.000	376.507	80.005	19.996	103.172	19.445	35.223	0.523
599.500	376.772	80.004	19.995	103.172	19.456	34.470	0.481
600.000	377.049	80.006	19.995	103.171	19.468	33.702	0.511
600.500	377.288	80.004	19.994	103.171	19.478	33.050	0.529
601.000	377.533	80.006	19.994	103.168	19.490	32.260	0.500
601.500	377.772	80.004	19.994	103.166	19.501	31.532	0.484
602.000	378.029	80.005	19.994	103.163	19.512	30.865	0.490
602.500	378.279	80.006	19.993	103.160	19.521	30.277	0.502
603.000	378.546	80.005	19.994	103.153	19.532	29.550	0.512
603.500	378.795	80.005	19.995	103.149	19.540	29.027	0.516
604.000	379.010	80.005	19.995	103.148	19.549	28.455	0.490
604.500	379.298	80.006	19.994	103.149	19.557	27.885	0.484
605.000	379.524	80.004	19.994	103.145	19.565	27.374	0.508
605.500	379.786	80.005	19.996	103.146	19.575	26.733	0.501
606.000	380.043	80.005	19.994	103.148	19.585	26.090	0.504
606.500	380.304	80.005	19.995	103.146	19.593	25.534	0.519
607.000	380.538	80.005	19.994	103.145	19.599	25.141	0.507
607.500	380.792	80.005	19.995	103.148	19.610	24.467	0.491
608.000	381.074	80.007	19.993	103.148	19.616	24.068	0.512
608.500	381.255	80.005	19.994	103.146	19.623	23.588	0.500
609.000	381.540	80.005	19.994	103.145	19.633	22.962	0.465
609.500	381.781	80.006	19.993	103.142	19.635	22.820	0.496
610.000	382.046	80.005	19.994	103.139	19.643	22.309	0.515
610.500	382.312	80.006	19.994	103.138	19.648	21.980	0.518
611.000	382.547	80.005	19.995	103.137	19.656	21.441	0.516
611.500	382.784	80.005	19.994	103.135	19.662	21.046	0.487
612.000	383.081	80.006	19.994	103.134	19.668	20.663	0.503
612.500	383.314	80.005	19.995	103.133	19.675	20.221	0.532
613.000	383.552	80.006	19.994	103.133	19.677	20.053	0.501
613.500	383.800	80.005	19.994	103.133	19.684	19.598	0.478
614.000	384.079	80.006	19.994	103.134	19.687	19.402	0.506
614.500	384.323	80.004	19.994	103.134	19.696	18.861	0.525
615.000	384.560	80.006	19.994	103.134	19.698	18.703	0.502
615.500	384.814	80.004	19.993	103.135	19.702	18.409	0.486
616.000	385.080	80.005	19.994	103.136	19.710	17.939	0.506
616.500	385.329	80.005	19.994	103.137	19.709	17.972	0.518
617.000	385.576	80.005	19.993	103.137	19.714	17.634	0.506
617.500	385.808	80.005	19.994	103.137	19.719	17.329	0.487
618.000	386.030	80.005	19.994	103.137	19.720	17.271	0.466
618.500	386.282	80.006	19.994	103.136	19.726	16.887	0.464
619.000	386.535	80.005	19.993	103.135	19.729	16.700	0.489
619.500	386.817	80.005	19.995	103.135	19.730	16.645	0.519
620.000	387.045	80.005	19.994	103.135	19.732	16.506	0.522
620.500	387.331	80.005	19.994	103.134	19.739	16.035	0.512
621.000	387.531	80.006	19.995	103.135	19.740	15.945	0.500
621.500	387.785	80.006	19.994	103.135	19.743	15.745	0.470
622.000	388.034	80.004	19.994	103.136	19.744	15.679	0.479
622.501	388.305	80.004	19.994	103.136	19.745	15.647	0.511
623.001	388.577	80.004	19.994	103.137	19.748	15.430	0.531
623.500	388.780	80.005	19.995	103.137	19.749	15.364	0.509
624.000	389.045	80.005	19.995	103.137	19.756	14.888	0.471
624.500	389.291	80.003	19.995	103.137	19.755	14.988	0.490
625.000	389.526	80.005	19.995	103.136	19.763	14.441	0.497
625.500	389.792	80.004	19.995	103.136	19.763	14.432	0.491
626.000	390.003	80.005	19.994	103.137	19.763	14.480	0.489
626.500	390.287	80.004	19.995	103.137	19.760	14.678	0.486
627.000	390.512	80.003	19.994	103.137	19.764	14.365	0.502
627.500	390.772	80.003	19.994	103.137	19.766	14.274	0.497
628.000	391.030	80.004	19.994	103.137	19.769	14.087	0.502
628.500	391.281	80.005	19.994	103.137	19.770	14.033	0.514
629.000	391.534	80.005	19.996	103.137	19.768	14.133	0.506
629.500	391.778	80.006	19.994	103.136	19.771	13.965	0.500
630.000	392.033	80.006	19.995	103.136	19.772	13.872	0.498
630.500	392.269	80.004	19.994	103.136	19.770	14.029	0.495
631.000	392.510	80.003	19.995	103.136	19.773	13.810	0.484
631.500	392.774	80.006	19.994	103.136	19.775	13.703	0.491
632.000	393.017	80.005	19.994	103.137	19.778	13.481	0.506
632.500	393.281	80.005	19.994	103.136	19.778	13.473	0.507
633.000	393.508	80.005	19.995	103.134	19.778	13.452	0.499
633.500	393.757	80.005	19.994	103.134	19.779	13.389	0.484
634.000	394.054	80.004	19.994	103.134	19.781	13.279	0.511
634.500	394.289	80.006	19.994	103.134	19.779	13.415	0.539
635.000	394.556	80.004	19.995	103.134	19.780	13.355	0.517
635.500	394.793	80.006	19.992	103.136	19.779	13.415	0.503
636.000	395.048	80.006	19.994	103.136	19.780	13.325	0.498
636.500	395.305	80.006	19.993	103.135	19.782	13.229	0.502
637.000	395.536	80.006	19.994	103.134	19.783	13.186	0.500
637.500	395.769	80.006	19.994	103.137	19.786	12.940	0.476
638.000	396.050	80.006	19.993	103.136	19.782	13.229	0.489
638.500	396.246	80.007	19.994	103.134	19.783	13.158	0.495
639.000	396.546	80.007	19.994	103.130	19.785	13.051	0.486
639.500	396.760	80.006	19.994	103.131	19.786	12.965	0.505
640.000	397.107	80.007	19.994	103.130	19.786	12.987	0.538
640.500	397.278	80.007	19.993	103.131	19.781	13.282	0.539
641.000	397.504	80.007	19.993	103.133	19.783	13.160	0.458
641.500	397.798	80.008	19.994	103.138	19.785	12.994	0.458
642.000	398.051	80.007	19.995	103.138	19.785	13.033	0.533
642.500	398.289	80.007	19.995	103.139	19.784	13.119	0.519
643.000	398.536	80.008	19.994	103.139	19.789	12.768	0.488
643.500	398.755	80.007	19.994	103.139	19.788	12.847	0.476
644.000	399.016	80.008	19.993	103.140	19.786	12.965	0.473
644.500	399.284	80.007	19.994	103.140	19.787	12.889	0.504
645.000	399.523	80.006	19.994	103.140	19.786	12.962	0.518
645.500	399.769	80.007	19.994	103.139	19.788	12.829	0.496
646.000	400.088	80.007	19.994	103.138	19.793	12.507	0.525
646.500	400.280	80.008	19.994	103.137	19.792	12.572	0.538
647.000	400.521	80.008	19.994	103.136	19.793	12.486	0.472
647.500	400.809	80.007	19.994	103.134	19.794	12.442	0.481
648.000	401.003	80.005	19.995	103.133	19.789	12.775	0.505
648.500	401.256	80.007	19.993	103.133	19.792	12.577	0.465
649.000	401.509	80.007	19.994	103.132	19.791	12.626	0.477
649.500	401.742	80.007	19.994	103.133	19.792	12.548	0.496
650.000	402.013	80.004	19.995	103.135	19.793	12.476	0.495
650.500	402.228	80.006	19.995	103.137	19.792	12.566	0.495
651.000	402.533	80.006	19.995	103.137	19.793	12.500	0.502
651.500	402.750	80.006	19.996	103.136	19.793	12.488	0.521
652.000	402.985	80.007	19.995	103.136	19.795	12.377	0.487
652.500	403.244	80.006	19.996	103.134	19.796	12.326	0.473
653.000	403.492	80.006	19.996	103.131	19.794	12.456	0.501
653.500	403.728	80.005	19.995	103.129	19.792	12.595	0.496
654.000	403.987	80.007	19.994	103.127	19.795	12.345	0.490
654.500	404.214	80.006	19.994	103.127	19.794	12.441	0.490
655.000	404.443	80.007	19.995	103.128	19.793	12.503	0.471
655.500	404.689	80.006	19.995	103.129	19.794	12.408	0.465
656.000	404.945	80.005	19.994	103.132	19.794	12.461	0.489
656.500	405.177	80.007	19.995	103.132	19.794	12.436	0.495
657.000	405.422	80.006	19.995	103.132	19.795	12.354	0.482
657.500	405.674	80.006	19.995	103.130	19.795	12.390	0.486
658.000	405.951	80.006	19.995	103.130	19.796	12.335	0.513
658.500	406.244	80.006	19.996	103.129	19.793	12.479	0.550
659.000	406.428	80.006	19.996	103.130	19.794	12.420	0.524
659.500	406.671	80.007	19.995	103.130	19.796	12.295	0.452
660.000	406.962	80.007	19.996	103.133	19.798	12.156	0.480
660.500	407.221	80.007	19.995	103.133	19.799	12.099	0.542
661.000	407.459	80.007	19.995	103.134	19.797	12.235	0.523
661.500	407.682	80.007	19.994	103.134	19.799	12.111	0.479
662.000	407.919	80.007	19.995	103.133	19.799	12.122	0.461
662.500	408.176	80.007	19.995	103.133	19.798	12.160	0.477
663.000	408.436	80.007	19.994	103.132	19.800	12.013	0.505
663.500	408.677	80.006	19.995	103.133	19.802	11.890	0.509
664.000	408.922	80.008	19.995	103.132	19.799	12.084	0.494
664.500	409.195	80.008	19.995	103.132	19.799	12.111	0.502
665.001	409.427	80.008	19.994	103.132	19.799	12.141	0.512
665.500	409.689	80.007	19.993	103.132	19.802	11.918	0.499
666.000	409.946	80.008	19.994	103.132	19.800	12.041	0.506
666.500	410.163	80.008	19.995	103.132	19.801	11.961	0.496
667.000	410.427	80.009	19.996	103.132	19.801	11.947	0.477
667.500	410.682	80.008	19.994	103.132	19.800	12.012	0.500
668.000	410.927	80.008	19.995	103.132	19.800	12.045	0.510
668.500	411.197	80.008	19.995	103.132	19.802	11.896	0.508
669.000	411.426	80.008	19.995	103.132	19.805	11.728	0.507
669.500	411.664	80.007	19.995	103.132	19.804	11.763	0.482
670.000	411.927	80.007	19.995	103.131	19.802	11.912	0.484
670.500	412.193	80.007	19.994	103.132	19.805	11.705	0.515
671.000	412.387	80.007	19.996	103.131	19.808	11.490	0.495
671.500	412.677	80.007	19.995	103.132	19.806	11.627	0.472
672.000	412.923	80.006	19.995	103.132	19.806	11.663	0.510
672.500	413.162	80.007	19.995	103.132	19.804	11.762	0.510
673.000	413.393	80.006	19.995	103.132	19.807	11.583	0.478
673.500	413.642	80.006	19.995	103.132	19.804	11.758	0.475
674.000	413.912	80.007	19.995	103.131	19.807	11.578	0.499
674.500	414.176	80.006	19.995	103.130	19.807	11.597	0.527
675.000	414.406	80.005	19.994	103.131	19.807	11.575	0.515
675.500	414.661	80.007	19.995	103.131	19.805	11.739	0.490
676.000	414.926	80.006	19.996	103.132	19.806	11.646	0.502
676.500	415.182	80.006	19.997	103.133	19.805	11.736	0.520
677.000	415.410	80.006	19.995	103.133	19.806	11.633	0.503
677.500	415.671	80.006	19.995	103.133	19.806	11.621	0.486
678.000	415.934	80.006	19.996	103.131	19.811	11.356	0.506
678.500	416.152	80.005	19.995	103.126	19.805	11.731	0.503
679.000	416.462	80.005	19.994	103.125	19.806	11.630	0.505
679.500	416.663	80.006	19.996	103.126	19.807	11.611	0.520
680.000	416.921	80.006	19.995	103.125	19.809	11.478	0.485
680.500	417.164	80.005	19.994	103.128	19.806	11.634	0.480
681.000	417.471	80.005	19.996	103.134	19.806	11.639	0.525
681.500	417.700	80.004	19.996	103.134	19.809	11.472	0.543
682.000	417.951	80.005	19.995	103.134	19.809	11.443	0.508
682.500	418.236	80.005	19.995	103.134	19.808	11.549	0.508
683.000	418.504	80.005	19.995	103.133	19.807	11.564	0.544
683.500	418.736	80.005	19.995	103.133	19.806	11.682	0.527
684.000	419.002	80.005	19.996	103.134	19.805	11.694	0.499
684.500	419.248	80.005	19.995	103.135	19.807	11.575	0.505
685.000	419.525	80.005	19.995	103.135	19.805	11.687	0.518
685.500	419.752	80.004	19.995	103.136	19.810	11.420	0.514
686.000	420.040	80.005	19.996	103.137	19.808	11.545	0.509
686.500	420.259	80.004	19.996	103.135	19.807	11.596	0.511
687.000	420.556	80.005	19.995	103.134	19.806	11.635	0.512
687.500	420.828	80.004	19.995	103.134	19.805	11.745	0.543
688.000	421.065	80.004	19.996	103.134	19.807	11.620	0.539
688.500	421.309	80.003	19.996	103.133	19.807	11.561	0.495
689.000	421.572	80.003	19.996	103.134	19.806	11.667	0.494
689.500	421.803	80.005	19.996	103.135	19.810	11.408	0.500
690.000	422.082	80.004	19.997	103.135	19.807	11.577	0.502
690.500	422.303	80.004	19.995	103.136	19.807	11.620	0.505
691.000	422.566	80.004	19.996	103.137	19.809	11.457	0.492
691.500	422.835	80.004	19.996	103.137	19.809	11.474	0.508
692.000	423.076	80.005	19.995	103.135	19.810	11.421	0.521
692.500	423.334	80.005	19.995	103.135	19.810	11.363	0.505
693.000	423.577	80.005	19.995	103.135	19.810	11.398	0.500
693.500	423.854	80.007	19.995	103.134	19.810	11.401	0.510
694.000	424.142	80.005	19.996	103.135	19.807	11.585	0.542
694.500	424.388	80.006	19.995	103.136	19.812	11.277	0.550
695.000	424.603	80.005	19.997	103.136	19.811	11.298	0.498
695.500	424.898	80.006	19.996	103.136	19.811	11.301	0.486
696.000	425.129	80.006	19.994	103.136	19.811	11.326	0.518
696.500	425.380	80.006	19.995	103.135	19.811	11.351	0.504
697.000	425.658	80.005	19.995	103.135	19.811	11.313	0.505
697.500	425.918	80.006	19.996	103.135	19.809	11.443	0.533
698.000	426.158	80.006	19.995	103.135	19.814	11.102	0.519
698.500	426.401	80.006	19.995	103.135	19.811	11.356	0.492
699.000	426.680	80.005	19.995	103.135	19.812	11.284	0.503
699.500	426.927	80.006	19.994	103.135	19.813	11.190	0.524
700.000	427.209	80.006	19.995	103.136	19.814	11.125	0.528
700.500	427.421	80.006	19.995	103.136	19.814	11.149	0.512
701.000	427.690	80.005	19.995	103.136	19.815	11.086	0.488
701.500	427.933	80.006	19.995	103.137	19.809	11.428	0.496
702.000	428.200	80.005	19.995	103.137	19.813	11.190	0.511
702.500	428.462	80.005	19.995	103.137	19.816	10.992	0.519
703.000	428.739	80.006	19.994	103.137	19.815	11.044	0.534
703.500	428.994	80.006	19.993	103.134	19.815	11.096	0.536
704.000	429.240	80.005	19.994	103.134	19.811	11.354	0.517
704.500	429.485	80.005	19.994	103.134	19.811	11.334	0.496
705.000	429.775	80.004	19.995	103.135	19.812	11.247	0.513
705.500	430.039	80.004	19.994	103.135	19.813	11.180	0.544
706.000	430.304	80.004	19.995	103.137	19.814	11.128	0.541
706.500	430.530	80.005	19.994	103.138	19.811	11.320	0.510
707.000	430.794	80.005	19.993	103.138	19.813	11.204	0.491
707.500	431.018	80.005	19.994	103.137	19.812	11.289	0.489
708.000	431.307	80.005	19.995	103.136	19.815	11.069	0.501
708.500	431.532	80.004	19.994	103.134	19.813	11.167	0.514
709.000	431.803	80.003	19.995	103.135	19.813	11.209	0.505
709.500	432.069	80.003	19.995	103.134	19.814	11.125	0.516
710.000	432.315	80.005	19.995	103.136	19.815	11.033	0.524
710.500	432.592	80.004	19.996	103.136	19.815	11.081	0.518
711.000	432.866	80.005	19.994	103.139	19.820	10.708	0.537
711.500	433.102	80.004	19.995	103.138	19.818	10.847	0.531
712.000	433.335	80.005	19.994	103.138	19.818	10.848	0.489
712.500	433.636	80.005	19.994	103.137	19.815	11.078	0.501
713.000	433.872	80.004	19.995	103.136	19.816	10.971	0.535
713.500	434.114	80.005	19.995	103.131	19.817	10.948	0.508
714.000	434.360	80.004	19.994	103.131	19.818	10.851	0.483
714.500	434.628	80.005	19.993	103.131	19.818	10.877	0.501
715.000	434.891	80.004	19.994	103.131	19.818	10.896	0.523
715.500	435.163	80.004	19.995	103.133	19.815	11.043	0.533
716.000	435.381	80.004	19.996	103.137	19.817	10.911	0.512
716.500	435.633	80.005	19.996	103.136	19.821	10.702	0.480
717.000	435.902	80.005	19.994	103.136	19.820	10.754	0.496
717.500	436.155	80.005	19.994	103.136	19.820	10.753	0.522
718.000	436.400	80.006	19.995	103.135	19.821	10.701	0.510
718.500	436.682	80.004	19.995	103.134	19.822	10.630	0.512
719.000	436.895	80.005	19.997	103.134	19.823	10.512	0.511
719.500	437.169	80.005	19.995	103.135	19.820	10.720	0.491
720.000	437.423	80.005	19.996	103.132	19.821	10.654	0.507
720.500	437.656	80.004	19.994	103.130	19.821	10.654	0.508
721.000	437.915	80.004	19.996	103.123	19.822	10.628	0.490
721.500	438.158	80.006	19.994	103.118	19.822	10.630	0.497
722.000	438.402	80.007	19.994	103.114	19.825	10.413	0.494
722.500	438.680	80.006	19.994	103.116	19.821	10.654	0.504
723.000	438.902	80.007	19.994	103.114	19.821	10.660	0.511
723.500	439.171	80.007	19.994	103.121	19.820	10.713	0.495
724.000	439.415	80.006	19.996	103.126	19.823	10.556	0.502
724.500	439.695	80.007	19.994	103.125	19.820	10.757	0.518
725.000	439.944	80.005	19.995	103.122	19.819	10.777	0.527
725.500	440.190	80.008	19.994	103.123	19.818	10.838	0.512
726.000	440.427	80.007	19.994	103.121	19.819	10.802	0.489
726.500	440.670	80.009	19.994	103.121	19.819	10.832	0.482
727.000	440.912	80.005	19.996	103.122	19.817	10.941	0.483
727.500	441.143	80.007	19.994	103.124	19.822	10.640	0.479
728.000	441.435	80.007	19.994	103.126	19.821	10.657	0.498
728.500	441.683	80.007	19.993	103.127	19.821	10.692	0.532
729.000	441.932	80.008	19.994	103.128	19.820	10.723	0.519
729.500	442.180	80.007	19.995	103.128	19.820	10.756	0.497
730.000	442.434	80.007	19.993	103.130	19.825	10.431	0.499
730.500	442.697	80.006	19.994	103.131	19.824	10.448	0.509
731.000	442.905	80.007	19.994	103.130	19.822	10.637	0.494
731.500	443.172	80.007	19.994	103.128	19.823	10.511	0.473
732.000	443.450	80.008	19.994	103.129	19.828	10.216	0.510
732.500	443.683	80.008	19.993	103.129	19.825	10.402	0.528
733.000	443.930	80.007	19.995	103.129	19.825	10.381	0.495
733.500	444.201	80.007	19.994	103.131	19.824	10.469	0.499
734.000	444.422	80.005	19.994	103.134	19.823	10.550	0.505
734.500	444.675	80.008	19.995	103.134	19.823	10.510	0.484
735.000	444.921	80.006	19.994	103.134	19.822	10.583	0.487
735.500	445.188	80.006	19.993	103.133	19.827	10.259	0.506
736.000	445.441	80.008	19.994	103.132	19.826	10.316	0.516
736.500	445.668	80.007	19.993	103.132	19.826	10.339	0.500
737.000	445.895	80.006	19.996	103.132	19.826	10.356	0.467
737.500	446.163	80.007	19.994	103.127	19.827	10.294	0.475
738.000	446.417	80.006	19.994	103.126	19.830	10.101	0.509
738.500	446.625	80.007	19.993	103.128	19.825	10.408	0.492
739.000	446.892	80.006	19.994	103.126	19.826	10.342	0.468
739.500	447.133	80.007	19.994	103.126	19.826	10.362	0.491
740.000	447.420	80.007	19.995	103.129	19.827	10.287	0.518
740.500	447.636	80.008	19.994	103.131	19.830	10.105	0.515
741.000	447.916	80.006	19.994	103.131	19.828	10.237	0.499
741.500	448.157	80.007	19.994	103.133	19.830	10.108	0.509
742.000	448.395	80.007	19.994	103.134	19.828	10.193	0.500
742.500	448.640	80.007	19.994	103.135	19.825	10.411	0.481
743.000	448.919	80.008	19.995	103.135	19.826	10.314	0.504
743.500	449.124	80.006	19.994	103.135	19.828	10.203	0.504
744.000	449.383	80.008	19.994	103.133	19.828	10.241	0.474
744.500	449.655	80.008	19.995	103.131	19.825	10.396	0.498
745.000	449.884	80.008	19.995	103.132	19.828	10.184	0.516
745.500	450.150	80.008	19.994	103.132	19.828	10.247	0.498
746.000	450.404	80.007	19.995	103.131	19.824	10.476	0.507
746.500	450.645	80.007	19.994	103.133	19.824	10.453	0.507
747.000	450.863	80.008	19.995	103.132	19.831	10.041	0.477
747.500	451.121	80.008	19.993	103.131	19.828	10.235	0.467
748.000	451.379	80.007	19.996	103.131	19.829	10.157	0.496
748.500	451.614	80.009	19.995	103.131	19.829	10.173	0.505
749.000	451.861	80.008	19.995	103.131	19.828	10.208	0.487
749.500	452.122	80.008	19.994	103.133	19.830	10.074	0.495
750.000	452.336	80.008	19.995	103.132	19.828	10.235	0.492
750.500	452.594	80.009	19.994	103.133	19.827	10.313	0.473
751.000	452.834	80.008	19.995	103.133	19.828	10.219	0.485
751.500	453.127	80.008	19.995	103.133	19.827	10.257	0.516
752.000	453.373	80.008	19.994	103.134	19.828	10.217	0.536
752.500	453.579	80.007	19.994	103.132	19.825	10.429	0.495
753.000	453.857	80.009	19.995	103.129	19.829	10.161	0.468
753.500	454.134	80.009	19.994	103.128	19.827	10.291	0.520
754.000	454.361	80.008	19.995	103.127	19.828	10.186	0.529
754.500	454.614	80.007	19.995	103.124	19.826	10.338	0.492
755.000	454.877	80.008	19.994	103.124	19.824	10.475	0.498
755.500	455.123	80.008	19.995	103.127	19.828	10.249	0.513
756.000	455.373	80.007	19.994	103.127	19.829	10.153	0.502
756.500	455.613	80.007	19.995	103.129	19.831	10.020	0.493
757.000	455.824	80.009	19.994	103.132	19.829	10.152	0.471
757.500	456.095	80.007	19.995	103.133	19.830	10.088	0.467
758.000	456.317	80.006	19.994	103.133	19.827	10.275	0.487
758.500	456.555	80.006	19.995	103.133	19.827	10.276	0.476
759.000	456.831	80.006	19.994	103.133	19.829	10.181	0.488
759.500	457.053	80.008	19.995	103.134	19.828	10.219	0.506
760.000	457.304	80.007	19.994	103.135	19.827	10.294	0.485
760.500	457.550	80.004	19.995	103.135	19.828	10.218	0.485
761.000	457.811	80.006	19.995	103.135	19.828	10.206	0.502
761.500	458.027	80.005	19.995	103.131	19.829	10.133	0.492
762.000	458.321	80.005	19.994	103.130	19.827	10.305	0.494
762.500	458.581	80.005	19.995	103.130	19.828	10.190	0.532
763.000	458.784	80.005	19.994	103.124	19.825	10.398	0.508
763.500	459.066	80.005	19.994	103.118	19.828	10.222	0.474
764.000	459.299	80.005	19.994	103.120	19.829	10.171	0.500
764.500	459.539	80.005	19.995	103.118	19.831	10.031	0.494
765.000	459.772	80.003	19.994	103.114	19.828	10.192	0.473
765.500	460.052	80.005	19.994	103.120	19.827	10.273	0.493
766.000	460.266	80.005	19.996	103.126	19.826	10.365	0.503
766.500	460.545	80.004	19.994	103.128	19.829	10.140	0.493
767.000	460.733	80.005	19.995	103.130	19.827	10.304	0.480
767.500	461.011	80.006	19.995	103.133	19.831	10.039	0.467
768.000	461.236	80.005	19.994	103.134	19.828	10.232	0.485
768.500	461.494	80.005	19.995	103.131	19.829	10.152	0.493
769.000	461.753	80.005	19.996	103.130	19.829	10.182	0.500
769.500	461.988	80.004	19.996	103.130	19.829	10.159	0.506
770.000	462.264	80.005	19.996	103.134	19.831	10.048	0.503
770.500	462.493	80.004	19.994	103.133	19.827	10.279	0.508
771.000	462.737	80.004	19.994	103.136	19.828	10.190	0.489
771.500	462.989	80.004	19.995	103.136	19.831	10.041	0.485
772.000	463.218	80.004	19.995	103.136	19.831	10.000	0.488
772.500	463.467	80.004	19.996	103.135	19.831	10.023	0.479
773.000	463.755	80.003	19.996	103.136	19.832	9.984	0.508
773.500	463.947	80.005	19.995	103.136	19.831	10.003	0.508
774.000	464.219	80.004	19.995	103.137	19.828	10.185	0.472
774.500	464.477	80.004	19.995	103.137	19.828	10.224	0.497
775.000	464.735	80.004	19.995	103.137	19.831	10.037	0.523
775.500	464.955	80.004	19.995	103.136	19.834	9.853	0.497
776.000	465.200	80.005	19.995	103.136	19.829	10.133	0.472
776.500	465.438	80.004	19.994	103.132	19.830	10.081	0.474
777.000	465.720	80.005	19.994	103.131	19.828	10.221	0.501
777.500	465.964	80.004	19.995	103.131	19.831	9.992	0.523
778.000	466.209	80.006	19.995	103.131	19.830	10.066	0.507
778.500	466.465	80.004	19.995	103.132	19.831	10.029	0.495
779.000	466.685	80.005	19.995	103.136	19.831	10.034	0.489
779.500	466.924	80.005	19.995	103.137	19.833	9.909	0.467
780.000	467.227	80.005	19.997	103.138	19.830	10.074	0.501
780.500	467.477	80.004	19.996	103.138	19.830	10.065	0.548
781.000	467.734	80.006	19.995	103.138	19.829	10.139	0.530
781.500	467.948	80.004	19.994	103.138	19.826	10.352	0.489
782.000	468.257	80.004	19.997	103.135	19.829	10.177	0.497
782.500	468.475	80.006	19.995	103.130	19.825	10.438	0.525
783.000	468.734	80.004	19.994	103.124	19.830	10.067	0.502
783.500	468.949	80.003	19.996	103.122	19.830	10.092	0.475
784.000	469.212	80.004	19.996	103.120	19.827	10.274	0.476
784.500	469.464	80.005	19.995	103.116	19.830	10.071	0.496
785.000	469.751	80.005	19.996	103.120	19.827	10.291	0.527
785.500	470.025	80.005	19.995	103.126	19.826	10.376	0.551
786.000	470.245	80.005	19.997	103.127	19.828	10.215	0.528
786.500	470.497	80.005	19.995	103.127	19.826	10.340	0.483
787.000	470.747	80.005	19.995	103.130	19.829	10.121	0.487
787.500	470.997	80.004	19.996	103.129	19.827	10.308	0.501
788.000	471.257	80.006	19.996	103.128	19.829	10.119	0.505
788.500	471.571	80.004	19.996	103.126	19.827	10.257	0.542
789.000	471.768	80.004	19.995	103.121	19.829	10.168	0.543
789.500	471.999	80.004	19.996	103.120	19.825	10.439	0.469
790.000	472.289	80.004	19.996	103.119	19.826	10.333	0.474
790.500	472.508	80.004	19.995	103.115	19.825	10.410	0.515
791.000	472.767	80.004	19.997	103.111	19.823	10.517	0.494
791.500	472.992	80.004	19.995	103.111	19.828	10.208	0.482
792.000	473.278	80.004	19.997	103.107	19.827	10.293	0.498
792.500	473.549	80.005	19.996	103.104	19.827	10.289	0.534
793.000	473.833	80.003	19.995	103.106	19.828	10.197	0.556
793.500	474.078	80.004	19.994	103.113	19.831	10.050	0.542
794.000	474.310	80.004	19.995	103.120	19.830	10.073	0.503
794.500	474.583	80.004	19.995	103.124	19.829	10.155	0.492
795.000	474.820	80.004	19.994	103.128	19.825	10.394	0.508
795.500	475.081	80.003	19.994	103.125	19.828	10.213	0.504
796.000	475.310	80.004	19.996	103.125	19.826	10.329	0.494
796.500	475.587	80.006	19.996	103.125	19.828	10.190	0.498
797.000	475.834	80.005	19.995	103.125	19.828	10.194	0.514
797.500	476.073	80.005	19.995	103.122	19.827	10.305	0.505
798.000	476.352	80.004	19.994	103.120	19.827	10.282	0.502
798.500	476.603	80.005	19.995	103.117	19.827	10.301	0.524
799.000	476.821	80.005	19.995	103.112	19.829	10.183	0.500
799.500	477.083	80.005	19.994	103.111	19.827	10.259	0.475
800.000	477.339	80.005	19.995	103.117	19.830	10.086	0.498
800.500	477.615	80.005	19.996	103.124	19.828	10.206	0.525
801.000	477.840	80.005	19.996	103.127	19.829	10.174	0.517
801.500	478.116	80.006	19.992	103.132	19.832	9.923	0.502
802.000	478.373	80.005	19.994	103.131	19.831	10.013	0.517
802.500	478.637	80.006	19.994	103.126	19.831	10.030	0.527
803.000	478.867	80.005	19.995	103.121	19.830	10.075	0.507
803.500	479.108	80.005	19.994	103.115	19.830	10.058	0.483
804.000	479.344	80.005	19.994	103.113	19.830	10.081	0.474
804.501	479.603	80.007	19.994	103.116	19.829	10.124	0.486
805.000	479.873	80.005	19.995	103.121	19.831	10.006	0.512
805.500	480.152	80.006	19.994	103.126	19.831	10.027	0.539
806.000	480.420	80.006	19.994	103.132	19.829	10.172	0.548
806.500	480.642	80.007	19.993	103.134	19.829	10.144	0.518
807.000	480.898	80.006	19.994	103.135	19.831	10.009	0.484
807.500	481.133	80.006	19.994	103.135	19.828	10.214	0.484
808.000	481.440	80.007	19.993	103.136	19.827	10.278	0.516
808.501	481.711	80.006	19.994	103.135	19.828	10.225	0.560
809.000	481.915	80.006	19.994	103.134	19.826	10.356	0.526
809.500	482.195	80.006	19.994	103.134	19.825	10.417	0.480
810.000	482.471	80.007	19.994	103.134	19.826	10.365	0.520
810.500	482.726	80.005	19.995	103.133	19.826	10.349	0.543
811.000	482.956	80.008	19.994	103.133	19.826	10.361	0.508
811.500	483.212	80.006	19.995	103.133	19.826	10.348	0.486
812.000	483.448	80.006	19.994	103.131	19.826	10.376	0.489
812.500	483.709	80.006	19.995	103.129	19.827	10.265	0.495
813.000	483.975	80.005	19.995	103.127	19.827	10.296	0.512
813.500	484.264	80.006	19.993	103.127	19.828	10.209	0.541
814.000	484.501	80.007	19.994	103.127	19.827	10.280	0.540
814.500	484.766	80.007	19.994	103.129	19.825	10.436	0.515
815.000	485.024	80.006	19.994	103.131	19.826	10.353	0.513
815.500	485.303	80.005	19.995	103.133	19.828	10.245	0.530
816.000	485.578	80.007	19.994	103.132	19.824	10.469	0.545
816.500	485.819	80.005	19.995	103.131	19.826	10.341	0.535
817.000	486.107	80.006	19.994	103.128	19.824	10.481	0.522
817.500	486.348	80.005	19.995	103.128	19.824	10.471	0.529
818.000	486.567	80.005	19.995	103.127	19.822	10.584	0.495
818.500	486.862	80.007	19.994	103.128	19.827	10.284	0.487
819.000	487.146	80.006	19.994	103.130	19.825	10.382	0.546
819.500	487.403	80.005	19.994	103.133	19.824	10.491	0.560
820.000	487.643	80.005	19.994	103.131	19.824	10.477	0.519
820.500	487.902	80.005	19.994	103.129	19.824	10.487	0.499
821.000	488.162	80.005	19.995	103.130	19.825	10.382	0.509
821.500	488.464	80.006	19.994	103.131	19.823	10.533	0.540
822.000	488.682	80.005	19.995	103.131	19.825	10.416	0.541
822.500	488.967	80.006	19.994	103.134	19.823	10.532	0.512
823.000	489.209	80.006	19.994	103.136	19.822	10.584	0.515
823.500	489.452	80.005	19.994	103.136	19.825	10.435	0.505
824.000	489.706	80.006	19.995	103.136	19.822	10.625	0.491
824.500	489.992	80.006	19.994	103.135	19.825	10.419	0.519
825.000	490.225	80.005	19.994	103.135	19.822	10.616	0.530
825.500	490.513	80.006	19.993	103.134	19.821	10.651	0.520
826.000	490.787	80.005	19.995	103.131	19.824	10.469	0.542
826.500	491.058	80.005	19.993	103.132	19.821	10.674	0.554
827.000	491.314	80.005	19.995	103.133	19.827	10.296	0.536
827.500	491.525	80.006	19.994	103.133	19.828	10.219	0.497
828.000	491.822	80.006	19.994	103.134	19.824	10.481	0.487
828.500	492.069	80.005	19.992	103.136	19.826	10.344	0.526
829.000	492.330	80.006	19.994	103.136	19.824	10.455	0.526
829.500	492.580	80.007	19.994	103.133	19.822	10.602	0.510
830.000	492.850	80.007	19.995	103.128	19.822	10.604	0.515
830.500	493.086	80.007	19.994	103.126	19.826	10.377	0.512
831.000	493.343	80.008	19.994	103.127	19.822	10.605	0.499
831.500	493.667	80.008	19.994	103.127	19.824	10.458	0.537
832.000	493.894	80.007	19.993	103.130	19.824	10.477	0.566
832.500	494.175	80.009	19.995	103.134	19.823	10.552	0.530
833.000	494.441	80.008	19.993	103.136	19.825	10.419	0.528
833.500	494.701	80.008	19.994	103.136	19.826	10.346	0.536
834.000	494.949	80.008	19.994	103.135	19.825	10.412	0.517
834.500	495.215	80.008	19.994	103.135	19.822	10.611	0.511
835.000	495.462	80.009	19.994	103.136	19.820	10.714	0.513
835.500	495.726	80.007	19.992	103.135	19.825	10.424	0.512
836.000	496.003	80.010	19.993	103.135	19.822	10.596	0.526
836.500	496.260	80.008	19.994	103.135	19.828	10.227	0.538
837.000	496.516	80.009	19.994	103.134	19.824	10.469	0.523
837.500	496.731	80.008	19.994	103.134	19.824	10.452	0.492
838.000	497.046	80.009	19.992	103.134	19.824	10.507	0.500
838.500	497.268	80.008	19.994	103.133	19.825	10.441	0.533
839.000	497.529	80.008	19.993	103.134	19.823	10.540	0.510
839.500	497.788	80.008	19.992	103.134	19.826	10.354	0.502
840.000	498.048	80.008	19.993	103.132	19.825	10.404	0.520
840.500	498.339	80.007	19.993	103.132	19.822	10.621	0.535
841.000	498.571	80.007	19.993	103.130	19.821	10.683	0.536
841.500	498.861	80.007	19.994	103.128	19.824	10.491	0.523
842.000	499.102	80.006	19.994	103.127	19.822	10.618	0.527
842.500	499.357	80.007	19.994	103.129	19.822	10.580	0.513
843.000	499.615	80.007	19.994	103.128	19.825	10.405	0.505
843.500	499.883	80.006	19.994	103.131	19.822	10.604	0.520
844.000	500.115	80.007	19.993	103.133	19.824	10.495	0.513
844.500	500.402	80.007	19.993	103.135	19.823	10.564	0.509
845.000	500.626	80.005	19.994	103.135	19.823	10.561	0.515
845.500	500.888	80.006	19.994	103.136	19.824	10.498	0.498
846.000	501.136	80.005	19.994	103.136	19.824	10.505	0.498
846.500	501.403	80.005	19.994	103.135	19.825	10.413	0.513
847.000	501.677	80.003	19.995	103.135	19.823	10.522	0.528
847.500	501.925	80.006	19.992	103.135	19.823	10.567	0.531
848.000	502.186	80.004	19.994	103.135	19.821	10.652	0.515
848.500	502.448	80.006	19.993	103.135	19.822	10.633	0.516
849.000	502.665	80.005	19.995	103.134	19.823	10.510	0.501
849.500	502.940	80.005	19.995	103.133	19.823	10.548	0.485
850.000	503.207	80.004	19.994	103.129	19.822	10.590	0.517
850.500	503.460	80.006	19.993	103.127	19.825	10.422	0.531
851.000	503.708	80.004	19.994	103.127	19.823	10.536	0.510
851.500	503.996	80.006	19.994	103.128	19.824	10.473	0.519
852.000	504.227	80.006	19.995	103.127	19.824	10.486	0.528
852.500	504.506	80.004	19.995	103.130	19.820	10.714	0.515
853.000	504.767	80.004	19.993	103.133	19.823	10.565	0.525
853.500	505.000	80.004	19.993	103.132	19.820	10.724	0.517
854.000	505.261	80.004	19.994	103.133	19.824	10.500	0.494
854.500	505.524	80.003	19.995	103.135	19.824	10.502	0.509
855.000	505.746	80.006	19.995	103.134	19.824	10.500	0.505
855.500	506.029	80.004	19.996	103.134	19.819	10.779	0.495
856.000	506.287	80.004	19.993	103.132	19.819	10.793	0.523
856.500	506.557	80.004	19.995	103.129	19.822	10.609	0.535
857.000	506.816	80.005	19.994	103.128	19.820	10.751	0.529
857.500	507.062	80.004	19.994	103.128	19.822	10.624	0.518
858.000	507.310	80.004	19.993	103.128	19.822	10.616	0.500
858.500	507.574	80.004	19.995	103.126	19.819	10.814	0.503
859.000	507.845	80.004	19.996	103.127	19.819	10.791	0.523
859.500	508.113	80.005	19.996	103.127	19.817	10.922	0.537
860.000	508.372	80.004	19.995	103.127	19.819	10.795	0.533
860.500	508.656	80.005	19.995	103.127	19.816	10.998	0.535
861.000	508.882	80.006	19.995	103.131	19.819	10.813	0.527
861.500	509.148	80.004	19.994	103.131	19.820	10.765	0.502
862.000	509.435	80.004	19.995	103.126	19.816	11.008	0.522
862.500	509.672	80.006	19.994	103.124	19.815	11.072	0.538
863.000	509.947	80.004	19.994	103.125	19.820	10.741	0.518
863.500	510.175	80.006	19.995	103.125	19.816	11.001	0.508
864.000	510.452	80.004	19.995	103.127	19.819	10.810	0.505
864.500	510.669	80.005	19.994	103.132	19.818	10.898	0.500
865.000	510.952	80.005	19.994	103.134	19.818	10.872	0.497
865.500	511.209	80.005	19.995	103.134	19.816	11.026	0.519
866.000	511.468	80.005	19.995	103.134	19.817	10.903	0.527
866.500	511.723	80.006	19.994	103.134	19.818	10.865	0.515
867.000	511.965	80.006	19.995	103.133	19.815	11.055	0.506
867.500	512.228	80.006	19.994	103.130	19.817	10.927	0.501
868.000	512.488	80.006	19.995	103.129	19.814	11.132	0.514
868.500	512.746	80.005	19.993	103.122	19.817	10.945	0.521
869.000	513.015	80.006	19.994	103.118	19.814	11.135	0.522
869.500	513.240	80.005	19.994	103.116	19.815	11.054	0.510
870.000	513.559	80.006	19.994	103.115	19.817	10.912	0.519
870.500	513.806	80.004	19.994	103.112	19.818	10.865	0.555
871.000	514.046	80.005	19.995	103.116	19.817	10.920	0.526
871.500	514.294	80.006	19.995	103.121	19.817	10.948	0.487
872.000	514.595	80.006	19.995	103.123	19.817	10.927	0.519
872.500	514.840	80.006	19.994	103.128	19.816	10.977	0.548
873.000	515.099	80.004	19.994	103.132	19.817	10.949	0.525
873.500	515.344	80.005	19.995	103.132	19.817	10.962	0.504
874.000	515.628	80.004	19.995	103.130	19.814	11.111	0.516
874.500	515.887	80.005	19.995	103.129	19.819	10.804	0.536
875.000	516.148	80.003	19.995	103.129	19.817	10.952	0.531
875.500	516.396	80.005	19.994	103.128	19.816	11.025	0.515
876.000	516.682	80.005	19.995	103.126	19.814	11.146	0.522
876.500	516.934	80.005	19.995	103.125	19.816	11.008	0.536
877.000	517.191	80.004	19.995	103.122	19.815	11.039	0.523
877.500	517.451	80.004	19.994	103.123	19.816	10.997	0.512
878.000	517.703	80.005	19.994	103.123	19.819	10.824	0.515
878.500	517.985	80.005	19.994	103.126	19.816	11.023	0.524
879.000	518.224	80.005	19.995	103.128	19.815	11.053	0.528
879.500	518.497	80.004	19.995	103.129	19.815	11.045	0.516
880.000	518.716	80.004	19.994	103.126	19.817	10.944	0.502
880.500	519.019	80.004	19.996	103.124	19.815	11.036	0.506
881.000	519.253	80.005	19.995	103.124	19.816	10.985	0.529
881.500	519.565	80.005	19.995	103.126	19.815	11.073	0.542
882.000	519.778	80.004	19.996	103.123	19.814	11.158	0.536
882.500	520.088	80.005	19.995	103.121	19.811	11.344	0.524
883.000	520.330	80.005	19.995	103.121	19.814	11.144	0.538
883.500	520.621	80.004	19.996	103.119	19.815	11.083	0.542
884.000	520.849	80.005	19.996	103.119	19.817	10.915	0.526
884.500	521.117	80.005	19.996	103.122	19.815	11.043	0.508
885.000	521.399	80.004	19.996	103.124	19.816	10.974	0.523
885.500	521.641	80.004	19.994	103.126	19.814	11.133	0.537
886.000	521.900	80.004	19.995	103.128	19.814	11.137	0.513
886.500	522.161	80.005	19.996	103.128	19.814	11.125	0.510
887.000	522.412	80.005	19.995	103.126	19.815	11.074	0.516
887.500	522.686	80.003	19.996	103.121	19.815	11.093	0.519
888.000	522.956	80.003	19.995	103.116	19.816	11.023	0.534
888.500	523.223	80.006	19.994	103.114	19.816	10.982	0.540
889.000	523.483	80.006	19.994	103.111	19.814	11.138	0.532
889.500	523.751	80.006	19.996	103.112	19.815	11.039	0.527
890.000	524.006	80.006	19.996	103.119	19.814	11.150	0.525
890.500	524.263	80.006	19.996	103.123	19.814	11.110	0.518
891.000	524.558	80.006	19.996	103.122	19.817	10.961	0.532
891.500	524.791	80.006	19.994	103.124	19.817	10.933	0.540
892.000	525.063	80.006	19.995	103.126	19.816	11.032	0.517
892.500	525.314	80.005	19.995	103.126	19.813	11.165	0.514
893.000	525.584	80.007	19.995	103.127	19.815	11.080	0.522
893.500	525.840	80.005	19.995	103.130	19.813	11.197	0.524
894.000	526.122	80.008	19.994	103.131	19.816	11.024	0.532
894.500	526.370	80.006	19.994	103.127	19.814	11.131	0.534
895.000	526.653	80.007	19.995	103.124	19.817	10.952	0.530
895.500	526.879	80.006	19.994	103.123	19.816	10.988	0.520
896.000	527.130	80.008	19.993	103.123	19.813	11.165	0.493
896.500	527.389	80.008	19.995	103.125	19.815	11.078	0.494
897.000	527.692	80.007	19.993	103.125	19.815	11.067	0.536
897.500	527.926	80.007	19.993	103.126	19.815	11.094	0.549
898.000	528.189	80.008	19.994	103.122	19.814	11.158	0.517
898.500	528.484	80.007	19.994	103.119	19.814	11.114	0.527
899.000	528.740	80.007	19.994	103.116	19.813	11.170	0.554
899.500	529.039	80.007	19.994	103.119	19.814	11.100	0.553
900.000	529.257	80.007	19.993	103.122	19.814	11.133	0.536
900.500	529.525	80.007	19.994	103.129	19.814	11.159	0.502
901.000	529.787	80.007	19.996	103.131	19.813	11.225	0.508
901.500	530.087	80.008	19.994	103.133	19.812	11.268	0.546
902.000	530.331	80.006	19.995	103.132	19.810	11.369	0.553
902.500	530.604	80.007	19.994	103.132	19.812	11.257	0.531
903.000	530.840	80.007	19.993	103.131	19.811	11.293	0.513
903.500	531.111	80.006	19.996	103.126	19.815	11.084	0.508
904.000	531.357	80.007	19.993	103.123	19.815	11.047	0.512
904.500	531.628	80.007	19.994	103.121	19.815	11.035	0.517
905.000	531.881	80.006	19.994	103.119	19.811	11.321	0.520
905.500	532.140	80.005	19.993	103.119	19.812	11.252	0.518
906.000	532.421	80.005	19.994	103.126	19.812	11.274	0.526
906.500	532.675	80.005	19.993	103.128	19.815	11.053	0.538
907.000	532.940	80.006	19.994	103.131	19.813	11.224	0.527
907.500	533.188	80.006	19.994	103.124	19.812	11.240	0.516
908.000	533.459	80.005	19.995	103.119	19.810	11.376	0.516
908.500	533.723	80.005	19.994	103.116	19.811	11.291	0.527
909.000	533.982	80.006	19.994	103.113	19.810	11.393	0.529
909.500	534.256	80.006	19.993	103.109	19.812	11.288	0.528
910.000	534.504	80.006	19.994	103.109	19.815	11.077	0.527
910.500	534.795	80.006	19.993	103.108	19.813	11.190	0.531
911.000	535.074	80.005	19.994	103.106	19.813	11.188	0.555
911.500	535.304	80.005	19.993	103.107	19.810	11.388	0.540
912.000	535.579	80.005	19.994	103.106	19.809	11.482	0.507
912.500	535.835	80.006	19.993	103.107	19.810	11.417	0.518
913.000	536.072	80.006	19.993	103.111	19.808	11.499	0.512
913.500	536.348	80.005	19.995	103.111	19.809	11.432	0.503
914.000	536.615	80.005	19.993	103.109	19.811	11.294	0.528
914.500	536.853	80.006	19.994	103.111	19.810	11.396	0.524
915.000	537.144	80.006	19.994	103.110	19.813	11.219	0.517
915.501	537.367	80.008	19.994	103.109	19.812	11.289	0.521
916.000	537.630	80.007	19.995	103.112	19.811	11.345	0.500
916.500	537.930	80.008	19.994	103.114	19.811	11.302	0.524
917.000	538.174	80.007	19.994	103.113	19.811	11.356	0.553
917.500	538.453	80.007	19.994	103.115	19.813	11.219	0.534
918.000	538.711	80.007	19.994	103.112	19.811	11.335	0.530
918.500	538.965	80.008	19.994	103.113	19.807	11.558	0.525
919.000	539.236	80.007	19.993	103.110	19.812	11.263	0.518
919.500	539.470	80.007	19.995	103.111	19.813	11.207	0.515
920.000	539.740	80.007	19.993	103.110	19.810	11.375	0.505
920.500	540.006	80.008	19.994	103.108	19.810	11.403	0.520
921.000	540.236	80.008	19.994	103.103	19.809	11.433	0.516
921.500	540.502	80.007	19.994	103.102	19.807	11.610	0.496
922.000	540.743	80.007	19.993	103.103	19.811	11.355	0.502
922.500	541.021	80.008	19.993	103.104	19.812	11.261	0.513
923.000	541.256	80.009	19.993	103.108	19.811	11.339	0.516
923.500	541.559	80.007	19.993	103.108	19.810	11.414	0.525
924.000	541.795	80.007	19.994	103.107	19.808	11.522	0.539
924.500	542.079	80.007	19.994	103.102	19.809	11.437	0.530
925.000	542.303	80.007	19.993	103.103	19.809	11.428	0.514
925.500	542.603	80.007	19.993	103.099	19.808	11.542	0.516
926.000	542.833	80.006	19.993	103.101	19.808	11.545	0.527
926.500	543.053	80.007	19.994	103.103	19.806	11.671	0.490
927.000	543.329	80.008	19.993	103.108	19.807	11.568	0.473
927.500	543.621	80.006	19.993	103.111	19.807	11.613	0.532
928.000	543.878	80.007	19.994	103.117	19.806	11.660	0.558
928.500	544.113	80.007	19.993	103.117	19.807	11.595	0.520
929.000	544.398	80.007	19.994	103.115	19.806	11.629	0.506
929.500	544.646	80.008	19.994	103.110	19.807	11.583	0.527
930.000	544.913	80.007	19.993	103.104	19.805	11.701	0.524
930.500	545.143	80.007	19.994	103.102	19.808	11.522	0.506
931.000	545.393	80.008	19.993	103.100	19.808	11.531	0.489
931.501	545.654	80.007	19.994	103.104	19.806	11.628	0.495
932.000	545.892	80.005	19.995	103.108	19.807	11.607	0.505
932.500	546.139	80.006	19.993	103.111	19.805	11.681	0.492
933.000	546.414	80.006	19.993	103.111	19.807	11.602	0.503
933.500	546.695	80.005	19.994	103.116	19.801	11.958	0.539
934.000	546.937	80.006	19.995	103.118	19.804	11.768	0.539
934.500	547.206	80.006	19.993	103.120	19.810	11.380	0.517
935.000	547.469	80.006	19.995	103.125	19.805	11.731	0.522
935.500	547.704	80.005	19.994	103.125	19.806	11.655	0.515
936.000	547.961	80.007	19.994	103.122	19.807	11.559	0.495
936.500	548.196	80.006	19.993	103.119	19.808	11.489	0.492
937.000	548.473	80.006	19.994	103.117	19.803	11.871	0.502
937.500	548.685	80.005	19.993	103.117	19.801	11.989	0.501
938.000	548.975	80.006	19.994	103.120	19.806	11.630	0.496
938.500	549.207	80.004	19.995	103.122	19.802	11.892	0.512
939.000	549.473	80.004	19.993	103.126	19.803	11.849	0.510
939.500	549.719	80.004	19.993	103.127	19.801	11.970	0.505
940.000	549.993	80.005	19.992	103.124	19.801	11.963	0.516
940.500	550.227	80.006	19.994	103.120	19.808	11.516	0.514
941.000	550.513	80.005	19.994	103.115	19.804	11.773	0.514
941.500	550.767	80.005	19.994	103.109	19.805	11.726	0.529
942.000	551.026	80.006	19.994	103.103	19.803	11.877	0.526
942.500	551.273	80.007	19.995	103.099	19.803	11.834	0.510
943.000	551.539	80.006	19.995	103.097	19.802	11.938	0.510
943.500	551.801	80.006	19.995	103.097	19.802	11.895	0.520
944.000	552.026	80.005	19.994	103.100	19.804	11.787	0.507
944.500	552.312	80.006	19.993	103.107	19.801	12.009	0.499
945.000	552.542	80.006	19.994	103.110	19.806	11.662	0.514
945.500	552.813	80.006	19.994	103.110	19.805	11.739	0.508
946.000	553.086	80.006	19.994	103.110	19.803	11.858	0.522
946.500	553.312	80.007	19.996	103.109	19.801	11.991	0.521
947.000	553.574	80.006	19.994	103.102	19.801	12.006	0.494
947.500	553.820	80.006	19.995	103.101	19.804	11.778	0.498
948.000	554.047	80.006	19.996	103.105	19.802	11.933	0.490
948.500	554.358	80.006	19.993	103.106	19.802	11.879	0.505
949.000	554.614	80.006	19.994	103.105	19.804	11.771	0.552
949.500	554.849	80.005	19.995	103.108	19.803	11.853	0.529
950.000	555.099	80.006	19.994	103.112	19.803	11.876	0.488
950.500	555.372	80.005	19.994	103.111	19.802	11.919	0.505
951.000	555.627	80.005	19.996	103.110	19.800	12.018	0.526
951.500	555.839	80.005	19.994	103.109	19.805	11.742	0.497
952.000	556.113	80.006	19.995	103.108	19.801	11.986	0.477
952.500	556.353	80.006	19.996	103.109	19.802	11.933	0.500
953.000	556.636	80.005	19.994	103.109	19.801	11.957	0.518
953.500	556.850	80.005	19.995	103.112	19.803	11.821	0.510
954.000	557.106	80.006	19.995	103.114	19.801	11.946	0.484
954.500	557.387	80.004	19.995	103.116	19.803	11.818	0.504
955.000	557.687	80.006	19.995	103.116	19.801	11.979	0.559
955.500	557.893	80.006	19.996	103.116	19.800	12.055	0.544
956.000	558.137	80.006	19.996	103.113	19.799	12.078	0.478
956.500	558.405	80.006	19.995	103.113	19.800	12.067	0.481
957.000	558.675	80.006	19.995	103.112	19.801	12.003	0.524
957.500	558.903	80.006	19.996	103.108	19.800	12.045	0.518
958.000	559.188	80.007	19.995	103.107	19.802	11.882	0.505
958.500	559.456	80.005	19.995	103.114	19.801	11.986	0.533
959.000	559.651	80.005	19.995	103.119	19.801	11.983	0.508
959.500	559.924	80.005	19.995	103.115	19.800	12.012	0.466
960.000	560.220	80.005	19.995	103.113	19.799	12.119	0.519
960.500	560.412	80.006	19.995	103.111	19.800	12.048	0.528
961.000	560.682	80.005	19.995	103.104	19.801	11.963	0.475
961.500	560.953	80.006	19.995	103.102	19.801	11.946	0.501
962.000	561.241	80.006	19.995	103.107	19.801	11.976	0.550
962.500	561.461	80.005	19.995	103.109	19.800	12.047	0.534
963.000	561.730	80.006	19.996	103.112	19.797	12.212	0.498
963.500	562.008	80.004	19.995	103.114	19.796	12.288	0.518
964.000	562.238	80.006	19.994	103.113	19.798	12.165	0.528
964.500	562.479	80.005	19.995	103.111	19.796	12.311	0.490
965.000	562.714	80.005	19.994	103.109	19.793	12.518	0.474
965.500	562.992	80.004	19.994	103.107	19.795	12.350	0.494
966.000	563.225	80.006	19.995	103.111	19.796	12.270	0.511
966.500	563.511	80.005	19.995	103.112	19.794	12.436	0.515
967.000	563.759	80.005	19.995	103.113	19.797	12.267	0.527
967.500	563.997	80.005	19.995	103.111	19.795	12.354	0.510
968.000	564.250	80.005	19.994	103.111	19.795	12.368	0.488
968.500	564.514	80.006	19.995	103.108	19.794	12.407	0.504
969.000	564.741	80.005	19.994	103.109	19.796	12.309	0.504
969.500	564.990	80.004	19.996	103.108	19.795	12.366	0.484
970.000	565.228	80.004	19.994	103.114	19.796	12.303	0.481
970.500	565.477	80.007	19.995	103.113	19.796	12.321	0.487
971.000	565.729	80.005	19.995	103.111	19.799	12.088	0.494
971.500	566.037	80.005	19.995	103.109	19.794	12.403	0.531
972.000	566.276	80.004	19.995	103.110	19.797	12.243	0.554
972.500	566.535	80.005	19.994	103.111	19.798	12.167	0.522
973.000	566.790	80.006	19.995	103.113	19.793	12.494	0.506
973.500	567.057	80.004	19.994	103.116	19.795	12.336	0.518
974.000	567.279	80.004	19.994	103.119	19.796	12.309	0.506
974.500	567.539	80.005	19.994	103.118	19.794	12.431	0.486
975.000	567.804	80.005	19.994	103.114	19.794	12.425	0.503
975.500	568.065	80.005	19.994	103.117	19.795	12.349	0.525
976.000	568.266	80.005	19.995	103.115	19.797	12.246	0.494
976.500	568.573	80.005	19.995	103.111	19.792	12.578	0.485
977.000	568.811	80.006	19.995	103.109	19.793	12.496	0.526
977.500	569.039	80.005	19.995	103.106	19.792	12.565	0.505
978.000	569.311	80.006	19.995	103.101	19.794	12.420	0.483
978.500	569.538	80.005	19.994	103.101	19.792	12.574	0.500
979.000	569.783	80.006	19.994	103.100	19.789	12.728	0.486
979.500	570.074	80.006	19.995	103.100	19.792	12.588	0.504
980.000	570.281	80.005	19.995	103.101	19.791	12.645	0.517
980.500	570.577	80.005	19.995	103.101	19.792	12.531	0.500
981.001	570.815	80.006	19.994	103.099	19.792	12.562	0.519
981.500	571.067	80.006	19.995	103.104	19.792	12.586	0.512
982.000	571.323	80.007	19.996	103.109	19.794	12.416	0.499
982.500	571.531	80.007	19.995	103.109	19.794	12.451	0.486
983.000	571.813	80.006	19.995	103.112	19.795	12.380	0.477
983.500	572.075	80.007	19.995	103.117	19.795	12.392	0.518
984.000	572.363	80.008	19.996	103.114	19.793	12.515	0.547
984.500	572.601	80.007	19.996	103.114	19.793	12.487	0.537
985.000	572.848	80.006	19.996	103.119	19.793	12.470	0.505
985.500	573.092	80.005	19.995	103.120	19.793	12.489	0.488
986.000	573.365	80.007	19.996	103.118	19.792	12.539	0.504
986.500	573.639	80.006	19.995	103.117	19.792	12.539	0.532
987.000	573.884	80.006	19.995	103.113	19.794	12.442	0.533
987.500	574.147	80.007	19.994	103.110	19.793	12.512	0.514
988.000	574.440	80.006	19.995	103.105	19.793	12.504	0.532
988.500	574.695	80.006	19.996	103.101	19.793	12.523	0.552
989.000	574.947	80.007	19.996	103.100	19.795	12.384	0.528
989.500	575.204	80.006	19.995	103.099	19.791	12.621	0.508
990.000	575.479	80.006	19.995	103.102	19.792	12.570	0.520
990.500	575.727	80.008	19.995	103.104	19.797	12.213	0.528
991.000	575.965	80.007	19.996	103.104	19.793	12.523	0.505
991.500	576.275	80.005	19.994	103.103	19.792	12.548	0.517
992.000	576.507	80.007	19.995	103.106	19.793	12.491	0.545
992.500	576.777	80.006	19.995	103.103	19.792	12.581	0.522
993.000	577.002	80.006	19.995	103.102	19.793	12.467	0.498
993.500	577.274	80.007	19.995	103.102	19.792	12.575	0.496
994.000	577.515	80.008	19.994	103.102	19.795	12.384	0.504
994.500	577.777	80.007	19.996	103.099	19.795	12.394	0.507
995.000	578.055	80.005	19.995	103.098	19.793	12.521	0.521
995.500	578.253	80.005	19.993	103.098	19.788	12.840	0.508
996.000	578.550	80.006	19.993	103.100	19.790	12.689	0.486
996.500	578.817	80.007	19.994	103.101	19.791	12.597	0.529
997.000	579.086	80.007	19.994	103.102	19.792	12.594	0.550
997.500	579.352	80.006	19.994	103.102	19.791	12.629	0.536
998.000	579.580	80.006	19.994	103.103	19.792	12.589	0.514
998.500	579.845	80.006	19.994	103.104	19.794	12.428	0.493
999.000	580.101	80.006	19.994	103.108	19.791	12.609	0.507
999.500	580.367	80.008	19.995	103.108	19.792	12.549	0.522
1000.000	580.627	80.007	19.994	103.106	19.790	12.676	0.524
1000.500	580.867	80.007	19.995	103.104	19.793	12.521	0.513
1001.000	581.118	80.008	19.995	103.100	19.793	12.484	0.495
1001.500	581.398	80.008	19.994	103.096	19.792	12.593	0.511
1002.000	581.640	80.007	19.994	103.096	19.791	12.648	0.526
1002.500	581.879	80.008	19.993	103.100	19.792	12.533	0.502
1003.000	582.161	80.008	19.994	103.105	19.794	12.449	0.501
1003.500	582.415	80.008	19.994	103.105	19.788	12.838	0.528
1004.000	582.701	80.009	19.994	103.107	19.791	12.629	0.538
1004.500	582.941	80.009	19.994	103.110	19.789	12.733	0.533
1005.000	583.196	80.010	19.994	103.107	19.788	12.844	0.511
1005.500	583.432	80.006	19.995	103.104	19.791	12.632	0.493
1006.000	583.675	80.010	19.995	103.110	19.790	12.700	0.485
1006.500	583.940	80.011	19.994	103.111	19.787	12.895	0.493
1007.000	584.183	80.008	19.994	103.109	19.791	12.602	0.508
1007.500	584.399	80.008	19.996	103.110	19.790	12.666	0.484
1008.000	584.683	80.010	19.994	103.108	19.791	12.648	0.480
1008.500	584.918	80.008	19.994	103.103	19.790	12.721	0.510
1009.000	585.156	80.008	19.994	103.100	19.791	12.643	0.496
1009.500	585.409	80.009	19.995	103.097	19.789	12.750	0.482
1010.000	585.642	80.008	19.995	103.095	19.790	12.680	0.488
1010.500	585.932	80.008	19.995	103.096	19.788	12.853	0.504
1011.001	586.167	80.008	19.995	103.097	19.790	12.721	0.525
1011.500	586.388	80.009	19.995	103.098	19.791	12.646	0.491
1012.000	586.685	80.007	19.995	103.099	19.788	12.855	0.487
1012.500	586.948	80.008	19.995	103.099	19.792	12.569	0.539
1013.000	587.180	80.009	19.994	103.098	19.787	12.860	0.527
1013.500	587.428	80.007	19.995	103.097	19.789	12.731	0.487
1014.000	587.677	80.008	19.995	103.097	19.790	12.720	0.489
1014.500	587.938	80.009	19.994	103.096	19.790	12.720	0.504
1015.000	588.152	80.009	19.995	103.097	19.788	12.859	0.492
1015.500	588.440	80.007	19.995	103.102	19.788	12.808	0.488
1016.000	588.674	80.007	19.994	103.103	19.790	12.726	0.512
1016.500	588.946	80.006	19.994	103.109	19.787	12.903	0.514
1017.000	589.203	80.008	19.994	103.112	19.791	12.614	0.518
1017.500	589.461	80.006	19.994	103.111	19.784	13.069	0.523
1018.000	589.694	80.006	19.995	103.106	19.787	12.919	0.503
1018.501	589.942	80.005	19.994	103.104	19.791	12.653	0.485
1019.001	590.214	80.006	19.995	103.099	19.787	12.874	0.500
1019.501	590.427	80.007	19.994	103.097	19.788	12.803	0.503
1020.000	590.712	80.004	19.994	103.103	19.789	12.781	0.492
1020.500	590.979	80.006	19.995	103.109	19.785	13.033	0.525
1021.000	591.235	80.005	19.996	103.116	19.787	12.872	0.538
1021.500	591.476	80.006	19.994	103.120	19.784	13.096	0.510
1022.000	591.740	80.005	19.995	103.126	19.786	12.969	0.501
1022.500	592.000	80.002	19.994	103.123	19.785	12.994	0.514
1023.000	592.288	80.008	19.994	103.120	19.783	13.165	0.536
1023.500	592.495	80.006	19.994	103.118	19.788	12.848	0.522
1024.000	592.784	80.005	19.994	103.114	19.785	12.997	0.496
1024.500	593.018	80.008	19.995	103.114	19.783	13.130	0.509
1025.000	593.309	80.007	19.995	103.117	19.785	13.019	0.524
1025.501	593.561	80.006	19.995	103.122	19.781	13.301	0.534
1026.001	593.847	80.006	19.994	103.121	19.786	12.961	0.540
1026.500	594.079	80.003	19.993	103.121	19.785	13.013	0.528
1027.000	594.328	80.005	19.994	103.117	19.785	13.034	0.500
1027.500	594.593	80.005	19.994	103.112	19.786	12.950	0.497
1028.000	594.884	80.006	19.995	103.104	19.783	13.178	0.535
1028.500	595.121	80.005	19.994	103.102	19.785	13.022	0.542
1029.000	595.400	80.007	19.995	103.105	19.784	13.061	0.522
1029.500	595.661	80.005	19.994	103.108	19.783	13.146	0.528
1030.000	595.919	80.006	19.994	103.107	19.781	13.255	0.530
1030.500	596.165	80.006	19.994	103.107	19.783	13.120	0.512
1031.000	596.424	80.005	19.995	103.107	19.783	13.135	0.505
1031.500	596.687	80.007	19.994	103.105	19.785	13.047	0.514
1032.000	596.923	80.006	19.994	103.102	19.784	13.073	0.510
1032.500	597.157	80.006	19.995	103.104	19.779	13.390	0.484
1033.001	597.428	80.006	19.993	103.107	19.784	13.093	0.488
1033.501	597.667	80.006	19.994	103.106	19.782	13.239	0.508
1034.000	597.935	80.006	19.994	103.105	19.781	13.270	0.508
1034.500	598.171	80.006	19.993	103.105	19.783	13.148	0.505
1035.000	598.467	80.008	19.994	103.103	19.781	13.303	0.518
1035.500	598.674	80.006	19.994	103.100	19.779	13.397	0.518
1036.000	598.969	80.007	19.994	103.100	19.783	13.157	0.503
1036.500	599.205	80.008	19.993	103.101	19.782	13.200	0.517
1037.000	599.462	80.007	19.994	103.105	19.782	13.222	0.512
1037.500	599.722	80.006	19.994	103.110	19.783	13.145	0.505
1038.000	599.958	80.006	19.995	103.113	19.783	13.163	0.507
1038.500	600.217	80.005	19.994	103.114	19.784	13.075	0.495
1039.000	600.479	80.006	19.994	103.114	19.783	13.132	0.507
1039.501	600.701	80.006	19.994	103.111	19.779	13.413	0.503
1040.001	600.994	80.008	19.993	103.105	19.785	13.006	0.500
1040.501	601.240	80.008	19.994	103.103	19.784	13.106	0.527
1041.000	601.502	80.007	19.994	103.105	19.784	13.084	0.524
1041.500	601.735	80.006	19.994	103.104	19.782	13.191	0.502
1042.000	602.021	80.006	19.993	103.104	19.780	13.316	0.507
1042.500	602.282	80.006	19.993	103.105	19.784	13.070	0.533
1043.000	602.544	80.008	19.994	103.105	19.785	12.995	0.535
1043.500	602.764	80.004	19.994	103.101	19.783	13.119	0.503
1044.000	602.999	80.005	19.994	103.101	19.785	13.030	0.469
1044.500	603.245	80.006	19.995	103.103	19.783	13.150	0.468
1045.000	603.490	80.006	19.994	103.103	19.783	13.163	0.486
1045.500	603.784	80.003	19.995	103.106	19.778	13.487	0.515
1046.001	604.041	80.005	19.995	103.112	19.781	13.284	0.545
1046.501	604.258	80.006	19.995	103.119	19.780	13.335	0.513
1047.000	604.525	80.005	19.994	103.120	19.781	13.295	0.479
1047.500	604.781	80.007	19.995	103.120	19.782	13.231	0.503
1048.000	605.032	80.006	19.995	103.120	19.783	13.160	0.515
1048.500	605.288	80.005	19.994	103.113	19.783	13.165	0.507
1049.000	605.500	80.006	19.996	103.107	19.781	13.259	0.488
1049.500	605.775	80.004	19.994	103.104	19.782	13.216	0.478
1050.001	606.021	80.004	19.995	103.103	19.784	13.079	0.503
1050.501	606.304	80.004	19.995	103.105	19.782	13.210	0.525
1051.000	606.533	80.005	19.995	103.110	19.781	13.291	0.521
1051.500	606.757	80.004	19.994	103.118	19.783	13.182	0.483
1052.000	607.052	80.005	19.996	103.122	19.779	13.431	0.486
1052.500	607.294	80.003	19.994	103.121	19.781	13.275	0.528
1053.000	607.534	80.005	19.996	103.117	19.781	13.277	0.509
1053.500	607.810	80.004	19.996	103.117	19.780	13.341	0.499
1054.000	608.043	80.006	19.996	103.115	19.780	13.334	0.513
1054.500	608.313	80.004	19.995	103.115	19.781	13.270	0.506
1055.001	608.534	80.004	19.996	103.118	19.775	13.669	0.496
1055.501	608.782	80.006	19.996	103.120	19.778	13.455	0.480
1056.001	609.019	80.006	19.995	103.118	19.778	13.494	0.477
1056.501	609.289	80.006	19.995	103.116	19.777	13.531	0.496
1057.000	609.554	80.006	19.994	103.111	19.777	13.566	0.521
1057.500	609.836	80.007	19.995	103.107	19.776	13.613	0.541
1058.000	610.034	80.007	19.996	103.104	19.775	13.647	0.513
1058.501	610.320	80.007	19.995	103.103	19.775	13.691	0.482
1059.001	610.533	80.006	19.996	103.105	19.776	13.631	0.491
1059.500	610.818	80.009	19.995	103.108	19.773	13.782	0.498
1060.000	611.019	80.006	19.994	103.109	19.778	13.506	0.492
1060.500	611.299	80.006	19.995	103.112	19.779	13.406	0.484
1061.001	611.554	80.006	19.995	103.110	19.777	13.547	0.508
1061.501	611.773	80.007	19.995	103.105	19.776	13.628	0.505
1062.000	612.062	80.007	19.994	103.104	19.774	13.714	0.491
1062.500	612.326	80.006	19.994	103.103	19.778	13.498	0.530
1063.000	612.587	80.007	19.995	103.100	19.775	13.701	0.539
1063.500	612.832	80.010	19.995	103.100	19.776	13.601	0.516
1064.000	613.062	80.007	19.995	103.100	19.776	13.613	0.491
1064.501	613.307	80.008	19.995	103.097	19.775	13.661	0.475
1065.001	613.551	80.008	19.995	103.097	19.770	13.980	0.482
1065.500	613.813	80.006	19.994	103.099	19.773	13.792	0.497
1066.000	614.057	80.008	19.995	103.105	19.774	13.725	0.506
1066.500	614.345	80.007	19.994	103.112	19.773	13.829	0.520
1067.001	614.577	80.008	19.995	103.118	19.772	13.891	0.526
1067.501	614.808	80.006	19.995	103.122	19.770	13.985	0.491
1068.000	615.061	80.008	19.994	103.122	19.770	13.992	0.474
1068.500	615.315	80.008	19.993	103.115	19.770	14.013	0.495
1069.000	615.568	80.007	19.994	103.108	19.771	13.962	0.507
1069.500	615.847	80.009	19.995	103.104	19.771	13.962	0.520
1070.000	616.107	80.007	19.996	103.104	19.770	13.982	0.535
1070.500	616.380	80.008	19.995	103.110	19.769	14.049	0.536
1071.000	616.556	80.004	19.995	103.116	19.771	13.945	0.491
1071.500	616.868	80.009	19.994	103.116	19.770	13.988	0.469
1072.000	617.100	80.009	19.995	103.114	19.770	14.009	0.516
1072.500	617.275	80.008	19.993	103.110	19.771	13.957	0.476
1073.000	617.542	80.007	19.995	103.103	19.769	14.089	0.425
1073.501	617.803	80.007	19.995	103.098	19.767	14.202	0.485
1074.001	618.053	80.007	19.995	103.098	19.769	14.072	0.519
1074.500	618.315	80.005	19.994	103.098	19.767	14.167	0.511
1075.000	618.563	80.006	19.995	103.098	19.769	14.042	0.511
1075.500	618.826	80.008	19.994	103.097	19.765	14.330	0.511
1076.000	619.066	80.007	19.996	103.096	19.769	14.079	0.507
1076.500	619.351	80.006	19.996	103.095	19.766	14.285	0.514
1077.000	619.550	80.006	19.994	103.094	19.771	13.954	0.505
1077.500	619.812	80.007	19.995	103.098	19.769	14.075	0.473
1078.000	620.083	80.007	19.995	103.103	19.769	14.049	0.497
1078.500	620.256	80.007	19.995	103.109	19.768	14.113	0.488
1079.000	620.486	80.005	19.995	103.112	19.766	14.283	0.423
1079.500	620.753	80.005	19.995	103.113	19.770	14.007	0.450
1080.000	621.020	80.008	19.996	103.109	19.769	14.033	0.516
1080.500	621.225	80.008	19.996	103.104	19.768	14.112	0.503
1081.000	621.487	80.007	19.996	103.098	19.768	14.152	0.469
1081.500	621.712	80.007	19.996	103.098	19.770	13.980	0.477
1082.000	621.975	80.006	19.996	103.097	19.771	13.939	0.487
1082.500	622.217	80.005	19.996	103.097	19.768	14.113	0.497
1083.000	622.470	80.006	19.996	103.097	19.769	14.077	0.500
1083.500	622.695	80.006	19.994	103.098	19.766	14.228	0.487
1084.000	622.923	80.005	19.995	103.097	19.767	14.174	0.466
1084.500	623.185	80.007	19.995	103.098	19.768	14.125	0.471
1085.000	623.428	80.006	19.995	103.099	19.765	14.321	0.497
1085.500	623.670	80.006	19.996	103.098	19.765	14.320	0.494
1086.000	623.894	80.005	19.996	103.099	19.767	14.216	0.475
1086.501	624.149	80.007	19.996	103.099	19.765	14.306	0.473
1087.001	624.356	80.006	19.996	103.098	19.765	14.324	0.471
1087.500	624.614	80.006	19.995	103.097	19.764	14.369	0.463
1088.000	624.858	80.006	19.995	103.098	19.766	14.287	0.483
1088.501	625.092	80.008	19.995	103.099	19.764	14.373	0.490
1089.001	625.302	80.006	19.995	103.098	19.762	14.545	0.461
1089.500	625.525	80.007	19.995	103.099	19.764	14.417	0.438
1090.000	625.782	80.008	19.996	103.101	19.763	14.482	0.456
1090.500	626.014	80.008	19.995	103.103	19.764	14.406	0.485
1091.000	626.266	80.008	19.994	103.103	19.765	14.341	0.486
1091.500	626.527	80.009	19.995	103.102	19.764	14.409	0.498
1092.000	626.750	80.008	19.995	103.102	19.761	14.571	0.499
1092.500	626.972	80.009	19.994	103.102	19.763	14.437	0.465
1093.000	627.261	80.007	19.995	103.099	19.765	14.349	0.478
1093.500	627.503	80.008	19.995	103.097	19.764	14.401	0.521
1094.001	627.683	80.008	19.994	103.097	19.764	14.368	0.476
1094.501	627.956	80.009	19.995	103.099	19.763	14.446	0.438
1095.000	628.215	80.009	19.994	103.098	19.763	14.439	0.493
1095.500	628.462	80.010	19.994	103.098	19.763	14.429	0.519
1096.000	628.718	80.009	19.994	103.098	19.765	14.346	0.504
1096.500	628.922	80.009	19.994	103.100	19.764	14.421	0.481
1097.000	629.163	80.010	19.994	103.099	19.764	14.392	0.452
1097.500	629.384	80.010	19.994	103.103	19.763	14.468	0.454
1098.000	629.655	80.010	19.994	103.104	19.762	14.501	0.478
1098.500	629.871	80.009	19.994	103.105	19.764	14.389	0.490
1099.001	630.135	80.009	19.994	103.105	19.766	14.252	0.483
1099.501	630.333	80.008	19.994	103.107	19.764	14.368	0.471
1100.001	630.609	80.009	19.994	103.104	19.764	14.419	0.468
1100.501	630.855	80.007	19.993	103.104	19.762	14.544	0.498
1101.000	631.101	80.008	19.995	103.109	19.763	14.440	0.507
1101.500	631.323	80.008	19.995	103.108	19.763	14.440	0.479
1102.001	631.585	80.007	19.994	103.104	19.764	14.365	0.476
1102.501	631.814	80.007	19.993	103.104	19.762	14.513	0.488
1103.000	632.041	80.008	19.994	103.102	19.761	14.572	0.474
1103.500	632.292	80.008	19.993	103.098	19.760	14.628	0.466
1104.000	632.535	80.005	19.993	103.098	19.759	14.745	0.485
1104.500	632.783	80.006	19.994	103.098	19.763	14.456	0.493
1105.000	633.024	80.006	19.993	103.097	19.761	14.581	0.490
1105.500	633.253	80.007	19.994	103.099	19.763	14.425	0.480
1106.000	633.535	80.006	19.994	103.101	19.760	14.643	0.491
1106.500	633.753	80.008	19.995	103.101	19.761	14.586	0.506
1107.000	634.003	80.006	19.994	103.103	19.765	14.339	0.484
1107.500	634.314	80.007	19.996	103.106	19.764	14.418	0.514
1108.000	634.545	80.005	19.993	103.108	19.761	14.603	0.551
1108.501	634.802	80.006	19.994	103.108	19.764	14.406	0.515
1109.001	635.072	80.006	19.995	103.110	19.764	14.412	0.508
1109.501	635.291	80.006	19.994	103.109	19.762	14.535	0.508
1110.000	635.527	80.006	19.994	103.110	19.764	14.422	0.472
1110.500	635.783	80.007	19.995	103.108	19.762	14.501	0.474
1111.000	636.033	80.006	19.995	103.108	19.761	14.573	0.499
1111.500	636.332	80.006	19.995	103.108	19.763	14.442	0.528
1112.000	636.590	80.006	19.994	103.109	19.761	14.593	0.553
1112.500	636.821	80.005	19.994	103.107	19.757	14.860	0.523
1113.000	637.065	80.008	19.994	103.111	19.759	14.710	0.482
1113.501	637.323	80.005	19.995	103.109	19.758	14.778	0.489
1114.001	637.541	80.005	19.993	103.109	19.759	14.692	0.489
1114.501	637.805	80.006	19.995	103.110	19.758	14.777	0.479
1115.001	638.090	80.005	19.995	103.109	19.757	14.825	0.516
1115.500	638.307	80.006	19.995	103.108	19.757	14.844	0.526
1116.000	638.642	80.006	19.995	103.111	19.758	14.807	0.527
1116.500	638.810	80.005	19.994	103.111	19.756	14.907	0.527
1117.000	639.062	80.005	19.994	103.109	19.759	14.727	0.461
1117.500	639.339	80.004	19.994	103.109	19.756	14.910	0.475
1118.000	639.617	80.003	19.993	103.111	19.753	15.115	0.542
1118.500	639.875	80.006	19.995	103.111	19.758	14.769	0.546
1119.000	640.126	80.004	19.994	103.117	19.756	14.897	0.523
1119.501	640.379	80.005	19.995	103.123	19.753	15.085	0.507
1120.001	640.652	80.006	19.994	103.129	19.754	15.016	0.515
1120.500	640.919	80.006	19.995	103.130	19.755	14.977	0.533
1121.000	641.186	80.006	19.995	103.128	19.755	14.966	0.537
1121.500	641.461	80.006	19.994	103.121	19.756	14.940	0.538
1122.000	641.709	80.007	19.993	103.114	19.758	14.802	0.533
1122.500	641.984	80.006	19.995	103.109	19.758	14.765	0.523
1123.001	642.255	80.006	19.993	103.106	19.755	14.995	0.534
1123.501	642.458	80.006	19.995	103.111	19.753	15.135	0.510
1124.000	642.718	80.006	19.994	103.116	19.754	15.047	0.469
1124.500	643.065	80.007	19.994	103.123	19.757	14.837	0.535
1125.000	643.305	80.007	19.994	103.123	19.756	14.893	0.597
1125.500	643.538	80.008	19.995	103.124	19.755	14.970	0.530
1126.000	643.818	80.008	19.995	103.123	19.753	15.083	0.493
1126.500	644.052	80.007	19.994	103.120	19.754	15.048	0.513
1127.000	644.331	80.005	19.994	103.116	19.756	14.920	0.513
1127.500	644.578	80.006	19.995	103.116	19.756	14.940	0.520
1128.000	644.825	80.006	19.994	103.112	19.756	14.912	0.510
1128.500	645.101	80.005	19.993	103.107	19.757	14.831	0.509
1129.000	645.368	80.006	19.994	103.104	19.757	14.851	0.533
1129.500	645.616	80.008	19.994	103.104	19.756	14.881	0.529
1130.001	645.869	80.006	19.995	103.105	19.756	14.917	0.508
1130.501	646.142	80.007	19.994	103.109	19.756	14.880	0.514
1131.000	646.409	80.007	19.994	103.114	19.755	14.974	0.533
1131.500	646.642	80.006	19.994	103.118	19.754	15.016	0.520
1132.000	646.915	80.006	19.994	103.115	19.757	14.854	0.503
1132.500	647.161	80.005	19.994	103.112	19.755	14.946	0.512
1133.000	647.425	80.007	19.993	103.108	19.756	14.919	0.514
1133.500	647.699	80.007	19.994	103.104	19.755	14.973	0.524
1134.000	647.945	80.008	19.994	103.100	19.760	14.651	0.529
1134.500	648.190	80.005	19.994	103.099	19.754	15.067	0.506
1135.000	648.455	80.006	19.994	103.099	19.756	14.911	0.501
1135.500	648.700	80.005	19.995	103.098	19.752	15.169	0.510
1136.000	648.973	80.006	19.995	103.100	19.751	15.243	0.514
1136.500	649.222	80.006	19.994	103.104	19.749	15.348	0.520
1137.001	649.495	80.006	19.995	103.105	19.751	15.218	0.522
1137.501	649.744	80.006	19.993	103.105	19.748	15.447	0.522
1138.000	649.979	80.007	19.995	103.106	19.753	15.095	0.503
1138.500	650.258	80.006	19.995	103.104	19.747	15.529	0.499
1139.000	650.503	80.007	19.994	103.101	19.750	15.322	0.519
1139.500	650.750	80.006	19.994	103.100	19.745	15.601	0.508
1140.000	650.998	80.005	19.994	103.098	19.745	15.629	0.493
1140.500	651.276	80.006	19.995	103.097	19.748	15.443	0.511
1141.000	651.530	80.006	19.993	103.097	19.749	15.376	0.529
1141.501	651.729	80.007	19.995	103.097	19.750	15.322	0.493
1142.001	652.030	80.006	19.996	103.096	19.751	15.265	0.476
1142.500	652.284	80.005	19.995	103.097	19.749	15.383	0.527
1143.000	652.520	80.007	19.995	103.097	19.749	15.391	0.522
1143.500	652.804	80.008	19.995	103.098	19.750	15.289	0.505
1144.000	653.038	80.005	19.994	103.098	19.750	15.324	0.519
1144.500	653.301	80.008	19.994	103.101	19.749	15.393	0.508
1145.000	653.533	80.008	19.994	103.103	19.749	15.386	0.496
1145.500	653.779	80.007	19.994	103.104	19.748	15.423	0.486
1146.000	654.025	80.006	19.995	103.102	19.751	15.254	0.485
1146.500	654.327	80.005	19.994	103.102	19.747	15.525	0.519
1147.000	654.574	80.005	19.995	103.099	19.746	15.551	0.548
1147.500	654.824	80.006	19.994	103.097	19.745	15.615	0.523
1148.000	655.051	80.006	19.995	103.097	19.748	15.423	0.487
1148.500	655.314	80.008	19.995	103.098	19.747	15.509	0.484
1149.001	655.541	80.008	19.995	103.099	19.746	15.532	0.490
1149.500	655.797	80.010	19.994	103.098	19.748	15.418	0.486
1150.000	656.064	80.007	19.994	103.098	19.748	15.464	0.503
1150.500	656.282	80.007	19.996	103.097	19.746	15.573	0.504
1151.000	656.536	80.006	19.995	103.096	19.748	15.448	0.478
1151.500	656.776	80.007	19.995	103.096	19.741	15.865	0.483
1152.000	657.002	80.008	19.994	103.096	19.747	15.524	0.481
1152.501	657.225	80.008	19.995	103.096	19.746	15.571	0.458
1153.000	657.460	80.009	19.994	103.096	19.747	15.533	0.453
1153.500	657.741	80.008	19.995	103.096	19.745	15.615	0.486
1154.000	657.977	80.008	19.995	103.096	19.746	15.577	0.517
1154.500	658.276	80.008	19.994	103.096	19.744	15.680	0.526
1155.000	658.544	80.008	19.995	103.098	19.744	15.668	0.551
1155.500	658.771	80.008	19.994	103.098	19.745	15.643	0.531
1156.000	659.009	80.010	19.995	103.099	19.745	15.644	0.480
1156.500	659.246	80.008	19.994	103.099	19.745	15.642	0.470
1157.000	659.494	80.007	19.996	103.102	19.742	15.815	0.479
1157.500	659.771	80.008	19.995	103.100	19.741	15.861	0.505
1158.000	659.973	80.008	19.995	103.099	19.742	15.820	0.502
1158.500	660.232	80.008	19.995	103.099	19.742	15.842	0.470
1159.000	660.464	80.008	19.995	103.100	19.746	15.592	0.477
1159.500	660.714	80.008	19.995	103.098	19.746	15.550	0.487
1160.000	660.967	80.009	19.995	103.101	19.741	15.903	0.492
1160.500	661.213	80.007	19.994	103.101	19.739	16.019	0.501
1161.000	661.470	80.009	19.994	103.106	19.742	15.814	0.501
1161.500	661.727	80.007	19.996	103.108	19.743	15.733	0.509
1162.000	661.958	80.007	19.995	103.114	19.743	15.737	0.501
1162.500	662.248	80.008	19.996	103.115	19.745	15.610	0.504
1163.000	662.457	80.007	19.995	103.118	19.744	15.663	0.510
1163.500	662.696	80.006	19.996	103.118	19.742	15.802	0.474
1164.000	662.962	80.007	19.995	103.120	19.742	15.803	0.477
1164.500	663.204	80.007	19.995	103.120	19.744	15.713	0.506
1165.000	663.453	80.007	19.995	103.123	19.743	15.763	0.499
1165.500	663.723	80.007	19.995	103.124	19.741	15.899	0.505
1166.001	663.954	80.008	19.996	103.125	19.742	15.824	0.510
1166.500	664.233	80.007	19.995	103.123	19.743	15.748	0.506
1167.000	664.473	80.007	19.995	103.120	19.742	15.810	0.514
1167.500	664.695	80.007	19.996	103.116	19.742	15.813	0.490
1168.000	664.987	80.008	19.994	103.112	19.743	15.735	0.488
1168.500	665.224	80.007	19.995	103.111	19.744	15.691	0.521
1169.000	665.492	80.007	19.995	103.111	19.740	15.977	0.517
1169.500	665.729	80.007	19.994	103.107	19.741	15.886	0.506
1170.000	666.008	80.006	19.994	103.106	19.744	15.722	0.511
1170.500	666.236	80.007	19.995	103.106	19.745	15.633	0.512
1171.000	666.542	80.007	19.995	103.101	19.742	15.800	0.520
1171.500	666.728	80.008	19.994	103.099	19.740	15.961	0.512
1172.000	667.024	80.007	19.995	103.100	19.741	15.919	0.487
1172.500	667.270	80.008	19.995	103.100	19.743	15.781	0.512
1173.000	667.533	80.007	19.995	103.100	19.743	15.742	0.526
1173.500	667.856	80.008	19.995	103.100	19.741	15.891	0.548
1174.000	668.037	80.008	19.995	103.104	19.739	16.032	0.545
1174.500	668.303	80.007	19.995	103.110	19.737	16.167	0.476
1175.000	668.546	80.008	19.995	103.112	19.739	16.021	0.478
1175.500	668.818	80.007	19.994	103.113	19.739	16.025	0.512
1176.000	669.095	80.008	19.995	103.113	19.738	16.064	0.532
1176.500	669.374	80.007	19.995	103.108	19.738	16.054	0.553
1177.000	669.629	80.008	19.995	103.105	19.741	15.887	0.545
1177.500	669.890	80.008	19.995	103.106	19.739	16.002	0.525
1178.000	670.120	80.008	19.995	103.107	19.740	15.946	0.503
1178.500	670.395	80.008	19.996	103.110	19.737	16.146	0.497
1179.000	670.684	80.008	19.996	103.110	19.736	16.249	0.534
1179.500	670.960	80.009	19.996	103.107	19.737	16.154	0.565
1180.000	671.224	80.008	19.995	103.106	19.733	16.414	0.552
1180.500	671.424	80.009	19.995	103.105	19.736	16.239	0.502
1181.000	671.725	80.008	19.995	103.103	19.734	16.331	0.483
1181.500	671.998	80.009	19.995	103.105	19.738	16.063	0.538
1182.000	672.270	80.008	19.995	103.108	19.736	16.217	0.560
1182.500	672.516	80.008	19.995	103.104	19.737	16.169	0.532
1183.000	672.803	80.008	19.995	103.103	19.739	15.998	0.526
1183.500	673.052	80.009	19.994	103.104	19.737	16.143	0.535
1184.001	673.320	80.009	19.994	103.104	19.735	16.291	0.527
1184.500	673.593	80.007	19.995	103.104	19.733	16.401	0.529
1185.000	673.833	80.007	19.995	103.105	19.735	16.297	0.527
1185.500	674.135	80.008	19.996	103.105	19.737	16.145	0.527
1186.000	674.392	80.007	19.995	103.105	19.740	15.973	0.550
1186.501	674.681	80.008	19.995	103.105	19.737	16.141	0.553
1187.000	674.945	80.009	19.995	103.103	19.737	16.175	0.550
1187.500	675.204	80.007	19.995	103.102	19.735	16.314	0.538
1188.000	675.461	80.008	19.995	103.101	19.736	16.192	0.520
1188.500	675.730	80.007	19.995	103.100	19.735	16.312	0.521
1189.000	675.948	80.007	19.996	103.100	19.735	16.260	0.506
1189.500	676.247	80.006	19.997	103.105	19.733	16.401	0.502
1190.000	676.515	80.008	19.996	103.110	19.732	16.447	0.543
1190.500	676.768	80.007	19.995	103.110	19.734	16.345	0.544
1191.001	677.030	80.007	19.995	103.110	19.735	16.284	0.518
1191.500	677.282	80.009	19.994	103.109	19.734	16.344	0.515
1192.000	677.564	80.007	19.996	103.102	19.735	16.296	0.524
1192.500	677.812	80.007	19.995	103.096	19.734	16.317	0.532
1193.000	678.045	80.006	19.994	103.096	19.735	16.291	0.505
1193.500	678.376	80.006	19.996	103.098	19.733	16.426	0.523
1194.000	678.599	80.006	19.995	103.099	19.735	16.288	0.560
1194.500	678.863	80.006	19.995	103.099	19.735	16.266	0.520
1195.000	679.107	80.006	19.995	103.100	19.736	16.228	0.497
1195.500	679.393	80.006	19.994	103.104	19.734	16.354	0.519
1196.000	679.628	80.006	19.995	103.108	19.734	16.354	0.526
1196.500	679.913	80.005	19.994	103.111	19.736	16.187	0.520
1197.000	680.168	80.006	19.995	103.114	19.736	16.238	0.530
1197.500	680.411	80.006	19.994	103.115	19.734	16.375	0.519
1198.000	680.664	80.006	19.995	103.114	19.736	16.203	0.497
1198.500	680.951	80.007	19.995	103.112	19.733	16.394	0.518
1199.000	681.189	80.006	19.994	103.112	19.734	16.362	0.532
1199.500	681.431	80.005	19.995	103.111	19.734	16.353	0.502
1200.000	681.713	80.006	19.994	103.112	19.734	16.373	0.502
1200.500	681.987	80.007	19.994	103.109	19.735	16.289	0.540
1201.000	682.252	80.006	19.994	103.104	19.732	16.471	0.548
1201.500	682.518	80.006	19.993	103.100	19.732	16.471	0.535
1202.000	682.759	80.006	19.993	103.099	19.732	16.465	0.519
1202.500	683.018	80.007	19.994	103.098	19.733	16.388	0.504
1203.000	683.272	80.007	19.994	103.102	19.733	16.387	0.506
1203.500	683.518	80.006	19.995	103.104	19.734	16.351	0.506
1204.000	683.831	80.006	19.995	103.104	19.736	16.206	0.530
1204.500	684.002	80.006	19.993	103.102	19.733	16.419	0.522
1205.000	684.288	80.007	19.995	103.102	19.735	16.252	0.470
1205.500	684.566	80.008	19.994	103.098	19.732	16.455	0.510
1206.000	684.811	80.008	19.994	103.096	19.730	16.606	0.543
1206.500	685.061	80.008	19.996	103.096	19.733	16.412	0.509
1207.000	685.334	80.007	19.995	103.097	19.732	16.502	0.509
1207.500	685.617	80.007	19.994	103.099	19.733	16.444	0.540
1208.000	685.838	80.008	19.995	103.103	19.734	16.380	0.530
1208.500	686.108	80.007	19.994	103.104	19.732	16.445	0.497
1209.000	686.348	80.007	19.993	103.103	19.734	16.369	0.501
1209.500	686.632	80.008	19.995	103.103	19.734	16.322	0.517
1210.000	686.898	80.008	19.994	103.101	19.731	16.521	0.537
1210.500	687.147	80.007	19.993	103.097	19.733	16.431	0.533
1211.000	687.438	80.007	19.994	103.096	19.732	16.496	0.528
1211.500	687.652	80.008	19.995	103.097	19.733	16.384	0.522
1212.000	687.914	80.008	19.994	103.100	19.734	16.360	0.491
1212.500	688.186	80.007	19.994	103.103	19.730	16.632	0.505
1213.000	688.405	80.007	19.994	103.103	19.732	16.464	0.512
1213.500	688.678	80.007	19.995	103.103	19.729	16.660	0.491
1214.000	688.945	80.007	19.994	103.102	19.731	16.567	0.516
1214.500	689.212	80.008	19.994	103.098	19.731	16.550	0.537
1215.000	689.491	80.008	19.994	103.098	19.730	16.582	0.540
1215.500	689.722	80.008	19.995	103.100	19.730	16.617	0.528
1216.000	690.005	80.008	19.994	103.103	19.733	16.424	0.512
1216.500	690.268	80.007	19.995	103.108	19.729	16.653	0.530
1217.000	690.490	80.007	19.994	103.110	19.730	16.603	0.515
1217.500	690.806	80.007	19.995	103.109	19.731	16.561	0.511
1218.000	691.033	80.007	19.994	103.107	19.729	16.641	0.541
1218.500	691.286	80.008	19.995	103.104	19.728	16.769	0.512
1219.000	691.578	80.007	19.994	103.102	19.729	16.675	0.513
1219.500	691.822	80.006	19.994	103.102	19.730	16.585	0.541
1220.000	692.109	80.007	19.995	103.102	19.729	16.698	0.534
1220.500	692.318	80.007	19.994	103.101	19.727	16.784	0.514
1221.000	692.595	80.008	19.993	103.101	19.729	16.682	0.491
1221.500	692.844	80.008	19.994	103.098	19.730	16.620	0.506
1222.000	693.113	80.006	19.995	103.096	19.730	16.631	0.521
1222.500	693.399	80.008	19.994	103.096	19.730	16.604	0.537
1223.000	693.625	80.007	19.994	103.096	19.730	16.595	0.534
1223.500	693.920	80.006	19.996	103.099	19.728	16.723	0.516
1224.000	694.205	80.005	19.994	103.102	19.729	16.668	0.550
1224.500	694.405	80.006	19.995	103.103	19.726	16.870	0.532
1225.000	694.716	80.007	19.996	103.104	19.730	16.636	0.498
1225.500	694.979	80.007	19.995	103.104	19.731	16.561	0.543
1226.000	695.237	80.005	19.994	103.103	19.725	16.951	0.547
1226.500	695.490	80.008	19.993	103.101	19.731	16.520	0.516
1227.000	695.756	80.006	19.994	103.100	19.730	16.639	0.515
1227.500	696.022	80.006	19.995	103.100	19.728	16.766	0.526
1228.000	696.281	80.007	19.994	103.099	19.728	16.759	0.529
1228.500	696.559	80.007	19.994	103.100	19.729	16.687	0.531
1229.000	696.811	80.007	19.993	103.104	19.727	16.791	0.533
1229.500	697.069	80.007	19.994	103.108	19.726	16.891	0.520
1230.000	697.362	80.007	19.994	103.111	19.726	16.846	0.530
1230.500	697.634	80.007	19.994	103.111	19.725	16.946	0.559
1231.000	697.889	80.007	19.994	103.110	19.728	16.764	0.546
1231.500	698.140	80.007	19.994	103.105	19.723	17.088	0.517
1232.000	698.382	80.007	19.995	103.101	19.725	16.904	0.500
1232.500	698.664	80.008	19.994	103.100	19.722	17.150	0.508
1233.000	698.938	80.007	19.995	103.104	19.722	17.152	0.540
1233.500	699.187	80.007	19.994	103.107	19.722	17.152	0.539
1234.000	699.444	80.008	19.993	103.107	19.720	17.278	0.514
1234.500	699.786	80.008	19.994	103.107	19.724	16.994	0.553
1235.000	699.995	80.008	19.995	103.105	19.724	17.017	0.576
1235.500	700.281	80.007	19.995	103.101	19.723	17.080	0.523
1236.000	700.522	80.008	19.993	103.100	19.724	16.990	0.511
1236.500	700.801	80.009	19.994	103.100	19.722	17.158	0.524
1237.000	701.076	80.008	19.994	103.102	19.718	17.384	0.537
1237.500	701.345	80.009	19.994	103.102	19.723	17.094	0.549
1238.000	701.591	80.010	19.993	103.102	19.725	16.949	0.530
1238.500	701.847	80.009	19.993	103.101	19.722	17.118	0.509
1239.000	702.095	80.007	19.994	103.101	19.722	17.101	0.503
1239.500	702.370	80.010	19.994	103.099	19.720	17.254	0.514
1240.000	702.617	80.010	19.994	103.099	19.721	17.176	0.523
1240.500	702.932	80.010	19.994	103.103	19.723	17.060	0.542
1241.000	703.170	80.009	19.992	103.104	19.723	17.096	0.558
1241.500	703.422	80.009	19.993	103.103	19.721	17.198	0.522
1242.000	703.664	80.009	19.994	103.104	19.721	17.176	0.492
1242.500	703.927	80.009	19.994	103.103	19.721	17.179	0.500
1243.000	704.192	80.008	19.993	103.100	19.720	17.287	0.516
1243.500	704.470	80.008	19.994	103.098	19.721	17.169	0.535
1244.000	704.710	80.010	19.994	103.101	19.718	17.366	0.530
1244.500	704.963	80.009	19.994	103.101	19.721	17.209	0.505
1245.000	705.245	80.007	19.993	103.101	19.719	17.356	0.514
1245.500	705.483	80.008	19.994	103.100	19.723	17.055	0.527
1246.000	705.705	80.008	19.993	103.100	19.723	17.091	0.490
1246.500	705.968	80.008	19.994	103.098	19.721	17.184	0.473
1247.000	706.251	80.007	19.993	103.098	19.724	17.016	0.516
1247.500	706.453	80.008	19.992	103.098	19.720	17.241	0.516
1248.001	706.758	80.009	19.994	103.098	19.718	17.361	0.496
1248.500	707.014	80.007	19.995	103.098	19.721	17.208	0.534
1249.000	707.294	80.006	19.994	103.098	19.722	17.120	0.548
1249.500	707.515	80.005	19.996	103.097	19.719	17.356	0.519
1250.000	707.766	80.008	19.996	103.098	19.717	17.465	0.487
1250.500	708.071	80.007	19.994	103.098	19.721	17.189	0.514
1251.000	708.294	80.006	19.995	103.098	19.721	17.201	0.542
1251.500	708.528	80.007	19.995	103.099	19.718	17.375	0.493
1252.000	708.829	80.006	19.994	103.098	19.719	17.331	0.496
1252.500	709.097	80.007	19.995	103.099	19.719	17.326	0.552
1253.000	709.354	80.007	19.995	103.099	19.720	17.285	0.547
1253.500	709.612	80.008	19.995	103.099	19.720	17.254	0.520
1254.000	709.829	80.006	19.995	103.099	19.719	17.347	0.495
1254.500	710.102	80.007	19.995	103.099	19.722	17.130	0.483
1255.000	710.407	80.006	19.995	103.099	19.722	17.122	0.534
1255.500	710.608	80.007	19.994	103.098	19.720	17.262	0.542
1256.000	710.863	80.006	19.995	103.098	19.721	17.184	0.481
1256.500	711.118	80.008	19.995	103.099	19.719	17.310	0.483
1257.000	711.378	80.008	19.994	103.098	19.721	17.203	0.512
1257.500	711.640	80.007	19.994	103.098	19.719	17.316	0.519
1258.000	711.896	80.007	19.995	103.098	19.716	17.553	0.520
1258.500	712.131	80.007	19.995	103.098	19.717	17.482	0.504
1259.000	712.387	80.008	19.993	103.097	19.719	17.326	0.491
1259.500	712.664	80.007	19.995	103.097	19.720	17.261	0.513
1260.000	712.936	80.010	19.992	103.097	19.720	17.261	0.541
1260.500	713.200	80.009	19.995	103.098	19.719	17.341	0.542
1261.000	713.462	80.008	19.995	103.098	19.722	17.131	0.530
1261.500	713.752	80.009	19.992	103.098	19.717	17.454	0.538
1262.000	713.966	80.008	19.993	103.097	19.720	17.279	0.528
1262.500	714.225	80.009	19.992	103.097	19.720	17.284	0.489
1263.000	714.470	80.009	19.995	103.096	19.714	17.637	0.488
1263.500	714.726	80.008	19.993	103.096	19.719	17.334	0.503
1264.000	714.979	80.010	19.993	103.098	19.716	17.540	0.505
1264.500	715.243	80.010	19.995	103.098	19.720	17.246	0.513
1265.000	715.538	80.008	19.993	103.098	19.717	17.440	0.538
1265.500	715.808	80.009	19.995	103.097	19.718	17.388	0.562
1266.000	716.042	80.009	19.993	103.096	19.720	17.281	0.535
1266.500	716.289	80.010	19.994	103.094	19.719	17.324	0.493
1267.000	716.528	80.009	19.995	103.096	19.716	17.499	0.483
1267.500	716.816	80.009	19.994	103.096	19.716	17.488	0.507
1268.000	717.096	80.010	19.993	103.096	19.717	17.452	0.548
1268.500	717.321	80.009	19.992	103.096	19.717	17.469	0.536
1269.000	717.604	80.010	19.994	103.095	19.718	17.379	0.506
1269.500	717.840	80.009	19.992	103.094	19.718	17.405	0.513
1270.001	718.088	80.011	19.995	103.093	19.716	17.508	0.502
1270.502	718.344	80.009	19.994	103.093	19.716	17.527	0.494
1271.002	718.558	80.011	19.993	103.093	19.714	17.631	0.487
1271.501	718.828	80.009	19.995	103.093	19.713	17.722	0.477
1272.000	719.061	80.009	19.993	103.093	19.710	17.882	0.494
1272.500	719.359	80.009	19.996	103.093	19.714	17.636	0.517
1273.000	719.607	80.009	19.993	103.093	19.720	17.265	0.538
1273.500	719.881	80.009	19.994	103.093	19.714	17.672	0.534
1274.000	720.139	80.008	19.994	103.093	19.714	17.665	0.527
1274.500	720.332	80.008	19.994	103.093	19.716	17.542	0.491
1275.000	720.660	80.008	19.994	103.093	19.714	17.639	0.486
1275.501	720.892	80.009	19.996	103.093	19.716	17.520	0.540
1276.001	721.113	80.005	19.993	103.093	19.715	17.561	0.507
1276.500	721.373	80.008	19.995	103.093	19.718	17.402	0.467
1277.000	721.608	80.006	19.995	103.094	19.716	17.520	0.488
1277.500	721.857	80.008	19.996	103.094	19.716	17.522	0.490
1278.000	722.110	80.007	19.994	103.093	19.718	17.368	0.493
1278.500	722.387	80.006	19.997	103.093	19.716	17.517	0.516
1279.000	722.664	80.007	19.997	103.092	19.716	17.541	0.542
1279.500	722.902	80.006	19.996	103.092	19.715	17.617	0.535
1280.000	723.138	80.007	19.996	103.092	19.712	17.762	0.495
1280.500	723.370	80.007	19.994	103.094	19.713	17.722	0.471
1281.000	723.617	80.007	19.996	103.094	19.712	17.795	0.474
1281.500	723.912	80.006	19.995	103.094	19.711	17.863	0.510
1282.000	724.142	80.006	19.996	103.094	19.714	17.657	0.533
1282.500	724.423	80.006	19.993	103.094	19.713	17.744	0.518
1283.001	724.656	80.006	19.996	103.095	19.713	17.707	0.513
1283.501	724.872	80.007	19.994	103.095	19.712	17.773	0.481
1284.001	725.172	80.007	19.995	103.095	19.715	17.612	0.483
1284.501	725.401	80.008	19.994	103.095	19.712	17.768	0.523
1285.000	725.661	80.007	19.996	103.094	19.714	17.652	0.509
1285.500	725.882	80.006	19.995	103.094	19.714	17.683	0.485
1286.000	726.142	80.007	19.996	103.094	19.715	17.612	0.481
1286.500	726.385	80.007	19.995	103.093	19.713	17.721	0.491
1287.000	726.653	80.004	19.994	103.094	19.709	17.969	0.507
1287.500	726.912	80.005	19.994	103.095	19.714	17.669	0.519
1288.000	727.181	80.006	19.996	103.095	19.713	17.742	0.528
1288.500	727.416	80.006	19.996	103.095	19.708	18.048	0.516
1289.000	727.649	80.007	19.993	103.096	19.713	17.746	0.486
1289.500	727.913	80.008	19.995	103.097	19.711	17.844	0.482
1290.000	728.151	80.006	19.997	103.096	19.712	17.772	0.499
1290.500	728.440	80.006	19.994	103.094	19.712	17.763	0.515
1291.000	728.666	80.007	19.995	103.095	19.712	17.799	0.521
1291.500	728.935	80.007	19.993	103.095	19.713	17.749	0.505
1292.000	729.192	80.008	19.996	103.095	19.713	17.707	0.510
1292.501	729.459	80.007	19.995	103.095	19.709	17.972	0.525
1293.001	729.674	80.007	19.996	103.096	19.710	17.907	0.503
1293.500	729.952	80.006	19.997	103.096	19.711	17.840	0.487
1294.000	730.198	80.007	19.994	103.096	19.710	17.894	0.509
1294.500	730.400	80.008	19.993	103.097	19.710	17.921	0.486
1295.000	730.669	80.007	19.992	103.097	19.713	17.693	0.459
1295.500	730.931	80.007	19.995	103.096	19.711	17.880	0.501
1296.000	731.169	80.009	19.993	103.097	19.711	17.860	0.516
1296.500	731.439	80.008	19.993	103.097	19.713	17.748	0.504
1297.000	731.709	80.008	19.993	103.096	19.714	17.654	0.524
1297.500	731.943	80.009	19.994	103.096	19.707	18.085	0.522
1298.000	732.165	80.008	19.994	103.097	19.710	17.932	0.480
1298.500	732.440	80.008	19.994	103.096	19.711	17.839	0.477
1299.000	732.678	80.009	19.994	103.097	19.706	18.161	0.505
1299.500	732.913	80.008	19.994	103.097	19.711	17.863	0.493
1300.000	733.181	80.009	19.994	103.098	19.712	17.806	0.488
1300.500	733.432	80.008	19.996	103.098	19.705	18.227	0.511
1301.000	733.663	80.008	19.993	103.098	19.706	18.175	0.500
1301.500	733.911	80.008	19.994	103.098	19.710	17.922	0.480
1302.000	734.161	80.009	19.996	103.097	19.708	18.050	0.488
1302.500	734.412	80.007	19.993	103.097	19.709	17.994	0.500
1303.001	734.692	80.008	19.995	103.097	19.711	17.821	0.516
1303.501	734.891	80.007	19.993	103.097	19.712	17.788	0.505
1304.000	735.134	80.007	19.992	103.098	19.710	17.918	0.461
1304.501	735.401	80.007	19.995	103.103	19.710	17.924	0.477
1305.001	735.624	80.007	19.993	103.102	19.709	18.000	0.500
1305.500	735.851	80.008	19.992	103.103	19.709	17.966	0.470
1306.000	736.100	80.007	19.994	103.104	19.711	17.865	0.463
1306.500	736.353	80.007	19.994	103.103	19.709	17.985	0.489
1307.000	736.629	80.006	19.994	103.100	19.705	18.224	0.515
1307.500	736.850	80.006	19.993	103.100	19.711	17.837	0.513
1308.000	737.075	80.006	19.993	103.098	19.707	18.085	0.472
1308.500	737.349	80.007	19.994	103.098	19.705	18.212	0.473
1309.000	737.592	80.007	19.995	103.097	19.706	18.151	0.508
1309.500	737.823	80.006	19.995	103.097	19.705	18.233	0.495
1310.000	738.047	80.007	19.993	103.097	19.705	18.271	0.465
1310.500	738.347	80.006	19.993	103.098	19.707	18.087	0.490
1311.001	738.529	80.007	19.995	103.099	19.707	18.101	0.503
1311.501	738.808	80.006	19.994	103.100	19.705	18.264	0.471
1312.000	739.031	80.006	19.995	103.100	19.704	18.324	0.481
1312.500	739.276	80.008	19.994	103.100	19.703	18.379	0.485
1313.000	739.536	80.007	19.993	103.098	19.704	18.303	0.487
1313.500	739.763	80.006	19.995	103.094	19.706	18.147	0.496
1314.000	740.026	80.006	19.993	103.094	19.703	18.362	0.488
1314.500	740.273	80.006	19.995	103.095	19.704	18.275	0.500
1315.000	740.516	80.006	19.994	103.095	19.704	18.295	0.500
1315.500	740.795	80.006	19.994	103.096	19.704	18.316	0.506
1316.000	741.028	80.006	19.994	103.099	19.703	18.369	0.517
1316.500	741.279	80.007	19.993	103.099	19.705	18.217	0.498
1317.000	741.533	80.007	19.994	103.098	19.705	18.251	0.495
1317.500	741.805	80.007	19.994	103.098	19.707	18.120	0.516
1318.001	742.025	80.008	19.994	103.099	19.703	18.367	0.509
1318.501	742.275	80.008	19.995	103.099	19.704	18.324	0.481
1319.000	742.534	80.007	19.994	103.099	19.706	18.156	0.490
1319.501	742.718	80.007	19.995	103.100	19.704	18.305	0.476
1320.001	742.982	80.008	19.993	103.100	19.701	18.488	0.445
1320.500	743.217	80.008	19.995	103.101	19.704	18.291	0.473
1321.000	743.442	80.009	19.995	103.100	19.706	18.150	0.479
1321.500	743.729	80.008	19.995	103.100	19.703	18.339	0.486
1322.000	743.962	80.008	19.993	103.100	19.704	18.303	0.516
1322.500	744.229	80.007	19.993	103.099	19.705	18.239	0.510
1323.000	744.496	80.008	19.993	103.098	19.701	18.497	0.517
1323.500	744.753	80.006	19.993	103.096	19.703	18.389	0.529
1324.000	744.974	80.008	19.992	103.096	19.704	18.301	0.501
1324.500	745.199	80.008	19.993	103.096	19.704	18.336	0.462
1325.000	745.434	80.008	19.995	103.096	19.706	18.152	0.453
