Sample ID:	C:\MCC\MCC Cal\Test\PMMAR05_MCC_30K_min_211013_R2.txt
Sample Weight (mg):	4.43
Heating Rate (C/s):	0.5
Combustor Temp (C):	900
N2 Flow Rate (cc/min):	80
O2 Flow Rate (cc/min):	20
Calibration File:	C:\MCC\MCC Cal\Coeff1 JN10440_30_210304.txt.txt
T Correction Coefficients:	0	1.024463	0
Time Shift (s):	14
*
Time (s)	Temperature (C)	N2 flow rate (cc/min)	O2 flow rate (cc/min)	Flow Rate (cc/min)	Oxygen (%)	HRR (W/g)	Heating rate (C/s)
0.000	110.172	79.994	19.994	102.907	20.213	0.347	0.002
0.500	110.125	79.995	19.995	102.910	20.220	-0.165	-0.003
1.000	110.155	79.995	19.995	102.915	20.218	-0.004	-0.021
1.500	110.155	79.993	19.995	102.915	20.215	0.177	0.007
2.000	110.174	79.993	19.995	102.918	20.213	0.307	0.025
2.500	110.145	79.993	19.995	102.917	20.213	0.345	0.004
3.000	110.127	79.993	19.995	102.914	20.219	-0.084	-0.029
3.500	110.159	79.996	19.995	102.909	20.214	0.257	-0.017
4.000	110.127	79.993	19.996	102.908	20.217	0.066	0.007
4.500	110.149	79.994	19.995	102.908	20.217	0.050	-0.005
5.000	110.141	79.995	19.996	102.909	20.212	0.418	0.002
5.500	110.157	79.993	19.996	102.914	20.215	0.195	0.011
6.000	110.121	79.994	19.996	102.917	20.218	-0.062	-0.006
6.500	110.125	79.994	19.994	102.917	20.216	0.112	-0.026
7.000	110.160	79.994	19.995	102.918	20.217	0.034	0.003
7.500	110.147	79.993	19.995	102.919	20.218	-0.020	0.030
8.001	110.107	79.993	19.995	102.918	20.216	0.086	-0.016
8.501	110.133	79.993	19.995	102.920	20.219	-0.137	-0.033
9.001	110.124	79.994	19.995	102.920	20.217	0.078	0.002
9.501	110.159	79.994	19.994	102.919	20.217	0.078	0.021
10.001	110.122	79.993	19.995	102.916	20.211	0.458	0.012
10.500	110.140	79.994	19.994	102.913	20.215	0.221	-0.010
11.000	110.103	79.993	19.995	102.928	20.214	0.263	-0.019
11.500	110.161	79.993	19.995	102.927	20.210	0.540	0.000
12.000	110.123	79.994	19.994	102.919	20.214	0.225	0.021
12.500	110.123	79.992	19.996	102.915	20.213	0.323	-0.009
13.000	110.114	79.994	19.995	102.915	20.215	0.173	-0.024
13.500	110.111	79.992	19.995	102.902	20.217	0.042	-0.010
14.000	110.120	79.992	19.994	102.909	20.211	0.488	-0.003
14.500	110.113	79.993	19.995	102.925	20.208	0.700	0.004
15.000	110.117	79.994	19.994	102.943	20.210	0.550	-0.000
15.500	110.095	79.993	19.994	102.954	20.210	0.538	-0.010
16.000	110.118	79.993	19.995	102.958	20.211	0.502	-0.009
16.500	110.117	79.993	19.993	102.961	20.214	0.263	0.011
17.000	110.121	79.994	19.995	102.961	20.214	0.261	0.012
17.500	110.112	79.993	19.994	102.958	20.214	0.239	-0.001
18.000	110.134	79.994	19.995	102.955	20.212	0.389	0.004
18.500	110.124	79.995	19.996	102.956	20.211	0.441	0.012
19.000	110.137	79.994	19.995	102.958	20.213	0.303	0.007
19.500	110.163	79.994	19.994	102.962	20.207	0.798	0.021
20.000	110.164	79.995	19.995	102.967	20.208	0.678	0.033
20.500	110.150	79.994	19.994	102.974	20.210	0.541	0.007
21.000	110.201	79.995	19.994	102.979	20.211	0.453	0.012
21.500	110.207	79.995	19.995	102.984	20.208	0.728	0.048
22.000	110.249	79.995	19.994	102.987	20.208	0.688	0.053
22.500	110.251	79.996	19.995	102.989	20.206	0.830	0.046
23.000	110.239	79.995	19.995	102.990	20.204	0.956	0.017
23.500	110.259	79.996	19.994	102.990	20.207	0.796	-0.001
24.000	110.280	79.996	19.995	102.991	20.203	1.064	0.024
24.500	110.266	79.994	19.995	102.991	20.199	1.343	0.024
25.000	110.283	79.995	19.994	102.997	20.202	1.137	0.005
25.500	110.287	79.996	19.995	103.000	20.202	1.104	0.012
26.000	110.328	79.994	19.994	102.990	20.203	1.024	0.033
26.500	110.320	79.996	19.994	102.988	20.200	1.289	0.039
27.000	110.366	79.995	19.993	102.994	20.190	1.984	0.036
27.500	110.419	79.994	19.994	102.996	20.201	1.201	0.069
28.000	110.365	79.994	19.994	103.003	20.197	1.505	0.049
28.500	110.446	79.995	19.994	103.041	20.192	1.858	0.013
29.000	110.507	79.994	19.994	103.083	20.193	1.802	0.084
29.500	110.531	79.994	19.994	103.102	20.191	1.965	0.113
30.001	110.591	79.994	19.995	103.115	20.193	1.756	0.084
30.501	110.581	79.993	19.994	103.126	20.191	1.906	0.067
31.000	110.654	79.993	19.995	103.113	20.194	1.746	0.057
31.500	110.673	79.993	19.994	103.088	20.193	1.814	0.077
32.000	110.696	79.992	19.995	103.080	20.190	1.968	0.067
32.500	110.732	79.992	19.996	103.077	20.184	2.429	0.051
33.000	110.814	79.992	19.995	103.079	20.186	2.281	0.089
33.500	110.861	79.990	19.994	103.087	20.183	2.501	0.123
34.000	110.886	79.991	19.995	103.094	20.191	1.962	0.100
34.501	110.912	79.990	19.994	103.102	20.187	2.207	0.061
35.001	111.012	79.992	19.997	103.108	20.184	2.413	0.089
35.501	111.038	79.993	19.995	103.109	20.184	2.431	0.126
36.000	111.108	79.991	19.996	103.112	20.183	2.489	0.111
36.500	111.158	79.990	19.995	103.120	20.189	2.108	0.107
37.000	111.242	79.990	19.995	103.124	20.184	2.439	0.127
37.500	111.294	79.993	19.996	103.124	20.180	2.758	0.135
38.001	111.363	79.991	19.995	103.121	20.181	2.622	0.128
38.501	111.358	79.992	19.996	103.117	20.184	2.455	0.093
39.001	111.460	79.991	19.996	103.110	20.183	2.511	0.080
39.501	111.522	79.992	19.996	103.105	20.183	2.489	0.130
40.000	111.606	79.992	19.995	103.105	20.174	3.143	0.155
40.501	111.645	79.993	19.996	103.107	20.178	2.842	0.134
41.001	111.709	79.991	19.995	103.110	20.174	3.136	0.113
41.501	111.803	79.992	19.996	103.116	20.175	3.074	0.131
42.001	111.898	79.992	19.995	103.123	20.177	2.946	0.174
42.501	111.949	79.992	19.994	103.130	20.181	2.674	0.167
43.001	112.045	79.992	19.995	103.136	20.177	2.973	0.147
43.500	112.141	79.993	19.995	103.140	20.180	2.754	0.170
44.001	112.167	79.993	19.996	103.138	20.176	3.042	0.157
44.501	112.297	79.993	19.995	103.135	20.176	3.042	0.139
45.000	112.407	79.993	19.997	103.130	20.177	2.926	0.198
45.500	112.500	79.992	19.995	103.131	20.179	2.804	0.221
46.000	112.579	79.992	19.995	103.131	20.177	2.971	0.187
46.500	112.643	79.994	19.995	103.135	20.176	3.031	0.158
47.000	112.752	79.993	19.995	103.136	20.178	2.897	0.159
47.500	112.834	79.993	19.996	103.140	20.176	3.033	0.182
48.000	112.965	79.994	19.995	103.139	20.174	3.165	0.202
48.500	113.081	79.992	19.995	103.137	20.176	3.011	0.230
49.000	113.139	79.993	19.996	103.131	20.179	2.770	0.210
49.500	113.224	79.992	19.995	103.129	20.172	3.301	0.158
50.000	113.342	79.993	19.995	103.129	20.177	2.952	0.173
50.500	113.503	79.993	19.995	103.130	20.176	3.050	0.241
51.000	113.578	79.992	19.996	103.132	20.174	3.186	0.258
51.500	113.643	79.993	19.996	103.137	20.177	2.920	0.188
52.000	113.807	79.992	19.995	103.138	20.177	2.919	0.184
52.500	113.900	79.993	19.996	103.132	20.172	3.276	0.243
53.000	114.000	79.992	19.995	103.125	20.175	3.108	0.225
53.501	114.108	79.992	19.996	103.124	20.178	2.893	0.200
54.001	114.213	79.993	19.995	103.123	20.177	2.942	0.210
54.500	114.345	79.992	19.995	103.124	20.173	3.263	0.225
55.000	114.449	79.991	19.995	103.131	20.174	3.135	0.236
55.500	114.538	79.993	19.995	103.137	20.177	2.974	0.214
56.000	114.677	79.993	19.995	103.135	20.175	3.101	0.211
56.500	114.794	79.992	19.997	103.127	20.175	3.066	0.242
57.001	114.949	79.992	19.996	103.122	20.181	2.672	0.264
57.501	115.040	79.993	19.996	103.120	20.174	3.179	0.259
58.001	115.142	79.993	19.995	103.114	20.176	3.012	0.219
58.500	115.298	79.992	19.996	103.112	20.174	3.173	0.225
59.000	115.430	79.992	19.996	103.113	20.170	3.453	0.273
59.500	115.536	79.993	19.997	103.117	20.176	3.002	0.263
60.000	115.666	79.993	19.996	103.119	20.174	3.174	0.237
60.500	115.804	79.991	19.996	103.125	20.177	2.952	0.252
61.000	115.909	79.993	19.996	103.131	20.175	3.074	0.255
61.500	116.061	79.993	19.996	103.138	20.174	3.134	0.250
62.000	116.181	79.993	19.996	103.145	20.172	3.306	0.264
62.500	116.294	79.992	19.996	103.152	20.177	2.940	0.252
63.000	116.428	79.993	19.996	103.159	20.174	3.194	0.240
63.500	116.557	79.992	19.996	103.159	20.172	3.288	0.255
64.000	116.736	79.991	19.995	103.158	20.177	2.972	0.285
64.500	116.871	79.991	19.996	103.153	20.172	3.323	0.311
65.000	116.984	79.992	19.997	103.140	20.174	3.146	0.281
65.500	117.162	79.991	19.996	103.130	20.175	3.060	0.269
66.000	117.300	79.992	19.997	103.129	20.174	3.146	0.303
66.500	117.431	79.990	19.997	103.129	20.177	2.958	0.293
67.000	117.599	79.991	19.996	103.131	20.173	3.214	0.284
67.500	117.735	79.992	19.997	103.136	20.175	3.120	0.302
68.000	117.843	79.992	19.997	103.136	20.178	2.896	0.274
68.501	117.999	79.992	19.996	103.136	20.177	2.980	0.254
69.001	118.144	79.991	19.995	103.137	20.174	3.174	0.283
69.500	118.260	79.990	19.997	103.137	20.173	3.206	0.281
70.000	118.422	79.991	19.996	103.138	20.173	3.204	0.269
70.500	118.600	79.991	19.997	103.143	20.172	3.316	0.309
71.000	118.767	79.992	19.997	103.143	20.179	2.827	0.343
71.500	118.866	79.991	19.996	103.144	20.171	3.370	0.306
72.000	119.018	79.992	19.996	103.146	20.171	3.392	0.258
72.500	119.181	79.991	19.996	103.148	20.168	3.567	0.283
73.001	119.334	79.992	19.997	103.151	20.176	3.010	0.316
73.501	119.471	79.993	19.996	103.152	20.173	3.258	0.303
74.000	119.637	79.992	19.996	103.150	20.175	3.110	0.296
74.500	119.821	79.991	19.995	103.148	20.169	3.513	0.326
75.000	119.948	79.992	19.995	103.146	20.174	3.184	0.331
75.500	120.094	79.993	19.996	103.145	20.169	3.530	0.292
76.000	120.272	79.992	19.996	103.145	20.167	3.672	0.299
76.500	120.430	79.993	19.996	103.146	20.171	3.384	0.330
77.000	120.591	79.992	19.995	103.147	20.170	3.456	0.327
77.500	120.764	79.993	19.996	103.146	20.173	3.222	0.326
78.000	120.906	79.993	19.995	103.145	20.174	3.140	0.324
78.500	121.074	79.993	19.995	103.144	20.170	3.458	0.313
79.000	121.264	79.994	19.995	103.145	20.174	3.184	0.334
79.500	121.399	79.994	19.995	103.145	20.174	3.156	0.341
80.000	121.581	79.993	19.994	103.152	20.174	3.150	0.321
80.500	121.773	79.994	19.995	103.155	20.170	3.431	0.345
81.000	121.948	79.993	19.994	103.161	20.173	3.210	0.370
81.500	122.110	79.994	19.994	103.163	20.172	3.280	0.352
82.000	122.286	79.993	19.995	103.165	20.171	3.360	0.337
82.500	122.444	79.992	19.994	103.159	20.173	3.258	0.336
83.001	122.642	79.992	19.995	103.159	20.169	3.534	0.345
83.501	122.745	79.993	19.996	103.153	20.173	3.203	0.329
84.001	122.939	79.993	19.994	103.151	20.177	2.929	0.299
84.501	123.135	79.994	19.996	103.151	20.173	3.248	0.343
85.000	123.319	79.993	19.995	103.150	20.170	3.458	0.385
85.501	123.448	79.992	19.995	103.152	20.171	3.420	0.346
86.001	123.643	79.993	19.995	103.158	20.172	3.296	0.318
86.500	123.804	79.992	19.995	103.162	20.170	3.486	0.340
87.000	123.974	79.994	19.995	103.167	20.171	3.402	0.344
87.500	124.147	79.993	19.996	103.170	20.174	3.167	0.337
88.000	124.364	79.992	19.996	103.171	20.169	3.548	0.367
88.500	124.554	79.994	19.994	103.169	20.173	3.244	0.398
89.000	124.684	79.992	19.995	103.166	20.171	3.416	0.363
89.501	124.884	79.991	19.994	103.161	20.169	3.508	0.325
90.001	125.065	79.991	19.995	103.161	20.168	3.581	0.356
90.500	125.268	79.992	19.994	103.158	20.168	3.583	0.383
91.000	125.398	79.992	19.995	103.155	20.170	3.492	0.358
91.500	125.619	79.992	19.995	103.153	20.171	3.386	0.342
92.000	125.823	79.993	19.996	103.154	20.172	3.292	0.388
92.500	126.004	79.993	19.995	103.158	20.172	3.290	0.405
93.001	126.184	79.993	19.994	103.163	20.175	3.121	0.373
93.501	126.416	79.994	19.995	103.167	20.172	3.306	0.387
94.001	126.569	79.993	19.995	103.174	20.169	3.534	0.398
94.500	126.762	79.994	19.996	103.178	20.168	3.632	0.365
95.000	126.942	79.992	19.993	103.172	20.171	3.374	0.360
95.500	127.130	79.992	19.994	103.166	20.168	3.604	0.371
96.000	127.331	79.994	19.994	103.160	20.172	3.342	0.378
96.500	127.551	79.993	19.996	103.160	20.174	3.136	0.405
97.000	127.727	79.991	19.995	103.158	20.178	2.905	0.408
97.500	127.949	79.993	19.995	103.162	20.174	3.146	0.397
98.000	128.103	79.992	19.995	103.170	20.170	3.430	0.387
98.500	128.319	79.993	19.996	103.176	20.174	3.144	0.373
99.000	128.486	79.993	19.995	103.173	20.170	3.466	0.376
99.500	128.689	79.993	19.996	103.172	20.170	3.458	0.377
100.000	128.864	79.993	19.993	103.169	20.170	3.462	0.374
100.501	129.096	79.993	19.994	103.164	20.174	3.154	0.393
101.001	129.294	79.993	19.995	103.160	20.174	3.141	0.418
101.500	129.512	79.995	19.996	103.160	20.167	3.640	0.423
102.000	129.658	79.993	19.994	103.161	20.176	3.025	0.390
102.500	129.868	79.994	19.995	103.158	20.169	3.510	0.360
103.000	130.072	79.995	19.996	103.160	20.171	3.388	0.385
103.500	130.270	79.994	19.995	103.164	20.172	3.290	0.408
104.000	130.485	79.994	19.994	103.168	20.172	3.326	0.408
104.500	130.697	79.994	19.995	103.169	20.168	3.585	0.420
105.000	130.888	79.994	19.993	103.171	20.172	3.278	0.415
105.500	131.066	79.993	19.996	103.173	20.175	3.080	0.386
106.000	131.289	79.995	19.994	103.171	20.176	3.017	0.385
106.500	131.499	79.994	19.995	103.167	20.178	2.905	0.417
107.000	131.703	79.994	19.995	103.163	20.168	3.590	0.424
107.500	131.854	79.995	19.994	103.162	20.170	3.438	0.385
108.000	132.074	79.994	19.995	103.164	20.173	3.234	0.363
108.500	132.302	79.995	19.994	103.161	20.175	3.118	0.410
109.000	132.548	79.995	19.994	103.158	20.170	3.484	0.461
109.500	132.695	79.994	19.994	103.156	20.175	3.065	0.433
110.000	132.883	79.996	19.995	103.162	20.170	3.450	0.364
110.500	133.127	79.993	19.994	103.162	20.173	3.260	0.384
111.000	133.359	79.993	19.995	103.164	20.169	3.530	0.454
111.500	133.551	79.996	19.995	103.168	20.168	3.576	0.449
112.000	133.762	79.994	19.993	103.172	20.165	3.834	0.413
112.501	133.986	79.992	19.994	103.172	20.169	3.534	0.419
113.001	134.175	79.993	19.994	103.169	20.166	3.730	0.424
113.500	134.392	79.993	19.995	103.165	20.168	3.618	0.410
114.000	134.619	79.991	19.994	103.160	20.171	3.409	0.425
114.500	134.811	79.992	19.995	103.157	20.170	3.458	0.432
115.000	135.067	79.992	19.994	103.154	20.165	3.796	0.434
115.500	135.239	79.994	19.995	103.153	20.168	3.566	0.438
116.000	135.438	79.994	19.995	103.154	20.170	3.468	0.399
116.500	135.661	79.992	19.995	103.161	20.169	3.496	0.396
117.000	135.850	79.993	19.994	103.164	20.165	3.796	0.417
117.500	136.060	79.993	19.996	103.164	20.165	3.825	0.406
118.001	136.290	79.991	19.995	103.164	20.168	3.634	0.420
118.501	136.525	79.992	19.995	103.167	20.166	3.746	0.452
119.000	136.744	79.991	19.995	103.161	20.169	3.536	0.459
119.500	136.946	79.992	19.997	103.162	20.167	3.698	0.438
120.000	137.177	79.993	19.995	103.165	20.170	3.464	0.427
120.500	137.410	79.993	19.995	103.165	20.167	3.706	0.448
121.000	137.624	79.993	19.994	103.167	20.169	3.542	0.456
121.501	137.846	79.992	19.996	103.173	20.171	3.358	0.441
122.001	138.032	79.994	19.996	103.175	20.166	3.722	0.422
122.500	138.285	79.993	19.995	103.175	20.164	3.903	0.423
123.000	138.489	79.993	19.995	103.180	20.166	3.770	0.448
123.500	138.667	79.993	19.997	103.181	20.165	3.852	0.419
124.000	138.892	79.994	19.996	103.183	20.162	4.037	0.393
124.501	139.124	79.992	19.996	103.183	20.163	3.983	0.430
125.001	139.366	79.994	19.997	103.184	20.163	3.950	0.465
125.500	139.594	79.992	19.995	103.184	20.165	3.808	0.472
126.000	139.831	79.992	19.994	103.184	20.163	3.960	0.468
126.500	140.043	79.993	19.996	103.183	20.168	3.620	0.457
127.000	140.252	79.991	19.995	103.180	20.164	3.894	0.435
127.500	140.523	79.992	19.995	103.177	20.167	3.644	0.450
128.000	140.708	79.993	19.997	103.174	20.169	3.540	0.468
128.500	140.985	79.993	19.996	103.173	20.163	3.967	0.459
129.000	141.183	79.993	19.995	103.173	20.166	3.748	0.469
129.500	141.391	79.993	19.995	103.174	20.173	3.250	0.441
130.000	141.652	79.992	19.996	103.178	20.170	3.484	0.437
130.500	141.838	79.992	19.996	103.177	20.170	3.474	0.458
131.000	142.097	79.992	19.996	103.173	20.166	3.732	0.446
131.500	142.319	79.992	19.996	103.173	20.169	3.548	0.463
132.001	142.525	79.993	19.995	103.172	20.175	3.119	0.455
132.500	142.809	79.992	19.995	103.172	20.173	3.271	0.460
133.000	143.034	79.993	19.995	103.173	20.167	3.662	0.500
133.500	143.249	79.992	19.996	103.174	20.173	3.213	0.474
134.000	143.476	79.993	19.996	103.173	20.169	3.538	0.441
134.500	143.737	79.992	19.995	103.176	20.172	3.286	0.465
135.000	143.952	79.992	19.995	103.176	20.170	3.438	0.482
135.500	144.173	79.994	19.998	103.177	20.167	3.654	0.456
136.000	144.434	79.994	19.996	103.182	20.174	3.181	0.459
136.500	144.663	79.992	19.995	103.184	20.172	3.291	0.486
137.000	144.873	79.993	19.995	103.181	20.170	3.452	0.465
137.500	145.128	79.993	19.996	103.179	20.165	3.794	0.453
138.000	145.371	79.991	19.995	103.177	20.170	3.472	0.482
138.500	145.585	79.989	19.994	103.176	20.167	3.654	0.477
139.000	145.831	79.991	19.995	103.175	20.169	3.554	0.458
139.500	146.112	79.992	19.994	103.178	20.166	3.742	0.493
140.000	146.308	79.992	19.995	103.177	20.168	3.582	0.501
140.500	146.605	79.991	19.995	103.172	20.171	3.400	0.485
141.000	146.805	79.992	19.995	103.172	20.171	3.392	0.496
141.500	147.062	79.991	19.996	103.172	20.163	3.943	0.477
142.000	147.256	79.991	19.995	103.172	20.171	3.398	0.453
142.500	147.530	79.993	19.995	103.173	20.169	3.544	0.460
143.000	147.789	79.991	19.995	103.176	20.172	3.326	0.501
143.500	148.021	79.991	19.995	103.176	20.170	3.450	0.512
144.000	148.268	79.991	19.995	103.175	20.166	3.712	0.485
144.500	148.495	79.991	19.996	103.174	20.170	3.460	0.476
145.000	148.751	79.991	19.994	103.173	20.164	3.903	0.478
145.500	149.034	79.991	19.994	103.173	20.172	3.322	0.511
146.000	149.249	79.991	19.995	103.174	20.171	3.408	0.519
146.500	149.504	79.994	19.995	103.176	20.173	3.266	0.484
147.000	149.721	79.992	19.996	103.177	20.172	3.342	0.471
147.500	149.955	79.992	19.996	103.181	20.173	3.204	0.461
148.000	150.246	79.991	19.994	103.180	20.170	3.440	0.488
148.500	150.517	79.992	19.995	103.177	20.166	3.773	0.544
149.000	150.705	79.990	19.995	103.176	20.172	3.312	0.510
149.500	150.956	79.992	19.996	103.174	20.174	3.131	0.449
150.000	151.196	79.991	19.996	103.173	20.165	3.807	0.465
150.500	151.421	79.992	19.996	103.177	20.175	3.111	0.478
151.000	151.688	79.993	19.996	103.177	20.171	3.368	0.479
151.500	151.884	79.991	19.995	103.174	20.169	3.554	0.478
152.000	152.131	79.992	19.996	103.173	20.168	3.635	0.453
152.500	152.389	79.988	19.996	103.171	20.167	3.641	0.474
153.000	152.655	79.993	19.996	103.171	20.172	3.290	0.515
153.500	152.906	79.991	19.995	103.172	20.173	3.260	0.521
154.000	153.120	79.991	19.996	103.176	20.169	3.508	0.491
154.500	153.354	79.990	19.997	103.178	20.168	3.574	0.456
155.000	153.595	79.991	19.996	103.178	20.176	3.038	0.461
155.500	153.833	79.993	19.996	103.176	20.175	3.060	0.477
156.000	154.081	79.993	19.996	103.173	20.173	3.224	0.483
156.501	154.358	79.991	19.996	103.170	20.172	3.318	0.506
157.000	154.594	79.991	19.997	103.164	20.177	2.973	0.519
157.500	154.822	79.991	19.995	103.162	20.171	3.370	0.489
158.000	155.083	79.993	19.995	103.164	20.170	3.480	0.477
158.500	155.351	79.993	19.995	103.167	20.169	3.527	0.509
159.000	155.572	79.993	19.996	103.169	20.173	3.214	0.509
159.501	155.844	79.993	19.996	103.169	20.169	3.505	0.491
160.000	156.077	79.992	19.996	103.172	20.173	3.258	0.499
160.500	156.303	79.994	19.997	103.171	20.175	3.064	0.482
161.000	156.570	79.992	19.996	103.171	20.168	3.613	0.476
161.500	156.851	79.992	19.996	103.169	20.174	3.150	0.521
162.001	157.074	79.994	19.996	103.169	20.168	3.627	0.526
162.500	157.324	79.993	19.996	103.167	20.179	2.801	0.488
163.000	157.539	79.992	19.995	103.161	20.170	3.485	0.469
163.500	157.807	79.994	19.996	103.157	20.174	3.144	0.474
164.000	158.065	79.994	19.995	103.157	20.175	3.058	0.504
164.500	158.285	79.993	19.995	103.161	20.173	3.264	0.502
165.000	158.542	79.994	19.996	103.163	20.175	3.064	0.477
165.500	158.799	79.992	19.995	103.163	20.175	3.060	0.496
166.000	159.053	79.993	19.996	103.161	20.178	2.900	0.513
166.501	159.296	79.993	19.995	103.158	20.172	3.288	0.504
167.000	159.520	79.995	19.996	103.156	20.164	3.858	0.482
167.500	159.820	79.995	19.995	103.159	20.176	3.020	0.496
168.000	160.044	79.992	19.996	103.159	20.173	3.250	0.524
168.500	160.317	79.993	19.995	103.161	20.173	3.228	0.510
169.000	160.534	79.993	19.996	103.159	20.172	3.305	0.493
169.500	160.805	79.995	19.995	103.157	20.171	3.365	0.489
170.000	161.029	79.994	19.996	103.151	20.174	3.150	0.492
170.500	161.322	79.994	19.994	103.150	20.171	3.361	0.506
171.000	161.552	79.994	19.995	103.155	20.172	3.337	0.520
171.500	161.815	79.993	19.994	103.161	20.168	3.635	0.508
172.000	162.015	79.994	19.996	103.160	20.176	3.026	0.478
172.500	162.282	79.994	19.994	103.158	20.170	3.433	0.465
173.000	162.536	79.991	19.994	103.158	20.165	3.799	0.494
173.500	162.772	79.993	19.996	103.153	20.173	3.226	0.506
174.000	163.028	79.993	19.997	103.149	20.166	3.776	0.491
174.500	163.293	79.993	19.995	103.149	20.170	3.479	0.506
175.000	163.540	79.992	19.995	103.150	20.172	3.299	0.516
175.500	163.779	79.995	19.995	103.150	20.166	3.730	0.499
176.000	164.040	79.992	19.995	103.147	20.166	3.742	0.493
176.500	164.301	79.993	19.995	103.146	20.172	3.309	0.511
177.000	164.580	79.996	19.995	103.148	20.170	3.453	0.531
177.500	164.842	79.992	19.995	103.146	20.170	3.429	0.540
178.000	165.085	79.994	19.995	103.146	20.171	3.347	0.523
178.500	165.347	79.992	19.995	103.146	20.169	3.547	0.505
179.000	165.548	79.995	19.997	103.144	20.170	3.465	0.484
179.500	165.842	79.993	19.996	103.143	20.174	3.192	0.479
180.000	166.048	79.994	19.995	103.146	20.170	3.435	0.498
180.500	166.338	79.994	19.996	103.148	20.168	3.577	0.498
181.000	166.582	79.994	19.994	103.148	20.174	3.189	0.515
181.500	166.816	79.992	19.994	103.147	20.173	3.219	0.506
182.000	167.095	79.996	19.995	103.145	20.175	3.106	0.496
182.500	167.313	79.997	19.994	103.145	20.175	3.108	0.505
183.000	167.563	79.992	19.995	103.144	20.170	3.445	0.482
183.500	167.832	79.994	19.994	103.146	20.177	2.938	0.493
184.000	168.092	79.996	19.995	103.146	20.175	3.078	0.524
184.500	168.317	79.994	19.995	103.146	20.174	3.197	0.508
185.000	168.602	79.995	19.994	103.144	20.171	3.357	0.498
185.500	168.792	79.995	19.994	103.142	20.169	3.515	0.492
186.000	169.075	79.995	19.995	103.141	20.172	3.326	0.474
186.500	169.327	79.997	19.996	103.141	20.176	3.030	0.504
187.000	169.547	79.994	19.993	103.141	20.172	3.288	0.503
187.500	169.838	79.996	19.994	103.140	20.170	3.473	0.491
188.000	170.079	79.996	19.994	103.142	20.168	3.609	0.522
188.501	170.308	79.994	19.994	103.141	20.169	3.557	0.501
189.001	170.538	79.996	19.997	103.141	20.172	3.283	0.464
189.501	170.815	79.994	19.994	103.143	20.178	2.892	0.483
190.000	171.073	79.994	19.993	103.144	20.173	3.229	0.521
190.500	171.304	79.994	19.994	103.142	20.175	3.117	0.512
191.000	171.553	79.993	19.994	103.142	20.173	3.237	0.485
191.500	171.777	79.993	19.994	103.142	20.169	3.507	0.476
192.000	172.054	79.993	19.995	103.137	20.174	3.166	0.486
192.500	172.301	79.994	19.995	103.136	20.177	2.934	0.512
193.000	172.572	79.994	19.995	103.137	20.180	2.738	0.522
193.500	172.769	79.993	19.995	103.137	20.176	3.000	0.494
194.000	173.068	79.993	19.995	103.136	20.172	3.285	0.482
194.500	173.319	79.993	19.996	103.138	20.172	3.303	0.523
195.000	173.561	79.991	19.994	103.137	20.177	2.980	0.522
195.500	173.811	79.993	19.995	103.137	20.168	3.631	0.492
196.000	174.070	79.992	19.997	103.140	20.172	3.277	0.501
196.500	174.320	79.993	19.996	103.148	20.171	3.403	0.509
197.000	174.574	79.992	19.995	103.150	20.173	3.239	0.506
197.500	174.841	79.992	19.994	103.151	20.175	3.064	0.512
198.001	175.065	79.992	19.996	103.152	20.169	3.493	0.506
198.501	175.306	79.991	19.996	103.148	20.171	3.353	0.478
199.001	175.531	79.991	19.994	103.138	20.174	3.168	0.465
199.501	175.814	79.992	19.996	103.132	20.177	2.976	0.487
200.001	176.092	79.992	19.995	103.131	20.174	3.156	0.534
200.500	176.319	79.993	19.995	103.127	20.175	3.082	0.533
201.000	176.541	79.992	19.996	103.129	20.175	3.078	0.478
201.500	176.831	79.992	19.996	103.132	20.177	2.962	0.481
202.000	177.052	79.993	19.994	103.138	20.172	3.289	0.511
202.500	177.285	79.994	19.995	103.140	20.173	3.201	0.482
203.000	177.566	79.993	19.995	103.143	20.172	3.309	0.484
203.500	177.801	79.993	19.994	103.140	20.175	3.101	0.515
204.000	178.086	79.992	19.995	103.138	20.176	3.053	0.518
204.500	178.329	79.993	19.995	103.136	20.177	2.963	0.524
205.000	178.603	79.992	19.994	103.136	20.171	3.379	0.523
205.500	178.811	79.993	19.994	103.136	20.170	3.425	0.500
206.000	179.052	79.993	19.995	103.139	20.172	3.333	0.466
206.500	179.322	79.993	19.995	103.141	20.171	3.407	0.480
207.000	179.593	79.994	19.996	103.139	20.174	3.148	0.526
207.500	179.821	79.990	19.994	103.133	20.171	3.383	0.520
208.000	180.081	79.991	19.995	103.132	20.172	3.275	0.494
208.500	180.290	79.989	19.994	103.133	20.170	3.475	0.478
209.000	180.574	79.994	19.995	103.134	20.173	3.229	0.480
209.500	180.831	79.990	19.995	103.138	20.172	3.281	0.517
210.000	181.073	79.991	19.994	103.141	20.175	3.125	0.520
210.501	181.274	79.991	19.995	103.141	20.173	3.258	0.471
211.000	181.607	79.991	19.994	103.141	20.174	3.187	0.488
211.500	181.842	79.993	19.997	103.141	20.174	3.193	0.551
212.000	182.082	79.991	19.994	103.141	20.172	3.313	0.522
212.500	182.358	79.993	19.996	103.142	20.173	3.229	0.496
213.000	182.572	79.991	19.994	103.141	20.170	3.429	0.503
213.500	182.856	79.991	19.994	103.134	20.170	3.480	0.494
214.000	183.067	79.994	19.995	103.128	20.168	3.608	0.496
214.500	183.310	79.990	19.995	103.120	20.168	3.624	0.475
215.000	183.555	79.994	19.995	103.114	20.168	3.578	0.471
215.501	183.816	79.993	19.995	103.116	20.170	3.424	0.497
216.000	184.071	79.989	19.994	103.121	20.175	3.089	0.511
216.500	184.335	79.990	19.995	103.127	20.172	3.330	0.517
217.000	184.596	79.990	19.996	103.133	20.171	3.388	0.522
217.500	184.844	79.993	19.995	103.140	20.169	3.552	0.518
218.000	185.090	79.991	19.995	103.143	20.169	3.510	0.502
218.500	185.306	79.992	19.995	103.143	20.169	3.556	0.477
219.000	185.564	79.994	19.995	103.140	20.168	3.574	0.468
219.500	185.811	79.991	19.995	103.134	20.169	3.530	0.490
220.001	186.056	79.989	19.996	103.127	20.169	3.536	0.498
220.500	186.319	79.992	19.996	103.118	20.171	3.404	0.500
221.000	186.595	79.994	19.996	103.111	20.169	3.550	0.524
221.500	186.817	79.992	19.995	103.108	20.166	3.719	0.519
222.000	187.043	79.991	19.995	103.108	20.169	3.548	0.473
222.500	187.330	79.990	19.994	103.114	20.166	3.716	0.480
223.000	187.596	79.991	19.995	103.121	20.162	4.007	0.533
223.500	187.831	79.990	19.996	103.123	20.166	3.744	0.527
224.000	188.057	79.992	19.996	103.125	20.167	3.648	0.482
224.500	188.284	79.992	19.996	103.125	20.168	3.598	0.457
225.000	188.515	79.989	19.995	103.123	20.167	3.664	0.455
225.500	188.776	79.990	19.995	103.118	20.166	3.767	0.475
226.000	189.028	79.991	19.995	103.116	20.163	3.983	0.502
226.500	189.244	79.990	19.994	103.115	20.169	3.522	0.491
227.000	189.486	79.991	19.996	103.116	20.164	3.897	0.463
227.500	189.744	79.990	19.995	103.117	20.167	3.693	0.479
228.000	190.002	79.991	19.996	103.116	20.166	3.761	0.508
228.500	190.217	79.993	19.995	103.122	20.170	3.484	0.495
229.000	190.496	79.994	19.994	103.127	20.164	3.915	0.484
229.500	190.722	79.991	19.996	103.129	20.165	3.805	0.499
230.000	190.922	79.990	19.996	103.125	20.168	3.621	0.465
230.500	191.218	79.991	19.995	103.124	20.164	3.921	0.461
231.000	191.513	79.991	19.996	103.118	20.167	3.687	0.543
231.500	191.713	79.993	19.996	103.111	20.168	3.609	0.543
232.000	191.966	79.993	19.995	103.108	20.172	3.338	0.474
232.500	192.195	79.993	19.996	103.111	20.168	3.591	0.467
233.000	192.443	79.992	19.996	103.116	20.165	3.803	0.480
233.500	192.666	79.992	19.996	103.123	20.168	3.613	0.474
234.000	192.942	79.992	19.995	103.128	20.167	3.697	0.485
234.500	193.145	79.992	19.996	103.130	20.163	3.933	0.489
235.000	193.432	79.992	19.995	103.128	20.170	3.476	0.484
235.500	193.618	79.992	19.995	103.122	20.164	3.891	0.481
236.000	193.891	79.992	19.996	103.116	20.167	3.699	0.466
236.500	194.160	79.994	19.996	103.111	20.165	3.849	0.500
237.000	194.391	79.993	19.996	103.108	20.167	3.687	0.521
237.500	194.618	79.991	19.995	103.106	20.169	3.498	0.479
238.000	194.878	79.995	19.996	103.108	20.165	3.787	0.472
238.500	195.120	79.993	19.995	103.108	20.166	3.763	0.495
239.000	195.353	79.993	19.996	103.106	20.165	3.833	0.489
239.500	195.566	79.992	19.996	103.107	20.161	4.073	0.461
240.000	195.807	79.993	19.996	103.106	20.159	4.247	0.450
240.500	196.055	79.995	19.995	103.105	20.161	4.111	0.471
241.000	196.344	79.994	19.995	103.105	20.169	3.522	0.513
241.500	196.551	79.994	19.996	103.104	20.165	3.785	0.517
242.000	196.788	79.994	19.996	103.104	20.165	3.803	0.470
242.500	197.026	79.993	19.996	103.104	20.166	3.773	0.459
243.000	197.284	79.995	19.996	103.103	20.167	3.684	0.485
243.500	197.541	79.991	19.996	103.103	20.167	3.638	0.505
244.000	197.783	79.994	19.995	103.103	20.165	3.821	0.507
244.500	197.990	79.995	19.997	103.103	20.168	3.594	0.474
245.000	198.255	79.992	19.996	103.102	20.163	3.935	0.460
245.500	198.490	79.994	19.995	103.103	20.168	3.584	0.486
246.000	198.752	79.994	19.996	103.104	20.166	3.756	0.498
246.500	198.987	79.993	19.996	103.108	20.164	3.921	0.497
247.000	199.206	79.993	19.996	103.107	20.164	3.865	0.476
247.500	199.439	79.992	19.996	103.107	20.165	3.821	0.453
248.000	199.700	79.994	19.996	103.107	20.167	3.659	0.473
248.500	199.935	79.991	19.996	103.106	20.164	3.869	0.495
249.000	200.165	79.994	19.997	103.103	20.165	3.785	0.480
249.500	200.393	79.991	19.995	103.109	20.166	3.775	0.462
250.000	200.648	79.992	19.995	103.115	20.163	3.969	0.471
250.500	200.919	79.991	19.996	103.120	20.163	3.999	0.504
251.000	201.138	79.991	19.996	103.121	20.162	4.041	0.508
251.500	201.377	79.991	19.996	103.121	20.163	3.993	0.474
252.000	201.632	79.992	19.996	103.120	20.164	3.865	0.476
252.500	201.888	79.993	19.996	103.116	20.163	3.993	0.502
253.000	202.110	79.993	19.996	103.110	20.159	4.272	0.495
253.500	202.371	79.994	19.996	103.115	20.167	3.638	0.480
254.000	202.616	79.992	19.995	103.117	20.162	4.051	0.494
254.500	202.831	79.991	19.996	103.114	20.165	3.819	0.483
255.000	203.073	79.993	19.996	103.118	20.160	4.148	0.458
255.500	203.377	79.993	19.996	103.125	20.160	4.154	0.502
256.000	203.588	79.993	19.996	103.126	20.164	3.885	0.531
256.500	203.814	79.994	19.996	103.128	20.162	4.043	0.476
257.000	204.106	79.991	19.996	103.128	20.163	3.937	0.477
257.500	204.318	79.992	19.996	103.122	20.164	3.905	0.511
258.000	204.573	79.995	19.995	103.114	20.165	3.817	0.486
258.500	204.776	79.994	19.996	103.108	20.167	3.703	0.463
259.000	205.078	79.991	19.995	103.106	20.166	3.735	0.482
259.500	205.280	79.993	19.995	103.109	20.163	3.999	0.505
260.000	205.576	79.992	19.995	103.111	20.164	3.857	0.501
260.501	205.798	79.994	19.995	103.115	20.162	4.051	0.508
261.000	206.047	79.994	19.994	103.120	20.162	4.041	0.494
261.500	206.289	79.994	19.994	103.123	20.165	3.831	0.481
262.000	206.515	79.995	19.995	103.121	20.166	3.731	0.479
262.500	206.802	79.996	19.995	103.121	20.161	4.090	0.490
263.000	207.055	79.994	19.994	103.120	20.164	3.901	0.527
263.500	207.314	79.996	19.995	103.117	20.166	3.765	0.526
264.000	207.556	79.996	19.994	103.112	20.166	3.761	0.506
264.500	207.800	79.997	19.995	103.111	20.163	3.997	0.494
265.000	208.031	79.995	19.994	103.111	20.158	4.344	0.481
265.500	208.320	79.995	19.994	103.112	20.164	3.855	0.497
266.000	208.527	79.995	19.994	103.112	20.161	4.136	0.507
266.500	208.794	79.995	19.995	103.112	20.158	4.298	0.485
267.000	209.064	79.994	19.994	103.112	20.167	3.691	0.506
267.500	209.287	79.997	19.995	103.113	20.163	3.973	0.516
268.000	209.507	79.995	19.994	103.112	20.162	4.049	0.468
268.500	209.786	79.993	19.995	103.109	20.159	4.266	0.471
269.000	210.033	79.994	19.993	103.109	20.161	4.114	0.513
269.500	210.271	79.995	19.994	103.108	20.162	4.003	0.505
270.000	210.585	79.995	19.994	103.105	20.163	3.937	0.518
270.500	210.804	79.994	19.995	103.105	20.164	3.859	0.543
271.000	211.018	79.994	19.993	103.107	20.167	3.687	0.483
271.500	211.298	79.995	19.995	103.108	20.163	3.975	0.463
272.000	211.542	79.994	19.995	103.108	20.163	3.931	0.510
272.500	211.816	79.994	19.995	103.108	20.164	3.905	0.521
273.000	212.048	79.994	19.995	103.108	20.158	4.292	0.512
273.500	212.309	79.991	19.995	103.107	20.157	4.388	0.499
274.000	212.568	79.993	19.996	103.107	20.165	3.791	0.507
274.500	212.820	79.992	19.994	103.107	20.161	4.092	0.515
275.000	213.065	79.995	19.995	103.108	20.164	3.905	0.504
275.500	213.301	79.993	19.995	103.108	20.160	4.210	0.489
276.000	213.575	79.993	19.995	103.108	20.155	4.534	0.495
276.500	213.830	79.991	19.995	103.109	20.161	4.143	0.520
277.000	214.077	79.993	19.995	103.108	20.156	4.472	0.516
277.500	214.299	79.992	19.994	103.107	20.160	4.173	0.485
278.000	214.536	79.992	19.996	103.107	20.165	3.841	0.464
278.500	214.790	79.996	19.996	103.108	20.166	3.781	0.475
279.000	215.047	79.992	19.995	103.107	20.162	4.007	0.501
279.500	215.308	79.993	19.996	103.107	20.161	4.138	0.515
280.000	215.527	79.992	19.995	103.108	20.163	3.979	0.499
280.500	215.811	79.992	19.994	103.107	20.161	4.090	0.491
281.000	216.044	79.993	19.995	103.106	20.166	3.775	0.510
281.500	216.313	79.992	19.995	103.107	20.162	4.062	0.509
282.000	216.582	79.990	19.995	103.110	20.161	4.124	0.520
282.500	216.828	79.994	19.995	103.110	20.161	4.116	0.527
283.000	217.047	79.993	19.995	103.112	20.159	4.232	0.490
283.500	217.309	79.991	19.996	103.114	20.160	4.168	0.473
284.001	217.588	79.990	19.996	103.112	20.164	3.921	0.511
284.501	217.811	79.993	19.995	103.110	20.160	4.202	0.522
285.001	218.098	79.994	19.995	103.109	20.162	4.057	0.506
285.500	218.356	79.991	19.995	103.108	20.161	4.091	0.527
286.000	218.600	79.991	19.995	103.107	20.158	4.290	0.524
286.500	218.846	79.990	19.995	103.111	20.162	4.069	0.496
287.000	219.075	79.994	19.995	103.113	20.163	3.947	0.482
287.500	219.307	79.992	19.994	103.114	20.162	4.002	0.468
288.000	219.570	79.992	19.995	103.117	20.161	4.098	0.478
288.500	219.821	79.994	19.995	103.122	20.159	4.250	0.505
289.000	220.064	79.992	19.995	103.118	20.167	3.669	0.504
289.500	220.337	79.993	19.995	103.116	20.161	4.092	0.505
290.000	220.577	79.991	19.994	103.116	20.163	3.963	0.514
290.500	220.782	79.992	19.995	103.112	20.159	4.268	0.479
291.000	221.065	79.992	19.993	103.108	20.162	4.028	0.466
291.500	221.337	79.993	19.994	103.108	20.160	4.186	0.521
292.000	221.607	79.995	19.995	103.107	20.163	3.943	0.549
292.500	221.833	79.994	19.995	103.107	20.159	4.230	0.519
293.000	222.087	79.994	19.994	103.109	20.161	4.090	0.488
293.500	222.354	79.993	19.995	103.110	20.162	4.024	0.501
294.000	222.632	79.992	19.995	103.110	20.161	4.076	0.533
294.500	222.876	79.992	19.994	103.111	20.164	3.881	0.533
295.000	223.113	79.995	19.995	103.113	20.161	4.074	0.501
295.500	223.358	79.993	19.994	103.112	20.160	4.162	0.481
296.000	223.618	79.992	19.994	103.111	20.163	3.975	0.494
296.500	223.886	79.995	19.995	103.110	20.160	4.204	0.516
297.000	224.112	79.992	19.995	103.111	20.160	4.188	0.510
297.500	224.391	79.993	19.994	103.108	20.158	4.330	0.500
298.000	224.642	79.996	19.994	103.105	20.163	3.998	0.518
298.500	224.883	79.994	19.996	103.104	20.163	3.974	0.511
299.000	225.138	79.995	19.994	103.103	20.162	4.038	0.494
299.500	225.412	79.992	19.995	103.101	20.161	4.104	0.512
300.000	225.654	79.991	19.995	103.101	20.162	4.028	0.523
300.500	225.907	79.991	19.994	103.103	20.163	3.949	0.506
301.000	226.159	79.991	19.995	103.103	20.158	4.348	0.500
301.500	226.405	79.991	19.996	103.103	20.162	4.054	0.501
302.000	226.621	79.992	19.994	103.102	20.162	4.050	0.480
302.500	226.877	79.994	19.995	103.102	20.160	4.204	0.467
303.000	227.162	79.993	19.996	103.102	20.160	4.176	0.507
303.500	227.417	79.992	19.996	103.102	20.160	4.204	0.541
304.000	227.677	79.991	19.994	103.103	20.157	4.367	0.527
304.500	227.890	79.994	19.995	103.102	20.161	4.092	0.493
305.000	228.194	79.994	19.995	103.103	20.163	3.970	0.495
305.500	228.385	79.992	19.995	103.104	20.164	3.885	0.506
306.000	228.700	79.991	19.995	103.103	20.158	4.298	0.500
306.500	228.938	79.993	19.995	103.103	20.164	3.893	0.530
307.000	229.209	79.995	19.995	103.104	20.163	3.997	0.531
307.500	229.446	79.993	19.996	103.104	20.157	4.368	0.508
308.000	229.736	79.993	19.995	103.103	20.156	4.470	0.517
308.500	229.944	79.992	19.996	103.102	20.158	4.322	0.513
309.000	230.202	79.991	19.995	103.102	20.160	4.170	0.482
309.500	230.457	79.992	19.995	103.102	20.162	4.006	0.489
310.000	230.747	79.993	19.996	103.102	20.164	3.875	0.529
310.500	230.957	79.991	19.995	103.103	20.161	4.124	0.522
311.000	231.210	79.993	19.994	103.103	20.162	4.034	0.482
311.500	231.444	79.993	19.995	103.102	20.160	4.160	0.475
312.000	231.695	79.992	19.995	103.101	20.164	3.922	0.486
312.500	231.947	79.992	19.995	103.100	20.161	4.076	0.494
313.000	232.194	79.993	19.995	103.100	20.162	4.044	0.501
313.500	232.437	79.992	19.996	103.101	20.159	4.259	0.495
314.000	232.706	79.993	19.996	103.101	20.159	4.280	0.502
314.500	232.945	79.993	19.997	103.101	20.158	4.328	0.510
315.000	233.191	79.993	19.994	103.101	20.158	4.358	0.496
315.500	233.455	79.993	19.996	103.097	20.160	4.176	0.497
316.000	233.683	79.994	19.998	103.096	20.155	4.531	0.501
316.500	233.979	79.994	19.996	103.097	20.156	4.439	0.508
317.000	234.173	79.993	19.997	103.099	20.154	4.613	0.507
317.500	234.460	79.994	19.996	103.105	20.158	4.355	0.485
318.000	234.741	79.993	19.995	103.113	20.155	4.511	0.524
318.500	234.986	79.994	19.995	103.113	20.157	4.393	0.547
319.000	235.207	79.995	19.995	103.114	20.159	4.254	0.496
319.500	235.475	79.994	19.995	103.113	20.152	4.757	0.478
320.000	235.724	79.994	19.996	103.108	20.158	4.314	0.503
320.500	235.948	79.995	19.995	103.103	20.157	4.400	0.495
321.000	236.211	79.995	19.995	103.104	20.162	4.050	0.480
321.500	236.454	79.995	19.995	103.103	20.159	4.254	0.497
322.000	236.681	79.997	19.996	103.102	20.158	4.352	0.488
322.500	236.915	79.995	19.995	103.097	20.153	4.711	0.465
323.000	237.168	79.995	19.995	103.093	20.157	4.391	0.474
323.500	237.432	79.992	19.995	103.092	20.154	4.615	0.502
324.000	237.713	79.992	19.995	103.092	20.151	4.838	0.531
324.500	237.972	79.993	19.995	103.093	20.162	4.048	0.542
325.000	238.218	79.995	19.995	103.098	20.155	4.535	0.523
325.500	238.442	79.995	19.994	103.102	20.158	4.324	0.488
326.000	238.676	79.996	19.996	103.102	20.158	4.350	0.463
326.500	238.948	79.992	19.995	103.102	20.155	4.579	0.482
327.000	239.190	79.994	19.995	103.101	20.157	4.394	0.510
327.500	239.417	79.992	19.995	103.100	20.156	4.466	0.492
328.000	239.677	79.992	19.995	103.098	20.154	4.619	0.478
328.500	239.920	79.993	19.995	103.098	20.154	4.605	0.494
329.000	240.128	79.992	19.995	103.098	20.152	4.788	0.477
329.500	240.389	79.994	19.995	103.100	20.152	4.726	0.460
330.000	240.628	79.995	19.996	103.102	20.152	4.796	0.484
330.500	240.886	79.992	19.996	103.104	20.152	4.774	0.498
331.000	241.120	79.991	19.995	103.103	20.152	4.768	0.495
331.500	241.384	79.994	19.996	103.104	20.151	4.868	0.496
332.000	241.640	79.994	19.995	103.104	20.150	4.882	0.509
332.500	241.919	79.992	19.996	103.102	20.151	4.809	0.527
333.000	242.137	79.994	19.995	103.101	20.150	4.906	0.516
333.500	242.396	79.995	19.995	103.102	20.153	4.657	0.487
334.000	242.672	79.993	19.995	103.101	20.154	4.649	0.506
334.500	242.922	79.993	19.995	103.099	20.153	4.719	0.530
335.000	243.171	79.993	19.995	103.098	20.147	5.129	0.513
335.500	243.402	79.993	19.995	103.099	20.145	5.233	0.490
336.000	243.666	79.994	19.997	103.098	20.153	4.720	0.487
336.500	243.898	79.993	19.996	103.103	20.155	4.563	0.495
337.000	244.147	79.994	19.997	103.109	20.152	4.794	0.489
337.500	244.396	79.991	19.997	103.112	20.149	4.944	0.489
338.000	244.643	79.994	19.997	103.112	20.150	4.894	0.496
338.500	244.870	79.994	19.996	103.111	20.150	4.880	0.485
339.000	245.115	79.994	19.996	103.108	20.150	4.898	0.473
339.500	245.422	79.994	19.996	103.104	20.147	5.153	0.512
340.000	245.631	79.992	19.996	103.099	20.149	5.010	0.534
340.500	245.913	79.992	19.997	103.093	20.147	5.131	0.504
341.000	246.180	79.995	19.996	103.091	20.145	5.293	0.520
341.500	246.405	79.994	19.997	103.090	20.147	5.106	0.521
342.000	246.617	79.995	19.996	103.090	20.144	5.316	0.465
342.500	246.890	79.994	19.996	103.095	20.142	5.502	0.461
343.000	247.175	79.994	19.995	103.101	20.142	5.521	0.521
343.500	247.420	79.993	19.997	103.103	20.143	5.393	0.544
344.000	247.614	79.995	19.995	103.102	20.144	5.351	0.485
344.500	247.908	79.996	19.995	103.101	20.137	5.836	0.464
345.000	248.138	79.994	19.995	103.101	20.136	5.898	0.506
345.500	248.372	79.994	19.996	103.100	20.144	5.349	0.494
346.000	248.609	79.995	19.996	103.095	20.136	5.898	0.468
346.500	248.863	79.995	19.995	103.092	20.140	5.661	0.480
347.000	249.099	79.994	19.995	103.093	20.139	5.717	0.490
347.500	249.411	79.994	19.995	103.093	20.139	5.713	0.519
348.000	249.657	79.999	19.995	103.094	20.132	6.231	0.553
348.500	249.877	79.996	19.995	103.099	20.140	5.637	0.512
349.000	250.134	79.993	19.995	103.104	20.136	5.894	0.472
349.500	250.401	79.996	19.994	103.104	20.134	6.082	0.501
350.001	250.658	79.994	19.995	103.097	20.137	5.842	0.524
350.500	250.940	79.996	19.994	103.096	20.133	6.148	0.531
351.000	251.161	79.994	19.994	103.095	20.131	6.321	0.521
351.500	251.401	79.993	19.995	103.094	20.137	5.830	0.483
352.000	251.626	79.994	19.995	103.099	20.130	6.333	0.463
352.500	251.916	79.995	19.995	103.112	20.131	6.299	0.490
353.000	252.143	79.996	19.996	103.115	20.134	6.034	0.516
353.500	252.396	79.995	19.995	103.116	20.127	6.575	0.498
354.000	252.639	79.993	19.995	103.113	20.128	6.483	0.488
354.500	252.883	79.993	19.995	103.105	20.127	6.612	0.492
355.000	253.142	79.992	19.995	103.097	20.129	6.427	0.496
355.500	253.323	79.990	19.995	103.096	20.122	6.932	0.472
356.000	253.599	79.991	19.995	103.096	20.125	6.720	0.448
356.500	253.872	79.990	19.996	103.101	20.121	6.981	0.503
357.000	254.129	79.994	19.995	103.104	20.121	6.983	0.540
357.500	254.355	79.993	19.997	103.105	20.124	6.827	0.506
358.000	254.569	79.991	19.995	103.107	20.123	6.863	0.461
358.500	254.835	79.995	19.994	103.107	20.117	7.279	0.460
359.000	255.091	79.992	19.996	103.107	20.123	6.894	0.502
359.500	255.305	79.993	19.994	103.106	20.117	7.333	0.496
360.000	255.613	79.992	19.995	103.107	20.118	7.249	0.496
360.500	255.845	79.992	19.996	103.109	20.113	7.568	0.531
361.000	256.044	79.991	19.994	103.109	20.112	7.656	0.486
361.500	256.396	79.991	19.995	103.108	20.110	7.798	0.491
362.000	256.427	79.990	19.995	103.108	20.111	7.766	0.467
362.500	256.919	79.992	19.995	103.108	20.111	7.720	0.453
363.000	257.047	79.993	19.995	103.105	20.113	7.606	0.572
363.500	257.264	79.994	19.995	103.105	20.106	8.081	0.483
364.000	257.791	79.992	19.995	103.107	20.109	7.875	0.545
364.500	257.742	79.991	19.994	103.107	20.107	8.031	0.611
365.000	258.153	79.993	19.995	103.107	20.107	8.003	0.420
365.500	258.520	79.995	19.996	103.106	20.104	8.224	0.570
366.000	258.790	79.993	19.995	103.106	20.101	8.470	0.707
366.500	258.704	79.994	19.995	103.104	20.100	8.520	0.411
367.000	259.080	79.993	19.994	103.103	20.100	8.516	0.237
367.500	259.298	79.992	19.993	103.102	20.094	8.979	0.442
368.000	259.567	79.994	19.995	103.100	20.096	8.805	0.541
368.500	259.772	79.993	19.995	103.099	20.095	8.933	0.480
369.000	260.000	79.991	19.995	103.099	20.095	8.923	0.454
369.500	260.342	79.990	19.994	103.102	20.093	9.023	0.501
370.000	260.463	79.996	19.996	103.103	20.095	8.930	0.516
370.500	260.778	79.995	19.995	103.105	20.093	9.060	0.450
371.000	260.990	79.995	19.995	103.107	20.088	9.393	0.482
371.500	261.260	79.994	19.996	103.107	20.090	9.259	0.505
372.000	261.484	79.992	19.996	103.106	20.085	9.630	0.488
372.500	261.737	79.992	19.995	103.106	20.084	9.695	0.485
373.000	262.002	79.993	19.995	103.105	20.085	9.649	0.497
373.500	262.242	79.992	19.995	103.105	20.081	9.942	0.512
374.000	262.433	79.993	19.994	103.105	20.078	10.108	0.468
374.500	262.710	79.991	19.995	103.103	20.081	9.942	0.449
375.000	262.980	79.993	19.994	103.101	20.078	10.158	0.507
375.500	263.215	79.994	19.995	103.102	20.074	10.389	0.526
376.000	263.418	79.994	19.995	103.102	20.071	10.621	0.472
376.500	263.689	79.992	19.996	103.102	20.070	10.721	0.456
377.000	263.974	79.993	19.995	103.102	20.072	10.595	0.514
377.500	264.198	79.993	19.995	103.103	20.069	10.781	0.532
378.000	264.403	79.992	19.995	103.103	20.067	10.900	0.470
378.500	264.741	79.992	19.995	103.103	20.061	11.397	0.486
379.000	264.903	79.991	19.994	103.103	20.064	11.180	0.521
379.500	265.166	79.992	19.994	103.104	20.063	11.247	0.463
380.000	265.443	79.992	19.995	103.106	20.061	11.357	0.482
380.500	265.664	79.994	19.995	103.111	20.059	11.521	0.519
381.000	265.887	79.995	19.994	103.117	20.051	12.092	0.471
381.500	266.141	79.994	19.996	103.121	20.054	11.843	0.461
382.000	266.380	79.992	19.994	103.119	20.055	11.777	0.485
382.500	266.604	79.993	19.994	103.118	20.047	12.360	0.478
383.000	266.876	79.993	19.995	103.112	20.046	12.469	0.480
383.500	267.105	79.992	19.994	103.108	20.047	12.401	0.499
384.000	267.442	79.993	19.996	103.104	20.047	12.401	0.534
384.500	267.619	79.994	19.995	103.104	20.046	12.423	0.540
385.000	267.851	79.992	19.994	103.104	20.041	12.816	0.462
385.500	268.159	79.994	19.994	103.105	20.043	12.684	0.474
386.000	268.375	79.993	19.995	103.103	20.036	13.197	0.532
386.501	268.636	79.993	19.996	103.103	20.038	13.034	0.501
387.000	268.829	79.992	19.994	103.104	20.037	13.136	0.465
387.500	269.064	79.993	19.995	103.106	20.034	13.340	0.441
388.000	269.352	79.993	19.994	103.107	20.030	13.647	0.475
388.500	269.585	79.994	19.996	103.107	20.034	13.326	0.522
389.000	269.872	79.990	19.995	103.107	20.030	13.633	0.520
389.500	270.069	79.992	19.996	103.107	20.027	13.845	0.502
390.000	270.357	79.994	19.995	103.105	20.022	14.207	0.485
390.500	270.580	79.992	19.994	103.105	20.026	13.888	0.498
391.000	270.836	79.993	19.994	103.105	20.022	14.179	0.494
391.500	271.107	79.992	19.995	103.105	20.012	14.957	0.503
392.000	271.345	79.992	19.996	103.108	20.013	14.865	0.518
392.500	271.572	79.995	19.996	103.112	20.012	14.903	0.487
393.000	271.829	79.993	19.995	103.112	20.012	14.939	0.475
393.500	272.080	79.990	19.994	103.112	20.003	15.585	0.496
394.000	272.344	79.994	19.996	103.112	20.004	15.478	0.511
394.500	272.550	79.993	19.994	103.110	20.000	15.810	0.492
395.000	272.805	79.991	19.995	103.106	20.000	15.776	0.465
395.500	273.081	79.991	19.995	103.106	19.996	16.072	0.496
396.000	273.290	79.992	19.994	103.106	19.997	16.044	0.508
396.500	273.569	79.992	19.996	103.109	19.997	16.048	0.486
397.000	273.809	79.991	19.994	103.110	19.994	16.261	0.503
397.500	274.058	79.994	19.995	103.109	19.988	16.659	0.504
398.000	274.306	79.993	19.995	103.111	19.990	16.500	0.493
398.500	274.601	79.994	19.996	103.115	19.986	16.795	0.520
399.000	274.789	79.992	19.995	103.115	19.985	16.893	0.513
399.500	275.045	79.995	19.995	103.114	19.981	17.167	0.463
400.000	275.300	79.995	19.995	103.116	19.976	17.555	0.478
400.500	275.535	79.994	19.995	103.115	19.976	17.544	0.501
401.000	275.789	79.993	19.994	103.112	19.972	17.834	0.490
401.500	276.025	79.995	19.995	103.110	19.971	17.889	0.490
402.000	276.292	79.993	19.996	103.109	19.968	18.159	0.496
402.500	276.581	79.994	19.994	103.107	19.961	18.662	0.529
403.000	276.773	79.992	19.996	103.106	19.967	18.177	0.518
403.500	277.042	79.995	19.995	103.107	19.960	18.714	0.471
404.000	277.274	79.995	19.995	103.107	19.962	18.603	0.481
404.500	277.553	79.995	19.995	103.108	19.960	18.745	0.506
405.000	277.772	79.997	19.996	103.109	19.956	19.032	0.505
405.500	277.999	79.994	19.995	103.112	19.952	19.299	0.472
406.000	278.245	79.994	19.995	103.115	19.953	19.228	0.459
406.500	278.481	79.993	19.996	103.115	19.944	19.891	0.477
407.000	278.784	79.995	19.997	103.115	19.941	20.078	0.511
407.500	279.041	79.995	19.996	103.115	19.940	20.184	0.550
408.000	279.262	79.995	19.996	103.114	19.938	20.301	0.519
408.500	279.466	79.992	19.996	103.110	19.936	20.470	0.452
409.000	279.747	79.994	19.995	103.109	19.932	20.729	0.455
409.500	279.984	79.994	19.995	103.109	19.933	20.664	0.501
410.000	280.237	79.990	19.996	103.108	19.929	20.962	0.503
410.500	280.446	79.993	19.995	103.112	19.923	21.396	0.476
411.000	280.725	79.994	19.995	103.119	19.917	21.822	0.475
411.500	280.950	79.993	19.995	103.124	19.910	22.332	0.496
412.001	281.195	79.994	19.995	103.130	19.907	22.542	0.487
412.500	281.447	79.993	19.995	103.137	19.897	23.289	0.484
413.000	281.724	79.994	19.995	103.137	19.892	23.634	0.514
413.500	281.920	79.993	19.993	103.141	19.890	23.807	0.501
414.000	282.201	79.994	19.995	103.149	19.881	24.424	0.475
414.501	282.429	79.993	19.994	103.153	19.875	24.859	0.493
415.000	282.671	79.993	19.995	103.153	19.874	24.956	0.489
415.500	282.943	79.997	19.995	103.155	19.874	24.972	0.492
416.000	283.141	79.993	19.995	103.152	19.869	25.342	0.492
416.500	283.435	79.993	19.995	103.143	19.870	25.252	0.482
417.000	283.665	79.994	19.995	103.134	19.866	25.554	0.508
417.500	283.962	79.994	19.994	103.125	19.861	25.913	0.525
418.000	284.166	79.994	19.995	103.114	19.863	25.736	0.514
418.501	284.404	79.994	19.995	103.101	19.862	25.806	0.471
419.000	284.684	79.993	19.995	103.090	19.859	26.019	0.480
419.500	284.882	79.993	19.995	103.087	19.858	26.111	0.498
420.000	285.134	79.994	19.995	103.087	19.855	26.306	0.464
420.500	285.391	79.991	19.995	103.089	19.856	26.256	0.480
421.000	285.634	79.994	19.994	103.093	19.853	26.444	0.505
421.500	285.910	79.993	19.996	103.100	19.847	26.896	0.509
422.000	286.161	79.993	19.994	103.104	19.850	26.682	0.523
422.500	286.372	79.993	19.994	103.111	19.848	26.805	0.495
423.000	286.639	79.995	19.994	103.119	19.847	26.924	0.471
423.500	286.896	79.995	19.995	103.125	19.845	27.048	0.501
424.000	287.144	79.993	19.996	103.133	19.850	26.722	0.515
424.500	287.399	79.995	19.995	103.138	19.843	27.197	0.504
425.001	287.625	79.995	19.995	103.139	19.841	27.366	0.492
425.500	287.890	79.993	19.995	103.138	19.839	27.520	0.486
426.000	288.128	79.994	19.996	103.135	19.839	27.461	0.497
426.500	288.400	79.994	19.994	103.127	19.835	27.764	0.506
427.000	288.642	79.994	19.996	103.120	19.835	27.800	0.512
427.500	288.859	79.996	19.995	103.112	19.835	27.804	0.486
428.000	289.096	79.994	19.995	103.106	19.832	28.022	0.456
428.500	289.388	79.996	19.995	103.108	19.830	28.136	0.492
429.000	289.572	79.994	19.996	103.109	19.826	28.436	0.503
429.500	289.878	79.995	19.996	103.109	19.827	28.351	0.483
430.000	290.104	79.995	19.995	103.114	19.826	28.445	0.511
430.500	290.337	79.993	19.995	103.116	19.825	28.533	0.495
431.000	290.618	79.994	19.996	103.112	19.822	28.745	0.487
431.500	290.866	79.994	19.996	103.114	19.823	28.665	0.522
432.000	291.134	79.994	19.996	103.115	19.819	28.926	0.523
432.500	291.388	79.995	19.995	103.112	19.816	29.183	0.519
433.000	291.593	79.993	19.996	103.108	19.822	28.717	0.490
433.500	291.875	79.992	19.996	103.108	19.816	29.189	0.473
434.000	292.112	79.993	19.996	103.104	19.815	29.251	0.503
434.500	292.349	79.992	19.996	103.103	19.815	29.268	0.496
435.000	292.589	79.993	19.996	103.104	19.813	29.368	0.475
435.500	292.857	79.994	19.996	103.109	19.811	29.543	0.493
436.000	293.096	79.994	19.996	103.115	19.811	29.524	0.508
436.500	293.316	79.992	19.996	103.119	19.810	29.628	0.483
437.000	293.614	79.993	19.996	103.119	19.808	29.728	0.488
437.500	293.852	79.991	19.997	103.119	19.814	29.289	0.527
438.000	294.067	79.993	19.996	103.119	19.807	29.778	0.495
438.500	294.322	79.993	19.996	103.118	19.806	29.900	0.461
439.000	294.573	79.992	19.994	103.115	19.806	29.899	0.488
439.500	294.833	79.992	19.996	103.115	19.810	29.560	0.508
440.000	295.071	79.994	19.996	103.118	19.809	29.698	0.504
440.500	295.339	79.993	19.996	103.118	19.807	29.823	0.502
441.000	295.579	79.992	19.995	103.115	19.803	30.083	0.507
441.500	295.821	79.993	19.995	103.114	19.803	30.100	0.495
442.000	296.076	79.993	19.996	103.115	19.803	30.096	0.490
442.500	296.324	79.994	19.994	103.110	19.802	30.188	0.500
443.000	296.567	79.992	19.996	103.106	19.798	30.477	0.498
443.500	296.836	79.993	19.995	103.107	19.794	30.758	0.502
444.000	297.061	79.994	19.995	103.110	19.800	30.332	0.503
444.500	297.296	79.992	19.994	103.112	19.798	30.434	0.477
445.000	297.547	79.994	19.995	103.113	19.791	30.972	0.473
445.500	297.816	79.992	19.994	103.111	19.794	30.753	0.503
446.000	298.053	79.994	19.995	103.110	19.794	30.725	0.513
446.500	298.332	79.994	19.995	103.107	19.796	30.637	0.511
447.000	298.547	79.993	19.995	103.104	19.797	30.573	0.505
447.500	298.805	79.994	19.996	103.104	19.794	30.782	0.484
448.000	299.076	79.993	19.995	103.106	19.791	31.006	0.501
448.500	299.301	79.993	19.996	103.106	19.789	31.120	0.513
449.000	299.551	79.994	19.994	103.106	19.795	30.696	0.486
449.500	299.809	79.993	19.995	103.106	19.795	30.675	0.492
450.000	300.051	79.993	19.995	103.106	19.795	30.731	0.504
450.500	300.321	79.995	19.995	103.104	19.797	30.605	0.506
451.000	300.484	79.994	19.995	103.105	19.795	30.699	0.473
451.500	300.765	79.993	19.995	103.105	19.797	30.589	0.439
452.000	301.029	79.994	19.995	103.104	19.799	30.444	0.495
452.500	301.280	79.994	19.995	103.103	19.800	30.360	0.530
453.000	301.515	79.993	19.995	103.103	19.796	30.584	0.500
453.500	301.769	79.995	19.995	103.102	19.799	30.373	0.487
454.000	302.012	79.994	19.996	103.102	19.802	30.196	0.493
454.500	302.265	79.994	19.994	103.102	19.802	30.191	0.497
455.000	302.490	79.995	19.994	103.104	19.804	30.051	0.487
455.500	302.753	79.994	19.995	103.104	19.805	29.925	0.482
456.001	302.976	79.994	19.994	103.103	19.803	30.059	0.487
456.500	303.226	79.996	19.995	103.103	19.803	30.112	0.480
457.000	303.478	79.995	19.995	103.103	19.801	30.215	0.488
457.500	303.724	79.995	19.995	103.103	19.791	30.955	0.500
458.000	303.952	79.994	19.995	103.102	19.790	31.043	0.486
458.500	304.220	79.995	19.994	103.102	19.776	32.085	0.485
459.000	304.414	79.995	19.995	103.115	19.771	32.430	0.479
459.500	304.701	79.994	19.995	103.130	19.762	33.096	0.471
460.000	304.947	79.994	19.996	103.146	19.755	33.619	0.506
460.500	305.154	79.993	19.994	103.176	19.753	33.747	0.493
461.000	305.402	79.994	19.994	103.204	19.749	34.053	0.454
461.500	305.652	79.994	19.995	103.213	19.744	34.368	0.477
462.000	305.892	79.993	19.995	103.212	19.744	34.372	0.494
462.500	306.127	79.993	19.995	103.204	19.746	34.217	0.482
463.000	306.385	79.992	19.995	103.180	19.744	34.366	0.484
463.500	306.635	79.992	19.995	103.153	19.744	34.381	0.500
464.000	306.890	79.993	19.996	103.125	19.742	34.506	0.507
464.500	307.114	79.993	19.996	103.103	19.744	34.381	0.492
465.000	307.379	79.993	19.994	103.084	19.740	34.649	0.484
465.500	307.654	79.993	19.996	103.065	19.744	34.412	0.515
466.000	307.860	79.992	19.995	103.057	19.747	34.186	0.511
466.500	308.117	79.992	19.995	103.058	19.748	34.083	0.472
467.000	308.310	79.992	19.995	103.059	19.753	33.758	0.456
467.500	308.600	79.992	19.995	103.063	19.754	33.696	0.467
468.000	308.875	79.993	19.995	103.073	19.759	33.291	0.524
468.500	309.081	79.992	19.995	103.079	19.765	32.865	0.523
469.000	309.329	79.994	19.995	103.087	19.766	32.806	0.467
469.500	309.545	79.992	19.996	103.094	19.767	32.689	0.458
470.000	309.840	79.992	19.994	103.102	19.772	32.378	0.488
470.500	310.082	79.992	19.995	103.107	19.778	31.917	0.524
471.000	310.360	79.992	19.994	103.107	19.779	31.856	0.528
471.500	310.550	79.992	19.995	103.109	19.781	31.735	0.494
472.000	310.819	79.992	19.995	103.109	19.785	31.390	0.464
472.500	311.072	79.993	19.995	103.109	19.790	31.084	0.490
473.000	311.267	79.991	19.994	103.109	19.793	30.852	0.485
473.500	311.573	79.991	19.994	103.105	19.791	30.966	0.474
474.000	311.826	79.993	19.995	103.104	19.796	30.641	0.530
474.501	312.058	79.992	19.995	103.107	19.793	30.853	0.522
475.001	312.345	79.992	19.994	103.111	19.799	30.437	0.502
475.501	312.583	79.991	19.994	103.111	19.801	30.237	0.523
476.000	312.880	79.993	19.994	103.115	19.800	30.339	0.530
476.500	313.099	79.992	19.995	103.116	19.804	30.012	0.525
477.000	313.351	79.994	19.995	103.115	19.805	29.952	0.493
477.500	313.600	79.993	19.995	103.111	19.810	29.622	0.486
478.000	313.852	79.994	19.995	103.112	19.809	29.636	0.501
478.500	314.088	79.993	19.995	103.111	19.809	29.649	0.494
479.000	314.335	79.994	19.994	103.110	19.808	29.749	0.485
479.500	314.621	79.993	19.994	103.109	19.804	30.050	0.508
480.000	314.851	79.992	19.994	103.109	19.805	29.926	0.525
480.500	315.122	79.994	19.995	103.108	19.809	29.682	0.509
481.001	315.330	79.994	19.994	103.108	19.806	29.863	0.490
481.501	315.617	79.995	19.993	103.108	19.807	29.850	0.487
482.000	315.831	79.995	19.995	103.109	19.803	30.080	0.498
482.500	316.053	79.995	19.994	103.113	19.802	30.204	0.468
483.000	316.323	79.995	19.995	103.118	19.799	30.396	0.464
483.500	316.558	79.993	19.994	103.124	19.797	30.564	0.499
484.000	316.798	79.994	19.995	103.130	19.791	30.996	0.490
484.500	317.076	79.992	19.993	103.137	19.794	30.781	0.496
485.000	317.302	79.994	19.994	103.138	19.791	31.006	0.511
485.500	317.522	79.994	19.995	103.140	19.786	31.353	0.475
486.000	317.819	79.995	19.995	103.141	19.789	31.134	0.481
486.501	318.078	79.995	19.994	103.140	19.782	31.616	0.536
487.000	318.317	79.996	19.994	103.134	19.779	31.841	0.527
487.500	318.552	79.994	19.995	103.130	19.777	32.034	0.486
488.000	318.796	79.995	19.995	103.123	19.779	31.852	0.476
488.501	319.030	79.994	19.994	103.118	19.772	32.376	0.478
489.001	319.281	79.995	19.995	103.113	19.773	32.326	0.482
489.500	319.488	79.994	19.995	103.110	19.766	32.786	0.471
490.000	319.786	79.994	19.995	103.109	19.766	32.780	0.481
490.500	320.005	79.994	19.995	103.110	19.766	32.796	0.511
491.000	320.262	79.994	19.995	103.115	19.763	33.018	0.496
491.500	320.495	79.993	19.996	103.119	19.762	33.103	0.483
492.000	320.725	79.993	19.996	103.125	19.763	33.026	0.477
492.500	321.004	79.993	19.996	103.129	19.755	33.589	0.486
493.000	321.262	79.993	19.995	103.129	19.756	33.511	0.523
493.500	321.478	79.994	19.995	103.124	19.757	33.493	0.506
494.000	321.755	79.993	19.994	103.125	19.755	33.613	0.484
494.500	321.991	79.994	19.996	103.126	19.748	34.120	0.503
495.000	322.251	79.993	19.995	103.129	19.749	34.075	0.504
495.500	322.517	79.996	19.995	103.131	19.743	34.490	0.511
496.000	322.765	79.996	19.996	103.135	19.741	34.600	0.521
496.500	322.976	79.994	19.996	103.134	19.736	35.013	0.487
497.000	323.261	79.994	19.996	103.131	19.737	34.878	0.477
497.500	323.506	79.994	19.995	103.128	19.733	35.207	0.513
498.000	323.758	79.994	19.996	103.124	19.729	35.515	0.514
498.500	324.006	79.993	19.997	103.125	19.725	35.767	0.498
499.000	324.245	79.994	19.996	103.130	19.721	36.040	0.494
499.500	324.517	79.993	19.996	103.133	19.721	36.052	0.499
500.000	324.768	79.995	19.997	103.133	19.719	36.256	0.516
500.500	325.012	79.994	19.996	103.136	19.716	36.463	0.509
501.000	325.234	79.994	19.995	103.137	19.711	36.824	0.481
501.500	325.514	79.994	19.996	103.137	19.710	36.878	0.485
502.000	325.741	79.993	19.996	103.137	19.704	37.271	0.504
502.500	326.001	79.995	19.996	103.141	19.702	37.483	0.497
503.000	326.265	79.995	19.996	103.142	19.700	37.617	0.506
503.500	326.529	79.995	19.997	103.142	19.689	38.366	0.526
504.000	326.734	79.994	19.996	103.144	19.692	38.189	0.498
504.500	327.053	79.995	19.996	103.148	19.688	38.454	0.496
505.000	327.295	79.995	19.996	103.149	19.681	38.985	0.543
505.500	327.531	79.996	19.996	103.148	19.679	39.149	0.520
506.000	327.819	79.996	19.996	103.148	19.676	39.314	0.501
506.500	328.031	79.995	19.996	103.144	19.668	39.891	0.512
507.000	328.279	79.996	19.995	103.140	19.666	40.097	0.480
507.500	328.540	79.994	19.995	103.140	19.662	40.372	0.485
508.000	328.788	79.994	19.995	103.141	19.658	40.669	0.509
508.500	329.042	79.994	19.996	103.141	19.655	40.874	0.505
509.000	329.321	79.994	19.997	103.142	19.650	41.269	0.518
509.500	329.566	79.997	19.995	103.145	19.644	41.643	0.529
510.000	329.829	79.996	19.994	103.150	19.638	42.135	0.516
510.500	330.054	79.995	19.996	103.150	19.637	42.159	0.498
511.000	330.337	79.994	19.996	103.150	19.635	42.296	0.498
511.500	330.573	79.995	19.996	103.150	19.625	43.083	0.514
512.000	330.815	79.995	19.996	103.147	19.622	43.237	0.498
512.500	331.047	79.995	19.996	103.142	19.617	43.627	0.476
513.000	331.338	79.995	19.995	103.143	19.615	43.790	0.498
513.500	331.539	79.995	19.996	103.143	19.607	44.402	0.507
514.000	331.799	79.994	19.995	103.143	19.599	44.949	0.476
514.500	332.063	79.996	19.996	103.144	19.598	45.009	0.492
515.000	332.291	79.994	19.995	103.145	19.591	45.553	0.508
515.500	332.609	79.993	19.995	103.146	19.587	45.816	0.520
516.000	332.814	79.994	19.997	103.146	19.579	46.377	0.534
516.500	333.037	79.993	19.996	103.146	19.575	46.678	0.475
517.000	333.294	79.993	19.996	103.145	19.567	47.261	0.454
517.500	333.577	79.993	19.996	103.145	19.562	47.613	0.510
518.000	333.805	79.994	19.997	103.145	19.558	47.953	0.525
518.500	334.075	79.991	19.996	103.149	19.546	48.826	0.504
519.000	334.323	79.991	19.997	103.154	19.539	49.308	0.508
519.500	334.583	79.992	19.996	103.158	19.538	49.395	0.513
520.000	334.817	79.990	19.996	103.161	19.531	49.920	0.501
520.500	335.083	79.993	19.997	103.167	19.522	50.529	0.497
521.000	335.333	79.993	19.996	103.170	19.515	51.059	0.508
521.500	335.580	79.990	19.996	103.170	19.513	51.188	0.507
522.000	335.815	79.993	19.996	103.164	19.501	52.066	0.490
522.500	336.058	79.992	19.996	103.165	19.498	52.324	0.480
523.000	336.282	79.993	19.996	103.166	19.490	52.866	0.473
523.500	336.567	79.991	19.997	103.167	19.484	53.345	0.488
524.000	336.833	79.992	19.996	103.170	19.474	54.063	0.530
524.500	337.092	79.991	19.995	103.178	19.464	54.810	0.538
525.000	337.304	79.991	19.996	103.182	19.458	55.227	0.498
525.500	337.596	79.992	19.996	103.181	19.450	55.821	0.488
526.000	337.875	79.992	19.997	103.180	19.443	56.277	0.537
526.500	338.076	79.991	19.996	103.179	19.434	56.944	0.525
527.000	338.344	79.992	19.997	103.177	19.428	57.408	0.475
527.500	338.575	79.991	19.997	103.176	19.420	58.012	0.484
528.000	338.861	79.991	19.996	103.176	19.414	58.451	0.508
528.500	339.131	79.992	19.997	103.177	19.405	59.088	0.537
529.000	339.342	79.993	19.997	103.179	19.399	59.532	0.518
529.500	339.595	79.994	19.997	103.180	19.387	60.376	0.472
530.000	339.829	79.994	19.996	103.182	19.385	60.496	0.475
530.500	340.096	79.992	19.995	103.183	19.369	61.715	0.494
531.000	340.339	79.994	19.997	103.184	19.362	62.224	0.506
531.500	340.573	79.994	19.996	103.184	19.358	62.500	0.493
532.000	340.819	79.993	19.997	103.185	19.352	62.905	0.478
532.500	341.070	79.993	19.996	103.187	19.341	63.757	0.489
533.000	341.316	79.992	19.994	103.190	19.329	64.590	0.497
533.500	341.559	79.993	19.995	103.191	19.321	65.163	0.493
534.001	341.798	79.994	19.995	103.197	19.310	66.007	0.486
534.500	342.056	79.992	19.995	103.204	19.306	66.306	0.489
535.000	342.301	79.993	19.995	103.206	19.293	67.257	0.500
535.500	342.556	79.992	19.995	103.209	19.281	68.074	0.502
536.000	342.764	79.993	19.995	103.216	19.269	68.960	0.481
536.500	343.019	79.993	19.994	103.218	19.252	70.186	0.463
537.000	343.250	79.993	19.995	103.218	19.243	70.844	0.475
537.500	343.539	79.993	19.995	103.222	19.232	71.710	0.503
538.000	343.729	79.994	19.995	103.220	19.220	72.577	0.499
538.500	344.034	79.992	19.995	103.217	19.208	73.474	0.487
539.000	344.270	79.993	19.995	103.217	19.196	74.346	0.518
539.500	344.513	79.993	19.995	103.217	19.185	75.130	0.510
540.000	344.777	79.994	19.995	103.217	19.174	75.932	0.493
540.500	344.982	79.992	19.995	103.219	19.160	76.907	0.489
541.000	345.245	79.993	19.995	103.220	19.148	77.840	0.469
541.500	345.509	79.993	19.995	103.220	19.142	78.211	0.497
542.000	345.728	79.995	19.995	103.220	19.127	79.375	0.505
542.500	346.019	79.992	19.994	103.220	19.111	80.477	0.496
543.000	346.249	79.993	19.995	103.223	19.100	81.265	0.515
543.500	346.471	79.993	19.994	103.224	19.087	82.267	0.486
544.000	346.764	79.991	19.994	103.225	19.075	83.159	0.484
544.500	346.982	79.992	19.997	103.228	19.060	84.363	0.513
545.000	347.244	79.992	19.995	103.229	19.041	85.857	0.496
545.500	347.521	79.994	19.996	103.233	19.025	87.133	0.509
546.000	347.792	79.992	19.995	103.238	19.012	88.098	0.543
546.500	348.027	79.994	19.994	103.246	18.996	89.260	0.527
547.000	348.300	79.992	19.996	103.251	18.973	90.945	0.507
547.500	348.517	79.992	19.995	103.259	18.954	92.249	0.499
548.000	348.775	79.991	19.996	103.267	18.940	93.233	0.482
548.500	349.040	79.990	19.994	103.277	18.924	94.313	0.499
549.000	349.259	79.992	19.995	103.285	18.903	95.775	0.503
549.500	349.510	79.991	19.995	103.293	18.886	96.923	0.477
550.000	349.781	79.991	19.995	103.296	18.868	98.144	0.497
550.500	350.015	79.993	19.996	103.294	18.852	99.193	0.514
551.000	350.244	79.991	19.995	103.294	18.829	100.852	0.484
551.500	350.498	79.991	19.994	103.294	18.809	102.214	0.472
552.000	350.739	79.992	19.995	103.293	18.783	104.093	0.489
552.500	350.968	79.991	19.995	103.294	18.754	106.176	0.483
553.000	351.239	79.991	19.995	103.295	18.707	109.588	0.485
553.500	351.492	79.994	19.994	103.288	18.652	113.555	0.512
554.000	351.724	79.993	19.995	103.292	18.589	118.159	0.505
554.500	352.001	79.993	19.996	103.333	18.519	123.225	0.497
555.000	352.232	79.993	19.995	103.375	18.453	128.001	0.509
555.500	352.508	79.992	19.995	103.460	18.389	132.698	0.507
556.000	352.789	79.992	19.993	103.596	18.330	137.063	0.532
556.500	353.019	79.993	19.995	103.705	18.281	140.763	0.534
557.000	353.276	79.993	19.994	103.750	18.232	144.456	0.499
557.500	353.562	79.994	19.994	103.776	18.188	147.901	0.515
558.000	353.784	79.992	19.994	103.754	18.153	150.597	0.525
558.500	354.043	79.992	19.995	103.669	18.116	153.476	0.495
559.000	354.337	79.993	19.995	103.581	18.095	155.235	0.517
559.500	354.592	79.993	19.995	103.506	18.067	157.466	0.551
560.000	354.829	79.993	19.995	103.430	18.048	158.972	0.521
560.500	355.082	79.995	19.995	103.337	18.035	159.931	0.491
561.000	355.325	79.995	19.996	103.240	18.021	160.968	0.493
561.500	355.528	79.995	19.996	103.163	18.020	160.950	0.471
562.000	355.813	79.994	19.995	103.105	18.022	160.721	0.467
562.500	356.027	79.994	19.995	103.059	18.035	159.644	0.494
563.000	356.303	79.993	19.995	103.037	18.044	158.893	0.494
563.500	356.603	79.993	19.995	103.032	18.069	156.882	0.532
564.000	356.874	79.993	19.995	103.016	18.091	155.008	0.574
564.500	357.135	79.995	19.995	103.000	18.106	153.773	0.552
565.000	357.320	79.994	19.995	102.993	18.110	153.317	0.489
565.500	357.602	79.995	19.994	102.985	18.102	153.809	0.457
566.000	357.858	79.995	19.994	102.989	18.087	154.911	0.503
566.500	358.083	79.993	19.996	103.034	18.064	156.568	0.509
567.000	358.342	79.996	19.996	103.108	18.019	159.877	0.482
567.500	358.645	79.994	19.995	103.194	17.974	163.170	0.523
568.000	358.853	79.995	19.995	103.319	17.915	167.504	0.537
568.500	359.113	79.994	19.995	103.469	17.852	172.074	0.490
569.001	359.385	79.995	19.994	103.592	17.785	177.015	0.500
569.500	359.606	79.993	19.994	103.708	17.722	181.646	0.512
570.000	359.864	79.994	19.994	103.850	17.648	187.097	0.486
570.500	360.092	79.993	19.995	103.976	17.583	191.808	0.483
571.000	360.328	79.993	19.994	104.037	17.522	196.303	0.476
571.500	360.598	79.994	19.995	104.051	17.461	200.756	0.485
572.000	360.851	79.994	19.995	104.045	17.404	204.989	0.514
572.500	361.066	79.994	19.994	104.004	17.354	208.631	0.496
573.000	361.365	79.994	19.994	103.916	17.310	211.869	0.491
573.500	361.621	79.994	19.995	103.838	17.256	215.791	0.534
574.000	361.838	79.993	19.994	103.776	17.219	218.498	0.514
574.500	362.100	79.993	19.994	103.660	17.168	222.178	0.476
575.000	362.316	79.993	19.996	103.511	17.122	225.519	0.478
575.500	362.631	79.994	19.995	103.384	17.083	228.401	0.505
576.000	362.872	79.994	19.996	103.284	17.037	231.716	0.544
576.500	363.116	79.993	19.995	103.230	17.000	234.406	0.521
577.000	363.378	79.994	19.995	103.218	16.966	236.884	0.495
577.500	363.646	79.993	19.994	103.217	16.935	239.205	0.518
578.000	363.897	79.993	19.993	103.228	16.910	240.964	0.524
578.500	364.121	79.993	19.995	103.257	16.884	242.833	0.497
579.000	364.366	79.993	19.995	103.272	16.856	244.875	0.472
579.500	364.623	79.994	19.995	103.297	16.828	246.913	0.486
580.000	364.864	79.994	19.995	103.335	16.809	248.292	0.500
580.500	365.139	79.993	19.996	103.364	16.774	250.802	0.507
581.000	365.365	79.992	19.995	103.371	16.749	252.664	0.509
581.500	365.621	79.993	19.996	103.378	16.726	254.305	0.492
582.000	365.875	79.995	19.996	103.397	16.705	255.809	0.496
582.500	366.112	79.994	19.995	103.422	16.684	257.242	0.501
583.000	366.368	79.995	19.995	103.442	16.664	258.684	0.492
583.500	366.613	79.995	19.996	103.456	16.653	259.416	0.497
584.000	366.916	79.995	19.996	103.459	16.628	261.158	0.524
584.500	367.147	79.994	19.996	103.468	16.615	262.129	0.541
585.000	367.394	79.995	19.996	103.455	16.597	263.430	0.506
585.500	367.693	79.997	19.995	103.439	16.582	264.483	0.512
586.000	367.902	79.996	19.996	103.429	16.568	265.511	0.527
586.500	368.167	79.996	19.995	103.454	16.545	267.274	0.491
587.000	368.401	79.994	19.995	103.447	16.533	268.171	0.486
587.500	368.695	79.995	19.995	103.437	16.519	269.158	0.513
588.000	368.957	79.995	19.995	103.438	16.505	270.204	0.542
588.500	369.191	79.995	19.996	103.454	16.486	271.509	0.527
589.000	369.482	79.995	19.995	103.441	16.476	272.249	0.511
589.500	369.710	79.995	19.997	103.428	16.466	272.981	0.522
590.000	369.985	79.993	19.994	103.430	16.462	273.275	0.511
590.500	370.214	79.993	19.995	103.438	16.460	273.344	0.503
591.000	370.462	79.993	19.995	103.428	16.456	273.617	0.490
591.500	370.701	79.994	19.995	103.417	16.457	273.523	0.482
592.000	370.975	79.995	19.995	103.436	16.459	273.315	0.500
592.501	371.219	79.994	19.995	103.426	16.467	272.770	0.515
593.000	371.499	79.993	19.995	103.398	16.465	272.898	0.521
593.500	371.725	79.994	19.994	103.381	16.476	272.116	0.516
594.000	372.004	79.994	19.995	103.363	16.480	271.855	0.506
594.500	372.280	79.995	19.996	103.322	16.496	270.763	0.530
595.000	372.537	79.994	19.993	103.305	16.504	270.251	0.544
595.500	372.789	79.993	19.995	103.311	16.516	269.416	0.520
596.000	373.070	79.992	19.995	103.307	16.534	268.166	0.521
596.500	373.322	79.992	19.995	103.297	16.550	267.080	0.533
597.000	373.601	79.992	19.995	103.301	16.569	265.700	0.532
597.500	373.844	79.993	19.995	103.327	16.592	264.109	0.526
598.000	374.120	79.992	19.994	103.333	16.617	262.286	0.520
598.500	374.361	79.992	19.995	103.325	16.644	260.318	0.518
599.000	374.636	79.992	19.995	103.330	16.666	258.717	0.516
599.500	374.918	79.993	19.994	103.324	16.705	255.825	0.537
600.000	375.177	79.993	19.997	103.312	16.736	253.536	0.549
600.500	375.432	79.993	19.996	103.305	16.769	251.108	0.527
601.000	375.695	79.993	19.996	103.304	16.802	248.677	0.516
601.500	375.970	79.992	19.996	103.294	16.841	245.795	0.528
602.001	376.217	79.993	19.995	103.282	16.873	243.456	0.531
602.500	376.492	79.993	19.993	103.266	16.914	240.442	0.522
603.000	376.771	79.993	19.996	103.260	16.944	238.293	0.538
603.500	377.001	79.991	19.995	103.261	16.977	235.837	0.531
604.000	377.297	79.992	19.995	103.266	17.007	233.666	0.517
604.500	377.555	79.992	19.996	103.274	17.036	231.485	0.540
605.000	377.799	79.991	19.994	103.284	17.069	229.125	0.528
605.500	378.073	79.992	19.994	103.302	17.092	227.390	0.510
606.000	378.319	79.991	19.996	103.318	17.115	225.758	0.519
606.500	378.601	79.990	19.995	103.340	17.142	223.723	0.524
607.000	378.820	79.992	19.995	103.369	17.170	221.728	0.515
607.500	379.128	79.991	19.994	103.393	17.195	219.870	0.514
608.000	379.364	79.993	19.995	103.407	17.215	218.403	0.535
608.500	379.649	79.989	19.995	103.420	17.238	216.751	0.532
609.000	379.914	79.992	19.996	103.430	17.259	215.192	0.536
609.500	380.193	79.990	19.996	103.432	17.279	213.746	0.547
610.000	380.432	79.990	19.995	103.433	17.297	212.391	0.531
610.500	380.665	79.991	19.997	103.426	17.313	211.211	0.495
611.000	380.970	79.990	19.996	103.412	17.336	209.529	0.505
611.500	381.175	79.991	19.996	103.395	17.356	208.102	0.523
612.000	381.485	79.989	19.996	103.382	17.367	207.257	0.512
612.500	381.737	79.992	19.996	103.366	17.388	205.712	0.539
613.000	382.005	79.991	19.996	103.354	17.404	204.597	0.541
613.500	382.285	79.992	19.995	103.346	17.426	202.950	0.534
614.000	382.545	79.993	19.996	103.342	17.441	201.859	0.544
614.500	382.802	79.990	19.997	103.335	17.455	200.859	0.528
615.000	383.048	79.990	19.996	103.328	17.469	199.837	0.510
615.500	383.335	79.991	19.997	103.320	17.485	198.630	0.518
616.000	383.575	79.992	19.996	103.313	17.500	197.559	0.530
616.500	383.829	79.991	19.997	103.305	17.515	196.501	0.511
617.000	384.071	79.992	19.996	103.300	17.531	195.276	0.495
617.500	384.382	79.993	19.996	103.299	17.550	193.934	0.524
618.000	384.633	79.993	19.996	103.295	17.558	193.305	0.557
618.500	384.859	79.992	19.996	103.292	17.573	192.254	0.520
619.000	385.149	79.991	19.997	103.289	17.590	190.983	0.497
619.500	385.397	79.992	19.996	103.282	17.608	189.694	0.527
620.000	385.681	79.992	19.996	103.275	17.624	188.524	0.535
620.500	385.912	79.993	19.997	103.270	17.642	187.215	0.523
621.000	386.173	79.991	19.996	103.265	17.655	186.273	0.503
621.500	386.417	79.992	19.996	103.260	17.675	184.744	0.498
622.000	386.687	79.994	19.996	103.258	17.690	183.655	0.510
622.500	386.926	79.992	19.995	103.256	17.708	182.398	0.512
623.001	387.211	79.992	19.996	103.250	17.726	181.064	0.517
623.500	387.456	79.993	19.994	103.243	17.743	179.853	0.527
624.000	387.723	79.993	19.994	103.234	17.764	178.266	0.521
624.500	387.963	79.992	19.995	103.228	17.783	176.912	0.510
625.000	388.226	79.991	19.997	103.226	17.800	175.683	0.505
625.500	388.465	79.991	19.996	103.228	17.819	174.272	0.502
626.000	388.728	79.993	19.995	103.229	17.833	173.211	0.502
626.500	388.965	79.994	19.995	103.229	17.855	171.615	0.501
627.000	389.288	79.993	19.995	103.224	17.872	170.401	0.530
627.500	389.485	79.994	19.995	103.219	17.893	168.874	0.540
628.000	389.753	79.990	19.995	103.215	17.913	167.394	0.493
628.500	390.004	79.992	19.995	103.215	17.934	165.915	0.492
629.000	390.270	79.992	19.996	103.215	17.959	164.104	0.518
629.500	390.520	79.992	19.995	103.219	17.979	162.590	0.517
630.000	390.754	79.992	19.996	103.218	17.999	161.138	0.500
630.500	391.013	79.991	19.995	103.213	18.021	159.573	0.488
631.000	391.307	79.992	19.995	103.208	18.047	157.688	0.523
631.500	391.562	79.992	19.994	103.201	18.069	156.053	0.551
632.000	391.753	79.991	19.994	103.193	18.092	154.389	0.497
632.500	392.011	79.993	19.996	103.188	18.116	152.648	0.447
633.000	392.291	79.991	19.995	103.185	18.139	150.949	0.494
633.500	392.534	79.993	19.995	103.182	18.164	149.117	0.531
634.000	392.775	79.992	19.996	103.181	18.188	147.374	0.504
634.500	393.069	79.993	19.994	103.181	18.213	145.588	0.510
635.001	393.286	79.992	19.996	103.178	18.239	143.720	0.523
635.501	393.557	79.992	19.994	103.172	18.261	142.096	0.499
636.000	393.803	79.992	19.995	103.168	18.285	140.340	0.502
636.500	394.072	79.993	19.995	103.162	18.307	138.739	0.516
637.000	394.310	79.993	19.995	103.157	18.332	136.919	0.511
637.500	394.580	79.993	19.995	103.159	18.361	134.787	0.507
638.000	394.832	79.993	19.995	103.160	18.389	132.748	0.515
638.500	395.065	79.993	19.995	103.157	18.415	130.929	0.504
639.000	395.335	79.994	19.996	103.156	18.440	129.105	0.494
639.500	395.596	79.992	19.995	103.153	18.466	127.212	0.517
640.000	395.827	79.994	19.994	103.149	18.487	125.680	0.512
640.500	396.088	79.994	19.994	103.146	18.518	123.447	0.492
641.000	396.332	79.994	19.996	103.146	18.542	121.642	0.498
641.500	396.568	79.992	19.994	103.144	18.566	119.910	0.493
642.000	396.795	79.994	19.996	103.140	18.594	117.879	0.472
642.500	397.073	79.994	19.995	103.134	18.618	116.142	0.484
643.000	397.289	79.995	19.995	103.128	18.646	114.113	0.499
643.500	397.540	79.995	19.994	103.123	18.672	112.217	0.481
644.000	397.804	79.993	19.996	103.116	18.695	110.537	0.491
644.500	398.060	79.994	19.995	103.116	18.720	108.741	0.517
645.000	398.310	79.994	19.993	103.116	18.747	106.800	0.513
645.500	398.564	79.995	19.994	103.118	18.776	104.694	0.505
646.000	398.777	79.993	19.995	103.117	18.798	103.115	0.486
646.500	399.031	79.995	19.995	103.117	18.821	101.414	0.467
647.000	399.310	79.994	19.996	103.114	18.848	99.427	0.500
647.500	399.539	79.994	19.995	103.110	18.866	98.113	0.520
648.000	399.814	79.995	19.995	103.106	18.895	96.022	0.506
648.500	400.034	79.994	19.996	103.106	18.919	94.273	0.499
649.000	400.275	79.994	19.995	103.105	18.943	92.525	0.478
649.500	400.545	79.995	19.995	103.106	18.968	90.734	0.486
650.000	400.785	79.993	19.995	103.106	18.990	89.144	0.511
650.500	401.002	79.993	19.995	103.106	19.017	87.179	0.484
651.000	401.241	79.994	19.994	103.104	19.040	85.498	0.457
651.500	401.460	79.993	19.996	103.103	19.064	83.764	0.457
652.000	401.768	79.993	19.995	103.103	19.083	82.349	0.492
652.501	402.000	79.995	19.995	103.103	19.109	80.479	0.533
653.001	402.292	79.994	19.995	103.103	19.132	78.831	0.532
653.500	402.524	79.993	19.996	103.102	19.149	77.566	0.524
654.000	402.777	79.993	19.994	103.103	19.170	76.017	0.505
654.500	402.987	79.993	19.996	103.102	19.202	73.696	0.474
655.000	403.282	79.993	19.994	103.102	19.215	72.801	0.484
655.501	403.493	79.992	19.994	103.101	19.237	71.156	0.506
656.001	403.740	79.994	19.996	103.102	19.259	69.585	0.482
656.500	404.005	79.994	19.995	103.103	19.279	68.119	0.485
657.000	404.227	79.993	19.994	103.104	19.297	66.821	0.499
657.500	404.476	79.993	19.994	103.101	19.318	65.262	0.479
658.000	404.739	79.995	19.995	103.097	19.337	63.948	0.492
658.500	404.923	79.994	19.994	103.092	19.358	62.391	0.480
659.000	405.211	79.994	19.995	103.091	19.376	61.115	0.459
659.501	405.443	79.995	19.996	103.084	19.392	59.914	0.495
660.000	405.695	79.995	19.995	103.079	19.412	58.461	0.502
660.500	405.929	79.993	19.993	103.076	19.430	57.175	0.485
661.000	406.162	79.994	19.995	103.074	19.447	55.923	0.477
661.500	406.428	79.994	19.995	103.067	19.463	54.804	0.483
662.000	406.715	79.995	19.994	103.067	19.480	53.508	0.526
662.500	406.949	79.993	19.994	103.069	19.498	52.200	0.537
663.000	407.172	79.994	19.994	103.071	19.512	51.225	0.489
663.501	407.408	79.994	19.995	103.071	19.532	49.775	0.458
664.000	407.699	79.996	19.994	103.073	19.545	48.818	0.493
664.500	407.944	79.995	19.994	103.076	19.557	47.973	0.531
665.000	408.198	79.994	19.995	103.077	19.576	46.538	0.518
665.500	408.440	79.995	19.994	103.081	19.588	45.714	0.497
666.000	408.693	79.995	19.994	103.081	19.603	44.574	0.495
666.500	408.924	79.995	19.994	103.079	19.620	43.394	0.490
667.000	409.170	79.996	19.995	103.076	19.634	42.364	0.481
667.500	409.420	79.995	19.994	103.072	19.645	41.574	0.487
668.000	409.679	79.996	19.994	103.064	19.659	40.522	0.503
668.500	409.918	79.995	19.995	103.058	19.674	39.433	0.503
669.000	410.174	79.995	19.994	103.055	19.684	38.702	0.496
669.500	410.407	79.994	19.993	103.053	19.697	37.808	0.492
670.000	410.687	79.994	19.995	103.054	19.708	36.971	0.501
670.500	410.933	79.994	19.995	103.057	19.724	35.788	0.519
671.000	411.201	79.995	19.994	103.061	19.733	35.158	0.520
671.500	411.451	79.994	19.994	103.063	19.746	34.239	0.516
672.000	411.655	79.994	19.995	103.063	19.755	33.561	0.486
672.500	411.920	79.993	19.995	103.060	19.768	32.627	0.461
673.000	412.145	79.994	19.995	103.060	19.776	32.019	0.479
673.500	412.389	79.994	19.995	103.061	19.793	30.795	0.480
674.000	412.651	79.995	19.995	103.062	19.800	30.337	0.488
674.500	412.926	79.993	19.995	103.061	19.810	29.593	0.522
675.000	413.184	79.993	19.994	103.063	19.817	29.042	0.535
675.500	413.427	79.994	19.995	103.059	19.829	28.208	0.517
676.000	413.647	79.993	19.996	103.057	19.838	27.571	0.482
676.500	413.896	79.992	19.996	103.056	19.845	27.049	0.466
677.000	414.133	79.992	19.996	103.057	19.855	26.283	0.478
677.500	414.376	79.991	19.997	103.055	19.859	25.999	0.483
678.000	414.645	79.993	19.995	103.057	19.870	25.197	0.496
678.500	414.850	79.993	19.996	103.058	19.881	24.417	0.493
679.000	415.131	79.992	19.995	103.059	19.886	24.075	0.480
679.500	415.351	79.992	19.995	103.060	19.899	23.159	0.494
680.000	415.589	79.993	19.996	103.061	19.899	23.109	0.480
680.500	415.881	79.993	19.995	103.054	19.909	22.382	0.493
681.000	416.113	79.993	19.996	103.051	19.919	21.641	0.527
681.500	416.386	79.992	19.995	103.050	19.925	21.228	0.515
682.000	416.629	79.992	19.995	103.049	19.932	20.754	0.510
682.500	416.863	79.993	19.996	103.052	19.938	20.299	0.496
683.000	417.109	79.992	19.995	103.058	19.949	19.492	0.479
683.500	417.392	79.992	19.996	103.060	19.950	19.397	0.505
684.000	417.625	79.993	19.995	103.057	19.961	18.628	0.522
684.500	417.906	79.993	19.996	103.052	19.968	18.084	0.514
685.000	418.149	79.992	19.996	103.048	19.967	18.179	0.519
685.500	418.353	79.992	19.995	103.048	19.976	17.504	0.486
686.000	418.617	79.993	19.995	103.045	19.979	17.299	0.457
686.500	418.875	79.993	19.996	103.049	19.989	16.564	0.494
687.000	419.135	79.993	19.995	103.052	19.996	16.089	0.520
687.500	419.403	79.993	19.996	103.055	19.998	15.948	0.523
688.000	419.642	79.991	19.996	103.056	20.004	15.471	0.517
688.500	419.888	79.992	19.995	103.058	20.009	15.166	0.496
689.000	420.119	79.993	19.996	103.057	20.016	14.618	0.481
689.500	420.365	79.994	19.995	103.059	20.016	14.598	0.477
690.000	420.597	79.993	19.996	103.061	20.021	14.239	0.478
690.500	420.859	79.993	19.996	103.060	20.027	13.850	0.486
691.000	421.111	79.992	19.996	103.061	20.031	13.558	0.504
691.500	421.366	79.991	19.995	103.063	20.035	13.235	0.510
692.000	421.615	79.993	19.995	103.061	20.040	12.894	0.505
692.500	421.877	79.994	19.996	103.059	20.043	12.703	0.508
693.000	422.094	79.993	19.995	103.060	20.047	12.346	0.495
693.500	422.371	79.993	19.996	103.061	20.048	12.332	0.486
694.000	422.611	79.993	19.996	103.062	20.050	12.182	0.505
694.500	422.853	79.993	19.995	103.065	20.058	11.618	0.499
695.000	423.136	79.993	19.995	103.071	20.060	11.444	0.503
695.500	423.384	79.992	19.995	103.075	20.062	11.325	0.528
696.000	423.641	79.994	19.996	103.073	20.069	10.786	0.519
696.500	423.903	79.993	19.995	103.067	20.069	10.792	0.512
697.000	424.136	79.993	19.996	103.066	20.074	10.393	0.507
697.500	424.403	79.992	19.995	103.062	20.075	10.347	0.497
698.000	424.635	79.993	19.996	103.058	20.076	10.303	0.499
698.500	424.924	79.993	19.996	103.062	20.080	9.988	0.510
699.000	425.187	79.993	19.996	103.066	20.083	9.757	0.537
699.500	425.434	79.992	19.996	103.066	20.083	9.738	0.531
700.000	425.714	79.992	19.997	103.066	20.089	9.367	0.519
700.500	425.955	79.992	19.997	103.066	20.091	9.157	0.524
701.000	426.227	79.990	19.995	103.064	20.091	9.169	0.517
701.500	426.460	79.993	19.997	103.064	20.097	8.718	0.509
702.000	426.747	79.993	19.995	103.063	20.100	8.540	0.513
702.500	427.039	79.993	19.996	103.062	20.102	8.408	0.550
703.000	427.270	79.991	19.997	103.062	20.104	8.216	0.551
703.500	427.552	79.992	19.996	103.062	20.106	8.073	0.518
704.000	427.780	79.993	19.997	103.062	20.106	8.075	0.511
704.500	428.023	79.993	19.997	103.063	20.111	7.730	0.490
705.000	428.313	79.992	19.996	103.063	20.113	7.587	0.502
705.500	428.568	79.993	19.997	103.064	20.115	7.423	0.539
706.000	428.814	79.993	19.996	103.065	20.113	7.579	0.523
706.500	429.097	79.992	19.997	103.065	20.119	7.158	0.515
707.000	429.365	79.993	19.997	103.065	20.121	7.019	0.540
707.500	429.577	79.993	19.998	103.064	20.124	6.757	0.515
708.000	429.878	79.992	19.997	103.064	20.125	6.735	0.497
708.500	430.142	79.994	19.997	103.063	20.123	6.837	0.540
709.000	430.415	79.992	19.996	103.063	20.129	6.434	0.552
709.500	430.666	79.992	19.996	103.064	20.128	6.516	0.531
710.000	430.914	79.989	19.996	103.068	20.131	6.315	0.511
710.500	431.174	79.993	19.996	103.070	20.135	6.011	0.503
711.000	431.450	79.993	19.997	103.072	20.134	6.097	0.522
711.500	431.701	79.992	19.997	103.071	20.138	5.812	0.531
712.000	431.986	79.993	19.997	103.067	20.139	5.670	0.531
712.500	432.217	79.993	19.997	103.060	20.140	5.639	0.526
713.000	432.519	79.993	19.996	103.055	20.141	5.551	0.525
713.500	432.773	79.993	19.997	103.051	20.143	5.447	0.545
714.000	433.037	79.993	19.996	103.052	20.143	5.383	0.537
714.501	433.293	79.993	19.997	103.056	20.144	5.315	0.519
715.000	433.602	79.993	19.996	103.060	20.147	5.120	0.542
715.500	433.859	79.994	19.997	103.062	20.147	5.121	0.566
716.000	434.155	79.993	19.996	103.065	20.150	4.914	0.560
716.500	434.396	79.994	19.995	103.064	20.149	4.979	0.545
717.000	434.670	79.996	19.996	103.064	20.152	4.746	0.526
717.500	434.966	79.994	19.995	103.064	20.151	4.804	0.542
718.000	435.236	79.992	19.995	103.063	20.152	4.732	0.567
718.500	435.464	79.993	19.995	103.063	20.154	4.625	0.532
719.000	435.723	79.993	19.995	103.064	20.155	4.519	0.493
719.500	436.003	79.995	19.995	103.065	20.159	4.264	0.513
720.000	436.289	79.993	19.995	103.065	20.160	4.186	0.552
720.500	436.542	79.994	19.995	103.066	20.161	4.083	0.553
721.000	436.821	79.994	19.996	103.066	20.160	4.148	0.536
721.500	437.068	79.996	19.996	103.066	20.165	3.821	0.529
722.001	437.330	79.993	19.996	103.065	20.164	3.877	0.517
722.500	437.602	79.995	19.994	103.066	20.167	3.682	0.522
723.000	437.902	79.993	19.995	103.065	20.166	3.766	0.553
723.500	438.137	79.995	19.995	103.066	20.170	3.484	0.554
724.000	438.405	79.996	19.994	103.066	20.167	3.636	0.519
724.500	438.703	79.995	19.993	103.066	20.168	3.632	0.534
725.000	438.911	79.995	19.996	103.065	20.171	3.385	0.536
725.500	439.229	79.994	19.993	103.063	20.172	3.307	0.516
726.000	439.498	79.995	19.994	103.061	20.171	3.355	0.557
726.500	439.773	79.994	19.995	103.056	20.172	3.303	0.566
727.000	440.029	79.996	19.995	103.051	20.168	3.584	0.538
727.500	440.286	79.994	19.998	103.045	20.173	3.225	0.522
728.000	440.552	79.995	19.994	103.046	20.174	3.169	0.518
728.500	440.810	79.996	19.994	103.048	20.172	3.309	0.523
729.000	441.101	79.994	19.995	103.054	20.175	3.074	0.536
729.500	441.350	79.996	19.995	103.057	20.174	3.151	0.545
730.001	441.603	79.995	19.995	103.061	20.177	2.914	0.521
730.501	441.829	79.995	19.995	103.060	20.174	3.181	0.490
731.000	442.132	79.993	19.996	103.060	20.180	2.760	0.504
731.500	442.395	79.994	19.996	103.060	20.179	2.830	0.547
732.000	442.645	79.993	19.997	103.062	20.179	2.824	0.539
732.500	442.942	79.993	19.996	103.065	20.177	2.954	0.530
733.000	443.231	79.993	19.996	103.065	20.180	2.739	0.567
733.500	443.450	79.994	19.996	103.064	20.179	2.770	0.547
734.000	443.754	79.993	19.993	103.064	20.178	2.848	0.515
734.500	443.981	79.993	19.996	103.062	20.175	3.084	0.527
735.000	444.242	79.993	19.994	103.061	20.180	2.763	0.510
735.500	444.578	79.993	19.995	103.059	20.179	2.800	0.542
736.000	444.859	79.993	19.995	103.060	20.179	2.808	0.607
736.500	445.131	79.994	19.995	103.059	20.179	2.814	0.585
737.000	445.401	79.992	19.995	103.061	20.183	2.495	0.547
737.500	445.624	79.994	19.995	103.062	20.181	2.686	0.517
738.000	445.941	79.993	19.996	103.064	20.177	2.980	0.516
738.500	446.202	79.993	19.994	103.065	20.176	3.039	0.559
739.000	446.453	79.992	19.995	103.067	20.178	2.874	0.545
739.500	446.715	79.993	19.996	103.068	20.178	2.856	0.512
740.000	446.996	79.992	19.996	103.068	20.177	2.966	0.528
740.500	447.200	79.993	19.994	103.069	20.177	2.944	0.514
741.000	447.479	79.994	19.995	103.069	20.178	2.902	0.484
741.500	447.787	79.993	19.995	103.068	20.181	2.625	0.535
742.000	448.018	79.996	19.994	103.067	20.177	2.944	0.563
742.500	448.315	79.993	19.996	103.067	20.178	2.852	0.533
743.000	448.545	79.994	19.994	103.067	20.181	2.677	0.527
743.500	448.857	79.995	19.996	103.067	20.180	2.724	0.534
744.000	449.146	79.994	19.995	103.067	20.179	2.828	0.571
744.501	449.407	79.994	19.996	103.067	20.179	2.780	0.576
745.000	449.630	79.995	19.995	103.067	20.177	2.952	0.518
745.500	449.928	79.995	19.994	103.070	20.177	2.966	0.503
746.000	450.204	79.995	19.995	103.071	20.177	2.974	0.547
746.500	450.453	79.996	19.993	103.071	20.177	2.912	0.550
747.000	450.716	79.996	19.996	103.071	20.176	3.016	0.519
747.500	451.022	79.996	19.996	103.069	20.179	2.802	0.541
748.000	451.252	79.995	19.995	103.064	20.179	2.764	0.552
748.500	451.519	79.994	19.993	103.061	20.179	2.822	0.516
749.000	451.801	79.996	19.995	103.060	20.177	2.930	0.523
749.500	452.038	79.994	19.995	103.057	20.178	2.888	0.534
750.000	452.345	79.996	19.994	103.058	20.179	2.786	0.531
750.500	452.582	79.995	19.995	103.057	20.178	2.860	0.544
751.000	452.846	79.996	19.994	103.057	20.178	2.854	0.522
751.500	453.153	79.996	19.994	103.058	20.178	2.872	0.536
752.000	453.368	79.997	19.995	103.060	20.176	2.994	0.547
752.500	453.648	79.996	19.994	103.061	20.175	3.087	0.509
753.000	453.910	79.995	19.994	103.062	20.178	2.868	0.518
753.500	454.151	79.996	19.994	103.063	20.179	2.772	0.522
754.000	454.434	79.994	19.995	103.062	20.176	2.988	0.514
754.500	454.728	79.994	19.995	103.061	20.179	2.768	0.551
755.000	454.986	79.996	19.994	103.062	20.178	2.836	0.564
755.500	455.240	79.995	19.996	103.062	20.181	2.683	0.532
756.000	455.535	79.993	19.996	103.062	20.181	2.667	0.530
756.500	455.795	79.995	19.996	103.062	20.178	2.854	0.552
757.000	456.055	79.993	19.994	103.063	20.179	2.786	0.537
757.500	456.302	79.992	19.995	103.063	20.179	2.778	0.514
758.000	456.570	79.992	19.996	103.063	20.179	2.772	0.511
758.500	456.857	79.994	19.993	103.065	20.179	2.764	0.535
759.000	457.099	79.991	19.994	103.065	20.180	2.738	0.542
759.500	457.310	79.991	19.996	103.065	20.180	2.722	0.491
760.000	457.617	79.993	19.996	103.065	20.180	2.704	0.486
760.500	457.885	79.993	19.995	103.064	20.181	2.639	0.546
761.000	458.173	79.992	19.995	103.063	20.183	2.525	0.566
761.500	458.399	79.993	19.995	103.063	20.182	2.593	0.535
762.000	458.690	79.993	19.995	103.061	20.183	2.507	0.515
762.500	458.967	79.992	19.995	103.060	20.180	2.725	0.543
763.000	459.233	79.993	19.995	103.061	20.179	2.818	0.556
763.500	459.499	79.994	19.995	103.061	20.179	2.768	0.538
764.000	459.764	79.993	19.995	103.061	20.181	2.653	0.531
764.500	460.035	79.993	19.996	103.062	20.186	2.307	0.533
765.000	460.264	79.992	19.997	103.063	20.184	2.467	0.518
765.500	460.528	79.994	19.996	103.063	20.187	2.246	0.496
766.000	460.818	79.992	19.995	103.063	20.184	2.467	0.523
766.500	461.043	79.991	19.995	103.064	20.185	2.357	0.534
767.000	461.331	79.993	19.997	103.064	20.185	2.397	0.514
767.500	461.602	79.991	19.996	103.065	20.186	2.323	0.536
768.001	461.855	79.993	19.996	103.062	20.186	2.319	0.541
768.500	462.098	79.994	19.995	103.060	20.184	2.405	0.510
769.000	462.411	79.992	19.996	103.059	20.184	2.457	0.526
769.500	462.675	79.993	19.995	103.059	20.185	2.375	0.567
770.000	462.926	79.994	19.995	103.058	20.182	2.557	0.546
770.501	463.184	79.993	19.996	103.060	20.184	2.449	0.512
771.000	463.436	79.994	19.996	103.063	20.182	2.549	0.509
771.500	463.706	79.992	19.996	103.063	20.183	2.511	0.516
772.001	463.931	79.992	19.995	103.064	20.184	2.403	0.509
772.500	464.208	79.993	19.998	103.066	20.186	2.327	0.499
773.000	464.499	79.993	19.995	103.068	20.181	2.644	0.535
773.500	464.715	79.993	19.997	103.070	20.183	2.501	0.537
774.000	465.022	79.992	19.996	103.068	20.186	2.317	0.515
774.500	465.274	79.993	19.994	103.066	20.183	2.509	0.541
775.000	465.531	79.993	19.996	103.064	20.182	2.571	0.534
775.500	465.816	79.993	19.996	103.058	20.183	2.511	0.525
776.000	466.053	79.991	19.996	103.056	20.185	2.369	0.532
776.500	466.300	79.994	19.997	103.055	20.184	2.409	0.503
777.000	466.579	79.994	19.996	103.056	20.186	2.298	0.505
777.500	466.838	79.993	19.996	103.055	20.186	2.326	0.532
778.000	467.132	79.993	19.996	103.059	20.184	2.401	0.546
778.500	467.394	79.994	19.995	103.058	20.184	2.413	0.554
779.000	467.672	79.993	19.995	103.059	20.185	2.367	0.548
779.500	467.917	79.992	19.995	103.056	20.184	2.419	0.532
780.000	468.203	79.993	19.995	103.055	20.186	2.311	0.527
780.500	468.470	79.992	19.996	103.050	20.187	2.220	0.542
781.000	468.722	79.993	19.995	103.051	20.187	2.212	0.536
781.500	468.995	79.992	19.996	103.055	20.189	2.106	0.522
782.000	469.242	79.993	19.996	103.059	20.188	2.170	0.522
782.500	469.483	79.994	19.993	103.061	20.186	2.309	0.504
783.000	469.759	79.993	19.995	103.061	20.187	2.200	0.503
783.500	470.001	79.993	19.995	103.059	20.186	2.294	0.518
784.000	470.267	79.994	19.996	103.057	20.188	2.152	0.513
784.500	470.505	79.992	19.996	103.056	20.183	2.499	0.506
785.000	470.773	79.993	19.996	103.058	20.183	2.483	0.505
785.500	470.999	79.991	19.996	103.062	20.183	2.527	0.500
786.000	471.312	79.991	19.996	103.063	20.185	2.334	0.517
786.500	471.540	79.992	19.996	103.064	20.183	2.517	0.540
787.000	471.785	79.992	19.994	103.065	20.183	2.473	0.507
787.500	472.068	79.990	19.994	103.065	20.187	2.250	0.500
788.000	472.312	79.992	19.996	103.066	20.186	2.301	0.527
788.500	472.566	79.991	19.996	103.068	20.188	2.176	0.512
789.000	472.843	79.991	19.996	103.066	20.184	2.435	0.515
789.500	473.090	79.993	19.995	103.062	20.184	2.471	0.528
790.000	473.402	79.990	19.997	103.060	20.184	2.417	0.542
790.500	473.628	79.992	19.997	103.059	20.188	2.130	0.549
791.000	473.927	79.992	19.996	103.055	20.183	2.543	0.531
791.500	474.171	79.992	19.996	103.055	20.186	2.268	0.534
792.000	474.454	79.991	19.997	103.055	20.183	2.483	0.535
792.500	474.693	79.992	19.996	103.056	20.185	2.395	0.525
793.000	474.946	79.992	19.996	103.056	20.184	2.437	0.507
793.500	475.198	79.992	19.996	103.058	20.182	2.559	0.498
794.000	475.438	79.991	19.995	103.059	20.180	2.704	0.498
794.500	475.739	79.991	19.996	103.063	20.182	2.615	0.517
795.000	475.963	79.992	19.996	103.062	20.182	2.585	0.533
795.500	476.200	79.991	19.996	103.062	20.186	2.270	0.493
796.000	476.512	79.993	19.996	103.063	20.181	2.660	0.505
796.500	476.745	79.993	19.997	103.064	20.184	2.431	0.547
797.000	476.977	79.992	19.996	103.064	20.185	2.351	0.505
797.500	477.251	79.992	19.996	103.062	20.184	2.411	0.486
798.000	477.463	79.991	19.997	103.057	20.183	2.489	0.496
798.500	477.753	79.992	19.996	103.055	20.185	2.337	0.495
799.000	477.952	79.991	19.997	103.054	20.183	2.541	0.496
799.500	478.241	79.992	19.996	103.052	20.182	2.585	0.488
800.000	478.484	79.992	19.996	103.053	20.185	2.379	0.510
800.501	478.741	79.993	19.996	103.057	20.187	2.230	0.516
801.000	479.017	79.994	19.997	103.058	20.186	2.285	0.516
801.500	479.256	79.993	19.996	103.060	20.184	2.437	0.524
802.000	479.514	79.994	19.996	103.062	20.185	2.331	0.506
802.500	479.777	79.992	19.996	103.061	20.186	2.307	0.509
803.000	479.996	79.993	19.996	103.059	20.187	2.196	0.501
803.500	480.218	79.994	19.996	103.054	20.188	2.154	0.461
804.000	480.487	79.994	19.997	103.052	20.190	2.026	0.466
804.500	480.743	79.995	19.997	103.052	20.189	2.072	0.509
805.000	480.986	79.993	19.995	103.055	20.189	2.068	0.512
805.500	481.219	79.993	19.996	103.059	20.189	2.102	0.487
806.000	481.466	79.993	19.995	103.062	20.188	2.174	0.478
806.500	481.748	79.993	19.994	103.061	20.186	2.267	0.504
807.000	481.958	79.994	19.995	103.057	20.189	2.098	0.511
807.500	482.234	79.994	19.994	103.057	20.186	2.260	0.489
808.000	482.471	79.994	19.995	103.056	20.188	2.180	0.499
808.500	482.699	79.995	19.995	103.055	20.191	1.927	0.489
809.000	482.951	79.993	19.994	103.054	20.186	2.256	0.473
809.500	483.215	79.994	19.995	103.059	20.188	2.124	0.498
810.000	483.444	79.993	19.995	103.060	20.187	2.192	0.504
810.500	483.693	79.995	19.995	103.060	20.190	1.994	0.486
811.000	483.950	79.994	19.996	103.057	20.188	2.152	0.492
811.500	484.190	79.995	19.996	103.053	20.188	2.170	0.501
812.000	484.427	79.994	19.995	103.051	20.190	1.967	0.486
812.500	484.658	79.994	19.996	103.049	20.187	2.192	0.472
813.000	484.950	79.995	19.996	103.050	20.188	2.120	0.496
813.500	485.152	79.993	19.996	103.053	20.189	2.086	0.509
814.000	485.422	79.994	19.996	103.056	20.188	2.174	0.483
814.500	485.660	79.995	19.994	103.056	20.188	2.112	0.490
815.000	485.889	79.994	19.995	103.053	20.186	2.276	0.487
815.500	486.104	79.995	19.995	103.045	20.188	2.112	0.456
816.000	486.391	79.994	19.995	103.043	20.184	2.457	0.474
816.500	486.635	79.993	19.996	103.047	20.189	2.108	0.516
817.000	486.843	79.994	19.995	103.048	20.190	2.002	0.491
817.500	487.111	79.994	19.995	103.051	20.189	2.106	0.464
818.000	487.375	79.994	19.994	103.056	20.189	2.078	0.504
818.500	487.633	79.993	19.995	103.060	20.185	2.351	0.527
819.000	487.840	79.994	19.997	103.060	20.185	2.331	0.493
819.500	488.068	79.994	19.993	103.061	20.189	2.108	0.449
820.000	488.305	79.994	19.993	103.061	20.188	2.180	0.450
820.500	488.549	79.994	19.994	103.061	20.190	2.022	0.473
821.000	488.809	79.993	19.993	103.061	20.188	2.132	0.492
821.500	489.045	79.995	19.995	103.061	20.193	1.801	0.500
822.000	489.296	79.995	19.995	103.061	20.189	2.110	0.492
822.500	489.568	79.996	19.995	103.060	20.188	2.158	0.505
823.000	489.781	79.995	19.996	103.061	20.188	2.138	0.504
823.500	490.034	79.994	19.995	103.062	20.188	2.122	0.476
824.000	490.312	79.995	19.994	103.062	20.186	2.311	0.499
824.500	490.542	79.996	19.995	103.059	20.188	2.178	0.519
825.000	490.758	79.994	19.994	103.056	20.186	2.287	0.477
825.500	490.965	79.996	19.994	103.056	20.187	2.188	0.434
826.000	491.248	79.995	19.995	103.055	20.184	2.471	0.457
826.500	491.455	79.996	19.995	103.049	20.182	2.551	0.490
827.000	491.714	79.996	19.995	103.050	20.182	2.569	0.478
827.500	491.934	79.996	19.995	103.053	20.182	2.567	0.473
828.000	492.192	79.996	19.995	103.053	20.187	2.214	0.479
828.500	492.459	79.996	19.996	103.053	20.187	2.186	0.502
829.000	492.669	79.997	19.994	103.056	20.182	2.611	0.501
829.500	492.906	79.997	19.997	103.055	20.183	2.525	0.462
830.000	493.152	79.995	19.995	103.052	20.185	2.399	0.465
830.500	493.406	79.996	19.995	103.052	20.183	2.501	0.492
831.000	493.648	79.995	19.996	103.051	20.185	2.347	0.498
831.500	493.921	79.996	19.996	103.055	20.187	2.236	0.506
832.000	494.153	79.996	19.996	103.059	20.187	2.202	0.510
832.500	494.379	79.996	19.996	103.061	20.187	2.216	0.481
833.000	494.641	79.996	19.997	103.059	20.187	2.200	0.473
833.500	494.837	79.995	19.995	103.057	20.186	2.317	0.473
834.000	495.119	79.996	19.994	103.057	20.186	2.266	0.468
834.500	495.362	79.996	19.995	103.055	20.187	2.194	0.501
835.000	495.590	79.996	19.996	103.056	20.187	2.240	0.498
835.500	495.829	79.996	19.995	103.057	20.188	2.140	0.469
836.000	496.092	79.995	19.996	103.055	20.186	2.260	0.485
836.500	496.307	79.995	19.995	103.053	20.187	2.250	0.490
837.000	496.548	79.995	19.997	103.048	20.186	2.262	0.467
837.500	496.819	79.996	19.995	103.047	20.184	2.459	0.484
838.000	497.033	79.993	19.996	103.049	20.188	2.132	0.498
838.500	497.255	79.994	19.996	103.053	20.190	2.014	0.461
839.000	497.496	79.992	19.994	103.055	20.189	2.084	0.450
839.500	497.760	79.992	19.995	103.061	20.188	2.156	0.484
840.000	497.999	79.992	19.995	103.063	20.187	2.254	0.504
840.500	498.194	79.994	19.995	103.063	20.188	2.120	0.468
841.000	498.476	79.994	19.994	103.059	20.189	2.058	0.455
841.500	498.726	79.993	19.995	103.060	20.184	2.437	0.505
842.000	498.940	79.993	19.995	103.060	20.188	2.136	0.498
842.500	499.188	79.995	19.997	103.057	20.185	2.330	0.463
843.000	499.425	79.993	19.998	103.056	20.189	2.104	0.473
843.500	499.712	79.994	19.995	103.059	20.189	2.054	0.504
844.000	499.917	79.995	19.994	103.058	20.188	2.150	0.508
844.500	500.143	79.993	19.994	103.059	20.190	1.971	0.462
845.000	500.380	79.994	19.994	103.062	20.188	2.144	0.448
845.500	500.678	79.994	19.994	103.063	20.186	2.270	0.499
846.000	500.930	79.994	19.995	103.065	20.188	2.152	0.542
846.500	501.172	79.994	19.994	103.066	20.186	2.262	0.521
847.000	501.448	79.992	19.996	103.066	20.188	2.164	0.506
847.500	501.646	79.993	19.996	103.065	20.188	2.170	0.496
848.000	501.908	79.993	19.996	103.064	20.185	2.335	0.467
848.500	502.161	79.993	19.996	103.064	20.188	2.176	0.488
849.000	502.413	79.993	19.996	103.064	20.186	2.293	0.510
849.500	502.673	79.993	19.996	103.064	20.187	2.206	0.508
850.000	502.882	79.994	19.996	103.067	20.186	2.262	0.490
850.500	503.158	79.993	19.996	103.069	20.183	2.477	0.477
851.000	503.397	79.991	19.994	103.069	20.187	2.218	0.500
851.500	503.651	79.994	19.995	103.069	20.187	2.214	0.504
852.000	503.898	79.994	19.996	103.069	20.185	2.377	0.497
852.500	504.136	79.993	19.995	103.068	20.186	2.272	0.493
853.000	504.372	79.993	19.995	103.066	20.188	2.180	0.480
853.500	504.621	79.993	19.996	103.066	20.188	2.180	0.479
854.000	504.911	79.993	19.997	103.065	20.188	2.172	0.512
854.500	505.146	79.993	19.996	103.065	20.190	1.986	0.532
855.000	505.385	79.993	19.996	103.065	20.189	2.084	0.500
855.500	505.620	79.992	19.995	103.065	20.187	2.226	0.474
856.000	505.846	79.994	19.994	103.066	20.190	1.974	0.468
856.501	506.144	79.994	19.996	103.067	20.191	1.935	0.493
857.001	506.373	79.993	19.998	103.067	20.189	2.048	0.525
857.500	506.655	79.993	19.998	103.066	20.190	2.002	0.519
858.000	506.886	79.994	19.996	103.063	20.193	1.783	0.512
858.500	507.148	79.993	19.996	103.060	20.188	2.116	0.503
859.000	507.357	79.993	19.996	103.058	20.190	2.016	0.482
859.500	507.605	79.992	19.993	103.056	20.190	2.004	0.464
860.000	507.883	79.992	19.997	103.057	20.191	1.943	0.492
860.500	508.114	79.993	19.995	103.060	20.188	2.182	0.517
861.000	508.375	79.993	19.995	103.064	20.191	1.923	0.500
861.500	508.615	79.992	19.997	103.067	20.189	2.060	0.496
862.000	508.871	79.993	19.995	103.067	20.189	2.102	0.499
862.500	509.145	79.993	19.996	103.066	20.188	2.144	0.513
863.001	509.430	79.992	19.996	103.065	20.189	2.058	0.544
863.501	509.652	79.993	19.995	103.062	20.189	2.070	0.532
864.000	509.907	79.992	19.995	103.061	20.187	2.188	0.492
864.500	510.159	79.991	19.996	103.061	20.186	2.291	0.492
865.000	510.402	79.993	19.993	103.063	20.188	2.176	0.501
865.500	510.649	79.992	19.995	103.061	20.184	2.451	0.493
866.000	510.906	79.993	19.995	103.063	20.185	2.335	0.497
866.500	511.156	79.993	19.995	103.062	20.186	2.315	0.505
867.000	511.422	79.992	19.996	103.062	20.189	2.068	0.511
867.500	511.688	79.992	19.995	103.062	20.186	2.321	0.524
868.001	511.933	79.991	19.997	103.065	20.187	2.210	0.522
868.500	512.179	79.992	19.997	103.065	20.189	2.040	0.501
869.000	512.456	79.993	19.996	103.066	20.193	1.809	0.507
869.500	512.686	79.992	19.994	103.066	20.189	2.038	0.515
870.000	512.961	79.992	19.994	103.066	20.190	2.026	0.506
870.500	513.228	79.992	19.996	103.065	20.190	2.020	0.524
871.000	513.461	79.990	19.996	103.063	20.190	2.034	0.521
871.500	513.733	79.993	19.996	103.060	20.189	2.078	0.502
872.000	514.007	79.992	19.996	103.060	20.185	2.371	0.526
872.500	514.255	79.992	19.995	103.061	20.188	2.138	0.535
873.001	514.505	79.992	19.996	103.061	20.190	1.974	0.510
873.500	514.781	79.992	19.997	103.064	20.187	2.196	0.512
874.000	515.037	79.992	19.997	103.064	20.189	2.084	0.529
874.500	515.285	79.992	19.995	103.058	20.189	2.066	0.518
875.000	515.530	79.992	19.995	103.054	20.191	1.965	0.499
875.500	515.781	79.994	19.996	103.052	20.189	2.072	0.495
876.000	516.042	79.992	19.999	103.050	20.191	1.943	0.504
876.500	516.291	79.992	19.995	103.048	20.190	2.012	0.511
877.000	516.534	79.992	19.996	103.051	20.188	2.122	0.501
877.500	516.829	79.992	19.995	103.054	20.188	2.144	0.515
878.000	517.095	79.992	19.995	103.055	20.190	1.986	0.550
878.500	517.338	79.994	19.995	103.057	20.188	2.142	0.535
879.000	517.571	79.993	19.995	103.057	20.189	2.054	0.493
879.500	517.849	79.992	19.997	103.056	20.190	1.980	0.494
880.000	518.126	79.994	19.996	103.054	20.189	2.106	0.533
880.500	518.343	79.993	19.997	103.054	20.190	1.976	0.524
881.000	518.606	79.993	19.995	103.054	20.190	1.976	0.487
881.500	518.874	79.993	19.995	103.058	20.191	1.897	0.505
882.000	519.141	79.994	19.998	103.059	20.191	1.907	0.533
882.500	519.400	79.994	19.997	103.060	20.191	1.935	0.531
883.000	519.647	79.994	19.995	103.054	20.193	1.759	0.516
883.500	519.916	79.992	19.996	103.054	20.190	2.006	0.511
884.000	520.159	79.994	19.997	103.054	20.192	1.887	0.514
884.500	520.433	79.993	19.998	103.055	20.193	1.769	0.514
885.000	520.683	79.994	19.996	103.057	20.187	2.192	0.520
885.500	520.935	79.994	19.998	103.062	20.190	1.970	0.513
886.000	521.182	79.992	19.995	103.062	20.192	1.839	0.500
886.500	521.444	79.994	19.995	103.062	20.192	1.853	0.504
887.001	521.738	79.995	19.997	103.058	20.193	1.759	0.532
887.500	521.964	79.992	19.997	103.056	20.194	1.689	0.538
888.000	522.219	79.993	19.995	103.057	20.196	1.562	0.500
888.500	522.456	79.994	19.998	103.056	20.192	1.871	0.487
889.000	522.773	79.993	19.998	103.056	20.192	1.859	0.523
889.500	522.989	79.992	19.998	103.059	20.191	1.901	0.543
890.000	523.266	79.993	19.997	103.060	20.193	1.761	0.513
890.500	523.512	79.992	19.997	103.059	20.192	1.871	0.508
891.000	523.779	79.993	19.997	103.059	20.192	1.855	0.518
891.500	524.032	79.992	19.997	103.059	20.194	1.745	0.517
892.000	524.329	79.993	19.997	103.060	20.191	1.924	0.535
892.500	524.543	79.993	19.993	103.060	20.191	1.909	0.531
893.000	524.839	79.993	19.998	103.062	20.194	1.737	0.510
893.500	525.052	79.993	19.996	103.062	20.193	1.813	0.509
894.000	525.337	79.993	19.995	103.062	20.192	1.887	0.504
894.500	525.573	79.993	19.996	103.061	20.192	1.841	0.510
895.000	525.878	79.994	19.997	103.059	20.193	1.773	0.531
895.500	526.077	79.993	19.996	103.058	20.190	1.978	0.522
896.000	526.342	79.993	19.995	103.058	20.193	1.803	0.484
896.500	526.623	79.993	19.995	103.056	20.191	1.923	0.505
897.001	526.867	79.994	19.996	103.055	20.194	1.713	0.535
897.501	527.135	79.993	19.994	103.057	20.186	2.270	0.518
898.000	527.396	79.994	19.995	103.057	20.191	1.944	0.521
898.500	527.675	79.993	19.996	103.058	20.189	2.096	0.535
899.000	527.892	79.994	19.993	103.060	20.192	1.873	0.518
899.500	528.198	79.994	19.996	103.060	20.190	2.018	0.509
900.000	528.447	79.993	19.996	103.059	20.192	1.829	0.539
900.500	528.710	79.994	19.995	103.060	20.193	1.815	0.534
901.000	528.954	79.995	19.993	103.057	20.194	1.731	0.510
901.500	529.247	79.994	19.996	103.056	20.189	2.092	0.522
902.000	529.487	79.994	19.995	103.054	20.191	1.919	0.535
902.500	529.748	79.995	19.995	103.054	20.193	1.781	0.517
903.000	530.012	79.994	19.996	103.054	20.194	1.713	0.513
903.500	530.227	79.996	19.997	103.056	20.191	1.933	0.502
904.000	530.520	79.995	19.995	103.056	20.194	1.695	0.494
904.500	530.748	79.994	19.996	103.060	20.192	1.825	0.515
905.000	530.996	79.995	19.997	103.060	20.189	2.070	0.499
905.500	531.268	79.996	19.994	103.061	20.197	1.488	0.498
906.000	531.583	79.995	19.996	103.061	20.190	1.978	0.554
906.500	531.835	79.994	19.995	103.062	20.193	1.813	0.577
907.000	532.040	79.995	19.995	103.061	20.190	1.996	0.512
907.500	532.327	79.995	19.995	103.059	20.189	2.058	0.475
908.000	532.613	79.996	19.994	103.057	20.189	2.080	0.532
908.500	532.846	79.994	19.996	103.056	20.188	2.170	0.546
909.001	533.154	79.997	19.997	103.057	20.187	2.204	0.530
909.500	533.372	79.996	19.995	103.057	20.188	2.162	0.533
910.000	533.628	79.996	19.995	103.061	20.187	2.196	0.499
910.500	533.893	79.996	19.993	103.063	20.190	1.992	0.497
911.000	534.167	79.995	19.996	103.063	20.192	1.887	0.530
911.500	534.411	79.995	19.997	103.061	20.190	2.002	0.529
912.000	534.671	79.994	19.995	103.060	20.190	2.004	0.511
912.500	534.931	79.995	19.994	103.059	20.192	1.855	0.512
913.000	535.244	79.993	19.993	103.059	20.190	1.992	0.547
913.500	535.491	79.993	19.996	103.059	20.190	1.990	0.566
914.000	535.744	79.994	19.995	103.061	20.191	1.899	0.530
914.500	535.998	79.994	19.995	103.063	20.188	2.166	0.503
915.000	536.279	79.993	19.995	103.063	20.192	1.859	0.521
915.500	536.499	79.993	19.996	103.063	20.185	2.351	0.518
916.000	536.808	79.994	19.995	103.063	20.188	2.122	0.515
916.500	537.073	79.993	19.997	103.062	20.187	2.214	0.551
917.000	537.337	79.994	19.997	103.059	20.186	2.315	0.552
917.500	537.559	79.993	19.996	103.056	20.186	2.309	0.507
918.000	537.839	79.993	19.995	103.055	20.188	2.176	0.494
918.500	538.080	79.991	19.996	103.055	20.186	2.270	0.511
919.000	538.370	79.993	19.995	103.055	20.187	2.196	0.526
919.500	538.639	79.992	19.995	103.058	20.189	2.050	0.545
920.000	538.918	79.992	19.996	103.063	20.188	2.176	0.554
920.500	539.167	79.992	19.994	103.064	20.186	2.312	0.538
921.000	539.403	79.994	19.996	103.063	20.187	2.194	0.506
921.500	539.684	79.991	19.996	103.064	20.188	2.154	0.501
922.000	539.971	79.992	19.997	103.064	20.188	2.162	0.543
922.500	540.199	79.992	19.995	103.064	20.186	2.267	0.541
923.000	540.449	79.992	19.994	103.064	20.189	2.078	0.496
923.500	540.734	79.992	19.996	103.064	20.188	2.114	0.506
924.000	541.008	79.993	19.994	103.060	20.183	2.483	0.547
924.500	541.257	79.991	19.995	103.060	20.186	2.294	0.542
925.001	541.503	79.992	19.995	103.060	20.186	2.284	0.509
925.500	541.756	79.991	19.997	103.059	20.189	2.104	0.497
926.000	542.061	79.991	19.996	103.060	20.190	2.028	0.528
926.501	542.303	79.992	19.996	103.064	20.183	2.493	0.552
927.000	542.565	79.993	19.997	103.062	20.186	2.256	0.526
927.500	542.790	79.992	19.995	103.060	20.185	2.349	0.496
928.000	543.059	79.992	19.995	103.059	20.190	2.024	0.491
928.500	543.316	79.992	19.995	103.059	20.186	2.277	0.510
929.000	543.618	79.993	19.996	103.059	20.186	2.301	0.542
929.500	543.836	79.992	19.996	103.062	20.189	2.092	0.539
930.000	544.115	79.992	19.995	103.064	20.188	2.152	0.508
930.500	544.333	79.993	19.995	103.067	20.189	2.102	0.497
931.000	544.616	79.993	19.995	103.066	20.186	2.302	0.499
931.500	544.882	79.990	19.995	103.065	20.191	1.907	0.525
932.000	545.126	79.992	19.995	103.061	20.184	2.429	0.530
932.500	545.408	79.992	19.995	103.053	20.187	2.232	0.518
933.001	545.626	79.993	19.993	103.047	20.190	2.036	0.513
933.500	545.913	79.995	19.995	103.043	20.190	2.026	0.503
934.000	546.147	79.993	19.995	103.044	20.186	2.275	0.513
934.500	546.396	79.992	19.996	103.047	20.190	2.012	0.502
935.000	546.651	79.993	19.995	103.054	20.187	2.214	0.493
935.500	546.951	79.993	19.995	103.061	20.187	2.212	0.529
936.000	547.148	79.993	19.995	103.066	20.186	2.305	0.526
936.500	547.466	79.993	19.995	103.067	20.188	2.156	0.506
937.000	547.700	79.992	19.996	103.067	20.190	2.028	0.534
937.500	547.973	79.993	19.993	103.067	20.187	2.206	0.529
938.000	548.223	79.993	19.994	103.062	20.189	2.092	0.515
938.500	548.491	79.993	19.995	103.055	20.189	2.074	0.521
939.000	548.733	79.993	19.995	103.048	20.186	2.264	0.514
939.500	548.976	79.992	19.995	103.041	20.189	2.108	0.497
940.000	549.233	79.992	19.995	103.041	20.186	2.286	0.493
940.500	549.516	79.992	19.996	103.045	20.189	2.088	0.520
941.000	549.765	79.992	19.996	103.051	20.188	2.158	0.536
941.500	550.018	79.993	19.995	103.057	20.186	2.288	0.517
942.000	550.280	79.992	19.996	103.064	20.188	2.144	0.509
942.500	550.543	79.993	19.997	103.064	20.190	2.034	0.520
943.000	550.823	79.993	19.996	103.058	20.188	2.160	0.534
943.501	551.092	79.992	19.995	103.051	20.187	2.230	0.546
944.000	551.325	79.993	19.996	103.047	20.186	2.258	0.525
944.500	551.552	79.993	19.994	103.047	20.185	2.333	0.481
945.000	551.817	79.993	19.996	103.047	20.186	2.262	0.477
945.500	552.048	79.992	19.995	103.049	20.183	2.495	0.494
946.000	552.312	79.993	19.996	103.052	20.186	2.286	0.495
946.500	552.626	79.991	19.996	103.056	20.185	2.397	0.536
947.000	552.867	79.992	19.998	103.056	20.184	2.465	0.566
947.500	553.104	79.992	19.997	103.056	20.188	2.182	0.517
948.000	553.403	79.992	19.997	103.059	20.187	2.184	0.507
948.500	553.606	79.992	19.996	103.061	20.185	2.373	0.519
949.001	553.855	79.992	19.995	103.061	20.185	2.331	0.477
949.501	554.134	79.991	19.997	103.061	20.187	2.188	0.490
950.000	554.393	79.992	19.997	103.061	20.186	2.315	0.533
950.500	554.649	79.992	19.995	103.060	20.185	2.365	0.526
951.000	554.909	79.993	19.996	103.061	20.188	2.156	0.515
951.500	555.173	79.993	19.996	103.060	20.185	2.391	0.520
952.000	555.417	79.993	19.996	103.060	20.183	2.475	0.517
952.500	555.664	79.992	19.996	103.058	20.186	2.327	0.500
953.000	555.924	79.992	19.996	103.058	20.185	2.365	0.499
953.500	556.167	79.991	19.996	103.058	20.185	2.329	0.505
954.000	556.426	79.992	19.996	103.059	20.185	2.345	0.502
954.500	556.734	79.993	19.996	103.059	20.187	2.193	0.534
955.000	556.953	79.991	19.997	103.062	20.187	2.193	0.547
955.500	557.231	79.992	19.996	103.062	20.181	2.618	0.512
956.000	557.473	79.993	19.995	103.061	20.184	2.449	0.509
956.500	557.694	79.993	19.996	103.061	20.184	2.441	0.492
957.000	557.983	79.992	19.997	103.060	20.185	2.337	0.486
957.500	558.222	79.993	19.996	103.060	20.184	2.429	0.519
958.000	558.524	79.991	19.996	103.060	20.184	2.407	0.535
958.500	558.757	79.993	19.995	103.059	20.184	2.415	0.538
959.000	558.966	79.991	19.995	103.060	20.185	2.337	0.488
959.500	559.225	79.992	19.996	103.060	20.188	2.142	0.455
960.000	559.499	79.992	19.995	103.057	20.187	2.208	0.500
960.500	559.744	79.992	19.996	103.055	20.186	2.307	0.526
961.000	560.013	79.993	19.996	103.054	20.184	2.437	0.516
961.500	560.234	79.994	19.996	103.054	20.186	2.301	0.502
962.000	560.502	79.993	19.995	103.054	20.188	2.134	0.490
962.500	560.769	79.993	19.996	103.054	20.187	2.206	0.512
963.000	560.993	79.995	19.994	103.054	20.182	2.581	0.513
963.500	561.292	79.994	19.996	103.050	20.185	2.369	0.507
964.000	561.522	79.994	19.996	103.044	20.189	2.068	0.526
964.500	561.795	79.994	19.995	103.039	20.186	2.266	0.516
965.000	562.049	79.995	19.996	103.036	20.186	2.321	0.516
965.500	562.267	79.995	19.996	103.034	20.186	2.278	0.500
966.000	562.502	79.995	19.995	103.034	20.189	2.102	0.462
966.500	562.777	79.994	19.995	103.037	20.188	2.160	0.481
967.000	563.005	79.995	19.995	103.040	20.188	2.160	0.507
967.500	563.255	79.994	19.996	103.045	20.188	2.160	0.491
968.000	563.514	79.993	19.995	103.050	20.188	2.124	0.493
968.500	563.739	79.995	19.996	103.057	20.185	2.375	0.496
969.000	564.024	79.994	19.996	103.060	20.186	2.277	0.497
969.500	564.293	79.993	19.997	103.061	20.188	2.168	0.532
970.000	564.518	79.993	19.997	103.060	20.189	2.074	0.524
970.500	564.763	79.993	19.996	103.058	20.189	2.072	0.482
971.000	565.015	79.992	19.996	103.055	20.189	2.082	0.484
971.500	565.272	79.993	19.995	103.055	20.191	1.925	0.503
972.000	565.565	79.993	19.996	103.055	20.194	1.729	0.529
972.500	565.785	79.993	19.994	103.058	20.191	1.919	0.531
973.000	566.026	79.994	19.996	103.060	20.191	1.960	0.487
973.500	566.331	79.993	19.994	103.062	20.191	1.957	0.503
974.000	566.558	79.992	19.996	103.060	20.189	2.038	0.539
974.500	566.824	79.992	19.995	103.060	20.189	2.052	0.513
975.000	567.043	79.991	19.997	103.058	20.188	2.112	0.489
975.500	567.284	79.992	19.996	103.057	20.190	2.004	0.473
976.000	567.562	79.992	19.994	103.058	20.189	2.090	0.490
976.500	567.811	79.993	19.996	103.062	20.190	2.008	0.523
977.000	568.047	79.992	19.998	103.061	20.191	1.958	0.506
977.500	568.306	79.992	19.996	103.064	20.191	1.951	0.490
978.000	568.556	79.992	19.996	103.061	20.190	1.998	0.503
978.500	568.823	79.992	19.996	103.056	20.190	1.994	0.513
979.000	569.081	79.992	19.996	103.055	20.191	1.960	0.520
979.500	569.338	79.992	19.997	103.054	20.189	2.080	0.520
980.001	569.560	79.993	19.997	103.054	20.189	2.084	0.498
980.500	569.839	79.991	19.996	103.053	20.191	1.916	0.490
981.000	570.099	79.992	19.996	103.058	20.190	1.988	0.520
981.500	570.368	79.994	19.996	103.059	20.190	2.000	0.534
982.000	570.632	79.993	19.995	103.060	20.193	1.767	0.531
982.500	570.842	79.993	19.997	103.060	20.190	1.966	0.503
983.000	571.109	79.994	19.994	103.063	20.193	1.751	0.476
983.500	571.382	79.993	19.997	103.061	20.190	2.020	0.508
984.000	571.646	79.994	19.997	103.060	20.190	1.999	0.539
984.500	571.899	79.993	19.996	103.060	20.191	1.933	0.527
985.000	572.186	79.994	19.996	103.060	20.189	2.082	0.529
985.500	572.442	79.994	19.996	103.061	20.189	2.040	0.542
986.000	572.706	79.994	19.995	103.062	20.189	2.082	0.531
986.500	572.938	79.992	19.995	103.061	20.186	2.286	0.508
987.000	573.181	79.994	19.996	103.059	20.188	2.134	0.485
987.500	573.470	79.994	19.996	103.058	20.189	2.086	0.504
988.000	573.729	79.995	19.995	103.057	20.191	1.903	0.540
988.500	573.943	79.994	19.996	103.059	20.184	2.459	0.511
989.000	574.195	79.995	19.994	103.060	20.191	1.931	0.470
989.500	574.544	79.996	19.995	103.056	20.189	2.102	0.533
990.000	574.785	79.996	19.995	103.057	20.187	2.252	0.595
990.500	575.052	79.994	19.995	103.057	20.189	2.104	0.549
991.000	575.321	79.995	19.994	103.056	20.188	2.160	0.522
991.500	575.567	79.996	19.995	103.053	20.190	2.002	0.525
992.000	575.837	79.996	19.994	103.055	20.187	2.210	0.516
992.500	576.051	79.993	19.995	103.056	20.193	1.809	0.501
993.000	576.345	79.995	19.995	103.057	20.190	1.981	0.497
993.500	576.580	79.994	19.994	103.058	20.186	2.292	0.518
994.000	576.851	79.994	19.994	103.063	20.190	2.016	0.517
994.500	577.079	79.994	19.995	103.065	20.193	1.761	0.502
995.000	577.356	79.994	19.995	103.066	20.191	1.900	0.502
995.500	577.614	79.995	19.995	103.064	20.187	2.203	0.520
996.000	577.885	79.994	19.995	103.060	20.189	2.086	0.532
996.500	578.157	79.993	19.995	103.057	20.189	2.064	0.536
997.000	578.377	79.994	19.995	103.056	20.193	1.771	0.517
997.500	578.642	79.993	19.995	103.057	20.187	2.232	0.489
998.000	578.911	79.992	19.995	103.058	20.192	1.875	0.510
998.500	579.136	79.991	19.995	103.063	20.184	2.431	0.514
999.001	579.362	79.992	19.994	103.066	20.187	2.216	0.472
999.500	579.661	79.992	19.995	103.066	20.189	2.108	0.488
1000.000	579.895	79.993	19.995	103.065	20.188	2.146	0.529
1000.500	580.147	79.992	19.995	103.066	20.188	2.120	0.510
1001.000	580.402	79.993	19.995	103.063	20.190	2.030	0.497
1001.500	580.650	79.992	19.995	103.061	20.190	2.014	0.505
1002.000	580.914	79.992	19.995	103.058	20.186	2.276	0.507
1002.500	581.157	79.993	19.995	103.058	20.188	2.138	0.510
1003.000	581.441	79.993	19.995	103.060	20.186	2.313	0.518
1003.500	581.682	79.992	19.995	103.064	20.190	1.984	0.526
1004.000	581.925	79.994	19.995	103.066	20.189	2.038	0.504
1004.500	582.191	79.992	19.995	103.068	20.187	2.252	0.497
1005.000	582.455	79.993	19.995	103.064	20.189	2.046	0.520
1005.500	582.703	79.994	19.995	103.054	20.189	2.052	0.521
1006.000	582.984	79.993	19.996	103.044	20.189	2.088	0.521
1006.500	583.214	79.992	19.996	103.042	20.189	2.082	0.520
1007.000	583.483	79.993	19.995	103.041	20.191	1.956	0.505
1007.500	583.697	79.993	19.996	103.046	20.192	1.887	0.491
1008.000	583.971	79.993	19.996	103.053	20.194	1.697	0.486
1008.500	584.201	79.993	19.995	103.061	20.189	2.084	0.496
1009.000	584.487	79.992	19.996	103.063	20.191	1.907	0.510
1009.500	584.732	79.992	19.995	103.063	20.188	2.180	0.523
1010.000	585.005	79.993	19.995	103.063	20.187	2.198	0.525
1010.500	585.241	79.992	19.997	103.063	20.194	1.727	0.514
1011.000	585.495	79.993	19.996	103.062	20.189	2.072	0.499
1011.500	585.730	79.992	19.995	103.062	20.192	1.875	0.490
1012.000	585.958	79.991	19.995	103.062	20.190	2.034	0.476
1012.500	586.220	79.992	19.995	103.062	20.188	2.134	0.476
1013.000	586.484	79.993	19.997	103.058	20.191	1.913	0.508
1013.500	586.721	79.993	19.995	103.056	20.189	2.076	0.514
1014.000	586.978	79.994	19.995	103.056	20.188	2.140	0.498
1014.500	587.226	79.993	19.995	103.055	20.188	2.148	0.499
1015.000	587.497	79.993	19.996	103.055	20.189	2.056	0.512
1015.500	587.757	79.995	19.995	103.058	20.189	2.078	0.525
1016.000	588.017	79.993	19.996	103.058	20.193	1.773	0.525
1016.500	588.243	79.992	19.995	103.057	20.189	2.094	0.503
1017.000	588.486	79.993	19.996	103.057	20.190	2.016	0.478
1017.500	588.754	79.993	19.995	103.056	20.190	1.980	0.490
1018.000	588.984	79.992	19.995	103.057	20.188	2.176	0.504
1018.500	589.245	79.994	19.995	103.056	20.188	2.166	0.495
1019.000	589.490	79.993	19.996	103.057	20.188	2.124	0.498
1019.500	589.754	79.992	19.994	103.057	20.189	2.078	0.507
1020.000	589.982	79.993	19.995	103.057	20.188	2.122	0.501
1020.500	590.239	79.993	19.996	103.056	20.187	2.210	0.489
1021.000	590.499	79.992	19.997	103.059	20.188	2.136	0.501
1021.500	590.767	79.994	19.996	103.059	20.188	2.132	0.522
1022.000	591.013	79.992	19.995	103.059	20.190	1.989	0.521
1022.500	591.247	79.992	19.995	103.059	20.188	2.136	0.497
1023.000	591.473	79.993	19.995	103.060	20.188	2.158	0.470
1023.500	591.722	79.993	19.994	103.061	20.188	2.140	0.468
1024.001	592.012	79.993	19.996	103.062	20.189	2.098	0.507
1024.500	592.254	79.992	19.995	103.065	20.188	2.126	0.536
1025.000	592.466	79.994	19.996	103.065	20.189	2.052	0.493
1025.500	592.740	79.993	19.995	103.066	20.189	2.110	0.470
1026.000	593.027	79.992	19.995	103.065	20.188	2.152	0.523
1026.500	593.269	79.994	19.995	103.063	20.190	2.028	0.545
1027.000	593.536	79.994	19.996	103.058	20.188	2.118	0.520
1027.500	593.782	79.994	19.996	103.058	20.188	2.152	0.511
1028.000	594.001	79.993	19.997	103.058	20.189	2.080	0.489
1028.500	594.293	79.994	19.996	103.059	20.188	2.118	0.488
1029.000	594.526	79.992	19.995	103.055	20.188	2.144	0.518
1029.501	594.789	79.992	19.996	103.056	20.192	1.881	0.510
1030.000	595.034	79.993	19.997	103.056	20.191	1.947	0.503
1030.500	595.295	79.993	19.996	103.056	20.194	1.745	0.507
1031.000	595.579	79.993	19.997	103.056	20.192	1.857	0.525
1031.500	595.762	79.992	19.997	103.061	20.190	1.967	0.506
1032.000	596.025	79.993	19.995	103.064	20.190	2.036	0.457
1032.500	596.296	79.993	19.996	103.064	20.191	1.947	0.490
1033.000	596.547	79.993	19.996	103.064	20.190	1.975	0.528
1033.501	596.793	79.992	19.997	103.065	20.187	2.190	0.510
1034.001	597.081	79.993	19.997	103.065	20.189	2.080	0.516
1034.500	597.303	79.992	19.996	103.064	20.191	1.943	0.522
1035.000	597.588	79.991	19.995	103.059	20.188	2.118	0.509
1035.501	597.823	79.993	19.997	103.054	20.189	2.052	0.513
1036.000	598.058	79.993	19.995	103.054	20.188	2.178	0.495
1036.500	598.296	79.993	19.993	103.054	20.189	2.078	0.472
1037.000	598.575	79.993	19.995	103.054	20.189	2.088	0.495
1037.500	598.801	79.992	19.997	103.060	20.190	2.022	0.511
1038.000	599.040	79.994	19.996	103.064	20.188	2.132	0.485
1038.500	599.324	79.994	19.996	103.064	20.189	2.106	0.494
1039.000	599.600	79.994	19.996	103.063	20.188	2.122	0.541
1039.500	599.823	79.993	19.997	103.060	20.189	2.042	0.530
1040.000	600.091	79.993	19.995	103.059	20.189	2.092	0.495
1040.500	600.348	79.993	19.997	103.060	20.190	2.020	0.508
1041.000	600.607	79.992	19.997	103.060	20.189	2.108	0.520
1041.500	600.849	79.993	19.995	103.061	20.186	2.268	0.508
1042.000	601.120	79.993	19.997	103.065	20.188	2.118	0.507
1042.500	601.380	79.993	19.995	103.066	20.189	2.098	0.522
1043.000	601.608	79.993	19.999	103.066	20.190	2.036	0.510
1043.500	601.906	79.994	19.997	103.066	20.187	2.248	0.507
1044.000	602.143	79.994	19.995	103.066	20.187	2.184	0.530
1044.500	602.412	79.993	19.996	103.066	20.186	2.270	0.520
1045.000	602.662	79.995	19.996	103.066	20.187	2.198	0.513
1045.500	602.873	79.993	19.997	103.063	20.188	2.132	0.490
1046.000	603.168	79.993	19.995	103.059	20.183	2.489	0.483
1046.500	603.423	79.994	19.997	103.059	20.187	2.246	0.528
1047.000	603.696	79.993	19.995	103.059	20.184	2.467	0.539
1047.500	603.941	79.994	19.997	103.059	20.186	2.312	0.523
1048.000	604.151	79.995	19.995	103.061	20.187	2.228	0.487
1048.500	604.442	79.994	19.996	103.063	20.187	2.238	0.478
1049.000	604.695	79.993	19.994	103.062	20.186	2.304	0.522
1049.500	604.949	79.993	19.995	103.059	20.190	2.007	0.525
1050.000	605.229	79.994	19.995	103.060	20.186	2.312	0.521
1050.500	605.464	79.993	19.995	103.060	20.190	1.995	0.525
1051.000	605.694	79.993	19.996	103.061	20.189	2.094	0.490
1051.500	605.983	79.992	19.994	103.063	20.188	2.168	0.492
1052.000	606.260	79.994	19.996	103.065	20.186	2.284	0.542
1052.500	606.486	79.993	19.994	103.065	20.191	1.941	0.535
1053.000	606.745	79.994	19.995	103.065	20.190	1.993	0.494
1053.500	606.993	79.995	19.994	103.065	20.186	2.274	0.496
1054.000	607.260	79.993	19.996	103.065	20.192	1.889	0.511
1054.500	607.509	79.993	19.995	103.065	20.193	1.791	0.515
1055.000	607.728	79.993	19.996	103.065	20.189	2.104	0.492
1055.500	608.028	79.993	19.994	103.063	20.189	2.106	0.493
1056.000	608.269	79.992	19.996	103.063	20.189	2.076	0.530
1056.500	608.518	79.991	19.996	103.063	20.190	2.036	0.516
1057.000	608.786	79.992	19.996	103.062	20.186	2.262	0.503
1057.500	609.023	79.993	19.995	103.062	20.189	2.044	0.511
1058.000	609.304	79.992	19.996	103.064	20.191	1.931	0.512
1058.500	609.549	79.993	19.995	103.065	20.188	2.178	0.522
1059.000	609.794	79.993	19.995	103.065	20.186	2.264	0.508
1059.500	610.045	79.992	19.995	103.067	20.189	2.098	0.493
1060.000	610.298	79.993	19.994	103.069	20.191	1.943	0.500
1060.500	610.572	79.993	19.994	103.069	20.190	2.004	0.515
1061.000	610.839	79.992	19.996	103.068	20.187	2.232	0.534
1061.500	611.073	79.992	19.996	103.068	20.192	1.861	0.521
1062.000	611.360	79.992	19.995	103.068	20.186	2.264	0.511
1062.500	611.623	79.992	19.997	103.067	20.191	1.958	0.535
1063.000	611.898	79.993	19.994	103.067	20.188	2.144	0.544
1063.500	612.133	79.992	19.996	103.067	20.191	1.893	0.524
1064.001	612.417	79.994	19.998	103.067	20.191	1.937	0.515
1064.501	612.631	79.992	19.997	103.066	20.189	2.088	0.508
1065.001	612.927	79.993	19.996	103.066	20.190	2.028	0.504
1065.500	613.168	79.992	19.996	103.066	20.187	2.184	0.524
1066.000	613.424	79.994	19.995	103.066	20.188	2.174	0.517
1066.500	613.752	79.995	19.996	103.067	20.189	2.040	0.540
1067.000	614.022	79.993	19.996	103.066	20.187	2.220	0.591
1067.500	614.254	79.994	19.996	103.066	20.187	2.232	0.550
1068.000	614.539	79.995	19.996	103.064	20.186	2.316	0.510
1068.500	614.822	79.994	19.997	103.067	20.189	2.068	0.543
1069.000	615.039	79.993	19.996	103.072	20.188	2.120	0.534
1069.500	615.342	79.994	19.996	103.073	20.188	2.124	0.510
1070.000	615.561	79.994	19.997	103.073	20.189	2.060	0.521
1070.500	615.826	79.994	19.995	103.074	20.188	2.118	0.503
1071.000	616.113	79.996	19.995	103.070	20.190	1.969	0.518
1071.500	616.384	79.993	19.995	103.062	20.188	2.130	0.555
1072.000	616.652	79.994	19.997	103.058	20.189	2.098	0.549
1072.500	616.838	79.994	19.997	103.057	20.190	2.010	0.497
1073.000	617.126	79.993	19.997	103.057	20.186	2.316	0.464
1073.500	617.420	79.995	19.995	103.057	20.187	2.224	0.527
1074.000	617.657	79.994	19.994	103.058	20.189	2.102	0.556
1074.500	617.943	79.995	19.995	103.060	20.186	2.327	0.527
1075.000	618.157	79.994	19.996	103.060	20.186	2.275	0.512
1075.500	618.472	79.994	19.993	103.059	20.187	2.192	0.515
1076.000	618.650	79.993	19.995	103.059	20.183	2.521	0.511
1076.500	619.014	79.992	19.997	103.059	20.185	2.391	0.517
1077.000	619.240	79.993	19.996	103.060	20.185	2.393	0.566
1077.500	619.476	79.992	19.998	103.060	20.183	2.495	0.526
1078.000	619.772	79.992	19.995	103.061	20.186	2.306	0.497
1078.501	620.003	79.993	19.995	103.061	20.182	2.585	0.529
1079.000	620.265	79.992	19.995	103.062	20.184	2.465	0.510
1079.500	620.517	79.992	19.995	103.062	20.186	2.312	0.504
1080.000	620.774	79.992	19.996	103.062	20.186	2.284	0.512
1080.500	621.021	79.993	19.995	103.063	20.183	2.511	0.507
1081.000	621.274	79.990	19.995	103.063	20.183	2.539	0.502
1081.500	621.524	79.993	19.996	103.063	20.185	2.335	0.501
1082.000	621.796	79.992	19.992	103.063	20.187	2.208	0.512
1082.500	622.070	79.992	19.993	103.063	20.188	2.134	0.534
1083.000	622.337	79.992	19.993	103.064	20.186	2.322	0.544
1083.500	622.541	79.991	19.995	103.064	20.184	2.447	0.506
1084.000	622.824	79.992	19.996	103.063	20.183	2.539	0.479
1084.500	623.065	79.994	19.996	103.063	20.185	2.369	0.505
1085.000	623.336	79.993	19.996	103.059	20.189	2.084	0.517
1085.500	623.608	79.992	19.995	103.055	20.186	2.314	0.527
1086.000	623.817	79.993	19.994	103.054	20.185	2.336	0.512
1086.500	624.117	79.992	19.994	103.054	20.184	2.459	0.495
1087.000	624.380	79.992	19.996	103.056	20.185	2.397	0.536
1087.500	624.591	79.992	19.996	103.060	20.185	2.391	0.518
1088.000	624.873	79.992	19.995	103.063	20.184	2.439	0.484
1088.500	625.122	79.991	19.995	103.065	20.182	2.583	0.512
1089.000	625.370	79.992	19.995	103.068	20.184	2.437	0.514
1089.500	625.664	79.993	19.997	103.068	20.184	2.407	0.519
1090.000	625.883	79.992	19.995	103.068	20.184	2.423	0.528
1090.500	626.120	79.992	19.994	103.067	20.182	2.549	0.485
1091.000	626.394	79.993	19.996	103.067	20.183	2.477	0.483
1091.500	626.644	79.992	19.996	103.064	20.182	2.571	0.517
1092.000	626.935	79.991	19.995	103.062	20.182	2.563	0.532
1092.500	627.177	79.992	19.996	103.062	20.181	2.667	0.537
1093.000	627.392	79.992	19.995	103.062	20.185	2.385	0.495
1093.500	627.672	79.993	19.995	103.062	20.179	2.812	0.476
1094.000	627.915	79.993	19.995	103.064	20.179	2.798	0.509
1094.500	628.160	79.993	19.995	103.065	20.179	2.784	0.505
1095.000	628.414	79.991	19.994	103.065	20.182	2.589	0.493
1095.500	628.684	79.991	19.996	103.065	20.183	2.511	0.512
1096.000	628.957	79.993	19.995	103.065	20.182	2.617	0.533
1096.500	629.187	79.992	19.995	103.064	20.183	2.521	0.523
1097.000	629.458	79.992	19.996	103.064	20.181	2.623	0.502
1097.500	629.691	79.992	19.994	103.067	20.180	2.738	0.502
1098.000	629.934	79.993	19.996	103.068	20.185	2.360	0.490
1098.500	630.199	79.993	19.996	103.067	20.180	2.738	0.492
1099.000	630.503	79.992	19.994	103.067	20.181	2.691	0.539
1099.500	630.720	79.992	19.995	103.067	20.181	2.621	0.545
1100.000	630.986	79.993	19.995	103.063	20.182	2.573	0.502
1100.500	631.221	79.992	19.996	103.061	20.183	2.541	0.492
1101.000	631.504	79.991	19.995	103.062	20.180	2.724	0.510
1101.500	631.760	79.992	19.995	103.062	20.181	2.663	0.528
1102.000	632.010	79.992	19.994	103.062	20.181	2.647	0.522
1102.500	632.254	79.992	19.994	103.062	20.182	2.603	0.500
1103.000	632.497	79.991	19.995	103.064	20.182	2.565	0.491
1103.500	632.766	79.992	19.994	103.064	20.178	2.878	0.499
1104.000	633.024	79.992	19.996	103.064	20.184	2.465	0.519
1104.500	633.258	79.993	19.995	103.064	20.181	2.669	0.510
1105.000	633.545	79.992	19.995	103.064	20.181	2.689	0.507
1105.500	633.773	79.991	19.995	103.066	20.178	2.846	0.518
1106.000	634.053	79.991	19.994	103.066	20.182	2.607	0.511
1106.500	634.302	79.993	19.995	103.067	20.179	2.804	0.519
1107.000	634.567	79.992	19.994	103.067	20.179	2.778	0.522
1107.500	634.808	79.992	19.995	103.067	20.183	2.543	0.510
1108.000	635.083	79.991	19.995	103.066	20.179	2.776	0.511
1108.500	635.316	79.992	19.996	103.066	20.178	2.876	0.512
1109.000	635.622	79.991	19.995	103.067	20.181	2.665	0.524
1109.500	635.841	79.991	19.995	103.067	20.178	2.882	0.532
1110.000	636.092	79.991	19.997	103.066	20.180	2.741	0.497
1110.500	636.355	79.992	19.993	103.066	20.178	2.874	0.492
1111.000	636.610	79.991	19.997	103.065	20.183	2.543	0.516
1111.500	636.861	79.990	19.995	103.061	20.178	2.874	0.512
1112.000	637.145	79.992	19.993	103.061	20.181	2.645	0.520
1112.500	637.334	79.992	19.995	103.061	20.181	2.691	0.504
1113.000	637.619	79.992	19.994	103.061	20.181	2.651	0.474
1113.500	637.856	79.992	19.993	103.062	20.182	2.579	0.498
1114.000	638.068	79.993	19.993	103.066	20.180	2.719	0.485
1114.500	638.342	79.992	19.996	103.065	20.184	2.409	0.468
1115.000	638.607	79.993	19.995	103.065	20.184	2.431	0.513
1115.500	638.856	79.991	19.995	103.065	20.185	2.346	0.526
1116.000	639.112	79.990	19.993	103.064	20.179	2.780	0.510
1116.500	639.342	79.992	19.995	103.065	20.181	2.685	0.496
1117.000	639.605	79.992	19.995	103.066	20.181	2.649	0.489
1117.500	639.842	79.991	19.995	103.068	20.181	2.631	0.497
1118.000	640.165	79.993	19.996	103.069	20.184	2.413	0.530
1118.500	640.372	79.993	19.995	103.069	20.182	2.603	0.545
1119.000	640.587	79.993	19.995	103.070	20.183	2.487	0.476
1119.500	640.836	79.992	19.996	103.069	20.182	2.581	0.443
1120.000	641.113	79.994	19.993	103.069	20.181	2.635	0.495
1120.500	641.340	79.992	19.995	103.068	20.182	2.557	0.516
1121.000	641.608	79.993	19.994	103.068	20.182	2.571	0.500
1121.500	641.847	79.993	19.992	103.067	20.179	2.798	0.501
1122.000	642.080	79.994	19.995	103.068	20.178	2.874	0.489
1122.500	642.353	79.992	19.994	103.068	20.179	2.790	0.489
1123.000	642.579	79.994	19.996	103.069	20.178	2.888	0.502
1123.500	642.845	79.993	19.996	103.070	20.179	2.820	0.496
1124.000	643.090	79.993	19.997	103.072	20.182	2.573	0.502
1124.500	643.340	79.994	19.994	103.072	20.179	2.834	0.503
1125.000	643.578	79.994	19.993	103.071	20.174	3.141	0.492
1125.500	643.810	79.994	19.994	103.070	20.178	2.842	0.479
1126.000	644.077	79.993	19.995	103.070	20.177	2.930	0.485
1126.500	644.318	79.994	19.997	103.069	20.179	2.792	0.503
1127.000	644.570	79.994	19.995	103.069	20.179	2.770	0.500
1127.500	644.844	79.993	19.997	103.069	20.179	2.808	0.510
1128.000	645.112	79.995	19.994	103.069	20.176	3.010	0.534
1128.500	645.373	79.994	19.995	103.068	20.179	2.806	0.535
1129.000	645.619	79.992	19.997	103.067	20.179	2.818	0.518
1129.500	645.856	79.992	19.995	103.066	20.176	3.004	0.495
1130.000	646.121	79.994	19.996	103.065	20.178	2.838	0.493
1130.500	646.349	79.993	19.995	103.064	20.178	2.884	0.498
1131.000	646.596	79.992	19.995	103.063	20.180	2.747	0.484
1131.500	646.818	79.992	19.996	103.064	20.179	2.832	0.472
1132.000	647.092	79.993	19.995	103.069	20.176	3.052	0.483
1132.500	647.315	79.992	19.996	103.069	20.178	2.844	0.497
1133.000	647.596	79.992	19.995	103.070	20.178	2.884	0.501
1133.500	647.859	79.992	19.995	103.070	20.179	2.810	0.524
1134.000	648.064	79.992	19.996	103.066	20.179	2.815	0.506
1134.500	648.293	79.994	19.995	103.061	20.177	2.922	0.451
1135.000	648.604	79.992	19.996	103.063	20.178	2.898	0.487
1135.500	648.849	79.992	19.995	103.067	20.175	3.056	0.548
1136.000	649.050	79.994	19.995	103.069	20.173	3.247	0.501
1136.500	649.326	79.993	19.995	103.071	20.178	2.894	0.461
1137.000	649.573	79.994	19.996	103.071	20.178	2.890	0.500
1137.500	649.839	79.992	19.997	103.068	20.178	2.848	0.518
1138.000	650.087	79.994	19.996	103.065	20.179	2.808	0.514
1138.500	650.339	79.992	19.995	103.063	20.178	2.850	0.507
1139.000	650.573	79.994	19.996	103.062	20.179	2.828	0.493
1139.500	650.835	79.993	19.997	103.062	20.179	2.822	0.491
1140.000	651.105	79.994	19.996	103.069	20.178	2.876	0.514
1140.500	651.361	79.992	19.995	103.073	20.178	2.840	0.529
1141.000	651.585	79.994	19.995	103.076	20.180	2.721	0.503
1141.500	651.827	79.995	19.995	103.076	20.176	3.016	0.473
1142.000	652.152	79.993	19.995	103.076	20.179	2.776	0.516
1142.500	652.364	79.994	19.995	103.070	20.176	3.048	0.552
1143.000	652.661	79.993	19.995	103.065	20.177	2.912	0.523
1143.500	652.819	79.993	19.996	103.064	20.178	2.860	0.482
1144.000	653.214	79.994	19.994	103.067	20.178	2.884	0.504
1144.500	653.369	79.994	19.995	103.073	20.177	2.942	0.551
1145.000	653.645	79.993	19.994	103.078	20.178	2.854	0.491
1145.500	653.912	79.995	19.995	103.078	20.177	2.940	0.487
1146.000	654.196	79.995	19.995	103.076	20.181	2.669	0.547
1146.500	654.423	79.994	19.994	103.075	20.178	2.866	0.531
1147.000	654.735	79.994	19.995	103.068	20.181	2.643	0.525
1147.500	654.984	79.994	19.995	103.065	20.180	2.711	0.550
1148.000	655.249	79.994	19.995	103.072	20.175	3.068	0.537
1148.500	655.482	79.994	19.994	103.072	20.177	2.980	0.506
1149.000	655.716	79.996	19.994	103.071	20.178	2.870	0.483
1149.500	656.002	79.995	19.996	103.071	20.175	3.085	0.494
1150.000	656.284	79.997	19.996	103.068	20.173	3.227	0.544
1150.500	656.498	79.995	19.995	103.059	20.175	3.064	0.532
1151.000	656.823	79.996	19.995	103.058	20.175	3.076	0.518
1151.500	657.050	79.994	19.996	103.060	20.175	3.058	0.545
1152.000	657.299	79.995	19.996	103.065	20.176	2.982	0.514
1152.500	657.598	79.994	19.995	103.066	20.176	3.052	0.512
1153.000	657.837	79.995	19.996	103.068	20.175	3.088	0.543
1153.500	658.121	79.995	19.998	103.071	20.174	3.188	0.530
1154.000	658.364	79.995	19.995	103.069	20.174	3.185	0.524
1154.500	658.628	79.994	19.996	103.065	20.174	3.132	0.517
1155.001	658.878	79.994	19.995	103.066	20.179	2.784	0.511
1155.501	659.141	79.993	19.997	103.065	20.177	2.958	0.513
1156.001	659.470	79.994	19.996	103.062	20.178	2.890	0.552
1156.500	659.707	79.994	19.997	103.063	20.175	3.064	0.579
1157.000	659.971	79.992	19.997	103.068	20.176	2.992	0.534
1157.500	660.223	79.993	19.995	103.073	20.177	2.958	0.509
1158.000	660.491	79.992	19.995	103.076	20.178	2.848	0.518
1158.500	660.785	79.992	19.998	103.076	20.178	2.878	0.541
1159.000	660.995	79.992	19.997	103.075	20.177	2.944	0.533
1159.500	661.308	79.992	19.997	103.070	20.177	2.960	0.513
1160.000	661.538	79.992	19.995	103.065	20.181	2.625	0.533
1160.500	661.813	79.993	19.996	103.063	20.178	2.906	0.524
1161.001	662.083	79.992	19.996	103.066	20.178	2.878	0.525
1161.501	662.355	79.991	19.997	103.071	20.178	2.878	0.544
1162.000	662.587	79.992	19.996	103.078	20.178	2.888	0.523
1162.500	662.871	79.991	19.997	103.082	20.180	2.703	0.510
1163.000	663.178	79.991	19.997	103.085	20.181	2.659	0.553
1163.500	663.380	79.991	19.997	103.088	20.180	2.693	0.550
1164.000	663.632	79.991	19.998	103.085	20.180	2.707	0.481
1164.500	663.887	79.991	19.997	103.078	20.178	2.884	0.480
1165.000	664.182	79.991	19.996	103.073	20.180	2.747	0.529
1165.500	664.446	79.992	19.997	103.069	20.180	2.723	0.554
1166.000	664.695	79.991	19.996	103.064	20.178	2.851	0.536
1166.500	664.979	79.992	19.996	103.063	20.181	2.631	0.523
1167.000	665.233	79.990	19.998	103.063	20.180	2.755	0.535
1167.500	665.492	79.992	19.995	103.064	20.178	2.839	0.525
1168.000	665.759	79.991	19.995	103.065	20.181	2.621	0.520
1168.500	666.036	79.991	19.996	103.065	20.177	2.917	0.535
1169.000	666.312	79.992	19.997	103.065	20.177	2.934	0.548
1169.500	666.591	79.992	19.996	103.065	20.179	2.799	0.554
1170.000	666.826	79.991	19.996	103.070	20.178	2.869	0.535
1170.500	667.103	79.993	19.996	103.069	20.182	2.603	0.513
1171.000	667.356	79.993	19.996	103.070	20.180	2.761	0.521
1171.500	667.650	79.992	19.996	103.073	20.180	2.699	0.539
1172.000	667.876	79.992	19.995	103.076	20.179	2.827	0.533
1172.500	668.137	79.992	19.995	103.072	20.178	2.889	0.504
1173.000	668.426	79.991	19.994	103.073	20.179	2.817	0.518
1173.500	668.670	79.993	19.996	103.074	20.179	2.769	0.541
1174.000	668.950	79.992	19.995	103.073	20.182	2.617	0.528
1174.500	669.220	79.991	19.996	103.070	20.180	2.729	0.537
1175.000	669.484	79.992	19.994	103.071	20.181	2.638	0.542
1175.500	669.718	79.991	19.996	103.072	20.179	2.771	0.515
1176.000	669.998	79.993	19.995	103.075	20.181	2.669	0.506
1176.500	670.273	79.992	19.996	103.081	20.176	2.997	0.535
1177.000	670.525	79.993	19.995	103.088	20.180	2.755	0.541
1177.500	670.791	79.993	19.993	103.091	20.179	2.799	0.522
1178.000	671.027	79.992	19.995	103.096	20.177	2.974	0.510
1178.500	671.301	79.993	19.995	103.097	20.182	2.595	0.506
1179.000	671.558	79.991	19.994	103.092	20.177	2.960	0.520
1179.500	671.872	79.993	19.997	103.085	20.179	2.822	0.551
1180.000	672.086	79.993	19.995	103.081	20.179	2.824	0.550
1180.500	672.345	79.992	19.996	103.082	20.179	2.783	0.500
1181.000	672.636	79.993	19.995	103.085	20.180	2.733	0.511
1181.500	672.876	79.992	19.995	103.088	20.175	3.100	0.540
1182.000	673.110	79.991	19.995	103.095	20.176	2.986	0.503
1182.500	673.396	79.992	19.995	103.096	20.179	2.825	0.497
1183.000	673.647	79.992	19.994	103.089	20.178	2.841	0.528
1183.500	673.890	79.990	19.994	103.082	20.179	2.821	0.515
1184.000	674.156	79.992	19.994	103.079	20.180	2.763	0.502
1184.500	674.463	79.992	19.995	103.078	20.178	2.870	0.541
1185.000	674.686	79.991	19.998	103.084	20.179	2.765	0.552
1185.500	674.991	79.993	19.995	103.090	20.180	2.727	0.529
1186.000	675.234	79.992	19.995	103.097	20.183	2.535	0.538
1186.500	675.491	79.993	19.997	103.100	20.177	2.950	0.524
1187.000	675.762	79.992	19.993	103.097	20.180	2.763	0.514
1187.500	676.040	79.992	19.994	103.093	20.178	2.870	0.539
1188.000	676.292	79.992	19.994	103.087	20.180	2.742	0.539
1188.500	676.520	79.993	19.993	103.079	20.180	2.751	0.505
1189.000	676.801	79.992	19.995	103.075	20.175	3.082	0.495
1189.500	677.086	79.992	19.995	103.074	20.179	2.834	0.538
1190.000	677.314	79.992	19.996	103.072	20.179	2.793	0.540
1190.500	677.569	79.992	19.996	103.070	20.178	2.900	0.498
1191.000	677.838	79.991	19.996	103.071	20.178	2.890	0.503
1191.500	678.070	79.993	19.996	103.072	20.180	2.699	0.512
1192.000	678.338	79.992	19.995	103.073	20.178	2.886	0.500
1192.500	678.610	79.992	19.996	103.076	20.178	2.846	0.520
1193.000	678.824	79.992	19.996	103.078	20.176	3.046	0.514
1193.501	679.079	79.992	19.995	103.078	20.177	2.968	0.478
1194.001	679.356	79.994	19.995	103.080	20.179	2.766	0.500
1194.501	679.597	79.993	19.996	103.077	20.179	2.814	0.524
1195.001	679.823	79.992	19.994	103.073	20.177	2.950	0.492
1195.501	680.073	79.993	19.995	103.071	20.177	2.960	0.472
1196.001	680.327	79.994	19.995	103.072	20.178	2.876	0.490
1196.501	680.588	79.993	19.995	103.071	20.176	2.982	0.509
1197.001	680.891	79.994	19.995	103.071	20.177	2.974	0.540
1197.501	681.109	79.993	19.996	103.071	20.177	2.918	0.543
1198.000	681.352	79.993	19.995	103.070	20.176	3.032	0.491
1198.500	681.574	79.996	19.994	103.067	20.177	2.918	0.463
1199.000	681.852	79.993	19.995	103.067	20.176	3.004	0.483
1199.500	682.132	79.994	19.996	103.068	20.178	2.896	0.529
1200.001	682.375	79.995	19.995	103.072	20.179	2.818	0.540
1200.500	682.637	79.995	19.995	103.073	20.176	2.996	0.514
1201.000	682.860	79.994	19.995	103.074	20.176	3.016	0.495
1201.500	683.132	79.995	19.995	103.072	20.175	3.116	0.490
1202.000	683.391	79.995	19.995	103.070	20.177	2.966	0.513
1202.500	683.596	79.994	19.994	103.065	20.177	2.924	0.498
1203.000	683.893	79.995	19.995	103.064	20.180	2.699	0.483
1203.500	684.094	79.995	19.994	103.063	20.182	2.591	0.500
1204.000	684.374	79.995	19.995	103.064	20.177	2.970	0.490
1204.500	684.583	79.996	19.993	103.064	20.180	2.721	0.485
1205.000	684.867	79.996	19.995	103.064	20.180	2.711	0.491
1205.501	685.099	79.995	19.995	103.063	20.178	2.892	0.505
1206.000	685.366	79.996	19.996	103.063	20.177	2.914	0.508
1206.500	685.571	79.995	19.994	103.064	20.181	2.661	0.486
1207.000	685.857	79.995	19.995	103.066	20.177	2.958	0.482
1207.500	686.088	79.996	19.994	103.068	20.175	3.074	0.504
1208.000	686.333	79.994	19.994	103.068	20.177	2.974	0.496
1208.500	686.608	79.994	19.995	103.069	20.178	2.904	0.498
1209.000	686.850	79.995	19.995	103.069	20.177	2.910	0.518
1209.500	687.092	79.995	19.995	103.068	20.176	3.004	0.501
1210.000	687.330	79.995	19.995	103.067	20.176	3.008	0.482
1210.500	687.562	79.993	19.995	103.068	20.178	2.866	0.475
1211.000	687.810	79.994	19.995	103.068	20.179	2.785	0.475
1211.500	688.062	79.995	19.994	103.068	20.179	2.807	0.490
1212.000	688.333	79.994	19.995	103.068	20.176	3.052	0.512
1212.500	688.553	79.994	19.996	103.071	20.176	3.028	0.507
1213.000	688.820	79.995	19.996	103.071	20.181	2.675	0.489
1213.500	689.062	79.995	19.995	103.071	20.175	3.110	0.498
1214.000	689.302	79.994	19.995	103.072	20.179	2.779	0.496
1214.500	689.592	79.995	19.996	103.074	20.177	2.946	0.506
1215.000	689.816	79.994	19.996	103.071	20.179	2.830	0.522
1215.500	690.037	79.994	19.995	103.073	20.176	3.002	0.479
1216.000	690.294	79.995	19.995	103.075	20.179	2.830	0.462
1216.500	690.554	79.995	19.997	103.075	20.176	2.996	0.498
1217.000	690.793	79.994	19.995	103.071	20.177	2.918	0.508
1217.500	691.069	79.994	19.997	103.075	20.179	2.814	0.507
1218.000	691.299	79.995	19.998	103.073	20.178	2.902	0.511
1218.500	691.560	79.994	19.995	103.069	20.176	3.000	0.499
1219.001	691.803	79.994	19.995	103.068	20.177	2.932	0.497
1219.500	692.049	79.994	19.993	103.068	20.180	2.722	0.496
1220.000	692.252	79.994	19.996	103.065	20.177	2.938	0.469
1220.500	692.526	79.995	19.997	103.070	20.176	3.024	0.463
1221.000	692.779	79.995	19.996	103.074	20.176	3.000	0.503
1221.500	693.025	79.994	19.996	103.077	20.180	2.762	0.513
1222.000	693.267	79.994	19.997	103.077	20.179	2.817	0.493
1222.500	693.517	79.995	19.996	103.075	20.181	2.681	0.490
1223.000	693.716	79.994	19.996	103.072	20.179	2.797	0.470
1223.500	694.011	79.995	19.996	103.075	20.179	2.831	0.472
1224.000	694.232	79.994	19.996	103.071	20.181	2.667	0.505
1224.500	694.498	79.994	19.996	103.071	20.180	2.759	0.501
1225.000	694.745	79.994	19.995	103.071	20.178	2.846	0.500
1225.500	695.000	79.995	19.994	103.068	20.179	2.830	0.508
1226.000	695.246	79.995	19.995	103.062	20.179	2.764	0.502
1226.500	695.459	79.994	19.993	103.065	20.177	2.978	0.480
1227.000	695.719	79.995	19.996	103.067	20.180	2.736	0.466
1227.500	695.978	79.994	19.996	103.068	20.177	2.912	0.496
1228.000	696.213	79.995	19.995	103.069	20.177	2.918	0.507
1228.500	696.467	79.996	19.995	103.070	20.176	2.998	0.492
1229.000	696.717	79.997	19.995	103.066	20.174	3.177	0.497
1229.500	696.935	79.995	19.995	103.064	20.172	3.275	0.486
1230.000	697.198	79.995	19.995	103.064	20.175	3.120	0.474
1230.500	697.411	79.995	19.996	103.064	20.178	2.904	0.478
1231.000	697.676	79.994	19.994	103.063	20.175	3.056	0.477
1231.500	697.922	79.994	19.995	103.062	20.175	3.074	0.495
1232.000	698.171	79.995	19.995	103.063	20.175	3.094	0.503
1232.500	698.392	79.994	19.992	103.068	20.176	3.032	0.483
1233.000	698.651	79.994	19.995	103.075	20.174	3.144	0.475
1233.500	698.907	79.994	19.994	103.082	20.171	3.349	0.497
1234.000	699.135	79.995	19.995	103.089	20.173	3.257	0.500
1234.500	699.359	79.995	19.995	103.094	20.172	3.283	0.468
1235.000	699.620	79.994	19.995	103.089	20.171	3.369	0.468
1235.500	699.865	79.994	19.996	103.082	20.174	3.156	0.496
1236.000	700.107	79.994	19.996	103.076	20.175	3.096	0.497
1236.500	700.333	79.994	19.994	103.069	20.176	3.000	0.477
1237.000	700.596	79.994	19.996	103.061	20.174	3.179	0.478
1237.500	700.833	79.994	19.994	103.061	20.177	2.940	0.494
1238.000	701.076	79.994	19.995	103.060	20.176	2.982	0.490
1238.500	701.340	79.993	19.996	103.061	20.177	2.924	0.493
1239.000	701.563	79.993	19.995	103.062	20.174	3.136	0.497
1239.500	701.861	79.993	19.995	103.067	20.177	2.934	0.504
1240.000	702.054	79.992	19.996	103.070	20.176	3.014	0.506
1240.500	702.309	79.993	19.995	103.071	20.176	2.984	0.470
1241.000	702.543	79.992	19.995	103.071	20.176	2.994	0.469
1241.500	702.808	79.992	19.997	103.070	20.178	2.860	0.494
1242.000	702.991	79.994	19.998	103.068	20.177	2.966	0.473
1242.500	703.286	79.993	19.995	103.066	20.175	3.064	0.463
1243.000	703.526	79.993	19.996	103.066	20.175	3.070	0.506
1243.500	703.746	79.993	19.996	103.068	20.181	2.659	0.498
1244.000	703.985	79.992	19.996	103.070	20.178	2.900	0.460
1244.500	704.242	79.992	19.996	103.077	20.177	2.940	0.477
1245.000	704.488	79.993	19.997	103.080	20.178	2.902	0.500
1245.500	704.722	79.992	19.996	103.080	20.177	2.974	0.492
1246.000	704.985	79.992	19.995	103.080	20.179	2.771	0.488
1246.500	705.224	79.993	19.997	103.078	20.179	2.769	0.499
1247.000	705.470	79.994	19.995	103.072	20.177	2.930	0.494
1247.500	705.705	79.993	19.997	103.069	20.176	3.010	0.483
1248.000	705.941	79.993	19.998	103.068	20.177	2.964	0.476
1248.500	706.162	79.994	19.995	103.069	20.177	2.956	0.464
1249.000	706.399	79.992	19.996	103.071	20.178	2.904	0.457
1249.500	706.660	79.992	19.996	103.073	20.176	3.026	0.478
1250.000	706.887	79.993	19.995	103.078	20.175	3.107	0.493
1250.500	707.179	79.993	19.996	103.084	20.173	3.253	0.504
1251.000	707.396	79.992	19.997	103.082	20.173	3.235	0.514
1251.500	707.674	79.993	19.996	103.079	20.177	2.966	0.502
1252.000	707.928	79.992	19.996	103.077	20.177	2.942	0.513
1252.500	708.175	79.993	19.996	103.074	20.173	3.256	0.517
1253.000	708.451	79.992	19.997	103.076	20.177	2.970	0.512
1253.500	708.658	79.993	19.996	103.077	20.177	2.932	0.503
1254.000	708.907	79.993	19.996	103.075	20.178	2.864	0.470
1254.500	709.150	79.993	19.995	103.077	20.174	3.132	0.474
1255.000	709.409	79.993	19.997	103.074	20.177	2.910	0.497
1255.500	709.643	79.992	19.998	103.068	20.175	3.100	0.498
1256.000	709.878	79.993	19.996	103.070	20.175	3.090	0.481
1256.500	710.106	79.991	19.997	103.077	20.176	3.012	0.466
1257.000	710.404	79.993	19.996	103.079	20.181	2.635	0.494
1257.500	710.649	79.994	19.996	103.079	20.179	2.826	0.534
1258.000	710.875	79.993	19.996	103.080	20.174	3.145	0.507
1258.500	711.133	79.993	19.996	103.079	20.177	2.952	0.478
1259.000	711.366	79.994	19.996	103.073	20.178	2.904	0.487
1259.500	711.630	79.994	19.996	103.068	20.180	2.748	0.494
1260.000	711.875	79.995	19.995	103.067	20.178	2.876	0.503
1260.500	712.117	79.993	19.994	103.064	20.180	2.752	0.498
1261.000	712.354	79.994	19.995	103.061	20.179	2.804	0.483
1261.500	712.637	79.992	19.996	103.062	20.176	3.038	0.500
1262.000	712.839	79.994	19.995	103.069	20.175	3.094	0.502
1262.500	713.103	79.994	19.997	103.077	20.175	3.078	0.475
1263.000	713.362	79.994	19.996	103.085	20.175	3.058	0.494
1263.500	713.636	79.995	19.995	103.087	20.174	3.140	0.528
1264.000	713.887	79.993	19.996	103.085	20.176	3.028	0.529
1264.500	714.139	79.993	19.994	103.080	20.176	3.030	0.514
1265.000	714.383	79.993	19.995	103.075	20.177	2.920	0.499
1265.500	714.627	79.993	19.994	103.069	20.171	3.365	0.492
1266.000	714.917	79.993	19.996	103.068	20.176	3.038	0.511
1266.500	715.157	79.993	19.995	103.073	20.174	3.134	0.532
1267.000	715.422	79.992	19.994	103.074	20.174	3.138	0.517
1267.500	715.720	79.993	19.995	103.072	20.175	3.104	0.534
1268.000	715.952	79.992	19.996	103.070	20.177	2.972	0.547
1268.500	716.204	79.993	19.995	103.070	20.173	3.217	0.508
1269.000	716.509	79.993	19.995	103.065	20.173	3.247	0.521
1269.500	716.793	79.992	19.995	103.064	20.171	3.399	0.572
1270.000	717.020	79.992	19.995	103.064	20.174	3.192	0.550
1270.501	717.291	79.992	19.996	103.065	20.170	3.455	0.505
1271.000	717.577	79.993	19.995	103.067	20.172	3.335	0.528
1271.500	717.831	79.992	19.996	103.067	20.169	3.554	0.549
1272.000	718.074	79.992	19.995	103.066	20.171	3.379	0.518
1272.500	718.297	79.993	19.995	103.066	20.172	3.311	0.481
1273.000	718.586	79.992	19.995	103.069	20.173	3.213	0.489
1273.500	718.880	79.992	19.995	103.072	20.173	3.235	0.548
1274.000	719.143	79.994	19.995	103.077	20.171	3.369	0.570
1274.500	719.400	79.992	19.995	103.081	20.174	3.162	0.539
1275.000	719.685	79.991	19.994	103.082	20.173	3.241	0.532
1275.500	719.941	79.992	19.995	103.082	20.171	3.395	0.542
1276.000	720.209	79.993	19.995	103.083	20.173	3.204	0.532
1276.500	720.496	79.992	19.995	103.082	20.173	3.234	0.539
1277.000	720.742	79.991	19.996	103.080	20.173	3.218	0.544
1277.500	720.971	79.993	19.996	103.081	20.173	3.214	0.504
1278.000	721.240	79.992	19.995	103.077	20.172	3.305	0.487
1278.500	721.504	79.993	19.996	103.072	20.173	3.202	0.516
1279.000	721.778	79.993	19.995	103.074	20.173	3.203	0.536
1279.500	722.091	79.992	19.994	103.075	20.171	3.373	0.563
1280.000	722.351	79.994	19.994	103.073	20.170	3.477	0.580
1280.500	722.593	79.993	19.995	103.074	20.174	3.177	0.538
1281.000	722.848	79.994	19.996	103.080	20.174	3.144	0.500
1281.500	723.101	79.994	19.995	103.076	20.173	3.271	0.502
1282.000	723.393	79.993	19.995	103.073	20.171	3.349	0.526
1282.500	723.636	79.994	19.995	103.072	20.171	3.409	0.540
1283.000	723.886	79.994	19.996	103.071	20.170	3.461	0.514
1283.500	724.200	79.994	19.995	103.069	20.172	3.274	0.529
1284.000	724.447	79.995	19.996	103.071	20.173	3.202	0.563
1284.500	724.752	79.995	19.995	103.075	20.171	3.407	0.557
1285.000	725.012	79.994	19.995	103.078	20.174	3.138	0.559
1285.500	725.247	79.993	19.996	103.080	20.172	3.280	0.530
1286.000	725.535	79.995	19.995	103.078	20.172	3.312	0.509
1286.500	725.834	79.993	19.995	103.078	20.174	3.140	0.555
1287.000	726.112	79.994	19.995	103.076	20.171	3.352	0.582
1287.500	726.397	79.994	19.995	103.079	20.171	3.397	0.571
1288.000	726.631	79.994	19.994	103.080	20.174	3.176	0.541
1288.500	726.946	79.993	19.994	103.079	20.173	3.220	0.534
1289.000	727.183	79.994	19.995	103.078	20.176	2.998	0.550
1289.500	727.448	79.995	19.995	103.076	20.174	3.180	0.527
1290.000	727.739	79.995	19.994	103.071	20.172	3.280	0.529
1290.500	727.986	79.993	19.995	103.070	20.172	3.341	0.547
1291.000	728.298	79.993	19.995	103.073	20.171	3.381	0.548
1291.500	728.553	79.994	19.995	103.073	20.171	3.375	0.562
1292.000	728.814	79.993	19.995	103.074	20.169	3.535	0.541
1292.500	729.053	79.993	19.995	103.075	20.171	3.381	0.508
1293.000	729.349	79.992	19.995	103.080	20.170	3.477	0.518
1293.500	729.602	79.993	19.994	103.079	20.168	3.599	0.543
1294.000	729.905	79.993	19.995	103.081	20.169	3.493	0.552
1294.500	730.192	79.993	19.995	103.085	20.174	3.160	0.572
1295.000	730.457	79.994	19.995	103.088	20.167	3.636	0.571
1295.500	730.699	79.993	19.995	103.088	20.172	3.286	0.530
1296.000	730.971	79.993	19.994	103.090	20.170	3.421	0.511
1296.500	731.249	79.994	19.995	103.093	20.172	3.340	0.532
1297.000	731.528	79.995	19.995	103.094	20.170	3.428	0.554
1297.500	731.795	79.993	19.995	103.091	20.169	3.491	0.551
1298.000	732.071	79.994	19.995	103.088	20.169	3.543	0.544
1298.500	732.360	79.993	19.995	103.088	20.170	3.449	0.554
1299.000	732.619	79.994	19.994	103.087	20.172	3.306	0.556
1299.500	732.890	79.994	19.995	103.082	20.171	3.400	0.539
1300.000	733.127	79.993	19.994	103.086	20.169	3.495	0.520
1300.500	733.443	79.994	19.994	103.089	20.172	3.330	0.530
1301.000	733.705	79.993	19.995	103.088	20.171	3.407	0.565
1301.500	733.977	79.993	19.995	103.083	20.172	3.323	0.556
1302.000	734.235	79.994	19.994	103.086	20.170	3.451	0.532
1302.500	734.542	79.993	19.994	103.086	20.171	3.401	0.548
1303.000	734.804	79.993	19.994	103.087	20.171	3.413	0.567
1303.500	735.051	79.993	19.995	103.086	20.172	3.282	0.539
1304.000	735.324	79.993	19.994	103.087	20.172	3.286	0.515
1304.500	735.559	79.993	19.995	103.085	20.171	3.400	0.514
1305.000	735.817	79.994	19.994	103.082	20.170	3.459	0.500
1305.500	736.064	79.994	19.995	103.081	20.171	3.368	0.499
1306.000	736.335	79.996	19.994	103.080	20.176	3.046	0.511
1306.500	736.591	79.994	19.995	103.083	20.172	3.290	0.523
1307.000	736.868	79.994	19.995	103.089	20.170	3.452	0.531
1307.500	737.113	79.995	19.995	103.093	20.166	3.755	0.527
1308.000	737.397	79.994	19.995	103.096	20.169	3.509	0.525
1308.501	737.680	79.996	19.995	103.097	20.173	3.248	0.548
1309.001	737.937	79.995	19.995	103.094	20.170	3.432	0.553
1309.501	738.200	79.994	19.996	103.092	20.167	3.649	0.530
1310.001	738.464	79.995	19.995	103.093	20.170	3.475	0.523
1310.500	738.738	79.994	19.996	103.092	20.167	3.695	0.532
1311.000	739.000	79.994	19.996	103.091	20.170	3.446	0.537
1311.500	739.238	79.994	19.996	103.092	20.170	3.488	0.518
1312.000	739.484	79.993	19.995	103.087	20.169	3.506	0.492
1312.500	739.762	79.994	19.995	103.085	20.172	3.336	0.504
1313.001	740.036	79.993	19.995	103.083	20.170	3.432	0.538
1313.500	740.308	79.993	19.995	103.086	20.168	3.613	0.549
1314.000	740.556	79.993	19.995	103.091	20.170	3.444	0.533
1314.500	740.881	79.992	19.994	103.096	20.168	3.563	0.547
1315.000	741.112	79.992	19.995	103.095	20.173	3.262	0.565
1315.500	741.359	79.991	19.996	103.095	20.169	3.539	0.517
1316.000	741.651	79.992	19.995	103.092	20.168	3.571	0.508
1316.500	741.904	79.992	19.995	103.089	20.169	3.527	0.542
1317.000	742.160	79.992	19.995	103.091	20.170	3.433	0.527
1317.500	742.447	79.991	19.996	103.094	20.169	3.493	0.526
1318.000	742.709	79.991	19.995	103.098	20.169	3.529	0.545
1318.500	742.934	79.992	19.995	103.099	20.170	3.429	0.518
1319.000	743.218	79.992	19.995	103.099	20.172	3.317	0.498
1319.500	743.485	79.991	19.995	103.095	20.172	3.295	0.530
