Sample ID:	C:\MCC\MCC Cal\Test\PMMAR05_MCC_30K_min_211013_R1.txt
Sample Weight (mg):	4.43
Heating Rate (C/s):	0.5
Combustor Temp (C):	900
N2 Flow Rate (cc/min):	80
O2 Flow Rate (cc/min):	20
Calibration File:	C:\MCC\MCC Cal\Coeff1 JN10440_30_210304.txt.txt
T Correction Coefficients:	0	1.024463	0
Time Shift (s):	14
*
Time (s)	Temperature (C)	N2 flow rate (cc/min)	O2 flow rate (cc/min)	Flow Rate (cc/min)	Oxygen (%)	HRR (W/g)	Heating rate (C/s)
0.000	106.569	79.991	19.995	102.798	20.273	-0.203	0.024
0.500	106.553	79.991	19.995	102.799	20.268	0.145	-0.010
1.000	106.585	79.992	19.996	102.803	20.274	-0.277	-0.015
1.500	106.525	79.991	19.996	102.806	20.267	0.219	-0.006
2.000	106.566	79.991	19.996	102.804	20.269	0.066	-0.023
2.500	106.584	79.991	19.996	102.806	20.269	0.092	0.020
2.999	106.574	79.991	19.996	102.807	20.269	0.084	0.034
3.499	106.595	79.991	19.996	102.807	20.268	0.107	0.009
4.000	106.567	79.990	19.997	102.803	20.266	0.251	0.002
4.500	106.572	79.991	19.996	102.802	20.272	-0.127	-0.015
5.000	106.562	79.990	19.997	102.800	20.270	0.006	-0.014
5.500	106.552	79.991	19.996	102.799	20.270	-0.034	-0.012
6.000	106.531	79.991	19.997	102.796	20.269	0.086	-0.026
6.500	106.541	79.992	19.996	102.796	20.268	0.104	-0.021
7.000	106.540	79.990	19.996	102.802	20.267	0.217	-0.001
7.500	106.535	79.990	19.996	102.810	20.269	0.040	0.001
8.000	106.548	79.990	19.996	102.818	20.271	-0.050	0.001
8.500	106.576	79.992	19.997	102.824	20.266	0.265	0.025
9.000	106.568	79.991	19.996	102.825	20.266	0.307	0.031
9.500	106.587	79.992	19.995	102.820	20.266	0.301	0.015
10.000	106.558	79.993	19.997	102.814	20.264	0.432	0.000
10.500	106.568	79.992	19.996	102.806	20.269	0.054	-0.015
11.000	106.570	79.991	19.996	102.805	20.269	0.068	-0.004
11.500	106.554	79.993	19.997	102.809	20.269	0.088	-0.001
12.000	106.546	79.993	19.996	102.816	20.267	0.223	-0.019
12.500	106.612	79.991	19.997	102.824	20.265	0.384	0.017
13.000	106.572	79.992	19.996	102.837	20.267	0.193	0.042
13.500	106.570	79.992	19.996	102.848	20.264	0.440	-0.008
14.000	106.562	79.989	19.996	102.855	20.264	0.420	-0.026
14.500	106.589	79.991	19.996	102.862	20.265	0.372	0.004
15.000	106.572	79.991	19.996	102.868	20.260	0.737	0.014
15.500	106.589	79.991	19.995	102.871	20.260	0.739	0.005
16.000	106.567	79.991	19.996	102.872	20.263	0.518	-0.002
16.500	106.626	79.991	19.995	102.874	20.261	0.665	0.016
17.000	106.623	79.991	19.996	102.874	20.263	0.524	0.046
17.500	106.623	79.992	19.996	102.876	20.266	0.303	0.026
18.000	106.636	79.991	19.995	102.876	20.266	0.285	0.005
18.500	106.639	79.992	19.996	102.874	20.257	0.936	0.015
19.000	106.633	79.992	19.996	102.874	20.260	0.749	0.007
19.500	106.667	79.993	19.997	102.876	20.255	1.089	0.012
20.000	106.672	79.993	19.996	102.878	20.254	1.153	0.033
20.500	106.688	79.992	19.996	102.886	20.258	0.878	0.030
21.000	106.715	79.991	19.996	102.895	20.255	1.079	0.032
21.500	106.711	79.991	19.997	102.903	20.254	1.171	0.033
22.000	106.799	79.990	19.996	102.911	20.256	1.036	0.053
22.500	106.770	79.992	19.995	102.920	20.256	1.018	0.071
23.000	106.768	79.991	19.996	102.928	20.255	1.092	0.014
23.500	106.857	79.990	19.996	102.931	20.254	1.151	0.028
24.000	106.852	79.991	19.995	102.932	20.253	1.217	0.086
24.500	106.897	79.990	19.996	102.930	20.252	1.301	0.062
25.000	106.914	79.991	19.997	102.926	20.252	1.281	0.051
25.500	106.954	79.990	19.997	102.919	20.253	1.203	0.059
26.000	107.005	79.991	19.997	102.914	20.251	1.395	0.074
26.500	107.017	79.990	19.997	102.912	20.249	1.544	0.077
27.000	107.014	79.990	19.997	102.913	20.250	1.466	0.037
27.500	107.091	79.989	19.996	102.913	20.251	1.379	0.042
28.000	107.105	79.991	19.996	102.913	20.250	1.436	0.082
28.500	107.151	79.990	19.998	102.913	20.253	1.247	0.075
29.000	107.166	79.990	19.997	102.913	20.252	1.305	0.060
29.500	107.254	79.990	19.996	102.913	20.254	1.150	0.082
30.000	107.277	79.990	19.997	102.913	20.252	1.295	0.107
30.500	107.333	79.990	19.997	102.913	20.252	1.311	0.095
31.000	107.376	79.991	19.997	102.913	20.251	1.389	0.089
31.500	107.415	79.990	19.998	102.913	20.253	1.239	0.090
32.000	107.460	79.990	19.998	102.918	20.255	1.060	0.083
32.499	107.532	79.990	19.997	102.923	20.250	1.439	0.101
32.999	107.583	79.990	19.998	102.926	20.252	1.317	0.120
33.500	107.615	79.990	19.997	102.930	20.248	1.606	0.102
34.000	107.630	79.990	19.996	102.937	20.249	1.530	0.065
34.499	107.699	79.990	19.996	102.940	20.252	1.313	0.066
35.000	107.712	79.990	19.997	102.941	20.248	1.608	0.083
35.500	107.776	79.990	19.996	102.946	20.249	1.542	0.080
35.999	107.834	79.990	19.997	102.950	20.247	1.628	0.100
36.499	107.880	79.991	19.997	102.951	20.247	1.682	0.112
37.000	107.924	79.990	19.997	102.953	20.248	1.608	0.097
37.500	108.019	79.989	19.996	102.955	20.244	1.887	0.115
37.999	108.070	79.991	19.997	102.955	20.246	1.753	0.142
38.500	108.136	79.990	19.996	102.956	20.246	1.759	0.131
39.000	108.215	79.992	19.996	102.954	20.245	1.775	0.131
39.499	108.270	79.992	19.996	102.954	20.244	1.849	0.140
39.999	108.316	79.991	19.996	102.953	20.247	1.694	0.118
40.499	108.365	79.991	19.996	102.953	20.243	1.951	0.098
40.999	108.389	79.990	19.995	102.953	20.244	1.905	0.084
41.499	108.463	79.990	19.995	102.954	20.243	1.943	0.086
41.999	108.538	79.990	19.994	102.954	20.241	2.122	0.123
42.499	108.591	79.991	19.995	102.954	20.243	1.955	0.138
42.999	108.715	79.991	19.995	102.957	20.243	1.935	0.153
43.500	108.755	79.991	19.995	102.962	20.242	1.989	0.171
44.000	108.829	79.990	19.995	102.965	20.240	2.140	0.139
44.499	108.889	79.993	19.995	102.969	20.242	2.033	0.124
44.999	108.969	79.992	19.994	102.971	20.244	1.889	0.137
45.499	109.029	79.992	19.995	102.970	20.241	2.079	0.140
45.999	109.117	79.992	19.997	102.965	20.241	2.067	0.144
46.500	109.213	79.992	19.995	102.961	20.238	2.342	0.166
47.000	109.282	79.992	19.996	102.958	20.246	1.754	0.175
47.500	109.343	79.992	19.995	102.959	20.239	2.210	0.148
48.000	109.399	79.992	19.995	102.961	20.243	1.939	0.124
48.499	109.505	79.993	19.997	102.961	20.238	2.282	0.139
48.999	109.558	79.992	19.996	102.962	20.240	2.160	0.160
49.499	109.657	79.994	19.996	102.966	20.240	2.144	0.155
49.999	109.737	79.992	19.996	102.964	20.238	2.302	0.165
50.499	109.803	79.993	19.995	102.963	20.242	2.015	0.162
51.000	109.869	79.994	19.994	102.962	20.233	2.702	0.139
51.500	109.958	79.992	19.995	102.961	20.242	1.987	0.144
51.999	110.059	79.992	19.995	102.957	20.238	2.342	0.172
52.499	110.126	79.991	19.995	102.962	20.240	2.166	0.179
52.999	110.223	79.992	19.996	102.968	20.239	2.214	0.166
53.499	110.304	79.992	19.996	102.975	20.241	2.103	0.171
53.999	110.416	79.991	19.995	102.983	20.239	2.252	0.185
54.500	110.513	79.990	19.995	102.986	20.237	2.360	0.201
55.000	110.597	79.993	19.996	102.987	20.239	2.216	0.195
55.499	110.722	79.992	19.996	102.986	20.239	2.252	0.195
55.999	110.766	79.991	19.995	102.986	20.238	2.284	0.189
56.500	110.891	79.993	19.995	102.983	20.241	2.087	0.169
57.000	110.963	79.991	19.996	102.980	20.240	2.184	0.183
57.499	111.062	79.992	19.997	102.975	20.241	2.067	0.184
57.999	111.128	79.992	19.995	102.971	20.238	2.324	0.168
58.499	111.229	79.991	19.995	102.968	20.239	2.242	0.166
58.999	111.347	79.991	19.995	102.970	20.241	2.083	0.193
59.499	111.427	79.991	19.997	102.974	20.240	2.135	0.208
59.999	111.524	79.991	19.997	102.978	20.241	2.113	0.187
60.500	111.624	79.991	19.996	102.980	20.239	2.228	0.187
61.000	111.735	79.993	19.996	102.977	20.243	1.953	0.204
61.499	111.832	79.992	19.995	102.977	20.241	2.111	0.209
62.000	111.933	79.993	19.997	102.980	20.242	2.011	0.203
62.500	112.053	79.992	19.994	102.982	20.241	2.129	0.209
63.000	112.116	79.993	19.996	102.984	20.238	2.346	0.202
63.500	112.231	79.994	19.997	102.990	20.242	2.025	0.181
63.999	112.324	79.993	19.996	102.990	20.238	2.326	0.193
64.499	112.436	79.993	19.996	102.990	20.237	2.368	0.207
64.999	112.541	79.992	19.994	102.989	20.239	2.247	0.211
65.500	112.656	79.993	19.997	102.990	20.236	2.424	0.218
66.000	112.775	79.992	19.996	102.990	20.235	2.538	0.227
66.500	112.850	79.994	19.995	102.988	20.242	2.047	0.215
67.000	112.979	79.993	19.996	102.984	20.239	2.257	0.199
67.499	113.094	79.993	19.995	102.979	20.238	2.279	0.224
67.999	113.162	79.994	19.996	102.976	20.236	2.426	0.213
68.499	113.287	79.994	19.996	102.976	20.241	2.131	0.188
68.999	113.421	79.995	19.995	102.978	20.235	2.538	0.226
69.499	113.571	79.994	19.995	102.983	20.237	2.400	0.272
69.999	113.663	79.995	19.997	102.987	20.238	2.321	0.263
70.499	113.788	79.995	19.995	102.992	20.238	2.287	0.229
70.999	113.879	79.993	19.994	102.993	20.238	2.323	0.216
71.499	113.981	79.994	19.995	102.993	20.235	2.514	0.205
71.999	114.121	79.994	19.995	102.998	20.240	2.189	0.217
72.499	114.271	79.995	19.995	103.011	20.238	2.313	0.266
73.000	114.357	79.994	19.995	103.006	20.237	2.401	0.263
73.500	114.480	79.994	19.995	103.002	20.235	2.518	0.223
74.000	114.618	79.995	19.995	103.002	20.237	2.393	0.235
74.500	114.702	79.992	19.995	103.004	20.235	2.544	0.241
75.000	114.834	79.995	19.996	102.996	20.232	2.733	0.219
75.500	114.965	79.994	19.994	103.003	20.235	2.564	0.239
76.000	115.088	79.995	19.997	103.009	20.232	2.781	0.258
76.500	115.223	79.993	19.995	103.015	20.235	2.546	0.256
76.999	115.338	79.995	19.995	103.014	20.238	2.349	0.254
77.499	115.458	79.993	19.996	103.011	20.234	2.584	0.243
77.999	115.552	79.992	19.995	103.011	20.235	2.532	0.225
78.499	115.720	79.992	19.995	103.014	20.234	2.636	0.238
79.000	115.832	79.994	19.995	103.014	20.235	2.518	0.271
79.501	115.963	79.992	19.995	103.012	20.231	2.787	0.261
80.001	116.104	79.991	19.995	103.015	20.233	2.670	0.258
80.500	116.235	79.991	19.995	103.016	20.231	2.815	0.272
80.999	116.388	79.991	19.996	103.017	20.230	2.921	0.278
81.499	116.501	79.991	19.996	103.018	20.230	2.895	0.275
81.999	116.657	79.991	19.994	103.023	20.232	2.728	0.267
82.499	116.771	79.991	19.996	103.024	20.231	2.802	0.269
82.999	116.911	79.991	19.996	103.028	20.234	2.598	0.262
83.499	117.091	79.991	19.996	103.027	20.230	2.915	0.287
83.999	117.202	79.993	19.996	103.028	20.228	3.025	0.306
84.499	117.329	79.991	19.994	103.027	20.231	2.854	0.265
84.999	117.514	79.991	19.995	103.027	20.229	2.999	0.275
85.499	117.632	79.991	19.996	103.028	20.233	2.650	0.307
85.999	117.774	79.991	19.996	103.029	20.231	2.798	0.282
86.499	117.929	79.991	19.995	103.029	20.230	2.903	0.279
86.999	118.081	79.991	19.996	103.029	20.228	3.051	0.302
87.499	118.234	79.991	19.994	103.030	20.231	2.819	0.306
87.999	118.382	79.992	19.997	103.030	20.231	2.851	0.303
88.500	118.489	79.991	19.996	103.029	20.230	2.882	0.278
89.000	118.680	79.989	19.995	103.030	20.230	2.882	0.276
89.499	118.791	79.991	19.997	103.030	20.230	2.880	0.300
89.999	118.953	79.990	19.995	103.028	20.232	2.772	0.288
90.499	119.101	79.992	19.996	103.028	20.229	2.962	0.292
90.999	119.283	79.991	19.996	103.031	20.232	2.732	0.320
91.499	119.436	79.990	19.995	103.033	20.229	2.978	0.332
91.999	119.581	79.991	19.996	103.036	20.229	2.932	0.316
92.499	119.712	79.990	19.996	103.040	20.231	2.818	0.287
92.999	119.854	79.991	19.997	103.044	20.228	3.043	0.274
93.499	120.030	79.990	19.995	103.045	20.231	2.822	0.296
93.999	120.192	79.991	19.997	103.047	20.231	2.796	0.329
94.499	120.361	79.991	19.996	103.046	20.228	3.012	0.335
94.999	120.537	79.992	19.996	103.046	20.228	3.050	0.337
95.499	120.676	79.992	19.996	103.048	20.226	3.158	0.330
95.999	120.840	79.990	19.996	103.046	20.225	3.234	0.310
96.499	120.977	79.991	19.998	103.044	20.227	3.130	0.302
96.999	121.143	79.991	19.996	103.042	20.227	3.120	0.302
97.500	121.379	79.990	19.995	103.040	20.229	2.969	0.352
98.000	121.500	79.991	19.996	103.035	20.227	3.094	0.379
98.499	121.683	79.993	19.997	103.036	20.227	3.118	0.331
99.000	121.828	79.991	19.995	103.041	20.226	3.196	0.316
99.500	122.018	79.991	19.996	103.047	20.227	3.110	0.331
99.999	122.208	79.992	19.996	103.052	20.226	3.172	0.357
100.500	122.345	79.991	19.996	103.057	20.225	3.262	0.353
101.001	122.501	79.990	19.996	103.062	20.226	3.208	0.310
101.500	122.723	79.990	19.996	103.059	20.224	3.318	0.336
101.999	122.874	79.991	19.995	103.059	20.230	2.924	0.376
102.500	123.048	79.991	19.995	103.059	20.225	3.263	0.349
103.000	123.253	79.990	19.997	103.057	20.230	2.861	0.352
103.500	123.459	79.991	19.995	103.054	20.224	3.365	0.395
104.000	123.582	79.989	19.996	103.059	20.224	3.321	0.370
104.499	123.793	79.991	19.996	103.060	20.223	3.427	0.332
104.999	123.985	79.990	19.996	103.062	20.223	3.407	0.369
105.500	124.136	79.989	19.995	103.068	20.224	3.302	0.373
106.000	124.341	79.990	19.997	103.075	20.226	3.154	0.349
106.499	124.512	79.990	19.995	103.077	20.221	3.571	0.366
107.000	124.691	79.990	19.995	103.081	20.220	3.636	0.363
107.500	124.877	79.990	19.996	103.088	20.226	3.170	0.358
107.999	125.083	79.991	19.995	103.092	20.222	3.471	0.379
108.499	125.256	79.990	19.996	103.093	20.221	3.519	0.385
108.999	125.482	79.991	19.995	103.093	20.223	3.383	0.389
109.499	125.679	79.990	19.995	103.092	20.222	3.509	0.411
109.999	125.813	79.991	19.995	103.088	20.220	3.621	0.378
110.499	126.018	79.990	19.996	103.089	20.222	3.501	0.335
110.999	126.205	79.989	19.996	103.089	20.216	3.900	0.365
111.499	126.424	79.990	19.996	103.089	20.216	3.886	0.399
111.999	126.616	79.990	19.996	103.088	20.221	3.521	0.409
112.499	126.814	79.991	19.995	103.088	20.226	3.218	0.401
112.999	126.997	79.990	19.996	103.082	20.221	3.523	0.385
113.499	127.183	79.990	19.996	103.078	20.218	3.796	0.375
113.999	127.396	79.990	19.997	103.080	20.220	3.652	0.384
114.499	127.608	79.987	19.996	103.079	20.223	3.413	0.412
114.999	127.783	79.991	19.997	103.078	20.220	3.642	0.406
115.499	128.022	79.988	19.995	103.085	20.222	3.511	0.400
115.999	128.211	79.990	19.998	103.087	20.219	3.684	0.421
116.499	128.445	79.990	19.997	103.085	20.217	3.822	0.425
116.999	128.653	79.990	19.997	103.090	20.220	3.642	0.432
117.499	128.817	79.991	19.997	103.087	20.218	3.734	0.407
117.999	129.047	79.990	19.997	103.079	20.215	4.001	0.383
118.499	129.248	79.990	19.997	103.082	20.220	3.654	0.412
118.999	129.492	79.991	19.996	103.082	20.218	3.796	0.438
119.499	129.656	79.991	19.998	103.079	20.218	3.778	0.427
119.999	129.906	79.991	19.997	103.082	20.218	3.766	0.411
120.499	130.097	79.989	19.997	103.085	20.219	3.700	0.428
120.999	130.311	79.991	19.997	103.081	20.220	3.628	0.423
121.500	130.553	79.991	19.997	103.081	20.218	3.764	0.430
122.000	130.759	79.993	19.996	103.081	20.221	3.531	0.452
122.499	130.983	79.990	19.997	103.078	20.217	3.852	0.439
122.999	131.207	79.993	19.998	103.078	20.221	3.563	0.439
123.499	131.429	79.993	19.997	103.077	20.218	3.784	0.447
123.999	131.634	79.992	19.996	103.076	20.214	4.059	0.437
124.499	131.851	79.992	19.997	103.073	20.221	3.582	0.425
124.999	132.071	79.992	19.996	103.073	20.218	3.768	0.429
125.499	132.266	79.993	19.995	103.074	20.219	3.702	0.426
126.000	132.512	79.992	19.997	103.075	20.223	3.439	0.428
126.501	132.743	79.993	19.997	103.077	20.218	3.738	0.459
127.001	132.943	79.993	19.996	103.080	20.219	3.712	0.454
127.500	133.189	79.992	19.996	103.079	20.219	3.714	0.439
127.999	133.408	79.993	19.996	103.076	20.216	3.920	0.456
128.500	133.654	79.993	19.997	103.074	20.217	3.823	0.465
129.000	133.880	79.992	19.996	103.075	20.218	3.791	0.468
129.500	134.109	79.994	19.996	103.074	20.217	3.869	0.464
130.000	134.335	79.993	19.995	103.074	20.220	3.629	0.455
130.500	134.565	79.992	19.994	103.075	20.220	3.589	0.455
131.000	134.762	79.992	19.995	103.075	20.217	3.810	0.441
131.500	134.969	79.995	19.995	103.074	20.220	3.653	0.416
132.000	135.227	79.992	19.995	103.073	20.220	3.599	0.435
132.500	135.418	79.993	19.996	103.076	20.220	3.639	0.457
133.000	135.696	79.994	19.996	103.078	20.220	3.607	0.459
133.500	135.926	79.994	19.996	103.078	20.217	3.838	0.488
134.000	136.159	79.993	19.996	103.076	20.220	3.616	0.485
134.500	136.372	79.994	19.996	103.077	20.218	3.794	0.455
135.000	136.615	79.992	19.995	103.074	20.217	3.872	0.451
135.500	136.864	79.993	19.996	103.073	20.221	3.556	0.474
136.000	137.097	79.993	19.997	103.071	20.219	3.692	0.487
136.500	137.351	79.992	19.996	103.073	20.223	3.395	0.485
137.000	137.597	79.994	19.995	103.074	20.220	3.590	0.494
137.500	137.806	79.993	19.994	103.073	20.220	3.654	0.477
138.000	138.084	79.992	19.995	103.077	20.216	3.893	0.470
138.500	138.313	79.993	19.996	103.084	20.219	3.712	0.497
139.000	138.525	79.993	19.996	103.089	20.217	3.862	0.474
139.500	138.759	79.992	19.996	103.094	20.217	3.808	0.444
140.000	139.046	79.993	19.997	103.099	20.220	3.644	0.483
140.500	139.278	79.993	19.996	103.097	20.217	3.842	0.520
141.000	139.507	79.994	19.996	103.094	20.216	3.942	0.490
141.500	139.775	79.992	19.996	103.092	20.220	3.634	0.479
142.001	139.970	79.992	19.995	103.089	20.217	3.868	0.480
142.501	140.230	79.992	19.996	103.088	20.215	4.017	0.459
143.000	140.485	79.993	19.997	103.085	20.213	4.145	0.485
143.500	140.741	79.992	19.996	103.082	20.216	3.888	0.512
144.000	140.973	79.992	19.996	103.082	20.218	3.772	0.499
144.500	141.238	79.992	19.996	103.078	20.217	3.820	0.492
145.000	141.467	79.993	19.995	103.074	20.217	3.872	0.496
145.500	141.725	79.993	19.994	103.073	20.217	3.850	0.491
146.000	141.987	79.994	19.995	103.074	20.219	3.708	0.504
146.500	142.234	79.995	19.996	103.071	20.215	3.955	0.514
147.000	142.466	79.993	19.994	103.071	20.211	4.239	0.494
147.500	142.673	79.993	19.995	103.070	20.216	3.931	0.460
148.000	142.942	79.996	19.996	103.070	20.216	3.947	0.458
148.500	143.249	79.994	19.995	103.070	20.220	3.590	0.526
149.000	143.449	79.994	19.995	103.070	20.220	3.652	0.542
149.500	143.733	79.995	19.996	103.072	20.218	3.734	0.496
150.000	143.941	79.993	19.996	103.073	20.218	3.738	0.488
150.500	144.220	79.995	19.996	103.077	20.214	4.021	0.489
151.000	144.485	79.996	19.995	103.077	20.217	3.866	0.515
151.500	144.725	79.995	19.996	103.076	20.221	3.533	0.524
152.000	144.977	79.996	19.996	103.075	20.216	3.931	0.499
152.500	145.202	79.993	19.996	103.074	20.220	3.594	0.484
153.000	145.512	79.994	19.995	103.070	20.217	3.840	0.506
153.500	145.726	79.994	19.995	103.070	20.216	3.916	0.530
154.000	145.950	79.995	19.995	103.072	20.214	4.045	0.481
154.500	146.204	79.994	19.995	103.071	20.218	3.794	0.458
155.000	146.480	79.994	19.996	103.072	20.221	3.583	0.504
155.500	146.706	79.994	19.995	103.074	20.218	3.764	0.516
156.000	146.993	79.994	19.995	103.073	20.219	3.684	0.508
156.500	147.201	79.994	19.996	103.072	20.215	3.973	0.504
157.000	147.469	79.995	19.995	103.073	20.217	3.870	0.485
157.500	147.699	79.993	19.994	103.072	20.216	3.931	0.487
158.000	147.969	79.994	19.995	103.070	20.217	3.810	0.500
158.500	148.210	79.992	19.995	103.070	20.218	3.776	0.506
159.000	148.484	79.993	19.996	103.070	20.215	3.967	0.513
159.500	148.733	79.993	19.996	103.070	20.216	3.880	0.519
160.000	149.007	79.992	19.995	103.071	20.219	3.728	0.523
160.500	149.242	79.993	19.996	103.072	20.219	3.720	0.516
161.000	149.470	79.992	19.995	103.073	20.217	3.870	0.486
161.500	149.748	79.992	19.995	103.073	20.216	3.885	0.484
162.000	150.013	79.992	19.996	103.073	20.216	3.883	0.525
162.500	150.276	79.992	19.995	103.073	20.218	3.784	0.536
163.000	150.549	79.992	19.995	103.073	20.218	3.758	0.532
163.500	150.778	79.992	19.995	103.073	20.218	3.802	0.519
164.000	151.040	79.992	19.996	103.073	20.219	3.672	0.496
164.500	151.294	79.992	19.996	103.074	20.218	3.760	0.503
165.000	151.549	79.992	19.995	103.075	20.219	3.696	0.512
165.500	151.804	79.992	19.995	103.075	20.218	3.760	0.509
166.000	152.082	79.993	19.994	103.077	20.219	3.666	0.522
166.500	152.336	79.992	19.996	103.077	20.222	3.490	0.533
167.000	152.606	79.993	19.996	103.075	20.220	3.606	0.528
167.500	152.861	79.991	19.995	103.074	20.219	3.662	0.524
168.000	153.105	79.991	19.995	103.073	20.219	3.660	0.512
168.500	153.387	79.991	19.995	103.071	20.220	3.614	0.512
169.000	153.604	79.991	19.995	103.071	20.217	3.828	0.512
169.500	153.840	79.992	19.995	103.072	20.221	3.570	0.476
170.000	154.097	79.991	19.995	103.072	20.220	3.602	0.473
170.500	154.355	79.992	19.995	103.072	20.224	3.367	0.504
171.000	154.596	79.991	19.995	103.071	20.219	3.680	0.507
171.500	154.861	79.992	19.995	103.071	20.219	3.712	0.503
172.000	155.125	79.991	19.995	103.070	20.219	3.722	0.518
172.500	155.358	79.991	19.995	103.069	20.222	3.512	0.513
173.000	155.620	79.991	19.994	103.069	20.215	3.965	0.496
173.500	155.916	79.991	19.995	103.070	20.223	3.426	0.527
174.000	156.118	79.991	19.995	103.070	20.218	3.757	0.528
174.500	156.414	79.992	19.995	103.070	20.223	3.369	0.498
175.000	156.643	79.990	19.995	103.069	20.220	3.606	0.511
175.500	156.893	79.992	19.996	103.069	20.219	3.666	0.502
176.000	157.156	79.991	19.995	103.068	20.222	3.460	0.497
176.500	157.394	79.992	19.996	103.068	20.221	3.528	0.507
177.000	157.669	79.993	19.996	103.069	20.218	3.757	0.507
177.500	157.932	79.990	19.995	103.068	20.222	3.470	0.525
178.000	158.164	79.991	19.997	103.067	20.222	3.454	0.517
178.500	158.420	79.991	19.995	103.068	20.223	3.380	0.491
179.000	158.654	79.992	19.997	103.067	20.225	3.243	0.488
179.500	158.939	79.991	19.994	103.067	20.220	3.647	0.504
180.000	159.191	79.992	19.995	103.068	20.224	3.314	0.528
180.500	159.464	79.993	19.996	103.069	20.226	3.180	0.531
181.000	159.709	79.992	19.996	103.068	20.222	3.454	0.522
181.500	159.927	79.993	19.996	103.067	20.225	3.242	0.490
182.000	160.246	79.992	19.997	103.065	20.227	3.143	0.499
182.500	160.478	79.992	19.996	103.063	20.222	3.498	0.544
183.000	160.729	79.992	19.996	103.061	20.223	3.378	0.517
183.500	160.999	79.992	19.996	103.059	20.222	3.466	0.502
184.000	161.218	79.992	19.996	103.059	20.225	3.227	0.505
184.500	161.535	79.991	19.998	103.058	20.228	3.067	0.513
185.000	161.741	79.993	19.996	103.060	20.223	3.416	0.529
185.500	162.030	79.991	19.996	103.062	20.224	3.358	0.509
186.000	162.276	79.991	19.996	103.062	20.228	3.059	0.515
186.500	162.510	79.992	19.996	103.064	20.225	3.256	0.507
187.000	162.758	79.990	19.996	103.065	20.227	3.145	0.481
187.500	163.020	79.991	19.997	103.062	20.224	3.330	0.496
188.000	163.267	79.992	19.996	103.061	20.225	3.246	0.509
188.500	163.541	79.992	19.997	103.062	20.222	3.458	0.515
189.000	163.772	79.993	19.996	103.059	20.229	2.943	0.513
189.500	164.077	79.993	19.996	103.053	20.224	3.348	0.521
190.000	164.310	79.991	19.995	103.051	20.223	3.410	0.537
190.500	164.555	79.992	19.996	103.046	20.224	3.300	0.508
191.000	164.808	79.993	19.995	103.039	20.224	3.336	0.488
191.500	165.079	79.992	19.996	103.036	20.224	3.360	0.511
192.000	165.349	79.992	19.997	103.039	20.225	3.238	0.533
192.500	165.564	79.993	19.996	103.041	20.221	3.537	0.513
193.000	165.885	79.991	19.996	103.044	20.226	3.220	0.510
193.500	166.144	79.992	19.995	103.051	20.227	3.124	0.558
194.000	166.399	79.991	19.996	103.058	20.228	3.045	0.547
194.500	166.610	79.992	19.998	103.060	20.226	3.174	0.490
195.000	166.899	79.992	19.997	103.058	20.228	3.057	0.483
195.500	167.117	79.990	19.995	103.055	20.224	3.346	0.504
196.000	167.395	79.992	19.996	103.051	20.225	3.274	0.501
196.500	167.689	79.992	19.996	103.049	20.226	3.194	0.534
197.000	167.899	79.990	19.997	103.048	20.225	3.272	0.538
197.500	168.136	79.992	19.996	103.048	20.221	3.567	0.475
198.000	168.370	79.991	19.995	103.050	20.225	3.238	0.459
198.500	168.670	79.991	19.996	103.050	20.226	3.196	0.502
199.000	168.909	79.990	19.996	103.045	20.225	3.282	0.536
199.500	169.144	79.992	19.995	103.044	20.223	3.398	0.507
200.000	169.424	79.993	19.997	103.044	20.221	3.523	0.495
200.500	169.672	79.992	19.996	103.042	20.221	3.537	0.522
201.000	169.926	79.992	19.996	103.042	20.224	3.318	0.515
201.500	170.217	79.991	19.996	103.046	20.221	3.513	0.523
202.000	170.438	79.992	19.997	103.045	20.219	3.680	0.528
202.500	170.677	79.993	19.996	103.043	20.223	3.427	0.486
203.000	170.921	79.992	19.996	103.043	20.221	3.557	0.471
203.500	171.158	79.994	19.997	103.043	20.222	3.449	0.482
204.000	171.448	79.994	19.995	103.038	20.222	3.441	0.504
204.500	171.697	79.992	19.996	103.036	20.218	3.774	0.533
205.000	171.928	79.993	19.996	103.033	20.222	3.445	0.510
205.500	172.206	79.994	19.996	103.034	20.219	3.673	0.495
206.000	172.402	79.993	19.998	103.035	20.223	3.413	0.491
206.500	172.667	79.992	19.997	103.034	20.217	3.808	0.467
207.000	172.923	79.993	19.997	103.034	20.220	3.627	0.491
207.500	173.198	79.992	19.996	103.035	20.220	3.637	0.526
208.000	173.451	79.993	19.997	103.032	20.223	3.414	0.530
208.500	173.662	79.993	19.996	103.030	20.224	3.312	0.496
209.000	173.937	79.992	19.996	103.032	20.221	3.531	0.474
209.500	174.188	79.992	19.997	103.032	20.220	3.603	0.506
210.000	174.406	79.993	19.997	103.031	20.226	3.214	0.498
210.500	174.657	79.994	19.996	103.031	20.226	3.166	0.469
211.000	174.949	79.991	19.997	103.029	20.222	3.479	0.506
211.500	175.124	79.993	19.996	103.026	20.226	3.190	0.505
212.000	175.389	79.992	19.996	103.025	20.221	3.561	0.453
212.500	175.624	79.993	19.998	103.025	20.222	3.499	0.470
213.000	175.897	79.992	19.997	103.025	20.225	3.272	0.504
213.500	176.157	79.991	19.996	103.026	20.222	3.449	0.521
214.000	176.369	79.991	19.996	103.026	20.223	3.417	0.503
214.500	176.617	79.991	19.996	103.027	20.226	3.164	0.466
215.000	176.863	79.990	19.995	103.027	20.225	3.292	0.477
215.500	177.098	79.992	19.996	103.027	20.223	3.393	0.487
216.000	177.343	79.991	19.997	103.027	20.222	3.443	0.480
216.500	177.578	79.992	19.997	103.028	20.223	3.435	0.480
217.000	177.835	79.991	19.996	103.029	20.224	3.328	0.486
217.500	178.087	79.993	19.996	103.030	20.227	3.106	0.500
218.000	178.342	79.992	19.996	103.031	20.223	3.380	0.508
218.500	178.584	79.991	19.996	103.032	20.221	3.529	0.502
219.000	178.849	79.992	19.996	103.032	20.223	3.431	0.502
219.500	179.085	79.991	19.995	103.032	20.223	3.425	0.504
220.000	179.328	79.992	19.996	103.031	20.223	3.431	0.490
220.500	179.560	79.993	19.996	103.030	20.222	3.487	0.477
221.000	179.796	79.993	19.995	103.030	20.223	3.417	0.472
221.500	180.046	79.993	19.994	103.030	20.224	3.350	0.477
222.000	180.307	79.993	19.996	103.030	20.224	3.318	0.498
222.500	180.524	79.993	19.996	103.031	20.223	3.397	0.494
223.000	180.817	79.993	19.995	103.031	20.224	3.310	0.494
223.500	181.025	79.993	19.995	103.031	20.224	3.346	0.505
224.000	181.258	79.994	19.996	103.031	20.224	3.344	0.471
224.500	181.554	79.995	19.996	103.031	20.222	3.495	0.485
225.000	181.782	79.993	19.996	103.031	20.227	3.088	0.526
225.500	182.009	79.994	19.995	103.031	20.222	3.509	0.490
226.000	182.301	79.995	19.995	103.031	20.226	3.152	0.487
226.500	182.525	79.994	19.995	103.030	20.221	3.559	0.518
227.000	182.741	79.994	19.994	103.030	20.219	3.694	0.478
227.500	183.055	79.994	19.995	103.030	20.224	3.342	0.485
228.000	183.273	79.993	19.995	103.030	20.225	3.242	0.531
228.500	183.498	79.994	19.996	103.029	20.224	3.332	0.487
229.000	183.767	79.995	19.994	103.031	20.220	3.611	0.468
229.500	183.950	79.994	19.996	103.032	20.218	3.798	0.473
230.000	184.224	79.995	19.996	103.032	20.224	3.360	0.455
230.500	184.433	79.993	19.995	103.031	20.224	3.358	0.470
231.000	184.669	79.995	19.995	103.029	20.219	3.716	0.464
231.500	184.917	79.994	19.996	103.027	20.223	3.383	0.464
232.000	185.201	79.994	19.995	103.027	20.222	3.503	0.508
232.500	185.470	79.994	19.995	103.027	20.220	3.615	0.543
233.000	185.684	79.995	19.995	103.028	20.220	3.639	0.518
233.500	185.968	79.994	19.994	103.031	20.219	3.679	0.491
234.000	186.217	79.994	19.994	103.031	20.220	3.639	0.516
234.500	186.448	79.994	19.995	103.030	20.219	3.674	0.507
235.000	186.689	79.993	19.995	103.031	20.221	3.559	0.476
235.500	186.935	79.993	19.995	103.030	20.216	3.918	0.479
236.000	187.208	79.992	19.996	103.030	20.221	3.561	0.503
236.500	187.464	79.993	19.995	103.031	20.218	3.784	0.524
237.000	187.666	79.994	19.996	103.030	20.221	3.572	0.493
237.500	187.891	79.994	19.996	103.029	20.223	3.403	0.443
238.000	188.121	79.992	19.995	103.028	20.218	3.736	0.442
238.500	188.389	79.991	19.997	103.027	20.218	3.754	0.477
239.000	188.627	79.993	19.996	103.027	20.215	4.009	0.502
239.500	188.867	79.990	19.996	103.029	20.217	3.830	0.492
240.000	189.106	79.990	19.995	103.031	20.221	3.543	0.478
240.500	189.353	79.991	19.994	103.031	20.218	3.792	0.483
241.000	189.587	79.991	19.995	103.032	20.218	3.796	0.483
241.500	189.812	79.993	19.996	103.031	20.214	4.063	0.470
242.000	190.070	79.992	19.996	103.027	20.217	3.834	0.471
242.500	190.366	79.992	19.996	103.027	20.219	3.696	0.518
243.000	190.558	79.993	19.996	103.027	20.219	3.700	0.521
243.500	190.814	79.992	19.995	103.027	20.219	3.726	0.468
244.000	191.036	79.992	19.995	103.028	20.219	3.690	0.463
244.500	191.301	79.991	19.996	103.031	20.220	3.587	0.483
245.000	191.498	79.992	19.995	103.028	20.220	3.620	0.474
245.500	191.736	79.992	19.996	103.025	20.220	3.636	0.448
246.000	192.010	79.991	19.996	103.023	20.221	3.577	0.473
246.500	192.226	79.992	19.996	103.023	20.221	3.515	0.501
247.000	192.429	79.992	19.996	103.018	20.218	3.774	0.455
247.500	192.702	79.993	19.996	103.016	20.219	3.688	0.448
248.000	192.931	79.992	19.996	103.017	20.217	3.852	0.489
248.500	193.163	79.991	19.995	103.016	20.221	3.531	0.482
249.000	193.364	79.991	19.994	103.014	20.219	3.722	0.447
249.500	193.635	79.992	19.995	103.018	20.219	3.708	0.453
250.000	193.855	79.993	19.995	103.022	20.213	4.126	0.482
250.500	194.098	79.992	19.996	103.021	20.219	3.677	0.477
251.000	194.356	79.993	19.996	103.024	20.221	3.522	0.482
251.500	194.574	79.993	19.996	103.024	20.220	3.654	0.489
252.000	194.834	79.995	19.996	103.025	20.220	3.586	0.476
252.500	195.074	79.993	19.996	103.026	20.222	3.453	0.489
253.000	195.266	79.993	19.995	103.027	20.219	3.688	0.466
253.500	195.503	79.993	19.995	103.027	20.219	3.706	0.430
254.000	195.728	79.992	19.995	103.028	20.218	3.795	0.445
254.500	195.994	79.991	19.995	103.028	20.217	3.803	0.477
255.000	196.208	79.992	19.995	103.027	20.220	3.604	0.486
255.500	196.450	79.992	19.994	103.023	20.214	4.023	0.468
256.000	196.678	79.994	19.995	103.022	20.216	3.935	0.463
256.500	196.916	79.990	19.994	103.021	20.220	3.650	0.468
257.000	197.169	79.993	19.995	103.021	20.218	3.778	0.478
257.500	197.410	79.993	19.995	103.021	20.218	3.734	0.492
258.000	197.650	79.993	19.996	103.023	20.212	4.195	0.487
258.500	197.862	79.994	19.995	103.019	20.214	4.059	0.466
259.000	198.092	79.992	19.997	103.020	20.216	3.914	0.447
259.500	198.374	79.992	19.995	103.016	20.214	4.059	0.477
260.000	198.578	79.994	19.997	103.010	20.218	3.798	0.499
260.500	198.829	79.992	19.995	103.006	20.216	3.935	0.470
261.000	199.018	79.993	19.996	103.005	20.220	3.612	0.447
261.500	199.283	79.994	19.995	102.998	20.215	3.979	0.447
262.000	199.522	79.992	19.996	102.999	20.216	3.891	0.479
262.500	199.749	79.992	19.995	103.004	20.219	3.692	0.485
263.000	199.995	79.993	19.995	103.007	20.216	3.922	0.470
263.500	200.184	79.994	19.995	103.008	20.217	3.812	0.454
264.000	200.435	79.992	19.994	103.012	20.217	3.842	0.437
264.500	200.656	79.993	19.996	103.007	20.214	4.079	0.456
265.000	200.896	79.991	19.996	103.004	20.214	4.081	0.466
265.500	201.135	79.992	19.996	103.004	20.219	3.700	0.470
266.000	201.344	79.992	19.996	103.008	20.217	3.842	0.464
266.500	201.587	79.993	19.996	103.007	20.216	3.876	0.450
267.000	201.821	79.992	19.996	103.016	20.215	3.959	0.465
267.500	202.033	79.994	19.996	103.020	20.215	3.974	0.462
268.000	202.280	79.992	19.996	103.023	20.214	4.087	0.453
268.500	202.523	79.991	19.996	103.022	20.217	3.820	0.474
269.000	202.725	79.993	19.997	103.026	20.215	4.017	0.467
269.500	202.956	79.992	19.997	103.024	20.217	3.834	0.439
270.000	203.155	79.992	19.998	103.023	20.217	3.850	0.432
270.500	203.387	79.992	19.997	103.023	20.218	3.740	0.430
271.000	203.616	79.991	19.996	103.020	20.218	3.740	0.446
271.500	203.873	79.992	19.996	103.013	20.220	3.645	0.474
272.000	204.081	79.991	19.997	103.011	20.222	3.455	0.475
272.500	204.305	79.991	19.997	103.013	20.218	3.762	0.448
273.000	204.538	79.992	19.997	103.013	20.215	3.970	0.445
273.500	204.771	79.991	19.996	103.018	20.215	3.995	0.462
274.000	204.953	79.992	19.997	103.026	20.209	4.408	0.440
274.500	205.206	79.991	19.997	103.027	20.218	3.730	0.425
275.000	205.479	79.992	19.995	103.026	20.217	3.826	0.481
275.500	205.685	79.991	19.997	103.025	20.215	4.009	0.503
276.000	205.933	79.991	19.997	103.021	20.216	3.898	0.466
276.500	206.184	79.992	19.997	103.020	20.215	3.974	0.476
277.000	206.387	79.991	19.997	103.021	20.215	3.990	0.477
277.500	206.660	79.993	19.996	103.022	20.218	3.794	0.465
278.000	206.851	79.992	19.996	103.024	20.215	3.950	0.470
278.500	207.105	79.992	19.996	103.026	20.210	4.374	0.454
279.000	207.339	79.990	19.996	103.025	20.214	4.091	0.466
279.500	207.599	79.991	19.995	103.024	20.214	4.053	0.491
280.000	207.786	79.992	19.996	103.024	20.210	4.362	0.470
280.500	208.041	79.992	19.996	103.024	20.209	4.382	0.444
281.000	208.278	79.991	19.995	103.024	20.211	4.243	0.467
281.500	208.535	79.992	19.995	103.025	20.208	4.504	0.493
282.000	208.787	79.991	19.994	103.025	20.210	4.327	0.502
282.500	209.011	79.993	19.995	103.024	20.209	4.440	0.492
283.000	209.248	79.991	19.996	103.025	20.212	4.221	0.468
283.500	209.492	79.993	19.995	103.027	20.209	4.410	0.471
284.000	209.747	79.994	19.997	103.027	20.211	4.283	0.490
284.500	209.978	79.993	19.996	103.027	20.211	4.307	0.493
285.000	210.216	79.994	19.997	103.026	20.211	4.285	0.477
285.500	210.448	79.993	19.996	103.026	20.209	4.392	0.469
286.000	210.666	79.994	19.996	103.026	20.211	4.272	0.460
286.500	210.891	79.994	19.996	103.028	20.212	4.225	0.447
287.000	211.127	79.993	19.996	103.028	20.208	4.470	0.452
287.500	211.357	79.994	19.997	103.031	20.209	4.430	0.463
288.000	211.601	79.992	19.997	103.031	20.213	4.147	0.470
288.500	211.844	79.993	19.997	103.029	20.210	4.362	0.480
289.000	212.063	79.993	19.997	103.028	20.215	4.002	0.475
289.500	212.319	79.992	19.996	103.026	20.217	3.864	0.469
290.000	212.566	79.994	19.996	103.026	20.209	4.422	0.489
290.500	212.772	79.993	19.995	103.026	20.209	4.452	0.478
291.000	213.053	79.992	19.997	103.027	20.210	4.364	0.470
291.500	213.281	79.993	19.997	103.027	20.208	4.518	0.497
292.000	213.514	79.993	19.996	103.030	20.209	4.414	0.485
292.500	213.715	79.991	19.996	103.030	20.215	3.950	0.448
293.000	214.000	79.993	19.996	103.030	20.210	4.374	0.460
293.500	214.226	79.992	19.997	103.030	20.212	4.213	0.498
294.000	214.454	79.992	19.995	103.031	20.212	4.189	0.482
294.500	214.709	79.991	19.996	103.030	20.206	4.608	0.468
295.000	214.922	79.991	19.996	103.030	20.209	4.390	0.476
295.500	215.191	79.992	19.996	103.031	20.208	4.500	0.475
296.000	215.434	79.992	19.996	103.028	20.209	4.392	0.497
296.500	215.672	79.992	19.996	103.025	20.212	4.229	0.497
297.000	215.895	79.992	19.996	103.023	20.208	4.464	0.471
297.500	216.126	79.993	19.996	103.023	20.209	4.414	0.457
298.000	216.377	79.990	19.996	103.022	20.212	4.233	0.468
298.500	216.614	79.990	19.996	103.024	20.206	4.607	0.485
299.000	216.889	79.993	19.997	103.027	20.211	4.268	0.500
299.500	217.100	79.990	19.997	103.029	20.207	4.548	0.499
300.000	217.389	79.991	19.996	103.029	20.212	4.223	0.493
300.500	217.620	79.991	19.997	103.029	20.209	4.424	0.510
301.000	217.862	79.991	19.996	103.028	20.213	4.121	0.497
301.500	218.085	79.991	19.997	103.028	20.210	4.326	0.469
302.000	218.328	79.991	19.997	103.028	20.210	4.376	0.465
302.500	218.583	79.991	19.996	103.028	20.208	4.458	0.482
303.000	218.850	79.991	19.996	103.029	20.211	4.272	0.511
303.500	219.109	79.991	19.997	103.030	20.210	4.354	0.524
304.000	219.325	79.991	19.996	103.031	20.213	4.119	0.501
304.500	219.535	79.991	19.995	103.029	20.212	4.207	0.451
305.000	219.825	79.991	19.996	103.029	20.210	4.336	0.463
305.500	220.020	79.991	19.995	103.029	20.212	4.199	0.493
306.000	220.280	79.993	19.996	103.029	20.208	4.478	0.470
306.500	220.517	79.993	19.996	103.029	20.210	4.350	0.475
307.000	220.795	79.994	19.996	103.030	20.205	4.707	0.506
307.500	221.018	79.993	19.995	103.030	20.210	4.324	0.508
308.000	221.287	79.994	19.996	103.029	20.208	4.520	0.496
308.500	221.489	79.994	19.996	103.028	20.210	4.378	0.481
309.000	221.779	79.993	19.996	103.028	20.208	4.524	0.482
309.500	222.000	79.993	19.995	103.025	20.211	4.275	0.502
310.000	222.280	79.995	19.996	103.022	20.211	4.247	0.506
310.500	222.509	79.994	19.996	103.022	20.212	4.229	0.505
311.000	222.756	79.995	19.996	103.021	20.212	4.219	0.492
311.500	222.989	79.996	19.995	103.021	20.210	4.352	0.478
312.000	223.258	79.995	19.994	103.022	20.208	4.514	0.491
312.500	223.504	79.994	19.995	103.022	20.205	4.673	0.509
313.000	223.782	79.994	19.994	103.021	20.208	4.516	0.520
313.500	224.025	79.995	19.995	103.021	20.202	4.939	0.523
314.000	224.236	79.994	19.996	103.017	20.203	4.879	0.487
314.500	224.487	79.994	19.995	103.017	20.207	4.530	0.458
315.000	224.730	79.993	19.996	103.019	20.206	4.620	0.478
315.500	225.014	79.993	19.994	103.020	20.211	4.241	0.510
316.000	225.252	79.994	19.993	103.021	20.203	4.821	0.524
316.500	225.473	79.991	19.994	103.025	20.205	4.713	0.491
317.000	225.747	79.994	19.995	103.026	20.202	4.929	0.477
317.500	226.005	79.993	19.994	103.026	20.205	4.697	0.514
318.000	226.304	79.992	19.996	103.026	20.211	4.272	0.544
318.500	226.507	79.992	19.994	103.026	20.202	4.952	0.529
319.000	226.775	79.990	19.994	103.026	20.201	4.966	0.487
319.500	227.032	79.992	19.996	103.027	20.207	4.595	0.498
320.000	227.246	79.992	19.995	103.027	20.203	4.882	0.498
320.500	227.474	79.992	19.996	103.027	20.201	4.984	0.456
321.000	227.753	79.992	19.996	103.027	20.203	4.853	0.474
321.500	228.002	79.992	19.995	103.026	20.205	4.673	0.518
322.000	228.234	79.992	19.996	103.026	20.203	4.875	0.504
322.500	228.534	79.992	19.997	103.026	20.210	4.378	0.506
323.000	228.794	79.992	19.996	103.025	20.204	4.769	0.546
323.500	229.021	79.993	19.996	103.025	20.203	4.888	0.524
324.000	229.285	79.992	19.996	103.026	20.204	4.781	0.489
324.500	229.567	79.992	19.996	103.027	20.206	4.665	0.518
325.000	229.805	79.992	19.995	103.027	20.207	4.539	0.532
325.500	230.032	79.991	19.996	103.028	20.209	4.394	0.492
326.000	230.293	79.992	19.996	103.029	20.202	4.935	0.477
326.500	230.575	79.991	19.995	103.029	20.205	4.681	0.516
327.000	230.797	79.992	19.994	103.028	20.209	4.406	0.524
327.500	231.037	79.992	19.995	103.027	20.206	4.650	0.483
328.000	231.281	79.993	19.994	103.027	20.206	4.608	0.473
328.500	231.511	79.992	19.997	103.026	20.204	4.751	0.479
329.000	231.750	79.991	19.995	103.023	20.206	4.618	0.472
329.500	232.018	79.993	19.996	103.019	20.202	4.925	0.488
330.000	232.280	79.992	19.995	103.014	20.209	4.398	0.519
330.500	232.531	79.992	19.996	103.012	20.202	4.900	0.522
331.000	232.784	79.992	19.996	103.013	20.199	5.169	0.508
331.500	233.048	79.991	19.995	103.016	20.203	4.886	0.510
332.000	233.261	79.993	19.997	103.021	20.201	5.016	0.497
332.500	233.509	79.992	19.995	103.026	20.199	5.171	0.469
333.000	233.759	79.992	19.997	103.028	20.203	4.878	0.480
333.500	234.037	79.992	19.997	103.027	20.200	5.102	0.513
334.000	234.265	79.991	19.995	103.024	20.200	5.080	0.517
334.500	234.496	79.992	19.995	103.019	20.202	4.933	0.483
335.000	234.776	79.993	19.995	103.018	20.199	5.114	0.484
335.500	235.046	79.992	19.996	103.018	20.200	5.044	0.530
336.000	235.285	79.992	19.996	103.019	20.198	5.213	0.530
336.500	235.560	79.993	19.996	103.021	20.195	5.424	0.512
337.000	235.786	79.992	19.996	103.027	20.196	5.392	0.508
337.500	236.042	79.992	19.996	103.028	20.196	5.353	0.491
338.000	236.253	79.993	19.996	103.028	20.196	5.377	0.474
338.500	236.545	79.993	19.996	103.029	20.198	5.188	0.485
339.000	236.791	79.992	19.996	103.029	20.200	5.102	0.520
339.500	237.087	79.992	19.996	103.029	20.194	5.491	0.540
340.000	237.339	79.992	19.995	103.028	20.197	5.292	0.545
340.500	237.595	79.991	19.994	103.026	20.196	5.343	0.528
341.000	237.846	79.994	19.996	103.025	20.196	5.387	0.508
341.500	238.115	79.991	19.996	103.022	20.201	4.984	0.514
342.000	238.367	79.990	19.995	103.016	20.195	5.409	0.521
342.500	238.590	79.991	19.994	103.012	20.196	5.381	0.498
343.000	238.851	79.993	19.996	103.014	20.193	5.585	0.479
343.500	239.111	79.991	19.994	103.016	20.197	5.262	0.502
344.000	239.327	79.991	19.995	103.019	20.194	5.509	0.499
344.500	239.573	79.992	19.994	103.024	20.201	4.966	0.469
345.000	239.856	79.992	19.994	103.029	20.196	5.367	0.496
345.500	240.071	79.992	19.996	103.029	20.195	5.453	0.513
346.000	240.341	79.992	19.995	103.024	20.198	5.231	0.491
346.500	240.577	79.990	19.994	103.017	20.192	5.618	0.496
347.000	240.836	79.992	19.995	103.014	20.196	5.391	0.500
347.500	241.057	79.992	19.995	103.012	20.192	5.658	0.488
348.000	241.298	79.992	19.996	103.012	20.195	5.457	0.471
348.500	241.549	79.992	19.995	103.014	20.196	5.365	0.477
349.000	241.795	79.992	19.995	103.021	20.195	5.419	0.495
349.500	242.093	79.993	19.997	103.023	20.194	5.535	0.521
350.000	242.345	79.991	19.995	103.026	20.195	5.427	0.547
350.500	242.568	79.992	19.995	103.026	20.188	5.969	0.513
351.000	242.840	79.991	19.995	103.028	20.186	6.120	0.485
351.500	243.121	79.992	19.996	103.028	20.193	5.598	0.524
352.000	243.366	79.991	19.996	103.028	20.191	5.758	0.540
352.500	243.621	79.991	19.996	103.027	20.190	5.792	0.513
353.000	243.899	79.992	19.995	103.026	20.190	5.768	0.517
353.500	244.143	79.990	19.995	103.025	20.195	5.433	0.527
354.000	244.391	79.990	19.995	103.026	20.193	5.613	0.507
354.500	244.627	79.991	19.996	103.027	20.187	5.993	0.488
355.000	244.883	79.992	19.997	103.028	20.190	5.790	0.488
355.500	245.136	79.991	19.995	103.027	20.185	6.131	0.500
356.000	245.387	79.992	19.995	103.027	20.185	6.156	0.507
356.500	245.644	79.992	19.997	103.027	20.184	6.196	0.506
357.000	245.901	79.990	19.995	103.023	20.180	6.503	0.511
357.500	246.149	79.990	19.995	103.022	20.184	6.204	0.509
358.000	246.411	79.992	19.996	103.024	20.184	6.200	0.507
358.500	246.679	79.992	19.996	103.025	20.178	6.688	0.520
359.000	246.901	79.992	19.996	103.025	20.179	6.597	0.510
359.500	247.163	79.992	19.997	103.029	20.177	6.715	0.487
360.000	247.401	79.992	19.996	103.031	20.178	6.691	0.492
360.500	247.651	79.993	19.997	103.028	20.178	6.659	0.494
361.000	247.927	79.992	19.997	103.020	20.184	6.236	0.507
361.500	248.156	79.992	19.995	103.016	20.179	6.591	0.516
362.000	248.428	79.991	19.995	103.016	20.173	7.054	0.503
362.500	248.681	79.993	19.997	103.016	20.183	6.308	0.513
363.000	248.908	79.992	19.997	103.019	20.177	6.733	0.503
363.500	249.174	79.993	19.995	103.025	20.173	7.037	0.486
364.000	249.451	79.991	19.995	103.029	20.171	7.201	0.518
364.500	249.737	79.992	19.994	103.029	20.175	6.884	0.553
365.000	249.956	79.991	19.995	103.028	20.167	7.488	0.534
365.500	250.226	79.993	19.997	103.027	20.169	7.291	0.497
366.000	250.484	79.993	19.996	103.025	20.171	7.187	0.508
366.500	250.756	79.993	19.995	103.023	20.168	7.387	0.529
367.000	251.016	79.993	19.996	103.021	20.163	7.759	0.531
367.500	251.263	79.992	19.997	103.015	20.163	7.757	0.520
368.000	251.488	79.992	19.995	103.011	20.159	8.052	0.489
368.500	251.774	79.992	19.995	103.012	20.161	7.899	0.492
369.000	252.049	79.994	19.995	103.014	20.162	7.823	0.536
369.500	252.268	79.993	19.995	103.016	20.157	8.172	0.527
370.000	252.506	79.992	19.996	103.023	20.163	7.779	0.475
370.500	252.782	79.992	19.996	103.028	20.157	8.194	0.486
371.000	252.999	79.993	19.997	103.027	20.164	7.699	0.503
371.500	253.272	79.993	19.994	103.027	20.157	8.218	0.491
372.000	253.505	79.994	19.996	103.026	20.156	8.244	0.498
372.500	253.729	79.994	19.996	103.026	20.153	8.477	0.481
373.000	253.987	79.993	19.996	103.027	20.155	8.321	0.469
373.500	254.207	79.994	19.997	103.028	20.149	8.735	0.481
374.000	254.452	79.992	19.996	103.022	20.149	8.745	0.471
374.500	254.734	79.990	19.994	103.019	20.145	9.032	0.496
375.000	254.960	79.993	19.997	103.017	20.144	9.136	0.517
375.500	255.245	79.992	19.996	103.017	20.146	9.017	0.510
376.000	255.510	79.992	19.995	103.018	20.141	9.364	0.530
376.500	255.763	79.992	19.996	103.023	20.147	8.928	0.534
377.000	256.000	79.992	19.997	103.025	20.144	9.169	0.504
377.500	256.232	79.990	19.996	103.024	20.138	9.543	0.480
378.000	256.495	79.992	19.997	103.022	20.138	9.590	0.482
378.500	256.731	79.992	19.996	103.021	20.136	9.682	0.496
379.000	257.007	79.992	19.997	103.022	20.136	9.710	0.505
379.500	257.244	79.991	19.996	103.020	20.139	9.513	0.513
380.000	257.514	79.993	19.998	103.019	20.139	9.465	0.510
380.500	257.741	79.992	19.996	103.021	20.133	9.924	0.502
381.000	257.998	79.992	19.996	103.022	20.129	10.245	0.491
381.500	258.236	79.992	19.997	103.018	20.127	10.395	0.489
382.000	258.531	79.992	19.997	103.021	20.129	10.253	0.514
382.500	258.732	79.991	19.996	103.023	20.130	10.128	0.515
383.000	259.000	79.992	19.997	103.023	20.128	10.289	0.482
383.500	259.250	79.991	19.997	103.022	20.127	10.337	0.493
384.000	259.510	79.993	19.996	103.017	20.125	10.491	0.515
384.500	259.781	79.993	19.997	103.013	20.119	10.918	0.521
385.000	259.980	79.993	19.997	103.011	20.116	11.187	0.500
385.500	260.254	79.992	19.995	103.012	20.114	11.310	0.471
386.000	260.475	79.993	19.996	103.012	20.118	10.999	0.484
386.500	260.726	79.991	19.994	103.020	20.108	11.736	0.484
387.000	260.949	79.994	19.997	103.022	20.111	11.531	0.473
387.500	261.204	79.992	19.996	103.022	20.107	11.812	0.476
388.000	261.453	79.992	19.995	103.018	20.107	11.802	0.491
388.500	261.692	79.991	19.995	103.014	20.102	12.194	0.496
389.000	261.933	79.992	19.995	103.010	20.108	11.769	0.484
389.500	262.179	79.993	19.997	103.010	20.100	12.307	0.483
390.000	262.455	79.993	19.995	103.009	20.100	12.321	0.504
390.500	262.671	79.993	19.996	103.010	20.097	12.526	0.507
391.000	262.924	79.992	19.996	103.013	20.091	12.956	0.480
391.500	263.133	79.994	19.996	103.017	20.094	12.729	0.465
392.000	263.397	79.993	19.996	103.018	20.096	12.608	0.467
392.500	263.652	79.992	19.996	103.019	20.092	12.895	0.496
393.000	263.933	79.994	19.996	103.021	20.088	13.210	0.528
393.500	264.137	79.993	19.995	103.021	20.088	13.185	0.511
394.000	264.396	79.993	19.997	103.021	20.088	13.195	0.474
394.500	264.644	79.993	19.997	103.023	20.087	13.290	0.485
395.000	264.868	79.991	19.997	103.024	20.089	13.149	0.490
395.500	265.121	79.992	19.996	103.024	20.082	13.629	0.474
396.000	265.355	79.992	19.997	103.025	20.079	13.858	0.481
396.500	265.622	79.992	19.997	103.021	20.078	13.924	0.494
397.000	265.887	79.992	19.997	103.018	20.076	14.070	0.517
397.500	266.124	79.994	19.997	103.016	20.071	14.410	0.517
398.000	266.349	79.992	19.996	103.016	20.071	14.400	0.482
398.500	266.591	79.992	19.997	103.016	20.071	14.430	0.464
399.000	266.847	79.992	19.996	103.021	20.068	14.645	0.482
399.500	267.081	79.991	19.996	103.024	20.057	15.476	0.494
400.000	267.339	79.993	19.997	103.026	20.059	15.275	0.491
400.500	267.590	79.991	19.996	103.026	20.064	14.954	0.501
401.000	267.815	79.991	19.996	103.022	20.058	15.384	0.493
401.500	268.088	79.991	19.996	103.019	20.052	15.798	0.487
402.000	268.327	79.991	19.996	103.018	20.049	16.055	0.505
402.500	268.564	79.993	19.997	103.018	20.059	15.328	0.494
403.000	268.794	79.991	19.996	103.019	20.049	16.002	0.471
403.500	269.067	79.991	19.995	103.024	20.054	15.651	0.485
404.000	269.289	79.991	19.996	103.025	20.040	16.669	0.499
404.500	269.538	79.991	19.994	103.026	20.041	16.572	0.483
405.000	269.801	79.991	19.996	103.026	20.036	16.945	0.492
405.500	270.029	79.991	19.994	103.025	20.035	17.061	0.501
406.000	270.303	79.993	19.996	103.024	20.035	17.029	0.497
406.500	270.529	79.990	19.996	103.025	20.031	17.312	0.501
407.000	270.780	79.991	19.995	103.025	20.031	17.346	0.489
407.500	271.020	79.991	19.995	103.026	20.030	17.372	0.484
408.000	271.268	79.992	19.997	103.027	20.020	18.098	0.489
408.500	271.561	79.991	19.996	103.033	20.023	17.922	0.514
409.000	271.768	79.992	19.995	103.035	20.020	18.104	0.521
409.500	272.010	79.990	19.995	103.036	20.020	18.130	0.475
410.000	272.309	79.991	19.994	103.031	20.010	18.843	0.495
410.500	272.523	79.992	19.997	103.028	20.012	18.724	0.527
411.000	272.744	79.990	19.995	103.019	20.013	18.604	0.474
411.500	273.001	79.991	19.996	103.016	20.009	18.955	0.457
412.000	273.271	79.991	19.996	103.016	20.009	18.949	0.503
412.500	273.489	79.992	19.996	103.023	20.008	18.981	0.507
413.000	273.754	79.991	19.995	103.023	20.001	19.532	0.485
413.500	273.965	79.989	19.994	103.024	19.995	19.914	0.480
414.000	274.217	79.991	19.995	103.026	20.000	19.605	0.469
414.500	274.456	79.992	19.995	103.025	19.995	19.916	0.477
415.000	274.703	79.991	19.997	103.024	19.994	20.034	0.489
415.500	274.906	79.992	19.996	103.026	19.990	20.343	0.468
416.000	275.160	79.991	19.996	103.029	19.986	20.574	0.453
416.500	275.410	79.990	19.996	103.030	19.986	20.596	0.481
417.000	275.727	79.990	19.995	103.030	19.983	20.782	0.535
417.500	275.920	79.990	19.995	103.030	19.979	21.119	0.538
418.000	276.182	79.991	19.995	103.030	19.972	21.619	0.482
418.500	276.383	79.991	19.996	103.029	19.973	21.569	0.459
419.000	276.589	79.991	19.996	103.029	19.962	22.325	0.435
419.500	276.849	79.992	19.995	103.028	19.968	21.918	0.436
420.000	277.082	79.993	19.996	103.028	19.962	22.319	0.480
420.500	277.362	79.992	19.996	103.028	19.966	22.044	0.503
421.000	277.608	79.991	19.997	103.029	19.957	22.739	0.520
421.500	277.816	79.991	19.995	103.029	19.955	22.880	0.490
422.000	278.064	79.991	19.996	103.030	19.950	23.244	0.455
422.500	278.284	79.992	19.996	103.030	19.955	22.868	0.462
423.000	278.555	79.990	19.996	103.030	19.948	23.337	0.480
423.500	278.839	79.990	19.995	103.030	19.946	23.520	0.523
424.000	279.059	79.990	19.994	103.031	19.948	23.385	0.530
424.500	279.301	79.992	19.997	103.031	19.938	24.117	0.483
425.000	279.570	79.991	19.997	103.030	19.936	24.218	0.487
425.500	279.821	79.990	19.996	103.031	19.939	24.042	0.516
426.000	280.023	79.991	19.995	103.029	19.933	24.464	0.487
426.500	280.269	79.993	19.997	103.028	19.934	24.362	0.450
427.000	280.511	79.990	19.996	103.029	19.936	24.200	0.468
427.500	280.736	79.991	19.995	103.030	19.926	24.945	0.477
428.000	281.001	79.991	19.995	103.029	19.927	24.857	0.479
428.500	281.247	79.990	19.995	103.031	19.924	25.130	0.501
429.000	281.494	79.992	19.996	103.032	19.920	25.404	0.502
429.500	281.711	79.991	19.996	103.030	19.914	25.804	0.478
430.000	281.925	79.990	19.995	103.031	19.913	25.878	0.448
430.500	282.160	79.990	19.995	103.031	19.907	26.327	0.440
431.000	282.467	79.991	19.994	103.038	19.904	26.562	0.495
431.500	282.676	79.991	19.996	103.039	19.891	27.462	0.529
432.000	282.942	79.991	19.995	103.044	19.895	27.234	0.496
432.500	283.165	79.990	19.996	103.052	19.891	27.480	0.482
433.000	283.374	79.991	19.995	103.058	19.884	27.973	0.460
433.500	283.639	79.991	19.995	103.053	19.884	27.987	0.453
434.000	283.857	79.989	19.995	103.053	19.881	28.218	0.479
434.500	284.099	79.992	19.996	103.050	19.881	28.184	0.472
435.000	284.325	79.990	19.995	103.046	19.878	28.471	0.464
435.500	284.594	79.991	19.995	103.039	19.879	28.394	0.482
436.000	284.838	79.989	19.994	103.034	19.874	28.722	0.504
436.500	285.057	79.993	19.997	103.032	19.874	28.751	0.488
437.000	285.312	79.990	19.995	103.029	19.867	29.236	0.468
437.500	285.571	79.990	19.995	103.020	19.869	29.118	0.494
438.000	285.807	79.992	19.997	103.016	19.873	28.805	0.505
438.500	286.062	79.990	19.996	103.016	19.865	29.349	0.493
439.000	286.302	79.989	19.995	103.015	19.872	28.902	0.494
439.500	286.505	79.993	19.996	103.014	19.864	29.460	0.469
440.000	286.808	79.991	19.997	103.018	19.868	29.153	0.474
440.500	287.026	79.991	19.996	103.021	19.867	29.268	0.514
441.000	287.327	79.993	19.997	103.025	19.871	28.930	0.520
441.500	287.528	79.992	19.995	103.031	19.866	29.274	0.510
442.000	287.762	79.991	19.995	103.038	19.864	29.419	0.469
442.500	288.011	79.992	19.996	103.040	19.855	30.099	0.459
443.000	288.274	79.993	19.995	103.040	19.865	29.361	0.497
443.500	288.532	79.990	19.994	103.040	19.861	29.680	0.516
444.000	288.806	79.992	19.995	103.035	19.860	29.764	0.527
444.500	288.993	79.993	19.995	103.030	19.858	29.857	0.496
445.000	289.242	79.992	19.995	103.029	19.856	30.040	0.449
445.500	289.476	79.993	19.996	103.029	19.853	30.283	0.460
446.000	289.738	79.991	19.995	103.028	19.849	30.537	0.489
446.500	289.964	79.994	19.996	103.028	19.859	29.803	0.492
447.000	290.189	79.993	19.996	103.028	19.852	30.329	0.470
447.500	290.445	79.992	19.995	103.024	19.857	29.937	0.466
448.000	290.729	79.993	19.995	103.023	19.854	30.163	0.510
448.500	290.985	79.992	19.995	103.023	19.853	30.210	0.541
449.000	291.230	79.992	19.996	103.023	19.854	30.184	0.521
449.500	291.467	79.992	19.996	103.022	19.855	30.098	0.491
450.000	291.724	79.992	19.995	103.027	19.853	30.229	0.488
450.500	291.972	79.992	19.997	103.027	19.854	30.195	0.499
451.000	292.228	79.992	19.996	103.028	19.851	30.417	0.505
451.500	292.477	79.994	19.996	103.027	19.855	30.100	0.505
452.000	292.729	79.993	19.995	103.028	19.850	30.476	0.503
452.500	293.000	79.991	19.994	103.027	19.858	29.864	0.512
453.000	293.202	79.992	19.996	103.022	19.856	30.010	0.498
453.500	293.454	79.991	19.996	103.017	19.853	30.207	0.463
454.000	293.742	79.992	19.997	103.017	19.851	30.415	0.497
454.500	293.944	79.991	19.996	103.014	19.861	29.682	0.515
455.000	294.161	79.992	19.998	103.010	19.855	30.097	0.455
455.500	294.456	79.991	19.997	103.014	19.847	30.710	0.466
456.000	294.706	79.993	19.998	103.018	19.854	30.164	0.528
456.500	294.906	79.990	19.996	103.020	19.854	30.154	0.497
457.000	295.229	79.992	19.997	103.022	19.860	29.702	0.487
457.500	295.472	79.990	19.996	103.027	19.851	30.400	0.545
458.000	295.718	79.991	19.996	103.028	19.859	29.773	0.527
458.500	295.935	79.990	19.995	103.023	19.855	30.084	0.476
459.000	296.156	79.992	19.996	103.016	19.860	29.727	0.451
459.500	296.418	79.991	19.996	103.015	19.853	30.211	0.461
460.000	296.654	79.992	19.995	103.015	19.856	30.050	0.490
460.500	296.888	79.992	19.996	103.014	19.856	30.040	0.484
461.000	297.154	79.992	19.996	103.017	19.854	30.161	0.485
461.500	297.369	79.992	19.996	103.020	19.857	29.936	0.491
462.000	297.668	79.992	19.997	103.014	19.855	30.072	0.498
462.500	297.910	79.992	19.996	103.008	19.857	29.934	0.527
463.000	298.128	79.993	19.996	103.006	19.858	29.913	0.501
463.500	298.363	79.993	19.997	103.005	19.867	29.252	0.456
464.000	298.654	79.993	19.995	103.005	19.864	29.460	0.489
464.500	298.866	79.993	19.996	103.005	19.870	28.984	0.515
465.000	299.113	79.993	19.996	103.009	19.865	29.358	0.481
465.500	299.353	79.994	19.996	103.011	19.864	29.473	0.473
466.000	299.618	79.992	19.996	103.011	19.868	29.127	0.496
466.500	299.861	79.994	19.996	103.007	19.867	29.213	0.506
467.000	300.129	79.994	19.996	103.008	19.868	29.144	0.510
467.500	300.310	79.994	19.996	103.007	19.874	28.740	0.480
468.000	300.624	79.993	19.997	103.002	19.875	28.677	0.472
468.500	300.861	79.994	19.996	103.002	19.872	28.835	0.523
469.000	301.100	79.994	19.996	103.007	19.871	28.955	0.513
469.500	301.326	79.993	19.995	103.013	19.874	28.701	0.470
470.000	301.569	79.995	19.996	103.014	19.878	28.456	0.467
470.500	301.844	79.994	19.996	103.018	19.876	28.590	0.493
471.000	302.062	79.993	19.995	103.019	19.877	28.473	0.505
471.500	302.306	79.994	19.996	103.021	19.882	28.118	0.477
472.000	302.548	79.996	19.997	103.019	19.887	27.815	0.474
472.500	302.849	79.994	19.996	103.019	19.892	27.430	0.515
473.000	303.063	79.994	19.996	103.019	19.890	27.559	0.529
473.500	303.326	79.993	19.995	103.020	19.886	27.866	0.496
474.000	303.558	79.991	19.995	103.016	19.892	27.395	0.486
474.500	303.774	79.993	19.996	103.012	19.894	27.261	0.471
475.000	304.005	79.994	19.997	103.014	19.888	27.708	0.448
475.500	304.284	79.992	19.995	103.015	19.898	26.955	0.479
476.000	304.517	79.991	19.995	103.012	19.884	27.978	0.511
476.500	304.818	79.991	19.996	103.016	19.896	27.125	0.523
477.000	305.022	79.991	19.996	103.020	19.896	27.117	0.519
477.500	305.298	79.991	19.998	103.021	19.899	26.936	0.493
478.000	305.519	79.990	19.996	103.018	19.898	27.006	0.489
478.500	305.795	79.990	19.996	103.020	19.896	27.136	0.497
479.000	305.999	79.991	19.996	103.015	19.901	26.774	0.489
479.500	306.265	79.991	19.996	103.010	19.898	26.963	0.475
480.000	306.554	79.991	19.997	103.012	19.902	26.708	0.512
480.500	306.693	79.991	19.998	103.015	19.900	26.847	0.491
481.000	307.034	79.991	19.996	103.016	19.906	26.437	0.454
481.500	307.312	79.991	19.996	103.019	19.912	25.971	0.549
482.000	307.494	79.992	19.997	103.021	19.906	26.406	0.539
482.500	307.734	79.991	19.997	103.020	19.909	26.207	0.441
483.000	307.951	79.990	19.997	103.020	19.911	26.053	0.440
483.500	308.183	79.991	19.996	103.020	19.911	26.009	0.453
484.000	308.629	79.991	19.996	103.023	19.914	25.801	0.563
484.500	308.573	79.990	19.996	103.023	19.911	26.057	0.534
485.000	309.079	79.993	19.998	103.024	19.913	25.890	0.420
485.500	309.445	79.989	19.997	103.022	19.910	26.087	0.661
486.000	309.384	79.990	19.996	103.022	19.906	26.367	0.589
486.500	309.774	79.990	19.996	103.023	19.914	25.823	0.318
487.000	310.273	79.991	19.996	103.024	19.913	25.915	0.609
487.500	310.172	79.990	19.995	103.025	19.915	25.774	0.644
488.000	310.543	79.991	19.996	103.027	19.906	26.384	0.334
488.500	310.955	79.991	19.997	103.027	19.905	26.470	0.526
489.000	310.836	79.990	19.996	103.028	19.912	25.935	0.538
489.500	311.509	79.992	19.997	103.028	19.910	26.107	0.423
490.000	311.424	79.989	19.995	103.027	19.908	26.246	0.571
490.500	311.726	79.991	19.995	103.024	19.911	26.069	0.403
491.000	311.994	79.991	19.996	103.024	19.905	26.449	0.393
491.500	312.372	79.992	19.995	103.024	19.910	26.134	0.608
492.000	312.587	79.991	19.996	103.024	19.903	26.625	0.620
492.500	312.763	79.990	19.995	103.026	19.909	26.198	0.492
493.000	313.019	79.992	19.995	103.030	19.912	25.993	0.411
493.500	313.422	79.991	19.995	103.030	19.904	26.520	0.545
494.000	313.523	79.991	19.995	103.030	19.906	26.368	0.581
494.500	313.872	79.990	19.994	103.026	19.911	26.038	0.477
495.000	314.112	79.990	19.994	103.019	19.905	26.470	0.519
495.500	314.343	79.991	19.995	103.012	19.908	26.242	0.530
496.000	314.612	79.992	19.995	103.007	19.904	26.550	0.486
496.500	314.859	79.991	19.996	103.007	19.901	26.732	0.508
497.000	315.145	79.992	19.998	103.011	19.904	26.549	0.525
497.500	315.367	79.991	19.995	103.019	19.905	26.444	0.520
498.000	315.651	79.991	19.996	103.026	19.898	26.955	0.507
498.500	315.880	79.993	19.996	103.030	19.902	26.729	0.510
499.000	316.101	79.992	19.995	103.030	19.894	27.255	0.482
499.500	316.443	79.991	19.995	103.030	19.895	27.215	0.506
500.000	316.644	79.990	19.995	103.029	19.894	27.281	0.553
500.500	316.925	79.991	19.996	103.028	19.890	27.556	0.513
501.000	317.152	79.991	19.997	103.029	19.887	27.754	0.495
501.500	317.412	79.991	19.997	103.029	19.893	27.373	0.497
502.000	317.664	79.992	19.996	103.026	19.892	27.419	0.500
502.500	317.934	79.991	19.996	103.024	19.889	27.656	0.517
503.000	318.189	79.991	19.995	103.021	19.884	28.006	0.523
503.500	318.397	79.992	19.995	103.020	19.881	28.205	0.494
504.000	318.684	79.991	19.996	103.020	19.880	28.303	0.479
504.500	318.918	79.992	19.996	103.021	19.877	28.536	0.508
505.000	319.230	79.990	19.994	103.021	19.875	28.637	0.534
505.500	319.417	79.991	19.995	103.024	19.873	28.793	0.523
506.000	319.714	79.993	19.995	103.021	19.872	28.877	0.491
506.500	319.979	79.991	19.996	103.021	19.867	29.240	0.523
507.000	320.268	79.992	19.997	103.023	19.866	29.309	0.558
507.500	320.468	79.991	19.997	103.027	19.864	29.483	0.522
508.000	320.755	79.991	19.996	103.027	19.860	29.735	0.488
508.500	321.040	79.989	19.996	103.030	19.858	29.884	0.530
509.000	321.314	79.991	19.997	103.030	19.856	30.045	0.565
509.500	321.534	79.991	19.998	103.029	19.857	29.984	0.526
510.000	321.801	79.990	19.997	103.028	19.851	30.362	0.491
510.500	322.111	79.991	19.996	103.028	19.846	30.749	0.533
511.000	322.324	79.990	19.996	103.028	19.845	30.832	0.550
511.500	322.613	79.991	19.997	103.028	19.840	31.219	0.512
512.000	322.854	79.991	19.996	103.029	19.843	30.987	0.516
512.500	323.118	79.991	19.997	103.028	19.832	31.788	0.517
513.000	323.367	79.992	19.996	103.028	19.837	31.426	0.509
513.500	323.615	79.991	19.995	103.030	19.833	31.711	0.506
514.000	323.889	79.993	19.996	103.033	19.831	31.843	0.510
514.500	324.093	79.990	19.996	103.039	19.822	32.485	0.500
515.000	324.375	79.992	19.996	103.039	19.822	32.478	0.481
515.500	324.649	79.992	19.997	103.039	19.819	32.727	0.521
516.000	324.885	79.990	19.996	103.042	19.821	32.601	0.533
516.500	325.158	79.992	19.997	103.046	19.809	33.477	0.509
517.000	325.436	79.992	19.996	103.044	19.805	33.760	0.530
517.500	325.699	79.992	19.996	103.048	19.800	34.070	0.545
518.000	325.924	79.992	19.996	103.052	19.802	33.980	0.514
518.500	326.171	79.993	19.995	103.052	19.793	34.591	0.480
519.000	326.460	79.992	19.995	103.048	19.790	34.836	0.504
519.500	326.741	79.992	19.995	103.045	19.786	35.117	0.553
520.000	326.972	79.992	19.995	103.043	19.781	35.508	0.541
520.500	327.232	79.992	19.996	103.039	19.778	35.726	0.502
521.000	327.469	79.993	19.996	103.037	19.770	36.255	0.494
521.500	327.724	79.994	19.994	103.038	19.770	36.307	0.494
522.000	328.004	79.995	19.995	103.043	19.765	36.615	0.514
522.500	328.250	79.994	19.995	103.042	19.759	37.103	0.530
523.000	328.551	79.995	19.996	103.041	19.761	36.907	0.536
523.500	328.793	79.992	19.995	103.039	19.752	37.553	0.546
524.000	329.038	79.993	19.995	103.035	19.752	37.590	0.515
524.500	329.301	79.995	19.995	103.029	19.743	38.213	0.498
525.000	329.519	79.994	19.996	103.029	19.738	38.602	0.495
525.500	329.779	79.996	19.995	103.029	19.734	38.917	0.479
526.000	330.082	79.994	19.996	103.031	19.728	39.346	0.520
526.500	330.324	79.995	19.996	103.031	19.724	39.611	0.554
527.000	330.597	79.996	19.996	103.031	19.722	39.736	0.530
527.500	330.836	79.992	19.995	103.031	19.717	40.119	0.513
528.000	331.101	79.994	19.995	103.031	19.715	40.263	0.508
528.500	331.382	79.993	19.995	103.029	19.714	40.321	0.525
529.000	331.608	79.994	19.995	103.035	19.708	40.785	0.526
529.500	331.875	79.993	19.996	103.041	19.705	40.975	0.500
530.000	332.111	79.993	19.996	103.047	19.700	41.359	0.499
530.500	332.368	79.993	19.995	103.052	19.697	41.614	0.498
531.000	332.579	79.993	19.995	103.060	19.689	42.159	0.480
531.500	332.847	79.994	19.995	103.060	19.686	42.366	0.473
532.000	333.154	79.993	19.995	103.056	19.680	42.851	0.527
532.500	333.394	79.992	19.995	103.051	19.678	42.979	0.561
533.000	333.652	79.994	19.993	103.048	19.677	43.065	0.523
533.500	333.906	79.992	19.995	103.041	19.667	43.759	0.505
534.000	334.137	79.993	19.996	103.039	19.659	44.378	0.498
534.500	334.398	79.994	19.995	103.045	19.655	44.655	0.489
535.000	334.668	79.993	19.994	103.048	19.652	44.841	0.512
535.500	334.913	79.994	19.996	103.050	19.648	45.123	0.523
536.000	335.170	79.992	19.996	103.051	19.642	45.607	0.508
536.500	335.390	79.993	19.995	103.055	19.634	46.213	0.490
537.000	335.691	79.992	19.996	103.056	19.626	46.848	0.499
537.500	335.922	79.992	19.995	103.059	19.622	47.158	0.526
538.000	336.128	79.993	19.996	103.063	19.614	47.767	0.485
538.500	336.407	79.992	19.996	103.070	19.606	48.399	0.461
539.000	336.664	79.992	19.995	103.071	19.603	48.564	0.510
539.500	336.896	79.990	19.995	103.070	19.597	49.005	0.513
540.000	337.167	79.991	19.995	103.070	19.590	49.426	0.496
540.500	337.384	79.993	19.997	103.069	19.586	49.663	0.495
541.000	337.693	79.993	19.996	103.068	19.579	50.163	0.507
541.500	337.937	79.993	19.996	103.067	19.574	50.503	0.540
542.000	338.148	79.992	19.996	103.067	19.564	51.184	0.504
542.500	338.459	79.992	19.997	103.067	19.560	51.468	0.489
543.000	338.669	79.992	19.997	103.067	19.551	52.078	0.522
543.500	338.940	79.991	19.996	103.072	19.545	52.515	0.501
544.000	339.216	79.993	19.996	103.074	19.536	53.167	0.514
544.500	339.451	79.992	19.996	103.074	19.513	54.864	0.529
545.000	339.696	79.994	19.996	103.075	19.484	56.962	0.496
545.500	339.924	79.993	19.996	103.075	19.449	59.520	0.477
546.000	340.191	79.993	19.996	103.070	19.405	62.784	0.484
546.500	340.448	79.992	19.995	103.100	19.361	65.958	0.509
547.000	340.709	79.994	19.996	103.144	19.319	69.055	0.521
547.500	340.921	79.994	19.995	103.218	19.277	72.153	0.496
548.000	341.190	79.993	19.995	103.332	19.248	74.289	0.477
548.500	341.444	79.993	19.995	103.424	19.225	75.956	0.502
549.000	341.709	79.993	19.995	103.459	19.199	77.846	0.521
549.500	341.957	79.993	19.996	103.463	19.187	78.747	0.516
550.000	342.188	79.993	19.996	103.425	19.173	79.770	0.496
550.500	342.409	79.994	19.995	103.335	19.162	80.529	0.465
551.000	342.660	79.994	19.995	103.249	19.148	81.543	0.462
551.500	342.923	79.993	19.995	103.168	19.146	81.659	0.493
552.000	343.166	79.992	19.995	103.084	19.142	81.944	0.510
552.500	343.339	79.994	19.996	103.001	19.141	82.007	0.461
553.000	343.643	79.993	19.995	102.930	19.138	82.183	0.447
553.500	343.842	79.992	19.995	102.882	19.136	82.354	0.490
554.000	344.131	79.992	19.994	102.859	19.130	82.777	0.496
554.500	344.404	79.993	19.993	102.857	19.130	82.783	0.525
555.000	344.634	79.992	19.996	102.872	19.127	83.023	0.533
555.500	344.871	79.992	19.995	102.896	19.124	83.245	0.485
556.000	345.099	79.994	19.996	102.926	19.117	83.779	0.466
556.500	345.380	79.992	19.995	102.968	19.116	83.836	0.487
557.000	345.628	79.993	19.995	103.022	19.111	84.285	0.519
557.500	345.869	79.993	19.996	103.076	19.106	84.697	0.509
558.000	346.134	79.991	19.995	103.123	19.099	85.367	0.498
558.500	346.397	79.990	19.996	103.161	19.085	86.445	0.517
559.000	346.618	79.991	19.995	103.190	19.082	86.719	0.505
559.500	346.864	79.989	19.995	103.205	19.072	87.476	0.476
560.000	347.135	79.991	19.997	103.209	19.064	88.008	0.493
560.500	347.351	79.990	19.995	103.216	19.060	88.261	0.502
561.000	347.605	79.991	19.997	103.217	19.053	88.684	0.478
561.500	347.864	79.990	19.995	103.207	19.047	89.004	0.491
562.000	348.082	79.991	19.995	103.191	19.038	89.504	0.495
562.500	348.345	79.990	19.996	103.173	19.038	89.437	0.479
563.000	348.575	79.990	19.995	103.150	19.032	89.757	0.487
563.500	348.824	79.991	19.996	103.128	19.022	90.338	0.486
564.000	349.084	79.992	19.996	103.114	19.015	90.805	0.494
564.500	349.321	79.992	19.997	103.107	19.003	91.649	0.503
565.000	349.579	79.991	19.996	103.104	18.984	92.994	0.496
565.500	349.813	79.991	19.996	103.103	18.959	94.892	0.493
566.000	350.072	79.990	19.996	103.104	18.921	97.693	0.492
566.500	350.290	79.990	19.997	103.105	18.874	101.185	0.485
567.000	350.548	79.991	19.997	103.146	18.820	105.255	0.477
567.500	350.754	79.991	19.996	103.196	18.754	110.233	0.470
568.000	351.022	79.991	19.996	103.258	18.703	114.169	0.469
568.500	351.254	79.990	19.995	103.370	18.639	118.901	0.487
569.000	351.502	79.989	19.997	103.491	18.589	122.646	0.490
569.500	351.734	79.989	19.997	103.561	18.544	125.937	0.480
570.000	351.976	79.991	19.998	103.616	18.511	128.331	0.477
570.500	352.269	79.990	19.996	103.645	18.488	129.991	0.505
571.000	352.497	79.990	19.996	103.611	18.474	130.899	0.529
571.500	352.805	79.991	19.996	103.545	18.463	131.661	0.529
572.000	353.072	79.990	19.997	103.459	18.466	131.384	0.555
572.500	353.291	79.990	19.997	103.338	18.475	130.636	0.530
573.000	353.557	79.990	19.998	103.197	18.477	130.340	0.486
573.500	353.799	79.989	19.997	103.054	18.484	129.747	0.496
574.000	354.058	79.991	19.996	102.916	18.492	129.095	0.504
574.500	354.311	79.990	19.997	102.811	18.486	129.507	0.507
575.000	354.534	79.991	19.998	102.750	18.478	130.011	0.494
575.500	354.842	79.990	19.997	102.719	18.468	130.777	0.503
576.000	355.032	79.991	19.997	102.724	18.449	132.197	0.514
576.500	355.294	79.989	19.996	102.773	18.425	133.979	0.475
577.000	355.529	79.991	19.997	102.847	18.391	136.481	0.475
577.500	355.773	79.992	19.996	102.945	18.357	138.935	0.488
578.000	356.019	79.991	19.996	103.095	18.323	141.447	0.485
578.500	356.254	79.991	19.995	103.271	18.293	143.651	0.486
579.000	356.509	79.991	19.996	103.428	18.263	145.936	0.486
579.500	356.750	79.992	19.996	103.535	18.231	148.306	0.493
580.000	357.016	79.992	19.995	103.609	18.203	150.415	0.501
580.500	357.253	79.991	19.996	103.637	18.174	152.520	0.505
581.000	357.508	79.992	19.996	103.607	18.146	154.601	0.497
581.500	357.758	79.992	19.995	103.560	18.128	155.983	0.499
582.000	358.021	79.991	19.996	103.512	18.116	156.895	0.509
582.500	358.267	79.994	19.996	103.466	18.096	158.356	0.511
583.000	358.521	79.991	19.994	103.420	18.076	159.891	0.504
583.500	358.744	79.990	19.996	103.346	18.069	160.438	0.488
584.000	359.008	79.992	19.996	103.246	18.045	162.207	0.482
584.500	359.255	79.991	19.995	103.175	18.034	163.100	0.499
585.000	359.485	79.991	19.997	103.120	18.019	164.128	0.494
585.500	359.737	79.990	19.996	103.062	18.011	164.617	0.480
586.000	359.996	79.991	19.996	103.046	17.999	165.446	0.497
586.500	360.240	79.992	19.996	103.068	17.990	165.960	0.507
587.000	360.475	79.992	19.996	103.086	17.976	166.874	0.491
587.500	360.726	79.992	19.996	103.097	17.963	167.666	0.482
588.000	360.988	79.990	19.995	103.123	17.954	168.276	0.499
588.500	361.192	79.992	19.996	103.149	17.936	169.474	0.489
589.000	361.457	79.992	19.995	103.172	17.911	171.128	0.467
589.500	361.738	79.991	19.995	103.195	17.889	172.689	0.508
590.000	361.989	79.990	19.996	103.231	17.871	174.062	0.539
590.500	362.260	79.992	19.996	103.274	17.839	176.374	0.527
591.000	362.524	79.990	19.997	103.315	17.809	178.597	0.528
591.500	362.747	79.990	19.995	103.346	17.776	181.067	0.511
592.000	363.039	79.990	19.995	103.376	17.739	183.837	0.501
592.500	363.243	79.990	19.995	103.400	17.694	187.204	0.506
593.000	363.516	79.991	19.994	103.413	17.653	190.233	0.486
593.500	363.724	79.990	19.996	103.434	17.611	193.516	0.479
594.000	364.001	79.990	19.995	103.466	17.572	196.483	0.483
594.500	364.229	79.989	19.996	103.506	17.537	198.992	0.495
595.000	364.475	79.991	19.995	103.536	17.507	201.138	0.490
595.500	364.684	79.991	19.997	103.554	17.483	202.889	0.464
596.000	364.979	79.992	19.996	103.538	17.462	204.254	0.479
596.500	365.246	79.990	19.995	103.494	17.448	205.263	0.533
597.000	365.518	79.990	19.995	103.430	17.433	206.217	0.551
597.500	365.765	79.992	19.997	103.356	17.428	206.459	0.529
598.000	366.007	79.990	19.995	103.270	17.420	207.132	0.503
598.500	366.247	79.991	19.996	103.217	17.415	207.450	0.485
599.000	366.507	79.991	19.995	103.157	17.406	207.968	0.491
599.500	366.760	79.992	19.996	103.085	17.402	208.277	0.506
600.000	367.022	79.992	19.995	103.017	17.395	208.893	0.514
600.500	367.287	79.992	19.996	103.004	17.386	209.502	0.521
601.000	367.496	79.993	19.995	103.006	17.378	210.180	0.500
601.500	367.757	79.993	19.996	103.013	17.370	210.937	0.472
602.000	367.982	79.992	19.996	103.045	17.353	212.224	0.478
602.500	368.282	79.991	19.995	103.094	17.340	213.212	0.505
603.000	368.567	79.992	19.996	103.140	17.326	214.359	0.555
603.500	368.772	79.993	19.996	103.180	17.323	214.528	0.538
604.000	369.036	79.992	19.996	103.236	17.324	214.453	0.480
604.500	369.302	79.991	19.996	103.325	17.325	214.306	0.500
605.000	369.572	79.992	19.995	103.391	17.330	213.868	0.533
605.500	369.793	79.994	19.995	103.405	17.332	213.595	0.514
606.000	370.058	79.994	19.995	103.384	17.339	212.989	0.488
606.500	370.306	79.990	19.995	103.354	17.347	212.334	0.499
607.000	370.591	79.992	19.995	103.296	17.351	212.116	0.523
607.500	370.834	79.991	19.995	103.268	17.362	211.346	0.531
608.000	371.099	79.993	19.995	103.204	17.369	210.776	0.518
608.500	371.369	79.993	19.996	103.159	17.374	210.429	0.521
609.000	371.601	79.993	19.995	103.187	17.378	210.106	0.518
609.500	371.874	79.994	19.996	103.177	17.381	209.891	0.503
610.000	372.098	79.993	19.995	103.121	17.381	209.977	0.501
610.500	372.396	79.993	19.995	103.131	17.375	210.411	0.510
611.000	372.638	79.993	19.996	103.178	17.375	210.457	0.531
611.500	372.882	79.992	19.995	103.148	17.372	210.675	0.513
612.000	373.182	79.992	19.994	103.190	17.367	211.118	0.515
612.500	373.438	79.992	19.995	103.275	17.367	211.165	0.550
613.000	373.677	79.992	19.994	103.307	17.369	210.968	0.525
613.500	373.971	79.992	19.995	103.312	17.372	210.745	0.514
614.000	374.247	79.991	19.995	103.380	17.380	210.171	0.552
614.500	374.488	79.992	19.995	103.380	17.388	209.575	0.544
615.000	374.722	79.991	19.994	103.356	17.402	208.489	0.496
615.500	374.996	79.991	19.994	103.342	17.401	208.567	0.491
616.000	375.263	79.992	19.995	103.288	17.409	207.951	0.524
616.500	375.499	79.990	19.995	103.234	17.416	207.450	0.522
617.000	375.754	79.991	19.995	103.196	17.422	207.001	0.497
617.500	376.024	79.991	19.995	103.165	17.425	206.778	0.508
618.000	376.265	79.990	19.995	103.166	17.436	206.001	0.518
618.500	376.506	79.991	19.995	103.180	17.443	205.482	0.496
619.000	376.780	79.992	19.995	103.157	17.455	204.633	0.499
619.500	377.066	79.992	19.994	103.164	17.454	204.703	0.538
620.000	377.296	79.993	19.995	103.172	17.466	203.827	0.538
620.500	377.567	79.992	19.994	103.174	17.472	203.432	0.508
621.000	377.825	79.993	19.995	103.188	17.477	203.034	0.515
621.500	378.096	79.992	19.995	103.208	17.480	202.835	0.529
622.000	378.336	79.992	19.995	103.216	17.485	202.463	0.520
622.500	378.613	79.992	19.995	103.230	17.493	201.856	0.514
623.000	378.857	79.993	19.995	103.249	17.501	201.305	0.519
623.500	379.163	79.993	19.995	103.270	17.508	200.765	0.535
624.000	379.392	79.993	19.996	103.278	17.519	199.988	0.542
624.500	379.666	79.994	19.995	103.273	17.523	199.631	0.519
625.000	379.905	79.992	19.994	103.266	17.533	198.883	0.508
625.500	380.178	79.994	19.995	103.256	17.537	198.640	0.512
626.000	380.458	79.994	19.994	103.240	17.545	198.025	0.533
626.500	380.685	79.994	19.995	103.229	17.557	197.128	0.530
627.000	381.011	79.993	19.995	103.226	17.559	197.024	0.530
627.500	381.177	79.994	19.996	103.219	17.566	196.523	0.523
628.000	381.491	79.994	19.996	103.212	17.573	196.003	0.486
628.500	381.747	79.995	19.995	103.211	17.582	195.310	0.525
629.000	382.029	79.994	19.997	103.214	17.591	194.653	0.554
629.500	382.277	79.993	19.995	103.216	17.598	194.164	0.534
630.000	382.522	79.993	19.995	103.219	17.606	193.591	0.511
630.500	382.796	79.995	19.996	103.221	17.612	193.097	0.506
631.000	383.044	79.995	19.995	103.221	17.624	192.266	0.521
631.500	383.295	79.994	19.996	103.220	17.627	192.030	0.511
632.000	383.556	79.993	19.996	103.218	17.642	190.915	0.506
632.500	383.839	79.993	19.996	103.216	17.650	190.383	0.528
633.000	384.113	79.993	19.996	103.216	17.658	189.744	0.550
633.500	384.373	79.993	19.996	103.220	17.668	189.032	0.546
634.000	384.633	79.992	19.995	103.221	17.677	188.351	0.527
634.500	384.902	79.992	19.996	103.220	17.689	187.500	0.524
635.000	385.153	79.992	19.996	103.214	17.704	186.373	0.524
635.500	385.403	79.994	19.995	103.207	17.706	186.235	0.510
636.000	385.661	79.991	19.996	103.196	17.717	185.436	0.505
636.500	385.937	79.993	19.996	103.187	17.723	184.999	0.521
637.000	386.154	79.990	19.995	103.182	17.744	183.458	0.513
637.500	386.431	79.990	19.995	103.182	17.759	182.406	0.493
638.000	386.735	79.992	19.997	103.182	17.779	180.959	0.538
638.500	387.002	79.989	19.997	103.181	17.785	180.485	0.577
639.000	387.272	79.992	19.996	103.181	17.795	179.739	0.554
639.500	387.534	79.990	19.995	103.180	17.809	178.735	0.534
640.000	387.762	79.991	19.996	103.178	17.824	177.632	0.511
640.500	387.980	79.992	19.997	103.172	17.840	176.452	0.468
641.000	388.308	79.990	19.996	103.169	17.855	175.381	0.496
641.500	388.560	79.989	19.996	103.168	17.872	174.097	0.563
642.000	388.842	79.991	19.996	103.167	17.883	173.302	0.557
642.500	389.078	79.991	19.996	103.166	17.902	171.928	0.526
643.000	389.357	79.991	19.996	103.167	17.919	170.674	0.516
643.500	389.620	79.989	19.995	103.163	17.934	169.588	0.528
644.000	389.908	79.991	19.995	103.157	17.949	168.491	0.547
644.500	390.128	79.990	19.995	103.149	17.965	167.308	0.530
645.000	390.425	79.991	19.996	103.146	17.980	166.263	0.513
645.500	390.667	79.992	19.997	103.142	17.999	164.851	0.528
646.000	390.974	79.992	19.997	103.141	18.016	163.574	0.544
646.500	391.221	79.991	19.996	103.142	18.034	162.289	0.552
647.000	391.480	79.990	19.995	103.145	18.053	160.917	0.530
647.500	391.756	79.992	19.997	103.144	18.072	159.562	0.520
648.000	392.012	79.991	19.997	103.142	18.092	158.107	0.534
648.500	392.293	79.994	19.996	103.141	18.112	156.636	0.535
649.000	392.554	79.992	19.996	103.139	18.134	155.046	0.539
649.500	392.828	79.991	19.996	103.134	18.155	153.524	0.539
650.000	393.090	79.990	19.996	103.126	18.171	152.371	0.536
650.500	393.358	79.990	19.995	103.120	18.191	150.879	0.533
651.000	393.634	79.991	19.995	103.114	18.216	149.071	0.537
651.500	393.925	79.994	19.997	103.107	18.235	147.655	0.555
652.000	394.205	79.990	19.995	103.104	18.258	145.988	0.569
652.500	394.464	79.991	19.995	103.104	18.278	144.523	0.555
653.000	394.775	79.992	19.996	103.104	18.300	142.941	0.554
653.500	395.037	79.990	19.996	103.103	18.318	141.625	0.571
654.000	395.312	79.989	19.995	103.101	18.341	139.949	0.555
654.500	395.542	79.992	19.996	103.095	18.361	138.542	0.521
655.000	395.886	79.990	19.996	103.089	18.383	136.935	0.539
655.500	396.162	79.991	19.996	103.081	18.406	135.242	0.597
656.000	396.396	79.990	19.996	103.075	18.432	133.325	0.565
656.500	396.673	79.991	19.997	103.071	18.453	131.837	0.511
657.000	396.961	79.991	19.998	103.069	18.471	130.496	0.538
657.500	397.195	79.991	19.996	103.068	18.502	128.276	0.543
658.000	397.509	79.990	19.997	103.068	18.525	126.625	0.535
658.500	397.742	79.990	19.996	103.068	18.545	125.155	0.547
659.000	398.021	79.989	19.997	103.064	18.564	123.776	0.529
659.500	398.275	79.990	19.996	103.062	18.592	121.737	0.522
660.000	398.552	79.990	19.997	103.061	18.611	120.320	0.532
660.500	398.852	79.990	19.996	103.055	18.637	118.479	0.554
661.000	399.109	79.990	19.996	103.054	18.664	116.504	0.568
661.500	399.359	79.990	19.996	103.052	18.691	114.562	0.532
662.000	399.630	79.990	19.996	103.047	18.714	112.894	0.514
662.500	399.914	79.991	19.996	103.042	18.739	111.043	0.538
663.000	400.207	79.989	19.996	103.040	18.762	109.394	0.566
663.500	400.474	79.991	19.997	103.035	18.791	107.240	0.568
664.000	400.742	79.990	19.997	103.032	18.813	105.701	0.548
664.500	401.009	79.991	19.996	103.032	18.836	103.989	0.535
665.000	401.277	79.990	19.997	103.031	18.866	101.840	0.535
665.500	401.541	79.990	19.997	103.031	18.890	100.090	0.534
666.000	401.835	79.990	19.997	103.031	18.908	98.759	0.545
666.500	402.059	79.990	19.997	103.029	18.928	97.340	0.538
667.000	402.382	79.991	19.997	103.027	18.955	95.399	0.533
667.500	402.621	79.990	19.996	103.024	18.979	93.631	0.555
668.000	402.869	79.991	19.997	103.018	19.003	91.924	0.524
668.500	403.143	79.991	19.996	103.015	19.022	90.486	0.504
669.000	403.394	79.989	19.994	103.013	19.049	88.567	0.524
669.500	403.674	79.990	19.996	103.009	19.072	86.881	0.528
670.000	403.975	79.990	19.995	103.005	19.095	85.190	0.556
670.500	404.204	79.991	19.995	103.003	19.119	83.449	0.556
671.000	404.487	79.990	19.995	102.999	19.139	82.017	0.521
671.500	404.724	79.991	19.997	102.994	19.161	80.446	0.516
672.000	405.030	79.991	19.995	102.994	19.190	78.303	0.531
672.500	405.285	79.991	19.995	102.993	19.204	77.331	0.552
673.000	405.570	79.988	19.994	102.994	19.230	75.405	0.551
673.500	405.831	79.992	19.996	102.994	19.251	73.869	0.544
674.000	406.083	79.991	19.996	102.994	19.273	72.328	0.529
674.500	406.357	79.992	19.995	102.992	19.294	70.796	0.519
675.000	406.623	79.991	19.996	102.991	19.316	69.180	0.533
675.500	406.904	79.991	19.995	102.991	19.336	67.692	0.543
676.000	407.189	79.991	19.996	102.991	19.357	66.200	0.557
676.500	407.449	79.989	19.994	102.995	19.375	64.889	0.556
677.000	407.709	79.992	19.996	102.999	19.401	63.010	0.533
677.500	407.961	79.992	19.995	103.000	19.419	61.675	0.516
678.000	408.242	79.991	19.995	103.000	19.437	60.400	0.523
678.500	408.512	79.992	19.995	102.998	19.455	59.085	0.542
679.000	408.776	79.992	19.996	102.995	19.476	57.533	0.542
679.500	409.048	79.992	19.996	102.992	19.495	56.177	0.535
680.000	409.306	79.992	19.995	102.992	19.509	55.191	0.533
680.500	409.542	79.991	19.995	102.989	19.528	53.771	0.512
681.000	409.797	79.992	19.995	102.986	19.549	52.276	0.492
681.500	410.113	79.992	19.996	102.982	19.562	51.303	0.531
682.000	410.365	79.991	19.995	102.981	19.578	50.172	0.570
682.500	410.687	79.992	19.995	102.977	19.598	48.760	0.572
683.000	410.888	79.992	19.995	102.977	19.610	47.859	0.549
683.500	411.191	79.992	19.994	102.975	19.633	46.214	0.513
684.000	411.437	79.993	19.995	102.971	19.645	45.297	0.526
684.500	411.695	79.993	19.994	102.968	19.660	44.257	0.527
685.000	411.915	79.992	19.995	102.968	19.676	43.059	0.491
685.500	412.201	79.993	19.995	102.966	19.691	41.970	0.492
686.000	412.471	79.993	19.995	102.966	19.706	40.912	0.531
686.500	412.730	79.992	19.995	102.965	19.720	39.860	0.542
687.000	412.987	79.993	19.995	102.966	19.733	38.953	0.523
687.500	413.255	79.991	19.994	102.964	19.745	38.076	0.521
688.000	413.499	79.994	19.996	102.967	19.760	36.966	0.519
688.500	413.771	79.993	19.995	102.970	19.767	36.474	0.514
689.000	414.037	79.992	19.997	102.971	19.786	35.108	0.527
689.500	414.301	79.993	19.995	102.963	19.798	34.236	0.534
690.000	414.559	79.993	19.995	102.960	19.806	33.652	0.526
690.500	414.795	79.993	19.995	102.955	19.822	32.480	0.508
691.000	415.051	79.993	19.995	102.951	19.831	31.813	0.493
691.500	415.329	79.994	19.996	102.952	19.840	31.178	0.513
692.000	415.575	79.992	19.996	102.959	19.858	29.858	0.529
692.500	415.868	79.992	19.996	102.965	19.864	29.428	0.531
693.000	416.094	79.991	19.994	102.972	19.874	28.683	0.529
693.500	416.360	79.991	19.996	102.977	19.886	27.864	0.505
694.000	416.594	79.992	19.997	102.977	19.893	27.357	0.496
694.500	416.862	79.991	19.995	102.971	19.904	26.548	0.501
695.000	417.159	79.992	19.996	102.965	19.917	25.567	0.533
695.500	417.372	79.993	19.996	102.960	19.924	25.057	0.538
696.000	417.646	79.992	19.995	102.955	19.928	24.764	0.499
696.500	417.926	79.992	19.995	102.956	19.942	23.738	0.520
697.000	418.211	79.993	19.995	102.957	19.953	22.993	0.559
697.500	418.434	79.992	19.995	102.956	19.956	22.756	0.537
698.000	418.675	79.994	19.996	102.955	19.964	22.164	0.486
698.500	418.995	79.992	19.994	102.956	19.969	21.815	0.512
699.000	419.228	79.993	19.997	102.953	19.984	20.719	0.557
699.500	419.509	79.991	19.996	102.959	19.992	20.124	0.534
700.000	419.740	79.992	19.995	102.967	19.993	20.044	0.513
700.500	419.958	79.992	19.996	102.971	19.998	19.685	0.480
701.000	420.279	79.992	19.995	102.970	20.009	18.907	0.494
701.500	420.539	79.992	19.995	102.968	20.021	18.072	0.560
702.000	420.803	79.994	19.995	102.963	20.023	17.881	0.552
702.500	421.040	79.993	19.995	102.958	20.031	17.301	0.512
703.000	421.322	79.994	19.995	102.957	20.036	16.938	0.510
703.500	421.591	79.991	19.994	102.957	20.042	16.514	0.535
704.000	421.814	79.993	19.996	102.957	20.047	16.173	0.522
704.500	422.112	79.993	19.995	102.958	20.053	15.759	0.507
705.000	422.350	79.994	19.996	102.956	20.055	15.607	0.529
705.500	422.590	79.994	19.994	102.952	20.060	15.223	0.507
706.000	422.831	79.994	19.993	102.952	20.071	14.400	0.479
706.500	423.104	79.994	19.996	102.952	20.072	14.314	0.498
707.000	423.378	79.994	19.995	102.950	20.075	14.095	0.531
707.500	423.623	79.993	19.995	102.949	20.087	13.275	0.533
708.000	423.863	79.994	19.995	102.949	20.087	13.286	0.502
708.500	424.147	79.995	19.995	102.949	20.093	12.852	0.504
709.000	424.377	79.994	19.995	102.949	20.096	12.575	0.519
709.500	424.629	79.993	19.994	102.950	20.102	12.200	0.498
710.000	424.894	79.993	19.994	102.949	20.103	12.079	0.500
710.500	425.146	79.994	19.994	102.949	20.106	11.874	0.517
711.000	425.441	79.994	19.996	102.949	20.110	11.619	0.532
711.500	425.647	79.994	19.995	102.949	20.113	11.350	0.524
712.000	425.905	79.993	19.994	102.949	20.116	11.129	0.483
712.500	426.174	79.993	19.994	102.950	20.123	10.655	0.495
713.000	426.422	79.995	19.996	102.951	20.127	10.328	0.521
713.500	426.683	79.993	19.995	102.950	20.126	10.406	0.513
714.000	426.905	79.994	19.996	102.950	20.130	10.173	0.496
714.500	427.189	79.992	19.994	102.950	20.135	9.772	0.494
715.000	427.424	79.995	19.996	102.949	20.137	9.613	0.513
715.500	427.677	79.993	19.996	102.949	20.137	9.637	0.504
716.000	427.949	79.993	19.995	102.948	20.140	9.422	0.507
716.500	428.218	79.995	19.996	102.948	20.142	9.280	0.533
717.000	428.479	79.992	19.996	102.948	20.146	8.963	0.536
717.500	428.716	79.992	19.995	102.949	20.150	8.659	0.514
718.000	428.996	79.992	19.997	102.949	20.151	8.593	0.507
718.500	429.206	79.991	19.995	102.950	20.158	8.139	0.503
719.000	429.443	79.991	19.996	102.950	20.162	7.830	0.468
719.500	429.728	79.992	19.996	102.949	20.165	7.611	0.484
720.000	429.979	79.992	19.996	102.948	20.160	7.961	0.529
720.500	430.233	79.990	19.995	102.948	20.170	7.274	0.521
721.000	430.501	79.991	19.995	102.948	20.168	7.405	0.514
721.500	430.753	79.991	19.996	102.949	20.169	7.280	0.521
722.000	431.000	79.990	19.995	102.949	20.172	7.123	0.510
722.500	431.253	79.991	19.997	102.950	20.178	6.669	0.500
723.000	431.514	79.991	19.996	102.950	20.176	6.788	0.507
723.500	431.761	79.992	19.995	102.950	20.181	6.466	0.511
724.000	432.013	79.992	19.996	102.950	20.181	6.430	0.504
724.500	432.235	79.990	19.996	102.951	20.180	6.499	0.487
725.000	432.550	79.992	19.997	102.951	20.183	6.272	0.505
725.500	432.788	79.990	19.995	102.950	20.187	6.029	0.545
726.000	433.044	79.992	19.995	102.951	20.186	6.119	0.523
726.500	433.277	79.990	19.995	102.951	20.186	6.091	0.491
727.000	433.539	79.991	19.996	102.952	20.187	6.005	0.492
727.500	433.811	79.991	19.995	102.952	20.191	5.716	0.515
728.000	434.069	79.991	19.996	102.953	20.191	5.684	0.532
728.500	434.328	79.990	19.995	102.954	20.192	5.649	0.524
729.000	434.588	79.991	19.996	102.956	20.198	5.244	0.518
729.500	434.798	79.990	19.996	102.956	20.200	5.043	0.494
730.000	435.107	79.991	19.996	102.957	20.195	5.429	0.494
730.500	435.353	79.991	19.996	102.953	20.202	4.933	0.537
731.000	435.578	79.992	19.995	102.951	20.206	4.628	0.513
731.500	435.846	79.990	19.995	102.950	20.207	4.547	0.482
732.000	436.097	79.991	19.996	102.949	20.205	4.676	0.506
732.500	436.339	79.992	19.996	102.948	20.209	4.437	0.506
733.000	436.636	79.991	19.996	102.954	20.208	4.471	0.516
733.500	436.863	79.991	19.995	102.960	20.207	4.587	0.531
734.000	437.110	79.990	19.995	102.961	20.213	4.144	0.499
734.500	437.358	79.991	19.996	102.961	20.209	4.395	0.485
735.000	437.614	79.991	19.995	102.961	20.213	4.129	0.500
735.500	437.866	79.991	19.994	102.961	20.212	4.194	0.506
736.000	438.111	79.992	19.995	102.957	20.212	4.220	0.502
736.500	438.373	79.991	19.996	102.960	20.212	4.202	0.502
737.000	438.626	79.990	19.996	102.961	20.214	4.065	0.511
737.500	438.850	79.990	19.996	102.960	20.216	3.941	0.496
738.000	439.130	79.991	19.995	102.959	20.211	4.240	0.490
738.500	439.358	79.991	19.995	102.959	20.214	4.052	0.506
739.000	439.617	79.992	19.996	102.957	20.213	4.150	0.498
739.500	439.880	79.991	19.995	102.957	20.219	3.680	0.505
740.001	440.139	79.990	19.996	102.958	20.213	4.146	0.522
740.501	440.373	79.990	19.995	102.958	20.219	3.724	0.507
741.000	440.613	79.992	19.996	102.956	20.219	3.678	0.483
741.500	440.898	79.991	19.996	102.955	20.218	3.756	0.500
742.000	441.118	79.991	19.996	102.955	20.217	3.863	0.515
742.500	441.387	79.991	19.995	102.954	20.216	3.911	0.497
743.000	441.649	79.990	19.996	102.954	20.220	3.610	0.510
743.500	441.885	79.991	19.996	102.954	20.224	3.361	0.515
744.000	442.151	79.989	19.994	102.955	20.222	3.469	0.500
744.500	442.391	79.991	19.996	102.958	20.222	3.501	0.504
745.000	442.632	79.990	19.996	102.962	20.222	3.501	0.493
745.500	442.879	79.991	19.997	102.962	20.220	3.618	0.485
746.000	443.160	79.990	19.997	102.963	20.223	3.419	0.509
746.500	443.365	79.991	19.997	102.967	20.221	3.570	0.507
747.000	443.654	79.991	19.997	102.965	20.224	3.331	0.490
747.500	443.904	79.990	19.996	102.961	20.223	3.401	0.517
748.000	444.125	79.990	19.997	102.962	20.230	2.899	0.505
748.500	444.371	79.990	19.996	102.960	20.228	3.056	0.469
749.000	444.614	79.990	19.996	102.955	20.223	3.397	0.478
749.500	444.876	79.989	19.997	102.953	20.224	3.341	0.497
750.000	445.149	79.992	19.996	102.954	20.217	3.859	0.520
750.500	445.382	79.989	19.996	102.953	20.221	3.568	0.520
751.000	445.612	79.991	19.996	102.955	20.227	3.136	0.485
751.500	445.868	79.990	19.998	102.955	20.226	3.166	0.475
752.000	446.117	79.991	19.996	102.954	20.222	3.441	0.496
752.500	446.385	79.990	19.996	102.956	20.225	3.273	0.511
753.000	446.595	79.990	19.996	102.957	20.222	3.467	0.497
753.500	446.848	79.989	19.996	102.956	20.228	3.048	0.470
754.000	447.100	79.989	19.996	102.957	20.229	2.943	0.484
754.500	447.350	79.990	19.996	102.957	20.227	3.074	0.503
755.000	447.594	79.991	19.997	102.954	20.225	3.220	0.498
755.500	447.844	79.989	19.997	102.954	20.223	3.367	0.494
756.000	448.085	79.991	19.997	102.955	20.226	3.164	0.492
756.500	448.330	79.991	19.996	102.955	20.230	2.863	0.488
757.000	448.596	79.991	19.996	102.958	20.228	3.070	0.499
757.500	448.832	79.990	19.997	102.958	20.226	3.172	0.507
758.000	449.116	79.992	19.996	102.957	20.227	3.100	0.511
758.500	449.341	79.992	19.996	102.957	20.227	3.116	0.515
759.000	449.579	79.991	19.995	102.960	20.228	3.068	0.486
759.500	449.820	79.992	19.997	102.958	20.228	3.060	0.471
760.000	450.126	79.992	19.996	102.958	20.228	3.030	0.513
760.500	450.307	79.992	19.996	102.956	20.220	3.598	0.517
761.000	450.603	79.992	19.996	102.951	20.229	2.990	0.482
761.500	450.874	79.993	19.996	102.947	20.229	2.986	0.522
762.000	451.084	79.992	19.995	102.947	20.231	2.815	0.524
762.500	451.330	79.993	19.995	102.950	20.227	3.116	0.468
763.000	451.585	79.993	19.996	102.951	20.228	3.048	0.478
763.500	451.851	79.993	19.996	102.954	20.224	3.299	0.511
764.000	452.066	79.993	19.995	102.956	20.228	3.009	0.502
764.500	452.318	79.993	19.994	102.960	20.226	3.186	0.474
765.000	452.589	79.993	19.995	102.958	20.225	3.234	0.495
765.500	452.824	79.992	19.994	102.957	20.224	3.299	0.514
766.000	453.092	79.993	19.996	102.956	20.226	3.190	0.505
766.500	453.368	79.992	19.994	102.954	20.226	3.200	0.523
767.000	453.625	79.993	19.995	102.952	20.225	3.220	0.538
767.500	453.877	79.992	19.996	102.952	20.225	3.236	0.521
768.000	454.128	79.993	19.996	102.953	20.224	3.315	0.506
768.500	454.400	79.993	19.995	102.953	20.225	3.258	0.514
769.000	454.619	79.992	19.995	102.956	20.226	3.154	0.507
769.500	454.855	79.993	19.995	102.957	20.228	3.064	0.472
770.000	455.126	79.994	19.995	102.958	20.229	2.955	0.481
770.500	455.379	79.991	19.995	102.957	20.226	3.154	0.516
771.000	455.635	79.993	19.996	102.956	20.221	3.526	0.517
771.500	455.892	79.991	19.995	102.953	20.227	3.086	0.511
772.000	456.159	79.992	19.994	102.951	20.227	3.136	0.519
772.500	456.380	79.993	19.995	102.949	20.224	3.293	0.506
773.000	456.651	79.993	19.996	102.950	20.225	3.238	0.490
773.500	456.875	79.992	19.996	102.953	20.226	3.188	0.494
774.000	457.100	79.994	19.996	102.957	20.225	3.228	0.472
774.500	457.357	79.993	19.996	102.959	20.221	3.542	0.466
775.000	457.613	79.993	19.995	102.959	20.224	3.339	0.498
775.500	457.879	79.993	19.995	102.958	20.225	3.252	0.517
776.000	458.124	79.992	19.996	102.956	20.226	3.218	0.516
776.500	458.397	79.993	19.996	102.952	20.227	3.126	0.515
777.000	458.651	79.992	19.996	102.951	20.229	2.941	0.523
777.500	458.863	79.991	19.995	102.953	20.229	2.957	0.496
778.000	459.146	79.992	19.995	102.956	20.228	3.037	0.480
778.500	459.412	79.991	19.995	102.959	20.224	3.312	0.522
779.000	459.677	79.992	19.996	102.958	20.224	3.296	0.540
779.500	459.891	79.993	19.996	102.959	20.225	3.278	0.505
780.000	460.169	79.993	19.995	102.957	20.227	3.090	0.485
780.500	460.384	79.991	19.995	102.955	20.231	2.833	0.493
781.000	460.651	79.994	19.995	102.952	20.224	3.333	0.488
781.500	460.923	79.992	19.996	102.952	20.225	3.263	0.511
782.000	461.160	79.992	19.995	102.951	20.231	2.847	0.524
782.500	461.353	79.994	19.997	102.950	20.231	2.829	0.470
783.000	461.665	79.992	19.996	102.952	20.229	2.959	0.467
783.500	461.932	79.991	19.995	102.952	20.229	2.987	0.542
784.000	462.166	79.993	19.996	102.952	20.231	2.807	0.541
784.500	462.452	79.992	19.994	102.954	20.230	2.883	0.511
785.000	462.647	79.993	19.996	102.956	20.230	2.873	0.500
785.500	462.909	79.993	19.995	102.955	20.229	2.941	0.469
786.000	463.155	79.993	19.995	102.955	20.231	2.841	0.483
786.500	463.411	79.993	19.996	102.956	20.229	2.945	0.505
787.000	463.661	79.995	19.995	102.954	20.225	3.262	0.504
787.500	463.919	79.994	19.994	102.951	20.228	3.025	0.507
788.000	464.153	79.994	19.996	102.953	20.225	3.271	0.501
788.500	464.411	79.995	19.995	102.957	20.230	2.887	0.492
789.000	464.657	79.994	19.995	102.964	20.224	3.357	0.498
789.500	464.889	79.994	19.996	102.971	20.226	3.168	0.491
790.000	465.171	79.995	19.995	102.972	20.232	2.718	0.496
790.500	465.367	79.992	19.995	102.970	20.230	2.887	0.496
791.000	465.652	79.994	19.996	102.965	20.230	2.893	0.480
791.500	465.889	79.994	19.995	102.958	20.233	2.700	0.501
792.000	466.142	79.994	19.994	102.952	20.224	3.320	0.506
792.500	466.401	79.992	19.995	102.952	20.235	2.533	0.501
793.000	466.642	79.993	19.994	102.954	20.234	2.581	0.506
793.500	466.863	79.992	19.995	102.954	20.230	2.919	0.481
794.000	467.144	79.994	19.995	102.955	20.230	2.866	0.482
794.500	467.428	79.994	19.995	102.958	20.233	2.664	0.533
795.000	467.675	79.993	19.995	102.956	20.233	2.694	0.548
795.500	467.922	79.992	19.994	102.957	20.230	2.868	0.512
796.000	468.156	79.993	19.996	102.961	20.230	2.905	0.487
796.500	468.390	79.992	19.995	102.963	20.232	2.728	0.475
797.000	468.649	79.991	19.994	102.963	20.228	3.007	0.481
797.500	468.918	79.991	19.994	102.963	20.231	2.829	0.510
798.000	469.183	79.991	19.996	102.962	20.233	2.684	0.531
798.500	469.429	79.991	19.996	102.958	20.230	2.897	0.523
799.000	469.692	79.991	19.995	102.954	20.233	2.700	0.510
799.500	469.894	79.991	19.995	102.953	20.232	2.770	0.487
800.000	470.191	79.992	19.995	102.954	20.233	2.700	0.482
800.500	470.428	79.992	19.995	102.954	20.230	2.917	0.516
801.000	470.673	79.990	19.995	102.954	20.234	2.616	0.508
801.500	470.941	79.992	19.996	102.957	20.229	2.999	0.498
802.000	471.174	79.992	19.995	102.964	20.232	2.749	0.507
802.500	471.442	79.992	19.995	102.965	20.228	3.024	0.501
803.000	471.658	79.991	19.996	102.970	20.231	2.847	0.492
803.500	471.924	79.989	19.994	102.976	20.231	2.831	0.483
804.000	472.218	79.991	19.995	102.976	20.232	2.765	0.522
804.500	472.484	79.989	19.994	102.971	20.234	2.588	0.560
805.000	472.739	79.990	19.996	102.976	20.230	2.913	0.540
805.500	472.963	79.990	19.995	102.977	20.236	2.485	0.500
806.000	473.258	79.990	19.994	102.973	20.233	2.690	0.499
806.500	473.483	79.990	19.994	102.973	20.229	2.967	0.520
807.000	473.808	79.991	19.995	102.974	20.234	2.596	0.535
807.500	474.026	79.989	19.995	102.971	20.231	2.795	0.546
808.000	474.291	79.991	19.996	102.966	20.234	2.624	0.513
808.500	474.516	79.990	19.995	102.965	20.230	2.891	0.486
809.000	474.810	79.991	19.995	102.964	20.226	3.160	0.504
809.500	475.077	79.990	19.996	102.966	20.230	2.873	0.540
810.000	475.338	79.990	19.996	102.966	20.232	2.771	0.545
810.500	475.602	79.989	19.996	102.966	20.233	2.674	0.526
811.000	475.842	79.991	19.995	102.965	20.230	2.859	0.514
811.500	476.091	79.991	19.996	102.962	20.231	2.847	0.496
812.000	476.364	79.989	19.995	102.958	20.231	2.845	0.506
812.500	476.592	79.991	19.996	102.955	20.232	2.783	0.512
813.000	476.868	79.992	19.996	102.953	20.233	2.696	0.503
813.500	477.096	79.989	19.996	102.953	20.231	2.797	0.504
814.000	477.356	79.991	19.995	102.953	20.231	2.819	0.496
814.500	477.627	79.990	19.995	102.954	20.231	2.853	0.510
815.000	477.853	79.991	19.995	102.954	20.233	2.656	0.514
815.500	478.099	79.991	19.996	102.956	20.232	2.773	0.484
816.000	478.348	79.992	19.997	102.956	20.236	2.490	0.484
816.500	478.622	79.992	19.997	102.960	20.230	2.905	0.509
817.000	478.894	79.991	19.996	102.961	20.234	2.622	0.534
817.500	479.117	79.992	19.996	102.960	20.231	2.817	0.520
818.000	479.383	79.990	19.996	102.958	20.234	2.584	0.492
818.500	479.671	79.992	19.995	102.956	20.234	2.576	0.522
819.000	479.911	79.990	19.996	102.953	20.233	2.704	0.541
819.500	480.147	79.991	19.996	102.951	20.236	2.441	0.502
820.000	480.424	79.991	19.995	102.951	20.232	2.783	0.495
820.500	480.653	79.990	19.996	102.951	20.233	2.676	0.509
821.001	480.936	79.991	19.995	102.952	20.233	2.710	0.509
821.500	481.130	79.992	19.996	102.952	20.235	2.500	0.495
822.000	481.433	79.992	19.996	102.952	20.238	2.329	0.487
822.500	481.659	79.990	19.996	102.953	20.233	2.658	0.513
823.000	481.941	79.992	19.996	102.953	20.236	2.445	0.518
823.500	482.142	79.992	19.996	102.950	20.235	2.512	0.495
824.000	482.420	79.990	19.996	102.949	20.239	2.237	0.481
824.500	482.690	79.990	19.995	102.951	20.231	2.791	0.514
825.000	482.946	79.990	19.997	102.955	20.231	2.825	0.537
825.500	483.211	79.991	19.996	102.956	20.233	2.690	0.523
826.000	483.480	79.991	19.995	102.956	20.235	2.556	0.527
826.500	483.720	79.990	19.996	102.957	20.233	2.650	0.521
827.000	483.945	79.989	19.996	102.956	20.229	2.973	0.487
827.500	484.206	79.991	19.996	102.953	20.236	2.447	0.475
828.000	484.474	79.990	19.995	102.952	20.231	2.801	0.507
828.500	484.712	79.990	19.996	102.952	20.233	2.646	0.518
829.000	484.982	79.991	19.996	102.952	20.239	2.211	0.507
829.500	485.242	79.991	19.997	102.950	20.240	2.136	0.519
830.000	485.465	79.989	19.996	102.950	20.235	2.546	0.506
830.500	485.743	79.988	19.996	102.953	20.234	2.590	0.492
831.000	486.010	79.990	19.996	102.954	20.230	2.923	0.523
831.500	486.280	79.990	19.996	102.955	20.235	2.546	0.541
832.000	486.535	79.991	19.996	102.957	20.233	2.654	0.531
832.500	486.781	79.990	19.996	102.957	20.232	2.755	0.513
833.000	487.038	79.990	19.996	102.954	20.232	2.765	0.502
833.500	487.233	79.990	19.996	102.952	20.237	2.421	0.477
834.000	487.538	79.990	19.996	102.952	20.234	2.570	0.476
834.500	487.775	79.992	19.996	102.950	20.233	2.658	0.521
835.000	488.073	79.991	19.995	102.949	20.233	2.648	0.539
835.500	488.276	79.990	19.996	102.949	20.238	2.311	0.518
836.000	488.551	79.991	19.996	102.951	20.235	2.564	0.490
836.500	488.788	79.989	19.996	102.951	20.233	2.682	0.495
837.000	489.059	79.990	19.996	102.955	20.234	2.620	0.510
837.500	489.338	79.991	19.996	102.959	20.235	2.500	0.529
838.000	489.534	79.991	19.997	102.959	20.233	2.682	0.513
838.500	489.842	79.989	19.996	102.957	20.234	2.572	0.490
839.000	490.052	79.992	19.997	102.958	20.234	2.572	0.511
839.500	490.298	79.991	19.997	102.954	20.237	2.385	0.487
840.000	490.556	79.991	19.996	102.950	20.236	2.423	0.480
840.500	490.790	79.991	19.997	102.950	20.237	2.391	0.498
841.000	491.051	79.993	19.996	102.950	20.239	2.254	0.494
841.500	491.308	79.992	19.996	102.949	20.232	2.778	0.507
842.000	491.584	79.990	19.996	102.950	20.234	2.578	0.525
842.500	491.837	79.992	19.996	102.951	20.235	2.538	0.530
843.000	492.053	79.992	19.997	102.951	20.231	2.843	0.499
843.500	492.326	79.991	19.996	102.955	20.236	2.427	0.479
844.000	492.571	79.991	19.996	102.958	20.234	2.600	0.504
844.500	492.822	79.993	19.998	102.956	20.235	2.534	0.507
845.000	493.059	79.992	19.997	102.956	20.229	2.951	0.492
845.500	493.319	79.992	19.997	102.956	20.233	2.686	0.493
846.000	493.584	79.993	19.996	102.950	20.235	2.557	0.511
846.500	493.841	79.990	19.997	102.949	20.230	2.872	0.523
847.000	494.104	79.991	19.996	102.950	20.229	2.931	0.521
847.500	494.389	79.991	19.997	102.950	20.233	2.710	0.534
848.000	494.625	79.992	19.996	102.950	20.234	2.594	0.535
848.500	494.860	79.992	19.996	102.952	20.237	2.379	0.496
849.000	495.147	79.992	19.996	102.952	20.235	2.544	0.496
849.500	495.378	79.991	19.996	102.955	20.237	2.399	0.520
850.000	495.623	79.992	19.995	102.956	20.234	2.614	0.497
850.500	495.907	79.991	19.996	102.956	20.234	2.628	0.503
851.000	496.147	79.991	19.996	102.958	20.231	2.817	0.527
851.500	496.373	79.991	19.995	102.963	20.235	2.534	0.495
852.000	496.622	79.991	19.996	102.962	20.234	2.636	0.470
852.500	496.931	79.993	19.996	102.961	20.237	2.349	0.516
853.000	497.149	79.991	19.996	102.961	20.235	2.544	0.543
853.500	497.417	79.992	19.995	102.955	20.237	2.369	0.507
854.000	497.681	79.993	19.995	102.949	20.236	2.451	0.509
854.500	497.949	79.992	19.995	102.946	20.234	2.620	0.532
855.000	498.205	79.991	19.994	102.946	20.231	2.831	0.528
855.500	498.449	79.991	19.994	102.949	20.234	2.580	0.512
856.000	498.678	79.990	19.994	102.959	20.234	2.574	0.487
856.500	498.921	79.991	19.995	102.967	20.232	2.736	0.473
857.000	499.171	79.991	19.995	102.975	20.235	2.532	0.482
857.500	499.424	79.992	19.996	102.978	20.234	2.618	0.498
858.000	499.720	79.991	19.995	102.975	20.236	2.453	0.526
858.500	499.937	79.989	19.994	102.973	20.233	2.692	0.531
859.000	500.178	79.992	19.994	102.967	20.234	2.628	0.486
859.500	500.452	79.992	19.995	102.962	20.237	2.383	0.486
860.000	500.697	79.991	19.994	102.965	20.236	2.423	0.517
860.500	500.949	79.992	19.995	102.965	20.233	2.692	0.508
861.000	501.232	79.992	19.995	102.961	20.239	2.233	0.516
861.500	501.460	79.992	19.994	102.960	20.240	2.184	0.523
862.000	501.704	79.992	19.994	102.955	20.238	2.295	0.492
862.500	501.989	79.993	19.997	102.952	20.237	2.421	0.500
863.000	502.271	79.993	19.995	102.952	20.234	2.590	0.548
863.500	502.491	79.993	19.995	102.957	20.239	2.266	0.534
864.000	502.748	79.992	19.996	102.961	20.236	2.487	0.489
864.500	503.005	79.993	19.995	102.965	20.234	2.568	0.496
865.000	503.260	79.994	19.995	102.964	20.238	2.305	0.513
865.500	503.493	79.993	19.995	102.963	20.234	2.582	0.500
866.000	503.809	79.994	19.995	102.959	20.234	2.566	0.519
866.500	504.002	79.995	19.995	102.956	20.234	2.604	0.529
867.000	504.316	79.993	19.995	102.958	20.234	2.588	0.508
867.500	504.523	79.993	19.995	102.958	20.239	2.204	0.514
868.000	504.786	79.993	19.995	102.959	20.235	2.518	0.496
868.500	505.025	79.993	19.994	102.959	20.237	2.367	0.486
869.000	505.275	79.993	19.994	102.958	20.239	2.245	0.495
869.500	505.533	79.995	19.995	102.953	20.236	2.423	0.498
870.000	505.793	79.993	19.995	102.952	20.236	2.425	0.513
870.500	506.030	79.993	19.995	102.952	20.240	2.174	0.508
871.000	506.270	79.993	19.995	102.953	20.234	2.570	0.487
871.500	506.537	79.994	19.995	102.954	20.233	2.696	0.492
872.000	506.791	79.994	19.994	102.954	20.232	2.784	0.514
872.500	507.020	79.994	19.995	102.954	20.233	2.648	0.502
873.000	507.262	79.992	19.994	102.954	20.235	2.513	0.477
873.500	507.545	79.993	19.995	102.953	20.237	2.359	0.498
874.000	507.798	79.994	19.995	102.964	20.236	2.457	0.531
874.500	508.034	79.993	19.995	102.965	20.239	2.261	0.513
875.000	508.275	79.991	19.995	102.959	20.237	2.367	0.483
875.500	508.547	79.992	19.994	102.959	20.234	2.568	0.495
876.000	508.802	79.992	19.995	102.959	20.237	2.413	0.520
876.500	509.013	79.991	19.994	102.946	20.232	2.784	0.497
877.000	509.296	79.993	19.995	102.945	20.232	2.748	0.480
877.500	509.525	79.991	19.994	102.951	20.235	2.510	0.503
878.000	509.796	79.993	19.996	102.951	20.234	2.614	0.505
878.500	510.048	79.990	19.995	102.954	20.233	2.656	0.512
879.000	510.262	79.991	19.995	102.955	20.237	2.419	0.495
879.500	510.501	79.989	19.995	102.957	20.230	2.909	0.459
880.000	510.748	79.991	19.995	102.958	20.230	2.927	0.470
880.500	511.011	79.993	19.995	102.958	20.232	2.741	0.498
881.000	511.255	79.992	19.996	102.956	20.236	2.468	0.509
881.500	511.489	79.992	19.996	102.955	20.231	2.815	0.493
882.000	511.764	79.990	19.995	102.955	20.234	2.628	0.493
882.500	511.982	79.991	19.995	102.957	20.233	2.672	0.501
883.000	512.273	79.990	19.995	102.962	20.233	2.696	0.502
883.500	512.510	79.991	19.995	102.962	20.232	2.755	0.519
884.000	512.742	79.991	19.995	102.962	20.230	2.867	0.498
884.500	513.010	79.990	19.995	102.959	20.233	2.692	0.484
885.000	513.249	79.990	19.994	102.957	20.229	2.951	0.504
885.500	513.484	79.992	19.995	102.952	20.232	2.767	0.490
886.000	513.743	79.993	19.995	102.959	20.232	2.777	0.484
886.500	514.026	79.990	19.994	102.961	20.234	2.610	0.518
887.000	514.250	79.992	19.994	102.961	20.231	2.817	0.525
887.500	514.518	79.991	19.994	102.961	20.232	2.732	0.500
888.000	514.782	79.991	19.995	102.961	20.229	2.987	0.512
888.500	515.042	79.992	19.995	102.959	20.230	2.895	0.528
889.000	515.275	79.991	19.996	102.963	20.227	3.097	0.509
889.500	515.502	79.991	19.995	102.964	20.230	2.859	0.477
890.000	515.777	79.992	19.996	102.963	20.231	2.788	0.481
890.500	516.029	79.990	19.995	102.962	20.230	2.865	0.514
891.000	516.264	79.992	19.995	102.954	20.231	2.799	0.507
891.500	516.525	79.992	19.995	102.946	20.228	3.048	0.492
892.000	516.806	79.991	19.995	102.945	20.232	2.779	0.519
892.500	517.058	79.992	19.995	102.946	20.232	2.759	0.537
893.000	517.336	79.992	19.994	102.947	20.228	3.006	0.531
893.500	517.547	79.993	19.995	102.950	20.226	3.214	0.509
894.000	517.837	79.991	19.994	102.953	20.232	2.747	0.495
894.500	518.082	79.992	19.994	102.954	20.230	2.885	0.518
895.000	518.325	79.992	19.994	102.955	20.230	2.915	0.512
895.500	518.596	79.991	19.994	102.955	20.229	2.981	0.501
896.000	518.819	79.992	19.994	102.956	20.227	3.088	0.504
896.500	519.095	79.992	19.995	102.956	20.232	2.781	0.496
897.000	519.354	79.991	19.995	102.954	20.225	3.269	0.517
897.500	519.632	79.991	19.995	102.953	20.228	3.044	0.536
898.000	519.870	79.991	19.995	102.955	20.229	2.993	0.526
898.500	520.118	79.992	19.995	102.955	20.225	3.238	0.501
899.000	520.407	79.992	19.995	102.960	20.227	3.100	0.512
899.500	520.676	79.992	19.995	102.964	20.225	3.220	0.548
900.000	520.928	79.992	19.995	102.967	20.230	2.887	0.539
900.500	521.202	79.993	19.995	102.966	20.229	2.982	0.524
901.000	521.484	79.991	19.995	102.965	20.231	2.845	0.541
901.500	521.734	79.992	19.996	102.962	20.233	2.646	0.544
902.000	521.988	79.991	19.996	102.959	20.231	2.843	0.518
902.500	522.201	79.992	19.996	102.957	20.231	2.793	0.486
903.000	522.526	79.990	19.996	102.956	20.231	2.823	0.503
903.500	522.785	79.992	19.996	102.955	20.231	2.849	0.561
904.000	523.062	79.992	19.996	102.952	20.227	3.140	0.560
904.500	523.321	79.991	19.996	102.951	20.224	3.335	0.536
905.000	523.613	79.991	19.996	102.950	20.227	3.094	0.544
905.500	523.851	79.991	19.996	102.951	20.231	2.853	0.541
906.000	524.118	79.991	19.996	102.952	20.230	2.857	0.517
906.500	524.351	79.991	19.996	102.952	20.224	3.300	0.502
907.000	524.643	79.992	19.996	102.953	20.229	2.977	0.512
907.500	524.916	79.991	19.996	102.954	20.231	2.851	0.545
908.000	525.188	79.989	19.996	102.955	20.230	2.907	0.555
908.500	525.456	79.990	19.996	102.955	20.230	2.881	0.543
909.000	525.714	79.991	19.996	102.957	20.230	2.899	0.533
909.500	525.968	79.991	19.995	102.955	20.229	2.994	0.519
910.000	526.232	79.991	19.996	102.954	20.229	2.977	0.515
910.500	526.516	79.991	19.997	102.953	20.232	2.751	0.533
911.000	526.754	79.991	19.996	102.951	20.232	2.781	0.535
911.500	527.023	79.991	19.996	102.950	20.230	2.879	0.514
912.000	527.307	79.990	19.996	102.950	20.233	2.686	0.530
912.500	527.602	79.991	19.996	102.954	20.235	2.520	0.566
913.000	527.867	79.989	19.995	102.956	20.233	2.664	0.570
913.500	528.099	79.990	19.996	102.956	20.230	2.887	0.529
914.000	528.406	79.990	19.996	102.956	20.235	2.564	0.518
914.500	528.663	79.989	19.996	102.957	20.231	2.799	0.551
915.000	528.955	79.990	19.996	102.953	20.231	2.839	0.556
915.500	529.173	79.990	19.995	102.953	20.230	2.883	0.530
916.000	529.451	79.991	19.995	102.955	20.233	2.660	0.503
916.500	529.762	79.990	19.996	102.956	20.230	2.867	0.542
917.000	530.041	79.990	19.995	102.960	20.233	2.678	0.589
917.500	530.277	79.987	19.996	102.967	20.232	2.718	0.553
918.000	530.533	79.990	19.996	102.966	20.230	2.877	0.503
918.500	530.800	79.992	19.996	102.965	20.232	2.745	0.507
919.000	531.059	79.991	19.995	102.965	20.233	2.694	0.524
919.500	531.340	79.990	19.996	102.960	20.231	2.793	0.533
920.000	531.634	79.991	19.995	102.954	20.229	2.997	0.558
920.500	531.915	79.993	19.995	102.953	20.234	2.632	0.575
921.000	532.157	79.993	19.995	102.952	20.232	2.718	0.549
921.500	532.437	79.991	19.996	102.952	20.228	3.066	0.522
922.000	532.700	79.992	19.996	102.952	20.229	2.979	0.532
922.500	532.972	79.992	19.995	102.952	20.231	2.787	0.539
923.000	533.273	79.993	19.997	102.952	20.233	2.708	0.554
923.500	533.508	79.993	19.995	102.952	20.228	3.066	0.554
924.000	533.823	79.991	19.995	102.952	20.230	2.915	0.543
924.500	534.092	79.991	19.996	102.952	20.230	2.909	0.567
925.000	534.365	79.992	19.995	102.954	20.234	2.630	0.563
925.500	534.658	79.992	19.996	102.955	20.232	2.726	0.554
926.000	534.924	79.992	19.995	102.956	20.233	2.678	0.562
926.500	535.184	79.992	19.997	102.957	20.231	2.787	0.542
927.000	535.488	79.991	19.996	102.956	20.229	2.984	0.545
927.500	535.747	79.992	19.996	102.956	20.232	2.753	0.564
928.000	536.006	79.991	19.996	102.955	20.235	2.520	0.541
928.500	536.290	79.992	19.996	102.955	20.230	2.863	0.530
929.000	536.554	79.993	19.996	102.954	20.234	2.628	0.545
929.500	536.825	79.991	19.996	102.953	20.234	2.596	0.542
930.000	537.068	79.991	19.996	102.951	20.233	2.694	0.525
930.500	537.379	79.993	19.996	102.951	20.239	2.229	0.534
931.000	537.594	79.992	19.996	102.956	20.238	2.341	0.540
931.500	537.877	79.992	19.997	102.958	20.233	2.686	0.512
932.000	538.156	79.991	19.997	102.961	20.238	2.305	0.530
932.500	538.399	79.991	19.996	102.961	20.236	2.465	0.542
933.000	538.684	79.990	19.996	102.963	20.230	2.868	0.525
933.500	538.955	79.991	19.996	102.957	20.232	2.730	0.542
934.000	539.242	79.990	19.997	102.958	20.233	2.700	0.556
934.500	539.521	79.990	19.997	102.959	20.230	2.865	0.562
935.000	539.778	79.991	19.996	102.960	20.235	2.546	0.552
935.500	540.052	79.991	19.996	102.959	20.230	2.865	0.534
936.000	540.284	79.990	19.997	102.958	20.231	2.847	0.518
936.500	540.604	79.991	19.997	102.955	20.230	2.881	0.529
937.000	540.854	79.990	19.996	102.952	20.239	2.235	0.561
937.500	541.114	79.990	19.997	102.951	20.232	2.730	0.540
938.000	541.399	79.992	19.997	102.951	20.233	2.698	0.527
938.500	541.636	79.991	19.996	102.952	20.236	2.437	0.533
939.000	541.961	79.990	19.997	102.952	20.237	2.371	0.542
939.500	542.213	79.992	19.996	102.952	20.236	2.433	0.570
940.000	542.488	79.990	19.997	102.952	20.229	2.931	0.552
940.500	542.725	79.991	19.996	102.951	20.232	2.755	0.520
941.000	543.042	79.993	19.997	102.952	20.232	2.759	0.533
941.500	543.290	79.992	19.996	102.954	20.236	2.445	0.559
942.000	543.574	79.993	19.996	102.957	20.235	2.520	0.549
942.500	543.841	79.992	19.996	102.962	20.231	2.837	0.542
943.000	544.106	79.993	19.995	102.969	20.232	2.745	0.541
943.500	544.378	79.991	19.994	102.974	20.232	2.719	0.534
944.000	544.613	79.993	19.996	102.972	20.233	2.676	0.522
944.500	544.901	79.992	19.996	102.969	20.235	2.518	0.515
945.000	545.156	79.993	19.995	102.964	20.232	2.767	0.533
945.500	545.432	79.991	19.995	102.957	20.233	2.666	0.536
946.000	545.696	79.993	19.996	102.951	20.235	2.558	0.535
946.500	545.991	79.995	19.995	102.949	20.236	2.468	0.550
947.000	546.252	79.994	19.995	102.950	20.232	2.733	0.558
947.500	546.502	79.993	19.995	102.952	20.232	2.739	0.534
948.000	546.806	79.995	19.995	102.955	20.234	2.596	0.532
948.500	547.080	79.993	19.995	102.958	20.231	2.855	0.566
949.000	547.319	79.993	19.995	102.958	20.232	2.775	0.545
949.500	547.593	79.994	19.995	102.957	20.232	2.735	0.513
950.000	547.884	79.994	19.994	102.954	20.232	2.743	0.539
950.500	548.121	79.994	19.994	102.954	20.233	2.654	0.547
951.000	548.416	79.994	19.994	102.951	20.232	2.777	0.530
951.500	548.671	79.994	19.995	102.953	20.229	2.951	0.541
952.000	548.955	79.993	19.995	102.952	20.232	2.749	0.544
952.500	549.213	79.994	19.995	102.952	20.232	2.747	0.540
953.000	549.468	79.994	19.995	102.950	20.236	2.484	0.528
953.500	549.767	79.995	19.996	102.949	20.232	2.779	0.534
954.000	549.985	79.993	19.995	102.948	20.230	2.915	0.535
954.500	550.252	79.994	19.995	102.948	20.229	2.955	0.501
955.000	550.547	79.993	19.996	102.952	20.234	2.636	0.524
955.500	550.788	79.992	19.994	102.953	20.233	2.708	0.549
956.000	551.066	79.992	19.995	102.953	20.231	2.801	0.527
956.500	551.343	79.993	19.996	102.952	20.233	2.680	0.537
957.000	551.597	79.993	19.995	102.952	20.233	2.684	0.543
957.500	551.886	79.991	19.995	102.949	20.234	2.620	0.537
958.000	552.126	79.992	19.995	102.950	20.239	2.245	0.536
958.500	552.387	79.990	19.995	102.951	20.231	2.811	0.515
959.000	552.647	79.993	19.995	102.952	20.237	2.359	0.510
959.500	552.901	79.991	19.994	102.952	20.236	2.476	0.517
960.000	553.193	79.992	19.995	102.953	20.233	2.662	0.530
960.500	553.470	79.992	19.996	102.954	20.231	2.855	0.558
961.000	553.704	79.991	19.995	102.953	20.233	2.672	0.540
961.500	553.986	79.992	19.996	102.953	20.231	2.819	0.513
962.000	554.283	79.991	19.996	102.953	20.234	2.574	0.548
962.500	554.549	79.992	19.996	102.951	20.227	3.110	0.571
963.000	554.842	79.991	19.995	102.951	20.234	2.596	0.561
963.500	555.074	79.992	19.996	102.951	20.236	2.475	0.542
964.000	555.346	79.992	19.995	102.950	20.228	3.009	0.514
964.500	555.557	79.991	19.996	102.951	20.231	2.811	0.494
965.000	555.861	79.992	19.996	102.952	20.235	2.556	0.499
965.500	556.101	79.993	19.995	102.951	20.231	2.845	0.530
966.000	556.390	79.993	19.996	102.952	20.233	2.672	0.537
966.500	556.651	79.992	19.995	102.954	20.237	2.407	0.539
967.000	556.908	79.992	19.995	102.959	20.231	2.811	0.533
967.500	557.153	79.993	19.995	102.959	20.232	2.714	0.510
968.000	557.417	79.993	19.996	102.959	20.231	2.811	0.506
968.500	557.679	79.991	19.997	102.958	20.233	2.664	0.518
969.000	557.955	79.991	19.995	102.956	20.233	2.710	0.532
969.500	558.192	79.992	19.995	102.952	20.234	2.588	0.526
970.000	558.482	79.992	19.996	102.950	20.230	2.895	0.520
970.500	558.719	79.991	19.996	102.950	20.232	2.771	0.527
971.000	558.997	79.992	19.996	102.949	20.233	2.686	0.521
971.500	559.267	79.991	19.995	102.949	20.228	3.011	0.531
972.000	559.532	79.994	19.996	102.949	20.232	2.748	0.541
972.500	559.735	79.992	19.996	102.949	20.232	2.716	0.501
973.000	560.001	79.991	19.995	102.953	20.238	2.293	0.469
973.500	560.286	79.992	19.995	102.957	20.230	2.917	0.510
974.000	560.514	79.992	19.996	102.958	20.234	2.622	0.531
974.500	560.776	79.992	19.995	102.958	20.235	2.554	0.501
975.000	561.035	79.992	19.995	102.957	20.234	2.576	0.506
975.500	561.332	79.989	19.993	102.953	20.234	2.596	0.539
976.000	561.551	79.993	19.994	102.949	20.231	2.803	0.536
976.500	561.813	79.992	19.995	102.948	20.233	2.666	0.498
977.000	562.081	79.992	19.995	102.951	20.235	2.542	0.505
977.500	562.375	79.990	19.995	102.953	20.230	2.899	0.546
978.000	562.625	79.991	19.995	102.955	20.235	2.564	0.553
978.500	562.868	79.991	19.996	102.956	20.236	2.423	0.519
979.000	563.097	79.992	19.996	102.956	20.230	2.925	0.483
979.500	563.415	79.992	19.996	102.954	20.236	2.482	0.510
980.000	563.654	79.993	19.995	102.954	20.233	2.710	0.552
980.500	563.930	79.992	19.994	102.954	20.232	2.745	0.535
981.000	564.129	79.990	19.994	102.954	20.233	2.672	0.495
981.500	564.393	79.993	19.995	102.957	20.227	3.146	0.469
982.000	564.654	79.991	19.995	102.959	20.232	2.749	0.494
982.500	564.875	79.991	19.994	102.958	20.230	2.873	0.503
983.000	565.119	79.992	19.995	102.958	20.233	2.700	0.474
983.500	565.410	79.990	19.995	102.957	20.233	2.666	0.500
984.000	565.668	79.990	19.995	102.955	20.233	2.674	0.542
984.500	565.921	79.992	19.996	102.953	20.232	2.726	0.530
985.000	566.143	79.991	19.995	102.954	20.233	2.674	0.493
985.500	566.399	79.991	19.995	102.955	20.229	2.999	0.477
986.000	566.710	79.990	19.995	102.955	20.232	2.730	0.522
986.500	566.892	79.992	19.995	102.957	20.225	3.240	0.529
987.000	567.188	79.991	19.995	102.963	20.232	2.722	0.486
987.500	567.451	79.991	19.995	102.964	20.230	2.859	0.519
988.000	567.651	79.991	19.995	102.963	20.227	3.120	0.511
988.500	567.924	79.992	19.995	102.962	20.232	2.759	0.468
989.000	568.202	79.991	19.996	102.960	20.228	3.018	0.512
989.500	568.452	79.991	19.995	102.954	20.227	3.098	0.540
990.000	568.699	79.990	19.995	102.953	20.230	2.895	0.512
990.500	568.970	79.990	19.996	102.952	20.229	2.975	0.507
991.000	569.256	79.991	19.996	102.954	20.233	2.668	0.538
991.500	569.492	79.990	19.996	102.953	20.227	3.146	0.540
992.000	569.703	79.989	19.996	102.953	20.227	3.088	0.485
992.500	569.968	79.990	19.996	102.953	20.228	3.008	0.462
993.000	570.231	79.991	19.996	102.953	20.230	2.913	0.502
993.500	570.478	79.989	19.997	102.952	20.232	2.743	0.519
994.000	570.754	79.991	19.995	102.953	20.236	2.443	0.516
994.500	570.952	79.989	19.996	102.955	20.230	2.863	0.498
995.000	571.239	79.990	19.996	102.954	20.231	2.851	0.480
995.500	571.491	79.990	19.996	102.956	20.229	2.983	0.512
996.000	571.759	79.992	19.996	102.957	20.231	2.841	0.530
996.500	571.966	79.991	19.996	102.956	20.230	2.903	0.497
997.000	572.265	79.989	19.996	102.955	20.232	2.729	0.491
997.500	572.524	79.992	19.995	102.954	20.230	2.871	0.532
998.000	572.780	79.991	19.996	102.953	20.231	2.837	0.536
998.500	573.016	79.992	19.996	102.952	20.228	3.018	0.504
999.000	573.280	79.991	19.996	102.953	20.229	2.941	0.496
999.500	573.559	79.989	19.996	102.953	20.229	2.968	0.521
1000.000	573.798	79.990	19.996	102.954	20.227	3.074	0.531
1000.500	574.050	79.991	19.997	102.953	20.227	3.096	0.505
1001.000	574.278	79.990	19.995	102.953	20.230	2.897	0.486
1001.500	574.565	79.991	19.996	102.954	20.231	2.843	0.497
1002.000	574.832	79.991	19.995	102.954	20.230	2.915	0.534
1002.500	575.097	79.992	19.995	102.954	20.233	2.666	0.543
1003.000	575.309	79.992	19.995	102.954	20.230	2.899	0.504
1003.500	575.604	79.992	19.995	102.954	20.229	2.965	0.492
1004.000	575.846	79.992	19.995	102.952	20.231	2.829	0.522
1004.500	576.066	79.991	19.995	102.952	20.228	3.022	0.500
1005.000	576.357	79.991	19.994	102.953	20.229	2.984	0.487
1005.500	576.557	79.993	19.996	102.952	20.226	3.210	0.501
1006.000	576.911	79.993	19.995	102.952	20.227	3.096	0.522
1006.500	577.110	79.994	19.996	102.952	20.226	3.166	0.554
1007.000	577.359	79.993	19.996	102.952	20.233	2.656	0.500
1007.500	577.603	79.994	19.996	102.951	20.227	3.134	0.470
1008.000	577.897	79.995	19.994	102.952	20.230	2.875	0.516
1008.500	578.105	79.994	19.995	102.952	20.227	3.086	0.520
1009.000	578.360	79.993	19.995	102.951	20.230	2.907	0.482
1009.500	578.614	79.992	19.995	102.951	20.229	2.982	0.486
1010.000	578.885	79.993	19.995	102.950	20.229	2.986	0.517
1010.500	579.100	79.993	19.996	102.948	20.228	3.072	0.506
1011.000	579.392	79.992	19.995	102.948	20.232	2.783	0.497
1011.500	579.629	79.993	19.995	102.949	20.232	2.723	0.518
1012.000	579.858	79.994	19.996	102.951	20.231	2.811	0.497
1012.500	580.138	79.991	19.996	102.952	20.233	2.688	0.488
1013.000	580.391	79.993	19.996	102.953	20.230	2.871	0.521
1013.500	580.631	79.993	19.995	102.954	20.226	3.148	0.513
1014.000	580.851	79.993	19.997	102.952	20.230	2.915	0.477
1014.500	581.096	79.991	19.996	102.954	20.229	2.945	0.462
1015.000	581.356	79.992	19.995	102.953	20.230	2.887	0.485
1015.500	581.567	79.995	19.995	102.953	20.226	3.171	0.488
1016.000	581.809	79.994	19.996	102.952	20.230	2.924	0.462
1016.500	582.104	79.993	19.996	102.953	20.235	2.556	0.495
1017.000	582.343	79.993	19.996	102.951	20.230	2.917	0.535
1017.500	582.609	79.992	19.995	102.951	20.230	2.927	0.519
1018.000	582.876	79.992	19.995	102.950	20.231	2.823	0.519
1018.500	583.082	79.991	19.996	102.950	20.234	2.566	0.503
1019.000	583.348	79.993	19.996	102.949	20.232	2.733	0.473
1019.500	583.547	79.991	19.997	102.948	20.231	2.805	0.469
1020.000	583.807	79.993	19.996	102.949	20.231	2.815	0.462
1020.500	584.071	79.992	19.997	102.949	20.232	2.711	0.491
1021.000	584.314	79.993	19.997	102.950	20.230	2.869	0.516
1021.500	584.570	79.994	19.997	102.953	20.232	2.731	0.503
1022.000	584.814	79.989	19.996	102.953	20.232	2.729	0.499
1022.500	585.069	79.991	19.996	102.952	20.230	2.897	0.499
1023.000	585.323	79.995	19.996	102.952	20.232	2.765	0.504
1023.500	585.566	79.996	19.997	102.958	20.232	2.739	0.503
1024.000	585.820	79.992	19.997	102.955	20.230	2.877	0.497
1024.499	586.039	79.994	19.997	102.954	20.229	2.970	0.485
1025.000	586.313	79.992	19.997	102.951	20.228	3.022	0.483
1025.500	586.539	79.993	19.996	102.948	20.228	3.010	0.496
1025.999	586.846	79.993	19.998	102.940	20.227	3.074	0.516
1026.499	587.057	79.991	19.996	102.939	20.234	2.620	0.525
1026.999	587.308	79.993	19.997	102.941	20.231	2.799	0.490
1027.499	587.511	79.993	19.996	102.943	20.229	2.982	0.458
1027.999	587.736	79.993	19.997	102.947	20.228	3.064	0.441
1028.499	588.044	79.994	19.997	102.949	20.227	3.118	0.481
1028.999	588.288	79.994	19.996	102.949	20.227	3.140	0.543
1029.499	588.532	79.994	19.996	102.949	20.226	3.218	0.520
1029.999	588.777	79.994	19.995	102.949	20.227	3.096	0.488
1030.499	589.019	79.993	19.997	102.949	20.229	2.989	0.488
1030.999	589.271	79.994	19.997	102.947	20.227	3.094	0.490
1031.499	589.536	79.994	19.995	102.946	20.224	3.342	0.505
1031.999	589.789	79.996	19.995	102.946	20.228	3.033	0.518
1032.500	590.003	79.993	19.996	102.945	20.227	3.102	0.492
1033.001	590.285	79.994	19.995	102.946	20.231	2.837	0.481
1033.501	590.525	79.996	19.995	102.946	20.226	3.170	0.509
1034.000	590.784	79.993	19.995	102.948	20.230	2.885	0.511
1034.500	591.016	79.994	19.996	102.950	20.226	3.182	0.495
1035.000	591.244	79.993	19.995	102.951	20.227	3.099	0.476
1035.499	591.497	79.993	19.994	102.950	20.229	2.959	0.471
1035.999	591.738	79.992	19.996	102.950	20.225	3.228	0.488
1036.499	591.988	79.994	19.995	102.950	20.227	3.108	0.493
1036.999	592.224	79.991	19.994	102.948	20.229	2.949	0.488
1037.499	592.490	79.992	19.994	102.949	20.230	2.883	0.494
1037.999	592.736	79.990	19.995	102.950	20.228	3.039	0.507
1038.499	592.987	79.993	19.995	102.950	20.228	3.067	0.504
1038.999	593.272	79.993	19.995	102.950	20.229	2.975	0.516
1039.499	593.478	79.993	19.995	102.950	20.227	3.128	0.513
1039.999	593.766	79.991	19.995	102.949	20.232	2.756	0.492
1040.499	594.005	79.990	19.995	102.955	20.227	3.076	0.511
1040.999	594.248	79.992	19.996	102.961	20.229	2.990	0.505
1041.499	594.472	79.991	19.995	102.962	20.229	2.992	0.474
1041.999	594.695	79.994	19.994	102.964	20.230	2.927	0.456
1042.499	595.008	79.992	19.995	102.968	20.228	3.038	0.492
1042.999	595.230	79.987	19.995	102.964	20.232	2.759	0.536
1043.499	595.519	79.993	19.995	102.959	20.228	3.034	0.523
1044.000	595.729	79.989	19.996	102.960	20.228	3.038	0.505
1044.500	595.994	79.992	19.995	102.963	20.225	3.248	0.487
1044.999	596.208	79.991	19.995	102.965	20.228	3.046	0.477
1045.499	596.482	79.993	19.995	102.967	20.226	3.184	0.483
1045.999	596.726	79.991	19.996	102.967	20.227	3.108	0.503
1046.499	596.969	79.989	19.994	102.966	20.226	3.166	0.503
1046.999	597.228	79.992	19.995	102.962	20.226	3.162	0.495
1047.499	597.463	79.990	19.995	102.961	20.226	3.196	0.498
1047.999	597.725	79.990	19.995	102.960	20.227	3.108	0.496
1048.499	597.996	79.992	19.995	102.959	20.227	3.112	0.515
1048.999	598.226	79.992	19.995	102.962	20.227	3.116	0.517
1049.499	598.411	79.990	19.995	102.966	20.226	3.182	0.458
1049.999	598.727	79.992	19.996	102.963	20.226	3.178	0.458
1050.499	598.989	79.991	19.996	102.960	20.225	3.240	0.539
1050.999	599.249	79.991	19.996	102.959	20.228	3.054	0.550
1051.499	599.474	79.990	19.995	102.957	20.229	2.933	0.504
1051.999	599.712	79.990	19.995	102.952	20.226	3.152	0.474
1052.500	599.942	79.994	19.995	102.951	20.229	2.973	0.465
1053.000	600.223	79.993	19.995	102.950	20.227	3.144	0.489
1053.500	600.445	79.990	19.994	102.950	20.227	3.106	0.507
1054.000	600.733	79.991	19.995	102.952	20.228	3.011	0.507
1054.499	600.954	79.991	19.996	102.955	20.234	2.616	0.509
1054.999	601.236	79.992	19.996	102.958	20.227	3.132	0.505
1055.500	601.474	79.992	19.996	102.960	20.229	2.929	0.511
1056.000	601.708	79.991	19.995	102.959	20.225	3.228	0.496
1056.499	601.985	79.992	19.995	102.957	20.228	3.050	0.492
1057.000	602.243	79.990	19.996	102.958	20.229	2.999	0.524
1057.500	602.460	79.991	19.996	102.960	20.229	2.935	0.505
1058.000	602.715	79.990	19.995	102.961	20.229	2.969	0.473
1058.500	602.943	79.990	19.996	102.962	20.229	2.935	0.478
1059.000	603.204	79.991	19.995	102.962	20.230	2.903	0.486
1059.500	603.443	79.990	19.995	102.960	20.227	3.146	0.494
1059.999	603.696	79.992	19.995	102.955	20.229	2.965	0.496
1060.499	603.923	79.990	19.996	102.953	20.228	3.052	0.486
1060.999	604.188	79.991	19.996	102.952	20.230	2.879	0.486
1061.499	604.451	79.991	19.996	102.952	20.232	2.775	0.510
1061.999	604.711	79.992	19.995	102.951	20.231	2.811	0.526
1062.499	604.924	79.992	19.995	102.951	20.230	2.917	0.498
1062.999	605.186	79.992	19.995	102.952	20.230	2.905	0.474
1063.499	605.467	79.992	19.995	102.955	20.231	2.851	0.509
1063.999	605.690	79.991	19.996	102.959	20.229	2.976	0.524
1064.499	605.949	79.991	19.995	102.960	20.229	2.996	0.493
1064.999	606.195	79.990	19.996	102.963	20.229	2.968	0.493
1065.499	606.460	79.988	19.995	102.964	20.228	3.016	0.508
1065.999	606.707	79.990	19.995	102.964	20.225	3.235	0.511
1066.499	606.937	79.990	19.995	102.960	20.227	3.092	0.495
1066.999	607.195	79.991	19.995	102.960	20.228	3.062	0.483
1067.499	607.475	79.991	19.995	102.960	20.227	3.144	0.513
1067.999	607.720	79.989	19.995	102.960	20.229	2.994	0.532
1068.499	607.978	79.988	19.995	102.957	20.229	2.947	0.514
1068.999	608.219	79.991	19.995	102.957	20.227	3.078	0.501
1069.499	608.459	79.991	19.995	102.957	20.230	2.875	0.490
1069.999	608.685	79.989	19.994	102.952	20.226	3.184	0.473
1070.499	608.962	79.990	19.996	102.951	20.227	3.088	0.485
1070.999	609.209	79.991	19.995	102.955	20.224	3.323	0.514
1071.499	609.469	79.991	19.995	102.956	20.228	3.008	0.516
1071.999	609.717	79.989	19.994	102.955	20.227	3.078	0.508
1072.499	609.965	79.991	19.995	102.955	20.226	3.162	0.502
1072.999	610.208	79.991	19.995	102.954	20.227	3.106	0.493
1073.499	610.483	79.989	19.995	102.950	20.228	3.070	0.505
1073.999	610.721	79.991	19.996	102.951	20.228	3.059	0.516
1074.499	610.964	79.991	19.996	102.950	20.230	2.877	0.496
1074.999	611.217	79.990	19.995	102.950	20.228	3.003	0.488
1075.499	611.446	79.992	19.995	102.950	20.231	2.817	0.489
1075.999	611.705	79.991	19.995	102.950	20.233	2.644	0.485
1076.499	611.995	79.994	19.995	102.948	20.227	3.104	0.519
1077.000	612.179	79.992	19.995	102.948	20.228	3.044	0.512
1077.501	612.482	79.987	19.995	102.948	20.228	3.060	0.481
1078.000	612.704	79.991	19.996	102.948	20.227	3.132	0.506
1078.499	612.948	79.993	19.996	102.948	20.228	3.036	0.495
1079.000	613.237	79.993	19.995	102.949	20.229	2.975	0.499
1079.500	613.486	79.991	19.995	102.950	20.228	3.026	0.535
1079.999	613.690	79.993	19.996	102.955	20.227	3.144	0.496
1080.499	613.952	79.992	19.995	102.955	20.227	3.120	0.460
1080.999	614.204	79.991	19.996	102.954	20.225	3.257	0.490
1081.499	614.444	79.992	19.995	102.954	20.228	3.052	0.503
1081.999	614.717	79.993	19.997	102.953	20.225	3.242	0.502
1082.500	614.958	79.993	19.995	102.948	20.227	3.120	0.513
1083.000	615.224	79.993	19.996	102.949	20.225	3.258	0.511
1083.500	615.450	79.993	19.996	102.953	20.226	3.208	0.500
1084.001	615.719	79.993	19.996	102.956	20.225	3.286	0.493
1084.501	615.958	79.994	19.996	102.959	20.226	3.166	0.502
1085.000	616.211	79.993	19.996	102.965	20.226	3.202	0.500
1085.499	616.459	79.991	19.996	102.965	20.225	3.279	0.496
1085.999	616.724	79.993	19.996	102.962	20.226	3.217	0.507
1086.499	616.972	79.994	19.996	102.962	20.228	3.032	0.513
1086.999	617.244	79.995	19.996	102.960	20.225	3.248	0.516
1087.499	617.462	79.996	19.996	102.958	20.227	3.092	0.505
1087.999	617.713	79.995	19.996	102.960	20.226	3.158	0.480
1088.499	617.978	79.994	19.995	102.961	20.224	3.335	0.493
1088.999	618.195	79.994	19.996	102.958	20.225	3.220	0.499
1089.499	618.498	79.992	19.997	102.956	20.223	3.385	0.501
1089.999	618.731	79.993	19.997	102.953	20.226	3.216	0.528
1090.500	618.994	79.993	19.995	102.952	20.225	3.254	0.516
1091.000	619.193	79.992	19.996	102.950	20.228	3.025	0.479
1091.499	619.463	79.992	19.997	102.951	20.224	3.306	0.466
1092.000	619.730	79.992	19.997	102.951	20.224	3.328	0.503
1092.500	619.949	79.992	19.996	102.954	20.226	3.182	0.512
1092.999	620.232	79.995	19.997	102.957	20.226	3.168	0.494
1093.499	620.446	79.990	19.996	102.961	20.229	2.929	0.499
1093.999	620.723	79.994	19.996	102.963	20.229	2.979	0.494
1094.499	620.938	79.993	19.995	102.962	20.228	3.027	0.492
1094.999	621.156	79.994	19.996	102.959	20.224	3.320	0.463
1095.499	621.446	79.990	19.995	102.953	20.227	3.124	0.470
1095.999	621.693	79.992	19.994	102.949	20.227	3.077	0.522
1096.499	621.917	79.993	19.996	102.946	20.225	3.228	0.504
1096.999	622.187	79.992	19.995	102.948	20.228	3.033	0.483
1097.499	622.428	79.993	19.996	102.950	20.229	2.969	0.503
1097.999	622.686	79.993	19.995	102.953	20.228	3.057	0.505
1098.499	622.934	79.993	19.996	102.958	20.227	3.108	0.502
1098.999	623.190	79.994	19.995	102.961	20.228	3.015	0.505
1099.499	623.453	79.992	19.995	102.960	20.227	3.092	0.512
1099.999	623.683	79.993	19.995	102.958	20.226	3.168	0.506
1100.500	623.914	79.994	19.996	102.956	20.224	3.324	0.477
1101.001	624.183	79.992	19.996	102.954	20.227	3.081	0.480
1101.501	624.435	79.992	19.995	102.956	20.230	2.893	0.510
1102.000	624.685	79.994	19.995	102.960	20.224	3.352	0.511
1102.499	624.919	79.995	19.996	102.962	20.223	3.385	0.493
1103.000	625.141	79.993	19.995	102.964	20.227	3.140	0.470
1103.500	625.414	79.995	19.995	102.963	20.225	3.230	0.476
1103.999	625.683	79.993	19.996	102.959	20.224	3.292	0.519
1104.499	625.910	79.993	19.995	102.957	20.225	3.282	0.519
1105.000	626.162	79.992	19.996	102.957	20.222	3.443	0.487
1105.500	626.435	79.993	19.995	102.960	20.221	3.523	0.502
1106.000	626.680	79.994	19.996	102.965	20.225	3.220	0.521
1106.500	626.959	79.993	19.995	102.968	20.226	3.161	0.521
1106.999	627.182	79.995	19.996	102.972	20.226	3.206	0.513
1107.500	627.456	79.993	19.995	102.974	20.224	3.360	0.499
1108.001	627.683	79.992	19.995	102.971	20.227	3.106	0.499
1108.500	627.958	79.994	19.996	102.966	20.225	3.264	0.501
1108.999	628.181	79.993	19.995	102.965	20.220	3.610	0.500
1109.499	628.461	79.995	19.995	102.963	20.225	3.286	0.501
1109.999	628.702	79.994	19.996	102.959	20.225	3.264	0.511
1110.499	628.982	79.996	19.995	102.959	20.225	3.272	0.521
1111.000	629.223	79.995	19.995	102.965	20.221	3.555	0.521
1111.501	629.479	79.993	19.995	102.965	20.225	3.290	0.509
1112.000	629.712	79.993	19.995	102.965	20.221	3.511	0.493
1112.500	630.029	79.991	19.996	102.970	20.223	3.419	0.519
1113.000	630.275	79.992	19.996	102.971	20.224	3.342	0.557
1113.499	630.503	79.993	19.995	102.966	20.224	3.348	0.519
1114.000	630.723	79.994	19.996	102.965	20.225	3.228	0.461
1114.500	631.003	79.993	19.996	102.964	20.224	3.348	0.474
1114.999	631.259	79.992	19.996	102.961	20.226	3.218	0.518
1115.499	631.525	79.996	19.996	102.962	20.222	3.471	0.529
1115.999	631.770	79.993	19.996	102.967	20.223	3.423	0.517
1116.499	632.042	79.992	19.996	102.971	20.219	3.684	0.514
1116.999	632.291	79.993	19.996	102.973	20.220	3.626	0.519
1117.500	632.544	79.991	19.996	102.976	20.221	3.519	0.511
1118.000	632.818	79.991	19.995	102.975	20.223	3.398	0.515
1118.500	633.103	79.991	19.996	102.969	20.220	3.633	0.543
1119.000	633.341	79.991	19.996	102.964	20.220	3.603	0.541
1119.499	633.596	79.991	19.995	102.961	20.221	3.575	0.508
1119.999	633.851	79.991	19.996	102.959	20.223	3.416	0.501
1120.499	634.127	79.992	19.996	102.962	20.224	3.334	0.521
1120.999	634.371	79.991	19.995	102.969	20.222	3.478	0.526
1121.500	634.648	79.991	19.996	102.972	20.220	3.647	0.520
1122.000	634.936	79.990	19.997	102.973	20.218	3.776	0.543
1122.500	635.192	79.992	19.995	102.972	20.222	3.481	0.555
1123.000	635.441	79.991	19.995	102.966	20.219	3.711	0.525
1123.500	635.736	79.992	19.996	102.965	20.218	3.747	0.524
1124.000	636.033	79.992	19.995	102.968	20.221	3.545	0.568
1124.499	636.252	79.992	19.995	102.972	20.225	3.286	0.554
1124.999	636.491	79.993	19.995	102.976	20.223	3.418	0.487
1125.500	636.750	79.992	19.996	102.977	20.221	3.573	0.478
1126.000	637.012	79.990	19.995	102.971	20.223	3.393	0.509
1126.499	637.289	79.990	19.995	102.965	20.222	3.455	0.530
1126.999	637.581	79.992	19.995	102.962	20.222	3.501	0.554
1127.499	637.836	79.990	19.995	102.960	20.221	3.527	0.558
1128.000	638.120	79.992	19.995	102.964	20.221	3.535	0.543
1128.500	638.361	79.992	19.995	102.969	20.218	3.748	0.532
1128.999	638.626	79.992	19.994	102.971	20.221	3.551	0.515
1129.499	638.859	79.993	19.996	102.975	20.220	3.591	0.502
1129.999	639.151	79.994	19.996	102.979	20.223	3.414	0.512
1130.499	639.405	79.992	19.995	102.981	20.221	3.559	0.536
1130.999	639.681	79.993	19.995	102.984	20.221	3.559	0.537
1131.499	639.909	79.991	19.995	102.985	20.220	3.614	0.517
1132.000	640.207	79.993	19.995	102.979	20.225	3.245	0.515
1132.501	640.465	79.990	19.995	102.977	20.221	3.564	0.541
1133.000	640.747	79.989	19.994	102.977	20.222	3.497	0.548
1133.499	641.012	79.992	19.995	102.976	20.220	3.593	0.543
1133.999	641.281	79.990	19.995	102.979	20.222	3.471	0.540
1134.499	641.556	79.992	19.995	102.984	20.221	3.579	0.539
1134.999	641.829	79.992	19.995	102.986	20.221	3.533	0.546
1135.499	642.067	79.992	19.994	102.981	20.220	3.625	0.530
1136.000	642.321	79.991	19.995	102.974	20.217	3.808	0.502
1136.500	642.617	79.993	19.996	102.970	20.220	3.586	0.521
1136.999	642.841	79.994	19.994	102.968	20.219	3.706	0.535
1137.499	643.167	79.991	19.995	102.963	20.217	3.843	0.535
1137.999	643.418	79.992	19.996	102.961	20.221	3.529	0.563
1138.499	643.688	79.991	19.996	102.960	20.219	3.696	0.549
1138.999	643.944	79.992	19.995	102.962	20.220	3.594	0.524
1139.499	644.196	79.993	19.995	102.961	20.221	3.552	0.517
1139.999	644.481	79.993	19.995	102.966	20.217	3.811	0.523
1140.499	644.709	79.993	19.996	102.974	20.217	3.813	0.525
1140.999	645.008	79.995	19.995	102.977	20.216	3.917	0.520
1141.499	645.243	79.992	19.995	102.973	20.218	3.730	0.531
1141.999	645.515	79.992	19.995	102.967	20.217	3.818	0.521
1142.499	645.786	79.995	19.995	102.960	20.216	3.888	0.525
1142.999	646.096	79.991	19.994	102.952	20.218	3.762	0.562
1143.499	646.316	79.993	19.995	102.952	20.222	3.485	0.555
1143.999	646.590	79.993	19.995	102.957	20.216	3.922	0.512
1144.499	646.868	79.993	19.995	102.966	20.217	3.806	0.523
1144.999	647.122	79.991	19.995	102.972	20.217	3.829	0.542
1145.499	647.393	79.991	19.996	102.977	20.218	3.767	0.529
1145.999	647.653	79.992	19.995	102.974	20.222	3.463	0.528
1146.499	647.976	79.994	19.995	102.968	20.214	4.030	0.557
1146.999	648.214	79.994	19.995	102.960	20.217	3.835	0.572
1147.499	648.456	79.992	19.996	102.954	20.217	3.811	0.521
1147.999	648.739	79.993	19.995	102.951	20.218	3.744	0.503
1148.499	648.955	79.989	19.996	102.955	20.215	4.013	0.512
1148.999	649.277	79.992	19.995	102.956	20.216	3.891	0.519
1149.499	649.509	79.991	19.995	102.958	20.216	3.887	0.546
1149.999	649.792	79.989	19.997	102.959	20.216	3.941	0.534
1150.499	650.063	79.990	19.995	102.956	20.217	3.806	0.535
1150.999	650.312	79.991	19.997	102.952	20.216	3.903	0.537
1151.499	650.580	79.991	19.995	102.952	20.216	3.925	0.518
1151.999	650.819	79.990	19.994	102.951	20.219	3.720	0.512
1152.500	651.110	79.991	19.995	102.955	20.215	3.997	0.519
1153.000	651.350	79.991	19.995	102.961	20.215	3.961	0.531
1153.500	651.659	79.992	19.994	102.968	20.218	3.780	0.540
1154.001	651.897	79.989	19.995	102.974	20.218	3.770	0.548
1154.500	652.150	79.991	19.995	102.976	20.216	3.878	0.519
1154.999	652.383	79.992	19.995	102.970	20.215	3.958	0.488
1155.499	652.704	79.992	19.994	102.966	20.218	3.798	0.520
1155.999	652.903	79.991	19.996	102.958	20.219	3.684	0.537
1156.499	653.204	79.993	19.996	102.952	20.217	3.841	0.510
1156.999	653.471	79.993	19.995	102.951	20.219	3.722	0.534
1157.499	653.717	79.992	19.995	102.953	20.216	3.911	0.540
1157.999	653.987	79.992	19.995	102.954	20.217	3.825	0.515
1158.499	654.269	79.992	19.995	102.955	20.217	3.871	0.534
1159.000	654.530	79.993	19.996	102.956	20.216	3.883	0.548
1159.500	654.791	79.993	19.996	102.958	20.217	3.837	0.533
1159.999	655.045	79.992	19.995	102.957	20.216	3.897	0.518
1160.499	655.321	79.992	19.995	102.954	20.217	3.871	0.523
1160.999	655.567	79.993	19.996	102.956	20.218	3.774	0.526
1161.500	655.785	79.993	19.996	102.962	20.220	3.638	0.492
1162.000	656.075	79.996	19.995	102.960	20.216	3.897	0.486
1162.499	656.332	79.993	19.995	102.960	20.215	4.006	0.528
1162.999	656.585	79.997	19.995	102.961	20.217	3.835	0.529
1163.500	656.842	79.994	19.995	102.962	20.213	4.116	0.510
1164.000	657.101	79.994	19.995	102.962	20.215	3.965	0.513
1164.500	657.393	79.997	19.996	102.968	20.216	3.933	0.533
1165.001	657.647	79.997	19.994	102.971	20.215	3.977	0.548
1165.500	657.894	79.993	19.996	102.974	20.217	3.856	0.523
1165.999	658.109	79.993	19.995	102.973	20.216	3.931	0.482
1166.499	658.406	79.995	19.994	102.965	20.211	4.266	0.487
1166.999	658.676	79.994	19.995	102.959	20.213	4.101	0.540
1167.499	658.945	79.995	19.993	102.956	20.216	3.888	0.553
1167.999	659.199	79.994	19.994	102.952	20.216	3.923	0.531
1168.499	659.462	79.994	19.995	102.950	20.218	3.782	0.519
1169.000	659.711	79.993	19.995	102.951	20.215	3.957	0.514
1169.500	659.984	79.994	19.995	102.951	20.219	3.708	0.517
1169.999	660.231	79.993	19.994	102.952	20.214	4.033	0.521
1170.499	660.510	79.993	19.995	102.954	20.214	4.053	0.523
1170.999	660.721	79.992	19.995	102.956	20.213	4.151	0.509
1171.499	660.991	79.993	19.995	102.954	20.215	3.979	0.486
1171.999	661.226	79.994	19.995	102.954	20.215	3.971	0.493
1172.499	661.473	79.993	19.994	102.953	20.214	4.079	0.493
1172.999	661.745	79.992	19.995	102.953	20.213	4.095	0.501
1173.499	662.048	79.995	19.995	102.950	20.216	3.901	0.548
1173.999	662.266	79.993	19.996	102.952	20.214	4.033	0.548
1174.499	662.557	79.992	19.995	102.959	20.214	4.023	0.515
1174.999	662.834	79.995	19.996	102.962	20.214	4.025	0.539
1175.499	663.043	79.994	19.995	102.961	20.219	3.726	0.527
1175.999	663.328	79.994	19.996	102.961	20.216	3.914	0.490
1176.499	663.569	79.994	19.995	102.967	20.216	3.907	0.510
1176.999	663.831	79.993	19.996	102.967	20.215	3.971	0.514
1177.499	664.095	79.993	19.996	102.969	20.218	3.770	0.514
1177.999	664.326	79.993	19.995	102.970	20.215	3.959	0.510
1178.499	664.614	79.992	19.997	102.969	20.216	3.920	0.507
1178.999	664.851	79.992	19.996	102.962	20.213	4.127	0.523
1179.499	665.119	79.993	19.995	102.958	20.216	3.930	0.515
1179.999	665.399	79.992	19.996	102.956	20.218	3.790	0.526
1180.499	665.620	79.994	19.996	102.958	20.215	3.953	0.524
1180.999	665.850	79.993	19.995	102.963	20.214	4.049	0.476
1181.499	666.151	79.994	19.996	102.969	20.215	4.003	0.491
1181.999	666.428	79.994	19.995	102.967	20.213	4.137	0.554
1182.499	666.682	79.993	19.995	102.965	20.217	3.858	0.554
1182.999	666.955	79.993	19.995	102.966	20.213	4.103	0.529
1183.499	667.199	79.994	19.996	102.965	20.215	3.957	0.522
1183.999	667.418	79.993	19.994	102.964	20.213	4.151	0.490
1184.499	667.704	79.994	19.996	102.966	20.213	4.099	0.484
1184.999	667.947	79.995	19.995	102.971	20.214	4.083	0.517
1185.499	668.198	79.994	19.996	102.973	20.215	3.983	0.512
1186.000	668.514	79.993	19.996	102.973	20.214	4.040	0.531
1186.500	668.689	79.994	19.996	102.971	20.212	4.179	0.529
1186.999	668.983	79.993	19.996	102.969	20.213	4.127	0.480
1187.500	669.300	79.996	19.995	102.964	20.215	3.996	0.540
1188.001	669.518	79.994	19.995	102.960	20.217	3.850	0.573
1188.500	669.778	79.996	19.995	102.963	20.211	4.259	0.506
1189.000	670.054	79.995	19.996	102.966	20.216	3.924	0.507
1189.500	670.318	79.996	19.997	102.973	20.215	3.999	0.538
1189.999	670.596	79.994	19.995	102.981	20.214	4.051	0.541
1190.499	670.813	79.996	19.996	102.981	20.212	4.167	0.519
1191.000	671.098	79.996	19.994	102.973	20.217	3.814	0.498
1191.500	671.358	79.994	19.995	102.969	20.216	3.928	0.523
1192.000	671.613	79.995	19.994	102.966	20.216	3.886	0.530
1192.500	671.859	79.994	19.995	102.965	20.216	3.909	0.508
1192.999	672.155	79.993	19.995	102.968	20.217	3.807	0.521
1193.499	672.432	79.995	19.995	102.973	20.217	3.839	0.557
1194.000	672.649	79.995	19.996	102.972	20.215	4.007	0.533
1194.500	672.896	79.995	19.996	102.968	20.216	3.905	0.479
1194.999	673.186	79.994	19.996	102.965	20.214	4.039	0.500
1195.499	673.421	79.991	19.996	102.968	20.215	4.007	0.531
1195.999	673.702	79.992	19.996	102.971	20.212	4.180	0.521
1196.499	673.932	79.992	19.994	102.974	20.212	4.181	0.514
1196.999	674.200	79.995	19.995	102.982	20.214	4.063	0.504
1197.499	674.507	79.995	19.996	102.985	20.216	3.931	0.536
1197.999	674.755	79.993	19.995	102.985	20.214	4.017	0.565
1198.499	675.027	79.991	19.997	102.983	20.214	4.059	0.537
1198.999	675.261	79.993	19.996	102.983	20.214	4.027	0.513
1199.499	675.580	79.992	19.996	102.979	20.211	4.244	0.529
1199.999	675.778	79.992	19.996	102.974	20.213	4.140	0.535
1200.499	676.058	79.993	19.997	102.974	20.215	3.985	0.497
1200.999	676.245	79.991	19.996	102.975	20.214	4.019	0.473
1201.499	676.543	79.991	19.996	102.977	20.216	3.917	0.476
1201.999	676.804	79.991	19.996	102.977	20.214	4.075	0.522
1202.499	677.093	79.991	19.996	102.976	20.218	3.774	0.555
1202.999	677.356	79.992	19.996	102.969	20.217	3.828	0.551
1203.500	677.584	79.993	19.996	102.961	20.215	3.965	0.521
1204.000	677.873	79.992	19.996	102.955	20.216	3.903	0.504
1204.499	678.098	79.992	19.996	102.952	20.214	4.087	0.515
1204.999	678.369	79.992	19.997	102.952	20.215	4.013	0.505
1205.499	678.624	79.992	19.997	102.953	20.214	4.039	0.511
1205.999	678.894	79.993	19.996	102.955	20.215	3.997	0.526
1206.499	679.111	79.993	19.997	102.956	20.209	4.380	0.506
1206.999	679.374	79.989	19.997	102.962	20.215	3.994	0.483
1207.499	679.661	79.991	19.997	102.967	20.216	3.880	0.515
1208.000	679.897	79.989	19.996	102.968	20.216	3.912	0.537
1208.500	680.152	79.993	19.996	102.968	20.215	3.995	0.508
1208.999	680.429	79.990	19.997	102.965	20.214	4.031	0.512
1209.499	680.671	79.990	19.997	102.959	20.213	4.158	0.525
1209.999	680.903	79.991	19.996	102.956	20.217	3.804	0.497
1210.499	681.196	79.992	19.997	102.957	20.213	4.117	0.500
1210.999	681.429	79.993	19.997	102.958	20.215	3.977	0.525
1211.499	681.680	79.992	19.996	102.963	20.214	4.085	0.505
1211.999	681.954	79.992	19.996	102.966	20.213	4.095	0.505
1212.499	682.173	79.992	19.996	102.964	20.211	4.261	0.509
1212.999	682.437	79.991	19.997	102.965	20.214	4.071	0.488
1213.499	682.692	79.991	19.996	102.967	20.215	3.945	0.501
1213.999	682.920	79.991	19.996	102.963	20.211	4.306	0.501
1214.499	683.213	79.993	19.997	102.958	20.213	4.095	0.502
1214.999	683.451	79.992	19.996	102.961	20.212	4.167	0.526
1215.499	683.677	79.992	19.994	102.961	20.213	4.099	0.497
1215.999	683.994	79.992	19.997	102.959	20.211	4.253	0.504
1216.500	684.203	79.993	19.995	102.965	20.214	4.024	0.535
1217.000	684.442	79.992	19.996	102.970	20.216	3.940	0.487
1217.499	684.707	79.992	19.996	102.973	20.214	4.083	0.476
1217.999	684.957	79.990	19.996	102.977	20.212	4.225	0.510
1218.499	685.199	79.991	19.996	102.978	20.214	4.083	0.503
1218.999	685.484	79.993	19.994	102.974	20.213	4.111	0.510
1219.500	685.724	79.994	19.995	102.969	20.212	4.179	0.526
1220.000	685.992	79.993	19.995	102.962	20.212	4.191	0.516
1220.499	686.252	79.992	19.995	102.958	20.210	4.318	0.518
1220.999	686.479	79.992	19.995	102.961	20.216	3.930	0.508
1221.499	686.721	79.993	19.996	102.966	20.213	4.115	0.478
1222.000	686.983	79.993	19.996	102.970	20.213	4.093	0.486
1222.500	687.238	79.994	19.996	102.977	20.211	4.304	0.511
1222.999	687.472	79.993	19.996	102.981	20.213	4.149	0.503
1223.499	687.739	79.991	19.996	102.975	20.212	4.182	0.494
1223.999	687.960	79.994	19.996	102.969	20.213	4.142	0.494
1224.499	688.209	79.991	19.996	102.966	20.214	4.086	0.479
1224.999	688.458	79.992	19.995	102.964	20.216	3.907	0.484
1225.499	688.743	79.993	19.996	102.964	20.214	4.045	0.515
1225.999	688.989	79.993	19.996	102.969	20.213	4.156	0.532
1226.499	689.226	79.990	19.996	102.974	20.212	4.167	0.507
1226.999	689.438	79.993	19.996	102.978	20.212	4.233	0.466
1227.499	689.745	79.992	19.995	102.979	20.214	4.067	0.484
1227.999	689.965	79.993	19.995	102.979	20.213	4.111	0.523
1228.499	690.240	79.989	19.995	102.980	20.212	4.218	0.511
1228.999	690.473	79.993	19.994	102.981	20.213	4.109	0.502
1229.499	690.742	79.992	19.995	102.977	20.215	4.009	0.505
1229.999	690.961	79.992	19.996	102.976	20.210	4.326	0.495
1230.499	691.183	79.993	19.997	102.971	20.214	4.041	0.464
1230.999	691.465	79.992	19.996	102.972	20.215	3.969	0.472
1231.499	691.726	79.992	19.995	102.972	20.214	4.082	0.523
1231.999	691.932	79.994	19.996	102.978	20.216	3.919	0.505
1232.499	692.188	79.993	19.995	102.982	20.215	3.963	0.465
1232.999	692.426	79.992	19.997	102.980	20.213	4.111	0.478
1233.499	692.684	79.991	19.996	102.973	20.213	4.153	0.495
1233.999	692.960	79.992	19.995	102.968	20.214	4.022	0.515
1234.499	693.208	79.991	19.995	102.961	20.209	4.432	0.529
1234.999	693.456	79.991	19.995	102.953	20.208	4.516	0.510
1235.499	693.722	79.993	19.995	102.953	20.213	4.133	0.505
1235.999	693.941	79.994	19.996	102.955	20.212	4.225	0.499
1236.499	694.165	79.993	19.996	102.958	20.210	4.354	0.464
1236.999	694.406	79.991	19.996	102.965	20.213	4.153	0.454
1237.499	694.672	79.991	19.995	102.972	20.215	4.010	0.486
1237.999	694.953	79.994	19.996	102.975	20.214	4.066	0.527
1238.499	695.206	79.992	19.996	102.976	20.210	4.323	0.540
1238.999	695.441	79.993	19.995	102.973	20.211	4.265	0.511
1239.499	695.682	79.991	19.996	102.968	20.209	4.390	0.482
1240.000	695.964	79.992	19.996	102.962	20.208	4.517	0.499
1240.500	696.228	79.993	19.996	102.959	20.209	4.442	0.535
1240.999	696.459	79.992	19.996	102.958	20.208	4.453	0.521
1241.499	696.654	79.994	19.995	102.955	20.210	4.318	0.461
1241.999	696.917	79.993	19.996	102.954	20.207	4.587	0.442
1242.499	697.187	79.994	19.996	102.957	20.213	4.131	0.496
1243.000	697.450	79.993	19.996	102.962	20.211	4.306	0.533
1243.500	697.671	79.994	19.996	102.968	20.213	4.153	0.508
1243.999	697.930	79.994	19.995	102.976	20.211	4.262	0.482
1244.499	698.151	79.995	19.994	102.981	20.212	4.228	0.480
1245.000	698.409	79.989	19.994	102.986	20.213	4.134	0.479
1245.500	698.688	79.993	19.994	102.988	20.210	4.332	0.508
1245.999	698.902	79.995	19.995	102.985	20.210	4.364	0.515
1246.499	699.135	79.995	19.995	102.980	20.212	4.171	0.470
1246.999	699.404	79.994	19.994	102.979	20.206	4.649	0.475
1247.499	699.668	79.995	19.995	102.977	20.210	4.361	0.518
1247.999	699.939	79.996	19.995	102.975	20.208	4.510	0.534
1248.499	700.140	79.994	19.995	102.979	20.208	4.474	0.503
1248.999	700.385	79.992	19.995	102.983	20.207	4.530	0.459
1249.499	700.647	79.993	19.996	102.981	20.213	4.099	0.476
1249.999	700.855	79.992	19.996	102.977	20.210	4.368	0.488
1250.499	701.154	79.993	19.996	102.975	20.215	4.000	0.489
1250.999	701.361	79.992	19.995	102.969	20.210	4.356	0.507
1251.499	701.603	79.994	19.995	102.970	20.211	4.285	0.477
1251.999	701.838	79.994	19.995	102.967	20.211	4.303	0.463
1252.499	702.145	79.994	19.995	102.972	20.212	4.197	0.510
1252.999	702.436	79.994	19.995	102.976	20.211	4.285	0.570
1253.499	702.607	79.994	19.995	102.981	20.209	4.422	0.530
1253.999	702.825	79.996	19.995	102.975	20.209	4.380	0.426
1254.499	703.102	79.993	19.996	102.976	20.210	4.330	0.442
1254.999	703.376	79.993	19.995	102.971	20.211	4.304	0.523
1255.499	703.603	79.992	19.995	102.964	20.208	4.453	0.526
1255.999	703.875	79.993	19.994	102.960	20.211	4.238	0.500
1256.499	704.063	79.995	19.995	102.967	20.207	4.529	0.480
1256.999	704.357	79.993	19.993	102.972	20.209	4.380	0.471
1257.499	704.641	79.992	19.995	102.976	20.211	4.242	0.530
1257.999	704.871	79.990	19.996	102.982	20.209	4.379	0.546
1258.499	705.087	79.992	19.994	102.987	20.210	4.340	0.479
1258.999	705.342	79.991	19.995	102.986	20.209	4.398	0.458
1259.500	705.562	79.992	19.994	102.982	20.209	4.424	0.473
1260.000	705.826	79.992	19.995	102.982	20.210	4.365	0.479
1260.499	706.057	79.994	19.995	102.981	20.209	4.440	0.490
1260.999	706.262	79.992	19.995	102.980	20.210	4.317	0.466
1261.500	706.529	79.995	19.996	102.976	20.210	4.372	0.453
1262.000	706.852	79.991	19.996	102.978	20.208	4.484	0.531
1262.499	707.043	79.991	19.996	102.980	20.205	4.731	0.552
1262.999	707.276	79.996	19.995	102.982	20.207	4.542	0.469
1263.499	707.526	79.991	19.996	102.979	20.210	4.358	0.453
1263.999	707.817	79.993	19.997	102.981	20.207	4.583	0.512
1264.500	708.057	79.997	19.995	102.976	20.209	4.438	0.536
1265.000	708.281	79.993	19.997	102.972	20.210	4.324	0.497
1265.499	708.539	79.993	19.995	102.969	20.207	4.573	0.473
1265.999	708.748	79.995	19.996	102.968	20.210	4.316	0.474
1266.499	709.024	79.993	19.996	102.967	20.210	4.346	0.476
1266.999	709.259	79.993	19.996	102.969	20.211	4.263	0.498
1267.499	709.482	79.994	19.995	102.967	20.209	4.388	0.485
1267.999	709.731	79.994	19.996	102.962	20.212	4.211	0.465
1268.499	709.970	79.994	19.996	102.959	20.212	4.211	0.479
1269.000	710.208	79.991	19.995	102.961	20.213	4.159	0.483
1269.500	710.460	79.991	19.998	102.963	20.208	4.470	0.484
1269.999	710.677	79.995	19.999	102.970	20.211	4.276	0.479
1270.499	710.957	79.995	20.000	102.979	20.216	3.908	0.483
1270.999	711.174	79.997	20.001	102.987	20.216	3.884	0.497
1271.499	711.433	79.994	19.997	102.984	20.213	4.147	0.487
1271.999	711.671	79.995	19.996	102.980	20.209	4.418	0.486
1272.499	711.934	79.998	19.996	102.978	20.212	4.167	0.499
1272.999	712.155	79.995	19.997	102.974	20.210	4.352	0.493
1273.499	712.390	79.996	19.996	102.971	20.211	4.239	0.470
1273.999	712.636	79.997	19.996	102.975	20.212	4.211	0.468
1274.499	712.877	79.994	19.996	102.979	20.209	4.388	0.484
1274.999	713.093	79.995	19.996	102.975	20.212	4.219	0.472
1275.500	713.381	79.991	19.995	102.974	20.210	4.358	0.480
1276.001	713.604	79.995	19.996	102.970	20.211	4.282	0.507
1276.500	713.851	79.993	19.997	102.966	20.208	4.488	0.491
1276.999	714.134	79.996	19.997	102.967	20.210	4.338	0.500
1277.499	714.340	79.994	19.995	102.972	20.211	4.251	0.510
1277.999	714.601	79.993	19.996	102.975	20.212	4.219	0.478
1278.499	714.874	79.992	19.996	102.980	20.214	4.086	0.500
1278.999	715.105	79.989	19.996	102.981	20.211	4.237	0.519
1279.499	715.397	79.992	19.996	102.977	20.214	4.087	0.513
1279.999	715.622	79.995	19.995	102.974	20.211	4.255	0.520
1280.499	715.857	79.992	19.996	102.973	20.211	4.293	0.488
1280.999	716.132	79.993	19.996	102.972	20.210	4.331	0.485
1281.499	716.388	79.994	19.997	102.971	20.211	4.305	0.521
1281.999	716.618	79.993	19.997	102.972	20.209	4.398	0.509
1282.499	716.880	79.991	19.996	102.973	20.208	4.460	0.489
1282.999	717.134	79.992	19.996	102.973	20.209	4.436	0.504
1283.499	717.354	79.991	19.996	102.975	20.208	4.494	0.495
1283.999	717.626	79.993	19.996	102.979	20.212	4.191	0.483
1284.500	717.852	79.989	19.996	102.982	20.210	4.318	0.495
1285.000	718.156	79.992	19.997	102.984	20.212	4.163	0.514
1285.499	718.362	79.993	19.995	102.984	20.211	4.269	0.519
1285.999	718.611	79.991	19.998	102.983	20.211	4.293	0.482
1286.499	718.830	79.992	19.996	102.980	20.208	4.486	0.462
1286.999	719.103	79.992	19.996	102.975	20.211	4.301	0.480
1287.499	719.361	79.992	19.996	102.976	20.209	4.384	0.512
1287.999	719.605	79.993	19.996	102.976	20.208	4.498	0.516
1288.499	719.864	79.991	19.996	102.976	20.210	4.323	0.502
1289.000	720.071	79.992	19.995	102.980	20.211	4.275	0.484
1289.501	720.332	79.992	19.996	102.985	20.205	4.701	0.467
1290.000	720.595	79.994	19.996	102.984	20.211	4.239	0.496
1290.499	720.865	79.992	19.996	102.983	20.210	4.311	0.529
1290.999	721.116	79.993	19.996	102.983	20.207	4.556	0.527
1291.500	721.365	79.993	19.997	102.981	20.210	4.372	0.511
1292.000	721.645	79.990	19.996	102.981	20.210	4.350	0.515
1292.499	721.910	79.990	19.997	102.983	20.211	4.286	0.537
1292.999	722.158	79.992	19.997	102.982	20.212	4.205	0.529
1293.499	722.358	79.992	19.996	102.980	20.210	4.366	0.480
1294.000	722.646	79.993	19.997	102.978	20.213	4.161	0.468
1294.500	722.888	79.993	19.998	102.974	20.208	4.460	0.509
1294.999	723.135	79.992	19.997	102.971	20.209	4.380	0.510
1295.499	723.392	79.990	19.996	102.972	20.210	4.349	0.497
1295.999	723.633	79.993	19.997	102.975	20.208	4.500	0.501
1296.499	723.873	79.992	19.996	102.978	20.208	4.482	0.489
1296.999	724.154	79.992	19.996	102.980	20.208	4.504	0.501
1297.499	724.397	79.993	19.997	102.982	20.208	4.496	0.522
1297.999	724.662	79.992	19.996	102.982	20.208	4.464	0.516
1298.500	724.883	79.991	19.997	102.983	20.207	4.569	0.497
1299.001	725.152	79.991	19.998	102.984	20.211	4.278	0.488
1299.500	725.415	79.992	19.997	102.986	20.210	4.311	0.511
1300.000	725.643	79.992	19.997	102.987	20.207	4.548	0.511
1300.501	725.854	79.990	19.996	102.987	20.208	4.472	0.465
1301.000	726.091	79.990	19.997	102.985	20.210	4.353	0.443
1301.499	726.350	79.991	19.997	102.981	20.209	4.420	0.472
1302.000	726.627	79.990	19.996	102.979	20.209	4.395	0.516
1302.500	726.875	79.992	19.997	102.975	20.207	4.526	0.531
1302.999	727.092	79.992	19.997	102.973	20.205	4.687	0.496
1303.499	727.335	79.990	19.997	102.971	20.207	4.542	0.462
1303.999	727.611	79.993	19.998	102.973	20.207	4.530	0.489
1304.500	727.850	79.990	19.996	102.974	20.208	4.524	0.517
1305.001	728.109	79.993	19.996	102.978	20.207	4.584	0.506
1305.500	728.367	79.992	19.996	102.980	20.206	4.669	0.508
1305.999	728.590	79.990	19.996	102.981	20.204	4.749	0.499
1306.499	728.869	79.992	19.996	102.983	20.204	4.755	0.492
1306.999	729.116	79.993	19.997	102.985	20.204	4.773	0.514
1307.499	729.364	79.993	19.995	102.984	20.204	4.767	0.511
1307.999	729.641	79.992	19.997	102.978	20.205	4.677	0.510
1308.499	729.879	79.992	19.996	102.976	20.203	4.875	0.520
1308.999	730.089	79.989	19.995	102.973	20.207	4.560	0.482
1309.499	730.358	79.994	19.995	102.974	20.209	4.414	0.464
1309.999	730.633	79.991	19.995	102.974	20.203	4.819	0.511
1310.499	730.874	79.989	19.996	102.982	20.205	4.713	0.530
1310.999	731.099	79.991	19.995	102.985	20.205	4.737	0.491
1311.499	731.353	79.991	19.995	102.989	20.208	4.504	0.473
1311.999	731.631	79.991	19.995	102.988	20.204	4.745	0.505
1312.499	731.847	79.989	19.996	102.988	20.204	4.775	0.512
1312.999	732.105	79.990	19.996	102.987	20.206	4.630	0.484
1313.499	732.380	79.990	19.996	102.987	20.205	4.671	0.504
1313.999	732.633	79.990	19.995	102.987	20.206	4.659	0.530
1314.500	732.861	79.990	19.995	102.986	20.206	4.599	0.504
1315.000	733.118	79.994	19.995	102.987	20.203	4.850	0.483
1315.499	733.351	79.992	19.995	102.987	20.203	4.870	0.488
1315.999	733.599	79.989	19.995	102.985	20.203	4.837	0.485
1316.499	733.850	79.990	19.995	102.985	20.203	4.858	0.490
1316.999	734.104	79.992	19.996	102.985	20.204	4.797	0.502
1317.499	734.353	79.990	19.995	102.984	20.206	4.618	0.503
1317.999	734.585	79.992	19.995	102.982	20.204	4.767	0.492
1318.499	734.827	79.992	19.996	102.980	20.204	4.767	0.478
1318.999	735.073	79.991	19.997	102.980	20.205	4.739	0.481
1319.499	735.305	79.991	19.995	102.980	20.205	4.697	0.483
1319.999	735.568	79.991	19.995	102.979	20.206	4.629	0.486
1320.499	735.795	79.991	19.995	102.981	20.205	4.683	0.493
1320.999	736.044	79.993	19.995	102.984	20.206	4.629	0.483
1321.499	736.249	79.993	19.995	102.986	20.203	4.849	0.465
1321.999	736.548	79.992	19.995	102.987	20.204	4.751	0.479
1322.499	736.789	79.992	19.996	102.990	20.204	4.753	0.521
1322.999	737.034	79.991	19.995	102.989	20.205	4.679	0.513
1323.499	737.282	79.994	19.996	102.988	20.204	4.761	0.490
1323.999	737.533	79.995	19.995	102.983	20.204	4.749	0.496
1324.499	737.799	79.993	19.996	102.980	20.202	4.895	0.508
1324.999	738.027	79.993	19.995	102.979	20.204	4.801	0.505
1325.499	738.277	79.994	19.996	102.976	20.203	4.817	0.486
1325.999	738.534	79.993	19.995	102.972	20.200	5.046	0.493
1326.499	738.775	79.994	19.996	102.975	20.200	5.064	0.503
1326.999	739.023	79.994	19.996	102.977	20.201	4.966	0.493
1327.500	739.244	79.994	19.995	102.977	20.202	4.904	0.479
1328.000	739.518	79.993	19.994	102.981	20.202	4.908	0.482
1328.499	739.786	79.995	19.995	102.985	20.201	4.970	0.518
1328.999	740.025	79.991	19.995	102.985	20.201	5.032	0.524
1329.499	740.257	79.992	19.995	102.984	20.199	5.158	0.489
1330.000	740.533	79.993	19.996	102.976	20.201	5.000	0.490
1330.500	740.724	79.993	19.996	102.970	20.200	5.044	0.488
1331.000	740.994	79.994	19.995	102.971	20.201	4.965	0.464
1331.501	741.270	79.993	19.996	102.971	20.201	5.010	0.503
1332.000	741.500	79.994	19.996	102.973	20.199	5.112	0.526
1332.500	741.734	79.994	19.995	102.979	20.202	4.957	0.485
1333.001	741.984	79.994	19.996	102.984	20.201	5.004	0.474
1333.500	742.232	79.993	19.996	102.984	20.203	4.867	0.491
1333.999	742.496	79.994	19.996	102.984	20.202	4.926	0.505
1334.499	742.734	79.994	19.995	102.984	20.204	4.797	0.507
1334.999	743.001	79.993	19.996	102.986	20.203	4.865	0.503
1335.499	743.258	79.995	19.996	102.986	20.203	4.861	0.515
1335.999	743.449	79.993	19.996	102.985	20.204	4.765	0.486
1336.499	743.704	79.992	19.996	102.984	20.204	4.745	0.447
