Sample ID:	C:\MCC\MCC Cal\Test\PMMAR05_MCC_30K_min_211013_R3.txt
Sample Weight (mg):	4.88
Heating Rate (C/s):	0.5
Combustor Temp (C):	900
N2 Flow Rate (cc/min):	80
O2 Flow Rate (cc/min):	20
Calibration File:	C:\MCC\MCC Cal\Coeff1 JN10440_30_210304.txt.txt
T Correction Coefficients:	0	1.024463	0
Time Shift (s):	14
*
Time (s)	Temperature (C)	N2 flow rate (cc/min)	O2 flow rate (cc/min)	Flow Rate (cc/min)	Oxygen (%)	HRR (W/g)	Heating rate (C/s)
0.000	108.632	79.994	19.996	103.019	20.196	0.020	-0.018
0.500	108.643	79.992	19.996	103.020	20.197	0.005	-0.027
1.000	108.634	79.992	19.995	103.019	20.194	0.159	-0.008
1.500	108.644	79.991	19.995	103.019	20.196	0.027	0.001
2.000	108.631	79.992	19.997	103.020	20.193	0.214	-0.001
2.500	108.620	79.992	19.995	103.021	20.201	-0.264	-0.013
3.000	108.620	79.992	19.996	103.021	20.199	-0.152	-0.017
3.500	108.629	79.991	19.996	103.020	20.197	-0.040	-0.001
4.000	108.647	79.992	19.995	103.019	20.193	0.246	0.018
4.500	108.621	79.992	19.994	103.015	20.195	0.091	0.009
5.000	108.647	79.992	19.995	103.015	20.196	0.040	-0.004
5.500	108.577	79.993	19.994	103.014	20.195	0.141	-0.022
6.000	108.605	79.992	19.996	103.017	20.196	0.049	-0.043
6.500	108.606	79.991	19.995	103.019	20.197	-0.042	-0.006
7.000	108.590	79.992	19.995	103.023	20.195	0.109	0.007
7.500	108.604	79.993	19.995	103.024	20.191	0.361	-0.009
8.000	108.593	79.993	19.995	103.024	20.196	0.043	0.000
8.500	108.570	79.992	19.995	103.025	20.191	0.375	-0.015
9.000	108.590	79.992	19.995	103.025	20.193	0.230	-0.019
9.501	108.592	79.991	19.995	103.026	20.191	0.399	0.009
10.001	108.539	79.991	19.994	103.026	20.190	0.471	-0.014
10.501	108.601	79.991	19.994	103.029	20.187	0.624	-0.021
11.000	108.574	79.991	19.995	103.035	20.191	0.346	0.022
11.500	108.599	79.992	19.995	103.042	20.191	0.357	0.017
12.000	108.581	79.993	19.995	103.049	20.186	0.716	0.003
12.500	108.578	79.992	19.995	103.058	20.185	0.781	-0.007
13.000	108.580	79.992	19.994	103.062	20.188	0.575	-0.011
13.500	108.599	79.994	19.995	103.070	20.186	0.716	0.010
14.000	108.598	79.993	19.995	103.077	20.184	0.834	0.020
14.500	108.629	79.993	19.995	103.089	20.181	1.008	0.024
15.000	108.611	79.993	19.994	103.105	20.183	0.926	0.021
15.500	108.618	79.992	19.994	103.120	20.180	1.131	0.001
16.000	108.656	79.992	19.995	103.130	20.176	1.372	0.017
16.500	108.697	79.992	19.995	103.143	20.175	1.465	0.062
17.000	108.686	79.991	19.995	103.152	20.171	1.724	0.055
17.500	108.745	79.993	19.995	103.157	20.172	1.635	0.039
18.000	108.753	79.991	19.995	103.161	20.172	1.651	0.057
18.500	108.794	79.992	19.995	103.165	20.170	1.787	0.058
19.000	108.780	79.991	19.995	103.166	20.174	1.517	0.038
19.500	108.779	79.992	19.995	103.165	20.172	1.651	0.006
20.000	108.835	79.992	19.996	103.167	20.170	1.785	0.020
20.500	108.858	79.992	19.995	103.171	20.169	1.834	0.067
21.000	108.883	79.992	19.995	103.174	20.170	1.747	0.063
21.500	108.952	79.991	19.994	103.177	20.169	1.801	0.071
22.000	108.956	79.992	19.995	103.182	20.168	1.905	0.084
22.500	109.002	79.992	19.994	103.184	20.163	2.240	0.061
23.000	109.086	79.990	19.993	103.188	20.161	2.356	0.090
23.500	109.081	79.992	19.996	103.189	20.162	2.291	0.104
24.000	109.120	79.992	19.994	103.189	20.166	2.030	0.056
24.501	109.147	79.991	19.995	103.189	20.161	2.328	0.050
25.000	109.196	79.993	19.995	103.187	20.162	2.261	0.071
25.500	109.276	79.993	19.995	103.183	20.165	2.121	0.102
26.000	109.306	79.992	19.994	103.182	20.160	2.424	0.119
26.500	109.368	79.992	19.994	103.183	20.164	2.166	0.101
27.000	109.459	79.992	19.996	103.185	20.161	2.340	0.122
27.500	109.475	79.993	19.995	103.185	20.164	2.128	0.130
28.000	109.518	79.993	19.994	103.184	20.163	2.221	0.083
28.500	109.561	79.993	19.995	103.183	20.159	2.505	0.072
29.001	109.635	79.990	19.994	103.182	20.160	2.437	0.101
29.501	109.692	79.991	19.995	103.180	20.161	2.343	0.124
30.000	109.724	79.993	19.996	103.180	20.165	2.087	0.110
30.500	109.819	79.992	19.996	103.180	20.163	2.250	0.109
31.000	109.842	79.992	19.995	103.178	20.165	2.082	0.123
31.500	109.935	79.991	19.996	103.172	20.163	2.205	0.117
32.000	109.979	79.991	19.996	103.165	20.164	2.160	0.126
32.500	110.050	79.991	19.995	103.160	20.159	2.461	0.126
33.000	110.092	79.992	19.995	103.160	20.164	2.131	0.114
33.500	110.203	79.993	19.995	103.163	20.163	2.223	0.133
34.000	110.299	79.990	19.994	103.173	20.159	2.506	0.180
34.501	110.348	79.992	19.996	103.187	20.167	1.982	0.176
35.001	110.404	79.991	19.996	103.198	20.163	2.218	0.125
35.501	110.495	79.993	19.995	103.205	20.161	2.362	0.126
36.000	110.551	79.992	19.995	103.210	20.166	2.053	0.147
36.500	110.638	79.992	19.995	103.212	20.164	2.133	0.145
37.000	110.707	79.991	19.995	103.206	20.164	2.188	0.149
37.500	110.774	79.991	19.995	103.200	20.159	2.460	0.146
38.000	110.853	79.993	19.994	103.193	20.163	2.215	0.140
38.500	110.927	79.991	19.995	103.187	20.157	2.645	0.149
39.000	111.008	79.991	19.995	103.187	20.161	2.356	0.154
39.500	111.069	79.993	19.996	103.192	20.162	2.309	0.149
40.000	111.158	79.992	19.995	103.200	20.159	2.505	0.146
40.501	111.282	79.993	19.995	103.208	20.164	2.164	0.181
41.001	111.355	79.993	19.995	103.214	20.160	2.414	0.205
41.500	111.457	79.993	19.995	103.217	20.158	2.569	0.186
42.000	111.548	79.993	19.994	103.222	20.158	2.538	0.184
42.500	111.639	79.992	19.994	103.226	20.159	2.485	0.188
43.000	111.747	79.991	19.994	103.226	20.156	2.676	0.191
43.500	111.831	79.993	19.995	103.229	20.160	2.431	0.196
44.001	111.931	79.993	19.994	103.236	20.155	2.743	0.188
44.501	112.037	79.993	19.995	103.238	20.154	2.830	0.195
45.000	112.150	79.994	19.994	103.238	20.153	2.900	0.212
45.500	112.275	79.994	19.996	103.245	20.156	2.679	0.228
46.000	112.362	79.994	19.994	103.251	20.152	2.922	0.225
46.500	112.484	79.993	19.994	103.253	20.152	2.928	0.211
47.000	112.548	79.994	19.993	103.255	20.151	3.031	0.197
47.500	112.677	79.993	19.995	103.257	20.154	2.851	0.189
48.000	112.829	79.994	19.995	103.256	20.155	2.723	0.237
48.500	112.965	79.994	19.996	103.255	20.149	3.120	0.285
49.000	113.022	79.995	19.995	103.253	20.155	2.723	0.241
49.500	113.137	79.994	19.995	103.253	20.154	2.842	0.183
50.000	113.263	79.994	19.994	103.252	20.156	2.696	0.207
50.500	113.401	79.995	19.995	103.253	20.153	2.910	0.253
51.000	113.533	79.995	19.995	103.255	20.154	2.804	0.267
51.500	113.621	79.993	19.995	103.256	20.158	2.581	0.245
52.000	113.747	79.993	19.996	103.256	20.154	2.797	0.217
52.500	113.896	79.994	19.994	103.256	20.149	3.133	0.245
53.000	114.014	79.993	19.996	103.256	20.147	3.276	0.271
53.500	114.155	79.995	19.996	103.256	20.150	3.115	0.263
54.000	114.288	79.994	19.996	103.256	20.144	3.507	0.266
54.500	114.407	79.994	19.996	103.256	20.152	2.950	0.263
55.000	114.543	79.995	19.995	103.256	20.157	2.638	0.253
55.500	114.705	79.994	19.996	103.255	20.152	2.963	0.277
56.000	114.815	79.994	19.996	103.253	20.155	2.730	0.285
56.500	114.955	79.994	19.995	103.251	20.152	2.975	0.261
57.000	115.063	79.992	19.996	103.250	20.153	2.868	0.249
57.500	115.231	79.992	19.995	103.250	20.152	2.970	0.262
58.000	115.380	79.993	19.995	103.251	20.147	3.266	0.296
58.500	115.496	79.993	19.997	103.253	20.149	3.182	0.291
59.000	115.642	79.992	19.996	103.255	20.150	3.063	0.263
59.500	115.765	79.993	19.995	103.255	20.148	3.199	0.265
60.000	115.922	79.992	19.996	103.256	20.147	3.309	0.275
60.500	116.084	79.993	19.996	103.256	20.145	3.416	0.299
61.000	116.198	79.993	19.996	103.256	20.149	3.119	0.297
61.501	116.364	79.993	19.995	103.256	20.151	2.994	0.278
62.001	116.506	79.992	19.996	103.256	20.145	3.407	0.294
62.501	116.654	79.992	19.995	103.255	20.148	3.224	0.299
63.000	116.801	79.994	19.995	103.256	20.147	3.275	0.292
63.500	116.943	79.992	19.995	103.257	20.150	3.067	0.292
64.000	117.127	79.994	19.996	103.258	20.149	3.123	0.308
64.500	117.256	79.993	19.996	103.259	20.147	3.297	0.320
65.000	117.448	79.992	19.996	103.262	20.149	3.163	0.317
65.500	117.586	79.993	19.996	103.265	20.144	3.485	0.325
66.000	117.750	79.993	19.996	103.271	20.149	3.144	0.316
66.500	117.899	79.993	19.996	103.276	20.143	3.556	0.307
67.000	118.075	79.994	19.995	103.275	20.146	3.318	0.319
67.500	118.223	79.994	19.997	103.274	20.144	3.452	0.325
68.000	118.396	79.993	19.995	103.276	20.149	3.140	0.323
68.500	118.539	79.994	19.996	103.273	20.145	3.425	0.318
69.000	118.727	79.993	19.995	103.274	20.137	3.913	0.323
69.500	118.891	79.995	19.995	103.276	20.144	3.456	0.342
70.000	119.062	79.993	19.995	103.275	20.142	3.582	0.344
70.500	119.229	79.995	19.995	103.273	20.142	3.614	0.336
71.000	119.389	79.994	19.995	103.273	20.144	3.464	0.332
71.500	119.534	79.993	19.994	103.267	20.145	3.439	0.316
72.000	119.682	79.994	19.994	103.270	20.145	3.388	0.299
72.500	119.882	79.993	19.995	103.276	20.143	3.524	0.321
73.000	120.048	79.994	19.995	103.279	20.141	3.669	0.357
73.500	120.274	79.994	19.994	103.283	20.140	3.749	0.379
74.000	120.385	79.993	19.996	103.290	20.148	3.239	0.364
74.500	120.586	79.993	19.994	103.292	20.148	3.208	0.324
75.000	120.752	79.994	19.995	103.290	20.147	3.315	0.339
75.500	120.967	79.994	19.995	103.290	20.142	3.623	0.374
76.000	121.149	79.993	19.995	103.283	20.144	3.453	0.389
76.500	121.299	79.994	19.994	103.278	20.140	3.714	0.365
77.000	121.498	79.994	19.995	103.275	20.146	3.368	0.341
77.500	121.645	79.994	19.995	103.271	20.145	3.422	0.347
78.000	121.842	79.993	19.996	103.266	20.140	3.714	0.345
78.501	122.015	79.994	19.996	103.267	20.143	3.538	0.357
79.001	122.248	79.994	19.995	103.269	20.142	3.627	0.388
79.500	122.399	79.992	19.994	103.267	20.142	3.631	0.395
80.000	122.606	79.992	19.996	103.272	20.144	3.475	0.371
80.500	122.796	79.993	19.996	103.277	20.145	3.418	0.378
81.000	122.972	79.991	19.996	103.283	20.143	3.573	0.381
81.500	123.160	79.991	19.995	103.287	20.139	3.782	0.365
82.000	123.372	79.993	19.996	103.293	20.142	3.635	0.382
82.500	123.586	79.991	19.996	103.295	20.143	3.555	0.413
83.001	123.721	79.990	19.995	103.295	20.147	3.273	0.388
83.501	123.915	79.990	19.995	103.295	20.146	3.379	0.339
84.000	124.150	79.991	19.995	103.293	20.148	3.237	0.379
84.500	124.332	79.990	19.996	103.289	20.147	3.259	0.423
85.000	124.507	79.990	19.996	103.287	20.140	3.736	0.387
85.500	124.709	79.991	19.995	103.282	20.142	3.629	0.367
86.000	124.933	79.993	19.997	103.279	20.147	3.297	0.402
86.500	125.142	79.991	19.996	103.281	20.144	3.467	0.430
87.000	125.309	79.991	19.996	103.285	20.144	3.467	0.405
87.500	125.535	79.989	19.995	103.287	20.144	3.496	0.385
88.000	125.766	79.991	19.997	103.290	20.146	3.322	0.425
88.500	125.981	79.991	19.996	103.293	20.141	3.681	0.451
89.000	126.186	79.990	19.996	103.292	20.149	3.133	0.433
89.500	126.350	79.993	19.996	103.288	20.144	3.504	0.395
90.000	126.599	79.991	19.996	103.284	20.143	3.562	0.391
90.500	126.760	79.990	19.995	103.286	20.148	3.239	0.411
91.000	126.970	79.992	19.996	103.286	20.150	3.057	0.390
91.501	127.156	79.991	19.995	103.287	20.153	2.858	0.383
92.001	127.384	79.992	19.996	103.290	20.148	3.219	0.405
92.501	127.575	79.991	19.996	103.292	20.149	3.132	0.417
93.000	127.803	79.991	19.995	103.292	20.147	3.268	0.419
93.500	128.021	79.991	19.995	103.292	20.143	3.520	0.433
94.000	128.253	79.991	19.995	103.290	20.143	3.531	0.448
94.500	128.429	79.993	19.997	103.290	20.147	3.252	0.429
95.000	128.642	79.992	19.996	103.290	20.148	3.239	0.399
95.501	128.876	79.991	19.997	103.288	20.149	3.135	0.418
96.001	129.075	79.992	19.996	103.284	20.140	3.716	0.440
96.500	129.307	79.992	19.995	103.285	20.142	3.607	0.431
97.000	129.548	79.991	19.995	103.285	20.149	3.177	0.452
97.500	129.784	79.993	19.996	103.285	20.146	3.360	0.475
98.000	129.959	79.992	19.996	103.284	20.143	3.538	0.444
98.500	130.184	79.992	19.995	103.285	20.144	3.502	0.406
99.000	130.376	79.991	19.993	103.281	20.147	3.270	0.408
99.500	130.624	79.994	19.995	103.281	20.145	3.400	0.428
100.000	130.823	79.994	19.995	103.281	20.147	3.315	0.444
100.500	131.055	79.993	19.994	103.284	20.145	3.418	0.439
101.000	131.258	79.992	19.994	103.288	20.146	3.318	0.433
101.500	131.427	79.992	19.996	103.290	20.148	3.206	0.404
102.000	131.686	79.993	19.994	103.288	20.146	3.328	0.400
102.500	131.872	79.993	19.995	103.285	20.150	3.061	0.436
103.000	132.107	79.993	19.995	103.281	20.148	3.237	0.433
103.500	132.367	79.993	19.994	103.281	20.152	2.972	0.458
104.000	132.606	79.992	19.994	103.282	20.147	3.283	0.497
104.500	132.814	79.993	19.994	103.285	20.150	3.056	0.474
105.000	133.042	79.992	19.995	103.289	20.155	2.763	0.442
105.500	133.267	79.993	19.996	103.293	20.150	3.055	0.444
106.000	133.492	79.991	19.994	103.290	20.150	3.104	0.451
106.500	133.714	79.993	19.997	103.289	20.145	3.391	0.449
107.000	133.895	79.992	19.994	103.286	20.148	3.242	0.425
107.500	134.151	79.992	19.995	103.284	20.148	3.201	0.420
108.000	134.404	79.991	19.995	103.282	20.152	2.938	0.473
108.500	134.611	79.991	19.994	103.284	20.149	3.161	0.484
109.000	134.842	79.992	19.994	103.286	20.146	3.369	0.449
109.500	135.066	79.994	19.995	103.289	20.141	3.647	0.446
110.000	135.285	79.991	19.994	103.288	20.145	3.429	0.449
110.500	135.526	79.992	19.994	103.289	20.144	3.473	0.452
111.000	135.771	79.992	19.996	103.284	20.147	3.293	0.473
111.500	135.975	79.992	19.995	103.279	20.144	3.457	0.467
112.000	136.179	79.991	19.994	103.276	20.149	3.183	0.429
112.500	136.419	79.993	19.995	103.279	20.149	3.141	0.426
113.000	136.642	79.991	19.995	103.280	20.147	3.290	0.454
113.500	136.876	79.992	19.996	103.284	20.149	3.166	0.460
114.000	137.064	79.991	19.995	103.291	20.147	3.281	0.439
114.500	137.323	79.990	19.995	103.294	20.144	3.451	0.434
115.000	137.543	79.992	19.995	103.292	20.146	3.332	0.463
115.500	137.772	79.990	19.995	103.289	20.153	2.914	0.464
116.000	138.033	79.993	19.996	103.285	20.146	3.324	0.470
116.501	138.284	79.991	19.996	103.282	20.147	3.311	0.501
117.001	138.482	79.991	19.994	103.282	20.146	3.371	0.480
117.500	138.715	79.993	19.996	103.283	20.146	3.321	0.440
118.001	138.974	79.991	19.995	103.283	20.145	3.442	0.461
118.501	139.244	79.990	19.994	103.283	20.149	3.141	0.510
119.000	139.464	79.990	19.996	103.283	20.146	3.364	0.510
119.500	139.708	79.990	19.994	103.283	20.148	3.208	0.477
120.000	139.933	79.992	19.995	103.282	20.141	3.649	0.466
120.500	140.168	79.991	19.995	103.286	20.146	3.344	0.464
121.000	140.391	79.991	19.996	103.290	20.143	3.529	0.459
121.500	140.628	79.992	19.995	103.293	20.145	3.440	0.459
122.000	140.859	79.993	19.996	103.289	20.150	3.097	0.464
122.501	141.107	79.992	19.994	103.285	20.153	2.861	0.473
123.001	141.331	79.992	19.995	103.285	20.153	2.903	0.476
123.500	141.578	79.990	19.994	103.285	20.143	3.560	0.472
124.000	141.821	79.993	19.994	103.283	20.144	3.474	0.480
124.500	142.071	79.993	19.995	103.287	20.145	3.422	0.491
125.000	142.296	79.991	19.995	103.290	20.141	3.689	0.484
125.500	142.542	79.993	19.994	103.290	20.141	3.687	0.473
126.000	142.767	79.992	19.995	103.291	20.144	3.453	0.471
126.500	143.049	79.994	19.995	103.290	20.143	3.522	0.489
127.001	143.278	79.993	19.994	103.289	20.141	3.692	0.509
127.501	143.506	79.993	19.995	103.288	20.148	3.201	0.484
128.000	143.754	79.994	19.994	103.288	20.146	3.344	0.467
128.500	144.006	79.993	19.993	103.288	20.147	3.278	0.488
129.000	144.256	79.994	19.995	103.291	20.142	3.619	0.501
129.500	144.487	79.996	19.996	103.293	20.145	3.409	0.491
130.000	144.691	79.994	19.995	103.292	20.141	3.703	0.458
130.500	144.986	79.994	19.995	103.290	20.142	3.614	0.467
131.000	145.182	79.994	19.995	103.290	20.146	3.344	0.495
131.500	145.437	79.994	19.993	103.289	20.138	3.872	0.471
132.000	145.699	79.994	19.994	103.289	20.147	3.313	0.484
132.500	145.928	79.994	19.994	103.293	20.147	3.295	0.504
133.000	146.212	79.994	19.995	103.292	20.147	3.252	0.502
133.500	146.418	79.994	19.996	103.285	20.150	3.074	0.501
134.000	146.667	79.994	19.994	103.278	20.149	3.142	0.473
134.500	146.898	79.994	19.996	103.275	20.146	3.364	0.468
135.000	147.128	79.994	19.994	103.274	20.152	2.946	0.470
135.500	147.420	79.994	19.995	103.277	20.147	3.276	0.491
136.000	147.644	79.994	19.996	103.285	20.141	3.681	0.519
136.500	147.880	79.994	19.994	103.292	20.147	3.287	0.488
137.000	148.111	79.993	19.995	103.296	20.151	2.988	0.463
137.500	148.342	79.994	19.995	103.290	20.147	3.281	0.465
138.000	148.628	79.992	19.995	103.285	20.145	3.411	0.490
138.500	148.898	79.992	19.995	103.283	20.143	3.569	0.537
139.000	149.143	79.993	19.995	103.276	20.140	3.721	0.535
139.500	149.384	79.992	19.994	103.270	20.146	3.329	0.500
140.000	149.602	79.993	19.994	103.272	20.145	3.396	0.472
140.500	149.844	79.993	19.994	103.277	20.144	3.490	0.460
141.000	150.098	79.991	19.994	103.273	20.141	3.672	0.478
141.500	150.357	79.993	19.994	103.272	20.140	3.741	0.504
142.000	150.589	79.992	19.994	103.272	20.142	3.608	0.502
142.500	150.844	79.992	19.995	103.276	20.146	3.360	0.489
143.000	151.090	79.993	19.994	103.278	20.142	3.605	0.494
143.500	151.317	79.991	19.994	103.283	20.144	3.463	0.487
144.000	151.578	79.991	19.994	103.287	20.139	3.813	0.481
144.500	151.825	79.992	19.994	103.285	20.143	3.519	0.499
145.000	152.078	79.993	19.995	103.278	20.141	3.654	0.504
145.500	152.331	79.993	19.994	103.271	20.144	3.505	0.502
146.000	152.583	79.992	19.996	103.266	20.142	3.624	0.505
146.500	152.848	79.992	19.995	103.266	20.141	3.700	0.511
147.000	153.103	79.993	19.996	103.270	20.141	3.697	0.519
147.500	153.352	79.992	19.995	103.275	20.146	3.354	0.512
148.000	153.608	79.993	19.996	103.282	20.145	3.414	0.504
148.500	153.837	79.993	19.995	103.286	20.143	3.525	0.495
149.000	154.101	79.992	19.996	103.284	20.146	3.341	0.489
149.500	154.361	79.994	19.994	103.280	20.146	3.329	0.509
150.000	154.564	79.993	19.994	103.276	20.145	3.390	0.493
150.500	154.809	79.994	19.995	103.267	20.141	3.693	0.456
151.000	155.052	79.992	19.994	103.261	20.140	3.720	0.468
151.500	155.296	79.995	19.995	103.261	20.145	3.432	0.487
152.000	155.604	79.994	19.995	103.263	20.145	3.403	0.519
152.500	155.825	79.994	19.994	103.264	20.145	3.428	0.540
153.000	156.074	79.994	19.995	103.266	20.142	3.632	0.500
153.500	156.288	79.993	19.995	103.266	20.144	3.454	0.466
154.000	156.562	79.993	19.994	103.264	20.147	3.283	0.475
154.500	156.799	79.994	19.994	103.267	20.145	3.445	0.500
155.000	157.006	79.994	19.994	103.267	20.145	3.446	0.478
155.500	157.221	79.994	19.993	103.267	20.144	3.457	0.433
156.001	157.513	79.993	19.994	103.266	20.141	3.699	0.464
156.500	157.780	79.995	19.995	103.265	20.144	3.499	0.533
157.000	158.011	79.992	19.995	103.260	20.144	3.470	0.529
157.500	158.262	79.995	19.995	103.257	20.140	3.740	0.490
158.001	158.553	79.993	19.994	103.257	20.144	3.485	0.512
158.500	158.761	79.994	19.995	103.260	20.143	3.537	0.520
159.000	158.984	79.995	19.994	103.260	20.145	3.392	0.465
159.500	159.299	79.994	19.994	103.260	20.144	3.466	0.485
160.000	159.520	79.993	19.995	103.259	20.144	3.456	0.536
160.500	159.758	79.994	19.994	103.259	20.148	3.231	0.497
161.000	159.995	79.993	19.993	103.256	20.142	3.597	0.467
161.500	160.266	79.994	19.995	103.255	20.146	3.330	0.492
162.000	160.526	79.993	19.995	103.257	20.144	3.450	0.519
162.500	160.819	79.992	19.995	103.259	20.148	3.236	0.542
163.000	161.035	79.993	19.996	103.258	20.146	3.327	0.531
163.500	161.260	79.992	19.996	103.258	20.144	3.452	0.475
164.000	161.571	79.993	19.996	103.259	20.151	3.044	0.489
164.500	161.790	79.992	19.995	103.257	20.149	3.162	0.533
165.000	162.028	79.992	19.995	103.256	20.147	3.309	0.493
165.500	162.272	79.992	19.994	103.256	20.146	3.336	0.470
166.001	162.511	79.992	19.995	103.256	20.143	3.559	0.483
166.500	162.769	79.992	19.996	103.255	20.148	3.198	0.490
167.000	163.007	79.991	19.994	103.256	20.138	3.849	0.497
167.500	163.247	79.991	19.996	103.256	20.142	3.622	0.487
168.000	163.480	79.991	19.996	103.256	20.147	3.287	0.476
168.500	163.767	79.991	19.994	103.258	20.150	3.078	0.497
169.000	164.014	79.991	19.994	103.257	20.146	3.368	0.527
169.500	164.268	79.993	19.996	103.257	20.151	3.024	0.517
170.000	164.521	79.992	19.996	103.257	20.145	3.415	0.504
170.500	164.792	79.992	19.996	103.257	20.148	3.243	0.516
171.000	165.005	79.992	19.996	103.256	20.144	3.474	0.505
171.500	165.284	79.990	19.994	103.256	20.151	2.995	0.488
172.000	165.522	79.991	19.994	103.255	20.147	3.265	0.504
172.500	165.776	79.991	19.995	103.254	20.145	3.419	0.505
173.000	166.062	79.991	19.996	103.254	20.149	3.143	0.516
173.500	166.331	79.991	19.997	103.254	20.146	3.348	0.548
174.000	166.566	79.992	19.995	103.255	20.147	3.292	0.530
174.500	166.843	79.992	19.996	103.254	20.145	3.386	0.508
175.000	167.051	79.992	19.996	103.256	20.141	3.680	0.498
175.500	167.333	79.992	19.996	103.255	20.147	3.305	0.487
176.000	167.544	79.991	19.995	103.255	20.145	3.444	0.491
176.500	167.809	79.992	19.997	103.254	20.143	3.551	0.484
177.000	168.054	79.992	19.995	103.255	20.145	3.406	0.493
177.500	168.288	79.991	19.996	103.254	20.141	3.656	0.494
178.000	168.547	79.994	19.998	103.254	20.145	3.422	0.486
178.500	168.795	79.993	19.997	103.254	20.141	3.669	0.500
179.000	169.034	79.993	19.997	103.249	20.141	3.647	0.497
179.500	169.281	79.993	19.996	103.245	20.145	3.390	0.487
180.000	169.547	79.992	19.996	103.245	20.147	3.304	0.499
180.500	169.783	79.993	19.996	103.246	20.150	3.071	0.508
181.000	170.057	79.991	19.996	103.247	20.148	3.190	0.506
181.500	170.252	79.993	19.997	103.252	20.150	3.056	0.489
182.000	170.523	79.993	19.997	103.256	20.146	3.373	0.468
182.500	170.810	79.993	19.996	103.256	20.150	3.107	0.512
183.000	171.059	79.992	19.995	103.251	20.147	3.274	0.547
183.500	171.327	79.993	19.996	103.249	20.144	3.463	0.526
184.000	171.511	79.993	19.996	103.248	20.148	3.236	0.484
184.500	171.794	79.992	19.996	103.248	20.142	3.633	0.459
185.000	172.027	79.993	19.994	103.249	20.141	3.704	0.492
185.501	172.279	79.993	19.996	103.252	20.152	2.971	0.501
186.000	172.526	79.993	19.997	103.254	20.144	3.504	0.492
186.500	172.791	79.993	19.997	103.251	20.149	3.140	0.505
187.000	173.027	79.993	19.995	103.251	20.142	3.637	0.506
187.500	173.282	79.995	19.995	103.247	20.152	2.924	0.496
188.000	173.539	79.993	19.996	103.243	20.148	3.219	0.502
188.500	173.800	79.993	19.995	103.239	20.146	3.354	0.515
189.000	174.023	79.992	19.995	103.239	20.143	3.561	0.500
189.500	174.258	79.994	19.996	103.239	20.148	3.238	0.471
190.000	174.540	79.992	19.995	103.239	20.143	3.573	0.488
190.500	174.776	79.992	19.994	103.239	20.148	3.247	0.517
191.000	175.045	79.993	19.996	103.239	20.143	3.572	0.512
191.500	175.258	79.992	19.994	103.242	20.151	3.011	0.494
192.000	175.519	79.991	19.994	103.240	20.153	2.875	0.478
192.500	175.764	79.992	19.995	103.237	20.150	3.103	0.490
193.000	175.998	79.991	19.995	103.241	20.149	3.147	0.492
193.500	176.216	79.992	19.995	103.245	20.149	3.149	0.465
194.000	176.528	79.992	19.995	103.246	20.153	2.895	0.492
194.500	176.742	79.992	19.995	103.249	20.148	3.238	0.528
195.000	177.017	79.992	19.996	103.256	20.140	3.742	0.507
195.500	177.243	79.992	19.996	103.255	20.149	3.147	0.495
196.000	177.529	79.991	19.994	103.256	20.152	2.956	0.506
196.500	177.737	79.992	19.995	103.256	20.147	3.254	0.503
197.000	177.986	79.993	19.996	103.255	20.146	3.342	0.476
197.500	178.260	79.991	19.995	103.250	20.147	3.312	0.490
198.000	178.510	79.992	19.995	103.249	20.146	3.341	0.523
198.500	178.733	79.991	19.995	103.248	20.151	3.027	0.499
199.000	178.956	79.990	19.994	103.247	20.145	3.441	0.460
199.500	179.215	79.991	19.995	103.247	20.145	3.415	0.464
200.000	179.496	79.993	19.994	103.251	20.140	3.761	0.511
200.500	179.747	79.993	19.996	103.252	20.144	3.460	0.536
201.000	179.989	79.993	19.997	103.252	20.146	3.375	0.513
201.500	180.215	79.992	19.995	103.253	20.147	3.288	0.481
202.000	180.486	79.992	19.995	103.255	20.149	3.157	0.482
202.500	180.721	79.992	19.995	103.255	20.148	3.197	0.501
203.000	180.963	79.993	19.995	103.251	20.145	3.420	0.491
203.501	181.213	79.994	19.995	103.248	20.146	3.346	0.485
204.000	181.452	79.992	19.994	103.244	20.152	2.963	0.491
204.500	181.714	79.990	19.994	103.242	20.150	3.076	0.495
205.000	181.939	79.993	19.994	103.239	20.145	3.428	0.494
205.500	182.232	79.993	19.995	103.244	20.149	3.143	0.503
206.000	182.478	79.992	19.996	103.248	20.149	3.132	0.528
206.500	182.689	79.993	19.995	103.248	20.150	3.088	0.498
207.000	182.971	79.994	19.995	103.241	20.143	3.552	0.476
207.500	183.247	79.992	19.995	103.238	20.144	3.447	0.525
208.000	183.453	79.993	19.996	103.234	20.145	3.434	0.520
208.500	183.724	79.994	19.996	103.236	20.144	3.467	0.480
209.000	183.948	79.993	19.994	103.241	20.150	3.081	0.486
209.500	184.193	79.993	19.995	103.247	20.147	3.261	0.482
210.000	184.423	79.994	19.995	103.248	20.143	3.520	0.472
210.500	184.647	79.994	19.996	103.244	20.145	3.437	0.465
211.000	184.903	79.993	19.995	103.237	20.146	3.340	0.467
211.500	185.150	79.993	19.994	103.230	20.145	3.393	0.491
212.000	185.432	79.994	19.995	103.225	20.150	3.057	0.516
212.500	185.696	79.994	19.994	103.226	20.152	2.940	0.537
213.000	185.957	79.994	19.995	103.229	20.150	3.065	0.536
213.500	186.175	79.994	19.994	103.229	20.142	3.616	0.503
214.000	186.444	79.992	19.994	103.227	20.148	3.219	0.483
214.500	186.675	79.993	19.995	103.226	20.149	3.144	0.493
215.000	186.946	79.993	19.994	103.225	20.151	3.048	0.501
215.500	187.179	79.992	19.994	103.230	20.146	3.315	0.503
216.000	187.395	79.994	19.996	103.234	20.147	3.293	0.476
216.500	187.702	79.994	19.994	103.234	20.150	3.083	0.486
217.000	187.937	79.994	19.995	103.234	20.144	3.455	0.533
217.500	188.178	79.993	19.995	103.233	20.145	3.438	0.509
218.000	188.436	79.993	19.994	103.225	20.146	3.349	0.487
218.501	188.648	79.993	19.994	103.222	20.148	3.239	0.485
219.000	188.923	79.994	19.994	103.222	20.153	2.912	0.479
219.500	189.175	79.993	19.997	103.227	20.147	3.260	0.507
220.000	189.405	79.994	19.996	103.229	20.151	2.987	0.504
220.500	189.597	79.994	19.996	103.230	20.147	3.306	0.452
221.000	189.872	79.996	19.994	103.232	20.148	3.191	0.445
221.500	190.112	79.994	19.994	103.231	20.146	3.351	0.491
222.000	190.375	79.995	19.995	103.225	20.144	3.492	0.509
222.500	190.632	79.994	19.995	103.223	20.145	3.407	0.511
223.000	190.877	79.994	19.996	103.223	20.144	3.480	0.511
223.500	191.126	79.995	19.996	103.226	20.147	3.270	0.498
224.000	191.360	79.994	19.995	103.227	20.148	3.221	0.488
224.500	191.638	79.994	19.994	103.227	20.146	3.349	0.497
225.000	191.859	79.994	19.994	103.227	20.146	3.326	0.505
225.500	192.102	79.993	19.995	103.227	20.144	3.471	0.481
226.000	192.372	79.994	19.995	103.223	20.145	3.407	0.489
226.500	192.590	79.994	19.994	103.225	20.145	3.418	0.501
227.000	192.839	79.995	19.994	103.228	20.147	3.302	0.478
227.500	193.093	79.993	19.995	103.231	20.143	3.563	0.485
228.000	193.334	79.995	19.996	103.232	20.145	3.420	0.499
228.500	193.588	79.996	19.996	103.231	20.141	3.652	0.495
229.000	193.818	79.995	19.996	103.229	20.139	3.810	0.489
229.500	194.089	79.994	19.995	103.225	20.145	3.382	0.493
230.000	194.297	79.995	19.995	103.224	20.142	3.632	0.490
230.500	194.559	79.995	19.996	103.222	20.150	3.057	0.474
231.000	194.807	79.993	19.994	103.221	20.149	3.179	0.490
231.500	195.031	79.995	19.995	103.222	20.152	2.952	0.491
232.000	195.278	79.995	19.996	103.222	20.143	3.519	0.471
232.501	195.522	79.995	19.995	103.221	20.146	3.376	0.481
233.000	195.808	79.994	19.995	103.220	20.145	3.431	0.511
233.500	196.022	79.995	19.995	103.222	20.142	3.607	0.515
234.000	196.280	79.995	19.994	103.225	20.143	3.545	0.486
234.500	196.499	79.995	19.996	103.226	20.142	3.585	0.475
235.000	196.720	79.995	19.994	103.226	20.140	3.757	0.458
235.500	196.978	79.995	19.995	103.225	20.144	3.503	0.459
236.000	197.258	79.994	19.995	103.224	20.144	3.482	0.509
236.500	197.493	79.997	19.996	103.219	20.142	3.638	0.527
237.000	197.719	79.995	19.994	103.218	20.141	3.668	0.488
237.500	197.993	79.995	19.996	103.218	20.142	3.632	0.481
238.000	198.254	79.996	19.995	103.218	20.144	3.490	0.517
238.500	198.476	79.994	19.993	103.219	20.143	3.525	0.509
239.000	198.702	79.996	19.995	103.220	20.147	3.258	0.466
239.500	199.004	79.994	19.995	103.219	20.143	3.547	0.488
240.000	199.249	79.994	19.995	103.219	20.147	3.293	0.537
240.500	199.486	79.995	19.995	103.222	20.139	3.828	0.514
241.000	199.723	79.993	19.995	103.221	20.143	3.554	0.478
241.500	199.950	79.993	19.996	103.220	20.144	3.469	0.469
242.000	200.191	79.993	19.996	103.219	20.143	3.565	0.466
242.500	200.429	79.995	19.996	103.219	20.137	3.932	0.474
243.000	200.684	79.993	19.996	103.215	20.144	3.466	0.486
243.500	200.902	79.992	19.995	103.215	20.138	3.875	0.483
244.000	201.156	79.992	19.994	103.215	20.149	3.153	0.472
244.500	201.386	79.993	19.996	103.215	20.148	3.237	0.478
245.000	201.641	79.992	19.995	103.216	20.144	3.502	0.485
245.500	201.930	79.992	19.997	103.216	20.145	3.434	0.515
246.000	202.146	79.990	19.995	103.219	20.145	3.407	0.525
246.500	202.413	79.992	19.995	103.221	20.144	3.462	0.494
247.000	202.649	79.992	19.995	103.222	20.143	3.543	0.493
247.500	202.919	79.992	19.995	103.222	20.143	3.536	0.504
248.000	203.200	79.992	19.995	103.221	20.142	3.638	0.529
248.500	203.381	79.991	19.995	103.218	20.148	3.197	0.506
249.001	203.630	79.992	19.996	103.216	20.146	3.317	0.446
249.500	203.897	79.991	19.994	103.214	20.143	3.552	0.473
250.000	204.124	79.992	19.997	103.214	20.138	3.855	0.505
250.500	204.355	79.994	19.996	103.213	20.142	3.603	0.476
251.000	204.599	79.993	19.995	103.214	20.145	3.416	0.467
251.500	204.877	79.992	19.996	103.217	20.141	3.690	0.499
252.000	205.091	79.992	19.995	103.224	20.141	3.677	0.507
252.500	205.354	79.991	19.995	103.229	20.137	3.971	0.484
253.000	205.590	79.993	19.996	103.231	20.146	3.336	0.488
253.500	205.830	79.992	19.995	103.231	20.143	3.520	0.487
254.000	206.082	79.993	19.994	103.229	20.146	3.375	0.484
254.500	206.321	79.992	19.995	103.223	20.140	3.748	0.492
255.000	206.575	79.993	19.995	103.219	20.136	3.980	0.492
255.500	206.828	79.991	19.995	103.219	20.138	3.862	0.500
256.000	207.094	79.993	19.995	103.221	20.146	3.324	0.513
256.500	207.306	79.992	19.994	103.223	20.142	3.581	0.498
257.000	207.570	79.993	19.996	103.223	20.143	3.539	0.477
257.500	207.830	79.992	19.994	103.225	20.146	3.345	0.500
258.000	208.081	79.992	19.997	103.225	20.144	3.489	0.517
258.500	208.358	79.993	19.996	103.223	20.145	3.425	0.519
259.000	208.602	79.992	19.996	103.221	20.141	3.652	0.525
259.500	208.804	79.991	19.995	103.220	20.145	3.400	0.484
260.000	209.058	79.992	19.996	103.219	20.142	3.637	0.450
260.500	209.325	79.992	19.996	103.224	20.143	3.569	0.488
261.000	209.546	79.992	19.994	103.225	20.146	3.336	0.504
261.500	209.810	79.993	19.996	103.224	20.143	3.556	0.487
262.000	210.025	79.990	19.996	103.225	20.142	3.579	0.482
262.500	210.302	79.992	19.996	103.225	20.140	3.764	0.486
263.000	210.551	79.993	19.995	103.221	20.138	3.882	0.509
263.500	210.790	79.991	19.994	103.220	20.136	4.016	0.507
264.000	211.045	79.991	19.994	103.220	20.134	4.145	0.491
264.500	211.337	79.991	19.995	103.219	20.139	3.826	0.520
265.000	211.555	79.990	19.996	103.219	20.141	3.677	0.528
265.500	211.812	79.992	19.996	103.217	20.143	3.570	0.492
266.000	212.048	79.991	19.996	103.214	20.138	3.846	0.484
266.500	212.268	79.990	19.995	103.214	20.147	3.293	0.475
267.000	212.519	79.992	19.996	103.214	20.141	3.686	0.464
267.500	212.783	79.992	19.996	103.214	20.139	3.824	0.494
268.000	212.996	79.992	19.995	103.214	20.140	3.746	0.496
268.500	213.284	79.990	19.995	103.218	20.141	3.684	0.489
269.000	213.511	79.991	19.996	103.218	20.138	3.904	0.508
269.500	213.788	79.990	19.996	103.218	20.143	3.554	0.509
270.000	214.049	79.991	19.995	103.217	20.139	3.824	0.521
270.500	214.245	79.992	19.996	103.218	20.138	3.902	0.497
271.000	214.508	79.991	19.997	103.218	20.143	3.576	0.458
271.500	214.764	79.990	19.995	103.218	20.142	3.619	0.489
272.000	215.006	79.991	19.997	103.219	20.142	3.588	0.509
272.500	215.272	79.990	19.996	103.219	20.139	3.784	0.503
273.000	215.517	79.991	19.997	103.218	20.135	4.084	0.509
273.500	215.729	79.991	19.996	103.219	20.137	3.964	0.484
274.000	215.983	79.990	19.996	103.220	20.141	3.648	0.462
274.500	216.215	79.989	19.996	103.220	20.140	3.739	0.476
275.000	216.504	79.992	19.996	103.220	20.139	3.841	0.503
275.500	216.718	79.991	19.995	103.220	20.144	3.487	0.512
276.000	217.002	79.991	19.995	103.218	20.139	3.799	0.501
276.500	217.229	79.991	19.995	103.217	20.140	3.710	0.505
277.000	217.465	79.991	19.996	103.212	20.135	4.072	0.487
277.500	217.701	79.991	19.995	103.208	20.141	3.659	0.468
278.000	217.946	79.991	19.994	103.207	20.139	3.802	0.476
278.500	218.187	79.992	19.995	103.209	20.141	3.651	0.483
279.000	218.459	79.991	19.995	103.210	20.139	3.800	0.500
279.500	218.709	79.991	19.995	103.214	20.140	3.751	0.518
280.000	218.972	79.990	19.994	103.218	20.136	4.022	0.518
280.500	219.203	79.992	19.994	103.218	20.141	3.654	0.503
281.000	219.447	79.991	19.995	103.219	20.141	3.668	0.484
281.500	219.705	79.991	19.993	103.219	20.140	3.737	0.488
282.000	219.971	79.992	19.994	103.218	20.137	3.929	0.512
282.500	220.219	79.992	19.994	103.218	20.139	3.831	0.519
283.000	220.441	79.992	19.994	103.219	20.142	3.626	0.492
283.500	220.696	79.991	19.995	103.219	20.139	3.788	0.474
284.000	220.977	79.992	19.995	103.219	20.138	3.875	0.507
284.500	221.192	79.992	19.994	103.220	20.140	3.755	0.516
285.000	221.430	79.992	19.994	103.220	20.134	4.112	0.474
285.500	221.678	79.993	19.994	103.220	20.134	4.147	0.469
286.000	222.009	79.994	19.994	103.221	20.135	4.098	0.533
286.500	222.200	79.992	19.995	103.220	20.133	4.188	0.550
287.000	222.463	79.993	19.995	103.220	20.132	4.281	0.488
287.500	222.681	79.994	19.995	103.217	20.134	4.109	0.467
288.000	222.927	79.993	19.994	103.212	20.132	4.241	0.473
288.500	223.177	79.995	19.995	103.209	20.133	4.203	0.480
289.000	223.447	79.992	19.994	103.206	20.142	3.619	0.508
289.500	223.682	79.994	19.997	103.205	20.137	3.947	0.512
290.000	223.937	79.993	19.995	103.207	20.137	3.972	0.498
290.500	224.154	79.994	19.996	103.209	20.140	3.738	0.481
291.000	224.466	79.993	19.995	103.211	20.140	3.749	0.501
291.500	224.685	79.995	19.996	103.212	20.142	3.622	0.530
292.000	224.951	79.994	19.993	103.210	20.134	4.119	0.508
292.500	225.189	79.995	19.998	103.210	20.133	4.237	0.494
293.000	225.458	79.994	19.995	103.207	20.140	3.715	0.506
293.500	225.668	79.994	19.996	103.206	20.139	3.796	0.494
294.000	225.932	79.996	19.996	103.206	20.134	4.169	0.477
294.500	226.169	79.995	19.994	103.207	20.137	3.950	0.487
295.000	226.463	79.993	19.995	103.207	20.138	3.854	0.515
295.500	226.700	79.993	19.994	103.209	20.140	3.728	0.530
296.000	226.925	79.994	19.995	103.210	20.134	4.165	0.497
296.500	227.183	79.992	19.995	103.212	20.140	3.766	0.473
297.000	227.451	79.995	19.997	103.213	20.137	3.958	0.504
297.500	227.693	79.993	19.994	103.212	20.136	3.996	0.518
298.000	227.972	79.993	19.994	103.213	20.137	3.934	0.516
298.500	228.201	79.993	19.995	103.213	20.137	3.923	0.514
299.000	228.447	79.992	19.996	103.213	20.137	3.967	0.491
299.500	228.684	79.994	19.994	103.207	20.137	3.967	0.479
300.000	228.936	79.993	19.995	103.200	20.138	3.883	0.486
300.500	229.185	79.992	19.995	103.195	20.136	4.011	0.495
301.000	229.452	79.993	19.994	103.195	20.139	3.780	0.509
301.500	229.660	79.994	19.996	103.195	20.139	3.800	0.496
302.000	229.977	79.993	19.994	103.200	20.137	3.971	0.500
302.500	230.219	79.992	19.993	103.205	20.134	4.156	0.542
303.000	230.472	79.993	19.996	103.205	20.139	3.795	0.527
303.500	230.714	79.994	19.996	103.200	20.141	3.706	0.495
304.000	231.000	79.995	19.995	103.195	20.137	3.952	0.512
304.500	231.243	79.993	19.995	103.192	20.137	3.916	0.528
305.000	231.469	79.994	19.996	103.192	20.135	4.059	0.499
305.500	231.736	79.994	19.995	103.197	20.136	3.992	0.481
306.000	231.963	79.993	19.995	103.203	20.132	4.248	0.493
306.500	232.240	79.994	19.995	103.209	20.132	4.252	0.498
307.000	232.481	79.994	19.994	103.211	20.135	4.043	0.511
307.500	232.750	79.993	19.995	103.208	20.133	4.234	0.514
308.000	232.965	79.994	19.996	103.206	20.130	4.384	0.497
308.500	233.210	79.993	19.995	103.205	20.130	4.386	0.472
309.000	233.463	79.995	19.996	103.201	20.130	4.404	0.479
309.500	233.743	79.994	19.995	103.199	20.136	4.005	0.515
310.000	233.986	79.995	19.995	103.204	20.139	3.778	0.527
310.500	234.220	79.995	19.995	103.203	20.140	3.766	0.500
311.000	234.501	79.993	19.995	103.202	20.138	3.880	0.497
311.501	234.686	79.995	19.995	103.206	20.136	3.993	0.491
312.001	234.988	79.996	19.996	103.207	20.132	4.281	0.476
312.501	235.262	79.994	19.995	103.208	20.127	4.600	0.531
313.001	235.513	79.995	19.995	103.211	20.133	4.194	0.550
313.500	235.723	79.995	19.993	103.206	20.133	4.203	0.493
314.000	235.982	79.994	19.996	103.200	20.134	4.125	0.465
314.500	236.229	79.995	19.994	103.201	20.133	4.185	0.487
315.000	236.455	79.995	19.995	103.198	20.131	4.331	0.489
315.500	236.721	79.996	19.994	103.197	20.133	4.215	0.482
316.000	236.951	79.995	19.994	103.198	20.132	4.293	0.494
316.500	237.226	79.995	19.993	103.202	20.136	3.985	0.501
317.000	237.530	79.995	19.994	103.203	20.136	3.999	0.542
317.500	237.722	79.995	19.994	103.206	20.135	4.042	0.537
318.000	238.004	79.996	19.995	103.206	20.133	4.214	0.485
318.500	238.233	79.996	19.995	103.210	20.131	4.311	0.493
319.000	238.461	79.996	19.994	103.211	20.131	4.304	0.484
319.500	238.735	79.994	19.994	103.208	20.128	4.567	0.479
320.000	238.963	79.995	19.994	103.207	20.134	4.141	0.502
320.500	239.238	79.994	19.994	103.208	20.133	4.214	0.503
321.000	239.489	79.995	19.995	103.208	20.131	4.331	0.515
321.500	239.697	79.993	19.994	103.207	20.131	4.366	0.493
322.000	239.924	79.993	19.995	103.212	20.128	4.505	0.447
322.500	240.207	79.993	19.995	103.213	20.131	4.329	0.472
323.000	240.439	79.993	19.994	103.214	20.126	4.665	0.513
323.500	240.693	79.994	19.995	103.215	20.130	4.427	0.500
324.000	240.966	79.993	19.995	103.215	20.129	4.467	0.506
324.500	241.236	79.994	19.996	103.211	20.131	4.335	0.535
325.000	241.465	79.991	19.996	103.207	20.129	4.487	0.521
325.500	241.750	79.994	19.995	103.206	20.128	4.549	0.506
326.000	241.972	79.992	19.995	103.204	20.126	4.647	0.510
326.500	242.232	79.993	19.995	103.202	20.128	4.536	0.494
327.000	242.484	79.994	19.995	103.202	20.125	4.752	0.497
327.500	242.735	79.992	19.994	103.199	20.125	4.710	0.508
328.000	242.966	79.992	19.996	103.192	20.126	4.676	0.493
328.500	243.226	79.993	19.998	103.188	20.124	4.777	0.487
329.000	243.460	79.992	19.995	103.184	20.123	4.862	0.493
329.500	243.758	79.992	19.997	103.186	20.120	5.074	0.513
330.000	243.989	79.993	19.996	103.194	20.123	4.849	0.530
330.500	244.219	79.991	19.995	103.202	20.126	4.675	0.495
331.000	244.463	79.991	19.995	103.208	20.125	4.717	0.468
331.500	244.716	79.992	19.996	103.209	20.125	4.719	0.485
332.000	244.956	79.991	19.996	103.207	20.123	4.846	0.495
332.500	245.214	79.992	19.995	103.206	20.121	5.026	0.495
333.000	245.461	79.992	19.997	103.199	20.122	4.906	0.502
333.500	245.691	79.990	19.996	103.193	20.123	4.893	0.491
334.001	245.968	79.994	19.995	103.196	20.118	5.201	0.492
334.501	246.237	79.993	19.996	103.196	20.122	4.951	0.526
335.001	246.452	79.992	19.994	103.194	20.122	4.902	0.515
335.500	246.736	79.993	19.995	103.198	20.121	5.013	0.491
336.000	247.001	79.991	19.996	103.203	20.121	4.988	0.524
336.500	247.223	79.991	19.994	103.204	20.115	5.385	0.518
337.000	247.498	79.991	19.995	103.205	20.123	4.882	0.492
337.500	247.699	79.992	19.996	103.204	20.122	4.904	0.487
338.000	247.951	79.993	19.995	103.205	20.122	4.958	0.465
338.500	248.167	79.991	19.995	103.202	20.118	5.205	0.460
339.000	248.435	79.992	19.995	103.202	20.116	5.349	0.476
339.500	248.699	79.993	19.995	103.199	20.117	5.281	0.508
340.000	248.942	79.992	19.994	103.197	20.115	5.366	0.519
340.500	249.222	79.992	19.995	103.192	20.112	5.569	0.515
341.000	249.475	79.994	19.995	103.191	20.109	5.794	0.528
341.500	249.712	79.992	19.995	103.195	20.110	5.694	0.512
342.000	249.966	79.993	19.996	103.200	20.111	5.644	0.490
342.500	250.236	79.992	19.994	103.205	20.114	5.464	0.508
343.000	250.498	79.994	19.995	103.206	20.109	5.791	0.528
343.500	250.704	79.992	19.995	103.207	20.109	5.802	0.500
344.000	251.025	79.993	19.995	103.201	20.110	5.724	0.498
344.501	251.262	79.992	19.995	103.194	20.106	5.983	0.542
345.001	251.506	79.993	19.996	103.194	20.110	5.749	0.519
345.501	251.787	79.993	19.996	103.200	20.103	6.169	0.503
346.000	252.049	79.993	19.995	103.201	20.105	6.028	0.534
346.500	252.275	79.993	19.994	103.203	20.106	5.991	0.516
347.000	252.533	79.992	19.993	103.203	20.101	6.323	0.486
347.500	252.742	79.994	19.995	103.203	20.106	5.972	0.475
348.000	252.999	79.993	19.995	103.201	20.100	6.407	0.466
348.500	253.267	79.992	19.996	103.199	20.100	6.385	0.495
349.000	253.543	79.994	19.996	103.201	20.102	6.222	0.534
349.500	253.787	79.992	19.996	103.207	20.096	6.652	0.532
350.000	254.033	79.993	19.994	103.207	20.096	6.621	0.505
350.500	254.247	79.993	19.994	103.201	20.096	6.666	0.475
351.000	254.534	79.993	19.995	103.201	20.088	7.175	0.480
351.500	254.752	79.991	19.996	103.200	20.092	6.900	0.503
352.000	255.010	79.993	19.995	103.198	20.087	7.222	0.491
352.500	255.298	79.993	19.995	103.197	20.090	7.025	0.511
353.000	255.498	79.993	19.995	103.201	20.093	6.844	0.517
353.500	255.738	79.994	19.995	103.202	20.088	7.147	0.464
354.001	256.013	79.992	19.997	103.205	20.091	6.991	0.478
354.500	256.270	79.993	19.996	103.205	20.080	7.673	0.523
355.000	256.505	79.991	19.995	103.203	20.083	7.501	0.512
355.500	256.780	79.991	19.996	103.201	20.081	7.629	0.501
356.000	256.971	79.991	19.996	103.203	20.083	7.507	0.488
356.500	257.243	79.993	19.997	103.200	20.081	7.659	0.464
357.000	257.498	79.990	19.995	103.195	20.080	7.684	0.495
357.500	257.768	79.991	19.996	103.193	20.070	8.340	0.526
358.000	257.986	79.992	19.997	103.192	20.078	7.864	0.506
358.500	258.231	79.993	19.997	103.194	20.073	8.167	0.475
359.000	258.499	79.992	19.997	103.197	20.068	8.479	0.488
359.500	258.781	79.991	19.997	103.202	20.074	8.110	0.532
360.000	258.979	79.992	19.996	103.205	20.069	8.398	0.516
360.500	259.266	79.991	19.996	103.208	20.065	8.672	0.483
361.000	259.511	79.991	19.995	103.201	20.066	8.638	0.508
361.500	259.738	79.992	19.997	103.195	20.066	8.641	0.502
362.000	260.010	79.991	19.997	103.192	20.067	8.556	0.486
362.500	260.227	79.991	19.997	103.192	20.066	8.630	0.494
363.000	260.498	79.993	19.997	103.193	20.061	8.945	0.488
363.500	260.725	79.992	19.997	103.201	20.065	8.673	0.493
364.000	260.982	79.992	19.995	103.207	20.060	9.041	0.491
364.500	261.212	79.993	19.995	103.210	20.058	9.160	0.486
365.000	261.429	79.991	19.995	103.211	20.063	8.834	0.467
365.500	261.661	79.994	19.997	103.211	20.055	9.349	0.448
366.000	261.904	79.993	19.995	103.206	20.054	9.407	0.462
366.500	262.167	79.993	19.996	103.200	20.047	9.889	0.491
367.000	262.460	79.994	19.997	103.194	20.048	9.791	0.531
367.500	262.659	79.994	19.995	103.189	20.049	9.759	0.524
368.000	262.949	79.994	19.997	103.187	20.049	9.742	0.491
368.500	263.111	79.993	19.995	103.185	20.043	10.117	0.470
369.000	263.423	79.994	19.996	103.191	20.042	10.241	0.463
369.500	263.686	79.993	19.996	103.195	20.036	10.596	0.525
370.000	263.961	79.994	19.997	103.200	20.037	10.562	0.556
370.500	264.209	79.994	19.997	103.204	20.034	10.709	0.530
371.000	264.438	79.994	19.996	103.210	20.033	10.789	0.500
371.501	264.595	79.994	19.995	103.210	20.035	10.640	0.432
372.000	264.952	79.993	19.997	103.211	20.030	10.981	0.450
372.500	265.155	79.995	19.996	103.211	20.030	10.996	0.537
373.000	265.419	79.995	19.996	103.206	20.023	11.484	0.514
373.500	265.623	79.995	19.995	103.201	20.028	11.167	0.468
374.000	265.838	79.995	19.996	103.201	20.027	11.210	0.443
374.500	266.194	79.994	19.995	103.202	20.020	11.638	0.494
375.000	266.388	79.995	19.995	103.203	20.014	12.037	0.561
375.500	266.580	79.995	19.996	103.208	20.019	11.729	0.468
376.000	266.876	79.994	19.996	103.213	20.010	12.293	0.437
376.500	267.169	79.993	19.997	103.215	20.009	12.392	0.538
377.000	267.409	79.995	19.995	103.215	20.009	12.402	0.561
377.500	267.659	79.995	19.995	103.213	20.012	12.219	0.512
378.000	267.967	79.995	19.996	103.213	20.003	12.788	0.524
378.500	268.079	79.993	19.995	103.213	20.005	12.653	0.489
379.000	268.573	79.994	19.996	103.212	20.000	12.983	0.513
379.500	268.570	79.993	19.995	103.212	19.995	13.343	0.549
380.000	268.656	79.994	19.994	103.213	19.995	13.324	0.287
380.500	269.058	79.992	19.996	103.214	19.989	13.735	0.285
381.000	269.227	79.992	19.995	103.213	19.986	13.893	0.529
381.500	269.421	79.994	19.996	103.215	19.985	13.976	0.468
382.000	269.966	79.994	19.996	103.216	19.989	13.715	0.552
382.500	270.021	79.993	19.995	103.218	19.986	13.885	0.669
383.000	270.439	79.994	19.996	103.219	19.980	14.334	0.536
383.500	270.643	79.993	19.995	103.222	19.977	14.495	0.548
384.000	270.902	79.993	19.995	103.223	19.969	15.058	0.542
384.500	271.162	79.994	19.995	103.222	19.966	15.223	0.491
385.000	271.387	79.993	19.994	103.221	19.957	15.833	0.502
385.500	271.672	79.993	19.995	103.222	19.959	15.675	0.498
386.000	271.886	79.993	19.994	103.226	19.950	16.305	0.504
386.500	272.196	79.994	19.995	103.226	19.949	16.361	0.512
387.000	272.428	79.993	19.995	103.227	19.944	16.682	0.533
387.500	272.651	79.993	19.996	103.231	19.941	16.905	0.498
388.000	272.959	79.994	19.994	103.229	19.942	16.802	0.493
388.500	273.180	79.995	19.994	103.224	19.936	17.174	0.530
389.000	273.412	79.994	19.994	103.223	19.934	17.360	0.491
389.500	273.643	79.994	19.995	103.220	19.932	17.473	0.458
390.000	273.901	79.993	19.994	103.215	19.924	17.973	0.476
390.500	274.104	79.993	19.995	103.212	19.932	17.470	0.475
391.000	274.422	79.994	19.995	103.206	19.920	18.273	0.491
391.500	274.625	79.994	19.994	103.201	19.920	18.249	0.521
392.001	274.859	79.995	19.995	103.201	19.917	18.462	0.478
392.500	275.163	79.993	19.995	103.201	19.914	18.627	0.487
393.000	275.403	79.994	19.995	103.203	19.907	19.112	0.541
393.500	275.622	79.993	19.994	103.210	19.905	19.246	0.502
394.000	275.881	79.994	19.995	103.216	19.906	19.199	0.469
394.500	276.139	79.996	19.995	103.218	19.907	19.107	0.498
395.000	276.328	79.996	19.994	103.219	19.899	19.665	0.482
395.500	276.589	79.993	19.994	103.219	19.901	19.500	0.448
396.000	276.901	79.996	19.996	103.217	19.894	19.990	0.512
396.500	277.130	79.994	19.993	103.216	19.894	19.952	0.558
397.000	277.409	79.995	19.993	103.217	19.890	20.242	0.525
397.500	277.611	79.995	19.995	103.219	19.888	20.348	0.494
398.000	277.904	79.995	19.995	103.220	19.884	20.649	0.488
398.500	278.136	79.995	19.994	103.220	19.885	20.571	0.510
399.000	278.389	79.995	19.994	103.220	19.879	20.958	0.505
399.500	278.622	79.994	19.995	103.219	19.877	21.080	0.485
400.000	278.879	79.994	19.993	103.218	19.877	21.120	0.488
400.500	279.092	79.994	19.994	103.218	19.874	21.309	0.480
401.000	279.339	79.994	19.995	103.219	19.870	21.591	0.465
401.500	279.619	79.995	19.994	103.221	19.864	21.964	0.494
402.000	279.859	79.994	19.996	103.221	19.865	21.890	0.524
402.500	280.107	79.993	19.993	103.222	19.862	22.107	0.504
403.000	280.354	79.994	19.995	103.222	19.858	22.348	0.491
403.500	280.621	79.993	19.994	103.222	19.853	22.703	0.505
404.000	280.821	79.993	19.993	103.219	19.854	22.600	0.491
404.500	281.112	79.994	19.995	103.218	19.853	22.668	0.479
405.001	281.324	79.994	19.995	103.218	19.852	22.740	0.497
405.501	281.572	79.992	19.994	103.219	19.846	23.122	0.482
406.000	281.837	79.991	19.995	103.219	19.842	23.425	0.487
406.500	282.072	79.992	19.994	103.220	19.836	23.811	0.507
407.000	282.308	79.991	19.994	103.220	19.832	24.063	0.485
407.500	282.567	79.992	19.994	103.219	19.832	24.087	0.483
408.000	282.858	79.990	19.995	103.220	19.832	24.071	0.522
408.500	283.048	79.992	19.995	103.222	19.832	24.100	0.516
409.001	283.328	79.992	19.996	103.224	19.827	24.424	0.476
409.500	283.604	79.992	19.996	103.224	19.823	24.638	0.512
410.000	283.829	79.994	19.994	103.229	19.818	24.988	0.528
410.500	284.123	79.992	19.996	103.231	19.817	25.062	0.510
411.000	284.355	79.992	19.995	103.232	19.816	25.118	0.522
411.500	284.600	79.991	19.995	103.234	19.813	25.351	0.501
412.000	284.838	79.991	19.995	103.237	19.813	25.294	0.480
412.500	285.103	79.992	19.996	103.234	19.810	25.488	0.493
413.000	285.334	79.992	19.995	103.235	19.805	25.862	0.499
413.500	285.608	79.991	19.995	103.233	19.805	25.876	0.500
414.000	285.877	79.994	19.995	103.233	19.803	25.950	0.524
414.500	286.091	79.993	19.995	103.230	19.798	26.289	0.513
415.000	286.328	79.992	19.995	103.230	19.796	26.473	0.467
415.501	286.622	79.992	19.996	103.226	19.798	26.330	0.491
416.000	286.838	79.993	19.995	103.225	19.793	26.631	0.520
416.500	287.104	79.993	19.995	103.223	19.789	26.910	0.496
417.000	287.378	79.992	19.994	103.223	19.786	27.129	0.511
417.500	287.640	79.992	19.995	103.224	19.784	27.208	0.538
418.000	287.880	79.993	19.996	103.223	19.784	27.215	0.519
418.500	288.157	79.993	19.995	103.223	19.780	27.488	0.510
419.000	288.374	79.992	19.996	103.224	19.776	27.787	0.506
419.500	288.637	79.992	19.996	103.224	19.771	28.070	0.487
420.000	288.869	79.993	19.995	103.223	19.776	27.777	0.487
420.500	289.138	79.993	19.994	103.223	19.771	28.112	0.498
421.000	289.357	79.991	19.995	103.222	19.768	28.321	0.494
421.500	289.644	79.991	19.996	103.219	19.767	28.382	0.497
422.000	289.906	79.990	19.995	103.219	19.765	28.515	0.528
422.500	290.125	79.990	19.996	103.219	19.763	28.595	0.515
423.000	290.373	79.992	19.996	103.220	19.761	28.729	0.474
423.500	290.686	79.992	19.995	103.222	19.758	28.939	0.514
424.000	290.898	79.991	19.994	103.223	19.759	28.900	0.544
424.500	291.181	79.992	19.996	103.221	19.753	29.273	0.510
425.000	291.431	79.993	19.995	103.220	19.758	28.979	0.514
425.500	291.692	79.992	19.995	103.219	19.758	28.979	0.522
426.000	291.987	79.993	19.994	103.215	19.754	29.192	0.533
426.500	292.194	79.991	19.996	103.215	19.752	29.365	0.529
427.000	292.461	79.992	19.995	103.216	19.749	29.565	0.488
427.500	292.690	79.993	19.996	103.216	19.750	29.473	0.485
428.000	292.957	79.992	19.995	103.215	19.754	29.222	0.496
428.500	293.212	79.992	19.996	103.216	19.747	29.710	0.509
429.000	293.473	79.993	19.995	103.216	19.744	29.857	0.519
429.500	293.721	79.993	19.995	103.214	19.744	29.846	0.513
430.000	293.977	79.992	19.995	103.215	19.744	29.879	0.507
430.500	294.180	79.993	19.996	103.215	19.741	30.062	0.481
431.000	294.495	79.992	19.996	103.215	19.743	29.927	0.488
431.500	294.731	79.991	19.994	103.215	19.740	30.159	0.534
432.000	294.982	79.993	19.996	103.216	19.744	29.842	0.519
432.500	295.240	79.991	19.996	103.216	19.741	30.085	0.498
433.000	295.478	79.993	19.996	103.216	19.743	29.942	0.502
433.500	295.749	79.991	19.995	103.216	19.740	30.151	0.503
434.000	296.013	79.991	19.996	103.216	19.742	29.989	0.522
434.500	296.247	79.993	19.996	103.220	19.742	29.998	0.516
435.000	296.493	79.992	19.996	103.223	19.742	29.974	0.489
435.500	296.768	79.993	19.995	103.223	19.741	30.069	0.501
436.000	297.015	79.992	19.996	103.224	19.747	29.706	0.522
436.500	297.236	79.993	19.995	103.224	19.746	29.737	0.495
437.000	297.519	79.993	19.995	103.219	19.741	30.101	0.486
437.500	297.777	79.991	19.994	103.215	19.742	30.000	0.522
438.000	298.012	79.992	19.994	103.216	19.746	29.759	0.516
438.500	298.270	79.992	19.995	103.217	19.745	29.815	0.493
439.000	298.539	79.992	19.996	103.216	19.746	29.769	0.510
439.500	298.779	79.991	19.995	103.217	19.750	29.500	0.518
440.000	299.052	79.991	19.994	103.218	19.745	29.796	0.511
440.500	299.273	79.993	19.996	103.217	19.746	29.740	0.504
441.000	299.528	79.993	19.996	103.216	19.748	29.580	0.485
441.500	299.780	79.992	19.996	103.216	19.754	29.236	0.492
442.000	300.023	79.991	19.995	103.215	19.754	29.222	0.501
442.500	300.259	79.992	19.995	103.216	19.753	29.303	0.487
443.000	300.514	79.992	19.996	103.215	19.751	29.398	0.485
443.500	300.793	79.992	19.995	103.215	19.750	29.447	0.513
444.000	301.031	79.993	19.996	103.216	19.751	29.417	0.526
444.500	301.272	79.993	19.996	103.216	19.754	29.182	0.498
445.000	301.513	79.993	19.995	103.216	19.757	29.048	0.480
445.500	301.806	79.992	19.996	103.215	19.763	28.614	0.508
446.000	302.026	79.993	19.997	103.215	19.757	29.026	0.524
446.500	302.299	79.994	19.996	103.215	19.762	28.704	0.503
447.000	302.556	79.993	19.997	103.214	19.760	28.805	0.511
447.500	302.818	79.993	19.997	103.215	19.764	28.586	0.525
448.000	303.102	79.994	19.996	103.215	19.768	28.314	0.533
448.500	303.305	79.992	19.997	103.216	19.766	28.399	0.517
449.000	303.601	79.993	19.996	103.216	19.768	28.294	0.493
449.500	303.827	79.994	19.997	103.216	19.770	28.148	0.511
450.000	304.072	79.993	19.996	103.214	19.770	28.137	0.497
450.500	304.340	79.993	19.996	103.210	19.772	28.033	0.492
451.000	304.589	79.993	19.995	103.206	19.770	28.137	0.515
451.500	304.833	79.994	19.995	103.206	19.777	27.716	0.505
452.000	305.074	79.993	19.997	103.206	19.775	27.807	0.489
452.500	305.317	79.993	19.997	103.207	19.775	27.837	0.484
453.000	305.579	79.992	19.995	103.211	19.779	27.574	0.494
453.500	305.839	79.991	19.996	103.214	19.781	27.402	0.514
454.000	306.080	79.994	19.998	103.215	19.782	27.350	0.511
454.500	306.308	79.993	19.998	103.215	19.780	27.487	0.485
455.000	306.572	79.994	19.995	103.214	19.783	27.277	0.480
455.500	306.864	79.993	19.997	103.215	19.782	27.393	0.524
456.000	307.095	79.992	19.996	103.215	19.782	27.385	0.540
456.500	307.341	79.993	19.996	103.215	19.786	27.129	0.500
457.000	307.596	79.991	19.996	103.215	19.781	27.427	0.489
457.500	307.849	79.994	19.996	103.216	19.787	27.042	0.504
458.000	308.100	79.995	19.995	103.216	19.786	27.115	0.506
458.500	308.326	79.994	19.997	103.216	19.787	27.049	0.491
459.000	308.571	79.993	19.995	103.216	19.787	27.055	0.474
459.500	308.829	79.993	19.996	103.215	19.786	27.082	0.487
460.000	309.074	79.992	19.996	103.215	19.793	26.660	0.503
460.500	309.318	79.993	19.997	103.215	19.790	26.820	0.496
461.000	309.559	79.992	19.995	103.212	19.792	26.698	0.487
461.500	309.844	79.993	19.996	103.212	19.796	26.430	0.505
462.000	310.089	79.992	19.996	103.212	19.795	26.479	0.528
462.500	310.342	79.995	19.996	103.206	19.795	26.490	0.514
463.000	310.623	79.993	19.995	103.201	19.803	25.984	0.516
463.500	310.887	79.992	19.995	103.204	19.797	26.372	0.539
464.000	311.096	79.991	19.995	103.202	19.801	26.122	0.509
464.500	311.369	79.992	19.994	103.199	19.800	26.180	0.477
465.000	311.611	79.991	19.995	103.204	19.803	25.968	0.498
465.500	311.898	79.996	19.994	103.209	19.804	25.899	0.522
466.000	312.148	79.993	19.994	103.209	19.806	25.754	0.533
466.500	312.418	79.993	19.995	103.211	19.806	25.815	0.529
467.000	312.639	79.993	19.992	103.215	19.805	25.858	0.506
467.500	312.895	79.991	19.996	103.215	19.806	25.798	0.484
468.000	313.168	79.993	19.994	103.216	19.810	25.531	0.503
468.500	313.392	79.994	19.995	103.214	19.805	25.840	0.513
469.000	313.672	79.994	19.994	103.214	19.809	25.613	0.500
469.500	313.873	79.992	19.994	103.215	19.801	26.127	0.493
470.000	314.155	79.996	19.995	103.215	19.805	25.851	0.482
470.500	314.402	79.993	19.994	103.214	19.806	25.791	0.506
471.000	314.655	79.994	19.993	103.215	19.806	25.808	0.514
471.500	314.897	79.995	19.995	103.216	19.808	25.643	0.497
472.000	315.154	79.992	19.995	103.216	19.801	26.089	0.497
472.500	315.449	79.994	19.996	103.216	19.807	25.716	0.525
473.000	315.660	79.993	19.994	103.217	19.799	26.253	0.529
473.500	315.943	79.996	19.994	103.218	19.802	26.036	0.500
474.000	316.177	79.995	19.995	103.219	19.803	26.002	0.506
474.500	316.451	79.996	19.995	103.217	19.804	25.894	0.513
475.000	316.699	79.995	19.993	103.218	19.800	26.181	0.515
475.500	316.935	79.993	19.996	103.217	19.795	26.505	0.503
476.000	317.194	79.994	19.993	103.217	19.794	26.570	0.490
476.500	317.447	79.994	19.995	103.216	19.795	26.501	0.504
477.000	317.685	79.996	19.995	103.217	19.791	26.756	0.501
477.501	317.929	79.995	19.995	103.214	19.792	26.734	0.486
478.000	318.206	79.996	19.995	103.213	19.786	27.089	0.501
478.500	318.441	79.995	19.995	103.213	19.791	26.782	0.516
479.000	318.741	79.995	19.995	103.213	19.790	26.846	0.524
479.500	318.989	79.992	19.996	103.213	19.786	27.098	0.542
480.000	319.217	79.996	19.995	103.214	19.787	27.035	0.512
480.500	319.447	79.994	19.994	103.215	19.784	27.243	0.467
481.000	319.701	79.996	19.995	103.214	19.785	27.172	0.471
481.500	319.974	79.992	19.996	103.214	19.782	27.351	0.505
482.000	320.194	79.994	19.996	103.211	19.779	27.596	0.510
482.500	320.476	79.994	19.994	103.210	19.776	27.735	0.497
483.000	320.704	79.993	19.994	103.209	19.778	27.648	0.506
483.500	320.961	79.995	19.996	103.212	19.768	28.315	0.498
484.000	321.218	79.994	19.994	103.213	19.773	27.938	0.500
484.500	321.490	79.994	19.995	103.217	19.769	28.242	0.522
485.000	321.761	79.993	19.995	103.217	19.768	28.264	0.536
485.500	321.983	79.992	19.995	103.221	19.766	28.416	0.518
486.000	322.208	79.995	19.996	103.220	19.762	28.722	0.470
486.500	322.448	79.994	19.996	103.219	19.761	28.787	0.457
487.000	322.744	79.993	19.994	103.218	19.755	29.184	0.500
487.500	323.007	79.992	19.996	103.218	19.754	29.224	0.547
488.000	323.256	79.993	19.995	103.214	19.751	29.432	0.535
488.500	323.445	79.993	19.995	103.215	19.749	29.517	0.475
489.000	323.753	79.992	19.994	103.218	19.748	29.593	0.467
489.500	323.941	79.993	19.995	103.219	19.744	29.878	0.497
490.000	324.221	79.992	19.995	103.220	19.739	30.231	0.482
490.500	324.489	79.992	19.996	103.221	19.736	30.387	0.508
491.000	324.721	79.993	19.996	103.222	19.736	30.435	0.524
491.500	324.961	79.993	19.994	103.218	19.729	30.838	0.486
492.000	325.207	79.992	19.992	103.219	19.729	30.894	0.479
492.500	325.457	79.993	19.996	103.218	19.725	31.161	0.491
493.000	325.737	79.991	19.997	103.217	19.725	31.141	0.513
493.500	325.937	79.992	19.996	103.215	19.717	31.631	0.505
494.000	326.244	79.992	19.995	103.215	19.715	31.827	0.494
494.500	326.458	79.992	19.995	103.215	19.710	32.130	0.514
495.000	326.733	79.993	19.995	103.217	19.707	32.329	0.505
495.500	326.972	79.991	19.995	103.217	19.703	32.553	0.501
496.000	327.239	79.992	19.996	103.220	19.700	32.774	0.510
496.500	327.479	79.993	19.995	103.226	19.697	32.961	0.507
497.000	327.702	79.993	19.996	103.232	19.693	33.248	0.485
497.500	327.998	79.992	19.995	103.230	19.686	33.686	0.491
498.000	328.212	79.991	19.994	103.229	19.687	33.622	0.514
498.500	328.474	79.991	19.996	103.227	19.683	33.884	0.493
499.000	328.739	79.993	19.996	103.226	19.682	33.949	0.502
499.500	328.982	79.992	19.996	103.225	19.676	34.344	0.517
500.000	329.228	79.993	19.995	103.226	19.670	34.794	0.498
500.500	329.479	79.993	19.995	103.227	19.667	34.950	0.493
501.000	329.717	79.992	19.996	103.232	19.662	35.322	0.493
501.500	330.016	79.993	19.996	103.232	19.660	35.458	0.512
502.000	330.227	79.994	19.996	103.227	19.655	35.792	0.523
502.500	330.474	79.992	19.995	103.229	19.653	35.904	0.484
503.000	330.707	79.994	19.995	103.235	19.649	36.142	0.470
503.500	330.999	79.995	19.995	103.236	19.642	36.612	0.503
504.000	331.191	79.993	19.995	103.237	19.638	36.861	0.505
504.500	331.448	79.995	19.996	103.237	19.633	37.220	0.466
505.000	331.719	79.995	19.996	103.236	19.626	37.652	0.488
505.500	331.981	79.993	19.995	103.233	19.626	37.659	0.531
506.000	332.241	79.993	19.994	103.231	19.622	37.919	0.528
506.500	332.449	79.994	19.995	103.233	19.614	38.448	0.494
507.000	332.706	79.993	19.995	103.240	19.613	38.517	0.466
507.500	333.004	79.994	19.995	103.245	19.609	38.793	0.510
508.000	333.204	79.992	19.994	103.246	19.601	39.354	0.526
508.500	333.464	79.993	19.994	103.247	19.590	40.027	0.479
509.000	333.727	79.993	19.995	103.248	19.590	40.071	0.492
509.500	333.971	79.993	19.994	103.248	19.587	40.269	0.515
510.000	334.247	79.992	19.995	103.249	19.578	40.832	0.513
510.500	334.486	79.993	19.995	103.252	19.573	41.166	0.517
511.000	334.746	79.993	19.996	103.253	19.568	41.517	0.507
511.500	335.004	79.994	19.996	103.253	19.557	42.217	0.509
512.000	335.251	79.992	19.995	103.253	19.553	42.534	0.512
512.500	335.532	79.993	19.995	103.253	19.550	42.715	0.516
513.000	335.769	79.992	19.996	103.253	19.543	43.194	0.523
513.500	336.043	79.992	19.996	103.254	19.537	43.569	0.515
514.000	336.239	79.995	19.995	103.254	19.531	43.929	0.491
514.500	336.524	79.993	19.995	103.254	19.527	44.250	0.475
515.000	336.783	79.993	19.995	103.256	19.520	44.655	0.512
515.500	337.007	79.992	19.996	103.256	19.516	44.936	0.513
516.000	337.264	79.995	19.996	103.256	19.505	45.694	0.482
516.500	337.539	79.991	19.996	103.256	19.498	46.173	0.507
517.000	337.811	79.993	19.995	103.256	19.491	46.608	0.540
517.500	338.032	79.992	19.996	103.255	19.484	47.064	0.520
518.000	338.281	79.991	19.995	103.256	19.480	47.319	0.481
518.500	338.566	79.991	19.996	103.256	19.469	48.059	0.502
519.000	338.811	79.991	19.996	103.263	19.463	48.484	0.532
519.500	339.047	79.991	19.996	103.271	19.456	48.922	0.506
520.000	339.300	79.992	19.996	103.274	19.444	49.747	0.485
520.500	339.535	79.993	19.997	103.277	19.439	50.113	0.488
521.000	339.820	79.991	19.995	103.284	19.427	50.918	0.504
521.500	340.009	79.993	19.996	103.281	19.418	51.522	0.497
522.001	340.280	79.992	19.995	103.277	19.412	51.981	0.467
522.500	340.558	79.992	19.997	103.281	19.408	52.204	0.505
523.000	340.778	79.992	19.995	103.285	19.397	52.942	0.524
523.500	341.030	79.992	19.995	103.284	19.391	53.324	0.486
524.000	341.301	79.992	19.996	103.286	19.375	54.362	0.497
524.500	341.494	79.990	19.995	103.289	19.370	54.689	0.493
525.000	341.749	79.992	19.994	103.289	19.353	55.790	0.456
525.500	341.993	79.992	19.996	103.287	19.347	56.154	0.474
526.000	342.243	79.993	19.996	103.288	19.341	56.493	0.497
526.500	342.465	79.991	19.996	103.287	19.328	57.287	0.483
527.000	342.711	79.993	19.994	103.288	19.317	57.988	0.470
527.500	342.971	79.992	19.997	103.291	19.305	58.776	0.487
528.000	343.208	79.994	19.997	103.295	19.292	59.636	0.501
528.500	343.471	79.993	19.996	103.300	19.272	60.989	0.499
529.000	343.730	79.994	19.995	103.310	19.254	62.184	0.511
529.500	343.997	79.993	19.997	103.312	19.220	64.389	0.524
530.000	344.204	79.994	19.995	103.317	19.186	66.680	0.500
530.500	344.483	79.994	19.995	103.333	19.144	69.474	0.480
531.000	344.699	79.994	19.995	103.364	19.102	72.289	0.491
531.500	344.964	79.994	19.996	103.401	19.066	74.725	0.488
532.000	345.223	79.994	19.996	103.475	19.032	76.984	0.502
532.500	345.429	79.995	19.996	103.538	19.001	79.031	0.495
533.000	345.725	79.994	19.997	103.573	18.972	81.034	0.484
533.501	345.939	79.994	19.996	103.578	18.957	82.034	0.506
534.001	346.226	79.994	19.994	103.573	18.941	83.111	0.505
534.500	346.459	79.994	19.996	103.531	18.928	84.048	0.510
535.000	346.723	79.994	19.995	103.482	18.920	84.559	0.508
535.500	346.970	79.994	19.996	103.429	18.912	85.087	0.504
536.000	347.242	79.993	19.997	103.372	18.908	85.339	0.515
536.500	347.475	79.993	19.996	103.305	18.908	85.369	0.512
537.000	347.687	79.992	19.995	103.238	18.909	85.258	0.475
537.500	347.999	79.994	19.995	103.179	18.903	85.701	0.485
538.000	348.216	79.993	19.996	103.140	18.906	85.531	0.526
538.500	348.461	79.993	19.997	103.117	18.902	85.747	0.495
539.000	348.709	79.993	19.995	103.107	18.899	85.998	0.477
539.500	348.914	79.992	19.995	103.114	18.897	86.115	0.473
540.000	349.248	79.991	19.996	103.133	18.898	86.114	0.496
540.500	349.508	79.992	19.997	103.159	18.891	86.514	0.566
541.000	349.724	79.993	19.996	103.196	18.883	87.097	0.535
541.500	349.984	79.993	19.998	103.240	18.872	87.783	0.476
542.000	350.237	79.993	19.995	103.288	18.856	88.754	0.494
542.500	350.480	79.991	19.997	103.334	18.838	89.912	0.504
543.000	350.738	79.992	19.996	103.376	18.808	91.765	0.498
543.500	350.957	79.992	19.996	103.415	18.783	93.354	0.489
544.000	351.218	79.992	19.996	103.459	18.749	95.471	0.479
544.500	351.463	79.992	19.997	103.493	18.721	97.270	0.493
545.000	351.692	79.992	19.996	103.534	18.686	99.489	0.490
545.500	351.899	79.990	19.996	103.577	18.652	101.694	0.455
546.000	352.196	79.993	19.997	103.599	18.608	104.592	0.470
546.500	352.470	79.991	19.997	103.601	18.564	107.468	0.537
547.000	352.687	79.993	19.999	103.602	18.518	110.543	0.531
547.500	352.934	79.992	19.996	103.590	18.473	113.637	0.478
548.000	353.184	79.992	19.996	103.579	18.414	117.642	0.481
548.500	353.441	79.993	19.997	103.591	18.355	121.704	0.502
549.000	353.749	79.991	19.997	103.610	18.299	125.599	0.536
549.500	353.932	79.992	19.996	103.605	18.238	129.771	0.528
550.000	354.191	79.994	19.996	103.631	18.187	133.346	0.466
550.500	354.462	79.992	19.995	103.672	18.138	136.723	0.486
551.000	354.688	79.993	19.994	103.683	18.104	139.146	0.514
551.500	354.964	79.994	19.996	103.674	18.077	140.980	0.500
552.000	355.178	79.994	19.995	103.678	18.058	142.249	0.496
552.500	355.444	79.992	19.996	103.636	18.050	142.710	0.485
553.000	355.685	79.995	19.996	103.554	18.053	142.472	0.494
553.500	355.935	79.994	19.995	103.467	18.060	141.886	0.499
554.000	356.184	79.996	19.995	103.376	18.070	141.206	0.495
554.500	356.423	79.996	19.997	103.277	18.085	140.180	0.493
555.000	356.740	79.995	19.995	103.179	18.097	139.359	0.522
555.500	356.968	79.994	19.997	103.090	18.114	138.203	0.551
556.000	357.190	79.995	19.996	103.023	18.122	137.568	0.498
556.500	357.439	79.994	19.994	102.978	18.122	137.470	0.460
557.000	357.682	79.995	19.995	102.946	18.111	138.091	0.482
557.500	357.947	79.996	19.993	102.953	18.099	138.802	0.500
558.000	358.173	79.995	19.995	103.010	18.074	140.364	0.500
558.501	358.401	79.994	19.994	103.095	18.042	142.384	0.472
559.000	358.663	79.994	19.995	103.209	17.999	145.210	0.472
559.500	358.916	79.996	19.992	103.357	17.957	147.976	0.503
560.000	359.150	79.993	19.995	103.507	17.916	150.721	0.501
560.500	359.363	79.995	19.994	103.637	17.869	153.871	0.466
561.000	359.627	79.994	19.994	103.768	17.824	156.949	0.462
561.500	359.884	79.993	19.996	103.893	17.770	160.604	0.499
562.000	360.152	79.995	19.995	103.984	17.716	164.233	0.523
562.500	360.343	79.995	19.994	104.025	17.655	168.334	0.492
563.000	360.612	79.995	19.996	104.020	17.592	172.597	0.460
563.500	360.828	79.994	19.995	103.976	17.530	176.786	0.473
564.000	361.087	79.995	19.994	103.931	17.462	181.294	0.480
564.500	361.313	79.994	19.995	103.887	17.400	185.450	0.480
565.000	361.566	79.995	19.995	103.859	17.338	189.487	0.481
565.500	361.810	79.995	19.996	103.839	17.284	192.950	0.488
566.000	362.058	79.993	19.994	103.807	17.240	195.705	0.495
566.500	362.304	79.992	19.996	103.766	17.203	198.099	0.493
567.000	362.575	79.993	19.995	103.716	17.165	200.517	0.505
567.500	362.820	79.993	19.995	103.638	17.131	202.751	0.517
568.000	363.032	79.994	19.994	103.562	17.103	204.610	0.487
568.500	363.306	79.993	19.994	103.509	17.066	207.019	0.471
569.000	363.517	79.993	19.995	103.420	17.023	209.774	0.485
569.500	363.798	79.993	19.995	103.337	16.977	212.816	0.488
570.000	364.000	79.993	19.996	103.326	16.936	215.564	0.488
570.500	364.251	79.993	19.996	103.351	16.891	218.572	0.468
571.000	364.482	79.991	19.996	103.367	16.843	221.878	0.468
571.500	364.732	79.994	19.993	103.415	16.799	224.743	0.481
572.000	364.967	79.993	19.996	103.481	16.755	227.556	0.483
572.501	365.219	79.992	19.995	103.515	16.713	230.319	0.486
573.000	365.487	79.992	19.998	103.534	16.678	232.634	0.503
573.500	365.696	79.992	19.996	103.580	16.646	234.724	0.499
574.000	365.957	79.991	19.994	103.630	16.614	236.853	0.473
574.500	366.229	79.992	19.996	103.682	16.593	238.273	0.502
575.000	366.461	79.992	19.997	103.699	16.577	239.264	0.518
575.500	366.723	79.992	19.996	103.705	16.551	240.891	0.499
576.000	366.971	79.992	19.997	103.686	16.531	242.258	0.502
576.500	367.214	79.993	19.996	103.625	16.510	243.621	0.500
577.000	367.446	79.993	19.996	103.532	16.488	245.058	0.483
577.500	367.665	79.993	19.993	103.489	16.473	246.162	0.463
578.000	367.900	79.991	19.995	103.462	16.459	247.082	0.453
578.500	368.204	79.992	19.995	103.428	16.444	248.094	0.497
579.000	368.453	79.992	19.996	103.431	16.434	248.807	0.546
579.500	368.687	79.991	19.993	103.417	16.428	249.269	0.518
580.000	368.936	79.992	19.996	103.398	16.422	249.628	0.483
580.500	369.210	79.992	19.995	103.396	16.427	249.301	0.504
581.000	369.426	79.994	19.994	103.403	16.435	248.834	0.507
581.500	369.686	79.993	19.994	103.427	16.437	248.704	0.483
582.000	369.916	79.992	19.995	103.468	16.441	248.410	0.483
582.500	370.190	79.992	19.996	103.471	16.451	247.802	0.497
583.000	370.464	79.994	19.995	103.422	16.461	247.208	0.526
583.500	370.701	79.993	19.996	103.406	16.475	246.308	0.529
584.000	370.955	79.991	19.992	103.403	16.492	245.183	0.502
584.500	371.285	79.993	19.994	103.394	16.509	244.106	0.538
585.000	371.462	79.992	19.996	103.390	16.531	242.657	0.545
585.500	371.699	79.989	19.997	103.408	16.552	241.320	0.460
586.000	371.994	79.992	19.994	103.391	16.579	239.539	0.473
586.500	372.259	79.994	19.996	103.357	16.601	238.062	0.546
587.000	372.492	79.993	19.995	103.356	16.625	236.406	0.529
587.500	372.744	79.990	19.994	103.355	16.652	234.624	0.491
588.000	372.987	79.992	19.994	103.363	16.679	232.794	0.490
588.500	373.253	79.994	19.992	103.395	16.706	230.995	0.502
589.000	373.539	79.994	19.994	103.395	16.730	229.437	0.531
589.500	373.795	79.993	19.997	103.393	16.758	227.533	0.547
590.000	374.033	79.992	19.992	103.425	16.784	225.780	0.518
590.500	374.308	79.990	19.995	103.443	16.809	224.131	0.503
591.000	374.572	79.994	19.994	103.434	16.834	222.496	0.526
591.500	374.804	79.994	19.993	103.440	16.856	220.999	0.518
592.000	375.084	79.993	19.994	103.452	16.880	219.401	0.504
592.500	375.366	79.994	19.995	103.460	16.900	218.092	0.537
593.000	375.603	79.992	19.996	103.467	16.926	216.362	0.541
593.500	375.859	79.992	19.995	103.486	16.940	215.461	0.507
594.001	376.115	79.991	19.992	103.512	16.958	214.216	0.503
594.501	376.375	79.992	19.995	103.518	16.975	213.117	0.514
595.000	376.640	79.990	19.995	103.520	16.991	212.076	0.520
595.500	376.891	79.992	19.994	103.540	17.008	210.899	0.520
596.000	377.150	79.992	19.995	103.552	17.024	209.870	0.513
596.500	377.440	79.990	19.994	103.551	17.039	208.844	0.530
597.000	377.692	79.991	19.995	103.554	17.057	207.662	0.545
597.500	377.957	79.991	19.995	103.551	17.068	206.903	0.530
598.000	378.206	79.992	19.994	103.540	17.080	206.112	0.516
598.500	378.461	79.991	19.994	103.531	17.095	205.067	0.509
599.001	378.710	79.991	19.993	103.522	17.103	204.517	0.503
599.501	378.981	79.992	19.992	103.515	17.113	203.899	0.512
600.000	379.263	79.991	19.995	103.508	17.125	203.095	0.537
600.500	379.495	79.991	19.994	103.499	17.136	202.343	0.534
601.000	379.789	79.994	19.994	103.492	17.148	201.565	0.519
601.500	380.051	79.991	19.995	103.485	17.156	201.022	0.541
602.000	380.332	79.992	19.995	103.477	17.167	200.254	0.549
602.500	380.592	79.988	19.995	103.471	17.176	199.657	0.542
603.001	380.812	79.991	19.994	103.465	17.187	198.900	0.510
603.501	381.070	79.991	19.996	103.459	17.199	198.125	0.480
604.000	381.368	79.990	19.995	103.465	17.205	197.721	0.517
604.500	381.588	79.992	19.997	103.469	17.214	197.133	0.537
605.000	381.863	79.992	19.995	103.467	17.226	196.332	0.506
605.500	382.127	79.992	19.997	103.465	17.235	195.735	0.517
606.000	382.347	79.993	19.995	103.464	17.247	194.966	0.511
606.500	382.626	79.994	19.996	103.457	17.256	194.339	0.492
607.001	382.889	79.992	19.996	103.451	17.267	193.592	0.521
607.500	383.176	79.993	19.996	103.449	17.277	192.973	0.546
608.000	383.349	79.992	19.997	103.441	17.287	192.248	0.505
608.500	383.642	79.994	19.995	103.433	17.302	191.276	0.463
609.000	383.886	79.988	19.996	103.424	17.311	190.662	0.501
609.500	384.180	79.994	19.996	103.417	17.322	189.922	0.537
610.000	384.432	79.993	19.995	103.411	17.340	188.762	0.542
610.500	384.692	79.996	19.996	103.410	17.349	188.130	0.529
611.000	384.967	79.991	19.996	103.410	17.366	187.040	0.524
611.500	385.241	79.993	19.995	103.410	17.375	186.379	0.542
612.000	385.478	79.994	19.996	103.409	17.395	185.057	0.530
612.500	385.721	79.993	19.997	103.402	17.405	184.437	0.495
613.000	385.991	79.994	19.995	103.396	17.425	183.058	0.497
613.500	386.226	79.996	19.995	103.388	17.439	182.177	0.509
614.000	386.482	79.995	19.996	103.382	17.452	181.291	0.498
614.500	386.739	79.994	19.996	103.382	17.469	180.143	0.502
615.000	386.999	79.994	19.994	103.384	17.488	178.877	0.515
615.500	387.246	79.994	19.996	103.383	17.509	177.515	0.512
616.000	387.538	79.995	19.996	103.383	17.522	176.664	0.523
616.500	387.795	79.992	19.994	103.380	17.542	175.321	0.544
617.000	388.059	79.994	19.996	103.372	17.561	174.049	0.535
617.500	388.333	79.995	19.996	103.367	17.579	172.875	0.530
618.000	388.627	79.995	19.996	103.366	17.599	171.511	0.553
618.500	388.856	79.992	19.995	103.365	17.616	170.423	0.545
619.000	389.112	79.991	19.995	103.360	17.640	168.792	0.504
619.500	389.356	79.995	19.997	103.354	17.657	167.687	0.493
620.000	389.622	79.994	19.995	103.351	17.685	165.851	0.505
620.500	389.874	79.993	19.995	103.344	17.699	164.900	0.514
621.000	390.138	79.994	19.995	103.337	17.721	163.442	0.517
621.500	390.399	79.993	19.995	103.335	17.744	161.940	0.520
622.000	390.654	79.994	19.997	103.335	17.764	160.602	0.521
622.500	390.899	79.993	19.995	103.330	17.790	158.875	0.508
623.000	391.204	79.992	19.996	103.324	17.812	157.443	0.525
623.500	391.442	79.992	19.995	103.322	17.832	156.101	0.547
624.000	391.694	79.992	19.996	103.317	17.856	154.526	0.517
624.500	391.946	79.991	19.996	103.312	17.885	152.621	0.497
625.000	392.233	79.993	19.995	103.306	17.908	151.101	0.521
625.500	392.473	79.992	19.995	103.304	17.930	149.638	0.533
626.000	392.734	79.992	19.996	103.300	17.955	147.978	0.514
626.500	392.995	79.993	19.995	103.297	17.980	146.317	0.512
627.000	393.273	79.993	19.994	103.294	18.005	144.668	0.530
627.500	393.564	79.991	19.996	103.295	18.030	142.991	0.554
628.000	393.832	79.994	19.996	103.292	18.059	141.055	0.564
628.500	394.071	79.992	19.995	103.290	18.086	139.285	0.533
629.000	394.378	79.991	19.996	103.285	18.112	137.557	0.526
629.500	394.608	79.992	19.995	103.277	18.137	135.940	0.541
630.000	394.891	79.993	19.995	103.270	18.160	134.368	0.525
630.500	395.131	79.993	19.996	103.266	18.188	132.580	0.518
631.000	395.392	79.993	19.997	103.260	18.214	130.807	0.512
631.500	395.677	79.992	19.995	103.256	18.241	129.073	0.524
632.000	395.947	79.993	19.995	103.256	18.273	126.916	0.551
632.500	396.186	79.992	19.996	103.254	18.297	125.380	0.532
633.000	396.446	79.993	19.997	103.252	18.322	123.703	0.504
633.500	396.723	79.993	19.995	103.252	18.347	122.025	0.518
634.001	396.994	79.993	19.996	103.252	18.376	120.163	0.543
634.500	397.206	79.994	19.997	103.252	18.409	117.966	0.516
635.000	397.470	79.995	19.996	103.251	18.435	116.238	0.480
635.500	397.748	79.993	19.996	103.251	18.463	114.429	0.509
636.000	398.006	79.995	19.994	103.246	18.490	112.631	0.539
636.500	398.257	79.994	19.994	103.241	18.519	110.704	0.522
637.000	398.552	79.993	19.996	103.236	18.547	108.864	0.527
637.500	398.789	79.995	19.995	103.228	18.569	107.380	0.539
638.000	399.055	79.993	19.997	103.222	18.599	105.387	0.518
638.500	399.334	79.996	19.995	103.221	18.630	103.393	0.524
639.000	399.570	79.996	19.994	103.219	18.659	101.460	0.530
639.500	399.801	79.995	19.995	103.216	18.688	99.497	0.491
640.000	400.078	79.993	19.997	103.215	18.712	97.919	0.487
640.500	400.370	79.997	19.996	103.215	18.742	95.978	0.538
641.000	400.632	79.996	19.995	103.213	18.768	94.274	0.562
641.500	400.894	79.997	19.996	103.212	18.797	92.305	0.539
642.000	401.121	79.990	19.997	103.212	18.823	90.591	0.507
642.500	401.393	79.993	19.995	103.212	18.851	88.798	0.494
643.000	401.660	79.996	19.995	103.211	18.874	87.281	0.519
643.500	401.891	79.993	19.995	103.210	18.899	85.577	0.518
644.000	402.178	79.993	19.994	103.209	18.924	83.976	0.508
644.500	402.413	79.995	19.996	103.208	18.954	82.002	0.520
645.000	402.674	79.994	19.995	103.209	18.980	80.291	0.509
645.500	402.948	79.993	19.994	103.207	19.003	78.753	0.516
646.000	403.176	79.995	19.995	103.208	19.029	77.059	0.518
646.500	403.471	79.993	19.996	103.209	19.055	75.298	0.513
647.000	403.724	79.991	19.994	103.208	19.076	73.956	0.536
647.501	403.979	79.991	19.996	103.201	19.102	72.213	0.527
648.000	404.239	79.992	19.995	103.203	19.128	70.491	0.511
648.500	404.520	79.991	19.996	103.200	19.147	69.218	0.529
649.000	404.794	79.991	19.994	103.195	19.170	67.757	0.548
649.500	405.024	79.989	19.997	103.189	19.194	66.111	0.529
650.000	405.294	79.992	19.996	103.189	19.216	64.695	0.502
650.500	405.550	79.992	19.995	103.184	19.238	63.226	0.513
651.000	405.815	79.992	19.994	103.179	19.261	61.696	0.524
651.500	406.071	79.987	19.995	103.178	19.283	60.282	0.521
652.000	406.312	79.992	19.994	103.179	19.304	58.892	0.509
652.500	406.624	79.993	19.994	103.180	19.323	57.649	0.525
653.000	406.880	79.993	19.995	103.179	19.344	56.245	0.560
653.500	407.145	79.994	19.993	103.179	19.366	54.807	0.544
654.000	407.404	79.994	19.995	103.178	19.383	53.652	0.523
654.500	407.634	79.990	19.996	103.178	19.406	52.140	0.507
655.000	407.876	79.992	19.996	103.178	19.425	50.920	0.481
655.501	408.146	79.990	19.996	103.178	19.446	49.507	0.492
656.000	408.447	79.993	19.997	103.180	19.462	48.427	0.541
656.500	408.695	79.992	19.995	103.182	19.481	47.179	0.560
657.000	408.938	79.992	19.996	103.182	19.499	46.003	0.520
657.500	409.201	79.994	19.996	103.181	19.516	44.919	0.498
658.000	409.423	79.990	19.995	103.179	19.532	43.847	0.496
658.500	409.707	79.991	19.995	103.176	19.551	42.551	0.496
659.000	409.986	79.991	19.996	103.173	19.568	41.473	0.535
659.500	410.236	79.992	19.996	103.172	19.580	40.644	0.546
660.000	410.502	79.993	19.996	103.172	19.595	39.696	0.523
660.500	410.770	79.991	19.994	103.172	19.609	38.736	0.525
661.000	411.046	79.994	19.995	103.167	19.624	37.738	0.539
661.500	411.289	79.991	19.994	103.163	19.637	36.927	0.532
662.000	411.541	79.992	19.995	103.156	19.658	35.553	0.507
662.500	411.758	79.990	19.996	103.150	19.666	35.021	0.482
663.000	412.021	79.992	19.995	103.149	19.682	33.934	0.474
663.500	412.303	79.991	19.995	103.153	19.699	32.822	0.513
664.000	412.553	79.993	19.996	103.154	19.709	32.171	0.539
664.500	412.802	79.992	19.993	103.154	19.716	31.694	0.516
665.000	413.083	79.993	19.994	103.153	19.735	30.457	0.514
665.500	413.314	79.991	19.994	103.148	19.745	29.798	0.521
666.000	413.555	79.991	19.993	103.144	19.759	28.859	0.492
666.500	413.809	79.991	19.996	103.142	19.765	28.453	0.483
667.000	414.054	79.991	19.995	103.141	19.781	27.444	0.497
667.500	414.323	79.991	19.995	103.141	19.791	26.785	0.507
668.000	414.548	79.992	19.995	103.141	19.801	26.084	0.504
668.500	414.819	79.991	19.996	103.141	19.809	25.595	0.495
669.000	415.064	79.990	19.995	103.141	19.822	24.718	0.506
669.500	415.346	79.990	19.995	103.142	19.829	24.228	0.522
670.000	415.572	79.993	19.995	103.144	19.844	23.258	0.518
670.500	415.812	79.995	19.994	103.149	19.850	22.885	0.487
671.001	416.105	79.994	19.996	103.153	19.861	22.134	0.499
671.501	416.343	79.993	19.996	103.152	19.869	21.603	0.532
672.000	416.573	79.992	19.995	103.150	19.879	20.978	0.500
672.500	416.814	79.995	19.996	103.147	19.888	20.351	0.469
673.000	417.083	79.992	19.994	103.140	19.898	19.696	0.491
673.500	417.302	79.992	19.994	103.137	19.901	19.490	0.499
674.000	417.587	79.992	19.996	103.137	19.909	18.955	0.495
674.500	417.848	79.992	19.994	103.138	19.922	18.107	0.525
675.000	418.053	79.990	19.995	103.138	19.929	17.656	0.506
675.500	418.341	79.991	19.995	103.134	19.930	17.610	0.480
676.000	418.593	79.993	19.995	103.131	19.940	16.941	0.517
676.500	418.857	79.993	19.996	103.131	19.947	16.457	0.528
677.000	419.115	79.992	19.997	103.130	19.951	16.219	0.519
677.500	419.366	79.991	19.995	103.131	19.958	15.768	0.516
678.000	419.633	79.994	19.995	103.136	19.964	15.329	0.513
678.500	419.813	79.993	19.994	103.139	19.972	14.825	0.482
679.000	420.099	79.993	19.995	103.139	19.977	14.470	0.457
679.500	420.356	79.995	19.995	103.139	19.985	13.941	0.505
680.000	420.597	79.992	19.994	103.138	19.989	13.718	0.520
680.500	420.875	79.993	19.995	103.139	20.000	12.982	0.508
681.000	421.122	79.992	19.995	103.144	19.999	13.069	0.522
681.500	421.357	79.991	19.995	103.151	20.003	12.745	0.504
682.000	421.601	79.994	19.994	103.155	20.010	12.303	0.481
682.500	421.857	79.994	19.994	103.155	20.011	12.218	0.490
683.000	422.078	79.993	19.995	103.155	20.018	11.783	0.488
683.500	422.289	79.991	19.994	103.146	20.021	11.574	0.454
684.000	422.595	79.993	19.994	103.134	20.028	11.137	0.474
684.500	422.850	79.992	19.994	103.126	20.032	10.876	0.539
685.000	423.071	79.992	19.995	103.123	20.038	10.492	0.519
685.500	423.273	79.993	19.997	103.121	20.038	10.465	0.450
686.000	423.544	79.992	19.994	103.124	20.046	9.971	0.448
686.500	423.794	79.992	19.995	103.128	20.049	9.773	0.497
687.000	424.048	79.992	19.995	103.126	20.056	9.280	0.513
687.500	424.278	79.993	19.994	103.129	20.055	9.336	0.494
688.000	424.525	79.994	19.995	103.131	20.058	9.119	0.481
688.500	424.770	79.993	19.994	103.133	20.059	9.074	0.484
689.000	425.017	79.994	19.994	103.133	20.066	8.598	0.492
689.501	425.229	79.993	19.994	103.139	20.069	8.422	0.476
690.001	425.512	79.994	19.995	103.139	20.070	8.371	0.477
690.500	425.770	79.991	19.994	103.139	20.071	8.263	0.518
691.000	425.987	79.993	19.995	103.139	20.077	7.907	0.508
691.500	426.208	79.994	19.995	103.139	20.085	7.371	0.456
692.000	426.461	79.992	19.995	103.142	20.084	7.441	0.456
692.500	426.708	79.994	19.994	103.143	20.086	7.282	0.487
693.000	426.968	79.989	19.996	103.143	20.089	7.113	0.504
693.500	427.233	79.995	19.996	103.143	20.089	7.128	0.516
694.000	427.452	79.994	19.994	103.142	20.095	6.722	0.504
694.500	427.686	79.994	19.995	103.139	20.095	6.718	0.468
695.000	427.925	79.995	19.996	103.137	20.102	6.265	0.463
695.500	428.131	79.994	19.995	103.137	20.098	6.510	0.459
696.000	428.390	79.997	19.995	103.136	20.102	6.213	0.455
696.500	428.604	79.992	19.995	103.136	20.107	5.930	0.469
697.000	428.904	79.993	19.995	103.136	20.107	5.930	0.494
697.500	429.112	79.994	19.996	103.136	20.110	5.688	0.511
698.000	429.380	79.993	19.996	103.136	20.113	5.534	0.492
698.500	429.596	79.996	19.996	103.136	20.112	5.612	0.480
699.000	429.822	79.994	19.997	103.136	20.116	5.340	0.463
699.500	430.049	79.994	19.995	103.141	20.117	5.262	0.447
700.000	430.322	79.993	19.996	103.144	20.116	5.320	0.477
700.500	430.583	79.994	19.993	103.145	20.122	4.947	0.517
701.000	430.777	79.990	19.996	103.145	20.119	5.110	0.495
701.500	431.054	79.994	19.995	103.145	20.124	4.771	0.463
702.000	431.280	79.995	19.996	103.141	20.123	4.860	0.487
702.500	431.500	79.996	19.994	103.138	20.129	4.474	0.474
703.000	431.758	79.992	19.997	103.137	20.128	4.532	0.462
703.500	431.970	79.992	19.996	103.137	20.126	4.675	0.474
704.000	432.213	79.993	19.994	103.138	20.129	4.459	0.463
704.500	432.492	79.994	19.996	103.138	20.131	4.311	0.489
705.000	432.746	79.993	19.995	103.138	20.133	4.216	0.528
705.500	433.003	79.994	19.996	103.139	20.131	4.343	0.522
706.000	433.231	79.992	19.996	103.139	20.134	4.120	0.498
706.500	433.459	79.991	19.995	103.138	20.133	4.191	0.470
707.000	433.743	79.994	19.994	103.138	20.135	4.086	0.484
707.500	433.950	79.991	19.996	103.138	20.140	3.745	0.502
708.000	434.234	79.992	19.996	103.139	20.142	3.578	0.491
708.500	434.477	79.996	19.994	103.139	20.139	3.796	0.509
709.000	434.716	79.992	19.996	103.141	20.147	3.256	0.504
709.500	434.947	79.992	19.994	103.141	20.144	3.448	0.476
710.000	435.235	79.992	19.996	103.141	20.148	3.191	0.495
710.500	435.465	79.994	19.996	103.141	20.146	3.318	0.519
711.000	435.707	79.993	19.995	103.140	20.147	3.249	0.495
711.500	435.960	79.994	19.995	103.140	20.147	3.264	0.483
712.000	436.179	79.993	19.997	103.141	20.145	3.436	0.483
712.500	436.429	79.992	19.996	103.141	20.151	3.037	0.470
713.000	436.686	79.995	19.995	103.141	20.147	3.249	0.488
713.500	436.947	79.994	19.997	103.141	20.150	3.058	0.512
714.000	437.183	79.994	19.995	103.140	20.156	2.682	0.507
714.500	437.444	79.995	19.994	103.140	20.157	2.622	0.497
715.000	437.660	79.994	19.996	103.141	20.156	2.711	0.487
715.500	437.919	79.997	19.997	103.141	20.156	2.694	0.476
716.000	438.166	79.993	19.994	103.141	20.156	2.657	0.491
716.500	438.405	79.995	19.995	103.141	20.155	2.743	0.496
717.000	438.613	79.993	19.994	103.141	20.158	2.549	0.466
717.500	438.909	79.995	19.994	103.140	20.158	2.533	0.475
718.000	439.155	79.994	19.995	103.140	20.155	2.738	0.523
718.500	439.377	79.994	19.996	103.140	20.155	2.776	0.505
719.000	439.600	79.993	19.997	103.140	20.156	2.709	0.457
719.500	439.855	79.993	19.995	103.139	20.156	2.654	0.462
720.000	440.113	79.996	19.996	103.139	20.161	2.328	0.495
720.500	440.361	79.995	19.995	103.141	20.159	2.455	0.510
721.000	440.565	79.995	19.995	103.141	20.160	2.415	0.479
721.501	440.824	79.994	19.993	103.144	20.162	2.303	0.458
722.000	441.082	79.992	19.996	103.148	20.161	2.332	0.490
722.500	441.338	79.995	19.995	103.149	20.165	2.066	0.515
723.000	441.586	79.996	19.998	103.148	20.165	2.080	0.509
723.500	441.801	79.992	19.993	103.145	20.164	2.178	0.483
724.000	442.090	79.993	19.996	103.142	20.167	1.928	0.483
724.500	442.326	79.993	19.993	103.138	20.166	1.995	0.514
725.000	442.573	79.994	19.997	103.142	20.169	1.803	0.504
725.500	442.801	79.991	19.996	103.145	20.168	1.901	0.479
726.000	443.067	79.995	19.995	103.146	20.170	1.774	0.484
726.500	443.262	79.992	19.996	103.147	20.167	1.955	0.478
727.000	443.520	79.991	19.996	103.151	20.167	1.941	0.458
727.500	443.810	79.992	19.995	103.146	20.166	2.040	0.501
728.000	444.076	79.992	19.995	103.143	20.165	2.107	0.552
728.500	444.274	79.991	19.997	103.145	20.166	2.040	0.510
729.000	444.551	79.992	19.997	103.145	20.168	1.883	0.470
729.500	444.834	79.991	19.995	103.142	20.171	1.714	0.517
730.000	445.045	79.994	19.996	103.142	20.170	1.734	0.527
730.500	445.282	79.993	19.995	103.142	20.172	1.625	0.471
731.000	445.524	79.990	19.999	103.140	20.168	1.895	0.463
731.500	445.798	79.994	19.997	103.139	20.173	1.596	0.497
732.000	446.009	79.991	19.995	103.139	20.171	1.721	0.500
732.500	446.229	79.990	19.996	103.138	20.176	1.381	0.458
733.000	446.500	79.993	19.996	103.140	20.172	1.607	0.461
733.500	446.736	79.992	19.996	103.142	20.173	1.596	0.499
734.000	447.025	79.992	19.996	103.143	20.170	1.738	0.516
734.501	447.219	79.991	19.995	103.143	20.172	1.647	0.504
735.000	447.508	79.992	19.997	103.146	20.172	1.600	0.483
735.500	447.747	79.991	19.995	103.144	20.169	1.823	0.506
736.000	448.015	79.992	19.996	103.142	20.174	1.482	0.517
736.500	448.260	79.989	19.996	103.141	20.173	1.557	0.510
737.000	448.505	79.996	19.994	103.140	20.174	1.529	0.502
737.500	448.747	79.992	19.995	103.138	20.173	1.533	0.488
738.000	449.048	79.992	19.995	103.138	20.172	1.622	0.515
738.500	449.259	79.993	19.995	103.137	20.176	1.348	0.528
739.000	449.519	79.991	19.995	103.138	20.175	1.441	0.492
739.500	449.757	79.995	19.996	103.138	20.173	1.551	0.485
740.000	450.012	79.991	19.994	103.139	20.177	1.332	0.495
740.500	450.273	79.994	19.994	103.140	20.172	1.604	0.505
741.000	450.491	79.992	19.996	103.140	20.173	1.557	0.498
741.500	450.762	79.992	19.995	103.144	20.175	1.450	0.484
742.000	451.036	79.993	19.994	103.149	20.172	1.617	0.517
742.500	451.253	79.993	19.995	103.148	20.174	1.504	0.518
743.000	451.518	79.995	19.997	103.147	20.177	1.317	0.487
743.500	451.802	79.992	19.996	103.146	20.174	1.504	0.515
744.000	452.060	79.993	19.995	103.143	20.177	1.323	0.545
744.500	452.312	79.994	19.994	103.138	20.175	1.457	0.526
745.000	452.553	79.991	19.994	103.139	20.174	1.506	0.502
745.500	452.802	79.995	19.995	103.140	20.172	1.647	0.491
746.000	453.048	79.994	19.994	103.144	20.173	1.547	0.492
746.500	453.294	79.992	19.994	103.144	20.172	1.598	0.494
747.000	453.560	79.992	19.995	103.148	20.172	1.631	0.502
747.500	453.821	79.992	19.997	103.147	20.172	1.618	0.520
748.000	454.059	79.991	19.994	103.151	20.172	1.624	0.513
748.500	454.306	79.994	19.994	103.151	20.173	1.578	0.492
749.000	454.567	79.992	19.994	103.151	20.171	1.720	0.496
749.500	454.832	79.992	19.995	103.148	20.177	1.332	0.517
750.000	455.119	79.994	19.995	103.148	20.172	1.649	0.539
750.500	455.407	79.992	19.996	103.144	20.171	1.723	0.564
751.000	455.621	79.991	19.996	103.144	20.173	1.542	0.539
751.500	455.879	79.994	19.996	103.148	20.173	1.582	0.487
752.000	456.124	79.990	19.995	103.154	20.174	1.491	0.488
752.500	456.390	79.994	19.995	103.158	20.175	1.457	0.507
753.000	456.680	79.996	19.993	103.161	20.173	1.591	0.533
753.500	456.923	79.994	19.995	103.158	20.174	1.495	0.544
754.000	457.178	79.993	19.995	103.155	20.174	1.469	0.515
754.500	457.443	79.994	19.994	103.149	20.174	1.515	0.509
755.000	457.693	79.993	19.995	103.145	20.172	1.618	0.518
755.500	457.970	79.993	19.996	103.143	20.171	1.678	0.521
756.000	458.222	79.992	19.993	103.145	20.171	1.683	0.528
756.500	458.469	79.992	19.995	103.149	20.174	1.502	0.514
757.000	458.739	79.992	19.995	103.149	20.178	1.227	0.508
757.500	459.023	79.993	19.995	103.150	20.172	1.627	0.535
758.000	459.274	79.991	19.995	103.151	20.171	1.665	0.545
758.500	459.553	79.991	19.996	103.149	20.175	1.408	0.533
759.000	459.752	79.993	19.994	103.145	20.173	1.537	0.504
759.500	460.032	79.993	19.993	103.146	20.174	1.486	0.479
760.000	460.312	79.994	19.995	103.147	20.176	1.364	0.519
760.500	460.581	79.990	19.996	103.144	20.173	1.567	0.554
761.000	460.801	79.993	19.996	103.142	20.170	1.738	0.519
761.500	461.093	79.992	19.994	103.142	20.175	1.430	0.500
762.000	461.343	79.993	19.995	103.144	20.175	1.446	0.527
762.500	461.624	79.993	19.997	103.141	20.175	1.424	0.537
763.000	461.892	79.993	19.996	103.142	20.173	1.537	0.540
763.500	462.136	79.992	19.994	103.143	20.173	1.584	0.531
764.000	462.373	79.992	19.996	103.143	20.174	1.468	0.497
764.500	462.647	79.987	19.994	103.141	20.175	1.426	0.496
765.000	462.909	79.993	19.995	103.141	20.178	1.263	0.523
765.500	463.214	79.992	19.997	103.140	20.180	1.080	0.552
766.000	463.442	79.994	19.995	103.142	20.176	1.375	0.550
766.500	463.731	79.992	19.997	103.143	20.178	1.227	0.524
767.000	463.982	79.991	19.994	103.146	20.174	1.468	0.528
767.500	464.249	79.992	19.997	103.149	20.175	1.421	0.529
768.000	464.505	79.994	19.996	103.153	20.179	1.149	0.521
768.500	464.753	79.992	19.994	103.153	20.171	1.669	0.513
769.000	464.993	79.994	19.995	103.155	20.172	1.602	0.496
769.500	465.256	79.994	19.995	103.154	20.176	1.399	0.496
770.000	465.529	79.993	19.996	103.151	20.174	1.529	0.520
770.500	465.829	79.994	19.995	103.148	20.176	1.355	0.554
771.000	466.089	79.993	19.993	103.144	20.176	1.393	0.566
771.500	466.316	79.993	19.995	103.144	20.175	1.421	0.524
772.000	466.620	79.993	19.995	103.146	20.173	1.573	0.510
772.500	466.860	79.993	19.995	103.147	20.176	1.357	0.538
773.000	467.160	79.995	19.995	103.147	20.175	1.459	0.542
773.500	467.428	79.993	19.993	103.149	20.172	1.614	0.554
774.000	467.697	79.995	19.994	103.147	20.173	1.560	0.553
774.500	467.963	79.997	19.994	103.145	20.171	1.696	0.536
775.001	468.250	79.996	19.994	103.146	20.174	1.468	0.544
775.500	468.499	79.994	19.995	103.150	20.179	1.154	0.544
776.000	468.776	79.994	19.996	103.151	20.174	1.473	0.531
776.500	469.007	79.996	19.993	103.152	20.173	1.531	0.517
777.000	469.295	79.996	19.994	103.151	20.176	1.392	0.513
777.500	469.537	79.994	19.995	103.152	20.174	1.500	0.525
778.000	469.809	79.994	19.996	103.147	20.177	1.323	0.522
778.500	470.039	79.996	19.990	103.144	20.176	1.337	0.508
779.000	470.329	79.995	19.994	103.143	20.176	1.350	0.511
779.500	470.601	79.994	19.995	103.142	20.174	1.475	0.541
780.000	470.886	79.993	19.995	103.138	20.178	1.205	0.560
780.500	471.134	79.995	19.994	103.138	20.173	1.595	0.545
781.000	471.385	79.995	19.994	103.140	20.174	1.527	0.516
781.500	471.701	79.991	19.997	103.142	20.174	1.466	0.533
782.000	471.923	79.996	19.995	103.142	20.175	1.457	0.552
782.500	472.158	79.992	19.995	103.148	20.173	1.587	0.497
783.000	472.426	79.996	19.995	103.149	20.175	1.421	0.480
783.500	472.706	79.993	19.995	103.147	20.179	1.156	0.526
784.000	472.965	79.993	19.995	103.146	20.177	1.314	0.544
784.500	473.260	79.995	19.996	103.146	20.177	1.290	0.546
785.000	473.504	79.994	19.998	103.143	20.179	1.158	0.546
785.500	473.773	79.994	19.992	103.142	20.177	1.319	0.526
786.000	474.067	79.995	19.995	103.143	20.180	1.105	0.538
786.500	474.335	79.992	19.994	103.144	20.176	1.399	0.562
787.000	474.594	79.992	19.994	103.144	20.178	1.238	0.544
787.500	474.874	79.993	19.994	103.144	20.175	1.433	0.534
788.000	475.142	79.993	19.994	103.144	20.174	1.468	0.544
788.500	475.399	79.994	19.994	103.144	20.177	1.306	0.536
789.000	475.692	79.992	19.995	103.147	20.181	1.027	0.537
789.501	475.963	79.992	19.996	103.149	20.178	1.203	0.557
790.000	476.196	79.991	19.997	103.150	20.177	1.286	0.535
790.500	476.421	79.995	19.993	103.149	20.177	1.317	0.481
791.000	476.692	79.993	19.995	103.149	20.176	1.359	0.476
791.500	476.975	79.993	19.996	103.145	20.178	1.212	0.524
792.000	477.225	79.994	19.996	103.142	20.179	1.189	0.543
792.500	477.511	79.992	19.993	103.142	20.176	1.352	0.535
793.000	477.792	79.993	19.995	103.143	20.178	1.225	0.552
793.500	478.058	79.993	19.995	103.143	20.178	1.223	0.557
794.000	478.327	79.993	19.995	103.143	20.180	1.082	0.541
794.500	478.574	79.993	19.995	103.143	20.179	1.181	0.525
795.000	478.851	79.996	19.994	103.145	20.176	1.372	0.520
795.500	479.109	79.992	19.996	103.149	20.176	1.384	0.530
796.000	479.393	79.995	19.995	103.149	20.176	1.382	0.539
796.500	479.648	79.996	19.996	103.149	20.175	1.449	0.541
797.000	479.949	79.994	19.995	103.148	20.174	1.498	0.548
797.500	480.179	79.994	19.995	103.145	20.176	1.390	0.543
798.000	480.453	79.995	19.996	103.140	20.179	1.185	0.518
798.500	480.724	79.994	19.995	103.140	20.179	1.163	0.525
799.000	480.979	79.995	19.995	103.140	20.180	1.125	0.535
799.500	481.249	79.997	19.996	103.140	20.177	1.315	0.526
800.000	481.528	79.996	19.995	103.142	20.177	1.314	0.537
800.500	481.770	79.996	19.996	103.142	20.176	1.366	0.535
801.000	482.041	79.994	19.995	103.141	20.177	1.314	0.517
801.501	482.297	79.995	19.995	103.139	20.179	1.185	0.520
802.000	482.556	79.993	19.996	103.138	20.177	1.286	0.521
802.500	482.809	79.992	19.995	103.137	20.177	1.326	0.513
803.000	483.082	79.993	19.997	103.137	20.177	1.292	0.519
803.500	483.341	79.995	19.994	103.137	20.176	1.393	0.529
804.000	483.607	79.996	19.995	103.138	20.180	1.131	0.529
804.500	483.856	79.993	19.996	103.138	20.179	1.192	0.520
805.000	484.136	79.995	19.995	103.137	20.175	1.457	0.522
805.500	484.415	79.993	19.996	103.135	20.176	1.395	0.544
806.000	484.650	79.993	19.996	103.135	20.179	1.149	0.537
806.500	484.914	79.997	19.995	103.134	20.175	1.406	0.507
807.000	485.158	79.994	19.996	103.134	20.178	1.263	0.504
807.501	485.438	79.995	19.995	103.138	20.181	1.062	0.516
808.001	485.658	79.994	19.996	103.144	20.176	1.339	0.512
808.501	485.958	79.992	19.997	103.144	20.174	1.500	0.509
809.000	486.180	79.993	19.996	103.144	20.179	1.178	0.521
809.500	486.466	79.992	19.995	103.141	20.178	1.248	0.515
810.000	486.746	79.993	19.996	103.137	20.177	1.286	0.537
810.500	486.973	79.994	19.998	103.133	20.178	1.203	0.536
811.000	487.222	79.992	19.994	103.133	20.178	1.208	0.491
811.500	487.489	79.992	19.997	103.133	20.179	1.179	0.496
812.000	487.729	79.991	19.995	103.136	20.179	1.189	0.512
812.500	487.959	79.994	19.997	103.137	20.178	1.207	0.488
813.000	488.240	79.991	19.996	103.135	20.179	1.179	0.490
813.500	488.488	79.993	19.997	103.133	20.176	1.379	0.520
814.000	488.768	79.994	19.995	103.133	20.179	1.149	0.529
814.500	488.991	79.993	19.996	103.134	20.176	1.359	0.516
815.000	489.252	79.993	19.997	103.133	20.179	1.141	0.494
815.500	489.496	79.993	19.996	103.136	20.174	1.466	0.494
816.000	489.729	79.994	19.995	103.138	20.177	1.310	0.491
816.500	489.997	79.994	19.996	103.138	20.178	1.232	0.489
817.000	490.263	79.994	19.997	103.138	20.181	1.020	0.518
817.500	490.522	79.993	19.995	103.138	20.181	1.054	0.529
818.000	490.775	79.994	19.996	103.138	20.177	1.268	0.519
818.500	491.026	79.992	19.994	103.138	20.182	0.995	0.508
819.000	491.287	79.993	19.997	103.137	20.179	1.170	0.508
819.500	491.519	79.992	19.997	103.137	20.176	1.390	0.503
820.000	491.784	79.992	19.996	103.137	20.179	1.165	0.495
820.500	491.985	79.992	19.995	103.137	20.179	1.199	0.481
821.000	492.270	79.994	19.995	103.135	20.180	1.120	0.476
821.500	492.519	79.994	19.996	103.134	20.179	1.140	0.510
822.000	492.766	79.994	19.997	103.134	20.177	1.312	0.515
822.500	493.014	79.993	19.996	103.134	20.178	1.205	0.495
823.000	493.243	79.993	19.995	103.134	20.178	1.256	0.486
823.500	493.550	79.994	19.997	103.135	20.175	1.429	0.507
824.000	493.791	79.994	19.998	103.135	20.176	1.341	0.542
824.500	494.029	79.993	19.996	103.135	20.180	1.100	0.513
825.000	494.312	79.991	19.999	103.136	20.178	1.225	0.500
825.500	494.548	79.993	19.997	103.133	20.182	0.951	0.520
826.000	494.779	79.994	19.996	103.131	20.180	1.112	0.493
826.500	495.067	79.996	19.993	103.130	20.179	1.161	0.494
827.000	495.308	79.994	19.995	103.129	20.181	1.027	0.524
827.500	495.539	79.992	19.997	103.128	20.181	1.067	0.500
828.000	495.790	79.995	19.996	103.131	20.179	1.149	0.476
828.500	495.997	79.994	19.996	103.134	20.181	1.053	0.470
829.000	496.297	79.996	19.995	103.135	20.182	0.986	0.483
829.500	496.496	79.994	19.994	103.135	20.182	0.958	0.503
830.000	496.762	79.993	19.996	103.135	20.180	1.132	0.482
830.500	496.983	79.995	19.995	103.130	20.182	0.986	0.476
831.000	497.256	79.993	19.998	103.124	20.180	1.103	0.490
831.500	497.522	79.994	19.995	103.122	20.185	0.788	0.517
832.000	497.757	79.993	19.994	103.123	20.178	1.230	0.520
832.500	498.049	79.997	19.993	103.124	20.179	1.187	0.514
833.000	498.274	79.996	19.994	103.127	20.183	0.875	0.522
833.500	498.511	79.994	19.995	103.130	20.181	1.033	0.489
834.000	498.732	79.995	19.994	103.131	20.185	0.752	0.460
834.500	498.980	79.994	19.996	103.127	20.184	0.862	0.464
835.000	499.245	79.994	19.996	103.125	20.181	1.056	0.491
835.500	499.468	79.995	19.995	103.126	20.182	0.998	0.500
836.000	499.736	79.992	19.994	103.130	20.181	1.027	0.489
836.500	499.999	79.995	19.999	103.131	20.187	0.658	0.511
837.000	500.216	79.994	19.994	103.136	20.182	0.969	0.506
837.500	500.478	79.993	19.993	103.139	20.181	1.009	0.480
838.000	500.742	79.990	19.994	103.140	20.185	0.802	0.502
838.500	500.975	79.994	19.997	103.138	20.183	0.920	0.511
839.000	501.238	79.992	19.996	103.137	20.182	0.991	0.496
839.500	501.490	79.993	19.996	103.137	20.180	1.123	0.506
840.000	501.768	79.993	19.996	103.134	20.182	0.966	0.523
840.500	502.028	79.992	19.996	103.133	20.183	0.899	0.534
841.000	502.275	79.990	19.997	103.135	20.183	0.919	0.523
841.500	502.563	79.991	19.995	103.134	20.186	0.708	0.521
842.000	502.811	79.992	19.994	103.135	20.181	1.053	0.535
842.500	503.028	79.988	19.995	103.138	20.183	0.919	0.500
843.000	503.316	79.994	19.993	103.136	20.184	0.850	0.485
843.500	503.526	79.994	19.994	103.135	20.183	0.882	0.502
844.000	503.793	79.993	19.995	103.138	20.184	0.841	0.488
844.500	504.099	79.992	19.995	103.137	20.181	1.034	0.525
845.000	504.341	79.993	19.995	103.138	20.186	0.737	0.560
845.500	504.581	79.991	19.994	103.140	20.183	0.879	0.515
846.000	504.843	79.992	19.995	103.142	20.181	1.004	0.492
846.500	505.073	79.993	19.994	103.139	20.184	0.832	0.497
847.000	505.325	79.994	19.995	103.135	20.184	0.810	0.487
847.500	505.570	79.994	19.993	103.130	20.184	0.855	0.489
848.000	505.840	79.991	19.998	103.124	20.183	0.911	0.506
848.500	506.114	79.995	19.994	103.120	20.184	0.831	0.530
849.001	506.324	79.993	19.994	103.116	20.185	0.804	0.514
849.501	506.573	79.991	19.996	103.115	20.183	0.924	0.472
850.000	506.852	79.991	19.996	103.114	20.183	0.877	0.493
850.500	507.100	79.995	19.998	103.115	20.182	0.948	0.527
851.000	507.347	79.994	19.993	103.116	20.184	0.857	0.511
851.500	507.568	79.993	19.996	103.122	20.187	0.641	0.482
852.000	507.854	79.996	19.994	103.127	20.185	0.786	0.488
852.500	508.127	79.995	19.994	103.129	20.185	0.743	0.533
853.000	508.318	79.995	19.996	103.128	20.185	0.795	0.511
853.500	508.614	79.993	19.996	103.125	20.182	0.958	0.476
854.000	508.839	79.994	19.996	103.119	20.183	0.911	0.504
854.500	509.100	79.995	19.994	103.116	20.183	0.895	0.503
855.000	509.377	79.996	19.994	103.118	20.184	0.869	0.512
855.500	509.581	79.994	19.996	103.123	20.181	1.045	0.510
856.000	509.845	79.996	19.995	103.123	20.182	0.949	0.475
856.500	510.137	79.994	19.994	103.125	20.182	0.960	0.512
857.000	510.301	79.994	19.994	103.125	20.184	0.837	0.506
857.500	510.568	79.996	19.995	103.121	20.187	0.611	0.443
858.000	510.833	79.995	19.995	103.118	20.184	0.815	0.482
858.500	511.054	79.994	19.993	103.118	20.187	0.625	0.509
859.000	511.307	79.998	19.995	103.119	20.185	0.788	0.480
859.500	511.502	79.996	19.994	103.119	20.183	0.900	0.461
860.000	511.790	79.994	19.995	103.118	20.181	1.054	0.465
860.500	511.993	79.995	19.994	103.118	20.182	0.967	0.487
861.000	512.317	79.994	19.993	103.124	20.183	0.927	0.510
861.500	512.506	79.996	19.996	103.127	20.183	0.933	0.520
862.000	512.768	79.995	19.994	103.130	20.178	1.217	0.482
862.500	512.985	79.994	19.995	103.130	20.183	0.875	0.465
863.000	513.287	79.994	19.994	103.128	20.183	0.895	0.499
863.500	513.459	79.995	19.995	103.122	20.181	1.040	0.496
864.000	513.735	79.993	19.996	103.115	20.182	0.964	0.461
864.500	513.968	79.995	19.994	103.109	20.180	1.091	0.479
865.000	514.205	79.993	19.995	103.105	20.182	0.940	0.490
865.500	514.460	79.992	19.994	103.106	20.183	0.902	0.481
866.000	514.748	79.994	19.995	103.110	20.182	0.965	0.517
866.500	514.989	79.995	19.995	103.115	20.187	0.621	0.536
867.000	515.247	79.995	19.994	103.120	20.186	0.685	0.514
867.500	515.458	79.994	19.993	103.126	20.184	0.853	0.484
868.000	515.709	79.994	19.994	103.129	20.185	0.757	0.466
868.500	515.951	79.995	19.993	103.123	20.186	0.701	0.478
869.000	516.172	79.994	19.995	103.117	20.185	0.783	0.478
869.500	516.411	79.993	19.997	103.113	20.184	0.810	0.461
870.000	516.658	79.992	19.994	103.112	20.189	0.511	0.473
870.500	516.908	79.995	19.994	103.109	20.185	0.777	0.492
871.000	517.175	79.994	19.994	103.109	20.183	0.889	0.507
871.500	517.391	79.993	19.995	103.109	20.179	1.190	0.500
872.000	517.643	79.992	19.995	103.110	20.186	0.690	0.475
872.500	517.907	79.993	19.996	103.111	20.183	0.913	0.492
873.000	518.151	79.996	19.993	103.113	20.182	0.993	0.512
873.500	518.389	79.994	19.995	103.118	20.182	0.995	0.495
874.000	518.608	79.995	19.995	103.118	20.182	0.956	0.470
874.500	518.825	79.999	19.995	103.122	20.182	0.947	0.447
875.000	519.053	79.995	19.995	103.120	20.187	0.661	0.441
875.501	519.302	79.993	19.995	103.115	20.184	0.822	0.461
876.001	519.588	79.994	19.994	103.111	20.184	0.851	0.506
876.500	519.817	79.999	19.994	103.111	20.181	1.061	0.525
877.000	520.042	79.995	19.997	103.108	20.182	0.964	0.485
877.500	520.303	79.995	19.997	103.106	20.181	1.029	0.470
878.000	520.523	79.995	19.996	103.110	20.183	0.906	0.484
878.500	520.775	79.995	19.994	103.113	20.186	0.685	0.477
879.000	521.040	79.995	19.996	103.113	20.184	0.812	0.494
879.500	521.284	79.997	19.994	103.110	20.184	0.846	0.513
880.001	521.534	79.995	19.994	103.109	20.185	0.746	0.502
880.500	521.803	79.996	19.995	103.104	20.189	0.480	0.506
881.000	522.001	79.996	19.993	103.103	20.186	0.739	0.493
881.500	522.230	79.997	19.995	103.104	20.185	0.802	0.447
882.000	522.504	79.994	19.996	103.103	20.191	0.370	0.465
882.500	522.750	79.995	19.996	103.106	20.188	0.547	0.512
883.000	523.012	79.997	19.996	103.113	20.187	0.614	0.514
883.500	523.251	79.995	19.995	103.118	20.185	0.743	0.504
884.000	523.498	79.997	19.995	103.123	20.185	0.795	0.493
884.500	523.710	79.996	19.997	103.124	20.187	0.618	0.472
885.000	523.933	79.996	19.996	103.120	20.187	0.623	0.447
885.500	524.192	79.994	19.995	103.113	20.189	0.476	0.459
886.000	524.390	79.994	19.995	103.108	20.188	0.580	0.469
886.500	524.626	79.994	19.994	103.103	20.189	0.507	0.445
887.001	524.890	79.994	19.995	103.107	20.188	0.594	0.467
887.500	525.138	79.993	19.998	103.113	20.186	0.721	0.506
888.000	525.379	79.993	19.995	103.115	20.186	0.737	0.500
888.500	525.626	79.992	19.994	103.113	20.185	0.790	0.489
889.000	525.886	79.994	19.998	103.115	20.187	0.654	0.498
889.500	526.116	79.993	19.997	103.117	20.188	0.592	0.498
890.000	526.360	79.994	19.996	103.118	20.183	0.877	0.482
890.500	526.626	79.993	19.994	103.116	20.185	0.741	0.492
891.000	526.862	79.994	19.996	103.119	20.183	0.873	0.506
891.500	527.069	79.993	19.995	103.117	20.183	0.917	0.472
892.000	527.324	79.992	19.996	103.113	20.184	0.817	0.453
892.500	527.618	79.992	19.996	103.107	20.184	0.821	0.506
893.000	527.886	79.992	19.995	103.108	20.185	0.759	0.556
893.500	528.116	79.992	19.995	103.111	20.185	0.757	0.529
894.000	528.366	79.994	19.996	103.114	20.185	0.781	0.489
894.500	528.644	79.993	19.995	103.119	20.185	0.761	0.504
895.000	528.894	79.991	19.996	103.126	20.187	0.645	0.528
895.500	529.152	79.993	19.995	103.131	20.188	0.554	0.518
896.000	529.384	79.992	19.993	103.130	20.186	0.683	0.499
896.501	529.632	79.993	19.995	103.133	20.186	0.726	0.485
897.001	529.917	79.990	19.993	103.133	20.187	0.650	0.506
897.500	530.152	79.993	19.995	103.133	20.186	0.739	0.527
898.000	530.396	79.994	19.994	103.131	20.185	0.777	0.500
898.500	530.657	79.994	19.995	103.132	20.185	0.755	0.492
899.000	530.916	79.993	19.996	103.130	20.188	0.547	0.513
899.500	531.194	79.996	19.994	103.124	20.184	0.835	0.528
900.001	531.448	79.992	19.997	103.120	20.184	0.862	0.534
900.500	531.653	79.993	19.995	103.120	20.186	0.714	0.496
901.000	531.953	79.994	19.995	103.124	20.184	0.823	0.483
901.500	532.227	79.991	19.995	103.124	20.184	0.868	0.540
902.000	532.458	79.995	19.994	103.129	20.184	0.817	0.539
902.500	532.713	79.992	19.996	103.132	20.184	0.817	0.496
903.000	532.946	79.993	19.996	103.130	20.187	0.656	0.487
903.500	533.205	79.993	19.992	103.123	20.189	0.529	0.489
904.000	533.474	79.993	19.996	103.118	20.185	0.786	0.510
904.500	533.722	79.993	19.996	103.117	20.183	0.937	0.523
905.000	534.029	79.994	19.996	103.115	20.184	0.819	0.536
905.500	534.231	79.993	19.996	103.115	20.184	0.859	0.532
906.000	534.523	79.992	19.996	103.119	20.186	0.710	0.501
906.500	534.776	79.992	19.995	103.119	20.186	0.705	0.520
907.001	535.034	79.993	19.995	103.114	20.182	0.953	0.528
907.500	535.314	79.993	19.995	103.115	20.183	0.911	0.525
908.000	535.579	79.992	19.996	103.117	20.186	0.716	0.541
908.500	535.842	79.993	19.998	103.114	20.184	0.828	0.536
909.000	536.068	79.993	19.996	103.117	20.184	0.851	0.508
909.500	536.369	79.993	19.995	103.123	20.183	0.926	0.508
910.000	536.637	79.993	19.996	103.125	20.186	0.732	0.548
910.501	536.913	79.993	19.997	103.127	20.183	0.882	0.556
911.000	537.151	79.993	19.994	103.134	20.185	0.752	0.529
911.500	537.411	79.992	19.997	103.136	20.183	0.900	0.506
912.000	537.678	79.993	19.996	103.136	20.184	0.806	0.513
912.500	537.918	79.993	19.995	103.134	20.181	1.004	0.517
913.000	538.185	79.993	19.997	103.131	20.181	1.042	0.506
913.500	538.468	79.993	19.994	103.128	20.184	0.832	0.528
914.000	538.708	79.993	19.997	103.128	20.185	0.770	0.537
914.500	539.007	79.992	19.996	103.127	20.186	0.683	0.531
915.000	539.247	79.992	19.996	103.129	20.184	0.835	0.539
915.500	539.524	79.992	19.997	103.129	20.181	1.022	0.528
916.000	539.788	79.992	19.996	103.130	20.185	0.774	0.529
916.500	540.050	79.991	19.995	103.129	20.187	0.658	0.534
917.000	540.297	79.992	19.995	103.125	20.183	0.935	0.518
917.500	540.586	79.992	19.998	103.120	20.186	0.728	0.522
918.000	540.867	79.992	19.996	103.121	20.186	0.737	0.553
918.500	541.078	79.992	19.994	103.122	20.184	0.822	0.531
919.000	541.363	79.993	19.996	103.120	20.187	0.629	0.494
919.500	541.603	79.993	19.995	103.119	20.186	0.739	0.510
920.000	541.903	79.992	19.997	103.123	20.186	0.730	0.533
920.500	542.133	79.993	19.994	103.123	20.184	0.839	0.535
921.000	542.410	79.991	19.996	103.120	20.190	0.429	0.518
921.500	542.666	79.992	19.994	103.124	20.186	0.681	0.520
922.000	542.962	79.991	19.992	103.130	20.189	0.500	0.542
922.500	543.201	79.992	19.995	103.128	20.189	0.509	0.543
923.000	543.458	79.993	19.993	103.131	20.190	0.451	0.516
923.500	543.703	79.992	19.995	103.134	20.188	0.607	0.499
924.000	543.968	79.993	19.997	103.134	20.192	0.286	0.506
924.500	544.264	79.991	19.997	103.133	20.187	0.670	0.536
925.000	544.481	79.991	19.995	103.134	20.189	0.538	0.537
925.500	544.753	79.994	19.995	103.133	20.191	0.380	0.501
926.000	545.025	79.993	19.997	103.130	20.189	0.504	0.516
926.500	545.261	79.992	19.995	103.129	20.189	0.502	0.526
927.000	545.525	79.993	19.993	103.127	20.190	0.471	0.505
927.500	545.784	79.994	19.996	103.123	20.190	0.442	0.511
928.000	546.071	79.993	19.992	103.118	20.189	0.495	0.534
928.500	546.312	79.993	19.997	103.115	20.185	0.755	0.537
929.000	546.574	79.993	19.997	103.110	20.191	0.408	0.516
929.500	546.831	79.992	19.995	103.106	20.190	0.462	0.511
930.000	547.137	79.994	19.996	103.108	20.187	0.621	0.541
930.500	547.416	79.993	19.994	103.114	20.188	0.567	0.574
931.000	547.639	79.993	19.997	103.114	20.191	0.395	0.544
931.500	547.933	79.994	19.996	103.116	20.188	0.549	0.509
932.000	548.197	79.994	19.994	103.117	20.189	0.534	0.537
932.500	548.425	79.994	19.995	103.113	20.190	0.475	0.525
933.000	548.769	79.994	19.994	103.110	20.183	0.927	0.532
933.500	549.031	79.995	19.994	103.116	20.188	0.558	0.589
934.000	549.285	79.995	19.994	103.120	20.185	0.744	0.561
934.500	549.558	79.995	19.994	103.125	20.188	0.591	0.521
935.000	549.835	79.994	19.998	103.130	20.188	0.551	0.538
935.500	550.101	79.994	19.995	103.125	20.184	0.835	0.547
936.000	550.381	79.996	19.995	103.118	20.188	0.603	0.545
936.500	550.660	79.995	19.996	103.114	20.189	0.525	0.552
937.000	550.921	79.995	19.995	103.112	20.190	0.447	0.550
937.500	551.164	79.995	19.995	103.110	20.189	0.504	0.522
938.000	551.411	79.993	19.996	103.113	20.190	0.465	0.497
938.500	551.708	79.995	19.994	103.115	20.188	0.558	0.517
939.000	551.968	79.994	19.995	103.116	20.190	0.435	0.551
939.500	552.240	79.994	19.997	103.115	20.189	0.509	0.545
940.000	552.477	79.994	19.994	103.115	20.191	0.404	0.520
940.500	552.746	79.995	19.994	103.115	20.189	0.525	0.507
941.000	553.013	79.996	19.996	103.113	20.189	0.525	0.521
941.500	553.271	79.993	19.995	103.113	20.189	0.495	0.531
942.000	553.534	79.994	19.997	103.116	20.191	0.370	0.523
942.500	553.807	79.994	19.996	103.116	20.192	0.297	0.528
943.000	554.091	79.995	19.996	103.113	20.187	0.614	0.546
943.500	554.335	79.993	19.996	103.112	20.187	0.638	0.542
944.000	554.567	79.995	19.995	103.112	20.188	0.592	0.502
944.500	554.862	79.995	19.994	103.108	20.193	0.246	0.502
945.000	555.150	79.994	19.998	103.108	20.191	0.395	0.555
945.500	555.427	79.994	19.995	103.114	20.192	0.292	0.574
946.000	555.662	79.995	19.996	103.121	20.189	0.542	0.538
946.500	555.906	79.995	19.995	103.118	20.190	0.433	0.495
947.000	556.151	79.994	19.993	103.116	20.192	0.333	0.484
947.500	556.388	79.995	19.995	103.115	20.191	0.348	0.486
948.000	556.701	79.995	19.995	103.111	20.189	0.511	0.516
948.500	556.950	79.994	19.996	103.103	20.193	0.275	0.556
949.000	557.225	79.994	19.995	103.102	20.190	0.418	0.543
949.500	557.442	79.993	19.992	103.101	20.191	0.375	0.508
950.000	557.727	79.994	19.995	103.101	20.190	0.473	0.497
950.500	557.956	79.995	19.996	103.098	20.190	0.429	0.508
951.000	558.229	79.995	19.994	103.101	20.190	0.411	0.508
951.500	558.512	79.994	19.994	103.107	20.190	0.438	0.529
952.000	558.784	79.994	19.994	103.112	20.190	0.431	0.556
952.500	559.043	79.994	19.995	103.118	20.193	0.250	0.543
953.000	559.279	79.995	19.996	103.125	20.192	0.341	0.513
953.500	559.551	79.995	19.994	103.126	20.191	0.388	0.501
954.000	559.787	79.994	19.995	103.120	20.193	0.263	0.508
954.500	560.029	79.995	19.996	103.115	20.193	0.250	0.494
955.000	560.307	79.996	19.997	103.112	20.193	0.270	0.499
955.500	560.589	79.996	19.996	103.107	20.192	0.301	0.539
956.000	560.853	79.996	19.994	103.111	20.194	0.199	0.553
956.500	561.066	79.996	19.994	103.117	20.194	0.172	0.512
957.000	561.329	79.997	19.995	103.124	20.195	0.091	0.477
957.500	561.571	79.995	19.994	103.128	20.195	0.096	0.490
958.000	561.820	79.997	19.996	103.133	20.194	0.172	0.498
958.500	562.109	79.995	19.995	103.130	20.192	0.333	0.514
959.000	562.334	79.997	19.997	103.128	20.194	0.205	0.526
959.500	562.641	79.997	19.996	103.123	20.193	0.245	0.523
960.000	562.898	79.997	19.994	103.115	20.192	0.328	0.548
960.500	563.158	79.996	19.995	103.113	20.192	0.335	0.541
961.000	563.422	79.998	19.994	103.114	20.190	0.415	0.520
961.500	563.656	79.997	19.994	103.117	20.193	0.268	0.511
962.000	563.919	79.996	19.994	103.123	20.194	0.201	0.497
962.500	564.157	79.997	19.994	103.130	20.192	0.281	0.499
963.000	564.439	79.997	19.995	103.128	20.192	0.303	0.511
963.500	564.683	79.996	19.993	103.122	20.193	0.245	0.524
964.000	564.930	79.996	19.994	103.115	20.193	0.274	0.509
964.500	565.192	79.996	19.994	103.114	20.192	0.337	0.500
965.000	565.466	79.994	19.994	103.111	20.190	0.457	0.522
965.500	565.764	79.995	19.996	103.112	20.191	0.361	0.554
966.000	565.996	79.996	19.994	103.120	20.189	0.487	0.551
966.500	566.273	79.994	19.994	103.128	20.190	0.415	0.520
967.000	566.518	79.995	19.995	103.126	20.192	0.301	0.516
967.500	566.820	79.994	19.993	103.123	20.192	0.306	0.535
968.000	567.043	79.994	19.995	103.123	20.188	0.600	0.536
968.500	567.299	79.993	19.996	103.119	20.190	0.471	0.502
969.000	567.592	79.992	19.996	103.114	20.189	0.525	0.513
969.500	567.834	79.993	19.995	103.111	20.188	0.552	0.542
970.000	568.057	79.994	19.995	103.115	20.195	0.139	0.500
970.500	568.344	79.993	19.996	103.115	20.194	0.174	0.488
971.000	568.605	79.993	19.996	103.113	20.194	0.181	0.530
971.500	568.863	79.993	19.996	103.114	20.190	0.453	0.534
972.000	569.121	79.993	19.996	103.115	20.191	0.406	0.517
972.500	569.365	79.992	19.994	103.113	20.192	0.306	0.509
973.000	569.624	79.992	19.996	103.112	20.191	0.389	0.503
973.500	569.877	79.991	19.995	103.115	20.192	0.284	0.508
974.000	570.120	79.994	19.995	103.112	20.189	0.495	0.504
974.500	570.370	79.993	19.997	103.117	20.189	0.525	0.494
975.000	570.668	79.993	19.996	103.123	20.194	0.150	0.521
975.500	570.887	79.992	19.996	103.124	20.191	0.390	0.533
976.000	571.165	79.993	19.996	103.123	20.191	0.406	0.507
976.500	571.396	79.993	19.994	103.127	20.190	0.424	0.503
977.000	571.651	79.993	19.995	103.124	20.191	0.397	0.498
977.500	571.937	79.993	19.995	103.116	20.190	0.424	0.513
978.000	572.161	79.992	19.997	103.114	20.194	0.196	0.525
978.500	572.422	79.993	19.996	103.113	20.193	0.226	0.497
979.000	572.678	79.994	19.993	103.113	20.194	0.197	0.502
979.500	572.925	79.993	19.997	103.113	20.190	0.449	0.511
980.000	573.175	79.993	19.995	103.113	20.191	0.351	0.500
980.500	573.417	79.993	19.996	103.116	20.190	0.462	0.494
981.000	573.697	79.993	19.994	103.115	20.191	0.351	0.507
981.500	573.968	79.992	19.996	103.110	20.189	0.533	0.536
982.000	574.237	79.991	19.995	103.108	20.190	0.437	0.545
982.500	574.491	79.992	19.996	103.110	20.194	0.165	0.532
983.000	574.751	79.992	19.996	103.108	20.193	0.246	0.519
983.500	574.986	79.992	19.996	103.108	20.192	0.337	0.504
984.000	575.248	79.992	19.993	103.107	20.195	0.091	0.496
984.500	575.488	79.992	19.995	103.109	20.190	0.415	0.499
985.000	575.719	79.993	19.997	103.113	20.192	0.335	0.487
985.500	575.998	79.992	19.994	103.120	20.191	0.395	0.491
986.000	576.237	79.994	19.995	103.126	20.190	0.438	0.514
986.500	576.448	79.993	19.996	103.127	20.190	0.455	0.484
987.000	576.748	79.992	19.995	103.124	20.189	0.500	0.481
987.500	576.975	79.994	19.995	103.118	20.194	0.150	0.519
988.000	577.229	79.993	19.993	103.111	20.191	0.373	0.504
988.500	577.461	79.993	19.994	103.106	20.195	0.127	0.483
989.000	577.683	79.993	19.997	103.106	20.191	0.348	0.470
989.500	577.947	79.993	19.996	103.109	20.190	0.440	0.470
990.000	578.172	79.993	19.995	103.109	20.190	0.475	0.488
990.500	578.412	79.993	19.996	103.109	20.192	0.283	0.477
991.000	578.669	79.991	19.993	103.108	20.191	0.404	0.481
991.500	578.937	79.994	19.996	103.106	20.191	0.362	0.511
992.000	579.122	79.993	19.995	103.105	20.189	0.504	0.490
992.500	579.393	79.994	19.995	103.104	20.192	0.317	0.454
993.000	579.582	79.992	19.995	103.104	20.194	0.190	0.458
993.500	579.846	79.992	19.996	103.104	20.191	0.346	0.457
994.000	580.104	79.993	19.996	103.105	20.191	0.366	0.487
994.500	580.336	79.994	19.995	103.107	20.191	0.395	0.506
995.000	580.589	79.992	19.997	103.107	20.193	0.255	0.487
995.500	580.838	79.993	19.994	103.108	20.193	0.261	0.493
996.000	581.058	79.992	19.994	103.108	20.195	0.121	0.486
996.500	581.309	79.992	19.997	103.107	20.193	0.241	0.470
997.000	581.551	79.992	19.997	103.108	20.191	0.395	0.482
997.500	581.811	79.992	19.995	103.114	20.193	0.228	0.498
998.000	582.042	79.993	19.996	103.115	20.193	0.248	0.496
998.500	582.232	79.993	19.995	103.118	20.191	0.386	0.456
999.000	582.484	79.993	19.995	103.121	20.190	0.440	0.432
999.500	582.730	79.992	19.995	103.121	20.190	0.457	0.470
1000.000	582.987	79.993	19.996	103.115	20.191	0.397	0.500
1000.500	583.259	79.992	19.995	103.114	20.190	0.428	0.515
1001.000	583.463	79.992	19.995	103.117	20.190	0.431	0.503
1001.500	583.710	79.993	19.996	103.119	20.189	0.513	0.464
1002.000	583.968	79.992	19.996	103.122	20.193	0.217	0.478
1002.500	584.212	79.993	19.998	103.127	20.189	0.495	0.503
1003.000	584.418	79.991	19.998	103.133	20.192	0.342	0.476
1003.500	584.718	79.992	19.996	103.134	20.189	0.478	0.478
1004.000	584.941	79.991	19.998	103.133	20.191	0.391	0.514
1004.500	585.224	79.993	19.996	103.133	20.190	0.420	0.514
1005.000	585.492	79.993	19.997	103.130	20.190	0.438	0.529
1005.500	585.693	79.992	19.996	103.126	20.190	0.419	0.510
1006.000	585.954	79.992	19.997	103.124	20.190	0.453	0.465
1006.500	586.209	79.992	19.998	103.122	20.186	0.719	0.489
1007.000	586.460	79.992	19.996	103.121	20.192	0.315	0.511
1007.500	586.707	79.992	19.996	103.125	20.191	0.373	0.502
1008.000	586.978	79.993	19.996	103.131	20.191	0.391	0.508
1008.500	587.233	79.992	19.998	103.135	20.189	0.511	0.522
1009.000	587.505	79.993	19.995	103.137	20.190	0.457	0.527
1009.500	587.759	79.992	19.996	103.138	20.191	0.409	0.527
1010.000	588.010	79.993	19.996	103.135	20.192	0.295	0.516
1010.500	588.255	79.994	19.996	103.133	20.191	0.390	0.500
1011.000	588.497	79.994	19.996	103.127	20.192	0.303	0.492
1011.500	588.791	79.994	19.996	103.120	20.190	0.475	0.511
1012.000	589.022	79.994	19.994	103.117	20.193	0.263	0.530
1012.500	589.277	79.994	19.997	103.117	20.192	0.295	0.506
1013.000	589.537	79.994	19.996	103.118	20.190	0.417	0.500
1013.500	589.821	79.993	19.996	103.124	20.190	0.429	0.529
1014.000	590.078	79.994	19.995	103.130	20.190	0.435	0.542
1014.500	590.341	79.994	19.996	103.135	20.190	0.420	0.531
1015.000	590.514	79.996	19.994	103.139	20.193	0.245	0.478
1015.500	590.848	79.996	19.996	103.140	20.190	0.440	0.472
1016.000	591.111	79.995	19.995	103.140	20.190	0.462	0.552
1016.500	591.383	79.995	19.996	103.140	20.191	0.391	0.566
1017.000	591.632	79.995	19.994	103.137	20.191	0.402	0.528
1017.500	591.900	79.995	19.996	103.135	20.192	0.332	0.519
1018.000	592.183	79.996	19.997	103.134	20.188	0.562	0.534
1018.500	592.461	79.994	19.993	103.133	20.191	0.391	0.556
1019.000	592.699	79.995	19.995	103.133	20.188	0.553	0.539
1019.500	592.956	79.994	19.995	103.134	20.191	0.409	0.505
1020.000	593.197	79.995	19.995	103.135	20.191	0.409	0.497
1020.500	593.478	79.996	19.995	103.134	20.191	0.404	0.510
1021.000	593.756	79.994	19.996	103.135	20.194	0.161	0.540
1021.500	594.036	79.994	19.994	103.135	20.189	0.486	0.558
1022.000	594.289	79.995	19.995	103.135	20.184	0.832	0.545
1022.500	594.535	79.994	19.996	103.136	20.189	0.511	0.516
1023.001	594.832	79.996	19.996	103.136	20.189	0.496	0.522
1023.501	595.139	79.994	19.995	103.136	20.190	0.417	0.574
1024.001	595.399	79.993	19.996	103.136	20.187	0.631	0.585
1024.501	595.642	79.995	19.994	103.136	20.190	0.429	0.535
1025.000	595.906	79.994	19.993	103.136	20.190	0.455	0.505
1025.500	596.187	79.994	19.994	103.137	20.190	0.422	0.526
1026.000	596.447	79.994	19.996	103.137	20.193	0.243	0.542
1026.500	596.743	79.993	19.995	103.137	20.190	0.444	0.549
1027.000	596.938	79.993	19.995	103.137	20.194	0.161	0.524
1027.500	597.213	79.994	19.992	103.136	20.188	0.562	0.481
1028.000	597.458	79.995	19.994	103.137	20.189	0.489	0.494
1028.500	597.753	79.992	19.995	103.136	20.188	0.560	0.530
1029.000	598.040	79.993	19.995	103.134	20.188	0.591	0.561
1029.500	598.279	79.993	19.997	103.129	20.191	0.402	0.554
1030.000	598.537	79.993	19.996	103.128	20.191	0.384	0.511
1030.500	598.811	79.994	19.994	103.129	20.189	0.477	0.514
1031.000	599.047	79.992	19.995	103.128	20.189	0.507	0.521
1031.500	599.316	79.994	19.994	103.130	20.189	0.534	0.507
1032.000	599.591	79.993	19.995	103.136	20.192	0.339	0.525
1032.500	599.875	79.994	19.996	103.139	20.190	0.458	0.552
1033.000	600.115	79.994	19.992	103.138	20.190	0.449	0.542
1033.500	600.362	79.994	19.995	103.139	20.189	0.502	0.506
1034.000	600.632	79.994	19.995	103.140	20.188	0.560	0.502
1034.500	600.914	79.994	19.998	103.139	20.189	0.480	0.534
1035.000	601.191	79.995	19.996	103.138	20.189	0.520	0.555
1035.500	601.413	79.993	19.996	103.138	20.187	0.625	0.529
1036.000	601.696	79.995	19.996	103.138	20.189	0.498	0.502
1036.500	601.965	79.995	19.994	103.138	20.189	0.502	0.528
1037.000	602.235	79.995	19.996	103.135	20.190	0.464	0.545
1037.500	602.470	79.996	19.995	103.131	20.187	0.623	0.522
1038.000	602.765	79.996	19.994	103.129	20.189	0.491	0.518
1038.500	603.045	79.997	19.994	103.127	20.189	0.520	0.553
1039.000	603.293	79.997	19.995	103.127	20.189	0.531	0.552
1039.500	603.567	79.995	19.996	103.132	20.185	0.743	0.525
1040.000	603.826	79.996	19.995	103.136	20.187	0.656	0.527
1040.500	604.062	79.995	19.994	103.138	20.190	0.446	0.514
1041.000	604.302	79.996	19.994	103.141	20.188	0.598	0.485
1041.500	604.614	79.995	19.994	103.141	20.185	0.756	0.514
1042.000	604.884	79.997	19.994	103.138	20.188	0.603	0.568
1042.500	605.135	79.995	19.996	103.137	20.187	0.672	0.552
1043.000	605.377	79.996	19.995	103.133	20.187	0.627	0.507
1043.500	605.641	79.995	19.997	103.133	20.187	0.667	0.500
1044.000	605.924	79.995	19.995	103.132	20.183	0.881	0.527
1044.500	606.200	79.997	19.994	103.134	20.186	0.719	0.553
1045.000	606.465	79.995	19.994	103.135	20.186	0.719	0.550
1045.500	606.727	79.995	19.995	103.135	20.185	0.759	0.534
1046.000	607.000	79.996	19.995	103.135	20.185	0.774	0.531
1046.500	607.259	79.995	19.995	103.136	20.186	0.712	0.533
1047.000	607.504	79.995	19.996	103.135	20.186	0.681	0.518
1047.500	607.766	79.995	19.995	103.136	20.188	0.578	0.505
1048.000	608.033	79.994	19.995	103.139	20.189	0.527	0.518
1048.500	608.319	79.994	19.993	103.140	20.189	0.500	0.542
1049.000	608.563	79.994	19.995	103.136	20.185	0.741	0.542
1049.500	608.814	79.994	19.994	103.136	20.188	0.601	0.513
1050.000	609.094	79.993	19.995	103.136	20.188	0.592	0.513
1050.500	609.371	79.991	19.994	103.137	20.185	0.743	0.544
1051.000	609.632	79.993	19.994	103.138	20.187	0.663	0.548
1051.500	609.874	79.993	19.994	103.142	20.186	0.678	0.521
1052.000	610.108	79.991	19.994	103.142	20.187	0.620	0.490
1052.500	610.366	79.991	19.995	103.143	20.188	0.578	0.484
1053.000	610.674	79.993	19.994	103.143	20.188	0.585	0.529
1053.500	610.921	79.994	19.993	103.143	20.190	0.467	0.560
1054.000	611.176	79.994	19.995	103.143	20.189	0.516	0.529
1054.500	611.457	79.994	19.994	103.142	20.189	0.542	0.519
1055.000	611.693	79.993	19.995	103.138	20.188	0.587	0.527
1055.500	611.988	79.994	19.995	103.137	20.186	0.723	0.524
1056.000	612.228	79.994	19.994	103.136	20.190	0.471	0.533
1056.500	612.462	79.992	19.994	103.135	20.188	0.582	0.505
1057.000	612.757	79.992	19.995	103.135	20.189	0.529	0.501
1057.500	612.988	79.994	19.995	103.137	20.188	0.560	0.527
1058.000	613.274	79.992	19.996	103.137	20.188	0.578	0.522
1058.500	613.560	79.993	19.995	103.138	20.189	0.493	0.545
1059.000	613.841	79.993	19.996	103.138	20.189	0.527	0.569
1059.500	614.095	79.994	19.995	103.136	20.187	0.660	0.551
1060.000	614.376	79.995	19.994	103.132	20.189	0.515	0.535
1060.500	614.605	79.993	19.995	103.130	20.188	0.585	0.523
1061.000	614.846	79.995	19.995	103.129	20.187	0.658	0.490
1061.500	615.133	79.993	19.995	103.129	20.185	0.746	0.499
1062.000	615.406	79.993	19.996	103.129	20.185	0.752	0.544
1062.500	615.689	79.993	19.996	103.131	20.187	0.659	0.558
1063.000	615.918	79.994	19.995	103.133	20.188	0.547	0.534
1063.500	616.205	79.992	19.995	103.130	20.189	0.477	0.514
1064.000	616.459	79.992	19.996	103.129	20.186	0.707	0.529
1064.500	616.700	79.993	19.995	103.129	20.184	0.806	0.518
1065.000	616.954	79.992	19.996	103.132	20.189	0.516	0.495
1065.500	617.238	79.994	19.996	103.132	20.187	0.625	0.516
1066.000	617.476	79.993	19.995	103.135	20.187	0.656	0.530
1066.500	617.742	79.992	19.996	103.136	20.187	0.623	0.514
1067.000	618.027	79.993	19.996	103.136	20.187	0.629	0.528
1067.500	618.292	79.993	19.997	103.137	20.186	0.676	0.550
1068.000	618.570	79.994	19.997	103.137	20.187	0.661	0.546
1068.500	618.830	79.993	19.996	103.137	20.191	0.390	0.540
1069.000	619.065	79.993	19.995	103.137	20.191	0.386	0.517
1069.500	619.357	79.993	19.996	103.137	20.190	0.415	0.511
1070.000	619.601	79.994	19.996	103.136	20.188	0.596	0.532
1070.500	619.878	79.993	19.996	103.136	20.187	0.643	0.528
1071.000	620.083	79.993	19.996	103.136	20.188	0.591	0.502
1071.500	620.382	79.992	19.995	103.136	20.185	0.785	0.493
1072.000	620.628	79.995	19.996	103.136	20.185	0.768	0.524
1072.500	620.893	79.994	19.997	103.137	20.185	0.757	0.528
1073.000	621.157	79.994	19.995	103.137	20.187	0.663	0.520
1073.500	621.400	79.992	19.996	103.135	20.188	0.562	0.518
1074.000	621.709	79.992	19.996	103.135	20.186	0.678	0.529
1074.500	621.932	79.993	19.996	103.135	20.189	0.520	0.542
1075.000	622.186	79.994	19.995	103.133	20.189	0.542	0.504
1075.500	622.458	79.992	19.996	103.132	20.189	0.486	0.501
1076.000	622.751	79.993	19.996	103.134	20.188	0.544	0.546
1076.500	623.012	79.992	19.996	103.133	20.189	0.495	0.560
1077.001	623.234	79.993	19.997	103.134	20.187	0.669	0.519
1077.500	623.508	79.992	19.995	103.135	20.187	0.669	0.489
1078.000	623.776	79.995	19.996	103.136	20.189	0.516	0.519
1078.500	624.043	79.993	19.996	103.138	20.189	0.516	0.539
1079.000	624.286	79.995	19.996	103.139	20.188	0.551	0.523
1079.500	624.553	79.992	19.996	103.138	20.190	0.415	0.510
1080.000	624.804	79.993	19.996	103.138	20.187	0.636	0.513
1080.500	625.083	79.993	19.996	103.137	20.188	0.594	0.524
1081.000	625.305	79.993	19.996	103.137	20.187	0.661	0.516
1081.500	625.568	79.993	19.996	103.137	20.188	0.569	0.493
1082.000	625.825	79.994	19.996	103.137	20.185	0.745	0.502
1082.500	626.105	79.993	19.997	103.137	20.188	0.585	0.528
1083.000	626.360	79.992	19.996	103.137	20.186	0.721	0.536
1083.500	626.640	79.994	19.996	103.137	20.187	0.625	0.535
1084.000	626.900	79.993	19.996	103.138	20.187	0.649	0.538
1084.500	627.149	79.993	19.995	103.140	20.186	0.687	0.525
1085.000	627.395	79.994	19.996	103.142	20.188	0.589	0.502
1085.500	627.679	79.992	19.996	103.141	20.188	0.544	0.513
1086.000	627.944	79.993	19.995	103.141	20.188	0.551	0.539
1086.500	628.168	79.993	19.996	103.140	20.189	0.538	0.519
1087.000	628.429	79.993	19.996	103.136	20.185	0.752	0.487
1087.500	628.685	79.993	19.993	103.134	20.192	0.339	0.501
1088.000	628.969	79.993	19.996	103.134	20.189	0.536	0.529
1088.500	629.223	79.994	19.995	103.134	20.186	0.678	0.539
1089.000	629.486	79.994	19.996	103.133	20.190	0.440	0.528
1089.500	629.767	79.994	19.996	103.135	20.186	0.730	0.531
1090.000	629.989	79.994	19.995	103.135	20.186	0.728	0.523
1090.500	630.295	79.993	19.996	103.137	20.188	0.545	0.515
1091.000	630.495	79.993	19.996	103.137	20.187	0.616	0.517
1091.500	630.809	79.993	19.996	103.139	20.190	0.471	0.510
1092.000	631.046	79.993	19.997	103.139	20.185	0.754	0.533
1092.500	631.282	79.993	19.997	103.137	20.187	0.654	0.512
1093.000	631.572	79.993	19.997	103.136	20.186	0.678	0.499
1093.500	631.820	79.995	19.996	103.136	20.187	0.654	0.532
1094.000	632.076	79.994	19.996	103.136	20.186	0.678	0.521
1094.500	632.348	79.994	19.996	103.135	20.188	0.560	0.516
1095.000	632.564	79.994	19.997	103.137	20.186	0.719	0.508
1095.500	632.821	79.994	19.997	103.138	20.190	0.458	0.481
1096.000	633.093	79.993	19.995	103.135	20.186	0.737	0.502
1096.500	633.352	79.993	19.996	103.135	20.186	0.690	0.530
1097.001	633.626	79.995	19.995	103.134	20.186	0.737	0.532
1097.500	633.878	79.994	19.997	103.133	20.187	0.654	0.530
1098.000	634.118	79.994	19.996	103.134	20.184	0.866	0.509
1098.500	634.378	79.996	19.995	103.136	20.184	0.868	0.496
1099.000	634.628	79.995	19.996	103.136	20.183	0.890	0.505
1099.500	634.918	79.995	19.996	103.138	20.183	0.891	0.525
1100.000	635.174	79.995	19.996	103.139	20.185	0.794	0.543
1100.500	635.435	79.995	19.995	103.138	20.183	0.871	0.531
1101.000	635.719	79.996	19.997	103.137	20.181	1.027	0.531
1101.500	635.962	79.994	19.996	103.138	20.181	1.067	0.536
1102.000	636.213	79.994	19.995	103.134	20.180	1.087	0.510
1102.500	636.452	79.995	19.996	103.132	20.181	1.035	0.492
1103.000	636.710	79.994	19.995	103.132	20.181	1.042	0.493
1103.500	636.983	79.995	19.996	103.134	20.184	0.808	0.514
1104.000	637.196	79.993	19.995	103.133	20.183	0.924	0.509
1104.500	637.461	79.996	19.994	103.137	20.185	0.750	0.482
1105.000	637.699	79.993	19.994	103.139	20.185	0.775	0.491
1105.500	637.975	79.993	19.995	103.137	20.188	0.602	0.509
1106.000	638.195	79.995	19.995	103.137	20.186	0.719	0.505
1106.500	638.469	79.995	19.994	103.137	20.186	0.683	0.495
1107.000	638.743	79.994	19.994	103.138	20.184	0.808	0.521
1107.500	639.020	79.995	19.995	103.139	20.184	0.808	0.549
1108.000	639.247	79.995	19.994	103.140	20.187	0.650	0.527
1108.500	639.516	79.993	19.995	103.139	20.188	0.569	0.500
1109.000	639.737	79.992	19.995	103.140	20.184	0.819	0.493
1109.500	640.010	79.994	19.995	103.139	20.190	0.469	0.492
1110.000	640.244	79.995	19.994	103.138	20.188	0.560	0.501
1110.500	640.500	79.996	19.996	103.136	20.185	0.775	0.499
1111.000	640.749	79.995	19.994	103.136	20.184	0.855	0.497
1111.500	640.956	79.993	19.994	103.136	20.187	0.672	0.481
1112.000	641.207	79.994	19.995	103.136	20.190	0.444	0.457
1112.500	641.479	79.994	19.995	103.137	20.189	0.529	0.490
1113.000	641.754	79.993	19.995	103.140	20.186	0.687	0.535
1113.500	641.988	79.995	19.995	103.142	20.183	0.931	0.528
1114.000	642.265	79.994	19.993	103.140	20.184	0.837	0.510
1114.500	642.502	79.994	19.995	103.139	20.187	0.629	0.513
1115.000	642.761	79.995	19.995	103.136	20.187	0.659	0.505
1115.500	642.970	79.993	19.995	103.136	20.186	0.716	0.482
1116.000	643.228	79.993	19.995	103.135	20.187	0.625	0.467
1116.500	643.509	79.994	19.995	103.134	20.188	0.560	0.503
1117.000	643.787	79.996	19.995	103.135	20.187	0.639	0.549
1117.500	644.057	79.996	19.995	103.136	20.186	0.736	0.553
1118.000	644.278	79.995	19.994	103.135	20.187	0.672	0.519
1118.500	644.536	79.995	19.994	103.135	20.186	0.721	0.485
1119.000	644.808	79.996	19.994	103.134	20.183	0.904	0.505
1119.500	645.065	79.996	19.995	103.130	20.184	0.866	0.530
1120.000	645.305	79.996	19.995	103.131	20.184	0.810	0.513
1120.500	645.540	79.996	19.995	103.130	20.185	0.794	0.486
1121.000	645.825	79.995	19.995	103.130	20.185	0.763	0.497
1121.500	646.031	79.996	19.995	103.133	20.182	0.957	0.506
1122.000	646.316	79.997	19.995	103.136	20.185	0.745	0.491
1122.500	646.585	79.996	19.995	103.136	20.184	0.848	0.522
1123.000	646.845	79.995	19.994	103.137	20.184	0.823	0.541
1123.500	647.108	79.996	19.995	103.136	20.183	0.877	0.526
1124.000	647.351	79.995	19.995	103.136	20.183	0.882	0.515
1124.500	647.604	79.996	19.995	103.134	20.188	0.551	0.501
1125.000	647.839	79.995	19.995	103.134	20.187	0.647	0.492
1125.500	648.111	79.996	19.994	103.132	20.184	0.812	0.498
1126.000	648.359	79.996	19.995	103.130	20.185	0.741	0.514
1126.500	648.611	79.995	19.996	103.124	20.188	0.553	0.510
1127.000	648.852	79.995	19.994	103.122	20.187	0.661	0.496
1127.500	649.127	79.994	19.996	103.122	20.187	0.661	0.504
1128.000	649.366	79.993	19.996	103.124	20.185	0.779	0.515
1128.500	649.628	79.994	19.996	103.126	20.187	0.616	0.508
1129.000	649.861	79.995	19.995	103.133	20.185	0.743	0.498
1129.500	650.130	79.995	19.995	103.137	20.182	0.973	0.498
1130.000	650.396	79.994	19.996	103.138	20.181	1.034	0.518
1130.500	650.637	79.994	19.995	103.138	20.182	0.947	0.521
1131.000	650.880	79.994	19.996	103.138	20.182	0.955	0.496
1131.500	651.178	79.993	19.996	103.135	20.182	0.962	0.513
1132.000	651.441	79.994	19.996	103.135	20.180	1.102	0.551
1132.500	651.688	79.993	19.996	103.135	20.181	1.004	0.535
1133.000	651.904	79.992	19.995	103.132	20.181	1.035	0.487
1133.500	652.166	79.993	19.995	103.132	20.182	0.946	0.470
1134.000	652.378	79.992	19.995	103.135	20.183	0.871	0.475
1134.500	652.691	79.994	19.995	103.135	20.180	1.114	0.500
1135.000	652.912	79.992	19.995	103.131	20.183	0.886	0.530
1135.500	653.125	79.993	19.995	103.132	20.177	1.286	0.484
1136.000	653.435	79.994	19.995	103.132	20.177	1.301	0.479
1136.500	653.637	79.993	19.995	103.132	20.180	1.087	0.518
1137.000	653.907	79.993	19.995	103.129	20.181	1.065	0.492
1137.500	654.174	79.993	19.995	103.134	20.180	1.089	0.504
1138.000	654.393	79.994	19.996	103.137	20.180	1.134	0.511
1138.500	654.651	79.994	19.995	103.137	20.178	1.214	0.481
1139.000	654.933	79.993	19.995	103.137	20.182	0.944	0.508
1139.500	655.190	79.993	19.996	103.140	20.181	1.044	0.539
1140.000	655.431	79.993	19.995	103.138	20.183	0.893	0.519
1140.500	655.688	79.993	19.996	103.130	20.182	0.980	0.498
1141.000	655.967	79.993	19.995	103.124	20.186	0.721	0.517
1141.500	656.163	79.994	19.995	103.124	20.180	1.085	0.505
1142.000	656.460	79.994	19.995	103.125	20.184	0.813	0.484
1142.500	656.661	79.995	19.995	103.128	20.181	1.045	0.495
1143.001	656.892	79.993	19.994	103.134	20.184	0.844	0.465
1143.500	657.170	79.993	19.994	103.139	20.182	0.966	0.471
1144.000	657.390	79.994	19.995	103.135	20.184	0.848	0.503
1144.500	657.583	79.993	19.995	103.130	20.181	1.044	0.455
1145.000	657.926	79.994	19.994	103.129	20.181	1.015	0.474
1145.500	658.098	79.994	19.995	103.130	20.182	0.946	0.526
1146.000	658.379	79.994	19.995	103.131	20.181	1.056	0.484
1146.500	658.637	79.995	19.995	103.135	20.184	0.837	0.496
1147.000	658.880	79.993	19.994	103.138	20.181	1.026	0.520
1147.500	659.113	79.995	19.995	103.138	20.179	1.180	0.488
1148.000	659.382	79.994	19.994	103.138	20.181	1.049	0.489
1148.500	659.623	79.992	19.994	103.138	20.180	1.071	0.506
1149.000	659.847	79.993	19.996	103.138	20.182	0.964	0.488
1149.500	660.097	79.994	19.997	103.139	20.182	0.957	0.469
1150.000	660.335	79.994	19.995	103.138	20.181	1.009	0.481
1150.500	660.601	79.994	19.995	103.131	20.177	1.308	0.496
1151.000	660.848	79.994	19.996	103.125	20.179	1.143	0.508
1151.500	661.114	79.993	19.995	103.124	20.182	0.962	0.513
1152.000	661.342	79.994	19.996	103.124	20.183	0.910	0.504
1152.500	661.625	79.995	19.994	103.125	20.181	1.042	0.503
1153.000	661.874	79.994	19.996	103.131	20.182	0.989	0.522
1153.500	662.112	79.994	19.995	103.137	20.183	0.891	0.510
1154.000	662.364	79.993	19.995	103.138	20.181	1.067	0.489
1154.500	662.615	79.993	19.995	103.138	20.186	0.714	0.496
1155.000	662.913	79.994	19.995	103.138	20.181	1.007	0.525
1155.500	663.104	79.994	19.995	103.139	20.182	0.939	0.519
1156.000	663.388	79.992	19.996	103.137	20.183	0.928	0.482
1156.500	663.635	79.992	19.995	103.138	20.186	0.725	0.504
1157.000	663.860	79.993	19.995	103.138	20.184	0.806	0.501
1157.500	664.096	79.992	19.996	103.138	20.181	1.054	0.466
1158.000	664.396	79.992	19.996	103.141	20.182	0.978	0.499
1158.500	664.626	79.992	19.995	103.144	20.182	0.953	0.533
1159.000	664.851	79.993	19.996	103.144	20.187	0.672	0.492
1159.500	665.094	79.992	19.995	103.144	20.184	0.832	0.462
1160.000	665.361	79.993	19.996	103.143	20.182	0.984	0.489
1160.500	665.589	79.993	19.996	103.140	20.186	0.737	0.503
1161.000	665.869	79.993	19.996	103.140	20.186	0.723	0.502
1161.500	666.099	79.992	19.996	103.141	20.185	0.799	0.509
1162.000	666.376	79.993	19.995	103.141	20.184	0.839	0.508
1162.500	666.590	79.992	19.996	103.142	20.183	0.922	0.498
1163.000	666.835	79.992	19.995	103.142	20.188	0.572	0.474
1163.500	667.120	79.991	19.996	103.141	20.183	0.881	0.494
1164.000	667.361	79.992	19.996	103.140	20.185	0.754	0.528
1164.500	667.586	79.993	19.996	103.141	20.185	0.775	0.496
1165.000	667.871	79.993	19.995	103.140	20.181	1.004	0.488
1165.500	668.093	79.993	19.995	103.139	20.183	0.891	0.509
1166.000	668.375	79.991	19.995	103.139	20.182	0.973	0.506
1166.500	668.597	79.993	19.996	103.140	20.185	0.761	0.504
1167.000	668.850	79.993	19.995	103.139	20.182	0.942	0.489
1167.500	669.115	79.994	19.995	103.139	20.184	0.828	0.497
1168.000	669.346	79.993	19.995	103.136	20.184	0.852	0.507
1168.500	669.633	79.992	19.995	103.134	20.182	0.957	0.507
1169.000	669.882	79.993	19.996	103.134	20.183	0.906	0.527
1169.500	670.143	79.993	19.995	103.133	20.186	0.730	0.523
1170.000	670.395	79.992	19.995	103.134	20.185	0.804	0.511
1170.500	670.622	79.993	19.995	103.137	20.187	0.616	0.496
1171.000	670.914	79.992	19.996	103.140	20.182	0.946	0.499
1171.501	671.079	79.995	19.994	103.141	20.183	0.879	0.488
1172.000	671.372	79.993	19.996	103.142	20.184	0.861	0.458
1172.500	671.678	79.995	19.995	103.140	20.184	0.833	0.529
1173.000	671.939	79.994	19.995	103.135	20.181	1.020	0.583
1173.500	672.160	79.993	19.995	103.131	20.182	0.957	0.524
1174.000	672.373	79.994	19.996	103.129	20.183	0.872	0.458
1174.500	672.665	79.994	19.995	103.131	20.185	0.779	0.469
1175.000	672.948	79.994	19.995	103.134	20.183	0.928	0.540
1175.500	673.202	79.994	19.996	103.138	20.185	0.801	0.556
1176.000	673.448	79.994	19.997	103.141	20.183	0.917	0.519
1176.500	673.737	79.994	19.995	103.142	20.187	0.654	0.517
1177.000	674.002	79.995	19.995	103.141	20.183	0.891	0.545
1177.500	674.232	79.995	19.996	103.141	20.182	0.942	0.525
1178.000	674.490	79.995	19.994	103.142	20.185	0.790	0.491
1178.500	674.763	79.995	19.994	103.142	20.186	0.721	0.509
1179.000	675.028	79.994	19.995	103.143	20.183	0.902	0.535
1179.500	675.236	79.994	19.994	103.142	20.183	0.915	0.506
1180.000	675.515	79.995	19.993	103.139	20.183	0.915	0.480
1180.500	675.772	79.995	19.995	103.138	20.183	0.917	0.511
1181.000	675.986	79.994	19.996	103.137	20.183	0.897	0.503
1181.500	676.318	79.994	19.996	103.137	20.184	0.855	0.509
1182.000	676.504	79.994	19.996	103.138	20.186	0.737	0.532
1182.500	676.802	79.995	19.996	103.140	20.184	0.846	0.501
1183.000	677.041	79.995	19.996	103.140	20.183	0.917	0.510
1183.500	677.326	79.994	19.996	103.140	20.185	0.748	0.530
1184.000	677.549	79.994	19.996	103.139	20.185	0.801	0.516
1184.500	677.812	79.994	19.996	103.139	20.186	0.710	0.497
1185.000	678.072	79.995	19.996	103.140	20.184	0.868	0.504
1185.500	678.284	79.994	19.996	103.139	20.186	0.712	0.498
1186.000	678.565	79.994	19.996	103.139	20.185	0.756	0.483
1186.500	678.800	79.995	19.997	103.140	20.185	0.788	0.504
1187.000	679.015	79.994	19.996	103.139	20.188	0.569	0.483
1187.500	679.262	79.994	19.996	103.137	20.189	0.540	0.456
1188.000	679.526	79.994	19.997	103.137	20.186	0.737	0.486
1188.500	679.780	79.995	19.996	103.137	20.188	0.580	0.514
1189.000	680.001	79.994	19.997	103.136	20.184	0.866	0.497
1189.500	680.258	79.993	19.995	103.136	20.185	0.752	0.477
1190.000	680.553	79.994	19.997	103.136	20.187	0.672	0.515
1190.500	680.748	79.994	19.996	103.136	20.184	0.866	0.521
1191.000	681.017	79.993	19.996	103.136	20.184	0.810	0.477
1191.500	681.228	79.994	19.996	103.132	20.185	0.786	0.472
1192.000	681.509	79.995	19.995	103.132	20.190	0.455	0.486
1192.500	681.764	79.992	19.995	103.131	20.185	0.774	0.515
1193.000	681.995	79.994	19.996	103.131	20.186	0.678	0.511
1193.500	682.195	79.993	19.996	103.132	20.183	0.881	0.458
1194.000	682.481	79.994	19.996	103.135	20.188	0.554	0.459
1194.500	682.712	79.994	19.996	103.131	20.188	0.596	0.501
1195.000	682.942	79.994	19.995	103.132	20.184	0.835	0.489
1195.500	683.170	79.994	19.995	103.132	20.183	0.913	0.460
1196.000	683.445	79.995	19.996	103.132	20.186	0.692	0.481
1196.500	683.675	79.995	19.994	103.134	20.182	0.955	0.504
1197.000	683.924	79.997	19.995	103.137	20.184	0.830	0.492
1197.500	684.138	79.996	19.994	103.135	20.184	0.864	0.470
1198.000	684.355	79.995	19.996	103.134	20.182	0.951	0.447
1198.500	684.634	79.996	19.994	103.128	20.181	1.025	0.464
1199.000	684.865	79.996	19.995	103.126	20.181	1.038	0.503
1199.500	685.070	79.995	19.994	103.126	20.183	0.888	0.473
1200.000	685.341	79.996	19.994	103.128	20.181	1.034	0.456
1200.500	685.639	79.995	19.995	103.128	20.181	1.043	0.522
1201.000	685.824	79.996	19.996	103.130	20.183	0.899	0.525
1201.500	686.069	79.997	19.995	103.130	20.183	0.884	0.457
1202.000	686.270	79.995	19.995	103.130	20.182	0.982	0.439
1202.500	686.522	79.997	19.994	103.130	20.182	0.944	0.450
1203.000	686.759	79.997	19.995	103.131	20.180	1.123	0.470
1203.500	686.984	79.996	19.995	103.136	20.183	0.899	0.475
1204.000	687.173	79.996	19.995	103.137	20.183	0.937	0.438
1204.500	687.407	79.995	19.995	103.138	20.181	1.049	0.418
1205.001	687.665	79.996	19.995	103.139	20.184	0.870	0.457
1205.501	687.937	79.997	19.994	103.139	20.181	1.016	0.511
1206.001	688.178	79.996	19.994	103.138	20.182	0.969	0.522
1206.500	688.421	79.998	19.996	103.137	20.180	1.071	0.498
1207.000	688.640	79.995	19.995	103.133	20.184	0.823	0.472
1207.500	688.851	79.997	19.995	103.132	20.182	0.984	0.446
1208.000	689.102	79.996	19.996	103.131	20.185	0.779	0.446
1208.500	689.342	79.997	19.995	103.126	20.184	0.866	0.477
1209.000	689.575	79.995	19.995	103.122	20.183	0.937	0.483
1209.500	689.799	79.997	19.995	103.123	20.185	0.790	0.465
1210.000	690.039	79.993	19.995	103.120	20.184	0.857	0.460
1210.500	690.252	79.994	19.996	103.115	20.182	0.949	0.459
1211.000	690.494	79.995	19.996	103.119	20.181	1.004	0.454
1211.500	690.691	79.994	19.995	103.124	20.184	0.855	0.447
1212.001	690.974	79.993	19.995	103.126	20.183	0.928	0.459
1212.500	691.170	79.994	19.995	103.132	20.183	0.924	0.480
1213.000	691.423	79.993	19.996	103.138	20.181	1.035	0.464
1213.500	691.618	79.992	19.995	103.140	20.183	0.910	0.448
1214.000	691.870	79.994	19.996	103.139	20.180	1.129	0.447
1214.500	692.084	79.993	19.996	103.138	20.185	0.785	0.457
1215.000	692.299	79.992	19.995	103.136	20.182	0.969	0.448
1215.500	692.539	79.993	19.997	103.136	20.183	0.901	0.442
1216.000	692.788	79.992	19.996	103.136	20.185	0.750	0.472
1216.500	693.006	79.994	19.997	103.137	20.181	1.017	0.478
1217.000	693.264	79.994	19.996	103.137	20.184	0.828	0.471
1217.500	693.483	79.994	19.997	103.141	20.184	0.806	0.476
1218.000	693.783	79.992	19.997	103.142	20.184	0.845	0.498
1218.500	693.959	79.993	19.996	103.142	20.184	0.839	0.498
1219.001	694.225	79.992	19.995	103.142	20.185	0.781	0.459
1219.501	694.418	79.994	19.996	103.143	20.186	0.732	0.450
1220.000	694.677	79.993	19.996	103.141	20.184	0.841	0.456
1220.501	694.898	79.993	19.996	103.137	20.187	0.638	0.466
1221.000	695.156	79.993	19.995	103.135	20.185	0.799	0.480
1221.500	695.384	79.994	19.996	103.136	20.184	0.841	0.482
1222.000	695.622	79.993	19.996	103.135	20.186	0.734	0.476
1222.500	695.896	79.993	19.996	103.136	20.185	0.805	0.489
1223.000	696.114	79.994	19.995	103.139	20.184	0.853	0.502
1223.500	696.381	79.994	19.995	103.141	20.183	0.873	0.489
1224.000	696.614	79.993	19.995	103.142	20.187	0.652	0.493
1224.500	696.860	79.994	19.994	103.144	20.182	1.000	0.490
1225.000	697.076	79.994	19.995	103.144	20.180	1.116	0.470
1225.500	697.358	79.992	19.995	103.144	20.179	1.136	0.480
1226.000	697.600	79.994	19.994	103.143	20.180	1.091	0.511
1226.500	697.842	79.993	19.994	103.143	20.180	1.073	0.504
1227.000	698.071	79.994	19.994	103.142	20.182	1.000	0.478
1227.500	698.339	79.995	19.995	103.149	20.183	0.911	0.484
1228.000	698.595	79.993	19.995	103.156	20.182	0.966	0.510
1228.500	698.867	79.993	19.995	103.163	20.182	0.980	0.526
1229.000	699.081	79.994	19.995	103.170	20.184	0.870	0.507
1229.500	699.320	79.993	19.995	103.174	20.181	1.026	0.469
1230.000	699.601	79.994	19.996	103.169	20.184	0.834	0.487
1230.501	699.855	79.994	19.995	103.168	20.183	0.895	0.528
1231.000	700.120	79.994	19.995	103.161	20.181	1.056	0.526
1231.500	700.397	79.993	19.996	103.155	20.180	1.105	0.530
1232.000	700.636	79.995	19.994	103.150	20.181	1.056	0.529
1232.500	700.903	79.994	19.995	103.151	20.184	0.866	0.512
1233.000	701.175	79.995	19.995	103.149	20.183	0.911	0.523
1233.500	701.434	79.995	19.995	103.151	20.183	0.897	0.535
1234.000	701.714	79.995	19.995	103.151	20.180	1.071	0.535
1234.500	701.909	79.995	19.995	103.151	20.180	1.087	0.507
1235.000	702.179	79.994	19.995	103.147	20.181	1.036	0.470
1235.500	702.461	79.995	19.994	103.144	20.183	0.913	0.509
1236.000	702.721	79.994	19.995	103.141	20.182	0.982	0.547
1236.500	702.962	79.994	19.995	103.141	20.182	0.953	0.521
1237.000	703.254	79.995	19.995	103.141	20.183	0.919	0.516
1237.500	703.495	79.994	19.995	103.141	20.180	1.078	0.533
1238.000	703.782	79.994	19.995	103.142	20.181	1.024	0.531
1238.500	704.037	79.993	19.995	103.143	20.182	1.000	0.535
1239.000	704.245	79.993	19.995	103.143	20.182	0.995	0.502
1239.500	704.517	79.993	19.995	103.144	20.184	0.852	0.471
1240.000	704.815	79.993	19.995	103.144	20.185	0.766	0.525
1240.500	705.059	79.993	19.995	103.146	20.184	0.862	0.556
1241.000	705.313	79.993	19.995	103.145	20.184	0.810	0.520
1241.500	705.616	79.994	19.995	103.145	20.184	0.855	0.527
1242.000	705.867	79.992	19.995	103.145	20.187	0.658	0.555
1242.500	706.114	79.993	19.995	103.144	20.188	0.576	0.526
1243.000	706.372	79.991	19.995	103.143	20.183	0.922	0.502
1243.500	706.619	79.992	19.994	103.144	20.187	0.650	0.505
1244.000	706.880	79.994	19.995	103.143	20.184	0.839	0.506
1244.500	707.138	79.992	19.996	103.144	20.184	0.859	0.513
1245.000	707.422	79.993	19.995	103.144	20.186	0.712	0.530
1245.500	707.647	79.991	19.995	103.145	20.185	0.754	0.525
1246.000	707.915	79.993	19.995	103.144	20.185	0.774	0.501
1246.500	708.187	79.992	19.995	103.145	20.183	0.872	0.517
1247.000	708.432	79.992	19.995	103.145	20.185	0.757	0.529
1247.500	708.675	79.993	19.996	103.144	20.186	0.725	0.502
1248.000	708.903	79.994	19.996	103.143	20.182	0.991	0.479
1248.500	709.181	79.993	19.996	103.143	20.187	0.652	0.488
1249.000	709.403	79.992	19.997	103.143	20.186	0.708	0.503
1249.500	709.664	79.993	19.997	103.142	20.184	0.819	0.491
1250.000	709.894	79.993	19.996	103.142	20.186	0.681	0.487
1250.500	710.199	79.993	19.995	103.142	20.186	0.714	0.513
1251.000	710.433	79.996	19.995	103.141	20.184	0.835	0.537
1251.500	710.668	79.996	19.996	103.138	20.185	0.779	0.504
1252.000	710.933	79.996	19.997	103.138	20.185	0.746	0.484
1252.500	711.178	79.994	19.997	103.137	20.184	0.850	0.505
1253.000	711.451	79.994	19.996	103.135	20.187	0.647	0.514
1253.500	711.701	79.995	19.996	103.135	20.184	0.823	0.521
1254.000	711.933	79.995	19.995	103.136	20.184	0.835	0.502
1254.500	712.224	79.995	19.996	103.137	20.183	0.917	0.503
1255.000	712.444	79.996	19.996	103.138	20.183	0.871	0.517
1255.500	712.725	79.995	19.995	103.139	20.187	0.672	0.506
1256.000	712.966	79.995	19.996	103.141	20.182	0.995	0.511
1256.500	713.203	79.995	19.996	103.141	20.185	0.792	0.500
1257.000	713.478	79.996	19.995	103.141	20.185	0.741	0.495
1257.500	713.719	79.995	19.995	103.141	20.183	0.893	0.514
1258.000	713.994	79.995	19.996	103.140	20.183	0.928	0.516
1258.500	714.225	79.996	19.995	103.139	20.181	1.038	0.511
1259.000	714.518	79.995	19.996	103.138	20.183	0.911	0.515
1259.500	714.763	79.994	19.995	103.138	20.184	0.837	0.531
1260.000	715.020	79.995	19.995	103.138	20.183	0.924	0.520
1260.500	715.307	79.996	19.995	103.138	20.184	0.835	0.524
1261.000	715.558	79.995	19.995	103.139	20.183	0.890	0.541
1261.500	715.825	79.994	19.996	103.140	20.184	0.848	0.527
1262.000	716.110	79.996	19.995	103.139	20.186	0.698	0.535
1262.500	716.331	79.996	19.996	103.139	20.186	0.732	0.529
1263.000	716.574	79.995	19.995	103.138	20.184	0.815	0.485
1263.500	716.863	79.996	19.996	103.137	20.184	0.841	0.498
1264.000	717.125	79.996	19.997	103.137	20.185	0.768	0.542
1264.500	717.400	79.996	19.996	103.137	20.186	0.694	0.544
1265.000	717.640	79.995	19.995	103.137	20.184	0.817	0.525
1265.500	717.925	79.996	19.995	103.137	20.186	0.679	0.519
1266.000	718.142	79.994	19.996	103.136	20.183	0.906	0.514
1266.500	718.406	79.995	19.996	103.137	20.184	0.844	0.492
1267.000	718.688	79.994	19.996	103.137	20.183	0.888	0.513
1267.500	718.966	79.994	19.995	103.138	20.185	0.795	0.553
1268.000	719.238	79.994	19.996	103.138	20.184	0.817	0.555
1268.500	719.466	79.994	19.995	103.138	20.185	0.779	0.525
1269.000	719.771	79.994	19.995	103.137	20.181	1.018	0.516
1269.500	720.027	79.993	19.996	103.137	20.184	0.870	0.547
1270.000	720.265	79.996	19.996	103.137	20.183	0.899	0.528
1270.500	720.540	79.995	19.996	103.137	20.183	0.875	0.503
1271.000	720.802	79.995	19.996	103.136	20.181	1.004	0.525
1271.500	721.045	79.995	19.996	103.136	20.182	0.966	0.521
1272.000	721.315	79.995	19.997	103.136	20.183	0.899	0.509
1272.500	721.604	79.995	19.996	103.136	20.181	1.044	0.536
1273.001	721.851	79.996	19.996	103.136	20.184	0.857	0.548
1273.500	722.125	79.994	19.996	103.138	20.184	0.823	0.528
1274.000	722.380	79.995	19.997	103.139	20.183	0.893	0.525
1274.500	722.646	79.995	19.996	103.139	20.183	0.924	0.525
1275.001	722.916	79.994	19.996	103.141	20.181	1.065	0.529
1275.501	723.159	79.994	19.996	103.146	20.182	0.984	0.524
1276.000	723.432	79.993	19.996	103.146	20.182	0.986	0.514
1276.500	723.663	79.994	19.997	103.145	20.181	1.036	0.509
1277.000	723.954	79.996	19.996	103.145	20.181	1.058	0.513
1277.500	724.220	79.995	19.996	103.142	20.183	0.911	0.540
1278.000	724.492	79.995	19.996	103.137	20.183	0.920	0.548
1278.500	724.742	79.996	19.996	103.135	20.185	0.785	0.530
1279.000	725.010	79.995	19.997	103.135	20.182	0.973	0.520
1279.500	725.222	79.996	19.996	103.135	20.180	1.093	0.499
1280.000	725.514	79.995	19.996	103.137	20.183	0.906	0.492
1280.500	725.758	79.995	19.995	103.137	20.182	0.988	0.520
1281.000	726.038	79.996	19.996	103.138	20.176	1.334	0.530
1281.500	726.272	79.997	19.996	103.138	20.179	1.174	0.519
1282.000	726.544	79.995	19.995	103.137	20.180	1.098	0.510
1282.500	726.765	79.996	19.996	103.136	20.178	1.210	0.500
1283.000	727.061	79.997	19.995	103.136	20.179	1.158	0.505
1283.500	727.293	79.996	19.995	103.133	20.179	1.161	0.522
1284.000	727.528	79.997	19.996	103.133	20.177	1.279	0.498
1284.500	727.843	79.996	19.995	103.133	20.176	1.363	0.509
1285.000	728.064	79.995	19.996	103.134	20.184	0.843	0.543
1285.500	728.350	79.997	19.995	103.135	20.181	1.040	0.522
1286.000	728.579	79.996	19.995	103.139	20.182	0.955	0.511
1286.500	728.840	79.996	19.995	103.140	20.178	1.203	0.502
1287.000	729.068	79.997	19.995	103.140	20.182	0.978	0.489
1287.500	729.372	79.995	19.994	103.141	20.178	1.234	0.510
1288.000	729.615	79.995	19.996	103.140	20.178	1.201	0.540
1288.500	729.866	79.995	19.995	103.139	20.179	1.163	0.521
1289.000	730.108	79.994	19.995	103.139	20.179	1.171	0.494
1289.500	730.358	79.996	19.995	103.138	20.179	1.152	0.493
1290.000	730.645	79.995	19.995	103.138	20.180	1.076	0.514
1290.500	730.897	79.994	19.995	103.140	20.178	1.209	0.538
1291.000	731.180	79.994	19.995	103.143	20.180	1.098	0.537
1291.500	731.408	79.994	19.996	103.144	20.179	1.189	0.523
1292.000	731.704	79.992	19.995	103.145	20.180	1.129	0.518
1292.500	731.916	79.995	19.995	103.145	20.183	0.899	0.515
1293.000	732.187	79.994	19.996	103.144	20.179	1.191	0.495
1293.500	732.456	79.994	19.995	103.141	20.182	0.991	0.512
1294.000	732.734	79.994	19.996	103.141	20.178	1.229	0.543
1294.500	732.963	79.994	19.995	103.140	20.181	1.055	0.527
1295.000	733.213	79.994	19.996	103.140	20.178	1.252	0.493
1295.500	733.491	79.993	19.994	103.140	20.182	0.966	0.504
1296.000	733.752	79.993	19.995	103.140	20.177	1.287	0.534
1296.500	734.003	79.993	19.994	103.139	20.178	1.245	0.525
1297.000	734.255	79.994	19.995	103.140	20.180	1.120	0.508
1297.500	734.483	79.993	19.995	103.140	20.179	1.189	0.492
1298.000	734.800	79.994	19.995	103.142	20.177	1.268	0.513
1298.500	735.044	79.994	19.995	103.142	20.183	0.882	0.553
1299.000	735.311	79.992	19.995	103.143	20.179	1.194	0.536
1299.500	735.573	79.994	19.994	103.143	20.184	0.868	0.520
1300.000	735.825	79.993	19.996	103.143	20.180	1.082	0.522
1300.500	736.105	79.993	19.994	103.141	20.178	1.241	0.523
1301.000	736.330	79.994	19.995	103.141	20.183	0.895	0.518
1301.500	736.597	79.993	19.995	103.143	20.183	0.935	0.498
1302.000	736.845	79.994	19.995	103.144	20.183	0.906	0.504
1302.500	737.113	79.993	19.996	103.144	20.184	0.839	0.515
1303.000	737.361	79.994	19.995	103.145	20.182	0.988	0.515
1303.500	737.665	79.995	19.995	103.149	20.180	1.076	0.534
1304.000	737.955	79.993	19.995	103.147	20.183	0.888	0.574
1304.500	738.199	79.994	19.996	103.144	20.183	0.911	0.564
1305.000	738.451	79.993	19.995	103.143	20.183	0.884	0.515
1305.500	738.695	79.993	19.996	103.144	20.183	0.931	0.495
1306.000	739.048	79.994	19.995	103.141	20.179	1.170	0.546
1306.500	739.276	79.993	19.995	103.141	20.182	0.971	0.589
1307.000	739.521	79.994	19.994	103.145	20.180	1.082	0.527
1307.500	739.798	79.995	19.995	103.145	20.180	1.073	0.498
1308.000	740.050	79.995	19.996	103.145	20.179	1.194	0.525
1308.500	740.298	79.993	19.995	103.144	20.178	1.236	0.514
1309.000	740.630	79.993	19.995	103.143	20.180	1.112	0.540
1309.500	740.860	79.995	19.994	103.143	20.180	1.120	0.571
1310.000	741.123	79.993	19.995	103.145	20.181	1.015	0.528
1310.500	741.400	79.994	19.995	103.146	20.181	1.055	0.517
1311.000	741.620	79.993	19.995	103.148	20.178	1.266	0.518
1311.500	741.919	79.992	19.996	103.149	20.177	1.328	0.508
1312.000	742.226	79.993	19.995	103.149	20.180	1.082	0.562
1312.500	742.476	79.995	19.996	103.147	20.180	1.080	0.581
1313.000	742.731	79.994	19.995	103.145	20.179	1.143	0.531
1313.500	743.020	79.994	19.995	103.143	20.179	1.196	0.524
1314.000	743.264	79.994	19.996	103.143	20.181	1.038	0.538
