Sample ID:	C:\MCC\MCC Cal\Test\LatexPillow_C_Foam_MCC_30K_min_211213_R2.txt
Sample Weight (mg):	4.57
Heating Rate (C/s):	0.5
Combustor Temp (C):	900
N2 Flow Rate (cc/min):	80
O2 Flow Rate (cc/min):	20
Calibration File:	C:\MCC\MCC Cal\Coeff1 JN10440_30_210304.txt.txt
T Correction Coefficients:	0	1.024463	0
Time Shift (s):	14
*
Time (s)	Temperature (C)	N2 flow rate (cc/min)	O2 flow rate (cc/min)	Flow Rate (cc/min)	Oxygen (%)	HRR (W/g)	Heating rate (C/s)
0.000	109.017	80.006	19.997	103.020	20.327	-0.163	0.000
0.500	109.026	80.005	19.997	103.020	20.329	-0.324	-0.014
1.000	109.025	80.006	19.996	103.019	20.327	-0.169	-0.004
1.500	109.043	80.005	19.996	103.018	20.324	0.025	0.013
2.000	109.023	80.006	19.996	103.015	20.326	-0.129	0.008
2.500	109.042	80.005	19.997	103.014	20.326	-0.100	-0.002
3.000	109.003	80.005	19.997	103.018	20.326	-0.131	-0.011
3.500	109.026	80.005	19.996	103.023	20.324	0.027	-0.018
4.000	109.039	80.006	19.996	103.030	20.326	-0.079	0.010
4.500	109.032	80.005	19.996	103.036	20.326	-0.077	0.021
5.000	108.994	80.006	19.996	103.040	20.322	0.161	-0.019
5.500	109.059	80.005	19.996	103.040	20.325	0.000	-0.009
6.000	109.053	80.005	19.996	103.038	20.323	0.083	0.043
6.500	109.068	80.005	19.996	103.035	20.321	0.215	0.034
7.000	109.064	80.006	19.996	103.037	20.321	0.238	0.010
7.500	109.079	80.004	19.996	103.038	20.326	-0.088	0.011
8.000	109.074	80.006	19.996	103.038	20.324	0.017	0.011
8.500	109.063	80.005	19.995	103.041	20.320	0.307	-0.003
9.001	109.068	80.006	19.996	103.045	20.324	0.036	-0.011
9.501	109.057	80.006	19.995	103.047	20.322	0.198	-0.006
10.001	109.066	80.005	19.995	103.050	20.321	0.269	-0.004
10.500	109.031	80.006	19.995	103.060	20.315	0.643	-0.014
11.000	109.117	80.005	19.995	103.068	20.315	0.684	0.013
11.500	109.057	80.006	19.995	103.078	20.314	0.738	0.039
12.000	109.086	80.007	19.995	103.091	20.314	0.736	-0.003
12.500	109.115	80.006	19.996	103.105	20.316	0.567	0.014
13.000	109.108	80.007	19.995	103.114	20.309	1.122	0.040
13.500	109.128	80.006	19.994	103.122	20.315	0.655	0.017
14.000	109.147	80.009	19.995	103.128	20.313	0.797	0.026
14.500	109.142	80.007	19.994	103.130	20.309	1.063	0.026
15.001	109.149	80.007	19.994	103.129	20.310	1.020	0.008
15.501	109.180	80.008	19.994	103.123	20.309	1.111	0.020
16.001	109.211	80.008	19.994	103.116	20.311	0.978	0.050
16.501	109.226	80.007	19.993	103.113	20.307	1.259	0.054
17.000	109.229	80.006	19.995	103.113	20.308	1.140	0.032
17.500	109.234	80.007	19.994	103.114	20.308	1.146	0.013
18.000	109.308	80.006	19.994	103.119	20.310	1.032	0.043
18.500	109.324	80.007	19.994	103.122	20.309	1.065	0.084
19.000	109.325	80.007	19.995	103.123	20.307	1.215	0.054
19.500	109.362	80.007	19.994	103.123	20.303	1.488	0.028
20.000	109.364	80.007	19.993	103.126	20.304	1.434	0.039
20.500	109.387	80.008	19.992	103.126	20.303	1.508	0.032
21.000	109.390	80.007	19.995	103.134	20.302	1.598	0.025
21.500	109.466	80.008	19.994	103.139	20.301	1.627	0.053
22.000	109.492	80.007	19.994	103.146	20.301	1.648	0.091
22.500	109.511	80.007	19.995	103.153	20.302	1.595	0.073
23.000	109.578	80.008	19.994	103.164	20.300	1.761	0.066
23.500	109.596	80.007	19.996	103.173	20.297	1.959	0.086
24.000	109.656	80.007	19.995	103.184	20.298	1.869	0.081
24.500	109.653	80.007	19.994	103.187	20.297	1.919	0.067
25.000	109.719	80.006	19.994	103.190	20.296	1.985	0.060
25.500	109.759	80.006	19.995	103.194	20.295	2.086	0.084
26.000	109.809	80.005	19.995	103.198	20.292	2.303	0.098
26.500	109.846	80.007	19.995	103.200	20.291	2.384	0.089
27.000	109.925	80.006	19.994	103.206	20.290	2.415	0.101
27.500	109.945	80.008	19.995	103.212	20.293	2.194	0.107
28.000	110.019	80.006	19.995	103.217	20.289	2.528	0.097
28.500	110.047	80.004	19.994	103.218	20.290	2.444	0.098
29.000	110.123	80.005	19.994	103.219	20.290	2.409	0.103
29.500	110.199	80.006	19.994	103.221	20.288	2.553	0.128
30.000	110.228	80.006	19.993	103.225	20.283	2.940	0.128
30.500	110.310	80.006	19.994	103.212	20.282	2.982	0.107
31.000	110.375	80.004	19.994	103.196	20.285	2.776	0.129
31.500	110.466	80.005	19.995	103.178	20.284	2.838	0.152
32.000	110.499	80.004	19.994	103.169	20.282	3.030	0.140
32.500	110.591	80.004	19.996	103.155	20.282	2.965	0.124
33.000	110.647	80.004	19.994	103.163	20.285	2.818	0.136
33.500	110.705	80.005	19.995	103.180	20.287	2.667	0.131
34.000	110.768	80.004	19.995	103.225	20.285	2.815	0.117
34.501	110.865	80.004	19.994	103.257	20.283	2.909	0.140
35.001	110.949	80.004	19.995	103.274	20.283	2.936	0.171
35.500	111.000	80.004	19.994	103.281	20.281	3.045	0.158
36.000	111.091	80.005	19.995	103.288	20.281	3.062	0.139
36.500	111.183	80.004	19.994	103.265	20.283	2.901	0.162
37.000	111.264	80.005	19.995	103.249	20.283	2.947	0.178
37.500	111.340	80.004	19.994	103.245	20.281	3.084	0.165
38.000	111.438	80.005	19.994	103.247	20.282	2.976	0.166
38.500	111.552	80.004	19.994	103.245	20.282	3.028	0.193
39.000	111.662	80.004	19.994	103.245	20.279	3.186	0.218
39.500	111.778	80.003	19.995	103.246	20.284	2.882	0.225
40.000	111.815	80.003	19.997	103.249	20.279	3.201	0.190
40.501	111.905	80.004	19.996	103.250	20.280	3.153	0.140
41.001	111.991	80.004	19.995	103.253	20.279	3.186	0.152
41.500	112.089	80.005	19.994	103.251	20.278	3.288	0.181
42.000	112.203	80.005	19.996	103.250	20.280	3.109	0.198
42.500	112.293	80.005	19.994	103.246	20.281	3.034	0.208
43.000	112.390	80.004	19.995	103.244	20.278	3.245	0.196
43.500	112.509	80.005	19.994	103.243	20.281	3.057	0.202
44.000	112.583	80.005	19.995	103.246	20.283	2.919	0.204
44.500	112.670	80.006	19.994	103.246	20.281	3.055	0.177
45.000	112.800	80.004	19.995	103.245	20.280	3.107	0.189
45.500	112.909	80.004	19.994	103.245	20.279	3.188	0.228
46.000	113.048	80.006	19.994	103.245	20.280	3.163	0.243
46.500	113.138	80.005	19.996	103.242	20.279	3.226	0.239
47.000	113.252	80.004	19.994	103.241	20.279	3.178	0.216
47.500	113.340	80.005	19.993	103.241	20.281	3.040	0.203
48.000	113.455	80.005	19.993	103.241	20.280	3.103	0.203
48.500	113.575	80.007	19.994	103.240	20.276	3.436	0.219
49.000	113.678	80.004	19.993	103.242	20.276	3.412	0.229
49.500	113.791	80.005	19.994	103.243	20.278	3.297	0.220
50.000	113.916	80.004	19.994	103.245	20.278	3.266	0.227
50.500	114.084	80.004	19.994	103.247	20.278	3.293	0.265
51.000	114.163	80.005	19.994	103.249	20.279	3.238	0.270
51.500	114.285	80.005	19.993	103.248	20.277	3.380	0.224
52.000	114.408	80.005	19.994	103.248	20.276	3.411	0.223
52.500	114.523	80.005	19.993	103.248	20.277	3.374	0.242
53.000	114.650	80.005	19.994	103.247	20.275	3.476	0.240
53.501	114.827	80.005	19.995	103.247	20.275	3.497	0.273
54.001	114.934	80.004	19.994	103.248	20.275	3.484	0.294
54.500	115.047	80.005	19.995	103.248	20.275	3.511	0.252
55.000	115.166	80.005	19.993	103.248	20.272	3.706	0.226
55.500	115.301	80.005	19.993	103.249	20.273	3.662	0.243
56.000	115.426	80.005	19.994	103.249	20.277	3.342	0.257
56.500	115.532	80.005	19.994	103.249	20.277	3.379	0.245
57.000	115.695	80.005	19.994	103.248	20.275	3.456	0.250
57.500	115.813	80.003	19.996	103.248	20.278	3.271	0.275
58.000	115.950	80.004	19.995	103.247	20.276	3.441	0.268
58.501	116.088	80.004	19.995	103.245	20.274	3.550	0.265
59.001	116.226	80.005	19.995	103.245	20.274	3.529	0.276
59.500	116.361	80.004	19.995	103.244	20.277	3.383	0.275
60.000	116.512	80.003	19.994	103.242	20.272	3.672	0.280
60.500	116.634	80.004	19.994	103.243	20.273	3.616	0.279
61.000	116.786	80.004	19.995	103.245	20.271	3.758	0.273
61.501	116.905	80.004	19.995	103.245	20.272	3.702	0.272
62.001	117.060	80.006	19.994	103.247	20.274	3.533	0.272
62.500	117.206	80.004	19.994	103.248	20.271	3.739	0.287
63.000	117.323	80.005	19.996	103.249	20.272	3.729	0.282
63.500	117.480	80.004	19.995	103.251	20.270	3.835	0.269
64.000	117.609	80.004	19.994	103.252	20.272	3.691	0.281
64.500	117.774	80.004	19.995	103.256	20.272	3.714	0.290
65.000	117.915	80.005	19.994	103.260	20.269	3.895	0.300
65.500	118.063	80.006	19.994	103.267	20.271	3.802	0.298
66.000	118.232	80.005	19.995	103.271	20.269	3.937	0.303
66.500	118.376	80.005	19.995	103.276	20.269	3.906	0.315
67.000	118.549	80.004	19.996	103.279	20.267	4.026	0.315
67.500	118.691	80.006	19.997	103.283	20.267	4.077	0.316
68.000	118.821	80.005	19.996	103.282	20.268	3.951	0.294
68.500	118.954	80.004	19.996	103.284	20.270	3.877	0.268
69.000	119.140	80.005	19.994	103.286	20.265	4.177	0.291
69.501	119.280	80.005	19.996	103.286	20.268	3.977	0.322
70.001	119.428	80.006	19.995	103.285	20.269	3.941	0.307
70.500	119.665	80.006	19.994	103.286	20.266	4.110	0.337
71.000	119.811	80.006	19.994	103.286	20.267	4.062	0.384
71.500	119.965	80.006	19.995	103.286	20.268	4.020	0.341
72.000	120.142	80.005	19.996	103.286	20.264	4.264	0.315
72.500	120.320	80.006	19.994	103.287	20.266	4.145	0.343
73.000	120.489	80.005	19.996	103.286	20.268	3.974	0.351
73.500	120.585	80.005	19.995	103.285	20.268	3.979	0.306
74.000	120.770	80.005	19.994	103.285	20.268	4.016	0.273
74.500	120.955	80.006	19.995	103.285	20.267	4.026	0.325
75.000	121.135	80.006	19.996	103.285	20.268	3.979	0.368
75.500	121.291	80.008	19.995	103.286	20.268	4.001	0.351
76.000	121.507	80.007	19.995	103.287	20.268	4.012	0.354
76.500	121.694	80.005	19.995	103.287	20.266	4.129	0.388
77.000	121.860	80.007	19.996	103.287	20.266	4.095	0.378
77.501	122.032	80.006	19.995	103.287	20.266	4.108	0.345
78.001	122.193	80.006	19.995	103.287	20.263	4.337	0.335
78.500	122.383	80.007	19.994	103.287	20.261	4.445	0.342
79.000	122.559	80.007	19.995	103.287	20.265	4.214	0.358
79.500	122.710	80.007	19.994	103.287	20.269	3.935	0.347
80.000	122.936	80.007	19.995	103.287	20.264	4.239	0.352
80.501	123.094	80.006	19.995	103.287	20.261	4.501	0.381
81.001	123.283	80.006	19.994	103.287	20.262	4.376	0.366
81.500	123.459	80.006	19.995	103.285	20.264	4.260	0.356
82.000	123.653	80.007	19.994	103.286	20.265	4.170	0.367
82.500	123.835	80.006	19.994	103.286	20.265	4.166	0.373
83.001	124.014	80.006	19.995	103.286	20.263	4.347	0.369
83.501	124.238	80.006	19.995	103.286	20.262	4.414	0.382
84.000	124.422	80.007	19.995	103.288	20.264	4.299	0.406
84.500	124.583	80.007	19.995	103.288	20.263	4.322	0.376
85.000	124.782	80.005	19.994	103.287	20.261	4.453	0.353
85.500	124.987	80.006	19.994	103.288	20.262	4.435	0.382
86.000	125.169	80.004	19.994	103.288	20.262	4.429	0.395
86.500	125.405	80.005	19.995	103.288	20.263	4.343	0.403
87.000	125.566	80.006	19.995	103.288	20.263	4.314	0.407
87.500	125.780	80.004	19.995	103.288	20.264	4.260	0.385
88.000	125.988	80.005	19.995	103.288	20.264	4.249	0.398
88.500	126.186	80.005	19.996	103.289	20.262	4.410	0.414
89.000	126.351	80.005	19.996	103.290	20.264	4.266	0.385
89.500	126.560	80.006	19.995	103.290	20.266	4.160	0.368
90.000	126.787	80.005	19.994	103.291	20.264	4.283	0.405
90.500	126.982	80.004	19.995	103.292	20.265	4.210	0.429
91.000	127.195	80.006	19.995	103.291	20.265	4.231	0.415
91.500	127.375	80.004	19.996	103.291	20.267	4.054	0.400
92.000	127.560	80.003	19.995	103.292	20.262	4.401	0.379
92.500	127.764	80.004	19.995	103.292	20.264	4.295	0.377
93.000	127.984	80.004	19.995	103.291	20.262	4.412	0.406
93.500	128.171	80.005	19.996	103.292	20.262	4.439	0.415
94.000	128.409	80.005	19.997	103.291	20.264	4.293	0.416
94.500	128.607	80.005	19.995	103.290	20.264	4.297	0.431
95.001	128.801	80.003	19.996	103.289	20.264	4.301	0.415
95.501	129.018	80.006	19.996	103.289	20.262	4.379	0.402
96.000	129.240	80.005	19.995	103.289	20.266	4.102	0.425
96.500	129.400	80.006	19.994	103.288	20.263	4.314	0.410
97.000	129.606	80.006	19.996	103.288	20.260	4.522	0.374
97.500	129.816	80.006	19.995	103.289	20.263	4.364	0.391
98.000	130.060	80.005	19.995	103.289	20.264	4.289	0.435
98.500	130.236	80.005	19.996	103.289	20.264	4.280	0.437
99.000	130.464	80.005	19.994	103.289	20.265	4.208	0.412
99.500	130.697	80.004	19.996	103.289	20.265	4.199	0.433
100.001	130.922	80.004	19.996	103.290	20.264	4.289	0.459
100.501	131.105	80.006	19.996	103.291	20.262	4.437	0.433
101.000	131.293	80.006	19.997	103.292	20.263	4.337	0.389
101.501	131.502	80.007	19.995	103.292	20.265	4.207	0.384
102.001	131.745	80.006	19.996	103.291	20.260	4.522	0.425
102.500	131.968	80.007	19.996	103.289	20.264	4.255	0.459
103.000	132.175	80.004	19.996	103.286	20.266	4.124	0.447
103.500	132.425	80.007	19.995	103.284	20.264	4.262	0.444
104.000	132.619	80.006	19.994	103.285	20.263	4.328	0.451
104.501	132.840	80.007	19.994	103.285	20.263	4.372	0.430
105.001	133.047	80.006	19.996	103.286	20.260	4.564	0.421
105.501	133.303	80.007	19.994	103.287	20.266	4.154	0.445
106.001	133.436	80.006	19.993	103.288	20.264	4.241	0.426
106.500	133.668	80.007	19.994	103.288	20.266	4.108	0.377
107.001	133.932	80.005	19.994	103.288	20.265	4.214	0.431
107.501	134.152	80.006	19.992	103.289	20.265	4.226	0.491
108.000	134.419	80.006	19.993	103.289	20.263	4.351	0.485
108.500	134.580	80.006	19.994	103.289	20.266	4.160	0.457
109.000	134.795	80.006	19.994	103.290	20.260	4.557	0.402
109.500	135.059	80.006	19.994	103.290	20.264	4.239	0.428
110.000	135.259	80.003	19.994	103.290	20.262	4.391	0.471
110.500	135.469	80.004	19.993	103.289	20.265	4.172	0.436
111.001	135.683	80.004	19.995	103.290	20.261	4.456	0.417
111.501	135.917	80.004	19.995	103.290	20.262	4.437	0.436
112.000	136.135	80.004	19.996	103.290	20.259	4.610	0.450
112.501	136.399	80.004	19.994	103.292	20.261	4.504	0.467
113.001	136.617	80.005	19.995	103.295	20.261	4.470	0.482
113.501	136.831	80.004	19.995	103.295	20.261	4.479	0.457
114.001	137.067	80.003	19.994	103.295	20.260	4.576	0.441
114.500	137.282	80.005	19.995	103.295	20.258	4.658	0.450
115.000	137.521	80.004	19.994	103.292	20.262	4.383	0.452
115.500	137.750	80.004	19.994	103.287	20.258	4.699	0.461
116.000	137.977	80.005	19.995	103.286	20.260	4.518	0.463
116.500	138.198	80.004	19.995	103.286	20.261	4.474	0.452
117.000	138.455	80.005	19.994	103.285	20.259	4.641	0.463
117.500	138.663	80.005	19.994	103.286	20.259	4.595	0.471
118.000	138.888	80.006	19.995	103.291	20.261	4.510	0.449
118.500	139.143	80.004	19.994	103.293	20.262	4.435	0.456
119.000	139.366	80.006	19.993	103.293	20.259	4.652	0.479
119.501	139.589	80.005	19.994	103.294	20.259	4.585	0.462
120.001	139.818	80.004	19.995	103.293	20.261	4.448	0.449
120.500	140.045	80.003	19.994	103.290	20.261	4.483	0.454
121.001	140.293	80.004	19.995	103.288	20.263	4.343	0.465
121.501	140.520	80.005	19.994	103.287	20.261	4.510	0.475
122.001	140.751	80.005	19.995	103.287	20.263	4.366	0.467
122.501	141.013	80.003	19.994	103.287	20.259	4.602	0.476
123.001	141.203	80.004	19.995	103.286	20.261	4.445	0.472
123.501	141.469	80.004	19.996	103.286	20.265	4.177	0.454
124.001	141.711	80.004	19.994	103.286	20.261	4.474	0.482
124.500	141.925	80.004	19.994	103.286	20.266	4.154	0.482
125.000	142.165	80.004	19.994	103.286	20.263	4.316	0.455
125.500	142.402	80.005	19.995	103.286	20.264	4.250	0.466
126.000	142.597	80.005	19.994	103.285	20.264	4.279	0.454
126.500	142.849	80.004	19.994	103.285	20.263	4.360	0.439
127.000	143.101	80.003	19.996	103.286	20.264	4.285	0.476
127.500	143.301	80.005	19.994	103.286	20.261	4.454	0.478
128.000	143.543	80.005	19.996	103.287	20.260	4.529	0.447
128.500	143.804	80.004	19.994	103.286	20.262	4.389	0.472
129.000	144.031	80.005	19.994	103.287	20.262	4.404	0.495
129.500	144.288	80.006	19.995	103.287	20.262	4.381	0.486
130.000	144.563	80.005	19.995	103.286	20.263	4.364	0.508
130.500	144.781	80.004	19.994	103.281	20.264	4.274	0.513
131.000	145.027	80.005	19.994	103.281	20.262	4.404	0.479
131.500	145.281	80.006	19.994	103.280	20.259	4.612	0.482
132.000	145.542	80.004	19.995	103.280	20.262	4.396	0.507
132.500	145.754	80.005	19.994	103.281	20.261	4.464	0.494
133.000	145.974	80.006	19.994	103.286	20.263	4.333	0.452
133.500	146.227	80.005	19.995	103.286	20.259	4.604	0.452
134.000	146.483	80.006	19.993	103.287	20.262	4.421	0.491
134.500	146.700	80.006	19.994	103.287	20.264	4.250	0.491
135.000	146.907	80.005	19.994	103.286	20.261	4.510	0.448
135.500	147.179	80.004	19.995	103.285	20.262	4.406	0.451
136.000	147.450	80.006	19.995	103.284	20.263	4.362	0.511
136.500	147.658	80.005	19.993	103.284	20.264	4.266	0.511
137.000	147.907	80.005	19.994	103.284	20.263	4.344	0.468
137.500	148.150	80.004	19.995	103.285	20.262	4.373	0.475
138.000	148.399	80.005	19.994	103.286	20.263	4.342	0.492
138.500	148.641	80.006	19.994	103.286	20.262	4.429	0.491
139.000	148.905	80.005	19.995	103.284	20.262	4.408	0.499
139.500	149.167	80.006	19.994	103.284	20.261	4.461	0.517
140.000	149.390	80.006	19.994	103.284	20.260	4.527	0.506
140.500	149.631	80.004	19.994	103.283	20.263	4.358	0.474
141.000	149.889	80.005	19.994	103.284	20.263	4.314	0.481
141.500	150.099	80.005	19.994	103.287	20.259	4.622	0.483
142.000	150.369	80.004	19.994	103.288	20.261	4.464	0.474
142.500	150.610	80.005	19.994	103.285	20.261	4.476	0.496
143.000	150.866	80.006	19.993	103.281	20.261	4.452	0.504
143.500	151.131	80.004	19.995	103.278	20.259	4.604	0.509
144.000	151.340	80.005	19.994	103.276	20.263	4.312	0.497
144.500	151.560	80.005	19.994	103.275	20.263	4.360	0.451
145.001	151.791	80.005	19.994	103.278	20.262	4.383	0.440
145.501	152.057	80.005	19.993	103.282	20.259	4.612	0.475
146.001	152.321	80.005	19.994	103.283	20.262	4.429	0.513
146.501	152.592	80.004	19.995	103.284	20.259	4.644	0.532
147.000	152.783	80.004	19.994	103.280	20.261	4.464	0.499
147.500	153.030	80.004	19.995	103.277	20.257	4.731	0.450
148.000	153.299	80.004	19.994	103.275	20.261	4.473	0.477
148.500	153.536	80.004	19.993	103.271	20.261	4.488	0.511
149.000	153.774	80.005	19.994	103.272	20.260	4.575	0.491
149.500	154.034	80.005	19.993	103.276	20.259	4.588	0.486
150.000	154.270	80.006	19.995	103.274	20.260	4.513	0.497
150.500	154.527	80.005	19.994	103.271	20.261	4.498	0.494
151.000	154.763	80.005	19.994	103.277	20.260	4.540	0.492
151.500	155.018	80.004	19.995	103.278	20.260	4.531	0.492
152.001	155.246	80.005	19.995	103.278	20.261	4.450	0.487
152.500	155.490	80.005	19.994	103.282	20.259	4.600	0.478
153.000	155.743	80.004	19.995	103.287	20.260	4.521	0.484
153.500	155.976	80.004	19.994	103.288	20.257	4.733	0.491
154.000	156.227	80.005	19.994	103.286	20.260	4.533	0.485
154.500	156.476	80.004	19.995	103.284	20.261	4.467	0.492
155.000	156.721	80.005	19.994	103.282	20.262	4.442	0.497
155.500	156.949	80.006	19.995	103.281	20.261	4.490	0.483
156.000	157.191	80.005	19.994	103.279	20.260	4.534	0.472
156.500	157.492	80.004	19.995	103.279	20.259	4.600	0.506
157.000	157.726	80.006	19.994	103.279	20.262	4.433	0.539
157.500	157.955	80.005	19.995	103.280	20.262	4.410	0.499
158.000	158.225	80.005	19.994	103.279	20.259	4.610	0.481
158.500	158.483	80.006	19.994	103.277	20.264	4.241	0.514
159.000	158.724	80.005	19.993	103.274	20.262	4.422	0.514
159.500	158.954	80.006	19.994	103.270	20.264	4.283	0.485
160.001	159.200	80.005	19.995	103.270	20.265	4.229	0.473
160.500	159.446	80.005	19.995	103.272	20.263	4.321	0.484
161.000	159.702	80.007	19.996	103.273	20.261	4.455	0.497
161.500	159.930	80.006	19.995	103.271	20.260	4.565	0.492
162.000	160.180	80.006	19.994	103.270	20.264	4.299	0.481
162.500	160.410	80.006	19.994	103.272	20.262	4.428	0.480
163.000	160.681	80.005	19.995	103.271	20.263	4.342	0.491
163.500	160.922	80.005	19.994	103.272	20.262	4.392	0.506
164.000	161.162	80.004	19.994	103.277	20.262	4.423	0.497
164.500	161.434	80.006	19.994	103.281	20.262	4.373	0.497
165.000	161.669	80.005	19.993	103.276	20.261	4.473	0.509
165.500	161.942	80.005	19.994	103.275	20.260	4.557	0.508
166.000	162.156	80.005	19.994	103.275	20.260	4.538	0.498
166.500	162.414	80.005	19.995	103.274	20.260	4.536	0.479
167.000	162.671	80.005	19.996	103.271	20.262	4.397	0.494
167.500	162.920	80.004	19.994	103.274	20.262	4.407	0.511
168.000	163.159	80.005	19.995	103.275	20.263	4.330	0.497
168.500	163.434	80.005	19.995	103.277	20.263	4.361	0.501
169.000	163.653	80.005	19.994	103.278	20.262	4.424	0.504
169.500	163.922	80.005	19.994	103.284	20.262	4.419	0.491
170.000	164.165	80.005	19.994	103.286	20.260	4.567	0.500
170.500	164.460	80.006	19.994	103.285	20.259	4.603	0.524
171.000	164.671	80.005	19.994	103.280	20.264	4.278	0.522
171.500	164.970	80.006	19.994	103.273	20.262	4.417	0.509
172.000	165.259	80.004	19.995	103.266	20.261	4.491	0.549
172.500	165.470	80.005	19.995	103.262	20.262	4.416	0.544
173.000	165.726	80.005	19.993	103.259	20.263	4.318	0.483
173.500	165.986	80.005	19.994	103.261	20.262	4.393	0.492
174.000	166.227	80.005	19.994	103.267	20.263	4.368	0.509
174.500	166.486	80.003	19.994	103.273	20.261	4.509	0.500
175.000	166.726	80.006	19.993	103.276	20.263	4.349	0.499
175.500	166.994	80.005	19.995	103.277	20.261	4.480	0.503
176.000	167.272	80.005	19.994	103.274	20.260	4.567	0.528
176.500	167.501	80.007	19.994	103.268	20.262	4.374	0.526
177.000	167.729	80.005	19.995	103.262	20.261	4.453	0.481
177.500	167.997	80.006	19.993	103.259	20.260	4.549	0.477
178.000	168.255	80.005	19.994	103.256	20.261	4.511	0.511
178.500	168.459	80.005	19.994	103.258	20.260	4.553	0.494
179.000	168.720	80.006	19.994	103.258	20.260	4.516	0.463
179.500	168.980	80.006	19.994	103.259	20.259	4.607	0.493
180.000	169.204	80.006	19.994	103.261	20.260	4.560	0.503
180.500	169.488	80.006	19.994	103.265	20.262	4.414	0.496
181.000	169.723	80.007	19.995	103.265	20.262	4.422	0.513
181.501	170.014	80.007	19.995	103.264	20.263	4.357	0.522
182.000	170.236	80.006	19.994	103.261	20.264	4.249	0.520
182.500	170.524	80.007	19.995	103.258	20.262	4.434	0.512
183.000	170.723	80.008	19.995	103.253	20.260	4.534	0.498
183.500	171.011	80.007	19.995	103.249	20.260	4.534	0.487
184.001	171.201	80.005	19.995	103.251	20.262	4.439	0.482
184.500	171.503	80.006	19.995	103.252	20.260	4.578	0.485
185.000	171.755	80.007	19.994	103.252	20.259	4.583	0.523
185.500	171.963	80.007	19.994	103.251	20.257	4.737	0.507
186.000	172.226	80.007	19.994	103.252	20.261	4.487	0.465
186.500	172.490	80.006	19.995	103.255	20.260	4.556	0.499
187.000	172.769	80.006	19.995	103.257	20.260	4.558	0.535
187.500	173.014	80.006	19.994	103.258	20.258	4.701	0.533
188.000	173.261	80.007	19.994	103.257	20.260	4.570	0.508
188.500	173.516	80.006	19.995	103.257	20.262	4.378	0.498
189.000	173.735	80.005	19.995	103.252	20.260	4.566	0.488
189.500	174.032	80.004	19.995	103.249	20.259	4.618	0.495
190.000	174.268	80.004	19.996	103.249	20.256	4.807	0.525
190.500	174.503	80.005	19.997	103.249	20.259	4.599	0.502
191.000	174.731	80.004	19.995	103.248	20.260	4.526	0.467
191.500	175.014	80.005	19.996	103.248	20.256	4.864	0.487
192.000	175.207	80.003	19.996	103.249	20.257	4.783	0.493
192.500	175.482	80.004	19.995	103.251	20.254	4.949	0.472
193.000	175.757	80.004	19.995	103.252	20.257	4.747	0.509
193.500	175.985	80.004	19.996	103.252	20.256	4.806	0.526
194.000	176.233	80.004	19.996	103.252	20.255	4.885	0.490
194.500	176.519	80.004	19.996	103.250	20.254	4.968	0.505
195.000	176.749	80.004	19.995	103.247	20.258	4.693	0.525
195.500	177.009	80.004	19.996	103.247	20.256	4.864	0.503
196.000	177.244	80.003	19.995	103.246	20.257	4.768	0.493
196.500	177.477	80.004	19.995	103.246	20.255	4.920	0.481
197.000	177.767	80.003	19.996	103.246	20.257	4.766	0.495
197.500	177.985	80.005	19.994	103.246	20.256	4.853	0.516
198.000	178.268	80.005	19.994	103.246	20.254	4.935	0.505
198.500	178.485	80.004	19.996	103.246	20.257	4.732	0.500
199.000	178.773	80.005	19.996	103.247	20.256	4.839	0.503
199.500	179.011	80.004	19.994	103.248	20.256	4.843	0.515
200.000	179.252	80.005	19.995	103.248	20.252	5.143	0.503
200.500	179.505	80.006	19.994	103.248	20.253	5.030	0.487
201.000	179.747	80.004	19.994	103.248	20.255	4.924	0.495
201.500	180.018	80.006	19.994	103.248	20.254	4.995	0.504
202.000	180.242	80.006	19.995	103.248	20.255	4.922	0.504
202.500	180.506	80.006	19.993	103.247	20.250	5.233	0.492
203.000	180.759	80.004	19.994	103.247	20.253	5.037	0.503
203.500	181.002	80.005	19.994	103.247	20.251	5.151	0.506
204.000	181.256	80.004	19.994	103.247	20.251	5.178	0.496
204.500	181.490	80.005	19.994	103.247	20.250	5.243	0.492
205.000	181.733	80.006	19.995	103.249	20.252	5.101	0.483
205.500	182.001	80.005	19.994	103.248	20.251	5.174	0.494
206.000	182.259	80.005	19.993	103.248	20.250	5.233	0.519
206.500	182.495	80.005	19.994	103.248	20.252	5.141	0.510
207.000	182.732	80.004	19.995	103.248	20.250	5.218	0.483
207.500	183.003	80.005	19.994	103.248	20.249	5.318	0.490
208.000	183.217	80.005	19.995	103.249	20.247	5.462	0.496
208.500	183.471	80.004	19.994	103.249	20.247	5.433	0.477
209.000	183.750	80.005	19.996	103.249	20.250	5.239	0.501
209.500	183.994	80.005	19.994	103.250	20.249	5.322	0.528
210.000	184.234	80.006	19.994	103.248	20.250	5.233	0.503
210.500	184.487	80.006	19.994	103.247	20.246	5.528	0.489
211.000	184.756	80.004	19.994	103.248	20.248	5.385	0.508
211.500	184.953	80.006	19.994	103.248	20.251	5.178	0.494
212.000	185.263	80.005	19.994	103.248	20.250	5.218	0.486
212.500	185.477	80.006	19.995	103.248	20.246	5.539	0.516
213.000	185.766	80.005	19.995	103.247	20.245	5.587	0.514
213.500	186.002	80.005	19.994	103.246	20.247	5.453	0.514
214.000	186.248	80.005	19.994	103.246	20.248	5.393	0.503
214.500	186.525	80.005	19.994	103.246	20.244	5.641	0.502
215.000	186.754	80.005	19.995	103.247	20.246	5.560	0.514
215.500	186.973	80.005	19.995	103.248	20.245	5.591	0.477
216.000	187.239	80.004	19.994	103.246	20.246	5.512	0.467
216.500	187.492	80.005	19.995	103.246	20.247	5.456	0.502
217.000	187.742	80.005	19.994	103.245	20.247	5.447	0.511
217.500	187.991	80.005	19.995	103.245	20.246	5.543	0.501
218.000	188.260	80.004	19.995	103.245	20.243	5.751	0.509
218.500	188.468	80.005	19.994	103.247	20.248	5.412	0.498
219.000	188.761	80.004	19.995	103.247	20.247	5.439	0.489
219.500	188.984	80.004	19.997	103.248	20.246	5.545	0.509
220.000	189.227	80.005	19.996	103.249	20.245	5.618	0.491
220.500	189.481	80.004	19.996	103.250	20.243	5.746	0.481
221.000	189.712	80.005	19.995	103.250	20.245	5.602	0.491
221.500	189.935	80.004	19.995	103.250	20.244	5.683	0.470
222.000	190.176	80.005	19.995	103.250	20.240	5.933	0.459
222.500	190.480	80.002	19.997	103.250	20.243	5.762	0.504
223.000	190.692	80.003	19.994	103.249	20.245	5.595	0.530
223.500	190.989	80.004	19.995	103.249	20.243	5.770	0.512
224.000	191.186	80.004	19.995	103.250	20.243	5.737	0.502
224.500	191.483	80.004	19.994	103.249	20.244	5.675	0.494
225.000	191.689	80.004	19.993	103.250	20.245	5.595	0.498
225.500	191.923	80.004	19.994	103.250	20.243	5.742	0.471
226.000	192.208	80.005	19.995	103.250	20.242	5.850	0.480
226.500	192.405	80.003	19.994	103.249	20.243	5.758	0.501
227.000	192.668	80.005	19.994	103.249	20.242	5.785	0.471
227.500	192.923	80.004	19.994	103.250	20.242	5.825	0.489
228.000	193.166	80.003	19.996	103.250	20.239	6.023	0.508
228.500	193.397	80.004	19.993	103.250	20.240	5.966	0.486
229.000	193.663	80.004	19.996	103.250	20.238	6.092	0.486
229.500	193.898	80.004	19.995	103.245	20.238	6.073	0.499
230.000	194.176	80.003	19.994	103.243	20.239	6.026	0.507
230.500	194.385	80.005	19.995	103.243	20.237	6.136	0.500
231.000	194.677	80.005	19.994	103.243	20.237	6.200	0.494
231.500	194.910	80.005	19.995	103.242	20.238	6.069	0.513
232.000	195.138	80.005	19.993	103.245	20.237	6.169	0.493
232.500	195.413	80.004	19.995	103.246	20.236	6.241	0.482
233.000	195.662	80.003	19.995	103.246	20.240	5.931	0.514
233.500	195.901	80.004	19.994	103.246	20.235	6.291	0.506
234.000	196.157	80.005	19.995	103.247	20.235	6.344	0.491
234.500	196.382	80.007	19.994	103.247	20.234	6.348	0.488
235.000	196.658	80.004	19.994	103.247	20.235	6.313	0.491
235.500	196.859	80.005	19.993	103.248	20.238	6.090	0.489
236.000	197.125	80.005	19.994	103.246	20.237	6.197	0.472
236.500	197.398	80.005	19.994	103.240	20.239	6.049	0.503
237.000	197.650	80.006	19.994	103.238	20.236	6.265	0.531
237.500	197.889	80.007	19.994	103.241	20.237	6.151	0.508
238.000	198.130	80.005	19.994	103.241	20.236	6.207	0.486
238.500	198.393	80.007	19.992	103.241	20.236	6.263	0.492
239.000	198.642	80.005	19.994	103.246	20.235	6.301	0.508
239.500	198.906	80.005	19.993	103.244	20.235	6.313	0.512
240.000	199.102	80.006	19.993	103.239	20.237	6.140	0.486
240.500	199.388	80.006	19.994	103.236	20.232	6.521	0.471
241.000	199.610	80.006	19.994	103.233	20.235	6.342	0.495
241.500	199.851	80.007	19.993	103.230	20.232	6.542	0.486
242.000	200.126	80.005	19.994	103.235	20.232	6.515	0.489
242.500	200.311	80.006	19.994	103.240	20.234	6.355	0.488
243.000	200.570	80.005	19.993	103.241	20.231	6.590	0.452
243.500	200.802	80.005	19.994	103.245	20.232	6.544	0.468
244.000	201.062	80.006	19.994	103.249	20.230	6.646	0.491
244.500	201.329	80.005	19.994	103.247	20.230	6.660	0.510
245.000	201.554	80.006	19.994	103.243	20.230	6.654	0.510
245.500	201.838	80.007	19.993	103.242	20.233	6.436	0.500
246.000	202.073	80.006	19.994	103.240	20.233	6.449	0.514
246.500	202.308	80.006	19.994	103.236	20.231	6.605	0.495
247.000	202.617	80.007	19.994	103.231	20.231	6.618	0.507
247.500	202.827	80.006	19.993	103.232	20.230	6.659	0.531
248.000	203.068	80.005	19.994	103.229	20.230	6.654	0.485
248.500	203.365	80.005	19.994	103.227	20.229	6.719	0.494
249.000	203.609	80.005	19.994	103.228	20.231	6.609	0.540
249.500	203.844	80.007	19.995	103.233	20.230	6.655	0.510
250.000	204.078	80.006	19.993	103.235	20.231	6.624	0.474
250.500	204.355	80.005	19.995	103.239	20.231	6.580	0.490
251.000	204.552	80.004	19.995	103.239	20.229	6.766	0.493
251.500	204.806	80.006	19.995	103.235	20.232	6.488	0.462
252.000	205.072	80.005	19.995	103.234	20.230	6.679	0.485
252.500	205.317	80.005	19.995	103.232	20.229	6.767	0.515
253.000	205.565	80.006	19.995	103.231	20.231	6.580	0.502
253.500	205.821	80.005	19.994	103.233	20.226	6.951	0.499
254.000	206.077	80.006	19.996	103.238	20.227	6.855	0.508
254.500	206.301	80.006	19.995	103.241	20.227	6.875	0.496
255.000	206.593	80.005	19.995	103.245	20.227	6.889	0.498
255.500	206.803	80.006	19.995	103.243	20.226	6.978	0.509
256.000	207.041	80.006	19.995	103.242	20.227	6.891	0.475
256.500	207.312	80.006	19.994	103.237	20.225	6.984	0.479
257.000	207.562	80.006	19.995	103.232	20.226	6.974	0.515
257.500	207.808	80.007	19.996	103.230	20.225	6.993	0.508
258.000	208.060	80.006	19.995	103.231	20.226	6.934	0.497
258.500	208.300	80.006	19.995	103.235	20.227	6.899	0.495
259.000	208.543	80.005	19.994	103.240	20.227	6.850	0.488
259.500	208.816	80.006	19.994	103.242	20.226	6.916	0.500
260.000	209.025	80.007	19.995	103.238	20.227	6.879	0.499
260.500	209.289	80.006	19.995	103.232	20.226	6.931	0.477
261.000	209.506	80.006	19.995	103.229	20.226	6.940	0.477
261.500	209.758	80.006	19.994	103.228	20.224	7.054	0.476
262.000	210.010	80.006	19.995	103.230	20.224	7.059	0.487
262.500	210.253	80.009	19.995	103.233	20.223	7.173	0.499
263.000	210.523	80.007	19.995	103.239	20.221	7.271	0.504
263.500	210.799	80.008	19.994	103.235	20.220	7.369	0.529
264.000	211.017	80.008	19.994	103.231	20.223	7.177	0.520
264.500	211.272	80.007	19.995	103.228	20.223	7.168	0.484
265.000	211.527	80.008	19.996	103.227	20.221	7.264	0.492
265.500	211.760	80.007	19.996	103.223	20.222	7.206	0.499
266.000	212.005	80.007	19.993	103.226	20.220	7.399	0.483
266.500	212.243	80.008	19.994	103.229	20.222	7.237	0.480
267.000	212.510	80.008	19.995	103.229	20.224	7.083	0.494
267.500	212.731	80.007	19.993	103.229	20.229	6.731	0.497
268.000	212.953	80.008	19.994	103.229	20.223	7.152	0.466
268.500	213.221	80.007	19.994	103.228	20.226	6.969	0.467
269.000	213.470	80.007	19.995	103.229	20.224	7.089	0.503
269.500	213.719	80.008	19.994	103.227	20.224	7.099	0.507
270.000	213.955	80.006	19.993	103.223	20.223	7.132	0.491
270.500	214.191	80.007	19.995	103.221	20.223	7.155	0.478
271.000	214.428	80.006	19.995	103.220	20.221	7.295	0.473
271.500	214.708	80.007	19.994	103.215	20.222	7.228	0.495
272.000	214.965	80.005	19.995	103.215	20.222	7.230	0.527
272.500	215.183	80.006	19.995	103.214	20.223	7.149	0.506
273.000	215.442	80.005	19.994	103.215	20.221	7.320	0.476
273.500	215.671	80.005	19.995	103.217	20.224	7.106	0.483
274.000	215.951	80.005	19.995	103.219	20.223	7.147	0.498
274.500	216.178	80.004	19.995	103.221	20.224	7.085	0.508
275.000	216.436	80.006	19.995	103.226	20.222	7.254	0.496
275.500	216.622	80.005	19.995	103.228	20.221	7.329	0.465
276.000	216.888	80.005	19.995	103.226	20.221	7.308	0.448
276.500	217.109	80.005	19.995	103.226	20.222	7.191	0.469
277.000	217.383	80.005	19.996	103.227	20.220	7.344	0.491
277.500	217.602	80.005	19.996	103.222	20.221	7.312	0.494
278.000	217.875	80.005	19.994	103.222	20.220	7.365	0.493
278.500	218.117	80.004	19.995	103.220	20.221	7.283	0.504
279.000	218.377	80.003	19.995	103.222	20.221	7.308	0.509
279.500	218.591	80.003	19.996	103.220	20.218	7.529	0.488
280.000	218.872	80.003	19.997	103.224	20.220	7.377	0.484
280.500	219.104	80.004	19.996	103.229	20.218	7.496	0.504
281.000	219.363	80.004	19.996	103.235	20.221	7.319	0.502
281.500	219.622	80.004	19.996	103.235	20.222	7.218	0.504
282.000	219.843	80.004	19.996	103.236	20.220	7.375	0.499
282.500	220.092	80.004	19.996	103.236	20.219	7.439	0.475
283.000	220.328	80.002	19.996	103.232	20.221	7.312	0.477
283.500	220.572	80.006	19.995	103.228	20.220	7.379	0.482
284.000	220.860	80.005	19.995	103.226	20.220	7.369	0.506
284.500	221.092	80.004	19.997	103.225	20.219	7.425	0.527
285.000	221.287	80.004	19.995	103.225	20.216	7.631	0.473
285.500	221.520	80.002	19.996	103.222	20.221	7.318	0.427
286.000	221.789	80.004	19.996	103.224	20.218	7.501	0.465
286.500	222.011	80.003	19.995	103.225	20.219	7.440	0.497
287.000	222.257	80.004	19.995	103.225	20.219	7.418	0.480
287.500	222.581	80.005	19.995	103.222	20.220	7.383	0.519
288.000	222.806	80.003	19.994	103.223	20.220	7.389	0.560
288.501	223.069	80.003	19.996	103.224	20.218	7.515	0.518
289.000	223.299	80.004	19.995	103.221	20.220	7.361	0.490
289.500	223.562	80.004	19.995	103.219	20.218	7.506	0.493
290.000	223.770	80.004	19.995	103.217	20.217	7.575	0.482
290.500	223.999	80.004	19.995	103.218	20.218	7.506	0.454
291.000	224.218	80.005	19.996	103.216	20.219	7.450	0.443
291.500	224.505	80.004	19.994	103.217	20.220	7.387	0.477
292.000	224.744	80.004	19.994	103.223	20.217	7.583	0.516
292.500	225.011	80.005	19.995	103.228	20.219	7.413	0.516
293.000	225.257	80.005	19.994	103.226	20.219	7.423	0.510
293.500	225.455	80.004	19.994	103.226	20.215	7.686	0.478
294.000	225.703	80.004	19.994	103.225	20.217	7.571	0.445
294.500	225.956	80.004	19.995	103.219	20.216	7.648	0.474
295.000	226.240	80.006	19.994	103.215	20.216	7.613	0.519
295.500	226.477	80.005	19.995	103.217	20.216	7.642	0.529
296.000	226.713	80.004	19.995	103.224	20.216	7.617	0.497
296.500	227.002	80.005	19.994	103.227	20.217	7.575	0.499
297.000	227.203	80.005	19.995	103.232	20.217	7.580	0.508
297.500	227.494	80.004	19.995	103.235	20.217	7.559	0.491
298.000	227.681	80.004	19.995	103.234	20.216	7.623	0.485
298.500	227.965	80.005	19.995	103.226	20.216	7.625	0.474
299.000	228.198	80.004	19.995	103.222	20.215	7.727	0.494
299.500	228.491	80.004	19.994	103.219	20.214	7.769	0.521
300.000	228.695	80.003	19.995	103.216	20.214	7.796	0.511
300.500	228.988	80.004	19.994	103.219	20.214	7.794	0.497
301.000	229.216	80.005	19.994	103.224	20.212	7.934	0.509
301.500	229.507	80.003	19.994	103.225	20.217	7.588	0.521
302.000	229.709	80.004	19.994	103.224	20.217	7.553	0.506
302.500	229.960	80.005	19.995	103.224	20.216	7.657	0.473
303.000	230.233	80.004	19.995	103.221	20.214	7.761	0.488
303.500	230.494	80.004	19.995	103.215	20.213	7.874	0.529
304.000	230.731	80.004	19.994	103.217	20.214	7.755	0.516
304.500	230.964	80.004	19.994	103.217	20.216	7.649	0.484
305.000	231.204	80.005	19.995	103.217	20.216	7.651	0.471
305.500	231.477	80.004	19.994	103.216	20.214	7.774	0.493
306.000	231.718	80.005	19.993	103.218	20.216	7.672	0.514
306.500	231.925	80.004	19.995	103.215	20.215	7.726	0.481
307.000	232.187	80.003	19.994	103.215	20.213	7.845	0.459
307.500	232.424	80.005	19.995	103.215	20.215	7.701	0.484
308.000	232.704	80.005	19.995	103.216	20.217	7.584	0.508
308.500	232.913	80.004	19.995	103.214	20.217	7.588	0.503
309.000	233.174	80.003	19.996	103.215	20.216	7.676	0.479
309.500	233.401	80.002	19.996	103.217	20.218	7.488	0.479
310.000	233.661	80.004	19.996	103.217	20.216	7.621	0.487
310.500	233.888	80.003	19.995	103.217	20.219	7.457	0.487
311.000	234.164	80.005	19.996	103.217	20.219	7.431	0.495
311.500	234.453	80.004	19.994	103.216	20.216	7.640	0.534
312.000	234.659	80.005	19.995	103.214	20.215	7.751	0.529
312.501	234.882	80.005	19.995	103.215	20.219	7.403	0.462
313.000	235.137	80.003	19.995	103.215	20.218	7.519	0.454
313.500	235.381	80.005	19.995	103.215	20.216	7.626	0.488
314.000	235.630	80.004	19.995	103.214	20.218	7.474	0.496
314.500	235.856	80.003	19.996	103.216	20.216	7.630	0.484
315.000	236.139	80.003	19.995	103.215	20.216	7.630	0.492
315.500	236.352	80.005	19.996	103.215	20.216	7.651	0.503
316.000	236.635	80.005	19.995	103.216	20.214	7.761	0.496
316.500	236.901	80.006	19.994	103.215	20.219	7.446	0.523
317.000	237.112	80.005	19.995	103.213	20.215	7.694	0.513
317.500	237.376	80.005	19.995	103.212	20.218	7.538	0.476
318.000	237.621	80.006	19.996	103.211	20.217	7.596	0.492
318.500	237.840	80.006	19.995	103.210	20.216	7.675	0.487
319.000	238.116	80.006	19.996	103.210	20.218	7.494	0.480
319.500	238.354	80.005	19.995	103.210	20.216	7.661	0.505
320.000	238.601	80.006	19.996	103.211	20.218	7.502	0.499
320.500	238.831	80.006	19.995	103.214	20.217	7.586	0.481
321.000	239.071	80.006	19.995	103.214	20.220	7.374	0.474
321.500	239.333	80.006	19.996	103.216	20.217	7.605	0.486
322.000	239.589	80.006	19.995	103.218	20.219	7.418	0.510
322.500	239.825	80.006	19.995	103.217	20.217	7.566	0.505
323.000	240.086	80.007	19.996	103.215	20.216	7.622	0.495
323.500	240.324	80.005	19.995	103.213	20.215	7.709	0.498
324.000	240.588	80.006	19.996	103.211	20.216	7.614	0.501
324.500	240.823	80.007	19.993	103.211	20.214	7.801	0.501
325.000	241.047	80.006	19.996	103.212	20.213	7.874	0.479
325.500	241.291	80.006	19.995	103.212	20.214	7.799	0.463
326.000	241.561	80.006	19.994	103.214	20.214	7.782	0.491
326.500	241.818	80.006	19.994	103.216	20.217	7.607	0.521
327.000	242.102	80.008	19.995	103.217	20.217	7.568	0.534
327.500	242.312	80.006	19.994	103.219	20.215	7.711	0.518
328.000	242.535	80.007	19.994	103.220	20.216	7.630	0.464
328.500	242.831	80.007	19.993	103.221	20.216	7.630	0.476
329.000	243.061	80.006	19.994	103.222	20.217	7.567	0.522
329.500	243.340	80.005	19.995	103.222	20.217	7.578	0.517
330.000	243.563	80.006	19.995	103.220	20.214	7.763	0.505
330.500	243.839	80.006	19.995	103.220	20.213	7.891	0.501
331.000	244.072	80.006	19.995	103.219	20.216	7.628	0.504
331.500	244.319	80.006	19.994	103.216	20.217	7.609	0.494
332.000	244.584	80.005	19.994	103.212	20.214	7.778	0.496
332.500	244.842	80.006	19.995	103.211	20.216	7.620	0.517
333.000	245.079	80.007	19.995	103.210	20.216	7.634	0.509
333.501	245.320	80.006	19.994	103.209	20.216	7.616	0.487
334.000	245.571	80.005	19.994	103.209	20.215	7.743	0.485
334.500	245.840	80.006	19.994	103.209	20.214	7.793	0.506
335.000	246.081	80.006	19.994	103.209	20.216	7.659	0.515
335.500	246.315	80.006	19.995	103.209	20.216	7.637	0.492
336.000	246.619	80.006	19.995	103.210	20.215	7.712	0.506
336.500	246.864	80.006	19.994	103.211	20.216	7.639	0.543
337.000	247.067	80.006	19.994	103.210	20.214	7.759	0.499
337.500	247.324	80.005	19.996	103.211	20.218	7.532	0.455
338.000	247.565	80.006	19.995	103.211	20.218	7.539	0.479
338.500	247.786	80.006	19.995	103.212	20.214	7.793	0.480
339.000	248.063	80.004	19.995	103.214	20.217	7.576	0.480
339.500	248.310	80.006	19.994	103.214	20.214	7.770	0.511
340.000	248.553	80.006	19.996	103.214	20.214	7.757	0.507
340.500	248.805	80.006	19.995	103.213	20.214	7.762	0.493
341.000	249.096	80.005	19.994	103.211	20.212	7.943	0.519
341.500	249.353	80.007	19.995	103.209	20.211	7.982	0.545
342.000	249.548	80.006	19.995	103.211	20.214	7.782	0.500
342.500	249.867	80.006	19.996	103.212	20.212	7.907	0.483
343.000	250.119	80.005	19.995	103.212	20.213	7.876	0.543
343.500	250.339	80.006	19.995	103.211	20.210	8.037	0.521
344.000	250.600	80.006	19.994	103.211	20.212	7.914	0.477
344.500	250.853	80.006	19.995	103.208	20.210	8.049	0.498
345.000	251.117	80.007	19.995	103.207	20.213	7.878	0.516
345.500	251.334	80.006	19.994	103.207	20.209	8.126	0.499
346.000	251.634	80.006	19.994	103.208	20.209	8.134	0.499
346.500	251.853	80.005	19.994	103.208	20.215	7.720	0.518
347.000	252.093	80.006	19.995	103.208	20.209	8.126	0.489
347.500	252.355	80.006	19.995	103.208	20.210	8.062	0.481
348.000	252.629	80.007	19.996	103.208	20.212	7.895	0.519
348.500	252.835	80.006	19.995	103.208	20.212	7.905	0.508
349.000	253.119	80.007	19.995	103.208	20.210	8.045	0.485
349.500	253.366	80.008	19.994	103.208	20.213	7.867	0.510
350.000	253.600	80.006	19.994	103.208	20.211	8.001	0.505
350.500	253.864	80.007	19.994	103.209	20.213	7.849	0.490
351.000	254.097	80.006	19.995	103.209	20.212	7.899	0.498
351.500	254.398	80.006	19.994	103.209	20.208	8.177	0.515
352.000	254.631	80.006	19.995	103.210	20.212	7.958	0.534
352.500	254.881	80.005	19.996	103.210	20.213	7.868	0.509
353.000	255.157	80.006	19.995	103.211	20.213	7.860	0.505
353.500	255.379	80.005	19.995	103.210	20.212	7.926	0.512
354.000	255.629	80.005	19.994	103.209	20.210	8.091	0.485
354.500	255.882	80.005	19.995	103.210	20.209	8.153	0.488
355.000	256.109	80.006	19.995	103.210	20.210	8.045	0.491
355.500	256.360	80.005	19.995	103.210	20.209	8.166	0.479
356.000	256.605	80.005	19.996	103.211	20.207	8.254	0.487
356.500	256.862	80.005	19.995	103.211	20.205	8.393	0.499
357.000	257.098	80.006	19.995	103.211	20.209	8.155	0.497
357.500	257.330	80.003	19.996	103.210	20.206	8.341	0.480
358.000	257.588	80.004	19.995	103.210	20.208	8.220	0.479
358.500	257.849	80.004	19.995	103.210	20.205	8.456	0.505
359.000	258.065	80.006	19.994	103.211	20.206	8.385	0.498
359.500	258.335	80.005	19.995	103.212	20.208	8.199	0.482
360.000	258.611	80.005	19.995	103.213	20.206	8.335	0.516
360.500	258.854	80.005	19.994	103.214	20.206	8.347	0.532
361.001	259.078	80.005	19.996	103.214	20.204	8.470	0.493
361.501	259.369	80.004	19.995	103.213	20.207	8.278	0.491
362.000	259.584	80.005	19.995	103.208	20.206	8.370	0.510
362.500	259.841	80.005	19.993	103.205	20.204	8.470	0.489
363.001	260.093	80.004	19.995	103.206	20.210	8.103	0.490
363.500	260.383	80.005	19.995	103.206	20.207	8.270	0.525
364.000	260.613	80.006	19.993	103.206	20.203	8.583	0.531
364.500	260.851	80.004	19.994	103.208	20.203	8.554	0.494
365.000	261.100	80.004	19.994	103.211	20.202	8.625	0.478
365.500	261.362	80.006	19.994	103.209	20.203	8.592	0.499
366.000	261.618	80.006	19.994	103.208	20.201	8.705	0.514
366.500	261.904	80.005	19.994	103.208	20.201	8.687	0.530
367.000	262.102	80.005	19.993	103.208	20.205	8.422	0.513
367.500	262.351	80.004	19.994	103.208	20.203	8.529	0.465
368.000	262.575	80.005	19.994	103.209	20.202	8.628	0.460
368.500	262.864	80.004	19.993	103.210	20.202	8.617	0.493
369.000	263.097	80.005	19.994	103.210	20.199	8.817	0.518
369.500	263.356	80.005	19.994	103.210	20.199	8.815	0.507
370.000	263.616	80.005	19.994	103.211	20.200	8.760	0.505
370.500	263.866	80.005	19.995	103.212	20.200	8.769	0.514
371.000	264.081	80.005	19.994	103.212	20.202	8.653	0.488
371.500	264.340	80.005	19.994	103.212	20.200	8.774	0.470
372.000	264.618	80.004	19.994	103.213	20.199	8.837	0.505
372.500	264.863	80.005	19.995	103.212	20.199	8.866	0.530
373.000	265.099	80.005	19.994	103.212	20.197	8.959	0.503
373.500	265.364	80.005	19.994	103.212	20.195	9.101	0.491
374.000	265.613	80.005	19.994	103.211	20.199	8.855	0.507
374.500	265.864	80.004	19.995	103.208	20.196	9.047	0.507
375.000	266.081	80.005	19.996	103.204	20.194	9.185	0.484
375.500	266.351	80.004	19.995	103.203	20.196	9.019	0.478
376.000	266.596	80.006	19.995	103.202	20.192	9.327	0.502
376.500	266.869	80.005	19.995	103.197	20.192	9.352	0.517
377.000	267.136	80.004	19.995	103.192	20.194	9.163	0.529
377.500	267.372	80.006	19.995	103.191	20.193	9.257	0.521
378.000	267.616	80.003	19.997	103.184	20.193	9.244	0.491
378.500	267.863	80.004	19.995	103.184	20.195	9.135	0.486
379.000	268.113	80.004	19.995	103.189	20.194	9.204	0.494
379.500	268.359	80.005	19.994	103.196	20.193	9.277	0.496
380.000	268.632	80.005	19.995	103.199	20.193	9.263	0.507
380.500	268.851	80.004	19.995	103.205	20.194	9.184	0.505
381.000	269.138	80.004	19.996	103.205	20.192	9.305	0.499
381.500	269.358	80.003	19.995	103.201	20.191	9.401	0.507
382.000	269.606	80.004	19.996	103.199	20.188	9.615	0.487
382.500	269.895	80.006	19.995	103.198	20.192	9.369	0.502
383.000	270.149	80.004	19.995	103.195	20.192	9.336	0.540
383.500	270.364	80.006	19.995	103.196	20.189	9.572	0.506
384.000	270.650	80.005	19.995	103.197	20.189	9.568	0.485
384.500	270.891	80.005	19.996	103.197	20.193	9.249	0.514
385.000	271.113	80.005	19.995	103.194	20.192	9.303	0.495
385.500	271.398	80.005	19.994	103.194	20.195	9.106	0.485
386.000	271.652	80.005	19.995	103.190	20.191	9.439	0.523
386.500	271.873	80.005	19.994	103.187	20.193	9.297	0.507
387.000	272.133	80.005	19.995	103.186	20.192	9.335	0.478
387.500	272.383	80.004	19.994	103.184	20.192	9.311	0.495
388.000	272.651	80.006	19.995	103.181	20.193	9.286	0.514
388.500	272.847	80.004	19.995	103.182	20.189	9.528	0.491
389.000	273.116	80.005	19.995	103.184	20.188	9.615	0.465
389.500	273.347	80.004	19.995	103.188	20.189	9.573	0.483
390.000	273.610	80.004	19.994	103.188	20.190	9.485	0.497
390.500	273.851	80.004	19.995	103.189	20.188	9.591	0.499
391.000	274.098	80.004	19.994	103.185	20.187	9.654	0.496
391.500	274.369	80.004	19.994	103.182	20.186	9.746	0.502
392.000	274.575	80.005	19.994	103.178	20.186	9.759	0.497
392.500	274.840	80.003	19.995	103.181	20.188	9.584	0.474
393.000	275.136	80.004	19.994	103.184	20.185	9.851	0.516
393.500	275.364	80.004	19.994	103.186	20.184	9.871	0.543
394.000	275.646	80.006	19.995	103.183	20.187	9.653	0.517
394.500	275.865	80.004	19.995	103.180	20.187	9.674	0.506
395.000	276.128	80.005	19.995	103.177	20.187	9.705	0.492
395.500	276.358	80.005	19.995	103.178	20.186	9.745	0.488
396.000	276.611	80.004	19.994	103.183	20.186	9.776	0.488
396.500	276.884	80.005	19.995	103.191	20.184	9.871	0.505
397.000	277.156	80.006	19.995	103.197	20.184	9.871	0.536
397.500	277.340	80.004	19.995	103.199	20.185	9.792	0.500
398.000	277.638	80.005	19.996	103.193	20.184	9.909	0.469
398.500	277.904	80.006	19.997	103.187	20.186	9.754	0.523
399.000	278.109	80.005	19.995	103.181	20.187	9.706	0.518
399.500	278.384	80.007	19.997	103.182	20.182	10.046	0.476
400.000	278.643	80.008	19.996	103.185	20.184	9.931	0.507
400.500	278.888	80.007	19.997	103.192	20.181	10.098	0.519
401.000	279.161	80.008	19.995	103.195	20.182	10.016	0.510
401.500	279.406	80.008	19.996	103.194	20.183	9.941	0.518
402.000	279.642	80.007	19.996	103.191	20.182	10.067	0.500
402.500	279.881	80.008	19.996	103.188	20.184	9.914	0.478
403.000	280.148	80.008	19.995	103.181	20.184	9.923	0.490
403.500	280.380	80.006	19.996	103.180	20.182	10.019	0.502
404.000	280.657	80.007	19.995	103.180	20.183	9.981	0.504
404.500	280.888	80.006	19.995	103.176	20.180	10.195	0.508
405.000	281.128	80.007	19.995	103.178	20.183	9.991	0.489
405.500	281.394	80.008	19.995	103.181	20.180	10.197	0.489
406.000	281.623	80.006	19.997	103.182	20.181	10.108	0.500
406.500	281.898	80.004	19.995	103.181	20.179	10.247	0.500
407.000	282.136	80.007	19.995	103.180	20.180	10.152	0.509
407.500	282.400	80.006	19.994	103.176	20.177	10.398	0.507
408.000	282.662	80.006	19.993	103.172	20.178	10.305	0.514
408.500	282.929	80.007	19.995	103.169	20.178	10.350	0.528
409.000	283.168	80.006	19.994	103.171	20.176	10.437	0.518
409.500	283.414	80.005	19.994	103.172	20.174	10.600	0.496
410.000	283.658	80.006	19.995	103.172	20.172	10.751	0.487
410.500	283.904	80.007	19.995	103.173	20.178	10.303	0.489
411.000	284.176	80.006	19.995	103.174	20.177	10.397	0.504
411.500	284.449	80.006	19.995	103.175	20.176	10.430	0.532
412.001	284.694	80.006	19.996	103.176	20.175	10.545	0.532
412.501	284.937	80.006	19.994	103.176	20.173	10.670	0.504
413.001	285.164	80.005	19.995	103.176	20.170	10.912	0.479
413.500	285.444	80.006	19.995	103.176	20.170	10.893	0.488
414.000	285.684	80.006	19.995	103.174	20.172	10.777	0.513
414.500	285.924	80.006	19.995	103.174	20.169	10.982	0.500
415.000	286.199	80.006	19.995	103.174	20.170	10.865	0.497
415.500	286.444	80.006	19.996	103.180	20.169	10.969	0.517
416.000	286.715	80.005	19.996	103.183	20.168	11.011	0.518
416.500	286.961	80.006	19.995	103.183	20.167	11.092	0.517
417.000	287.203	80.005	19.994	103.182	20.167	11.068	0.503
417.500	287.478	80.006	19.994	103.183	20.167	11.089	0.503
418.000	287.722	80.007	19.993	103.177	20.168	11.018	0.518
418.500	287.964	80.006	19.995	103.174	20.165	11.214	0.502
419.000	288.248	80.007	19.994	103.174	20.165	11.238	0.506
419.500	288.463	80.006	19.994	103.178	20.164	11.308	0.513
420.000	288.751	80.006	19.993	103.182	20.166	11.185	0.501
420.500	288.966	80.006	19.994	103.185	20.164	11.313	0.503
421.000	289.250	80.007	19.994	103.187	20.162	11.442	0.502
421.500	289.465	80.005	19.994	103.188	20.164	11.307	0.499
422.000	289.726	80.008	19.994	103.186	20.162	11.457	0.488
422.500	289.980	80.008	19.995	103.185	20.158	11.708	0.495
423.000	290.219	80.007	19.995	103.186	20.161	11.496	0.504
423.500	290.471	80.006	19.995	103.186	20.159	11.660	0.492
424.000	290.726	80.007	19.995	103.187	20.160	11.584	0.499
424.501	291.024	80.008	19.993	103.187	20.160	11.598	0.530
425.000	291.280	80.008	19.995	103.184	20.157	11.766	0.553
425.500	291.516	80.007	19.994	103.181	20.157	11.828	0.522
426.000	291.782	80.006	19.995	103.180	20.159	11.636	0.497
426.500	292.050	80.007	19.993	103.179	20.155	11.909	0.518
427.000	292.269	80.007	19.994	103.181	20.158	11.710	0.510
427.500	292.556	80.008	19.993	103.185	20.154	11.990	0.497
428.000	292.773	80.009	19.994	103.191	20.155	11.950	0.505
428.500	293.071	80.007	19.994	103.189	20.156	11.884	0.509
429.000	293.288	80.008	19.995	103.191	20.149	12.333	0.515
429.500	293.578	80.008	19.994	103.188	20.153	12.106	0.511
430.000	293.852	80.007	19.993	103.185	20.149	12.389	0.535
430.500	294.047	80.006	19.994	103.185	20.152	12.168	0.517
431.000	294.340	80.008	19.993	103.191	20.148	12.440	0.479
431.500	294.583	80.008	19.995	103.195	20.150	12.279	0.512
432.000	294.823	80.007	19.994	103.199	20.148	12.459	0.509
432.500	295.108	80.007	19.995	103.201	20.147	12.501	0.503
433.000	295.335	80.007	19.995	103.197	20.144	12.703	0.518
433.500	295.600	80.004	19.995	103.194	20.144	12.724	0.502
434.000	295.893	80.004	19.994	103.188	20.143	12.793	0.525
434.500	296.101	80.006	19.994	103.188	20.137	13.183	0.530
435.000	296.359	80.005	19.994	103.185	20.139	13.045	0.484
435.500	296.652	80.006	19.994	103.185	20.138	13.119	0.508
436.000	296.857	80.005	19.995	103.181	20.137	13.225	0.524
436.500	297.139	80.005	19.995	103.181	20.136	13.303	0.492
437.000	297.375	80.003	19.994	103.182	20.136	13.313	0.503
437.500	297.648	80.006	19.993	103.186	20.134	13.439	0.514
438.000	297.923	80.004	19.996	103.188	20.133	13.461	0.528
438.500	298.159	80.003	19.995	103.189	20.130	13.678	0.530
439.000	298.396	80.004	19.994	103.188	20.128	13.860	0.492
439.500	298.688	80.004	19.996	103.187	20.124	14.093	0.501
440.000	298.940	80.005	19.995	103.182	20.127	13.912	0.536
440.500	299.191	80.004	19.995	103.178	20.127	13.916	0.523
441.000	299.439	80.003	19.996	103.180	20.126	13.998	0.501
441.500	299.697	80.003	19.995	103.180	20.122	14.253	0.503
442.000	299.945	80.005	19.995	103.177	20.121	14.331	0.506
442.500	300.197	80.007	19.995	103.176	20.122	14.258	0.503
443.000	300.459	80.005	19.995	103.175	20.120	14.405	0.507
443.500	300.723	80.004	19.996	103.172	20.117	14.598	0.521
444.000	300.993	80.003	19.996	103.172	20.116	14.699	0.530
444.500	301.199	80.006	19.995	103.171	20.115	14.784	0.505
445.000	301.451	80.006	19.995	103.172	20.111	15.052	0.467
445.500	301.738	80.006	19.997	103.174	20.111	15.024	0.498
446.000	301.987	80.006	19.996	103.176	20.112	14.979	0.538
446.500	302.236	80.005	19.996	103.178	20.109	15.154	0.517
447.000	302.477	80.004	19.996	103.181	20.107	15.302	0.494
447.500	302.740	80.004	19.995	103.180	20.105	15.477	0.497
448.000	303.016	80.005	19.994	103.179	20.103	15.600	0.521
448.500	303.283	80.006	19.996	103.177	20.106	15.389	0.541
449.000	303.497	80.005	19.995	103.181	20.104	15.518	0.512
449.500	303.760	80.005	19.995	103.180	20.101	15.769	0.478
450.000	304.000	80.004	19.996	103.180	20.097	15.996	0.490
450.500	304.310	80.006	19.996	103.180	20.095	16.190	0.527
451.000	304.527	80.004	19.995	103.180	20.096	16.072	0.539
451.500	304.765	80.006	19.995	103.176	20.090	16.536	0.491
452.000	305.034	80.006	19.996	103.173	20.093	16.325	0.481
452.500	305.311	80.006	19.995	103.173	20.090	16.536	0.527
453.000	305.508	80.005	19.996	103.175	20.087	16.744	0.510
453.501	305.793	80.005	19.996	103.177	20.082	17.106	0.478
454.000	306.034	80.007	19.995	103.175	20.081	17.142	0.504
454.500	306.321	80.006	19.996	103.175	20.078	17.346	0.527
455.000	306.585	80.006	19.995	103.176	20.077	17.450	0.539
455.500	306.853	80.005	19.995	103.173	20.078	17.394	0.542
456.000	307.063	80.006	19.995	103.171	20.073	17.715	0.505
456.500	307.351	80.006	19.994	103.171	20.073	17.707	0.488
457.000	307.584	80.005	19.995	103.171	20.070	17.907	0.509
457.500	307.813	80.006	19.996	103.172	20.063	18.441	0.491
458.000	308.107	80.006	19.995	103.172	20.063	18.403	0.492
458.500	308.361	80.006	19.996	103.171	20.064	18.326	0.536
459.000	308.588	80.004	19.993	103.172	20.061	18.576	0.515
459.500	308.877	80.005	19.995	103.172	20.055	18.968	0.498
460.000	309.140	80.006	19.995	103.174	20.055	18.962	0.534
460.500	309.402	80.005	19.996	103.174	20.053	19.140	0.539
461.001	309.638	80.005	19.997	103.175	20.047	19.518	0.511
461.500	309.918	80.005	19.996	103.175	20.047	19.561	0.507
462.000	310.177	80.004	19.995	103.179	20.039	20.105	0.528
462.500	310.430	80.006	19.996	103.177	20.040	20.074	0.526
463.000	310.708	80.006	19.997	103.176	20.035	20.391	0.521
463.500	310.926	80.006	19.995	103.176	20.034	20.483	0.513
464.000	311.191	80.005	19.996	103.175	20.031	20.678	0.489
464.500	311.481	80.004	19.996	103.170	20.030	20.743	0.520
465.000	311.727	80.004	19.995	103.170	20.027	20.979	0.545
465.500	311.950	80.006	19.994	103.170	20.025	21.069	0.502
466.000	312.244	80.006	19.995	103.170	20.021	21.401	0.493
466.500	312.517	80.006	19.996	103.170	20.018	21.610	0.542
467.000	312.767	80.005	19.996	103.170	20.013	21.949	0.545
467.500	312.998	80.005	19.995	103.171	20.012	21.985	0.502
468.000	313.249	80.004	19.996	103.172	20.008	22.262	0.481
468.500	313.540	80.005	19.996	103.171	20.007	22.356	0.512
469.000	313.776	80.004	19.997	103.173	20.004	22.542	0.534
469.500	314.076	80.005	19.996	103.173	19.999	22.910	0.532
470.000	314.325	80.003	19.996	103.172	19.995	23.228	0.543
470.500	314.565	80.004	19.998	103.170	19.993	23.324	0.519
471.000	314.856	80.005	19.996	103.171	19.990	23.574	0.510
471.500	315.095	80.005	19.996	103.169	19.986	23.841	0.531
472.000	315.347	80.003	19.996	103.168	19.983	24.073	0.511
472.500	315.590	80.004	19.996	103.168	19.977	24.495	0.493
473.000	315.847	80.004	19.996	103.169	19.975	24.652	0.497
473.500	316.128	80.003	19.997	103.169	19.971	24.873	0.519
474.000	316.326	80.003	19.996	103.170	19.969	25.072	0.509
474.501	316.609	80.003	19.996	103.171	19.963	25.493	0.480
475.001	316.883	80.004	19.996	103.172	19.959	25.721	0.519
475.500	317.136	80.005	19.997	103.171	19.954	26.065	0.542
476.000	317.376	80.004	19.995	103.169	19.951	26.279	0.510
476.500	317.607	80.004	19.995	103.167	19.946	26.646	0.482
477.000	317.857	80.005	19.995	103.167	19.944	26.767	0.476
477.500	318.132	80.003	19.996	103.165	19.943	26.900	0.503
478.000	318.390	80.004	19.995	103.163	19.939	27.149	0.529
478.500	318.622	80.004	19.996	103.165	19.934	27.532	0.511
479.000	318.910	80.005	19.995	103.167	19.928	27.956	0.505
479.500	319.163	80.004	19.995	103.167	19.927	28.016	0.531
480.000	319.431	80.005	19.995	103.168	19.923	28.309	0.531
480.500	319.672	80.004	19.996	103.171	19.919	28.581	0.515
481.000	319.931	80.005	19.996	103.168	19.915	28.847	0.505
481.500	320.221	80.005	19.995	103.168	19.910	29.165	0.524
482.000	320.457	80.005	19.996	103.168	19.906	29.474	0.537
482.500	320.709	80.006	19.995	103.169	19.899	29.963	0.507
483.000	320.944	80.006	19.995	103.168	19.896	30.184	0.488
483.500	321.221	80.007	19.994	103.171	19.893	30.365	0.500
484.000	321.476	80.006	19.995	103.170	19.889	30.640	0.522
484.500	321.707	80.007	19.994	103.169	19.886	30.897	0.509
485.000	321.985	80.006	19.995	103.167	19.881	31.208	0.497
485.500	322.251	80.007	19.994	103.167	19.876	31.581	0.527
486.000	322.486	80.007	19.994	103.167	19.872	31.884	0.523
486.500	322.763	80.007	19.994	103.168	19.869	32.086	0.506
487.000	322.974	80.007	19.995	103.168	19.863	32.537	0.500
487.500	323.268	80.007	19.995	103.170	19.861	32.644	0.497
488.000	323.504	80.006	19.995	103.170	19.855	33.086	0.518
488.500	323.761	80.009	19.994	103.170	19.850	33.439	0.512
489.000	324.025	80.007	19.995	103.169	19.844	33.869	0.507
489.500	324.223	80.007	19.994	103.170	19.842	34.006	0.491
490.000	324.487	80.007	19.994	103.170	19.833	34.600	0.462
490.500	324.764	80.007	19.994	103.169	19.828	34.996	0.502
491.000	324.989	80.006	19.994	103.168	19.823	35.346	0.522
491.500	325.281	80.006	19.995	103.169	19.817	35.728	0.510
492.000	325.533	80.006	19.994	103.168	19.812	36.089	0.530
492.500	325.771	80.007	19.994	103.169	19.809	36.280	0.517
493.000	326.014	80.006	19.995	103.170	19.799	36.981	0.485
493.500	326.273	80.007	19.995	103.172	19.798	37.050	0.491
494.000	326.544	80.007	19.994	103.172	19.794	37.369	0.516
494.500	326.809	80.007	19.993	103.169	19.786	37.954	0.533
495.000	327.076	80.006	19.993	103.167	19.783	38.117	0.534
495.500	327.326	80.006	19.994	103.167	19.779	38.418	0.524
496.000	327.571	80.006	19.993	103.167	19.772	38.914	0.506
496.500	327.809	80.007	19.993	103.166	19.769	39.126	0.490
497.000	328.094	80.005	19.994	103.167	19.767	39.229	0.503
497.500	328.343	80.006	19.993	103.167	19.757	39.934	0.528
498.000	328.590	80.006	19.994	103.166	19.751	40.384	0.515
498.500	328.827	80.005	19.994	103.164	19.747	40.658	0.490
499.000	329.096	80.005	19.993	103.163	19.741	41.111	0.495
499.500	329.357	80.005	19.995	103.163	19.733	41.644	0.518
500.000	329.587	80.006	19.994	103.162	19.730	41.832	0.511
500.500	329.848	80.007	19.993	103.162	19.723	42.369	0.491
501.000	330.124	80.006	19.995	103.160	19.721	42.530	0.514
501.500	330.359	80.007	19.995	103.155	19.712	43.162	0.524
502.000	330.594	80.006	19.996	103.154	19.706	43.544	0.490
502.500	330.858	80.007	19.993	103.156	19.699	44.020	0.484
503.001	331.086	80.007	19.994	103.159	19.695	44.362	0.495
503.500	331.344	80.007	19.993	103.161	19.690	44.710	0.489
504.000	331.589	80.005	19.995	103.166	19.679	45.455	0.495
504.500	331.832	80.006	19.995	103.167	19.672	45.961	0.496
505.000	332.079	80.006	19.995	103.162	19.669	46.184	0.489
505.500	332.355	80.007	19.995	103.154	19.659	46.864	0.506
506.000	332.605	80.006	19.995	103.148	19.653	47.283	0.524
506.500	332.837	80.008	19.994	103.146	19.649	47.585	0.504
507.000	333.105	80.007	19.994	103.148	19.641	48.101	0.492
507.500	333.371	80.009	19.994	103.150	19.634	48.632	0.517
508.000	333.620	80.008	19.995	103.152	19.625	49.285	0.524
508.500	333.844	80.008	19.996	103.158	19.618	49.763	0.494
509.000	334.114	80.009	19.993	103.158	19.614	50.021	0.483
509.500	334.394	80.009	19.995	103.152	19.604	50.755	0.522
510.000	334.656	80.007	19.994	103.147	19.597	51.220	0.546
510.500	334.874	80.008	19.995	103.144	19.590	51.748	0.511
511.000	335.171	80.007	19.993	103.139	19.585	52.102	0.497
511.500	335.398	80.009	19.995	103.138	19.578	52.583	0.520
512.000	335.673	80.008	19.994	103.142	19.570	53.138	0.513
512.500	335.923	80.008	19.995	103.142	19.559	53.877	0.513
513.000	336.177	80.006	19.995	103.145	19.553	54.329	0.514
513.500	336.381	80.009	19.994	103.145	19.543	55.047	0.481
514.000	336.657	80.008	19.994	103.141	19.539	55.305	0.469
514.500	336.908	80.008	19.994	103.136	19.529	56.006	0.504
515.000	337.224	80.005	19.994	103.136	19.522	56.471	0.547
515.500	337.422	80.008	19.993	103.135	19.514	57.095	0.540
516.000	337.649	80.007	19.994	103.140	19.501	57.953	0.469
516.500	337.978	80.006	19.994	103.144	19.496	58.348	0.491
517.000	338.203	80.007	19.994	103.145	19.486	59.032	0.555
517.500	338.482	80.007	19.994	103.146	19.479	59.500	0.529
518.000	338.717	80.007	19.995	103.144	19.469	60.268	0.509
518.500	338.945	80.007	19.994	103.137	19.461	60.818	0.488
519.000	339.220	80.006	19.992	103.134	19.454	61.292	0.483
519.500	339.473	80.006	19.995	103.134	19.441	62.187	0.515
520.000	339.728	80.006	19.995	103.134	19.433	62.744	0.518
520.500	339.980	80.005	19.995	103.139	19.421	63.636	0.508
521.000	340.250	80.006	19.994	103.140	19.414	64.085	0.514
521.500	340.473	80.007	19.993	103.138	19.406	64.674	0.507
522.000	340.736	80.006	19.994	103.137	19.395	65.470	0.489
522.500	340.994	80.005	19.996	103.135	19.387	65.989	0.503
523.000	341.259	80.007	19.993	103.131	19.377	66.700	0.522
523.500	341.498	80.008	19.993	103.130	19.367	67.428	0.513
524.000	341.760	80.006	19.994	103.131	19.357	68.097	0.503
524.500	342.037	80.006	19.995	103.131	19.347	68.788	0.520
525.000	342.273	80.006	19.993	103.129	19.335	69.666	0.527
525.500	342.520	80.006	19.993	103.129	19.325	70.393	0.498
526.000	342.767	80.005	19.995	103.129	19.314	71.136	0.488
526.500	343.015	80.005	19.994	103.129	19.303	71.888	0.495
527.000	343.270	80.007	19.994	103.129	19.293	72.632	0.499
527.500	343.490	80.006	19.995	103.131	19.282	73.416	0.489
528.000	343.799	80.007	19.994	103.131	19.268	74.362	0.502
528.500	344.037	80.005	19.995	103.131	19.259	75.034	0.538
529.000	344.295	80.005	19.994	103.130	19.245	75.959	0.522
529.500	344.528	80.005	19.994	103.128	19.236	76.633	0.493
530.000	344.794	80.006	19.995	103.127	19.225	77.363	0.495
530.500	345.053	80.004	19.994	103.127	19.215	78.120	0.512
531.000	345.327	80.004	19.996	103.128	19.198	79.300	0.529
531.500	345.523	80.006	19.993	103.127	19.188	80.002	0.501
532.000	345.814	80.006	19.996	103.123	19.175	80.886	0.478
532.500	346.050	80.006	19.995	103.122	19.165	81.619	0.507
533.000	346.299	80.006	19.994	103.120	19.149	82.767	0.506
533.500	346.542	80.005	19.996	103.121	19.135	83.727	0.489
534.000	346.776	80.006	19.996	103.121	19.124	84.538	0.485
534.500	347.025	80.004	19.995	103.125	19.111	85.466	0.480
535.000	347.282	80.007	19.994	103.127	19.100	86.227	0.494
535.500	347.557	80.005	19.996	103.124	19.080	87.592	0.519
536.000	347.817	80.005	19.995	103.120	19.073	88.099	0.534
536.500	348.055	80.006	19.995	103.117	19.060	89.036	0.517
537.000	348.306	80.005	19.995	103.117	19.043	90.229	0.494
537.500	348.567	80.005	19.994	103.116	19.032	90.989	0.500
538.000	348.816	80.005	19.994	103.117	19.015	92.182	0.511
538.500	349.067	80.006	19.996	103.115	18.998	93.369	0.505
539.000	349.309	80.004	19.996	103.111	18.988	94.044	0.497
539.500	349.562	80.006	19.995	103.109	18.972	95.224	0.494
540.000	349.819	80.006	19.995	103.106	18.957	96.279	0.502
540.500	350.109	80.006	19.995	103.105	18.940	97.471	0.528
541.000	350.339	80.005	19.995	103.104	18.925	98.527	0.534
541.500	350.570	80.005	19.995	103.104	18.910	99.568	0.490
542.000	350.827	80.007	19.995	103.103	18.898	100.414	0.474
542.500	351.081	80.005	19.996	103.105	18.877	101.865	0.500
543.000	351.332	80.005	19.995	103.106	18.861	103.032	0.508
543.500	351.591	80.006	19.995	103.111	18.845	104.130	0.507
544.000	351.845	80.006	19.994	103.116	18.827	105.415	0.511
544.500	352.078	80.007	19.994	103.118	18.812	106.470	0.500
545.000	352.327	80.005	19.994	103.119	18.793	107.778	0.485
545.500	352.580	80.006	19.994	103.119	18.781	108.644	0.492
546.000	352.866	80.005	19.995	103.115	18.759	110.179	0.520
546.500	353.101	80.005	19.995	103.110	18.741	111.467	0.530
547.000	353.369	80.006	19.994	103.106	18.725	112.584	0.512
547.500	353.589	80.005	19.994	103.102	18.705	113.959	0.496
548.000	353.878	80.006	19.994	103.098	18.686	115.324	0.499
548.500	354.129	80.005	19.993	103.095	18.668	116.596	0.524
549.000	354.347	80.007	19.994	103.094	18.652	117.715	0.505
549.500	354.620	80.006	19.994	103.095	18.631	119.151	0.480
550.000	354.858	80.006	19.994	103.094	18.612	120.485	0.501
550.500	355.107	80.006	19.994	103.094	18.589	122.093	0.499
551.000	355.364	80.006	19.994	103.094	18.570	123.472	0.497
551.500	355.672	80.005	19.994	103.095	18.545	125.195	0.535
552.000	355.875	80.004	19.995	103.095	18.530	126.239	0.537
552.500	356.156	80.005	19.994	103.095	18.506	127.955	0.497
553.000	356.408	80.005	19.995	103.095	18.487	129.279	0.509
553.500	356.644	80.004	19.995	103.095	18.467	130.658	0.510
554.000	356.884	80.005	19.995	103.094	18.445	132.258	0.482
554.500	357.126	80.005	19.994	103.094	18.427	133.476	0.479
555.000	357.396	80.005	19.994	103.093	18.406	134.947	0.497
555.500	357.667	80.003	19.996	103.092	18.385	136.417	0.526
556.000	357.916	80.005	19.994	103.093	18.360	138.184	0.530
556.500	358.144	80.004	19.994	103.087	18.343	139.363	0.498
557.000	358.424	80.004	19.996	103.080	18.320	141.003	0.493
557.500	358.685	80.004	19.994	103.078	18.299	142.457	0.524
558.000	358.921	80.004	19.995	103.076	18.278	143.956	0.519
558.500	359.187	80.004	19.996	103.073	18.258	145.371	0.500
559.000	359.413	80.004	19.994	103.075	18.236	146.892	0.497
559.500	359.690	80.006	19.994	103.075	18.214	148.440	0.497
560.001	359.937	80.004	19.994	103.073	18.193	149.888	0.514
560.500	360.201	80.004	19.996	103.069	18.171	151.488	0.518
561.000	360.405	80.005	19.995	103.064	18.151	152.833	0.490
561.500	360.682	80.005	19.995	103.060	18.128	154.507	0.474
562.000	360.928	80.005	19.994	103.060	18.104	156.142	0.502
562.500	361.192	80.003	19.995	103.057	18.088	157.304	0.517
563.000	361.429	80.005	19.995	103.058	18.061	159.202	0.506
563.500	361.660	80.004	19.995	103.058	18.041	160.629	0.485
564.000	361.902	80.004	19.995	103.058	18.019	162.119	0.471
564.500	362.198	80.005	19.996	103.057	17.992	164.052	0.505
565.000	362.443	80.006	19.995	103.057	17.973	165.390	0.539
565.500	362.679	80.004	19.995	103.056	17.950	167.007	0.511
566.000	362.939	80.005	19.996	103.052	17.928	168.533	0.489
566.500	363.167	80.005	19.995	103.047	17.905	170.129	0.492
567.000	363.429	80.007	19.994	103.043	17.880	171.888	0.489
567.500	363.685	80.005	19.996	103.040	17.860	173.267	0.504
568.000	363.908	80.007	19.996	103.034	17.836	174.932	0.499
568.500	364.174	80.006	19.996	103.032	17.816	176.347	0.484
569.000	364.423	80.006	19.997	103.030	17.795	177.796	0.502
569.500	364.675	80.007	19.995	103.027	17.774	179.315	0.508
570.000	364.952	80.005	19.996	103.022	17.751	180.897	0.515
570.500	365.171	80.006	19.996	103.021	17.731	182.350	0.513
571.000	365.444	80.006	19.996	103.020	17.710	183.828	0.494
571.500	365.682	80.005	19.996	103.018	17.687	185.454	0.501
572.000	365.944	80.008	19.994	103.017	17.667	186.796	0.505
572.500	366.211	80.006	19.995	103.015	17.645	188.378	0.514
573.000	366.453	80.006	19.996	103.013	17.625	189.736	0.519
573.500	366.695	80.006	19.995	103.012	17.602	191.374	0.497
574.000	366.944	80.004	19.995	103.012	17.580	192.895	0.487
574.500	367.176	80.006	19.993	103.012	17.562	194.167	0.486
575.000	367.431	80.006	19.995	103.012	17.540	195.669	0.484
575.500	367.698	80.007	19.995	103.012	17.516	197.357	0.505
576.000	367.966	80.007	19.994	103.012	17.495	198.828	0.529
576.500	368.200	80.007	19.995	103.011	17.478	200.014	0.519
577.000	368.473	80.006	19.995	103.010	17.456	201.594	0.504
577.500	368.682	80.007	19.995	103.004	17.438	202.881	0.494
578.000	368.958	80.007	19.993	102.997	17.418	204.228	0.483
578.500	369.236	80.005	19.995	102.989	17.401	205.443	0.520
579.000	369.505	80.006	19.993	102.982	17.381	206.876	0.550
579.500	369.728	80.004	19.996	102.976	17.361	208.287	0.520
580.000	369.983	80.005	19.996	102.974	17.342	209.574	0.486
580.500	370.191	80.006	19.996	102.974	17.325	210.777	0.471
581.000	370.471	80.005	19.994	102.974	17.311	211.732	0.475
581.500	370.706	80.007	19.995	102.975	17.290	213.221	0.501
582.000	370.947	80.006	19.994	102.975	17.277	214.145	0.495
582.500	371.229	80.007	19.995	102.975	17.261	215.257	0.500
583.000	371.489	80.006	19.996	102.971	17.244	216.430	0.532
583.500	371.719	80.005	19.994	102.969	17.229	217.539	0.516
584.000	371.980	80.006	19.995	102.967	17.213	218.599	0.490
584.500	372.231	80.007	19.995	102.961	17.196	219.803	0.502
585.000	372.516	80.008	19.995	102.954	17.185	220.579	0.524
585.500	372.751	80.005	19.995	102.951	17.169	221.687	0.528
586.000	372.990	80.008	19.993	102.946	17.156	222.605	0.497
586.500	373.265	80.007	19.996	102.941	17.142	223.607	0.493
587.000	373.508	80.007	19.995	102.939	17.129	224.519	0.516
587.500	373.718	80.009	19.995	102.938	17.121	225.099	0.486
588.000	374.018	80.008	19.994	102.936	17.107	226.034	0.482
588.500	374.271	80.008	19.993	102.935	17.097	226.735	0.531
589.000	374.475	80.007	19.994	102.935	17.089	227.299	0.505
589.500	374.774	80.007	19.994	102.935	17.078	228.099	0.480
590.000	374.996	80.007	19.993	102.935	17.068	228.761	0.512
590.500	375.268	80.008	19.995	102.934	17.063	229.153	0.508
591.000	375.557	80.006	19.993	102.933	17.052	229.887	0.528
591.500	375.761	80.008	19.993	102.933	17.045	230.388	0.527
592.000	376.027	80.008	19.994	102.926	17.037	230.939	0.481
592.500	376.261	80.009	19.994	102.924	17.033	231.272	0.485
593.000	376.554	80.009	19.994	102.926	17.033	231.265	0.513
593.500	376.779	80.008	19.994	102.925	17.023	231.940	0.523
594.000	377.050	80.006	19.995	102.923	17.019	232.261	0.507
594.500	377.291	80.009	19.993	102.927	17.016	232.459	0.504
595.000	377.560	80.008	19.993	102.921	17.012	232.712	0.511
595.500	377.758	80.010	19.993	102.915	17.012	232.767	0.488
596.000	378.069	80.008	19.994	102.909	17.009	232.996	0.488
596.500	378.310	80.008	19.995	102.909	17.005	233.251	0.531
597.000	378.577	80.009	19.995	102.912	17.005	233.250	0.530
597.500	378.836	80.008	19.995	102.916	17.007	233.140	0.517
598.000	379.070	80.007	19.996	102.916	17.003	233.374	0.510
598.500	379.321	80.006	19.996	102.916	17.007	233.099	0.489
599.000	379.555	80.007	19.993	102.911	17.007	233.114	0.485
599.500	379.854	80.006	19.997	102.905	17.008	233.039	0.509
600.000	380.063	80.007	19.994	102.902	17.015	232.563	0.521
600.500	380.295	80.006	19.994	102.900	17.018	232.394	0.474
601.000	380.597	80.005	19.995	102.902	17.020	232.233	0.487
601.500	380.812	80.005	19.994	102.903	17.024	231.942	0.525
602.000	381.105	80.004	19.995	102.901	17.030	231.509	0.512
602.501	381.331	80.005	19.994	102.905	17.035	231.161	0.514
603.000	381.602	80.008	19.992	102.909	17.039	230.893	0.508
603.500	381.833	80.006	19.994	102.906	17.045	230.469	0.500
604.000	382.107	80.007	19.994	102.906	17.056	229.700	0.504
604.500	382.329	80.005	19.994	102.909	17.059	229.524	0.500
605.000	382.589	80.007	19.994	102.906	17.070	228.751	0.488
605.500	382.809	80.007	19.994	102.905	17.080	228.071	0.481
606.000	383.080	80.004	19.995	102.912	17.089	227.425	0.486
606.500	383.330	80.005	19.995	102.916	17.098	226.761	0.506
607.000	383.615	80.006	19.994	102.920	17.108	226.077	0.528
607.500	383.874	80.006	19.995	102.922	17.114	225.625	0.540
608.000	384.145	80.006	19.994	102.926	17.129	224.596	0.537
608.500	384.381	80.005	19.995	102.924	17.140	223.777	0.519
609.000	384.644	80.006	19.994	102.923	17.149	223.197	0.503
609.500	384.873	80.006	19.993	102.922	17.159	222.504	0.495
610.000	385.119	80.005	19.994	102.925	17.175	221.414	0.483
610.500	385.355	80.004	19.993	102.927	17.186	220.657	0.478
611.000	385.628	80.004	19.994	102.929	17.199	219.748	0.495
611.500	385.866	80.005	19.995	102.933	17.214	218.648	0.510
612.000	386.129	80.005	19.994	102.936	17.228	217.711	0.506
612.500	386.385	80.006	19.994	102.938	17.240	216.850	0.510
613.000	386.604	80.006	19.994	102.939	17.253	215.948	0.497
613.500	386.849	80.006	19.996	102.940	17.268	214.904	0.470
614.000	387.157	80.006	19.993	102.943	17.283	213.846	0.509
614.500	387.410	80.006	19.994	102.944	17.296	212.943	0.558
615.000	387.668	80.005	19.994	102.944	17.312	211.786	0.536
615.500	387.927	80.005	19.993	102.945	17.328	210.643	0.513
616.000	388.166	80.006	19.994	102.948	17.340	209.853	0.507
616.500	388.415	80.007	19.993	102.949	17.355	208.741	0.493
617.000	388.725	80.006	19.994	102.952	17.372	207.567	0.524
617.500	388.922	80.006	19.995	102.951	17.388	206.475	0.533
618.000	389.204	80.007	19.995	102.951	17.403	205.420	0.493
618.500	389.446	80.003	19.995	102.948	17.419	204.329	0.501
619.000	389.690	80.005	19.995	102.944	17.435	203.218	0.505
619.500	389.982	80.006	19.995	102.942	17.452	202.021	0.512
620.000	390.205	80.005	19.994	102.947	17.467	200.955	0.526
620.500	390.477	80.006	19.994	102.953	17.485	199.690	0.505
621.000	390.715	80.008	19.993	102.961	17.505	198.310	0.502
621.500	390.968	80.004	19.994	102.968	17.519	197.325	0.500
622.000	391.204	80.006	19.994	102.975	17.537	196.044	0.490
622.500	391.461	80.005	19.995	102.978	17.556	194.705	0.491
623.000	391.717	80.007	19.995	102.977	17.573	193.514	0.503
623.500	391.974	80.006	19.994	102.976	17.590	192.325	0.513
624.001	392.221	80.007	19.994	102.977	17.608	191.054	0.508
624.500	392.469	80.004	19.994	102.976	17.626	189.794	0.499
625.000	392.763	80.006	19.995	102.976	17.643	188.599	0.519
625.500	393.041	80.007	19.993	102.977	17.659	187.434	0.557
626.000	393.293	80.006	19.994	102.978	17.678	186.127	0.551
626.500	393.562	80.005	19.996	102.978	17.698	184.748	0.525
627.000	393.800	80.006	19.996	102.979	17.714	183.584	0.514
627.500	394.008	80.005	19.996	102.981	17.730	182.448	0.476
628.000	394.311	80.006	19.995	102.985	17.752	180.931	0.478
628.500	394.563	80.004	19.995	102.990	17.767	179.863	0.533
629.000	394.795	80.005	19.994	102.992	17.784	178.657	0.520
629.500	395.064	80.005	19.995	102.996	17.803	177.364	0.492
630.000	395.305	80.005	19.994	103.001	17.821	176.105	0.506
630.500	395.535	80.005	19.994	103.004	17.836	175.036	0.491
631.000	395.824	80.005	19.996	103.006	17.854	173.790	0.495
631.500	396.050	80.005	19.995	103.009	17.871	172.585	0.517
632.000	396.336	80.006	19.995	103.006	17.890	171.258	0.513
632.500	396.594	80.006	19.994	103.007	17.906	170.137	0.528
633.000	396.834	80.005	19.995	103.007	17.927	168.633	0.521
633.500	397.098	80.004	19.995	103.007	17.940	167.737	0.501
634.000	397.349	80.004	19.994	103.006	17.960	166.298	0.509
634.500	397.610	80.005	19.995	103.010	17.976	165.215	0.513
635.000	397.843	80.005	19.995	103.010	17.993	163.978	0.503
635.500	398.108	80.006	19.995	103.011	18.013	162.618	0.496
636.000	398.401	80.005	19.995	103.011	18.024	161.811	0.528
636.500	398.634	80.006	19.995	103.014	18.045	160.384	0.542
637.000	398.906	80.006	19.995	103.014	18.060	159.329	0.515
637.500	399.155	80.005	19.994	103.013	18.078	158.031	0.513
638.000	399.387	80.005	19.995	103.012	18.094	156.947	0.501
638.500	399.713	80.005	19.995	103.012	18.109	155.896	0.520
639.000	399.917	80.006	19.993	103.012	18.127	154.608	0.544
639.500	400.163	80.003	19.996	103.012	18.141	153.600	0.490
640.000	400.431	80.006	19.997	103.015	18.157	152.521	0.482
640.500	400.722	80.005	19.996	103.022	18.174	151.278	0.536
641.000	400.948	80.006	19.995	103.024	18.190	150.161	0.538
641.500	401.163	80.007	19.995	103.027	18.204	149.171	0.479
642.000	401.459	80.007	19.995	103.031	18.219	148.163	0.476
642.500	401.687	80.006	19.995	103.029	18.238	146.809	0.518
643.000	401.973	80.006	19.995	103.025	18.249	145.992	0.519
643.500	402.196	80.006	19.995	103.024	18.267	144.738	0.511
644.000	402.456	80.007	19.994	103.023	18.281	143.789	0.496
644.500	402.718	80.007	19.995	103.019	18.295	142.753	0.503
645.000	402.974	80.008	19.995	103.021	18.310	141.706	0.520
645.500	403.213	80.008	19.995	103.024	18.320	141.015	0.507
646.000	403.474	80.007	19.995	103.029	18.336	139.921	0.497
646.500	403.711	80.006	19.994	103.034	18.349	138.997	0.499
647.000	403.978	80.008	19.994	103.040	18.360	138.226	0.501
647.500	404.263	80.007	19.994	103.042	18.376	137.099	0.528
648.000	404.518	80.007	19.996	103.045	18.390	136.114	0.546
648.500	404.748	80.008	19.995	103.047	18.403	135.225	0.512
649.000	405.007	80.007	19.996	103.049	18.414	134.400	0.487
649.500	405.244	80.007	19.994	103.050	18.427	133.501	0.493
650.000	405.498	80.006	19.997	103.052	18.435	132.976	0.494
650.500	405.742	80.008	19.994	103.051	18.447	132.095	0.494
651.000	406.005	80.007	19.994	103.050	18.459	131.246	0.502
651.500	406.241	80.008	19.994	103.050	18.473	130.306	0.503
652.000	406.514	80.008	19.995	103.050	18.483	129.593	0.504
652.500	406.755	80.008	19.995	103.050	18.498	128.534	0.511
653.000	407.041	80.007	19.996	103.051	18.505	127.991	0.520
653.500	407.284	80.008	19.995	103.052	18.517	127.151	0.528
654.000	407.561	80.008	19.995	103.052	18.531	126.168	0.524
654.500	407.769	80.007	19.995	103.052	18.543	125.316	0.503
655.000	408.061	80.008	19.996	103.052	18.557	124.367	0.493
655.500	408.287	80.007	19.994	103.052	18.563	123.919	0.509
656.000	408.539	80.006	19.995	103.052	18.575	123.118	0.498
656.500	408.835	80.008	19.995	103.051	18.586	122.316	0.513
657.000	409.088	80.006	19.994	103.052	18.594	121.759	0.549
657.500	409.351	80.006	19.996	103.052	18.606	120.942	0.532
658.000	409.602	80.007	19.995	103.054	18.616	120.250	0.515
658.500	409.802	80.005	19.995	103.057	18.627	119.497	0.483
659.000	410.129	80.005	19.994	103.057	18.633	119.069	0.489
659.500	410.353	80.005	19.996	103.057	18.642	118.442	0.538
660.000	410.607	80.005	19.996	103.060	18.649	117.924	0.515
660.500	410.871	80.003	19.996	103.060	18.656	117.420	0.499
661.000	411.152	80.005	19.996	103.062	18.669	116.513	0.532
661.500	411.374	80.006	19.995	103.063	18.676	116.012	0.524
662.000	411.660	80.006	19.995	103.064	18.684	115.464	0.506
662.500	411.898	80.005	19.996	103.061	18.696	114.586	0.516
663.000	412.143	80.005	19.995	103.060	18.703	114.102	0.503
663.500	412.411	80.006	19.996	103.059	18.708	113.753	0.498
664.000	412.642	80.006	19.996	103.057	18.717	113.170	0.506
664.500	412.899	80.005	19.996	103.057	18.725	112.586	0.494
665.000	413.156	80.005	19.995	103.057	18.733	112.028	0.501
665.500	413.390	80.006	19.996	103.059	18.736	111.772	0.503
666.000	413.638	80.006	19.996	103.059	18.743	111.263	0.487
666.500	413.887	80.006	19.995	103.060	18.753	110.619	0.490
667.000	414.156	80.006	19.995	103.062	18.757	110.279	0.507
667.500	414.366	80.007	19.996	103.067	18.768	109.530	0.498
668.000	414.665	80.007	19.995	103.071	18.771	109.332	0.494
668.500	414.906	80.006	19.994	103.075	18.777	108.909	0.524
669.000	415.169	80.007	19.995	103.081	18.783	108.494	0.522
669.500	415.414	80.007	19.995	103.085	18.788	108.114	0.506
670.000	415.649	80.008	19.995	103.086	18.793	107.806	0.494
670.500	415.898	80.007	19.994	103.083	18.803	107.085	0.482
671.001	416.181	80.008	19.995	103.080	18.806	106.852	0.508
671.501	416.437	80.007	19.993	103.079	18.812	106.452	0.536
672.001	416.701	80.008	19.994	103.076	18.821	105.836	0.529
672.501	416.932	80.008	19.994	103.077	18.828	105.322	0.507
673.001	417.233	80.008	19.993	103.082	18.830	105.190	0.514
673.501	417.464	80.007	19.993	103.086	18.834	104.928	0.532
674.000	417.706	80.007	19.994	103.088	18.841	104.434	0.502
674.500	417.950	80.007	19.994	103.090	18.848	103.944	0.480
675.000	418.247	80.009	19.994	103.089	18.852	103.599	0.514
675.500	418.470	80.008	19.993	103.085	18.855	103.444	0.530
676.000	418.763	80.008	19.995	103.080	18.859	103.143	0.518
676.500	419.009	80.008	19.993	103.076	18.865	102.698	0.528
677.000	419.251	80.008	19.993	103.074	18.868	102.479	0.514
677.501	419.516	80.008	19.993	103.076	18.872	102.222	0.497
678.000	419.734	80.009	19.994	103.080	18.875	102.009	0.495
678.500	419.995	80.008	19.993	103.084	18.882	101.543	0.481
679.000	420.247	80.008	19.995	103.088	18.886	101.235	0.496
679.500	420.502	80.006	19.994	103.089	18.891	100.906	0.510
680.000	420.749	80.007	19.993	103.086	18.896	100.571	0.504
680.500	420.985	80.007	19.994	103.082	18.899	100.349	0.493
681.000	421.264	80.006	19.993	103.083	18.904	99.960	0.499
681.500	421.573	80.006	19.994	103.084	18.910	99.591	0.552
682.000	421.784	80.006	19.994	103.086	18.914	99.313	0.554
682.500	422.005	80.007	19.995	103.089	18.919	98.962	0.476
683.000	422.273	80.006	19.993	103.092	18.922	98.751	0.461
683.500	422.514	80.005	19.992	103.090	18.925	98.539	0.499
684.000	422.766	80.007	19.993	103.088	18.927	98.347	0.501
684.500	423.056	80.004	19.995	103.086	18.931	98.101	0.518
685.000	423.319	80.006	19.995	103.084	18.933	97.951	0.547
685.500	423.536	80.006	19.994	103.085	18.937	97.647	0.516
686.000	423.810	80.006	19.994	103.087	18.942	97.278	0.485
686.500	424.065	80.006	19.993	103.089	18.945	97.093	0.510
687.000	424.307	80.006	19.994	103.091	18.948	96.897	0.513
687.500	424.524	80.007	19.994	103.094	18.952	96.612	0.478
688.000	424.810	80.005	19.994	103.094	18.957	96.234	0.481
688.500	425.051	80.006	19.994	103.095	18.958	96.198	0.515
689.000	425.305	80.005	19.994	103.095	18.959	96.101	0.511
689.501	425.590	80.005	19.994	103.095	18.965	95.680	0.517
690.000	425.834	80.005	19.994	103.094	18.971	95.250	0.534
690.500	426.130	80.005	19.993	103.093	18.975	94.971	0.534
691.000	426.385	80.006	19.994	103.093	18.977	94.866	0.545
691.500	426.595	80.007	19.994	103.093	18.984	94.369	0.508
692.000	426.871	80.005	19.994	103.094	18.985	94.258	0.476
692.500	427.122	80.005	19.994	103.095	18.989	94.006	0.507
693.000	427.362	80.005	19.994	103.097	18.989	94.009	0.509
693.500	427.611	80.005	19.994	103.098	18.989	93.985	0.490
694.000	427.864	80.006	19.994	103.098	18.998	93.370	0.495
694.500	428.131	80.006	19.994	103.097	18.998	93.358	0.511
695.000	428.418	80.005	19.992	103.097	19.002	93.077	0.537
695.500	428.678	80.005	19.995	103.097	19.005	92.857	0.551
696.000	428.916	80.004	19.993	103.097	19.007	92.768	0.523
696.500	429.167	80.006	19.995	103.098	19.011	92.475	0.493
697.000	429.438	80.007	19.994	103.098	19.013	92.287	0.506
697.500	429.680	80.006	19.994	103.097	19.018	91.982	0.518
698.000	429.929	80.006	19.994	103.096	19.022	91.676	0.502
698.500	430.188	80.006	19.994	103.095	19.025	91.470	0.499
699.000	430.440	80.004	19.993	103.094	19.025	91.433	0.509
699.501	430.707	80.006	19.996	103.094	19.027	91.354	0.515
700.001	430.983	80.005	19.995	103.097	19.033	90.904	0.531
700.500	431.199	80.006	19.994	103.101	19.036	90.668	0.518
701.000	431.467	80.005	19.995	103.101	19.036	90.672	0.488
701.500	431.692	80.006	19.995	103.101	19.046	90.020	0.488
702.000	431.957	80.008	19.995	103.100	19.043	90.199	0.491
702.500	432.221	80.005	19.993	103.097	19.049	89.764	0.509
703.000	432.485	80.007	19.994	103.093	19.050	89.677	0.529
703.500	432.721	80.007	19.993	103.092	19.055	89.374	0.514
704.000	433.067	80.007	19.994	103.092	19.054	89.397	0.542
704.500	433.278	80.007	19.995	103.092	19.059	89.056	0.570
705.000	433.546	80.007	19.994	103.094	19.063	88.766	0.518
705.500	433.787	80.007	19.993	103.094	19.067	88.505	0.494
706.000	434.087	80.007	19.994	103.094	19.070	88.274	0.525
706.500	434.315	80.008	19.994	103.097	19.072	88.163	0.534
707.000	434.567	80.006	19.994	103.097	19.078	87.743	0.504
707.500	434.831	80.008	19.994	103.096	19.078	87.734	0.499
708.000	435.086	80.006	19.995	103.096	19.082	87.487	0.518
708.500	435.317	80.007	19.993	103.096	19.087	87.103	0.502
709.000	435.596	80.007	19.995	103.093	19.089	86.941	0.498
709.500	435.864	80.008	19.995	103.092	19.091	86.839	0.529
710.000	436.106	80.007	19.994	103.091	19.094	86.597	0.528
710.500	436.352	80.005	19.995	103.092	19.097	86.393	0.499
711.000	436.611	80.007	19.996	103.092	19.103	85.985	0.496
711.500	436.848	80.006	19.994	103.093	19.105	85.864	0.501
712.000	437.105	80.006	19.994	103.094	19.109	85.534	0.495
712.500	437.361	80.005	19.994	103.096	19.112	85.327	0.503
713.000	437.625	80.006	19.993	103.099	19.115	85.159	0.516
713.500	437.876	80.006	19.994	103.100	19.119	84.848	0.517
714.000	438.123	80.006	19.994	103.099	19.124	84.527	0.507
714.500	438.390	80.006	19.994	103.099	19.126	84.332	0.506
715.000	438.617	80.005	19.994	103.098	19.128	84.203	0.504
715.501	438.871	80.005	19.993	103.096	19.131	84.011	0.488
716.001	439.118	80.006	19.994	103.096	19.138	83.499	0.492
716.500	439.395	80.005	19.994	103.096	19.141	83.347	0.512
717.000	439.637	80.006	19.994	103.097	19.145	83.034	0.521
717.500	439.892	80.006	19.995	103.098	19.151	82.590	0.508
718.000	440.146	80.004	19.995	103.099	19.152	82.514	0.503
718.500	440.379	80.005	19.994	103.097	19.155	82.307	0.498
719.000	440.657	80.006	19.993	103.097	19.159	82.054	0.499
719.500	440.891	80.005	19.994	103.102	19.168	81.402	0.512
720.000	441.142	80.004	19.994	103.101	19.169	81.361	0.498
720.500	441.388	80.005	19.996	103.101	19.177	80.739	0.491
721.000	441.673	80.004	19.995	103.101	19.180	80.564	0.514
721.500	441.901	80.005	19.995	103.100	19.184	80.249	0.522
722.000	442.148	80.005	19.995	103.095	19.187	80.050	0.494
722.500	442.416	80.006	19.995	103.097	19.190	79.858	0.495
723.000	442.671	80.006	19.995	103.097	19.197	79.340	0.519
723.500	442.922	80.005	19.994	103.097	19.200	79.138	0.514
724.000	443.182	80.005	19.995	103.098	19.203	78.939	0.508
724.500	443.419	80.005	19.995	103.098	19.211	78.384	0.504
725.000	443.663	80.006	19.996	103.095	19.217	77.988	0.490
725.500	443.931	80.005	19.995	103.098	19.222	77.571	0.496
726.000	444.182	80.006	19.996	103.104	19.228	77.150	0.515
726.500	444.429	80.007	19.996	103.106	19.228	77.180	0.508
727.000	444.663	80.006	19.996	103.108	19.235	76.672	0.490
727.500	444.947	80.007	19.994	103.111	19.244	76.101	0.500
728.000	445.176	80.007	19.994	103.110	19.248	75.811	0.515
728.500	445.403	80.006	19.995	103.105	19.251	75.595	0.485
729.000	445.662	80.008	19.994	103.102	19.257	75.144	0.471
729.500	445.928	80.008	19.994	103.100	19.260	74.919	0.505
730.000	446.131	80.009	19.995	103.098	19.263	74.752	0.497
730.500	446.390	80.007	19.994	103.094	19.268	74.362	0.466
731.000	446.684	80.008	19.993	103.095	19.276	73.796	0.508
731.500	446.938	80.008	19.995	103.095	19.279	73.575	0.550
732.000	447.117	80.008	19.995	103.095	19.283	73.283	0.491
732.500	447.392	80.008	19.993	103.094	19.288	72.989	0.444
733.000	447.642	80.007	19.993	103.098	19.293	72.652	0.489
733.500	447.957	80.008	19.994	103.101	19.300	72.132	0.545
734.000	448.166	80.008	19.994	103.101	19.305	71.771	0.545
734.500	448.398	80.007	19.995	103.100	19.308	71.576	0.482
735.000	448.650	80.007	19.995	103.101	19.314	71.150	0.462
735.500	448.908	80.005	19.996	103.099	19.323	70.491	0.497
736.000	449.195	80.007	19.996	103.100	19.327	70.247	0.528
736.500	449.402	80.006	19.993	103.102	19.328	70.126	0.519
737.000	449.655	80.007	19.996	103.104	19.337	69.483	0.477
737.500	449.920	80.006	19.996	103.110	19.341	69.260	0.490
738.000	450.141	80.006	19.995	103.115	19.349	68.657	0.502
738.500	450.431	80.007	19.995	103.116	19.353	68.366	0.498
739.000	450.640	80.006	19.996	103.116	19.360	67.885	0.505
739.500	450.950	80.006	19.995	103.120	19.364	67.653	0.509
740.000	451.197	80.006	19.994	103.118	19.367	67.420	0.537
740.500	451.440	80.005	19.995	103.112	19.376	66.774	0.523
741.000	451.711	80.008	19.996	103.107	19.384	66.223	0.502
741.500	451.956	80.006	19.995	103.104	19.388	65.936	0.515
742.000	452.253	80.006	19.994	103.102	19.392	65.679	0.529
742.500	452.475	80.006	19.996	103.104	19.399	65.145	0.531
743.000	452.701	80.006	19.994	103.109	19.405	64.716	0.484
743.500	452.949	80.007	19.994	103.114	19.410	64.408	0.461
744.000	453.220	80.006	19.994	103.118	19.415	64.043	0.496
744.500	453.433	80.006	19.995	103.118	19.422	63.565	0.502
745.000	453.688	80.005	19.995	103.118	19.426	63.270	0.476
745.500	453.971	80.007	19.995	103.118	19.433	62.772	0.503
746.000	454.221	80.005	19.995	103.114	19.435	62.602	0.535
746.500	454.430	80.006	19.995	103.111	19.442	62.149	0.496
747.000	454.687	80.006	19.995	103.115	19.449	61.644	0.462
747.500	454.990	80.007	19.994	103.114	19.454	61.253	0.512
748.000	455.206	80.006	19.996	103.115	19.460	60.891	0.539
748.500	455.451	80.005	19.995	103.116	19.465	60.541	0.490
749.000	455.724	80.006	19.995	103.117	19.473	59.947	0.490
749.500	455.998	80.006	19.996	103.117	19.480	59.480	0.532
750.000	456.259	80.006	19.996	103.119	19.485	59.116	0.541
750.500	456.469	80.007	19.995	103.121	19.490	58.725	0.503
751.000	456.719	80.007	19.996	103.124	19.496	58.333	0.466
751.500	456.990	80.006	19.995	103.130	19.499	58.139	0.491
752.001	457.253	80.007	19.995	103.130	19.510	57.377	0.527
752.500	457.516	80.007	19.996	103.126	19.516	56.953	0.530
753.000	457.749	80.008	19.995	103.123	19.520	56.659	0.511
753.500	457.990	80.007	19.994	103.122	19.524	56.389	0.485
754.000	458.235	80.008	19.995	103.118	19.534	55.659	0.480
754.500	458.550	80.009	19.995	103.114	19.545	54.914	0.523
755.000	458.795	80.008	19.995	103.114	19.548	54.693	0.560
755.500	459.015	80.006	19.995	103.114	19.556	54.140	0.512
756.000	459.286	80.009	19.995	103.112	19.563	53.644	0.478
756.500	459.536	80.007	19.995	103.112	19.567	53.349	0.506
757.000	459.830	80.008	19.995	103.110	19.571	53.078	0.532
757.500	460.041	80.008	19.996	103.112	19.582	52.285	0.524
758.000	460.300	80.008	19.995	103.112	19.585	52.066	0.488
758.500	460.556	80.008	19.994	103.113	19.594	51.458	0.492
759.000	460.790	80.008	19.993	103.118	19.599	51.075	0.502
759.500	461.033	80.007	19.995	103.125	19.605	50.635	0.484
760.000	461.286	80.008	19.995	103.126	19.614	50.033	0.487
760.500	461.508	80.008	19.994	103.129	19.617	49.786	0.486
761.000	461.814	80.008	19.996	103.128	19.627	49.114	0.501
761.500	462.036	80.007	19.995	103.125	19.636	48.448	0.527
762.000	462.299	80.006	19.996	103.125	19.640	48.200	0.506
762.500	462.536	80.006	19.995	103.125	19.644	47.939	0.493
763.000	462.774	80.006	19.994	103.122	19.650	47.509	0.488
763.500	463.028	80.005	19.994	103.123	19.658	46.920	0.483
764.000	463.288	80.006	19.995	103.126	19.670	46.101	0.503
764.500	463.540	80.006	19.994	103.127	19.676	45.681	0.513
765.000	463.801	80.005	19.994	103.127	19.683	45.149	0.513
765.500	464.055	80.005	19.995	103.131	19.689	44.781	0.514
766.000	464.299	80.007	19.994	103.131	19.694	44.426	0.507
766.500	464.557	80.007	19.995	103.130	19.699	44.054	0.500
767.000	464.796	80.006	19.993	103.128	19.707	43.470	0.500
767.500	465.032	80.007	19.993	103.127	19.713	43.039	0.486
768.000	465.300	80.006	19.994	103.126	19.720	42.542	0.489
768.500	465.581	80.006	19.994	103.127	19.728	41.969	0.527
769.000	465.809	80.006	19.994	103.127	19.735	41.521	0.529
769.500	466.106	80.006	19.995	103.128	19.739	41.247	0.517
770.000	466.348	80.006	19.994	103.130	19.745	40.813	0.532
770.500	466.583	80.005	19.995	103.130	19.754	40.140	0.508
771.000	466.792	80.006	19.994	103.131	19.760	39.727	0.460
771.500	467.067	80.007	19.995	103.130	19.768	39.176	0.464
772.000	467.334	80.006	19.994	103.126	19.775	38.706	0.513
772.500	467.587	80.005	19.995	103.127	19.781	38.250	0.531
773.000	467.874	80.007	19.994	103.126	19.789	37.740	0.530
773.500	468.087	80.006	19.994	103.126	19.795	37.300	0.520
774.000	468.315	80.006	19.993	103.127	19.803	36.719	0.471
774.500	468.615	80.005	19.994	103.131	19.810	36.246	0.485
775.000	468.863	80.007	19.994	103.131	19.816	35.799	0.538
775.500	469.096	80.006	19.994	103.131	19.824	35.277	0.514
776.000	469.328	80.006	19.994	103.132	19.832	34.649	0.473
776.500	469.635	80.007	19.995	103.136	19.838	34.289	0.502
777.000	469.852	80.005	19.995	103.138	19.844	33.825	0.532
777.500	470.144	80.005	19.994	103.139	19.851	33.335	0.517
778.000	470.354	80.005	19.995	103.138	19.857	32.904	0.505
778.500	470.644	80.007	19.994	103.137	19.865	32.353	0.501
779.000	470.914	80.005	19.994	103.133	19.872	31.886	0.530
779.500	471.126	80.006	19.995	103.131	19.880	31.325	0.521
780.000	471.423	80.007	19.993	103.130	19.883	31.068	0.496
780.500	471.645	80.006	19.994	103.130	19.894	30.283	0.514
781.000	471.903	80.006	19.995	103.137	19.897	30.070	0.500
781.500	472.135	80.005	19.995	103.139	19.909	29.250	0.485
782.001	472.411	80.006	19.993	103.143	19.911	29.148	0.499
782.501	472.653	80.006	19.995	103.145	19.917	28.723	0.513
783.000	472.904	80.005	19.994	103.145	19.924	28.195	0.506
783.500	473.184	80.007	19.994	103.139	19.929	27.826	0.512
784.000	473.419	80.006	19.995	103.137	19.937	27.315	0.523
784.500	473.718	80.006	19.995	103.136	19.941	26.975	0.525
785.000	473.978	80.006	19.994	103.138	19.950	26.354	0.547
785.500	474.238	80.006	19.995	103.137	19.955	26.008	0.539
786.000	474.498	80.006	19.994	103.138	19.962	25.539	0.520
786.501	474.777	80.006	19.996	103.140	19.967	25.209	0.529
787.000	474.998	80.006	19.995	103.138	19.975	24.584	0.519
787.500	475.245	80.006	19.995	103.137	19.980	24.293	0.484
788.000	475.540	80.006	19.994	103.138	19.987	23.735	0.505
788.500	475.797	80.006	19.995	103.137	19.993	23.347	0.547
789.000	476.038	80.006	19.995	103.137	19.999	22.919	0.524
789.500	476.289	80.006	19.994	103.136	20.002	22.726	0.495
790.000	476.561	80.006	19.995	103.136	20.010	22.143	0.508
790.500	476.812	80.007	19.994	103.136	20.015	21.814	0.524
791.000	477.090	80.006	19.995	103.142	20.021	21.410	0.526
791.500	477.351	80.006	19.994	103.144	20.026	21.019	0.534
792.000	477.554	80.005	19.994	103.144	20.031	20.688	0.501
792.500	477.891	80.006	19.995	103.145	20.040	20.008	0.502
793.000	478.129	80.008	19.994	103.150	20.043	19.856	0.558
793.500	478.386	80.008	19.994	103.150	20.050	19.327	0.535
794.000	478.631	80.007	19.996	103.149	20.053	19.109	0.498
794.500	478.887	80.006	19.995	103.148	20.059	18.704	0.502
795.000	479.163	80.007	19.996	103.148	20.064	18.368	0.517
795.500	479.425	80.006	19.994	103.147	20.069	17.970	0.535
796.000	479.672	80.007	19.995	103.146	20.074	17.659	0.523
796.500	479.879	80.006	19.995	103.147	20.079	17.288	0.482
797.000	480.181	80.006	19.994	103.151	20.083	17.034	0.482
797.500	480.407	80.006	19.994	103.152	20.093	16.321	0.519
798.000	480.720	80.007	19.995	103.150	20.093	16.324	0.533
798.500	480.959	80.005	19.994	103.147	20.096	16.096	0.545
799.000	481.201	80.006	19.994	103.144	20.097	16.012	0.516
799.500	481.471	80.006	19.994	103.140	20.105	15.493	0.497
800.000	481.717	80.005	19.995	103.136	20.106	15.387	0.514
800.500	481.987	80.005	19.995	103.137	20.112	14.966	0.516
801.000	482.231	80.006	19.994	103.143	20.115	14.727	0.515
801.500	482.493	80.006	19.995	103.149	20.117	14.641	0.510
802.000	482.690	80.007	19.995	103.154	20.121	14.304	0.482
802.500	483.022	80.007	19.994	103.161	20.125	14.045	0.494
803.000	483.229	80.005	19.995	103.165	20.128	13.814	0.534
803.500	483.508	80.006	19.994	103.165	20.132	13.572	0.513
804.000	483.782	80.007	19.994	103.164	20.138	13.113	0.520
804.500	484.003	80.006	19.994	103.161	20.140	12.999	0.524
805.000	484.246	80.007	19.993	103.159	20.143	12.781	0.480
805.500	484.568	80.007	19.995	103.158	20.147	12.492	0.514
806.000	484.743	80.007	19.994	103.156	20.146	12.565	0.531
806.500	485.036	80.007	19.994	103.158	20.148	12.425	0.483
807.000	485.337	80.008	19.994	103.158	20.150	12.320	0.531
807.500	485.583	80.008	19.995	103.154	20.159	11.686	0.571
808.000	485.852	80.007	19.995	103.151	20.167	11.114	0.531
808.500	486.116	80.007	19.994	103.148	20.170	10.850	0.524
809.000	486.361	80.006	19.995	103.147	20.161	11.481	0.521
809.500	486.564	80.007	19.995	103.151	20.158	11.696	0.479
810.000	486.933	80.006	19.995	103.153	20.163	11.350	0.510
810.500	487.111	80.007	19.994	103.151	20.179	10.268	0.559
811.000	487.402	80.007	19.994	103.150	20.174	10.603	0.508
811.500	487.673	80.007	19.994	103.145	20.170	10.914	0.516
812.000	487.854	80.007	19.994	103.141	20.181	10.132	0.507
812.500	488.162	80.007	19.994	103.144	20.171	10.819	0.470
813.000	488.350	80.007	19.993	103.150	20.182	10.020	0.493
813.500	488.673	80.007	19.995	103.153	20.180	10.160	0.504
814.000	488.958	80.007	19.995	103.152	20.180	10.179	0.559
814.500	489.122	80.007	19.995	103.152	20.186	9.774	0.529
815.000	489.460	80.009	19.994	103.148	20.182	10.005	0.476
815.500	489.642	80.006	19.995	103.140	20.185	9.816	0.511
816.000	489.984	80.007	19.995	103.137	20.185	9.798	0.522
816.500	490.127	80.008	19.994	103.143	20.186	9.762	0.505
817.000	490.454	80.006	19.995	103.147	20.190	9.500	0.478
817.500	490.753	80.008	19.994	103.148	20.188	9.588	0.548
818.000	490.928	80.007	19.996	103.151	20.186	9.749	0.550
818.500	491.374	80.008	19.995	103.153	20.192	9.354	0.547
819.001	491.490	80.005	19.994	103.154	20.192	9.361	0.591
819.500	491.732	80.006	19.996	103.150	20.192	9.330	0.460
820.000	491.990	80.006	19.997	103.153	20.193	9.269	0.429
820.500	492.296	80.006	19.996	103.154	20.196	9.035	0.532
821.000	492.203	80.006	19.996	103.153	20.198	8.906	0.388
821.500	493.078	80.006	19.995	103.149	20.197	8.958	0.497
822.000	493.310	80.006	19.994	103.153	20.199	8.842	0.945
822.500	493.575	80.007	19.994	103.152	20.202	8.650	0.802
823.000	493.788	80.006	19.995	103.153	20.199	8.832	0.488
823.500	493.602	80.007	19.994	103.157	20.200	8.792	0.253
824.000	493.647	80.005	19.996	103.160	20.203	8.581	-0.057
824.500	494.542	80.007	19.995	103.156	20.203	8.580	0.399
825.000	494.915	80.007	19.995	103.158	20.205	8.445	1.104
825.500	494.612	80.006	19.996	103.160	20.204	8.486	0.669
826.000	495.432	80.007	19.995	103.162	20.208	8.201	0.294
826.500	495.104	80.008	19.996	103.156	20.208	8.169	0.505
827.000	495.784	80.007	19.993	103.156	20.206	8.307	0.422
827.500	495.877	80.007	19.995	103.152	20.206	8.333	0.562
828.000	496.063	80.008	19.994	103.148	20.205	8.399	0.526
828.500	496.490	80.007	19.995	103.141	20.206	8.362	0.446
829.000	496.639	80.007	19.994	103.144	20.205	8.417	0.595
829.500	496.897	80.006	19.995	103.145	20.207	8.311	0.492
830.000	497.195	80.006	19.995	103.142	20.207	8.285	0.482
830.500	497.346	80.008	19.995	103.141	20.210	8.077	0.502
831.001	497.726	80.007	19.995	103.143	20.211	8.017	0.489
831.500	497.922	80.008	19.995	103.146	20.211	7.963	0.553
832.000	498.200	80.007	19.995	103.146	20.209	8.117	0.525
832.500	498.508	80.008	19.994	103.150	20.209	8.120	0.530
833.000	498.708	80.008	19.995	103.155	20.208	8.187	0.547
833.500	498.956	80.009	19.995	103.156	20.211	8.012	0.478
834.000	499.201	80.007	19.994	103.154	20.208	8.210	0.471
834.500	499.473	80.007	19.996	103.158	20.206	8.312	0.505
835.000	499.795	80.008	19.994	103.157	20.210	8.098	0.555
835.500	499.988	80.009	19.995	103.151	20.208	8.190	0.555
836.000	500.287	80.009	19.995	103.123	20.209	8.102	0.503
836.500	500.526	80.007	19.994	103.108	20.210	8.082	0.515
837.000	500.810	80.008	19.995	103.099	20.213	7.825	0.530
837.500	501.034	80.009	19.995	103.097	20.212	7.892	0.515
838.000	501.318	80.008	19.994	103.103	20.211	7.998	0.508
838.500	501.545	80.009	19.995	103.138	20.211	7.988	0.509
839.000	501.863	80.008	19.994	103.189	20.211	7.967	0.528
839.500	502.116	80.009	19.993	103.202	20.212	7.898	0.558
840.000	502.428	80.009	19.995	103.205	20.214	7.750	0.568
840.500	502.653	80.009	19.994	103.199	20.213	7.880	0.551
841.000	502.881	80.007	19.994	103.186	20.211	7.975	0.495
841.500	503.167	80.008	19.993	103.151	20.214	7.817	0.484
842.000	503.398	80.008	19.995	103.142	20.212	7.927	0.516
842.500	503.670	80.008	19.995	103.143	20.210	8.079	0.510
843.000	503.924	80.008	19.995	103.149	20.209	8.104	0.515
843.500	504.226	80.007	19.995	103.155	20.211	7.971	0.541
844.000	504.487	80.007	19.995	103.156	20.214	7.798	0.559
844.500	504.716	80.006	19.995	103.156	20.214	7.794	0.526
845.000	505.011	80.007	19.995	103.157	20.213	7.874	0.506
845.500	505.256	80.007	19.995	103.154	20.214	7.748	0.532
846.000	505.493	80.006	19.995	103.149	20.213	7.823	0.511
846.500	505.771	80.006	19.996	103.148	20.211	8.013	0.499
847.000	506.049	80.006	19.995	103.148	20.215	7.714	0.536
847.500	506.297	80.006	19.996	103.146	20.212	7.892	0.541
848.000	506.556	80.005	19.996	103.146	20.215	7.743	0.516
848.500	506.808	80.005	19.995	103.147	20.211	7.979	0.509
849.000	507.047	80.005	19.996	103.148	20.215	7.725	0.501
849.500	507.319	80.005	19.996	103.149	20.214	7.764	0.502
850.000	507.641	80.005	19.996	103.146	20.214	7.789	0.553
850.500	507.866	80.006	19.995	103.144	20.215	7.684	0.570
851.000	508.144	80.005	19.995	103.142	20.213	7.874	0.525
851.500	508.388	80.005	19.996	103.140	20.210	8.037	0.513
852.000	508.624	80.006	19.995	103.143	20.210	8.051	0.501
852.500	508.911	80.005	19.994	103.148	20.214	7.770	0.502
853.000	509.197	80.005	19.997	103.153	20.213	7.873	0.548
853.500	509.391	80.006	19.995	103.156	20.213	7.846	0.526
854.000	509.727	80.005	19.995	103.154	20.212	7.906	0.505
854.500	509.949	80.005	19.996	103.149	20.212	7.906	0.544
855.000	510.180	80.004	19.996	103.146	20.215	7.723	0.506
855.500	510.448	80.005	19.996	103.140	20.216	7.662	0.477
856.000	510.703	80.005	19.995	103.141	20.216	7.664	0.512
856.500	510.970	80.006	19.995	103.144	20.214	7.772	0.522
857.000	511.211	80.007	19.995	103.149	20.214	7.810	0.514
857.500	511.484	80.005	19.994	103.149	20.214	7.810	0.511
858.000	511.754	80.007	19.995	103.150	20.216	7.658	0.529
858.500	512.031	80.006	19.994	103.149	20.216	7.633	0.545
859.000	512.258	80.006	19.994	103.149	20.214	7.765	0.525
859.500	512.531	80.007	19.994	103.146	20.215	7.732	0.502
860.000	512.808	80.007	19.995	103.146	20.214	7.790	0.525
860.500	513.048	80.007	19.994	103.151	20.214	7.813	0.534
861.000	513.327	80.006	19.993	103.155	20.216	7.662	0.518
861.500	513.589	80.005	19.996	103.156	20.216	7.666	0.530
862.000	513.887	80.004	19.994	103.159	20.219	7.461	0.550
862.500	514.119	80.005	19.995	103.161	20.216	7.622	0.545
863.000	514.414	80.005	19.994	103.160	20.213	7.866	0.528
863.500	514.617	80.007	19.995	103.154	20.214	7.782	0.513
864.000	514.962	80.006	19.995	103.151	20.213	7.851	0.523
864.500	515.197	80.005	19.994	103.149	20.213	7.822	0.564
865.000	515.445	80.006	19.994	103.147	20.214	7.790	0.531
865.500	515.707	80.005	19.994	103.146	20.212	7.911	0.496
866.000	515.916	80.006	19.994	103.146	20.215	7.711	0.491
866.500	516.237	80.006	19.993	103.146	20.215	7.713	0.500
867.000	516.490	80.007	19.994	103.148	20.213	7.825	0.552
867.500	516.776	80.005	19.993	103.155	20.213	7.821	0.556
868.000	517.060	80.006	19.994	103.155	20.214	7.760	0.555
868.500	517.332	80.005	19.994	103.156	20.214	7.790	0.564
869.001	517.575	80.006	19.993	103.154	20.217	7.592	0.536
869.500	517.837	80.005	19.994	103.147	20.215	7.721	0.509
870.000	518.085	80.006	19.993	103.140	20.215	7.690	0.507
870.501	518.362	80.006	19.994	103.137	20.214	7.784	0.518
871.000	518.646	80.005	19.995	103.138	20.214	7.757	0.543
871.500	518.884	80.005	19.993	103.144	20.215	7.740	0.542
872.000	519.162	80.005	19.994	103.153	20.214	7.756	0.519
872.500	519.436	80.007	19.993	103.157	20.216	7.619	0.534
873.000	519.699	80.005	19.994	103.159	20.215	7.686	0.544
873.500	519.971	80.006	19.994	103.156	20.215	7.736	0.536
874.000	520.253	80.006	19.994	103.150	20.217	7.578	0.545
874.500	520.479	80.005	19.994	103.142	20.216	7.619	0.531
875.000	520.746	80.006	19.995	103.140	20.216	7.629	0.501
875.500	521.077	80.005	19.993	103.139	20.219	7.408	0.546
876.000	521.273	80.005	19.994	103.139	20.220	7.383	0.562
876.500	521.552	80.005	19.993	103.139	20.218	7.533	0.501
877.000	521.809	80.005	19.995	103.141	20.218	7.527	0.506
877.500	522.085	80.007	19.994	103.144	20.218	7.510	0.534
878.000	522.339	80.004	19.994	103.145	20.216	7.665	0.531
878.500	522.582	80.006	19.995	103.147	20.216	7.661	0.514
879.000	522.831	80.004	19.994	103.149	20.215	7.721	0.494
879.500	523.145	80.006	19.994	103.148	20.214	7.789	0.527
880.000	523.417	80.006	19.996	103.143	20.214	7.762	0.575
880.500	523.656	80.005	19.995	103.141	20.211	8.025	0.549
881.000	523.888	80.005	19.995	103.139	20.214	7.783	0.491
881.500	524.182	80.005	19.996	103.137	20.211	7.988	0.498
882.000	524.480	80.004	19.995	103.139	20.213	7.821	0.559
882.500	524.722	80.005	19.995	103.144	20.213	7.851	0.567
883.000	525.004	80.005	19.994	103.145	20.215	7.696	0.532
883.500	525.281	80.005	19.994	103.144	20.214	7.771	0.541
884.000	525.538	80.005	19.995	103.143	20.214	7.788	0.546
884.500	525.770	80.006	19.994	103.142	20.215	7.711	0.511
885.000	526.043	80.006	19.994	103.136	20.214	7.764	0.497
885.500	526.333	80.006	19.995	103.137	20.213	7.832	0.535
886.000	526.592	80.006	19.994	103.140	20.216	7.667	0.556
886.500	526.890	80.006	19.994	103.142	20.213	7.868	0.553
887.000	527.086	80.005	19.994	103.144	20.212	7.930	0.525
887.501	527.388	80.006	19.994	103.144	20.214	7.815	0.496
888.001	527.658	80.005	19.995	103.144	20.214	7.792	0.535
888.501	527.907	80.005	19.994	103.141	20.210	8.057	0.545
889.001	528.177	80.005	19.993	103.140	20.211	8.005	0.518
889.501	528.481	80.005	19.994	103.137	20.212	7.951	0.547
890.001	528.734	80.005	19.993	103.115	20.212	7.940	0.566
890.501	528.941	80.006	19.994	103.099	20.211	7.965	0.508
891.000	529.223	80.006	19.994	103.095	20.208	8.172	0.474
891.500	529.504	80.006	19.995	103.095	20.211	7.984	0.527
892.000	529.774	80.007	19.994	103.096	20.212	7.937	0.557
892.500	530.011	80.007	19.994	103.121	20.214	7.778	0.529
893.000	530.318	80.008	19.994	103.168	20.214	7.760	0.525
893.500	530.551	80.007	19.993	103.183	20.211	8.020	0.542
894.000	530.815	80.007	19.995	103.188	20.214	7.761	0.518
894.500	531.069	80.008	19.994	103.193	20.214	7.761	0.508
895.000	531.332	80.008	19.993	103.192	20.210	8.064	0.518
895.500	531.603	80.008	19.993	103.160	20.214	7.778	0.525
896.000	531.869	80.009	19.994	103.148	20.215	7.688	0.536
896.500	532.153	80.009	19.995	103.142	20.213	7.880	0.544
897.000	532.405	80.008	19.993	103.136	20.215	7.718	0.543
897.500	532.635	80.008	19.994	103.135	20.214	7.776	0.509
898.000	532.922	80.008	19.994	103.137	20.216	7.653	0.499
898.500	533.160	80.007	19.994	103.140	20.209	8.103	0.521
899.000	533.466	80.009	19.995	103.139	20.214	7.803	0.534
899.500	533.726	80.008	19.993	103.140	20.212	7.895	0.555
900.000	533.941	80.008	19.994	103.143	20.212	7.926	0.521
900.500	534.210	80.007	19.993	103.143	20.213	7.855	0.480
901.000	534.510	80.008	19.994	103.140	20.216	7.649	0.527
901.500	534.784	80.006	19.994	103.143	20.213	7.859	0.571
902.000	535.054	80.007	19.994	103.142	20.214	7.755	0.559
902.500	535.293	80.007	19.994	103.137	20.214	7.747	0.527
903.000	535.552	80.007	19.994	103.134	20.213	7.820	0.503
903.500	535.779	80.007	19.994	103.133	20.215	7.736	0.492
904.000	536.061	80.007	19.995	103.131	20.213	7.860	0.498
904.500	536.355	80.006	19.994	103.133	20.213	7.858	0.543
905.000	536.619	80.007	19.994	103.137	20.214	7.778	0.567
905.500	536.872	80.007	19.994	103.137	20.212	7.897	0.537
906.000	537.147	80.006	19.994	103.138	20.216	7.668	0.522
906.500	537.396	80.006	19.994	103.138	20.212	7.904	0.526
907.000	537.681	80.006	19.995	103.136	20.212	7.906	0.529
907.500	537.924	80.006	19.994	103.134	20.213	7.864	0.531
908.000	538.196	80.007	19.995	103.133	20.212	7.930	0.522
908.500	538.476	80.007	19.995	103.134	20.215	7.722	0.534
909.000	538.722	80.008	19.994	103.135	20.215	7.678	0.539
909.500	538.994	80.005	19.995	103.134	20.213	7.839	0.521
910.000	539.289	80.007	19.994	103.135	20.212	7.928	0.543
910.500	539.567	80.006	19.994	103.135	20.212	7.927	0.571
911.000	539.789	80.005	19.995	103.134	20.216	7.649	0.537
911.500	540.056	80.007	19.995	103.133	20.214	7.788	0.494
912.000	540.344	80.006	19.995	103.134	20.213	7.870	0.522
912.500	540.534	80.006	19.995	103.136	20.213	7.838	0.516
913.000	540.830	80.006	19.995	103.136	20.214	7.763	0.482
913.500	541.117	80.008	19.995	103.135	20.211	7.982	0.534
914.000	541.370	80.008	19.994	103.136	20.211	7.964	0.562
914.500	541.575	80.007	19.995	103.136	20.210	8.049	0.499
915.000	541.874	80.008	19.995	103.132	20.208	8.225	0.481
915.500	542.139	80.006	19.995	103.131	20.211	7.993	0.533
916.000	542.394	80.009	19.996	103.132	20.212	7.939	0.542
916.500	542.667	80.007	19.994	103.131	20.213	7.835	0.524
917.000	542.942	80.008	19.995	103.131	20.211	7.960	0.538
917.500	543.221	80.007	19.994	103.129	20.211	8.004	0.551
918.000	543.448	80.007	19.994	103.129	20.213	7.852	0.530
918.500	543.738	80.008	19.994	103.130	20.210	8.069	0.512
919.000	543.972	80.007	19.995	103.132	20.212	7.952	0.521
919.500	544.223	80.008	19.995	103.132	20.215	7.724	0.504
920.000	544.500	80.008	19.994	103.133	20.214	7.762	0.506
920.500	544.735	80.008	19.995	103.133	20.214	7.774	0.520
921.000	545.009	80.007	19.995	103.132	20.212	7.947	0.511
921.500	545.253	80.008	19.996	103.130	20.216	7.611	0.513
922.000	545.542	80.009	19.994	103.132	20.214	7.801	0.525
922.500	545.790	80.008	19.995	103.136	20.211	7.987	0.535
923.000	546.096	80.008	19.994	103.137	20.212	7.901	0.546
923.500	546.286	80.008	19.994	103.137	20.215	7.684	0.525
924.000	546.564	80.007	19.995	103.137	20.214	7.799	0.482
924.500	546.818	80.008	19.994	103.135	20.214	7.770	0.500
925.000	547.121	80.009	19.993	103.131	20.214	7.784	0.544
925.500	547.381	80.008	19.994	103.133	20.215	7.709	0.560
926.000	547.647	80.006	19.994	103.135	20.212	7.929	0.545
926.500	547.881	80.008	19.995	103.134	20.211	7.966	0.513
927.000	548.147	80.007	19.995	103.133	20.211	7.974	0.500
927.500	548.403	80.007	19.995	103.132	20.208	8.191	0.511
928.000	548.654	80.007	19.994	103.130	20.208	8.175	0.514
928.500	548.904	80.006	19.995	103.128	20.210	8.054	0.504
929.000	549.170	80.006	19.995	103.128	20.209	8.141	0.509
929.500	549.394	80.004	19.995	103.128	20.212	7.911	0.503
930.000	549.703	80.006	19.994	103.129	20.210	8.084	0.511
930.500	549.980	80.003	19.995	103.129	20.212	7.890	0.559
931.000	550.197	80.005	19.995	103.130	20.209	8.149	0.540
931.500	550.461	80.004	19.994	103.130	20.211	8.007	0.488
932.000	550.730	80.005	19.995	103.131	20.208	8.214	0.507
932.500	550.997	80.005	19.994	103.131	20.215	7.741	0.534
933.000	551.260	80.004	19.994	103.131	20.209	8.105	0.533
933.500	551.521	80.004	19.995	103.131	20.209	8.151	0.527
934.000	551.779	80.004	19.994	103.131	20.207	8.279	0.522
934.500	552.044	80.005	19.994	103.132	20.207	8.251	0.522
935.000	552.303	80.003	19.995	103.132	20.205	8.406	0.523
935.500	552.553	80.005	19.995	103.132	20.206	8.320	0.516
936.000	552.816	80.004	19.994	103.132	20.208	8.237	0.511
936.500	553.090	80.006	19.995	103.132	20.210	8.061	0.525
937.000	553.317	80.004	19.995	103.132	20.209	8.155	0.518
937.500	553.615	80.004	19.994	103.131	20.209	8.116	0.513
938.000	553.845	80.005	19.996	103.132	20.209	8.145	0.527
938.500	554.118	80.005	19.995	103.132	20.208	8.208	0.516
939.000	554.362	80.005	19.995	103.132	20.210	8.055	0.510
939.500	554.684	80.004	19.997	103.132	20.211	7.999	0.541
940.000	554.914	80.005	19.997	103.135	20.208	8.218	0.559
940.500	555.162	80.004	19.997	103.136	20.209	8.168	0.515
941.000	555.432	80.006	19.996	103.138	20.210	8.097	0.498
941.500	555.658	80.005	19.996	103.139	20.209	8.141	0.507
942.000	555.905	80.004	19.996	103.138	20.211	8.026	0.484
942.500	556.159	80.006	19.996	103.136	20.206	8.341	0.487
943.000	556.440	80.004	19.997	103.134	20.209	8.145	0.518
943.500	556.720	80.005	19.996	103.133	20.209	8.110	0.548
944.000	556.944	80.004	19.996	103.136	20.208	8.204	0.532
944.500	557.186	80.005	19.995	103.137	20.209	8.154	0.485
945.000	557.463	80.005	19.995	103.138	20.208	8.235	0.493
945.500	557.718	80.005	19.996	103.138	20.211	8.003	0.526
946.000	557.986	80.003	19.997	103.139	20.209	8.112	0.527
946.500	558.227	80.004	19.996	103.139	20.209	8.112	0.516
947.000	558.501	80.005	19.996	103.138	20.210	8.054	0.512
947.500	558.756	80.005	19.996	103.139	20.207	8.241	0.522
948.000	558.969	80.005	19.995	103.141	20.207	8.273	0.499
948.500	559.246	80.004	19.995	103.141	20.209	8.124	0.479
949.000	559.498	80.005	19.996	103.137	20.211	7.960	0.509
949.500	559.751	80.004	19.994	103.136	20.211	7.987	0.516
950.000	560.037	80.005	19.994	103.135	20.207	8.260	0.521
950.500	560.278	80.005	19.993	103.133	20.211	7.962	0.533
951.000	560.533	80.005	19.994	103.132	20.207	8.279	0.512
951.500	560.793	80.004	19.995	103.134	20.211	7.981	0.506
952.000	561.050	80.005	19.995	103.134	20.212	7.943	0.516
952.500	561.358	80.006	19.994	103.134	20.211	8.008	0.541
953.000	561.567	80.005	19.995	103.134	20.210	8.076	0.541
953.500	561.846	80.005	19.996	103.134	20.207	8.289	0.503
954.000	562.079	80.005	19.994	103.133	20.208	8.237	0.500
954.500	562.372	80.004	19.993	103.133	20.209	8.139	0.519
955.000	562.604	80.005	19.994	103.134	20.206	8.314	0.525
955.500	562.867	80.006	19.994	103.135	20.208	8.170	0.510
956.000	563.096	80.004	19.995	103.136	20.208	8.197	0.494
956.500	563.404	80.004	19.994	103.136	20.211	8.012	0.514
957.000	563.638	80.005	19.995	103.136	20.211	7.972	0.539
957.500	563.920	80.005	19.994	103.135	20.214	7.797	0.529
958.000	564.171	80.005	19.994	103.134	20.208	8.206	0.525
958.500	564.400	80.005	19.992	103.134	20.211	7.966	0.507
959.000	564.664	80.005	19.994	103.133	20.208	8.200	0.486
959.500	564.936	80.007	19.994	103.133	20.211	8.006	0.514
960.000	565.190	80.006	19.994	103.133	20.210	8.091	0.531
960.500	565.457	80.006	19.994	103.133	20.210	8.041	0.524
961.000	565.677	80.005	19.994	103.133	20.209	8.099	0.504
961.500	565.981	80.004	19.995	103.133	20.209	8.163	0.506
962.000	566.227	80.005	19.993	103.134	20.207	8.298	0.537
962.500	566.449	80.004	19.996	103.134	20.206	8.354	0.509
963.000	566.728	80.005	19.994	103.134	20.209	8.136	0.484
963.500	566.986	80.005	19.994	103.133	20.206	8.328	0.519
964.000	567.248	80.006	19.995	103.133	20.207	8.280	0.528
964.500	567.480	80.005	19.994	103.132	20.205	8.416	0.507
965.000	567.736	80.006	19.994	103.131	20.207	8.279	0.491
965.500	567.992	80.005	19.994	103.131	20.205	8.398	0.500
966.000	568.253	80.006	19.994	103.131	20.204	8.508	0.514
966.500	568.489	80.005	19.994	103.133	20.204	8.509	0.507
967.000	568.784	80.005	19.994	103.135	20.206	8.379	0.514
967.500	568.978	80.006	19.994	103.137	20.203	8.550	0.510
968.000	569.259	80.006	19.994	103.136	20.209	8.148	0.482
968.500	569.502	80.005	19.994	103.136	20.206	8.363	0.499
969.000	569.765	80.005	19.994	103.134	20.207	8.254	0.515
969.500	570.050	80.007	19.994	103.134	20.209	8.104	0.527
970.000	570.297	80.007	19.994	103.133	20.207	8.256	0.540
970.500	570.551	80.005	19.994	103.133	20.208	8.219	0.516
971.000	570.831	80.006	19.994	103.132	20.208	8.169	0.518
971.500	571.063	80.006	19.994	103.135	20.205	8.407	0.524
972.001	571.331	80.006	19.993	103.140	20.207	8.242	0.506
972.500	571.613	80.007	19.994	103.147	20.206	8.348	0.524
973.000	571.862	80.006	19.994	103.150	20.205	8.386	0.541
973.500	572.067	80.006	19.994	103.152	20.207	8.281	0.493
974.000	572.318	80.008	19.994	103.149	20.205	8.417	0.455
974.500	572.617	80.007	19.995	103.145	20.206	8.327	0.503
975.000	572.845	80.007	19.994	103.138	20.205	8.390	0.538
975.500	573.128	80.007	19.994	103.134	20.207	8.302	0.519
976.000	573.361	80.008	19.994	103.134	20.207	8.296	0.513
976.500	573.601	80.006	19.994	103.134	20.206	8.373	0.495
977.000	573.879	80.007	19.994	103.133	20.207	8.256	0.496
977.500	574.150	80.007	19.993	103.132	20.206	8.346	0.533
978.000	574.422	80.008	19.995	103.132	20.205	8.398	0.546
978.500	574.671	80.007	19.994	103.130	20.204	8.464	0.532
979.000	574.925	80.008	19.994	103.130	20.202	8.633	0.512
979.500	575.146	80.007	19.994	103.131	20.200	8.733	0.489
980.000	575.446	80.008	19.994	103.132	20.201	8.706	0.498
980.500	575.700	80.007	19.995	103.132	20.202	8.652	0.537
981.000	575.934	80.007	19.993	103.132	20.200	8.771	0.521
981.500	576.152	80.008	19.994	103.131	20.199	8.867	0.471
982.000	576.439	80.008	19.994	103.130	20.201	8.690	0.479
982.500	576.708	80.007	19.994	103.129	20.199	8.847	0.530
983.000	576.981	80.007	19.994	103.129	20.198	8.909	0.549
983.500	577.210	80.008	19.995	103.129	20.202	8.623	0.522
984.000	577.451	80.007	19.995	103.129	20.203	8.569	0.486
984.500	577.760	80.008	19.994	103.129	20.201	8.731	0.510
985.000	577.994	80.007	19.994	103.129	20.201	8.704	0.546
985.500	578.245	80.008	19.993	103.129	20.200	8.759	0.514
986.000	578.493	80.007	19.994	103.131	20.200	8.788	0.492
986.500	578.712	80.006	19.994	103.131	20.199	8.832	0.483
987.000	578.991	80.008	19.994	103.131	20.202	8.640	0.482
987.501	579.271	80.007	19.995	103.131	20.199	8.805	0.529
988.000	579.505	80.008	19.994	103.131	20.198	8.880	0.537
988.500	579.768	80.007	19.995	103.132	20.199	8.808	0.506
989.000	580.016	80.007	19.994	103.133	20.194	9.160	0.504
989.500	580.242	80.006	19.994	103.136	20.196	9.066	0.492
990.000	580.487	80.007	19.994	103.142	20.198	8.933	0.472
990.500	580.780	80.006	19.995	103.145	20.199	8.805	0.504
991.000	581.004	80.008	19.994	103.144	20.198	8.877	0.527
991.500	581.254	80.007	19.995	103.142	20.200	8.787	0.495
992.000	581.520	80.006	19.993	103.139	20.199	8.808	0.495
992.500	581.737	80.008	19.994	103.134	20.198	8.906	0.500
993.000	582.034	80.007	19.994	103.132	20.199	8.871	0.499
993.500	582.266	80.008	19.993	103.131	20.199	8.844	0.521
994.000	582.511	80.007	19.995	103.132	20.200	8.773	0.503
994.500	582.774	80.007	19.993	103.133	20.199	8.855	0.493
995.000	583.025	80.007	19.994	103.134	20.196	9.034	0.511
995.500	583.243	80.006	19.993	103.135	20.197	8.968	0.492
996.000	583.503	80.008	19.993	103.135	20.199	8.824	0.474
996.500	583.762	80.007	19.994	103.134	20.199	8.853	0.499
997.000	584.023	80.007	19.993	103.134	20.196	9.069	0.519
997.500	584.243	80.008	19.993	103.134	20.196	9.079	0.501
998.000	584.552	80.007	19.994	103.132	20.194	9.202	0.505
998.500	584.764	80.008	19.994	103.133	20.199	8.834	0.525
999.000	585.039	80.007	19.992	103.135	20.197	9.008	0.504
999.500	585.267	80.008	19.995	103.138	20.194	9.161	0.495
1000.000	585.551	80.008	19.995	103.144	20.196	9.036	0.507
1000.500	585.790	80.010	19.995	103.148	20.196	9.072	0.517
1001.000	586.068	80.008	19.995	103.150	20.196	9.047	0.521
1001.500	586.304	80.009	19.997	103.147	20.196	9.019	0.516
1002.000	586.515	80.008	19.995	103.146	20.196	9.065	0.480
1002.500	586.778	80.009	19.994	103.141	20.195	9.119	0.460
1003.000	587.070	80.009	19.995	103.139	20.196	9.020	0.515
1003.500	587.283	80.008	19.994	103.137	20.195	9.151	0.530
1004.000	587.556	80.009	19.995	103.137	20.196	9.068	0.495
1004.500	587.808	80.009	19.995	103.136	20.192	9.300	0.505
1005.000	588.056	80.009	19.995	103.134	20.194	9.155	0.513
1005.500	588.304	80.009	19.995	103.133	20.196	9.024	0.498
1006.000	588.539	80.008	19.997	103.138	20.197	9.001	0.489
1006.500	588.835	80.008	19.996	103.144	20.194	9.201	0.507
1007.000	589.074	80.007	19.996	103.148	20.196	9.044	0.533
1007.500	589.353	80.007	19.994	103.155	20.194	9.195	0.526
1008.000	589.556	80.007	19.995	103.163	20.197	8.986	0.500
1008.500	589.825	80.008	19.994	103.164	20.195	9.132	0.477
1009.000	590.089	80.005	19.994	103.162	20.194	9.161	0.503
1009.500	590.347	80.006	19.994	103.158	20.196	9.069	0.527
1010.000	590.620	80.008	19.994	103.150	20.195	9.121	0.527
1010.500	590.845	80.005	19.995	103.143	20.197	8.967	0.515
1011.000	591.080	80.006	19.995	103.135	20.195	9.131	0.479
1011.500	591.355	80.005	19.995	103.132	20.191	9.375	0.485
1012.000	591.599	80.006	19.995	103.131	20.192	9.325	0.514
1012.500	591.911	80.005	19.995	103.133	20.197	9.008	0.538
1013.000	592.107	80.005	19.996	103.141	20.194	9.192	0.532
1013.500	592.359	80.005	19.997	103.146	20.194	9.198	0.477
1014.000	592.603	80.004	19.996	103.148	20.194	9.220	0.472
1014.500	592.853	80.005	19.996	103.150	20.193	9.289	0.496
1015.000	593.095	80.005	19.995	103.148	20.192	9.320	0.494
1015.500	593.381	80.006	19.996	103.142	20.192	9.303	0.510
1016.000	593.615	80.005	19.994	103.138	20.193	9.253	0.524
1016.500	593.889	80.005	19.995	103.135	20.193	9.264	0.514
1017.000	594.147	80.005	19.995	103.134	20.194	9.186	0.520
1017.500	594.368	80.005	19.994	103.134	20.191	9.395	0.505
1018.000	594.646	80.006	19.994	103.134	20.192	9.337	0.489
1018.500	594.901	80.005	19.996	103.134	20.194	9.218	0.516
1019.000	595.195	80.005	19.994	103.135	20.197	8.951	0.541
1019.500	595.439	80.006	19.994	103.135	20.192	9.325	0.544
1020.000	595.705	80.006	19.994	103.135	20.191	9.414	0.524
1020.500	595.944	80.005	19.995	103.134	20.192	9.305	0.508
1021.000	596.204	80.006	19.994	103.136	20.194	9.203	0.502
1021.500	596.415	80.006	19.994	103.139	20.195	9.145	0.485
1022.000	596.716	80.005	19.994	103.145	20.193	9.230	0.492
1022.500	596.916	80.005	19.995	103.150	20.194	9.175	0.507
1023.000	597.186	80.006	19.994	103.150	20.194	9.215	0.486
1023.500	597.430	80.005	19.994	103.148	20.193	9.277	0.492
1024.000	597.715	80.005	19.994	103.146	20.196	9.066	0.521
1024.500	597.940	80.007	19.993	103.140	20.195	9.126	0.520
1025.000	598.205	80.005	19.994	103.135	20.192	9.292	0.500
1025.500	598.454	80.006	19.994	103.134	20.192	9.309	0.502
1026.000	598.709	80.005	19.995	103.135	20.192	9.359	0.509
1026.500	598.947	80.007	19.994	103.134	20.190	9.457	0.499
1027.000	599.205	80.006	19.994	103.134	20.194	9.190	0.495
1027.500	599.448	80.006	19.994	103.135	20.193	9.289	0.498
1028.000	599.710	80.006	19.995	103.134	20.192	9.312	0.502
1028.500	599.944	80.007	19.995	103.133	20.190	9.491	0.500
1029.000	600.171	80.006	19.996	103.132	20.190	9.475	0.478
1029.500	600.468	80.006	19.996	103.132	20.191	9.401	0.493
1030.000	600.712	80.007	19.995	103.131	20.192	9.332	0.533
1030.500	600.956	80.005	19.995	103.130	20.190	9.441	0.515
1031.000	601.224	80.007	19.995	103.131	20.191	9.400	0.501
1031.500	601.503	80.006	19.995	103.134	20.190	9.468	0.530
1032.000	601.739	80.006	19.995	103.133	20.194	9.195	0.531
1032.500	601.987	80.005	19.994	103.135	20.191	9.403	0.499
1033.000	602.236	80.006	19.995	103.140	20.191	9.387	0.490
1033.500	602.490	80.007	19.997	103.139	20.191	9.431	0.500
1034.000	602.753	80.006	19.996	103.140	20.192	9.336	0.510
1034.501	602.983	80.006	19.996	103.123	20.192	9.326	0.505
1035.001	603.248	80.006	19.996	103.103	20.192	9.326	0.494
1035.500	603.526	80.006	19.995	103.087	20.194	9.179	0.519
1036.000	603.731	80.006	19.995	103.080	20.194	9.225	0.513
1036.500	604.003	80.005	19.996	103.076	20.193	9.248	0.480
1037.000	604.231	80.006	19.996	103.120	20.194	9.174	0.489
1037.500	604.489	80.005	19.996	103.162	20.191	9.374	0.493
1038.000	604.775	80.005	19.997	103.182	20.190	9.447	0.515
1038.500	604.995	80.006	19.995	103.193	20.191	9.400	0.525
1039.000	605.261	80.005	19.995	103.196	20.193	9.290	0.496
1039.500	605.544	80.006	19.996	103.171	20.192	9.313	0.518
1040.000	605.765	80.006	19.995	103.149	20.191	9.389	0.527
1040.500	606.039	80.005	19.995	103.139	20.189	9.550	0.499
1041.001	606.310	80.005	19.997	103.134	20.191	9.399	0.520
1041.501	606.528	80.006	19.995	103.133	20.191	9.415	0.517
1042.000	606.796	80.005	19.997	103.130	20.189	9.557	0.488
1042.500	607.010	80.006	19.995	103.130	20.186	9.724	0.484
1043.001	607.283	80.006	19.995	103.132	20.187	9.657	0.484
1043.501	607.541	80.005	19.995	103.133	20.186	9.733	0.510
1044.000	607.806	80.007	19.994	103.132	20.190	9.448	0.527
1044.500	608.069	80.006	19.995	103.133	20.188	9.608	0.525
1045.001	608.316	80.007	19.995	103.135	20.188	9.615	0.518
1045.501	608.582	80.006	19.995	103.134	20.189	9.523	0.511
1046.000	608.884	80.007	19.994	103.135	20.187	9.672	0.540
1046.500	609.116	80.006	19.995	103.140	20.187	9.684	0.551
1047.000	609.355	80.005	19.994	103.144	20.191	9.398	0.503
1047.501	609.614	80.006	19.994	103.147	20.186	9.740	0.485
1048.001	609.888	80.006	19.994	103.154	20.189	9.577	0.516
1048.500	610.134	80.007	19.995	103.155	20.187	9.671	0.526
1049.000	610.418	80.006	19.994	103.153	20.187	9.687	0.525
1049.500	610.655	80.006	19.994	103.149	20.184	9.877	0.525
1050.000	610.913	80.007	19.995	103.144	20.185	9.836	0.508
1050.500	611.183	80.006	19.995	103.137	20.188	9.630	0.512
1051.000	611.428	80.007	19.994	103.135	20.184	9.870	0.522
1051.500	611.681	80.007	19.993	103.132	20.184	9.866	0.507
1052.001	611.926	80.007	19.994	103.136	20.187	9.703	0.498
1052.501	612.185	80.009	19.994	103.139	20.187	9.656	0.501
1053.000	612.450	80.008	19.994	103.139	20.188	9.647	0.514
1053.500	612.709	80.007	19.994	103.139	20.187	9.699	0.524
1054.000	612.950	80.008	19.993	103.139	20.187	9.675	0.512
1054.500	613.236	80.007	19.994	103.133	20.185	9.816	0.514
1055.000	613.451	80.007	19.993	103.130	20.186	9.722	0.514
1055.501	613.747	80.008	19.995	103.130	20.186	9.743	0.506
1056.001	614.018	80.007	19.995	103.130	20.188	9.587	0.539
1056.500	614.229	80.007	19.993	103.132	20.188	9.612	0.524
1057.000	614.522	80.007	19.994	103.138	20.185	9.831	0.493
1057.501	614.779	80.007	19.994	103.142	20.183	9.965	0.527
1058.001	615.052	80.008	19.994	103.144	20.188	9.627	0.540
1058.501	615.312	80.008	19.994	103.149	20.187	9.704	0.532
1059.000	615.595	80.008	19.993	103.152	20.182	10.023	0.538
1059.500	615.856	80.007	19.995	103.148	20.185	9.810	0.544
1060.000	616.113	80.007	19.996	103.151	20.185	9.847	0.532
1060.500	616.359	80.008	19.995	103.152	20.181	10.083	0.511
1061.000	616.639	80.009	19.995	103.149	20.181	10.132	0.514
1061.500	616.877	80.008	19.993	103.144	20.183	9.930	0.522
1062.000	617.159	80.007	19.995	103.144	20.183	9.983	0.519
1062.500	617.459	80.008	19.995	103.141	20.184	9.879	0.551
1063.000	617.700	80.007	19.994	103.139	20.184	9.923	0.561
1063.500	617.941	80.007	19.994	103.138	20.183	9.963	0.512
1064.000	618.222	80.007	19.994	103.138	20.182	10.025	0.502
1064.500	618.531	80.007	19.995	103.136	20.183	9.958	0.556
1065.000	618.753	80.007	19.993	103.134	20.182	10.050	0.560
1065.501	619.029	80.006	19.995	103.134	20.182	10.007	0.515
1066.001	619.309	80.007	19.993	103.136	20.179	10.248	0.527
1066.500	619.574	80.006	19.995	103.136	20.177	10.377	0.550
1067.000	619.878	80.007	19.994	103.136	20.180	10.169	0.557
1067.500	620.138	80.007	19.994	103.136	20.182	10.033	0.567
1068.000	620.427	80.007	19.995	103.136	20.182	10.043	0.556
1068.500	620.652	80.007	19.994	103.133	20.179	10.273	0.532
1069.000	620.905	80.006	19.994	103.132	20.178	10.317	0.496
1069.500	621.183	80.007	19.994	103.133	20.183	9.987	0.504
1070.000	621.408	80.006	19.994	103.137	20.182	10.046	0.517
1070.500	621.731	80.008	19.995	103.139	20.182	10.024	0.526
1071.000	621.996	80.007	19.994	103.142	20.178	10.288	0.568
1071.500	622.296	80.006	19.995	103.143	20.181	10.121	0.576
1072.000	622.574	80.007	19.994	103.145	20.180	10.209	0.572
1072.500	622.816	80.008	19.995	103.142	20.180	10.182	0.549
1073.000	623.080	80.007	19.994	103.140	20.181	10.131	0.513
1073.500	623.366	80.007	19.994	103.137	20.182	10.033	0.528
1074.000	623.635	80.006	19.994	103.136	20.179	10.265	0.552
1074.500	623.908	80.007	19.994	103.134	20.180	10.185	0.548
1075.000	624.160	80.006	19.994	103.133	20.179	10.216	0.533
1075.500	624.459	80.007	19.994	103.133	20.180	10.181	0.538
1076.000	624.720	80.006	19.996	103.132	20.180	10.147	0.555
1076.500	624.958	80.007	19.995	103.133	20.179	10.277	0.529
1077.000	625.237	80.006	19.994	103.136	20.180	10.167	0.508
1077.500	625.505	80.006	19.994	103.138	20.182	10.042	0.532
1078.000	625.812	80.008	19.994	103.138	20.179	10.278	0.562
1078.500	626.016	80.007	19.994	103.139	20.177	10.353	0.543
1079.000	626.315	80.007	19.994	103.139	20.176	10.436	0.506
1079.500	626.539	80.008	19.994	103.136	20.182	10.057	0.513
1080.000	626.817	80.008	19.994	103.136	20.178	10.299	0.513
1080.500	627.105	80.010	19.995	103.136	20.181	10.136	0.534
1081.000	627.329	80.007	19.994	103.137	20.180	10.140	0.539
1081.500	627.629	80.008	19.993	103.145	20.179	10.255	0.518
1082.000	627.895	80.009	19.994	103.152	20.178	10.313	0.545
1082.500	628.168	80.008	19.995	103.151	20.184	9.879	0.553
1083.000	628.454	80.009	19.993	103.151	20.178	10.297	0.549
1083.500	628.698	80.008	19.993	103.150	20.177	10.363	0.544
1084.000	628.956	80.009	19.993	103.142	20.178	10.288	0.516
1084.500	629.228	80.009	19.994	103.137	20.181	10.123	0.517
1085.000	629.489	80.009	19.993	103.139	20.178	10.345	0.532
1085.501	629.745	80.009	19.994	103.141	20.178	10.284	0.525
1086.001	630.031	80.009	19.993	103.145	20.175	10.516	0.529
1086.500	630.294	80.008	19.993	103.145	20.178	10.324	0.545
1087.000	630.530	80.009	19.993	103.142	20.178	10.320	0.524
1087.500	630.777	80.009	19.993	103.139	20.176	10.435	0.491
1088.000	631.042	80.009	19.994	103.137	20.176	10.480	0.498
1088.500	631.345	80.008	19.994	103.133	20.175	10.510	0.540
1089.000	631.573	80.009	19.994	103.133	20.175	10.555	0.549
1089.500	631.845	80.008	19.993	103.134	20.175	10.499	0.515
1090.000	632.109	80.008	19.993	103.133	20.176	10.474	0.518
1090.500	632.354	80.009	19.993	103.133	20.176	10.439	0.523
1091.000	632.541	80.008	19.993	103.133	20.177	10.384	0.471
1091.500	632.833	80.008	19.994	103.132	20.172	10.720	0.456
1092.000	633.072	80.007	19.993	103.132	20.176	10.472	0.505
1092.500	633.319	80.008	19.993	103.132	20.177	10.359	0.508
1093.000	633.601	80.006	19.994	103.132	20.179	10.276	0.508
1093.500	633.864	80.007	19.994	103.131	20.177	10.412	0.537
1094.000	634.133	80.007	19.995	103.132	20.175	10.520	0.538
1094.500	634.393	80.007	19.995	103.131	20.178	10.324	0.530
1095.000	634.643	80.007	19.995	103.131	20.174	10.589	0.520
1095.500	634.886	80.005	19.994	103.131	20.177	10.351	0.502
1096.000	635.174	80.008	19.995	103.131	20.179	10.219	0.512
1096.501	635.407	80.005	19.995	103.130	20.177	10.379	0.526
1097.001	635.650	80.006	19.995	103.130	20.179	10.269	0.498
1097.500	635.874	80.006	19.995	103.131	20.177	10.419	0.472
1098.000	636.144	80.006	19.994	103.130	20.180	10.192	0.481
1098.500	636.392	80.006	19.994	103.130	20.182	10.069	0.506
1099.000	636.651	80.006	19.995	103.130	20.176	10.443	0.513
1099.500	636.892	80.006	19.994	103.130	20.182	10.024	0.503
1100.000	637.135	80.007	19.996	103.131	20.175	10.549	0.491
1100.500	637.401	80.007	19.994	103.131	20.179	10.266	0.496
1101.001	637.649	80.007	19.995	103.131	20.179	10.253	0.511
1101.501	637.873	80.006	19.995	103.130	20.178	10.303	0.493
1102.000	638.114	80.005	19.996	103.130	20.177	10.420	0.469
1102.501	638.370	80.007	19.995	103.130	20.178	10.314	0.481
1103.001	638.629	80.006	19.996	103.130	20.178	10.347	0.506
1103.500	638.855	80.006	19.995	103.129	20.177	10.386	0.500
1104.001	639.120	80.006	19.995	103.130	20.180	10.174	0.488
1104.501	639.384	80.006	19.995	103.130	20.177	10.360	0.510
1105.000	639.571	80.007	19.994	103.130	20.179	10.245	0.490
1105.500	639.824	80.007	19.995	103.130	20.176	10.481	0.446
1106.000	640.101	80.006	19.996	103.130	20.176	10.450	0.485
1106.500	640.332	80.005	19.995	103.134	20.179	10.231	0.519
1107.000	640.593	80.006	19.996	103.137	20.179	10.243	0.500
1107.500	640.809	80.006	19.994	103.137	20.178	10.305	0.485
1108.001	641.071	80.006	19.995	103.137	20.176	10.439	0.477
1108.501	641.328	80.007	19.995	103.137	20.177	10.407	0.498
1109.000	641.531	80.007	19.994	103.133	20.177	10.393	0.490
1109.500	641.808	80.005	19.995	103.130	20.180	10.180	0.470
1110.000	642.048	80.006	19.996	103.129	20.178	10.295	0.498
1110.500	642.314	80.005	19.995	103.130	20.180	10.155	0.512
1111.000	642.546	80.007	19.995	103.129	20.177	10.359	0.502
1111.500	642.807	80.006	19.994	103.129	20.178	10.301	0.496
1112.000	643.034	80.006	19.995	103.129	20.178	10.282	0.491
1112.500	643.294	80.006	19.994	103.129	20.175	10.526	0.487
1113.000	643.508	80.006	19.995	103.130	20.177	10.351	0.480
1113.500	643.749	80.007	19.993	103.130	20.177	10.387	0.464
1114.001	643.993	80.006	19.994	103.131	20.175	10.539	0.470
1114.501	644.226	80.006	19.995	103.131	20.177	10.403	0.481
1115.000	644.477	80.007	19.995	103.132	20.175	10.516	0.481
1115.500	644.708	80.006	19.995	103.128	20.176	10.491	0.483
1116.000	644.957	80.006	19.995	103.124	20.175	10.556	0.481
1116.500	645.184	80.007	19.995	103.122	20.176	10.461	0.478
1117.000	645.429	80.009	19.995	103.122	20.177	10.405	0.474
1117.500	645.690	80.007	19.995	103.122	20.176	10.459	0.489
1118.000	645.943	80.008	19.994	103.124	20.175	10.505	0.510
1118.500	646.185	80.007	19.995	103.128	20.175	10.552	0.504
1119.000	646.396	80.005	19.995	103.129	20.177	10.419	0.474
1119.500	646.629	80.006	19.997	103.130	20.178	10.340	0.449
1120.000	646.906	80.007	19.997	103.130	20.176	10.457	0.477
1120.500	647.145	80.006	19.997	103.130	20.176	10.474	0.513
1121.000	647.386	80.007	19.994	103.130	20.177	10.361	0.498
1121.500	647.652	80.007	19.997	103.130	20.176	10.442	0.494
1122.001	647.861	80.006	19.996	103.130	20.177	10.403	0.491
1122.501	648.091	80.008	19.997	103.130	20.175	10.555	0.457
1123.000	648.360	80.006	19.995	103.129	20.176	10.488	0.468
1123.500	648.630	80.006	19.994	103.130	20.177	10.400	0.519
1124.000	648.872	80.006	19.996	103.130	20.174	10.594	0.526
1124.500	649.072	80.005	19.994	103.129	20.177	10.396	0.477
1125.000	649.351	80.005	19.995	103.128	20.174	10.578	0.460
1125.500	649.564	80.006	19.995	103.128	20.174	10.570	0.486
1126.000	649.861	80.006	19.995	103.128	20.176	10.476	0.501
1126.500	650.108	80.006	19.996	103.129	20.172	10.745	0.527
1127.000	650.300	80.007	19.996	103.129	20.172	10.710	0.492
1127.500	650.565	80.006	19.996	103.131	20.175	10.537	0.448
1128.000	650.792	80.005	19.996	103.134	20.175	10.547	0.474
1128.500	651.031	80.006	19.996	103.136	20.177	10.412	0.479
1129.000	651.349	80.006	19.995	103.136	20.176	10.466	0.512
1129.500	651.527	80.005	19.996	103.139	20.174	10.610	0.526
1130.001	651.781	80.006	19.995	103.139	20.174	10.624	0.464
1130.501	652.046	80.005	19.996	103.137	20.172	10.729	0.476
1131.000	652.294	80.006	19.997	103.135	20.170	10.866	0.516
1131.500	652.530	80.006	19.996	103.136	20.173	10.677	0.499
1132.000	652.766	80.005	19.995	103.133	20.175	10.495	0.478
1132.500	653.032	80.006	19.996	103.133	20.172	10.758	0.487
1133.000	653.267	80.005	19.995	103.135	20.171	10.795	0.502
1133.500	653.520	80.006	19.995	103.136	20.173	10.697	0.494
1134.000	653.752	80.006	19.996	103.136	20.172	10.756	0.486
1134.501	654.019	80.007	19.997	103.137	20.172	10.747	0.492
1135.001	654.245	80.006	19.997	103.137	20.172	10.705	0.496
1135.500	654.503	80.007	19.995	103.134	20.171	10.808	0.488
1136.000	654.797	80.006	19.996	103.134	20.174	10.582	0.518
1136.500	655.012	80.006	19.996	103.133	20.171	10.835	0.531
1137.000	655.274	80.006	19.994	103.133	20.171	10.789	0.493
1137.500	655.533	80.007	19.995	103.132	20.172	10.758	0.499
1138.000	655.755	80.006	19.995	103.132	20.171	10.804	0.500
1138.501	655.999	80.007	19.997	103.131	20.170	10.881	0.473
1139.001	656.242	80.008	19.995	103.132	20.170	10.847	0.477
1139.500	656.494	80.009	19.994	103.130	20.171	10.797	0.491
1140.000	656.771	80.008	19.995	103.130	20.174	10.599	0.512
1140.500	656.950	80.007	19.995	103.130	20.171	10.789	0.493
1141.001	657.233	80.008	19.995	103.130	20.174	10.611	0.459
1141.501	657.561	80.008	19.995	103.130	20.171	10.820	0.537
1142.001	657.749	80.009	19.994	103.130	20.171	10.807	0.563
1142.501	658.035	80.009	19.993	103.131	20.173	10.640	0.495
1143.000	658.249	80.007	19.993	103.130	20.172	10.742	0.487
1143.500	658.453	80.008	19.994	103.130	20.172	10.705	0.459
1144.000	658.753	80.008	19.994	103.130	20.173	10.668	0.461
1144.501	658.971	80.009	19.993	103.131	20.175	10.557	0.511
1145.001	659.231	80.009	19.993	103.131	20.172	10.734	0.498
1145.500	659.434	80.007	19.994	103.132	20.172	10.755	0.471
1146.000	659.705	80.009	19.994	103.132	20.172	10.709	0.469
1146.500	659.953	80.006	19.996	103.132	20.174	10.588	0.496
1147.000	660.204	80.007	19.995	103.132	20.173	10.663	0.509
1147.500	660.465	80.008	19.994	103.132	20.172	10.731	0.506
1148.000	660.720	80.006	19.994	103.132	20.172	10.721	0.514
1148.501	660.968	80.007	19.995	103.132	20.171	10.790	0.509
1149.001	661.170	80.007	19.995	103.133	20.172	10.727	0.477
1149.500	661.458	80.007	19.995	103.133	20.171	10.836	0.470
1150.001	661.731	80.006	19.995	103.133	20.170	10.876	0.525
1150.501	661.967	80.008	19.993	103.132	20.168	11.028	0.535
1151.001	662.228	80.007	19.994	103.132	20.172	10.756	0.503
1151.500	662.486	80.007	19.995	103.132	20.169	10.979	0.508
1152.000	662.710	80.005	19.995	103.135	20.167	11.071	0.500
1152.500	662.982	80.007	19.994	103.136	20.168	11.041	0.489
1153.000	663.216	80.005	19.995	103.137	20.168	11.021	0.501
1153.500	663.531	80.008	19.993	103.138	20.169	10.969	0.527
1154.000	663.754	80.006	19.994	103.137	20.168	11.038	0.543
1154.501	664.032	80.008	19.993	103.136	20.169	10.955	0.520
1155.001	664.281	80.008	19.995	103.135	20.168	11.049	0.515
1155.501	664.546	80.007	19.995	103.135	20.168	11.037	0.520
1156.000	664.809	80.008	19.994	103.136	20.172	10.743	0.521
1156.500	665.097	80.007	19.994	103.136	20.167	11.106	0.540
1157.000	665.329	80.008	19.994	103.137	20.168	11.020	0.535
1157.500	665.584	80.008	19.994	103.139	20.167	11.066	0.503
1158.000	665.826	80.007	19.993	103.143	20.166	11.154	0.492
1158.500	666.130	80.008	19.994	103.143	20.167	11.076	0.521
1159.000	666.334	80.008	19.995	103.145	20.167	11.080	0.527
1159.500	666.632	80.007	19.996	103.144	20.169	10.967	0.505
1160.000	666.868	80.007	19.995	103.143	20.169	10.963	0.518
1160.500	667.167	80.009	19.995	103.141	20.167	11.113	0.534
1161.000	667.437	80.008	19.995	103.141	20.169	10.964	0.552
1161.500	667.669	80.008	19.996	103.144	20.169	10.928	0.535
1162.000	667.968	80.009	19.993	103.149	20.169	10.971	0.516
1162.500	668.220	80.008	19.995	103.147	20.166	11.131	0.541
1163.000	668.474	80.010	19.994	103.148	20.168	11.012	0.529
1163.500	668.739	80.007	19.996	103.152	20.166	11.133	0.512
1164.000	669.003	80.007	19.995	103.148	20.166	11.146	0.524
1164.501	669.276	80.008	19.995	103.142	20.167	11.096	0.533
1165.001	669.556	80.008	19.994	103.144	20.167	11.122	0.545
1165.500	669.799	80.010	19.994	103.142	20.166	11.135	0.539
1166.001	670.069	80.009	19.994	103.136	20.166	11.170	0.518
1166.501	670.361	80.008	19.993	103.134	20.165	11.221	0.537
1167.000	670.625	80.009	19.995	103.135	20.167	11.075	0.559
1167.500	670.874	80.009	19.994	103.135	20.165	11.259	0.534
1168.000	671.163	80.009	19.995	103.135	20.166	11.140	0.525
1168.500	671.438	80.010	19.994	103.136	20.165	11.201	0.551
1169.000	671.699	80.010	19.994	103.137	20.166	11.153	0.550
1169.500	671.989	80.010	19.994	103.139	20.167	11.072	0.544
1170.000	672.241	80.010	19.994	103.140	20.166	11.138	0.546
1170.500	672.514	80.010	19.994	103.143	20.161	11.490	0.533
1171.000	672.758	80.008	19.994	103.142	20.163	11.380	0.522
1171.500	673.035	80.008	19.993	103.141	20.165	11.224	0.519
1172.000	673.316	80.009	19.993	103.138	20.165	11.230	0.540
1172.500	673.584	80.009	19.994	103.134	20.163	11.350	0.553
1173.001	673.876	80.008	19.994	103.132	20.160	11.563	0.554
1173.501	674.152	80.009	19.994	103.131	20.164	11.321	0.563
1174.000	674.408	80.010	19.994	103.133	20.162	11.438	0.550
1174.500	674.665	80.008	19.994	103.133	20.162	11.429	0.523
1175.000	674.937	80.008	19.994	103.133	20.161	11.521	0.521
1175.500	675.248	80.009	19.995	103.133	20.160	11.577	0.556
1176.000	675.510	80.007	19.994	103.136	20.162	11.456	0.578
1176.500	675.805	80.007	19.994	103.134	20.161	11.487	0.564
1177.000	676.024	80.007	19.994	103.134	20.159	11.640	0.535
1177.500	676.320	80.006	19.994	103.134	20.163	11.385	0.514
1178.000	676.590	80.008	19.993	103.133	20.160	11.615	0.541
1178.500	676.867	80.007	19.994	103.130	20.160	11.609	0.557
1179.001	677.128	80.006	19.993	103.132	20.162	11.442	0.542
1179.501	677.416	80.005	19.997	103.138	20.163	11.400	0.543
1180.000	677.692	80.006	19.996	103.141	20.158	11.697	0.557
1180.500	677.946	80.007	19.996	103.143	20.162	11.446	0.547
1181.000	678.231	80.006	19.996	103.144	20.163	11.361	0.534
1181.500	678.473	80.008	19.995	103.146	20.164	11.267	0.533
1182.000	678.765	80.008	19.994	103.142	20.162	11.451	0.531
1182.500	679.062	80.006	19.995	103.140	20.164	11.275	0.562
1183.000	679.350	80.007	19.994	103.139	20.160	11.557	0.587
1183.500	679.725	80.008	19.995	103.137	20.162	11.436	0.624
1184.000	680.020	80.006	19.994	103.134	20.160	11.605	0.667
1184.500	680.139	80.007	19.994	103.133	20.162	11.467	0.542
1185.000	680.382	80.006	19.995	103.134	20.161	11.546	0.388
1185.500	680.642	80.007	19.995	103.136	20.161	11.489	0.432
1186.001	680.919	80.007	19.996	103.139	20.164	11.331	0.520
1186.501	681.213	80.007	19.996	103.139	20.160	11.597	0.554
1187.001	681.440	80.007	19.994	103.138	20.161	11.529	0.546
1187.500	681.707	80.007	19.995	103.137	20.161	11.510	0.508
1188.000	681.965	80.007	19.995	103.137	20.162	11.458	0.510
1188.501	682.231	80.007	19.995	103.137	20.162	11.458	0.524
1189.001	682.485	80.007	19.995	103.136	20.160	11.581	0.522
1189.500	682.768	80.007	19.994	103.136	20.163	11.355	0.528
1190.000	683.043	80.007	19.995	103.135	20.159	11.654	0.547
1190.500	683.276	80.006	19.993	103.133	20.159	11.649	0.533
1191.000	683.584	80.007	19.996	103.131	20.161	11.529	0.525
1191.500	683.804	80.007	19.996	103.130	20.159	11.631	0.535
1192.000	684.093	80.006	19.996	103.130	20.157	11.786	0.519
1192.500	684.354	80.007	19.995	103.131	20.155	11.943	0.530
1193.000	684.645	80.007	19.995	103.130	20.157	11.803	0.551
1193.500	684.894	80.008	19.994	103.131	20.159	11.681	0.546
1194.000	685.181	80.005	19.995	103.131	20.154	11.973	0.538
1194.500	685.441	80.007	19.995	103.131	20.154	12.012	0.542
1195.000	685.699	80.006	19.995	103.132	20.152	12.113	0.532
1195.500	685.976	80.008	19.995	103.135	20.156	11.831	0.526
1196.000	686.253	80.007	19.994	103.138	20.156	11.898	0.545
1196.500	686.480	80.008	19.995	103.138	20.158	11.736	0.529
1197.000	686.770	80.007	19.995	103.140	20.157	11.782	0.510
1197.500	686.997	80.007	19.995	103.144	20.159	11.667	0.517
1198.000	687.293	80.006	19.996	103.141	20.156	11.867	0.521
1198.500	687.543	80.007	19.994	103.140	20.153	12.055	0.535
1199.000	687.809	80.005	19.995	103.141	20.157	11.765	0.530
1199.500	688.116	80.006	19.995	103.140	20.154	11.998	0.545
1200.000	688.356	80.007	19.996	103.138	20.159	11.688	0.560
1200.500	688.614	80.006	19.994	103.141	20.159	11.646	0.522
1201.000	688.881	80.008	19.996	103.142	20.155	11.954	0.511
1201.500	689.141	80.007	19.996	103.142	20.156	11.881	0.526
1202.000	689.397	80.006	19.996	103.140	20.154	12.024	0.522
1202.501	689.663	80.006	19.995	103.138	20.157	11.821	0.519
1203.001	689.900	80.006	19.995	103.134	20.153	12.079	0.512
1203.500	690.186	80.006	19.995	103.133	20.152	12.121	0.513
1204.001	690.429	80.007	19.996	103.132	20.154	11.986	0.526
1204.501	690.704	80.006	19.994	103.137	20.156	11.865	0.524
1205.000	690.939	80.006	19.996	103.141	20.154	11.980	0.514
1205.500	691.206	80.007	19.997	103.142	20.156	11.869	0.506
1206.000	691.439	80.007	19.995	103.143	20.157	11.798	0.501
1206.500	691.717	80.007	19.994	103.143	20.155	11.942	0.506
1207.000	691.979	80.006	19.995	103.139	20.156	11.865	0.525
1207.500	692.228	80.006	19.996	103.135	20.152	12.164	0.525
1208.000	692.467	80.006	19.995	103.135	20.153	12.093	0.500
1208.500	692.750	80.007	19.995	103.135	20.156	11.861	0.505
1209.000	693.023	80.006	19.995	103.135	20.154	12.015	0.538
1209.501	693.262	80.006	19.995	103.137	20.156	11.884	0.534
1210.001	693.519	80.006	19.994	103.138	20.156	11.846	0.504
1210.500	693.751	80.005	19.995	103.139	20.155	11.932	0.493
1211.000	694.068	80.006	19.996	103.138	20.155	11.950	0.519
1211.500	694.329	80.006	19.994	103.138	20.154	12.040	0.563
1212.001	694.580	80.006	19.996	103.138	20.152	12.132	0.545
1212.501	694.800	80.006	19.995	103.138	20.155	11.935	0.491
1213.001	695.070	80.005	19.996	103.137	20.153	12.052	0.481
1213.500	695.329	80.006	19.994	103.140	20.152	12.138	0.510
1214.000	695.635	80.006	19.996	103.140	20.153	12.057	0.547
1214.500	695.885	80.006	19.995	103.139	20.153	12.047	0.560
1215.000	696.117	80.006	19.996	103.139	20.153	12.072	0.519
1215.500	696.364	80.007	19.996	103.140	20.153	12.043	0.481
1216.000	696.646	80.006	19.995	103.137	20.153	12.087	0.504
1216.500	696.887	80.005	19.995	103.136	20.151	12.224	0.526
1217.000	697.136	80.006	19.995	103.135	20.154	11.980	0.506
1217.500	697.419	80.006	19.994	103.134	20.157	11.820	0.511
1218.000	697.679	80.007	19.996	103.134	20.153	12.066	0.537
1218.500	697.908	80.006	19.995	103.134	20.152	12.177	0.516
1219.001	698.198	80.008	19.996	103.136	20.152	12.164	0.504
1219.501	698.449	80.009	19.995	103.137	20.151	12.191	0.530
1220.000	698.679	80.008	19.996	103.137	20.153	12.111	0.511
1220.500	698.990	80.008	19.995	103.137	20.153	12.090	0.511
1221.000	699.221	80.008	19.996	103.137	20.151	12.220	0.542
1221.500	699.447	80.008	19.995	103.136	20.150	12.299	0.500
1222.000	699.692	80.008	19.996	103.138	20.149	12.350	0.464
1222.501	699.973	80.008	19.996	103.139	20.150	12.271	0.498
1223.001	700.220	80.008	19.995	103.139	20.148	12.394	0.527
1223.500	700.475	80.007	19.996	103.143	20.151	12.247	0.515
1224.000	700.734	80.008	19.997	103.143	20.150	12.259	0.508
1224.500	701.010	80.008	19.996	103.139	20.150	12.262	0.525
1225.000	701.238	80.007	19.995	103.138	20.150	12.271	0.519
1225.500	701.493	80.007	19.995	103.136	20.152	12.127	0.494
1226.000	701.745	80.008	19.997	103.132	20.152	12.165	0.495
1226.501	702.009	80.007	19.995	103.130	20.151	12.224	0.511
1227.001	702.248	80.008	19.997	103.129	20.147	12.475	0.510
1227.500	702.494	80.008	19.996	103.132	20.149	12.379	0.494
1228.000	702.737	80.007	19.996	103.132	20.150	12.299	0.487
1228.500	703.019	80.008	19.995	103.132	20.148	12.412	0.507
1229.001	703.264	80.007	19.996	103.132	20.151	12.210	0.526
1229.501	703.515	80.008	19.996	103.132	20.154	12.011	0.512
1230.001	703.715	80.006	19.996	103.130	20.154	12.007	0.473
1230.500	703.995	80.008	19.995	103.134	20.151	12.218	0.465
1231.000	704.279	80.007	19.995	103.135	20.152	12.123	0.522
1231.501	704.513	80.007	19.995	103.136	20.151	12.239	0.541
1232.001	704.758	80.008	19.995	103.136	20.154	11.994	0.498
1232.500	705.031	80.006	19.995	103.134	20.153	12.077	0.498
1233.000	705.272	80.006	19.996	103.130	20.150	12.318	0.516
1233.500	705.508	80.006	19.996	103.130	20.152	12.172	0.496
1234.000	705.767	80.007	19.995	103.128	20.150	12.266	0.486
1234.500	706.013	80.006	19.995	103.135	20.153	12.043	0.500
1235.000	706.260	80.007	19.996	103.141	20.153	12.077	0.499
1235.500	706.499	80.007	19.995	103.145	20.154	12.008	0.489
1236.000	706.724	80.007	19.995	103.147	20.151	12.218	0.475
1236.500	706.979	80.008	19.995	103.147	20.150	12.287	0.472
1237.000	707.217	80.008	19.994	103.142	20.149	12.382	0.487
1237.500	707.487	80.008	19.994	103.137	20.148	12.420	0.501
1238.000	707.766	80.007	19.995	103.134	20.151	12.215	0.528
1238.500	708.003	80.008	19.995	103.133	20.149	12.382	0.532
1239.000	708.204	80.007	19.994	103.133	20.149	12.370	0.477
1239.500	708.475	80.008	19.996	103.132	20.151	12.251	0.455
1240.000	708.736	80.009	19.995	103.131	20.149	12.380	0.502
1240.500	709.008	80.007	19.995	103.133	20.148	12.424	0.532
1241.001	709.176	80.009	19.995	103.136	20.153	12.100	0.487
1241.501	709.508	80.008	19.995	103.137	20.148	12.422	0.470
1242.000	709.750	80.008	19.995	103.141	20.148	12.426	0.537
1242.500	709.969	80.008	19.995	103.145	20.151	12.191	0.517
1243.000	710.226	80.009	19.993	103.143	20.150	12.281	0.469
1243.500	710.515	80.008	19.994	103.140	20.150	12.304	0.511
1244.000	710.748	80.009	19.994	103.139	20.146	12.566	0.534
1244.500	711.010	80.009	19.994	103.136	20.149	12.338	0.508
1245.001	711.258	80.008	19.994	103.131	20.151	12.240	0.503
1245.501	711.515	80.008	19.994	103.131	20.151	12.218	0.507
1246.001	711.718	80.009	19.993	103.131	20.148	12.405	0.482
1246.501	712.014	80.009	19.994	103.132	20.148	12.407	0.479
1247.000	712.255	80.010	19.993	103.133	20.150	12.291	0.518
1247.500	712.465	80.009	19.994	103.133	20.150	12.269	0.494
1248.001	712.724	80.010	19.993	103.136	20.146	12.540	0.460
1248.501	712.995	80.010	19.995	103.139	20.150	12.291	0.500
1249.000	713.219	80.010	19.993	103.139	20.152	12.159	0.513
1249.500	713.463	80.010	19.995	103.138	20.152	12.157	0.482
1250.000	713.730	80.008	19.994	103.139	20.151	12.230	0.489
1250.500	713.966	80.010	19.994	103.137	20.148	12.398	0.507
1251.001	714.194	80.010	19.994	103.138	20.148	12.446	0.483
1251.501	714.470	80.010	19.993	103.139	20.149	12.358	0.484
1252.000	714.715	80.010	19.995	103.141	20.147	12.525	0.512
1252.500	714.985	80.010	19.994	103.140	20.149	12.393	0.518
1253.000	715.244	80.010	19.994	103.139	20.150	12.307	0.522
1253.500	715.484	80.010	19.994	103.135	20.152	12.147	0.514
1254.000	715.681	80.010	19.994	103.134	20.153	12.095	0.468
1254.500	715.975	80.010	19.994	103.134	20.148	12.422	0.464
1255.000	716.183	80.010	19.993	103.134	20.148	12.430	0.497
1255.500	716.433	80.009	19.995	103.137	20.150	12.286	0.480
1256.001	716.696	80.011	19.995	103.144	20.147	12.466	0.485
1256.501	716.993	80.009	19.994	103.149	20.146	12.595	0.536
1257.000	717.199	80.008	19.994	103.152	20.149	12.393	0.532
1257.500	717.476	80.008	19.994	103.153	20.144	12.706	0.493
1258.000	717.676	80.007	19.995	103.151	20.145	12.641	0.480
1258.500	717.997	80.008	19.994	103.146	20.145	12.627	0.499
1259.001	718.201	80.008	19.994	103.141	20.143	12.764	0.523
1259.501	718.440	80.008	19.994	103.137	20.143	12.763	0.484
1260.000	718.671	80.007	19.995	103.136	20.143	12.794	0.457
1260.500	718.911	80.008	19.994	103.134	20.141	12.948	0.470
1261.000	719.198	80.007	19.995	103.134	20.146	12.537	0.498
1261.500	719.403	80.008	19.994	103.132	20.146	12.540	0.509
1262.001	719.679	80.008	19.996	103.132	20.147	12.488	0.487
1262.501	719.904	80.006	19.994	103.132	20.145	12.610	0.491
1263.000	720.189	80.006	19.994	103.134	20.144	12.745	0.506
1263.500	720.409	80.007	19.995	103.135	20.145	12.616	0.508
1264.000	720.660	80.008	19.994	103.135	20.147	12.486	0.488
1264.500	720.911	80.007	19.994	103.135	20.149	12.394	0.486
1265.000	721.158	80.007	19.995	103.136	20.148	12.461	0.500
1265.500	721.405	80.006	19.995	103.135	20.145	12.668	0.496
1266.000	721.673	80.006	19.995	103.136	20.146	12.597	0.504
1266.500	721.893	80.007	19.994	103.137	20.145	12.631	0.501
1267.000	722.137	80.006	19.993	103.138	20.144	12.685	0.476
1267.500	722.394	80.007	19.996	103.138	20.142	12.854	0.482
1268.000	722.619	80.007	19.995	103.137	20.145	12.654	0.491
1268.500	722.886	80.006	19.995	103.135	20.145	12.617	0.487
1269.000	723.165	80.007	19.994	103.135	20.144	12.711	0.519
1269.500	723.353	80.006	19.996	103.137	20.145	12.648	0.506
1270.001	723.585	80.007	19.996	103.141	20.145	12.630	0.444
1270.501	723.864	80.008	19.995	103.147	20.142	12.858	0.466
1271.000	724.109	80.007	19.995	103.150	20.144	12.716	0.518
1271.500	724.364	80.006	19.994	103.151	20.140	12.981	0.512
1272.000	724.547	80.006	19.993	103.151	20.144	12.683	0.469
1272.500	724.815	80.007	19.995	103.146	20.142	12.847	0.444
1273.000	725.050	80.007	19.994	103.140	20.142	12.873	0.477
1273.500	725.292	80.007	19.995	103.139	20.146	12.582	0.490
1274.000	725.554	80.008	19.994	103.139	20.143	12.783	0.490
1274.500	725.774	80.007	19.994	103.139	20.143	12.756	0.493
1275.000	726.083	80.007	19.994	103.144	20.143	12.747	0.505
1275.500	726.334	80.007	19.995	103.144	20.144	12.716	0.545
1276.001	726.593	80.006	19.994	103.145	20.144	12.687	0.535
1276.501	726.828	80.006	19.994	103.151	20.143	12.784	0.502
1277.000	727.101	80.007	19.995	103.152	20.144	12.745	0.501
1277.500	727.324	80.006	19.994	103.150	20.143	12.805	0.502
1278.000	727.597	80.006	19.995	103.152	20.141	12.928	0.496
1278.500	727.837	80.007	19.995	103.151	20.142	12.853	0.504
1279.000	728.072	80.008	19.995	103.147	20.142	12.837	0.494
1279.500	728.290	80.006	19.993	103.149	20.143	12.798	0.464
1280.000	728.592	80.007	19.994	103.146	20.143	12.790	0.486
1280.500	728.804	80.008	19.993	103.144	20.142	12.868	0.517
1281.000	729.061	80.006	19.995	103.142	20.140	13.009	0.491
1281.500	729.328	80.006	19.994	103.140	20.138	13.132	0.496
1282.000	729.541	80.006	19.994	103.136	20.138	13.141	0.502
1282.500	729.814	80.007	19.994	103.135	20.138	13.157	0.483
1283.000	730.082	80.006	19.993	103.138	20.139	13.082	0.514
1283.500	730.278	80.007	19.994	103.138	20.139	13.042	0.503
1284.001	730.543	80.007	19.995	103.138	20.139	13.030	0.462
1284.501	730.767	80.008	19.994	103.138	20.139	13.092	0.475
1285.000	731.051	80.006	19.994	103.139	20.142	12.878	0.498
1285.500	731.293	80.007	19.995	103.139	20.136	13.239	0.517
1286.000	731.560	80.006	19.994	103.144	20.138	13.143	0.518
1286.500	731.834	80.006	19.994	103.150	20.140	13.016	0.525
1287.000	732.094	80.007	19.994	103.155	20.142	12.861	0.537
1287.500	732.346	80.006	19.995	103.158	20.139	13.033	0.523
1288.000	732.573	80.007	19.995	103.157	20.138	13.141	0.495
1288.500	732.850	80.007	19.995	103.158	20.139	13.068	0.491
1289.000	733.067	80.007	19.994	103.158	20.135	13.323	0.499
1289.500	733.345	80.005	19.996	103.158	20.137	13.227	0.495
1290.000	733.607	80.007	19.994	103.154	20.137	13.169	0.518
1290.500	733.851	80.006	19.995	103.152	20.135	13.344	0.523
1291.000	734.124	80.007	19.995	103.145	20.138	13.128	0.511
1291.500	734.342	80.006	19.995	103.138	20.137	13.185	0.504
1292.000	734.603	80.006	19.995	103.133	20.135	13.329	0.485
1292.500	734.905	80.006	19.994	103.132	20.140	13.010	0.521
1293.000	735.101	80.007	19.995	103.130	20.139	13.053	0.531
1293.500	735.361	80.006	19.994	103.130	20.139	13.049	0.477
1294.000	735.634	80.007	19.996	103.132	20.133	13.489	0.494
1294.500	735.847	80.006	19.996	103.133	20.137	13.205	0.509
1295.000	736.099	80.006	19.995	103.133	20.135	13.317	0.476
1295.500	736.364	80.007	19.995	103.133	20.134	13.383	0.491
1296.000	736.582	80.006	19.995	103.132	20.137	13.213	0.500
1296.500	736.844	80.008	19.995	103.131	20.134	13.409	0.482
1297.001	737.073	80.006	19.995	103.130	20.136	13.251	0.486
1297.501	737.330	80.007	19.994	103.130	20.135	13.363	0.488
1298.000	737.613	80.006	19.996	103.134	20.132	13.548	0.513
1298.500	737.884	80.006	19.995	103.137	20.136	13.267	0.547
1299.000	738.128	80.006	19.994	103.140	20.135	13.364	0.535
1299.500	738.376	80.005	19.997	103.142	20.135	13.350	0.503
1300.000	738.591	80.007	19.996	103.141	20.133	13.469	0.477
1300.500	738.888	80.006	19.996	103.139	20.136	13.281	0.488
1301.000	739.128	80.007	19.996	103.139	20.134	13.422	0.525
1301.500	739.396	80.007	19.995	103.142	20.133	13.470	0.522
1302.000	739.631	80.007	19.996	103.144	20.134	13.439	0.505
1302.500	739.867	80.006	19.995	103.144	20.134	13.393	0.487
1303.000	740.153	80.007	19.995	103.143	20.136	13.283	0.497
1303.500	740.396	80.007	19.995	103.142	20.133	13.490	0.526
1304.000	740.655	80.007	19.996	103.143	20.133	13.497	0.515
1304.500	740.933	80.007	19.995	103.146	20.134	13.439	0.520
1305.000	741.162	80.007	19.996	103.149	20.135	13.325	0.523
1305.500	741.413	80.008	19.995	103.151	20.132	13.567	0.493
1306.001	741.663	80.008	19.995	103.149	20.134	13.412	0.490
1306.501	741.930	80.007	19.994	103.144	20.129	13.765	0.509
1307.001	742.162	80.009	19.994	103.138	20.134	13.431	0.508
1307.501	742.437	80.009	19.994	103.134	20.135	13.342	0.503
1308.001	742.715	80.008	19.995	103.135	20.136	13.289	0.530
1308.501	742.961	80.008	19.995	103.136	20.134	13.393	0.538
1309.001	743.215	80.007	19.996	103.141	20.132	13.542	0.512
1309.500	743.473	80.008	19.994	103.148	20.134	13.406	0.506
