Sample ID:	C:\MCC\MCC Cal\Test\Cotton_Batting_DelCo_MCC_30K_min_220223_R3.txt
Sample Weight (mg):	4.66
Heating Rate (C/s):	0.5
Combustor Temp (C):	900
N2 Flow Rate (cc/min):	80
O2 Flow Rate (cc/min):	20
Calibration File:	C:\MCC\MCC Cal\Coeff1 JN10440_30_210304.txt.txt
T Correction Coefficients:	0	1.024463	0
Time Shift (s):	14
*
Time (s)	Temperature (C)	N2 flow rate (cc/min)	O2 flow rate (cc/min)	Flow Rate (cc/min)	Oxygen (%)	HRR (W/g)	Heating rate (C/s)
0.000	111.957	80.005	19.995	103.757	20.081	0.305	-0.008
0.500	111.957	80.006	19.994	103.754	20.083	0.173	-0.015
1.000	111.953	80.005	19.993	103.754	20.084	0.127	-0.006
1.500	111.964	80.005	19.993	103.757	20.082	0.274	0.002
2.000	111.940	80.006	19.994	103.765	20.081	0.322	-0.003
2.500	111.989	80.005	19.994	103.772	20.088	-0.142	0.006
3.000	111.971	80.006	19.994	103.777	20.085	0.035	0.028
3.500	112.003	80.004	19.994	103.785	20.086	-0.033	0.023
4.000	111.973	80.004	19.993	103.792	20.083	0.213	0.008
4.500	111.969	80.005	19.994	103.799	20.078	0.564	-0.016
5.000	111.945	80.005	19.994	103.799	20.081	0.290	-0.031
5.500	111.976	80.004	19.994	103.793	20.080	0.366	-0.011
6.000	111.974	80.003	19.993	103.781	20.083	0.165	0.018
6.500	111.977	80.004	19.994	103.766	20.081	0.349	0.015
7.000	111.952	80.005	19.994	103.752	20.081	0.332	-0.010
7.500	111.928	80.005	19.994	103.743	20.078	0.543	-0.035
8.000	111.990	80.004	19.994	103.736	20.081	0.294	-0.006
8.500	111.984	80.006	19.993	103.733	20.084	0.140	0.046
9.000	111.974	80.006	19.994	103.732	20.079	0.458	0.020
9.500	111.955	80.006	19.994	103.738	20.078	0.529	-0.022
10.000	111.969	80.007	19.994	103.745	20.076	0.679	-0.017
10.500	112.006	80.005	19.994	103.753	20.077	0.575	0.023
11.000	111.941	80.006	19.993	103.761	20.078	0.510	0.011
11.500	111.951	80.006	19.994	103.774	20.081	0.330	-0.041
12.000	111.937	80.007	19.993	103.781	20.075	0.704	-0.029
12.501	111.950	80.005	19.994	103.788	20.074	0.784	-0.003
13.001	111.977	80.004	19.993	103.792	20.079	0.429	0.019
13.500	111.991	80.006	19.993	103.792	20.075	0.755	0.041
14.000	111.984	80.005	19.994	103.789	20.075	0.719	0.024
14.500	111.955	80.006	19.993	103.791	20.075	0.759	-0.015
15.000	112.004	80.005	19.993	103.792	20.075	0.709	-0.008
15.500	111.959	80.005	19.994	103.797	20.076	0.650	0.012
16.000	111.985	80.007	19.995	103.813	20.073	0.884	-0.007
16.500	112.000	80.006	19.993	103.828	20.076	0.683	0.011
17.000	111.972	80.007	19.993	103.840	20.072	0.924	0.014
17.500	112.050	80.007	19.993	103.854	20.075	0.740	0.018
18.000	112.066	80.006	19.993	103.864	20.075	0.773	0.072
18.500	112.030	80.006	19.993	103.864	20.075	0.736	0.037
19.000	112.056	80.006	19.993	103.863	20.075	0.761	-0.015
19.500	112.077	80.007	19.994	103.855	20.078	0.549	0.018
20.000	112.091	80.006	19.994	103.841	20.075	0.746	0.041
20.500	112.113	80.007	19.993	103.830	20.074	0.775	0.035
21.000	112.119	80.006	19.993	103.824	20.077	0.593	0.032
21.500	112.139	80.006	19.993	103.821	20.075	0.742	0.027
22.000	112.164	80.006	19.993	103.820	20.073	0.900	0.035
22.500	112.192	80.005	19.993	103.819	20.075	0.704	0.049
23.001	112.168	80.007	19.993	103.813	20.074	0.804	0.028
23.500	112.187	80.007	19.993	103.803	20.073	0.904	-0.001
24.000	112.203	80.007	19.993	103.794	20.073	0.875	0.015
24.500	112.288	80.006	19.993	103.785	20.070	1.100	0.068
25.000	112.286	80.007	19.993	103.782	20.072	0.979	0.092
25.500	112.286	80.006	19.994	103.784	20.071	1.035	0.041
26.000	112.323	80.005	19.992	103.790	20.068	1.202	0.018
26.500	112.360	80.006	19.993	103.795	20.071	1.017	0.055
27.000	112.330	80.007	19.993	103.803	20.068	1.194	0.040
27.500	112.401	80.007	19.993	103.806	20.068	1.219	0.024
28.000	112.400	80.007	19.994	103.812	20.069	1.131	0.055
28.500	112.440	80.006	19.993	103.819	20.069	1.182	0.054
29.000	112.503	80.006	19.993	103.824	20.067	1.277	0.071
29.500	112.512	80.007	19.994	103.824	20.072	0.971	0.088
30.000	112.528	80.006	19.993	103.829	20.067	1.277	0.048
30.500	112.583	80.007	19.993	103.829	20.066	1.355	0.048
31.000	112.574	80.006	19.993	103.828	20.064	1.538	0.058
31.500	112.600	80.006	19.993	103.830	20.065	1.430	0.032
32.000	112.638	80.006	19.993	103.836	20.065	1.459	0.041
32.500	112.697	80.006	19.993	103.840	20.066	1.361	0.081
33.001	112.716	80.007	19.994	103.851	20.064	1.495	0.088
33.501	112.762	80.007	19.993	103.857	20.064	1.515	0.072
34.000	112.778	80.006	19.993	103.864	20.062	1.628	0.063
34.500	112.837	80.006	19.993	103.871	20.065	1.448	0.068
35.000	112.888	80.007	19.993	103.876	20.059	1.834	0.093
35.500	112.916	80.007	19.993	103.882	20.063	1.588	0.095
36.000	112.971	80.006	19.993	103.891	20.062	1.669	0.081
36.500	112.971	80.007	19.993	103.900	20.060	1.801	0.069
37.000	113.005	80.006	19.993	103.909	20.060	1.814	0.044
37.500	113.088	80.006	19.994	103.915	20.059	1.839	0.075
38.000	113.109	80.007	19.994	103.920	20.059	1.872	0.110
38.500	113.229	80.007	19.994	103.920	20.058	1.956	0.123
39.000	113.254	80.007	19.994	103.915	20.057	1.964	0.144
39.501	113.281	80.006	19.994	103.913	20.054	2.167	0.099
40.001	113.338	80.006	19.994	103.914	20.055	2.154	0.068
40.500	113.417	80.006	19.993	103.915	20.054	2.194	0.110
41.000	113.442	80.007	19.993	103.915	20.054	2.173	0.120
41.500	113.495	80.007	19.994	103.913	20.051	2.398	0.091
42.000	113.591	80.008	19.994	103.909	20.053	2.258	0.113
42.500	113.616	80.008	19.994	103.909	20.052	2.308	0.135
43.000	113.726	80.006	19.994	103.909	20.051	2.404	0.129
43.500	113.774	80.007	19.994	103.910	20.052	2.333	0.147
44.001	113.818	80.007	19.993	103.919	20.053	2.291	0.125
44.501	113.924	80.007	19.995	103.931	20.051	2.387	0.121
45.001	113.981	80.008	19.995	103.940	20.051	2.417	0.157
45.501	114.039	80.008	19.995	103.947	20.054	2.171	0.139
46.001	114.088	80.008	19.995	103.949	20.053	2.285	0.110
46.501	114.206	80.008	19.995	103.950	20.052	2.340	0.137
47.000	114.271	80.007	19.994	103.945	20.050	2.454	0.176
47.500	114.330	80.006	19.994	103.938	20.050	2.492	0.154
48.000	114.379	80.006	19.994	103.930	20.052	2.315	0.116
48.500	114.478	80.006	19.994	103.927	20.050	2.471	0.128
49.000	114.553	80.006	19.995	103.925	20.049	2.521	0.161
49.500	114.671	80.006	19.994	103.922	20.048	2.604	0.183
50.000	114.751	80.007	19.994	103.921	20.049	2.582	0.195
50.501	114.825	80.005	19.993	103.926	20.049	2.571	0.176
51.001	114.891	80.006	19.994	103.932	20.049	2.537	0.147
51.500	115.005	80.006	19.993	103.934	20.049	2.564	0.160
52.000	115.081	80.005	19.994	103.934	20.048	2.588	0.185
52.500	115.171	80.005	19.994	103.940	20.048	2.627	0.178
53.000	115.267	80.005	19.994	103.943	20.046	2.727	0.176
53.500	115.354	80.005	19.994	103.945	20.047	2.659	0.184
54.000	115.442	80.004	19.993	103.951	20.045	2.823	0.179
54.500	115.515	80.005	19.994	103.955	20.047	2.641	0.168
55.000	115.608	80.004	19.994	103.950	20.047	2.703	0.163
55.500	115.703	80.005	19.993	103.942	20.045	2.839	0.177
56.001	115.811	80.006	19.994	103.935	20.045	2.795	0.196
56.501	115.913	80.005	19.994	103.928	20.046	2.772	0.206
57.000	116.006	80.005	19.993	103.926	20.044	2.873	0.203
57.500	116.106	80.005	19.994	103.928	20.044	2.877	0.194
58.000	116.202	80.004	19.994	103.929	20.044	2.886	0.195
58.500	116.333	80.005	19.994	103.931	20.046	2.718	0.212
59.000	116.459	80.005	19.994	103.936	20.048	2.581	0.242
59.500	116.544	80.006	19.995	103.939	20.054	2.227	0.234
60.000	116.653	80.004	19.993	103.946	20.057	2.007	0.203
60.500	116.767	80.005	19.994	103.948	20.060	1.761	0.208
61.000	116.858	80.007	19.993	103.931	20.070	1.101	0.214
61.500	116.992	80.005	19.993	103.883	20.071	1.025	0.215
62.000	117.090	80.004	19.994	103.815	20.077	0.595	0.228
62.500	117.195	80.004	19.993	103.730	20.085	0.038	0.218
63.000	117.304	80.005	19.994	103.638	20.084	0.094	0.209
63.500	117.424	80.005	19.994	103.559	20.090	-0.334	0.222
64.000	117.542	80.004	19.994	103.505	20.091	-0.386	0.233
64.500	117.652	80.005	19.993	103.472	20.094	-0.582	0.233
65.000	117.819	80.004	19.993	103.459	20.095	-0.661	0.253
65.500	117.895	80.003	19.993	103.465	20.094	-0.607	0.260
66.000	118.025	80.004	19.993	103.484	20.094	-0.578	0.224
66.500	118.165	80.004	19.994	103.510	20.097	-0.799	0.238
67.000	118.272	80.003	19.993	103.544	20.094	-0.605	0.259
67.500	118.383	80.004	19.994	103.576	20.095	-0.649	0.233
68.000	118.529	80.005	19.994	103.608	20.089	-0.234	0.237
68.501	118.665	80.005	19.994	103.636	20.088	-0.175	0.269
69.001	118.754	80.006	19.995	103.667	20.085	0.021	0.253
69.501	118.871	80.005	19.995	103.697	20.085	0.060	0.216
70.001	119.010	80.004	19.994	103.727	20.084	0.083	0.231
70.501	119.124	80.005	19.994	103.758	20.081	0.292	0.254
71.000	119.292	80.005	19.994	103.789	20.079	0.442	0.267
71.501	119.393	80.004	19.994	103.819	20.076	0.682	0.276
72.001	119.531	80.004	19.995	103.845	20.076	0.643	0.254
72.501	119.694	80.004	19.994	103.867	20.072	0.966	0.270
73.001	119.806	80.004	19.994	103.883	20.069	1.152	0.288
73.500	119.972	80.004	19.994	103.899	20.069	1.181	0.276
74.000	120.094	80.004	19.994	103.909	20.064	1.521	0.283
74.500	120.234	80.005	19.995	103.922	20.067	1.324	0.275
75.000	120.355	80.004	19.994	103.932	20.063	1.564	0.261
75.500	120.545	80.004	19.995	103.938	20.057	2.027	0.286
76.001	120.662	80.003	19.995	103.946	20.059	1.823	0.309
76.501	120.821	80.004	19.994	103.950	20.056	2.036	0.291
77.000	120.962	80.003	19.995	103.945	20.058	1.890	0.288
77.500	121.096	80.004	19.994	103.941	20.056	2.080	0.288
78.001	121.251	80.004	19.995	103.938	20.053	2.303	0.282
78.501	121.387	80.004	19.995	103.928	20.050	2.467	0.290
79.000	121.511	80.004	19.995	103.922	20.048	2.616	0.276
79.500	121.691	80.005	19.995	103.922	20.049	2.545	0.282
80.000	121.872	80.004	19.994	103.924	20.045	2.845	0.332
80.500	122.040	80.003	19.994	103.932	20.047	2.722	0.355
81.000	122.150	80.004	19.994	103.938	20.047	2.705	0.314
81.500	122.304	80.003	19.994	103.942	20.048	2.643	0.271
82.001	122.489	80.004	19.994	103.946	20.048	2.632	0.302
82.501	122.623	80.003	19.994	103.952	20.045	2.851	0.329
83.000	122.764	80.004	19.994	103.953	20.048	2.640	0.297
83.500	122.919	80.005	19.994	103.959	20.046	2.757	0.285
84.001	123.099	80.005	19.994	103.972	20.045	2.847	0.315
84.501	123.213	80.006	19.993	103.985	20.045	2.832	0.314
85.000	123.361	80.004	19.994	103.992	20.046	2.745	0.278
85.500	123.557	80.004	19.994	104.000	20.044	2.918	0.303
86.000	123.720	80.005	19.994	104.004	20.042	3.035	0.351
86.500	123.864	80.005	19.995	104.003	20.041	3.103	0.333
87.000	124.024	80.005	19.993	104.001	20.046	2.788	0.306
87.500	124.210	80.005	19.994	103.996	20.042	3.041	0.325
88.000	124.380	80.004	19.993	103.993	20.042	3.055	0.350
88.501	124.554	80.004	19.994	103.991	20.041	3.095	0.350
89.001	124.658	80.005	19.994	103.992	20.040	3.162	0.312
89.500	124.844	80.004	19.994	103.993	20.038	3.308	0.285
90.001	125.048	80.005	19.994	103.995	20.040	3.157	0.340
90.501	125.215	80.006	19.994	103.997	20.040	3.193	0.380
91.000	125.354	80.004	19.993	103.991	20.039	3.264	0.338
91.500	125.522	80.005	19.993	103.984	20.039	3.268	0.306
92.000	125.720	80.005	19.994	103.984	20.041	3.080	0.337
92.500	125.845	80.005	19.994	103.987	20.038	3.328	0.345
93.000	126.025	80.006	19.994	103.987	20.039	3.255	0.314
93.500	126.199	80.006	19.993	103.994	20.038	3.297	0.330
94.000	126.354	80.006	19.993	103.999	20.040	3.201	0.342
94.501	126.521	80.004	19.993	103.998	20.039	3.245	0.326
95.001	126.703	80.006	19.993	103.997	20.034	3.571	0.336
95.500	126.889	80.007	19.994	103.997	20.035	3.504	0.359
96.000	127.079	80.006	19.994	103.994	20.036	3.450	0.372
96.500	127.253	80.006	19.994	103.994	20.033	3.650	0.370
97.001	127.407	80.006	19.994	103.996	20.036	3.427	0.346
97.501	127.604	80.007	19.994	103.998	20.039	3.212	0.340
98.000	127.788	80.006	19.993	103.998	20.038	3.321	0.366
98.500	127.946	80.007	19.994	104.002	20.040	3.160	0.361
99.000	128.124	80.007	19.993	104.003	20.037	3.396	0.339
99.500	128.341	80.007	19.994	103.998	20.037	3.362	0.365
100.000	128.529	80.007	19.995	103.994	20.040	3.158	0.400
100.500	128.682	80.006	19.993	103.998	20.038	3.312	0.373
101.001	128.889	80.007	19.993	104.002	20.040	3.208	0.351
101.501	129.023	80.008	19.993	104.002	20.039	3.254	0.350
102.001	129.247	80.006	19.994	104.009	20.039	3.262	0.349
102.501	129.408	80.007	19.994	104.020	20.041	3.080	0.372
103.000	129.602	80.006	19.994	104.023	20.042	3.043	0.370
103.500	129.766	80.007	19.993	104.022	20.041	3.118	0.357
104.000	129.943	80.006	19.992	104.022	20.039	3.249	0.350
104.500	130.139	80.007	19.993	104.020	20.038	3.326	0.357
105.000	130.347	80.006	19.995	104.012	20.040	3.187	0.388
105.500	130.512	80.006	19.993	104.004	20.038	3.333	0.388
106.000	130.718	80.007	19.994	103.997	20.038	3.298	0.372
106.500	130.870	80.005	19.994	103.995	20.036	3.427	0.365
107.000	131.063	80.007	19.993	103.995	20.035	3.540	0.352
107.500	131.282	80.007	19.993	103.994	20.037	3.385	0.379
108.001	131.454	80.007	19.994	103.986	20.033	3.670	0.401
108.501	131.613	80.007	19.994	103.987	20.035	3.514	0.361
109.000	131.800	80.007	19.993	103.990	20.031	3.800	0.339
109.500	132.016	80.006	19.994	103.987	20.032	3.764	0.374
110.000	132.243	80.006	19.994	103.983	20.031	3.774	0.423
110.501	132.392	80.007	19.993	103.991	20.033	3.651	0.410
111.001	132.615	80.006	19.994	103.996	20.036	3.488	0.374
111.500	132.808	80.006	19.995	103.995	20.034	3.600	0.394
112.000	132.987	80.006	19.993	103.993	20.034	3.611	0.394
112.500	133.193	80.007	19.994	103.994	20.033	3.656	0.379
113.000	133.402	80.007	19.994	103.995	20.034	3.598	0.400
113.500	133.623	80.007	19.994	104.001	20.035	3.546	0.423
114.000	133.805	80.006	19.994	104.008	20.038	3.320	0.417
114.500	133.994	80.006	19.993	104.012	20.032	3.762	0.387
115.000	134.198	80.006	19.993	104.016	20.036	3.485	0.382
115.500	134.414	80.006	19.995	104.014	20.033	3.646	0.407
116.001	134.605	80.006	19.993	104.003	20.034	3.583	0.413
116.501	134.809	80.006	19.994	103.990	20.032	3.750	0.401
117.001	135.004	80.007	19.994	103.988	20.031	3.771	0.397
117.501	135.223	80.006	19.993	103.988	20.034	3.585	0.407
118.000	135.392	80.008	19.994	103.990	20.032	3.748	0.401
118.500	135.605	80.007	19.994	103.996	20.034	3.624	0.385
119.000	135.809	80.006	19.994	104.003	20.035	3.491	0.400
119.500	135.991	80.007	19.994	104.008	20.031	3.825	0.402
120.001	136.235	80.008	19.994	104.010	20.032	3.727	0.406
120.501	136.416	80.006	19.994	104.016	20.039	3.251	0.425
121.000	136.638	80.007	19.993	104.021	20.038	3.339	0.414
121.500	136.811	80.007	19.994	104.033	20.037	3.410	0.400
122.000	137.040	80.007	19.994	104.038	20.036	3.485	0.398
122.500	137.265	80.006	19.993	104.044	20.035	3.493	0.428
123.000	137.466	80.009	19.995	104.044	20.034	3.599	0.440
123.500	137.694	80.008	19.993	104.044	20.034	3.599	0.427
124.000	137.917	80.008	19.993	104.035	20.031	3.773	0.440
124.500	138.119	80.009	19.993	104.031	20.036	3.431	0.438
125.000	138.320	80.009	19.992	104.023	20.034	3.560	0.414
125.501	138.556	80.007	19.993	104.013	20.035	3.531	0.420
126.001	138.756	80.008	19.993	104.003	20.036	3.437	0.436
126.501	138.987	80.008	19.993	104.000	20.034	3.610	0.433
127.001	139.196	80.010	19.992	103.997	20.034	3.622	0.436
127.500	139.404	80.009	19.993	103.997	20.032	3.768	0.429
128.000	139.629	80.008	19.994	104.000	20.032	3.702	0.425
128.500	139.880	80.008	19.993	104.004	20.033	3.681	0.455
129.000	140.052	80.007	19.993	104.006	20.034	3.591	0.450
129.500	140.278	80.009	19.992	104.007	20.033	3.670	0.411
130.000	140.489	80.009	19.993	104.007	20.033	3.633	0.417
130.500	140.694	80.008	19.993	104.007	20.033	3.695	0.426
131.000	140.945	80.009	19.994	104.009	20.034	3.620	0.436
131.500	141.157	80.006	19.992	104.012	20.030	3.891	0.460
132.000	141.397	80.009	19.994	104.012	20.029	3.929	0.457
132.500	141.605	80.007	19.993	104.013	20.033	3.677	0.450
133.000	141.843	80.007	19.992	104.014	20.031	3.823	0.447
133.500	142.043	80.007	19.993	104.012	20.029	3.933	0.442
134.000	142.312	80.007	19.993	104.008	20.031	3.775	0.454
134.500	142.556	80.005	19.994	104.007	20.029	3.933	0.491
135.000	142.769	80.008	19.993	104.007	20.032	3.735	0.485
135.500	142.995	80.007	19.994	104.006	20.033	3.632	0.448
136.000	143.231	80.006	19.994	104.005	20.030	3.884	0.451
136.500	143.429	80.005	19.994	104.005	20.031	3.817	0.448
137.000	143.689	80.006	19.994	104.005	20.032	3.746	0.446
137.500	143.926	80.005	19.993	104.007	20.031	3.805	0.477
138.000	144.147	80.005	19.994	104.007	20.036	3.426	0.477
138.500	144.316	80.004	19.994	104.007	20.033	3.695	0.424
139.000	144.603	80.005	19.994	104.005	20.033	3.641	0.423
139.500	144.816	80.006	19.994	104.006	20.032	3.706	0.478
140.000	145.092	80.005	19.994	104.005	20.032	3.741	0.494
140.500	145.277	80.004	19.995	104.005	20.034	3.606	0.475
141.000	145.498	80.005	19.994	104.006	20.034	3.570	0.434
141.500	145.761	80.005	19.994	104.007	20.031	3.824	0.445
142.000	145.986	80.005	19.995	104.006	20.032	3.760	0.486
142.500	146.228	80.004	19.994	104.005	20.031	3.784	0.478
143.000	146.431	80.005	19.994	104.006	20.031	3.774	0.456
143.500	146.687	80.005	19.995	104.007	20.031	3.816	0.452
144.000	146.937	80.005	19.995	104.009	20.031	3.835	0.483
144.500	147.177	80.004	19.994	104.009	20.032	3.768	0.499
145.000	147.355	80.004	19.994	104.011	20.032	3.749	0.454
145.500	147.595	80.004	19.994	104.013	20.027	4.070	0.418
146.000	147.821	80.004	19.994	104.015	20.030	3.868	0.442
146.500	148.085	80.004	19.994	104.020	20.030	3.890	0.478
147.000	148.298	80.005	19.993	104.028	20.028	3.999	0.484
147.500	148.560	80.005	19.994	104.034	20.026	4.143	0.476
148.000	148.819	80.006	19.994	104.036	20.026	4.118	0.498
148.500	149.041	80.005	19.995	104.038	20.029	3.977	0.501
149.000	149.318	80.005	19.994	104.031	20.029	3.962	0.490
149.500	149.506	80.004	19.994	104.024	20.029	3.914	0.482
150.000	149.760	80.005	19.994	104.018	20.028	4.002	0.453
150.500	150.004	80.006	19.994	104.013	20.028	4.031	0.470
151.000	150.235	80.005	19.993	104.008	20.030	3.851	0.487
151.500	150.529	80.004	19.995	104.008	20.029	3.953	0.500
152.000	150.762	80.005	19.995	104.011	20.031	3.826	0.526
152.500	150.968	80.005	19.994	104.015	20.030	3.849	0.483
153.000	151.238	80.005	19.995	104.021	20.028	3.995	0.458
153.500	151.475	80.004	19.994	104.023	20.029	3.950	0.492
154.000	151.717	80.005	19.993	104.023	20.030	3.898	0.493
154.500	151.957	80.006	19.995	104.020	20.029	3.952	0.480
155.000	152.154	80.005	19.993	104.014	20.030	3.908	0.460
155.500	152.453	80.005	19.993	104.013	20.032	3.727	0.467
156.000	152.697	80.006	19.994	104.019	20.031	3.802	0.519
156.500	152.953	80.005	19.994	104.026	20.031	3.787	0.521
157.000	153.155	80.006	19.994	104.031	20.028	4.015	0.479
157.500	153.435	80.006	19.994	104.032	20.030	3.852	0.470
158.000	153.677	80.006	19.994	104.030	20.030	3.908	0.502
158.500	153.877	80.006	19.994	104.023	20.031	3.816	0.482
159.000	154.128	80.006	19.995	104.016	20.030	3.850	0.447
159.500	154.373	80.006	19.995	104.015	20.029	3.967	0.473
160.000	154.605	80.006	19.994	104.018	20.030	3.856	0.486
160.500	154.852	80.006	19.994	104.016	20.030	3.859	0.478
161.000	155.113	80.006	19.994	104.015	20.034	3.615	0.494
161.500	155.352	80.006	19.993	104.016	20.032	3.715	0.503
162.000	155.579	80.006	19.994	104.019	20.032	3.725	0.483
162.500	155.836	80.005	19.994	104.022	20.034	3.577	0.475
163.000	156.106	80.007	19.994	104.021	20.032	3.704	0.505
163.500	156.336	80.006	19.994	104.021	20.030	3.848	0.513
164.000	156.611	80.004	19.992	104.019	20.031	3.814	0.503
164.500	156.824	80.007	19.994	104.013	20.031	3.819	0.497
165.000	157.118	80.005	19.995	104.006	20.033	3.644	0.498
165.500	157.347	80.006	19.995	104.005	20.031	3.827	0.515
166.000	157.583	80.005	19.995	104.003	20.032	3.767	0.494
166.500	157.844	80.006	19.995	104.001	20.030	3.865	0.481
167.000	158.087	80.005	19.995	104.000	20.030	3.842	0.500
167.500	158.363	80.004	19.995	104.002	20.030	3.850	0.511
168.000	158.640	80.005	19.994	104.002	20.029	3.977	0.536
168.500	158.874	80.006	19.995	104.003	20.029	3.925	0.533
169.000	159.105	80.005	19.995	104.004	20.027	4.104	0.488
169.500	159.374	80.005	19.995	104.004	20.028	4.010	0.482
170.000	159.593	80.004	19.994	103.998	20.028	3.996	0.494
170.500	159.878	80.004	19.994	103.996	20.026	4.142	0.496
171.000	160.107	80.005	19.994	103.996	20.027	4.110	0.509
171.500	160.368	80.005	19.995	103.996	20.029	3.916	0.502
172.000	160.584	80.004	19.995	103.995	20.026	4.138	0.484
172.500	160.888	80.005	19.995	103.998	20.029	3.927	0.498
173.000	161.135	80.004	19.995	104.000	20.030	3.896	0.536
173.500	161.389	80.005	19.995	104.000	20.031	3.796	0.526
174.000	161.682	80.005	19.995	104.000	20.031	3.833	0.524
174.500	161.907	80.005	19.995	104.000	20.032	3.754	0.533
175.000	162.140	80.005	19.996	104.000	20.030	3.898	0.488
175.500	162.395	80.005	19.995	104.000	20.033	3.694	0.473
176.000	162.653	80.005	19.995	104.001	20.032	3.763	0.501
176.500	162.902	80.005	19.995	104.002	20.031	3.828	0.510
177.000	163.171	80.006	19.995	104.003	20.033	3.651	0.513
177.500	163.422	80.006	19.995	104.003	20.032	3.714	0.519
178.000	163.660	80.005	19.996	104.003	20.033	3.662	0.504
178.500	163.914	80.006	19.994	104.002	20.033	3.692	0.490
179.000	164.217	80.007	19.995	104.002	20.031	3.782	0.524
179.500	164.466	80.006	19.994	104.000	20.032	3.744	0.554
180.000	164.692	80.006	19.995	104.001	20.030	3.856	0.513
180.500	164.971	80.006	19.995	104.002	20.034	3.623	0.490
181.000	165.239	80.007	19.995	104.003	20.031	3.798	0.526
181.500	165.486	80.006	19.994	104.004	20.037	3.371	0.531
182.000	165.710	80.009	19.995	104.006	20.035	3.557	0.493
182.500	165.998	80.007	19.994	104.006	20.031	3.768	0.491
183.000	166.249	80.007	19.994	104.004	20.030	3.897	0.525
183.500	166.497	80.008	19.995	104.003	20.029	3.925	0.519
184.000	166.778	80.009	19.995	104.004	20.029	3.950	0.514
184.500	166.964	80.008	19.994	104.002	20.031	3.831	0.498
185.000	167.261	80.008	19.994	104.003	20.033	3.660	0.475
185.500	167.529	80.008	19.993	104.003	20.034	3.606	0.524
186.000	167.776	80.009	19.994	104.002	20.035	3.552	0.540
186.500	168.014	80.009	19.994	103.994	20.033	3.636	0.500
187.000	168.273	80.009	19.994	103.986	20.030	3.876	0.491
187.500	168.547	80.009	19.994	103.978	20.031	3.797	0.515
188.000	168.809	80.008	19.994	103.971	20.035	3.505	0.534
188.500	169.078	80.008	19.993	103.964	20.032	3.718	0.533
189.000	169.318	80.008	19.994	103.966	20.031	3.772	0.520
189.500	169.584	80.008	19.993	103.973	20.032	3.761	0.508
190.000	169.834	80.008	19.993	103.981	20.032	3.765	0.511
190.500	170.155	80.008	19.993	103.990	20.032	3.731	0.543
191.000	170.370	80.008	19.993	103.996	20.030	3.881	0.553
191.500	170.658	80.008	19.993	103.990	20.035	3.554	0.520
192.000	170.864	80.007	19.995	103.984	20.032	3.760	0.498
192.500	171.135	80.007	19.993	103.976	20.031	3.812	0.486
193.000	171.381	80.007	19.994	103.970	20.032	3.700	0.498
193.500	171.680	80.007	19.994	103.971	20.030	3.848	0.531
194.000	171.897	80.007	19.993	103.981	20.033	3.648	0.530
194.500	172.133	80.007	19.994	103.989	20.034	3.609	0.484
195.000	172.412	80.007	19.994	103.997	20.029	3.921	0.484
195.500	172.658	80.007	19.994	104.002	20.035	3.528	0.520
196.000	172.926	80.007	19.993	104.001	20.033	3.670	0.520
196.500	173.173	80.006	19.993	103.997	20.034	3.576	0.515
197.000	173.429	80.007	19.994	103.994	20.035	3.539	0.510
197.500	173.674	80.007	19.993	103.990	20.032	3.758	0.502
198.000	173.920	80.008	19.994	103.983	20.036	3.445	0.496
198.500	174.174	80.008	19.993	103.977	20.035	3.555	0.495
199.000	174.425	80.007	19.993	103.976	20.033	3.664	0.503
199.500	174.686	80.007	19.994	103.972	20.034	3.561	0.509
200.000	174.962	80.006	19.994	103.969	20.034	3.607	0.524
200.500	175.189	80.007	19.993	103.975	20.032	3.741	0.520
201.000	175.476	80.006	19.993	103.983	20.033	3.695	0.509
201.500	175.724	80.006	19.993	103.990	20.032	3.745	0.525
202.000	175.938	80.008	19.993	103.998	20.035	3.515	0.499
202.500	176.231	80.007	19.993	104.006	20.031	3.776	0.484
203.000	176.437	80.008	19.994	104.010	20.033	3.697	0.503
203.500	176.716	80.008	19.994	104.009	20.032	3.759	0.492
204.000	176.968	80.007	19.994	104.007	20.032	3.701	0.508
204.500	177.225	80.008	19.994	103.999	20.034	3.617	0.520
205.000	177.518	80.008	19.993	103.989	20.033	3.696	0.530
205.500	177.738	80.007	19.993	103.972	20.032	3.707	0.532
206.000	177.983	80.008	19.993	103.959	20.035	3.556	0.489
206.500	178.250	80.009	19.994	103.951	20.032	3.721	0.488
207.000	178.531	80.008	19.993	103.951	20.031	3.771	0.530
207.500	178.763	80.008	19.993	103.952	20.033	3.646	0.531
208.000	179.036	80.006	19.993	103.958	20.033	3.691	0.509
208.500	179.282	80.009	19.993	103.965	20.032	3.755	0.512
209.000	179.530	80.008	19.993	103.966	20.031	3.807	0.507
209.500	179.821	80.008	19.993	103.967	20.028	3.985	0.517
210.000	180.048	80.008	19.994	103.967	20.034	3.561	0.529
210.500	180.334	80.008	19.994	103.967	20.031	3.822	0.516
211.000	180.538	80.009	19.993	103.966	20.034	3.565	0.501
211.500	180.795	80.009	19.993	103.965	20.032	3.720	0.475
212.000	181.062	80.009	19.994	103.965	20.030	3.889	0.492
212.500	181.298	80.008	19.992	103.965	20.030	3.903	0.514
213.000	181.568	80.009	19.993	103.967	20.030	3.874	0.505
213.500	181.836	80.009	19.992	103.973	20.030	3.883	0.522
214.000	182.079	80.008	19.994	103.979	20.032	3.732	0.525
214.500	182.334	80.008	19.992	103.980	20.034	3.615	0.504
215.000	182.607	80.009	19.992	103.980	20.035	3.519	0.513
215.500	182.821	80.008	19.994	103.984	20.034	3.615	0.507
216.000	183.084	80.008	19.993	103.986	20.033	3.664	0.482
216.500	183.326	80.008	19.993	103.988	20.033	3.695	0.491
217.000	183.581	80.007	19.993	103.990	20.032	3.710	0.501
217.500	183.829	80.008	19.993	103.988	20.031	3.835	0.500
218.000	184.101	80.006	19.993	103.982	20.031	3.770	0.512
218.500	184.338	80.007	19.993	103.977	20.031	3.781	0.514
219.000	184.590	80.007	19.993	103.970	20.031	3.783	0.499
219.500	184.856	80.007	19.993	103.968	20.032	3.739	0.503
220.000	185.080	80.007	19.994	103.969	20.033	3.697	0.504
220.500	185.367	80.006	19.993	103.969	20.033	3.666	0.501
221.000	185.611	80.007	19.993	103.968	20.038	3.328	0.521
221.500	185.872	80.007	19.993	103.967	20.032	3.699	0.518
222.000	186.141	80.008	19.994	103.972	20.030	3.845	0.517
222.500	186.395	80.008	19.993	103.973	20.035	3.539	0.526
223.000	186.641	80.007	19.993	103.974	20.034	3.605	0.512
223.500	186.865	80.007	19.993	103.974	20.031	3.827	0.485
224.000	187.121	80.006	19.991	103.974	20.034	3.585	0.475
224.500	187.421	80.007	19.993	103.970	20.036	3.449	0.518
225.000	187.653	80.007	19.994	103.968	20.035	3.495	0.544
225.500	187.891	80.008	19.994	103.970	20.035	3.549	0.501
226.000	188.134	80.008	19.994	103.970	20.037	3.401	0.476
226.500	188.397	80.007	19.995	103.969	20.034	3.618	0.494
227.000	188.617	80.006	19.993	103.969	20.035	3.541	0.494
227.500	188.878	80.007	19.993	103.968	20.035	3.538	0.482
228.000	189.153	80.008	19.993	103.965	20.036	3.459	0.508
228.500	189.399	80.007	19.994	103.964	20.034	3.588	0.528
229.000	189.664	80.007	19.994	103.963	20.035	3.493	0.516
229.500	189.907	80.007	19.995	103.961	20.036	3.426	0.510
230.000	190.153	80.006	19.993	103.958	20.033	3.649	0.499
230.500	190.418	80.007	19.994	103.960	20.035	3.514	0.500
231.000	190.654	80.006	19.994	103.966	20.032	3.754	0.506
231.500	190.880	80.007	19.994	103.967	20.034	3.581	0.482
232.000	191.140	80.006	19.994	103.968	20.033	3.685	0.474
232.500	191.405	80.007	19.995	103.970	20.034	3.595	0.505
233.000	191.606	80.007	19.994	103.967	20.038	3.349	0.495
233.500	191.833	80.007	19.993	103.962	20.036	3.447	0.447
234.000	192.103	80.007	19.994	103.961	20.036	3.461	0.463
234.500	192.369	80.007	19.995	103.961	20.037	3.351	0.517
235.000	192.623	80.007	19.994	103.962	20.032	3.754	0.528
235.500	192.859	80.007	19.994	103.961	20.037	3.405	0.505
236.000	193.121	80.006	19.994	103.961	20.036	3.476	0.494
236.500	193.342	80.008	19.994	103.964	20.033	3.674	0.491
237.000	193.615	80.007	19.994	103.965	20.033	3.659	0.489
237.500	193.864	80.007	19.994	103.965	20.031	3.787	0.508
238.000	194.085	80.007	19.994	103.966	20.037	3.376	0.496
238.500	194.418	80.007	19.994	103.967	20.033	3.639	0.512
239.000	194.625	80.007	19.994	103.966	20.035	3.518	0.547
239.500	194.891	80.007	19.993	103.965	20.032	3.727	0.506
240.000	195.145	80.007	19.994	103.965	20.038	3.312	0.496
240.500	195.342	80.007	19.994	103.965	20.035	3.553	0.486
241.000	195.627	80.007	19.995	103.964	20.037	3.413	0.467
241.500	195.874	80.006	19.995	103.960	20.035	3.522	0.507
242.000	196.090	80.007	19.994	103.957	20.035	3.530	0.498
242.500	196.371	80.007	19.995	103.956	20.037	3.365	0.480
243.000	196.542	80.006	19.993	103.956	20.035	3.553	0.474
243.500	196.813	80.005	19.994	103.955	20.035	3.514	0.447
244.000	197.063	80.006	19.994	103.958	20.034	3.628	0.482
244.500	197.310	80.008	19.995	103.962	20.036	3.438	0.509
245.000	197.567	80.007	19.995	103.962	20.036	3.482	0.501
245.500	197.791	80.007	19.994	103.961	20.033	3.683	0.492
246.000	198.043	80.006	19.995	103.962	20.036	3.474	0.478
246.500	198.298	80.007	19.994	103.962	20.037	3.372	0.491
247.000	198.520	80.007	19.994	103.963	20.037	3.388	0.492
247.500	198.782	80.007	19.995	103.963	20.037	3.415	0.481
248.000	199.023	80.006	19.995	103.964	20.035	3.495	0.494
248.501	199.292	80.006	19.995	103.963	20.038	3.334	0.507
249.000	199.566	80.007	19.995	103.961	20.035	3.541	0.527
249.500	199.787	80.007	19.994	103.957	20.035	3.513	0.519
250.000	200.036	80.006	19.993	103.953	20.033	3.643	0.483
250.500	200.277	80.007	19.995	103.952	20.031	3.783	0.480
251.000	200.530	80.008	19.994	103.952	20.035	3.511	0.492
251.500	200.772	80.006	19.995	103.955	20.038	3.340	0.494
252.000	200.945	80.006	19.993	103.959	20.032	3.733	0.455
252.500	201.233	80.006	19.994	103.962	20.035	3.501	0.438
253.000	201.468	80.005	19.994	103.962	20.034	3.574	0.492
253.500	201.704	80.006	19.994	103.961	20.037	3.386	0.497
254.000	201.962	80.006	19.994	103.958	20.034	3.572	0.483
254.500	202.187	80.005	19.995	103.958	20.038	3.296	0.488
255.000	202.461	80.005	19.994	103.959	20.035	3.519	0.491
255.500	202.677	80.006	19.994	103.959	20.032	3.737	0.495
256.000	203.025	80.006	19.995	103.961	20.032	3.759	0.527
256.500	203.148	80.006	19.994	103.964	20.035	3.534	0.518
257.000	203.500	80.005	19.994	103.964	20.033	3.653	0.473
257.500	203.668	80.006	19.994	103.964	20.038	3.338	0.497
258.000	203.905	80.006	19.994	103.964	20.036	3.436	0.462
258.500	204.228	80.006	19.994	103.962	20.035	3.507	0.482
259.000	204.385	80.005	19.994	103.962	20.034	3.572	0.520
259.500	204.647	80.005	19.995	103.962	20.036	3.426	0.450
260.000	204.880	80.005	19.996	103.964	20.037	3.418	0.458
260.500	205.207	80.005	19.995	103.965	20.035	3.497	0.527
261.000	205.451	80.006	19.995	103.967	20.034	3.559	0.565
261.500	205.759	80.006	19.995	103.967	20.035	3.528	0.562
262.000	205.850	80.006	19.994	103.965	20.036	3.468	0.476
262.500	206.347	80.008	19.995	103.962	20.035	3.551	0.493
263.001	206.392	80.007	19.994	103.962	20.036	3.436	0.565
263.500	206.449	80.005	19.994	103.962	20.038	3.334	0.322
264.000	206.715	80.006	19.995	103.962	20.036	3.420	0.213
264.500	206.964	80.006	19.994	103.964	20.040	3.209	0.419
265.000	207.476	80.005	19.995	103.965	20.036	3.438	0.638
265.500	207.658	80.007	19.995	103.967	20.036	3.474	0.727
266.000	207.803	80.005	19.995	103.969	20.035	3.532	0.511
266.500	208.266	80.007	19.994	103.970	20.037	3.372	0.468
267.000	208.389	80.007	19.994	103.970	20.038	3.303	0.597
267.500	208.617	80.007	19.995	103.969	20.040	3.191	0.468
268.000	208.828	80.006	19.995	103.967	20.036	3.466	0.395
268.500	209.135	80.006	19.995	103.965	20.038	3.336	0.479
269.000	209.316	80.006	19.995	103.961	20.039	3.269	0.503
269.500	209.636	80.007	19.995	103.961	20.035	3.553	0.494
270.000	209.849	80.007	19.995	103.961	20.038	3.303	0.517
270.500	210.093	80.008	19.995	103.961	20.036	3.468	0.495
271.000	210.388	80.007	19.994	103.962	20.037	3.357	0.499
271.500	210.636	80.006	19.994	103.963	20.039	3.249	0.541
272.000	210.860	80.006	19.995	103.962	20.037	3.397	0.507
272.500	211.104	80.007	19.994	103.962	20.040	3.166	0.470
273.000	211.352	80.006	19.994	103.961	20.040	3.186	0.480
273.500	211.602	80.006	19.994	103.961	20.039	3.232	0.495
274.000	211.857	80.006	19.994	103.962	20.039	3.274	0.502
274.500	212.110	80.005	19.994	103.962	20.040	3.209	0.506
275.000	212.318	80.008	19.994	103.962	20.039	3.223	0.484
275.500	212.556	80.007	19.994	103.964	20.038	3.324	0.453
276.000	212.816	80.006	19.995	103.964	20.039	3.224	0.472
276.500	213.060	80.007	19.995	103.964	20.039	3.245	0.501
277.000	213.316	80.007	19.994	103.962	20.039	3.243	0.502
277.500	213.562	80.007	19.994	103.957	20.041	3.084	0.501
278.000	213.788	80.007	19.995	103.954	20.041	3.118	0.487
278.500	214.054	80.007	19.994	103.952	20.040	3.193	0.482
279.000	214.345	80.006	19.994	103.955	20.040	3.169	0.524
279.500	214.590	80.006	19.993	103.961	20.039	3.261	0.546
280.000	214.821	80.006	19.994	103.969	20.040	3.169	0.506
280.500	215.107	80.007	19.994	103.972	20.040	3.153	0.496
281.000	215.311	80.006	19.994	103.970	20.042	3.022	0.504
281.500	215.572	80.008	19.993	103.964	20.041	3.074	0.478
282.000	215.822	80.006	19.993	103.959	20.040	3.189	0.488
282.500	216.064	80.007	19.993	103.953	20.043	2.936	0.502
283.000	216.336	80.007	19.993	103.945	20.042	3.059	0.503
283.500	216.543	80.007	19.993	103.947	20.042	3.017	0.497
284.000	216.799	80.006	19.992	103.948	20.040	3.161	0.471
284.500	217.078	80.006	19.995	103.949	20.036	3.460	0.499
285.000	217.295	80.006	19.994	103.952	20.037	3.390	0.515
285.500	217.567	80.006	19.993	103.960	20.040	3.209	0.492
286.000	217.780	80.007	19.993	103.962	20.041	3.092	0.487
286.500	218.057	80.007	19.994	103.963	20.036	3.440	0.488
287.000	218.283	80.008	19.994	103.961	20.039	3.248	0.496
287.500	218.559	80.007	19.993	103.954	20.041	3.114	0.502
288.000	218.771	80.008	19.994	103.951	20.040	3.190	0.495
288.500	219.067	80.008	19.993	103.950	20.041	3.123	0.498
289.000	219.292	80.007	19.993	103.951	20.038	3.307	0.514
289.500	219.539	80.008	19.993	103.954	20.034	3.564	0.496
290.000	219.788	80.008	19.994	103.962	20.036	3.427	0.484
290.500	220.048	80.008	19.993	103.961	20.038	3.300	0.502
291.000	220.285	80.008	19.993	103.954	20.033	3.636	0.503
291.500	220.554	80.008	19.993	103.946	20.035	3.521	0.502
292.000	220.784	80.009	19.994	103.938	20.038	3.314	0.503
292.500	220.991	80.010	19.994	103.935	20.036	3.445	0.468
293.000	221.242	80.008	19.993	103.935	20.039	3.251	0.447
293.500	221.491	80.009	19.993	103.938	20.039	3.278	0.479
294.000	221.715	80.009	19.992	103.944	20.036	3.435	0.486
294.500	221.989	80.009	19.994	103.953	20.038	3.291	0.485
295.000	222.228	80.009	19.993	103.954	20.040	3.190	0.506
295.500	222.487	80.009	19.993	103.957	20.036	3.422	0.506
296.000	222.764	80.008	19.993	103.962	20.040	3.199	0.517
296.500	222.983	80.009	19.993	103.966	20.038	3.336	0.516
297.000	223.250	80.008	19.994	103.972	20.040	3.194	0.491
297.500	223.527	80.008	19.993	103.976	20.039	3.211	0.515
298.000	223.731	80.009	19.994	103.976	20.037	3.378	0.513
298.500	223.971	80.009	19.993	103.980	20.038	3.336	0.463
299.000	224.207	80.008	19.993	103.978	20.036	3.476	0.460
299.500	224.443	80.009	19.994	103.966	20.039	3.253	0.474
300.000	224.714	80.007	19.994	103.961	20.036	3.422	0.489
300.500	225.002	80.007	19.993	103.955	20.038	3.291	0.533
301.000	225.231	80.007	19.993	103.942	20.036	3.479	0.538
301.500	225.477	80.007	19.993	103.935	20.044	2.867	0.496
302.000	225.712	80.009	19.994	103.931	20.039	3.247	0.478
302.500	225.936	80.007	19.994	103.926	20.039	3.210	0.470
303.000	226.181	80.006	19.993	103.931	20.035	3.492	0.464
303.500	226.439	80.007	19.994	103.938	20.036	3.481	0.486
304.000	226.685	80.008	19.994	103.945	20.040	3.202	0.503
304.500	226.922	80.007	19.993	103.951	20.035	3.500	0.494
305.000	227.137	80.007	19.993	103.953	20.038	3.327	0.467
305.500	227.399	80.005	19.994	103.953	20.037	3.354	0.464
306.000	227.671	80.005	19.994	103.950	20.043	2.982	0.506
306.500	227.978	80.005	19.993	103.951	20.039	3.215	0.557
307.000	228.153	80.008	19.994	103.953	20.039	3.261	0.530
307.500	228.406	80.006	19.994	103.958	20.037	3.361	0.455
308.000	228.711	80.007	19.994	103.959	20.037	3.416	0.493
308.500	228.958	80.005	19.994	103.964	20.038	3.314	0.555
309.000	229.173	80.007	19.994	103.963	20.039	3.228	0.507
309.500	229.464	80.006	19.993	103.963	20.037	3.389	0.484
310.000	229.715	80.006	19.994	103.963	20.038	3.341	0.524
310.500	229.946	80.006	19.994	103.962	20.038	3.318	0.512
311.000	230.187	80.007	19.994	103.960	20.038	3.322	0.478
311.500	230.431	80.006	19.994	103.956	20.035	3.510	0.479
312.000	230.663	80.007	19.995	103.949	20.034	3.566	0.480
312.500	230.921	80.006	19.995	103.942	20.036	3.473	0.483
313.000	231.177	80.008	19.994	103.936	20.039	3.247	0.503
313.500	231.421	80.007	19.994	103.931	20.035	3.492	0.507
314.000	231.653	80.006	19.994	103.931	20.039	3.224	0.487
314.500	231.893	80.007	19.994	103.930	20.039	3.273	0.474
315.000	232.172	80.007	19.994	103.930	20.041	3.108	0.496
315.500	232.380	80.008	19.994	103.931	20.040	3.183	0.504
316.000	232.663	80.008	19.994	103.936	20.039	3.258	0.489
316.500	232.909	80.008	19.993	103.942	20.039	3.212	0.509
317.000	233.159	80.007	19.993	103.948	20.041	3.130	0.512
317.500	233.397	80.008	19.994	103.954	20.040	3.197	0.493
318.000	233.618	80.008	19.993	103.960	20.035	3.539	0.474
318.500	233.899	80.006	19.993	103.961	20.041	3.105	0.480
319.000	234.103	80.008	19.993	103.956	20.039	3.227	0.493
319.500	234.349	80.006	19.993	103.950	20.041	3.118	0.467
320.000	234.618	80.008	19.994	103.945	20.039	3.247	0.483
320.500	234.856	80.007	19.994	103.939	20.038	3.291	0.511
321.000	235.096	80.007	19.993	103.936	20.037	3.399	0.492
321.500	235.337	80.007	19.994	103.938	20.038	3.297	0.479
322.000	235.583	80.009	19.993	103.943	20.038	3.304	0.483
322.500	235.825	80.007	19.994	103.945	20.039	3.258	0.487
323.000	236.103	80.007	19.993	103.943	20.037	3.383	0.504
323.500	236.318	80.008	19.993	103.939	20.042	3.053	0.507
324.000	236.565	80.008	19.993	103.935	20.037	3.357	0.477
324.500	236.844	80.007	19.993	103.933	20.036	3.420	0.494
325.000	237.063	80.008	19.993	103.933	20.039	3.261	0.512
325.500	237.332	80.006	19.993	103.933	20.041	3.107	0.493
326.000	237.573	80.006	19.993	103.931	20.039	3.251	0.499
326.500	237.809	80.007	19.993	103.932	20.038	3.349	0.494
327.000	238.074	80.007	19.993	103.936	20.038	3.320	0.489
327.500	238.321	80.008	19.993	103.940	20.039	3.224	0.506
328.000	238.568	80.006	19.994	103.942	20.040	3.207	0.504
328.500	238.814	80.006	19.993	103.943	20.036	3.453	0.494
329.000	239.060	80.007	19.994	103.942	20.038	3.349	0.492
329.500	239.292	80.005	19.994	103.937	20.042	3.017	0.485
330.000	239.536	80.006	19.994	103.934	20.041	3.088	0.477
330.500	239.792	80.006	19.994	103.938	20.039	3.214	0.489
331.000	240.041	80.004	19.994	103.945	20.038	3.316	0.502
331.500	240.264	80.005	19.993	103.946	20.043	2.991	0.488
332.000	240.490	80.006	19.994	103.949	20.040	3.181	0.461
332.500	240.742	80.006	19.993	103.945	20.041	3.099	0.464
333.000	240.990	80.005	19.994	103.941	20.039	3.258	0.489
333.500	241.228	80.006	19.994	103.943	20.038	3.335	0.492
334.000	241.476	80.007	19.993	103.946	20.041	3.086	0.486
334.500	241.705	80.005	19.994	103.951	20.043	2.984	0.482
335.000	241.990	80.005	19.994	103.958	20.042	3.032	0.496
335.500	242.201	80.006	19.994	103.960	20.045	2.855	0.505
336.000	242.422	80.006	19.995	103.952	20.037	3.372	0.464
336.500	242.705	80.006	19.994	103.950	20.038	3.312	0.468
337.000	242.982	80.006	19.994	103.948	20.036	3.425	0.532
337.500	243.200	80.006	19.994	103.945	20.040	3.170	0.528
338.000	243.456	80.006	19.994	103.943	20.038	3.283	0.484
338.500	243.703	80.005	19.994	103.944	20.039	3.235	0.488
339.000	243.955	80.005	19.994	103.947	20.040	3.147	0.501
339.500	244.204	80.006	19.994	103.949	20.040	3.158	0.501
340.000	244.431	80.005	19.994	103.951	20.039	3.210	0.489
340.500	244.704	80.006	19.994	103.954	20.042	3.047	0.488
341.000	244.981	80.005	19.994	103.953	20.038	3.301	0.525
341.500	245.216	80.005	19.994	103.946	20.038	3.347	0.531
342.000	245.449	80.005	19.995	103.939	20.039	3.214	0.490
342.500	245.667	80.005	19.994	103.932	20.043	2.961	0.460
343.000	245.918	80.005	19.994	103.927	20.040	3.188	0.460
343.500	246.148	80.006	19.994	103.928	20.041	3.130	0.475
344.000	246.413	80.005	19.993	103.930	20.042	3.069	0.488
344.500	246.688	80.006	19.993	103.935	20.042	3.067	0.517
345.000	246.915	80.006	19.994	103.941	20.043	2.990	0.521
345.500	247.141	80.005	19.994	103.944	20.040	3.166	0.478
346.000	247.430	80.006	19.994	103.949	20.043	2.984	0.484
346.500	247.638	80.007	19.994	103.951	20.043	2.991	0.506
347.000	247.941	80.007	19.994	103.946	20.043	2.968	0.504
347.500	248.123	80.005	19.994	103.941	20.041	3.101	0.498
348.000	248.400	80.007	19.994	103.938	20.039	3.247	0.472
348.500	248.676	80.006	19.993	103.934	20.043	2.978	0.506
349.000	248.906	80.007	19.993	103.932	20.040	3.195	0.530
349.500	249.104	80.007	19.994	103.931	20.040	3.174	0.467
350.000	249.387	80.006	19.993	103.930	20.043	2.959	0.455
350.500	249.668	80.006	19.993	103.932	20.040	3.203	0.523
351.000	249.898	80.006	19.993	103.934	20.043	2.978	0.537
351.500	250.165	80.006	19.993	103.934	20.041	3.116	0.504
352.000	250.391	80.007	19.994	103.939	20.040	3.176	0.495
352.500	250.643	80.007	19.994	103.945	20.039	3.268	0.485
353.000	250.889	80.007	19.993	103.949	20.043	2.978	0.488
353.500	251.128	80.007	19.994	103.949	20.041	3.128	0.492
354.000	251.384	80.007	19.994	103.954	20.039	3.262	0.490
354.500	251.601	80.009	19.994	103.954	20.043	2.946	0.484
355.000	251.865	80.008	19.993	103.952	20.043	2.969	0.477
355.500	252.128	80.008	19.993	103.949	20.038	3.334	0.503
356.000	252.336	80.007	19.993	103.948	20.042	3.059	0.499
356.500	252.604	80.008	19.994	103.943	20.039	3.257	0.474
357.000	252.857	80.008	19.993	103.941	20.043	2.944	0.499
357.500	253.096	80.007	19.995	103.937	20.037	3.408	0.506
358.000	253.342	80.007	19.994	103.935	20.036	3.444	0.488
358.500	253.587	80.009	19.994	103.935	20.039	3.277	0.488
359.000	253.836	80.008	19.994	103.940	20.040	3.206	0.492
359.500	254.067	80.007	19.995	103.944	20.039	3.246	0.487
360.000	254.319	80.007	19.994	103.948	20.042	3.055	0.482
360.500	254.559	80.007	19.994	103.948	20.034	3.621	0.488
361.000	254.809	80.007	19.994	103.949	20.039	3.256	0.491
361.500	255.075	80.007	19.994	103.948	20.037	3.368	0.504
362.000	255.311	80.006	19.994	103.946	20.040	3.156	0.509
362.500	255.577	80.007	19.994	103.944	20.042	3.058	0.502
363.000	255.813	80.006	19.993	103.945	20.037	3.393	0.502
363.500	256.034	80.006	19.995	103.945	20.039	3.254	0.480
364.000	256.315	80.006	19.994	103.947	20.035	3.535	0.479
364.500	256.519	80.006	19.994	103.947	20.041	3.129	0.493
365.000	256.789	80.007	19.995	103.950	20.040	3.164	0.479
365.500	257.028	80.007	19.994	103.953	20.036	3.471	0.492
366.000	257.290	80.007	19.994	103.956	20.042	3.070	0.505
366.500	257.500	80.008	19.995	103.956	20.044	2.913	0.486
367.000	257.740	80.006	19.995	103.958	20.039	3.236	0.461
367.500	257.983	80.007	19.995	103.954	20.036	3.482	0.466
368.000	258.234	80.005	19.994	103.947	20.038	3.309	0.488
368.500	258.474	80.008	19.995	103.939	20.040	3.164	0.493
369.000	258.737	80.007	19.996	103.933	20.036	3.487	0.497
369.500	258.984	80.007	19.994	103.926	20.037	3.370	0.506
370.000	259.251	80.006	19.995	103.926	20.035	3.519	0.512
370.500	259.489	80.007	19.994	103.930	20.038	3.283	0.510
371.000	259.748	80.006	19.994	103.935	20.034	3.615	0.501
371.500	259.959	80.007	19.995	103.935	20.039	3.262	0.483
372.000	260.226	80.007	19.994	103.934	20.038	3.305	0.474
372.500	260.450	80.007	19.994	103.935	20.038	3.291	0.485
373.000	260.708	80.009	19.993	103.932	20.037	3.381	0.486
373.500	260.903	80.009	19.995	103.930	20.039	3.276	0.468
374.000	261.180	80.008	19.995	103.934	20.037	3.368	0.463
374.500	261.413	80.008	19.993	103.936	20.038	3.316	0.491
375.000	261.705	80.008	19.994	103.934	20.035	3.554	0.518
375.500	261.921	80.009	19.993	103.933	20.041	3.104	0.516
376.000	262.186	80.008	19.994	103.935	20.038	3.327	0.494
376.500	262.433	80.010	19.994	103.939	20.040	3.206	0.496
377.000	262.641	80.007	19.993	103.943	20.038	3.308	0.484
377.500	262.917	80.009	19.994	103.952	20.036	3.473	0.470
378.000	263.158	80.008	19.993	103.957	20.038	3.323	0.500
378.500	263.428	80.008	19.993	103.958	20.037	3.398	0.513
379.000	263.634	80.009	19.994	103.951	20.037	3.383	0.493
379.500	263.930	80.008	19.992	103.945	20.036	3.477	0.489
380.000	264.168	80.009	19.994	103.943	20.039	3.216	0.518
380.500	264.422	80.009	19.995	103.939	20.033	3.654	0.513
381.000	264.639	80.009	19.993	103.933	20.034	3.615	0.481
381.500	264.923	80.008	19.993	103.936	20.036	3.481	0.486
382.000	265.159	80.008	19.993	103.937	20.034	3.598	0.510
382.500	265.380	80.009	19.993	103.939	20.033	3.665	0.489
383.000	265.656	80.009	19.994	103.944	20.034	3.590	0.477
383.500	265.883	80.009	19.993	103.947	20.033	3.640	0.500
384.000	266.125	80.007	19.993	103.948	20.035	3.498	0.486
384.500	266.371	80.009	19.993	103.945	20.034	3.594	0.478
385.000	266.632	80.009	19.992	103.939	20.035	3.546	0.497
385.500	266.835	80.007	19.993	103.932	20.034	3.573	0.486
386.000	267.148	80.007	19.992	103.927	20.035	3.545	0.490
386.500	267.385	80.005	19.993	103.924	20.034	3.620	0.532
387.000	267.618	80.006	19.993	103.925	20.032	3.699	0.510
387.500	267.869	80.007	19.993	103.925	20.037	3.353	0.477
388.000	268.135	80.008	19.993	103.929	20.032	3.741	0.501
388.500	268.366	80.007	19.994	103.931	20.036	3.479	0.507
389.000	268.575	80.006	19.994	103.932	20.034	3.613	0.469
389.500	268.858	80.007	19.994	103.931	20.034	3.594	0.466
390.000	269.074	80.007	19.994	103.930	20.034	3.577	0.495
390.500	269.340	80.007	19.995	103.928	20.033	3.652	0.490
391.000	269.586	80.007	19.994	103.928	20.035	3.490	0.497
391.500	269.854	80.006	19.993	103.935	20.035	3.552	0.513
392.000	270.102	80.008	19.994	103.937	20.035	3.519	0.515
392.500	270.381	80.007	19.994	103.937	20.033	3.692	0.522
393.000	270.601	80.006	19.993	103.936	20.033	3.694	0.513
393.500	270.871	80.006	19.994	103.933	20.034	3.588	0.494
394.000	271.091	80.007	19.994	103.928	20.035	3.546	0.490
394.500	271.346	80.006	19.994	103.927	20.033	3.692	0.482
395.001	271.628	80.007	19.994	103.930	20.035	3.498	0.506
395.500	271.909	80.006	19.994	103.933	20.031	3.784	0.550
396.000	272.113	80.006	19.995	103.939	20.034	3.583	0.524
396.500	272.369	80.005	19.994	103.942	20.033	3.671	0.472
397.000	272.635	80.006	19.994	103.946	20.032	3.757	0.491
397.500	272.914	80.006	19.994	103.951	20.033	3.646	0.533
398.000	273.139	80.006	19.994	103.954	20.032	3.729	0.524
398.500	273.370	80.005	19.993	103.951	20.033	3.675	0.480
399.000	273.647	80.006	19.994	103.949	20.032	3.723	0.483
399.500	273.878	80.005	19.993	103.946	20.029	3.943	0.508
400.000	274.129	80.006	19.994	103.939	20.033	3.648	0.494
400.500	274.364	80.005	19.994	103.935	20.030	3.874	0.484
401.000	274.645	80.006	19.993	103.933	20.034	3.567	0.501
401.500	274.885	80.007	19.994	103.933	20.032	3.755	0.519
402.000	275.139	80.007	19.994	103.933	20.032	3.738	0.507
402.500	275.401	80.006	19.994	103.933	20.034	3.559	0.505
403.000	275.636	80.006	19.994	103.932	20.025	4.202	0.507
403.500	275.919	80.005	19.994	103.929	20.028	3.986	0.507
404.000	276.113	80.005	19.993	103.928	20.030	3.905	0.498
404.500	276.395	80.006	19.994	103.928	20.025	4.210	0.477
405.000	276.682	80.007	19.995	103.930	20.030	3.861	0.522
405.500	276.900	80.007	19.994	103.931	20.031	3.825	0.537
406.000	277.153	80.006	19.994	103.931	20.026	4.121	0.488
406.500	277.402	80.006	19.993	103.933	20.027	4.069	0.487
407.000	277.673	80.006	19.994	103.934	20.030	3.881	0.511
407.500	277.891	80.006	19.993	103.936	20.029	3.933	0.505
408.000	278.150	80.006	19.995	103.935	20.026	4.117	0.483
408.500	278.419	80.006	19.993	103.936	20.027	4.046	0.503
409.000	278.687	80.007	19.994	103.935	20.030	3.894	0.533
409.500	278.892	80.007	19.994	103.933	20.027	4.080	0.505
410.001	279.175	80.007	19.993	103.927	20.027	4.080	0.480
410.500	279.421	80.006	19.994	103.927	20.031	3.815	0.509
411.000	279.659	80.007	19.993	103.925	20.030	3.874	0.507
411.500	279.932	80.006	19.993	103.924	20.030	3.851	0.498
412.000	280.160	80.006	19.993	103.925	20.030	3.888	0.506
412.500	280.381	80.006	19.994	103.925	20.033	3.661	0.475
413.000	280.686	80.005	19.993	103.926	20.029	3.947	0.487
413.500	280.928	80.006	19.993	103.927	20.027	4.057	0.537
414.000	281.149	80.006	19.994	103.928	20.026	4.126	0.505
414.500	281.420	80.005	19.993	103.928	20.026	4.135	0.477
415.000	281.697	80.007	19.994	103.928	20.031	3.809	0.520
415.500	281.936	80.005	19.993	103.931	20.025	4.208	0.532
416.000	282.157	80.006	19.994	103.938	20.025	4.191	0.488
416.500	282.463	80.005	19.994	103.946	20.026	4.152	0.494
417.000	282.698	80.006	19.993	103.954	20.025	4.200	0.534
417.500	282.972	80.005	19.993	103.962	20.026	4.158	0.525
418.000	283.144	80.005	19.993	103.964	20.025	4.212	0.477
418.500	283.452	80.005	19.992	103.959	20.027	4.056	0.463
419.000	283.711	80.005	19.993	103.951	20.026	4.175	0.524
419.500	283.910	80.005	19.994	103.944	20.024	4.258	0.512
420.000	284.200	80.006	19.994	103.936	20.021	4.519	0.473
420.500	284.460	80.007	19.993	103.931	20.024	4.275	0.520
421.000	284.703	80.006	19.994	103.929	20.023	4.381	0.526
421.500	284.965	80.006	19.994	103.928	20.026	4.158	0.503
422.000	285.172	80.004	19.993	103.927	20.021	4.523	0.487
422.500	285.470	80.005	19.993	103.927	20.023	4.341	0.487
423.000	285.707	80.006	19.993	103.926	20.024	4.296	0.520
423.500	285.993	80.005	19.994	103.926	20.023	4.346	0.529
424.000	286.237	80.006	19.993	103.926	20.020	4.573	0.527
424.500	286.496	80.006	19.993	103.927	20.019	4.615	0.516
425.000	286.754	80.008	19.995	103.927	20.027	4.108	0.510
425.500	287.004	80.007	19.994	103.926	20.020	4.588	0.513
426.000	287.233	80.006	19.994	103.925	20.022	4.439	0.494
426.500	287.511	80.007	19.994	103.925	20.022	4.414	0.493
427.000	287.745	80.007	19.994	103.925	20.023	4.366	0.509
427.500	288.019	80.005	19.995	103.925	20.024	4.280	0.510
428.000	288.235	80.007	19.995	103.925	20.025	4.219	0.500
428.500	288.479	80.006	19.993	103.924	20.023	4.324	0.475
429.000	288.745	80.006	19.994	103.925	20.023	4.360	0.485
429.500	288.977	80.006	19.993	103.925	20.020	4.564	0.504
430.000	289.245	80.007	19.995	103.925	20.020	4.597	0.499
430.500	289.478	80.008	19.994	103.925	20.015	4.948	0.500
431.000	289.714	80.007	19.994	103.927	20.016	4.864	0.485
431.500	289.993	80.007	19.995	103.925	20.016	4.845	0.492
432.000	290.252	80.008	19.994	103.925	20.019	4.624	0.526
432.500	290.484	80.008	19.994	103.925	20.018	4.720	0.515
433.000	290.741	80.007	19.995	103.925	20.015	4.893	0.490
433.500	290.986	80.007	19.994	103.924	20.019	4.619	0.495
434.000	291.253	80.008	19.994	103.924	20.018	4.726	0.507
434.500	291.507	80.007	19.994	103.924	20.020	4.599	0.516
435.001	291.772	80.007	19.994	103.924	20.024	4.299	0.520
435.500	292.029	80.007	19.995	103.926	20.016	4.842	0.521
436.000	292.273	80.008	19.994	103.927	20.015	4.939	0.512
436.500	292.548	80.006	19.995	103.928	20.018	4.714	0.510
437.000	292.805	80.007	19.994	103.930	20.015	4.929	0.525
437.500	293.068	80.008	19.995	103.935	20.011	5.159	0.526
438.000	293.331	80.007	19.993	103.938	20.016	4.830	0.523
438.500	293.531	80.007	19.994	103.942	20.015	4.923	0.495
439.000	293.800	80.008	19.995	103.944	20.014	5.000	0.466
439.500	294.041	80.007	19.994	103.943	20.017	4.785	0.489
440.000	294.332	80.008	19.995	103.939	20.012	5.140	0.521
440.500	294.553	80.007	19.994	103.937	20.013	5.041	0.522
441.000	294.821	80.008	19.995	103.938	20.016	4.818	0.500
441.500	295.119	80.008	19.994	103.939	20.010	5.292	0.527
442.000	295.378	80.008	19.994	103.943	20.015	4.889	0.562
442.500	295.621	80.007	19.994	103.949	20.011	5.185	0.530
443.000	295.835	80.008	19.995	103.954	20.014	4.981	0.480
443.500	296.110	80.007	19.994	103.956	20.012	5.119	0.473
444.000	296.318	80.007	19.993	103.959	20.010	5.274	0.486
444.500	296.549	80.007	19.994	103.960	20.010	5.284	0.461
445.000	296.813	80.008	19.994	103.956	20.010	5.251	0.467
445.500	297.089	80.007	19.994	103.949	20.008	5.370	0.518
446.000	297.334	80.008	19.994	103.939	20.008	5.381	0.531
446.500	297.606	80.007	19.994	103.924	20.005	5.581	0.519
447.000	297.850	80.007	19.993	103.911	20.008	5.412	0.517
447.500	298.148	80.007	19.994	103.906	20.009	5.339	0.529
448.000	298.372	80.007	19.994	103.906	20.007	5.471	0.532
448.500	298.655	80.007	19.994	103.908	20.008	5.391	0.514
449.000	298.927	80.008	19.994	103.917	20.006	5.569	0.531
449.500	299.136	80.007	19.993	103.930	20.011	5.208	0.518
450.000	299.384	80.007	19.994	103.938	20.004	5.673	0.469
450.500	299.625	80.007	19.995	103.946	20.006	5.508	0.473
451.000	299.896	80.007	19.994	103.950	20.011	5.162	0.500
451.500	300.131	80.007	19.993	103.955	20.004	5.673	0.509
452.000	300.395	80.008	19.995	103.952	20.004	5.684	0.503
452.500	300.647	80.008	19.994	103.950	20.004	5.681	0.508
453.000	300.941	80.008	19.994	103.950	20.005	5.590	0.531
453.500	301.145	80.008	19.995	103.951	20.005	5.587	0.522
454.000	301.418	80.008	19.994	103.948	20.001	5.871	0.488
454.500	301.655	80.008	19.994	103.945	20.002	5.820	0.493
455.000	301.923	80.009	19.994	103.941	19.997	6.146	0.507
455.500	302.171	80.007	19.994	103.933	20.000	5.949	0.510
456.000	302.433	80.010	19.995	103.929	20.003	5.776	0.513
456.500	302.640	80.009	19.994	103.925	19.999	6.020	0.490
457.000	302.912	80.008	19.993	103.924	19.996	6.264	0.474
457.500	303.178	80.008	19.994	103.923	20.000	5.934	0.509
458.000	303.417	80.008	19.995	103.923	19.997	6.155	0.522
458.500	303.652	80.008	19.994	103.923	19.992	6.523	0.489
459.000	303.914	80.008	19.994	103.923	19.997	6.180	0.485
459.500	304.165	80.009	19.995	103.923	19.996	6.232	0.505
460.000	304.401	80.009	19.994	103.922	19.991	6.570	0.500
460.500	304.675	80.008	19.993	103.921	19.989	6.716	0.499
461.000	304.932	80.008	19.994	103.921	19.991	6.566	0.520
461.500	305.182	80.008	19.994	103.921	19.990	6.633	0.519
462.000	305.431	80.007	19.993	103.921	19.994	6.354	0.503
462.500	305.683	80.009	19.993	103.922	19.990	6.666	0.500
463.001	305.922	80.008	19.994	103.923	19.986	6.958	0.496
463.500	306.196	80.009	19.994	103.924	19.990	6.684	0.502
464.000	306.482	80.007	19.993	103.926	19.987	6.865	0.537
464.500	306.693	80.009	19.994	103.933	19.989	6.746	0.529
465.000	306.958	80.009	19.995	103.939	19.989	6.719	0.486
465.500	307.238	80.007	19.993	103.943	19.990	6.637	0.510
466.000	307.490	80.009	19.994	103.946	19.991	6.607	0.539
466.500	307.695	80.007	19.995	103.952	19.987	6.863	0.495
467.000	307.995	80.008	19.994	103.948	19.986	6.947	0.481
467.500	308.248	80.009	19.994	103.948	19.989	6.714	0.529
468.000	308.499	80.006	19.993	103.951	19.988	6.798	0.529
468.500	308.760	80.007	19.995	103.960	19.989	6.727	0.508
469.000	309.002	80.008	19.995	103.969	19.989	6.704	0.508
469.500	309.241	80.006	19.994	103.982	19.985	6.998	0.492
470.000	309.506	80.007	19.995	103.991	19.987	6.830	0.492
470.500	309.782	80.006	19.994	103.998	19.984	7.105	0.522
471.000	310.002	80.006	19.994	104.001	19.987	6.844	0.518
471.500	310.239	80.008	19.995	103.998	19.985	7.036	0.477
472.000	310.493	80.007	19.994	103.991	19.984	7.042	0.474
472.500	310.745	80.006	19.993	103.983	19.983	7.114	0.499
473.000	310.964	80.006	19.994	103.975	19.979	7.414	0.489
473.500	311.244	80.006	19.994	103.968	19.982	7.222	0.485
474.000	311.503	80.006	19.994	103.967	19.983	7.118	0.519
474.500	311.785	80.006	19.993	103.975	19.978	7.460	0.540
475.000	312.020	80.007	19.994	103.983	19.981	7.252	0.529
475.500	312.269	80.006	19.994	103.988	19.977	7.532	0.500
476.000	312.511	80.006	19.994	103.988	19.979	7.441	0.488
476.500	312.805	80.006	19.993	103.983	19.977	7.552	0.514
477.000	313.021	80.006	19.993	103.970	19.976	7.661	0.523
477.500	313.288	80.006	19.993	103.955	19.975	7.700	0.496
478.000	313.559	80.006	19.993	103.942	19.978	7.485	0.510
478.501	313.771	80.006	19.993	103.934	19.978	7.513	0.511
479.000	314.023	80.007	19.994	103.927	19.976	7.638	0.474
479.500	314.290	80.006	19.992	103.925	19.975	7.709	0.491
480.000	314.533	80.007	19.993	103.926	19.972	7.928	0.515
480.501	314.840	80.006	19.994	103.925	19.980	7.356	0.530
481.000	315.058	80.006	19.993	103.923	19.974	7.735	0.537
481.500	315.286	80.005	19.993	103.923	19.974	7.781	0.486
482.000	315.529	80.007	19.993	103.924	19.972	7.904	0.459
482.500	315.772	80.006	19.993	103.928	19.974	7.793	0.478
483.000	316.038	80.007	19.995	103.936	19.969	8.143	0.497
483.500	316.280	80.007	19.994	103.944	19.972	7.930	0.509
484.000	316.534	80.006	19.993	103.950	19.972	7.877	0.502
484.500	316.778	80.006	19.993	103.949	19.967	8.238	0.496
485.000	316.991	80.006	19.994	103.947	19.967	8.234	0.477
485.500	317.247	80.007	19.992	103.943	19.971	7.960	0.463
486.000	317.549	80.007	19.994	103.937	19.969	8.127	0.513
486.500	317.788	80.007	19.993	103.929	19.964	8.459	0.550
487.000	318.034	80.006	19.993	103.924	19.962	8.581	0.514
487.500	318.284	80.007	19.993	103.920	19.966	8.296	0.491
488.000	318.536	80.007	19.994	103.918	19.965	8.421	0.499
488.500	318.795	80.008	19.993	103.921	19.963	8.542	0.506
489.000	319.055	80.006	19.993	103.924	19.965	8.389	0.515
489.500	319.272	80.007	19.993	103.935	19.958	8.861	0.498
490.000	319.493	80.007	19.994	103.944	19.958	8.911	0.458
490.500	319.767	80.007	19.994	103.946	19.960	8.761	0.467
491.000	320.032	80.008	19.993	103.943	19.960	8.733	0.517
491.500	320.267	80.008	19.994	103.941	19.952	9.307	0.520
492.000	320.543	80.008	19.993	103.934	19.954	9.142	0.505
492.500	320.772	80.007	19.994	103.928	19.956	9.009	0.508
493.000	321.007	80.006	19.994	103.926	19.956	8.994	0.484
493.500	321.254	80.007	19.993	103.934	19.952	9.316	0.473
494.000	321.509	80.006	19.994	103.942	19.951	9.377	0.492
494.500	321.750	80.007	19.994	103.947	19.949	9.533	0.499
495.000	322.010	80.007	19.993	103.952	19.952	9.272	0.499
495.500	322.267	80.007	19.994	103.955	19.949	9.483	0.509
496.000	322.537	80.006	19.994	103.955	19.947	9.669	0.522
496.500	322.783	80.006	19.993	103.955	19.947	9.666	0.522
497.000	323.023	80.005	19.994	103.958	19.944	9.842	0.501
497.500	323.270	80.006	19.994	103.961	19.942	9.974	0.486
498.000	323.497	80.004	19.993	103.963	19.941	10.092	0.481
498.500	323.755	80.006	19.992	103.963	19.941	10.038	0.480
499.001	324.016	80.006	19.993	103.962	19.936	10.376	0.502
499.500	324.261	80.006	19.994	103.961	19.935	10.479	0.512
500.000	324.496	80.006	19.994	103.963	19.936	10.433	0.493
500.500	324.763	80.006	19.993	103.963	19.931	10.749	0.491
501.000	324.989	80.007	19.994	103.965	19.928	10.963	0.498
501.500	325.248	80.005	19.994	103.965	19.928	10.963	0.489
502.000	325.523	80.005	19.995	103.966	19.925	11.215	0.509
502.500	325.757	80.006	19.993	103.965	19.917	11.743	0.521
503.000	326.025	80.005	19.994	103.965	19.917	11.722	0.506
503.500	326.242	80.005	19.994	103.964	19.916	11.795	0.494
504.000	326.507	80.004	19.994	103.963	19.911	12.195	0.484
504.500	326.781	80.007	19.993	103.962	19.909	12.310	0.511
505.000	326.984	80.005	19.995	103.960	19.910	12.249	0.508
505.500	327.275	80.006	19.995	103.960	19.907	12.458	0.485
506.000	327.543	80.005	19.993	103.959	19.907	12.422	0.526
506.500	327.772	80.006	19.994	103.959	19.908	12.358	0.528
507.000	328.004	80.005	19.994	103.954	19.909	12.273	0.479
507.500	328.258	80.006	19.994	103.949	19.909	12.329	0.473
508.000	328.517	80.007	19.994	103.941	19.909	12.286	0.500
508.500	328.793	80.008	19.993	103.933	19.911	12.141	0.524
509.000	329.053	80.008	19.994	103.926	19.908	12.349	0.535
509.500	329.266	80.006	19.995	103.924	19.913	12.045	0.505
510.000	329.533	80.005	19.994	103.925	19.909	12.293	0.477
510.501	329.788	80.006	19.993	103.929	19.910	12.242	0.501
511.000	330.020	80.006	19.994	103.937	19.909	12.283	0.504
511.500	330.271	80.008	19.994	103.945	19.903	12.736	0.485
512.000	330.546	80.007	19.994	103.956	19.904	12.625	0.505
512.500	330.794	80.006	19.994	103.968	19.905	12.581	0.525
513.000	331.004	80.006	19.992	103.979	19.898	13.062	0.490
513.500	331.269	80.007	19.994	103.987	19.898	13.085	0.467
514.000	331.530	80.008	19.994	103.996	19.893	13.377	0.501
514.500	331.762	80.008	19.993	104.005	19.892	13.499	0.509
515.000	332.006	80.006	19.994	104.011	19.890	13.645	0.484
515.500	332.278	80.008	19.994	104.012	19.887	13.816	0.496
516.000	332.483	80.008	19.994	104.013	19.887	13.858	0.497
516.500	332.748	80.009	19.993	104.014	19.881	14.269	0.474
517.000	333.035	80.008	19.993	104.010	19.883	14.121	0.511
517.500	333.303	80.009	19.993	104.008	19.877	14.498	0.554
518.000	333.542	80.008	19.993	104.004	19.877	14.524	0.531
518.500	333.786	80.008	19.993	103.994	19.870	15.034	0.495
519.000	334.041	80.008	19.994	103.985	19.872	14.862	0.491
519.500	334.301	80.008	19.994	103.976	19.865	15.358	0.507
520.000	334.572	80.008	19.993	103.969	19.861	15.670	0.523
520.500	334.803	80.009	19.994	103.964	19.857	15.907	0.517
521.000	335.090	80.008	19.994	103.966	19.858	15.886	0.510
521.500	335.299	80.009	19.993	103.968	19.855	16.091	0.507
522.000	335.572	80.008	19.993	103.972	19.851	16.322	0.489
522.500	335.818	80.009	19.993	103.975	19.844	16.851	0.501
523.000	336.069	80.008	19.993	103.975	19.849	16.498	0.508
523.500	336.305	80.010	19.994	103.975	19.846	16.665	0.492
524.000	336.579	80.007	19.993	103.973	19.849	16.449	0.498
524.500	336.826	80.008	19.995	103.969	19.845	16.778	0.516
525.000	337.084	80.007	19.993	103.967	19.846	16.667	0.513
525.500	337.322	80.008	19.995	103.966	19.845	16.721	0.500
526.000	337.610	80.008	19.994	103.965	19.839	17.167	0.511
526.500	337.840	80.009	19.995	103.965	19.839	17.176	0.522
527.000	338.070	80.007	19.994	103.964	19.840	17.129	0.489
527.500	338.335	80.008	19.994	103.964	19.836	17.345	0.478
528.000	338.589	80.007	19.994	103.964	19.832	17.636	0.507
528.500	338.808	80.007	19.995	103.965	19.826	18.069	0.496
529.000	339.084	80.008	19.996	103.973	19.825	18.142	0.484
529.500	339.336	80.007	19.994	103.981	19.821	18.445	0.511
530.000	339.581	80.008	19.995	103.989	19.816	18.757	0.512
530.500	339.829	80.006	19.994	104.000	19.815	18.861	0.495
531.000	340.057	80.006	19.994	104.008	19.813	18.942	0.485
531.500	340.301	80.007	19.995	104.009	19.817	18.694	0.474
532.000	340.577	80.007	19.995	104.010	19.814	18.908	0.496
532.501	340.829	80.007	19.993	104.009	19.810	19.173	0.524
533.001	341.060	80.007	19.994	104.002	19.811	19.092	0.506
533.500	341.327	80.006	19.995	103.991	19.812	19.048	0.490
534.000	341.596	80.006	19.995	103.981	19.812	19.038	0.517
534.500	341.838	80.007	19.994	103.971	19.805	19.532	0.523
535.000	342.096	80.008	19.994	103.962	19.807	19.400	0.505
535.500	342.344	80.008	19.995	103.956	19.804	19.578	0.503
536.000	342.603	80.006	19.993	103.956	19.800	19.887	0.507
536.500	342.844	80.007	19.994	103.958	19.795	20.265	0.504
537.000	343.121	80.008	19.994	103.965	19.793	20.368	0.509
537.500	343.370	80.008	19.993	103.972	19.787	20.796	0.522
538.000	343.594	80.008	19.994	103.975	19.790	20.565	0.499
538.500	343.862	80.008	19.994	103.981	19.781	21.233	0.482
539.000	344.119	80.010	19.996	103.989	19.787	20.829	0.509
539.500	344.359	80.007	19.995	103.991	19.785	20.931	0.511
540.000	344.595	80.008	19.993	103.991	19.785	20.908	0.487
540.500	344.844	80.008	19.994	103.990	19.785	20.949	0.481
541.000	345.126	80.009	19.995	103.984	19.781	21.186	0.508
541.500	345.398	80.010	19.995	103.971	19.778	21.390	0.542
542.000	345.637	80.008	19.993	103.956	19.776	21.539	0.533
542.501	345.866	80.009	19.993	103.944	19.771	21.935	0.490
543.000	346.103	80.008	19.993	103.938	19.773	21.746	0.467
543.500	346.377	80.008	19.993	103.939	19.773	21.753	0.489
544.000	346.591	80.009	19.993	103.945	19.771	21.935	0.500
544.500	346.839	80.010	19.993	103.954	19.765	22.328	0.475
545.000	347.057	80.010	19.993	103.964	19.770	21.951	0.464
545.500	347.369	80.008	19.994	103.976	19.762	22.554	0.498
546.000	347.617	80.008	19.993	103.982	19.756	22.946	0.545
546.500	347.863	80.009	19.994	103.990	19.749	23.414	0.527
547.000	348.097	80.008	19.993	103.996	19.746	23.692	0.487
547.500	348.348	80.008	19.993	104.003	19.735	24.396	0.482
548.000	348.641	80.009	19.993	104.007	19.729	24.843	0.514
548.500	348.852	80.007	19.994	104.019	19.726	25.020	0.524
549.000	349.107	80.008	19.994	104.032	19.722	25.295	0.486
549.500	349.376	80.008	19.993	104.039	19.711	26.099	0.495
550.000	349.611	80.008	19.993	104.047	19.710	26.165	0.514
550.500	349.868	80.006	19.993	104.048	19.709	26.205	0.498
551.000	350.129	80.008	19.994	104.039	19.705	26.505	0.505
551.500	350.405	80.007	19.993	104.033	19.703	26.623	0.527
552.000	350.633	80.006	19.994	104.028	19.699	26.927	0.520
552.500	350.866	80.006	19.993	104.011	19.700	26.825	0.483
553.000	351.139	80.006	19.995	103.993	19.693	27.367	0.484
553.500	351.409	80.006	19.995	103.985	19.688	27.730	0.524
554.000	351.658	80.006	19.993	103.974	19.683	28.030	0.531
554.500	351.942	80.008	19.994	103.970	19.672	28.817	0.527
555.000	352.173	80.006	19.994	103.979	19.667	29.161	0.524
555.500	352.415	80.006	19.994	103.991	19.660	29.662	0.494
556.000	352.678	80.005	19.994	103.999	19.650	30.360	0.489
556.500	352.985	80.006	19.993	104.007	19.647	30.545	0.537
557.000	353.255	80.006	19.994	104.016	19.644	30.785	0.573
557.500	353.477	80.007	19.995	104.030	19.643	30.830	0.535
558.000	353.748	80.006	19.995	104.051	19.644	30.801	0.493
558.500	353.989	80.005	19.995	104.062	19.641	30.946	0.503
559.000	354.285	80.007	19.995	104.060	19.640	31.062	0.524
559.500	354.562	80.007	19.995	104.051	19.634	31.475	0.555
560.000	354.767	80.007	19.995	104.035	19.631	31.697	0.527
560.500	355.017	80.006	19.995	104.015	19.626	32.039	0.468
561.000	355.281	80.007	19.995	104.002	19.626	32.040	0.485
561.500	355.544	80.005	19.994	103.995	19.614	32.858	0.521
562.000	355.820	80.007	19.995	103.994	19.609	33.160	0.532
562.500	356.061	80.008	19.995	103.999	19.602	33.641	0.528
563.000	356.321	80.005	19.994	104.007	19.594	34.210	0.509
563.500	356.587	80.006	19.995	104.016	19.585	34.846	0.513
564.000	356.852	80.005	19.995	104.031	19.575	35.506	0.529
564.500	357.105	80.006	19.995	104.049	19.565	36.186	0.524
565.000	357.407	80.007	19.995	104.066	19.556	36.863	0.537
565.500	357.619	80.007	19.996	104.081	19.543	37.721	0.535
566.000	357.857	80.006	19.996	104.096	19.538	38.132	0.482
566.500	358.162	80.006	19.994	104.107	19.529	38.745	0.497
567.000	358.415	80.007	19.994	104.113	19.513	39.874	0.551
567.500	358.663	80.008	19.995	104.112	19.507	40.298	0.529
568.000	358.932	80.006	19.995	104.104	19.496	41.099	0.509
568.500	359.211	80.007	19.994	104.095	19.487	41.710	0.532
569.000	359.483	80.006	19.995	104.080	19.479	42.288	0.550
569.500	359.706	80.007	19.995	104.065	19.473	42.690	0.523
570.000	359.980	80.008	19.994	104.054	19.468	43.019	0.496
570.500	360.248	80.007	19.995	104.046	19.461	43.527	0.519
571.000	360.494	80.006	19.994	104.037	19.470	42.906	0.528
571.500	360.776	80.009	19.995	104.026	19.473	42.690	0.521
572.000	361.059	80.006	19.993	104.015	19.482	42.021	0.547
572.500	361.285	80.007	19.994	104.001	19.492	41.344	0.537
573.000	361.537	80.007	19.995	103.974	19.499	40.879	0.493
573.500	361.803	80.007	19.993	103.938	19.510	40.131	0.498
574.000	362.059	80.006	19.994	103.917	19.515	39.779	0.520
574.500	362.319	80.006	19.994	103.897	19.522	39.302	0.519
575.000	362.581	80.006	19.995	103.880	19.523	39.235	0.519
575.500	362.863	80.008	19.994	103.882	19.526	39.011	0.534
576.000	363.155	80.007	19.994	103.896	19.526	39.014	0.559
576.500	363.389	80.007	19.994	103.917	19.529	38.849	0.550
577.000	363.665	80.006	19.994	103.941	19.528	38.870	0.518
577.500	363.931	80.008	19.994	103.971	19.527	38.934	0.525
578.000	364.164	80.006	19.994	104.012	19.530	38.702	0.520
578.500	364.426	80.007	19.994	104.055	19.534	38.455	0.497
579.000	364.671	80.006	19.993	104.081	19.538	38.137	0.501
579.500	364.896	80.007	19.993	104.101	19.533	38.454	0.488
580.000	365.184	80.007	19.996	104.113	19.532	38.521	0.491
580.500	365.473	80.007	19.993	104.113	19.535	38.335	0.545
581.000	365.704	80.006	19.994	104.104	19.525	39.044	0.549
581.500	365.953	80.008	19.995	104.091	19.516	39.665	0.500
582.000	366.233	80.007	19.994	104.080	19.507	40.301	0.504
582.501	366.463	80.008	19.994	104.071	19.499	40.849	0.519
583.000	366.717	80.007	19.994	104.062	19.487	41.671	0.497
583.500	366.969	80.006	19.994	104.059	19.473	42.673	0.496
584.000	367.230	80.005	19.993	104.065	19.455	43.951	0.509
584.500	367.492	80.006	19.994	104.075	19.441	44.951	0.518
585.000	367.750	80.006	19.995	104.088	19.423	46.204	0.522
585.500	368.028	80.007	19.995	104.100	19.407	47.327	0.528
586.000	368.300	80.006	19.995	104.116	19.396	48.100	0.543
586.500	368.546	80.007	19.995	104.144	19.384	48.917	0.533
587.000	368.823	80.006	19.994	104.162	19.382	49.055	0.520
587.500	369.077	80.007	19.994	104.158	19.372	49.807	0.527
588.000	369.374	80.006	19.995	104.148	19.360	50.620	0.542
588.500	369.616	80.006	19.995	104.129	19.353	51.099	0.545
589.000	369.902	80.006	19.994	104.094	19.351	51.187	0.533
589.500	370.141	80.007	19.994	104.056	19.349	51.350	0.526
590.000	370.374	80.005	19.994	104.026	19.348	51.371	0.498
590.500	370.677	80.008	19.994	103.995	19.345	51.606	0.504
591.000	370.881	80.006	19.994	103.975	19.343	51.775	0.521
591.500	371.146	80.005	19.993	103.960	19.341	51.900	0.488
592.000	371.402	80.006	19.994	103.954	19.340	51.949	0.495
592.500	371.679	80.005	19.994	103.961	19.337	52.167	0.527
593.000	371.954	80.006	19.993	103.977	19.330	52.688	0.543
593.500	372.212	80.006	19.993	103.993	19.325	53.029	0.543
594.000	372.450	80.005	19.993	104.013	19.315	53.745	0.515
594.500	372.763	80.006	19.995	104.043	19.305	54.409	0.523
595.000	373.025	80.005	19.993	104.078	19.300	54.732	0.563
595.500	373.249	80.006	19.993	104.115	19.287	55.636	0.531
596.000	373.502	80.007	19.993	104.147	19.283	55.942	0.481
596.500	373.773	80.007	19.994	104.176	19.279	56.205	0.500
597.000	374.081	80.007	19.993	104.192	19.273	56.680	0.552
597.500	374.322	80.006	19.994	104.193	19.268	57.019	0.564
598.000	374.569	80.007	19.994	104.188	19.267	57.096	0.518
598.500	374.840	80.007	19.995	104.175	19.261	57.519	0.503
599.000	375.111	80.009	19.993	104.157	19.261	57.487	0.530
599.500	375.348	80.007	19.994	104.134	19.258	57.718	0.525
600.000	375.606	80.009	19.993	104.116	19.255	57.914	0.502
600.501	375.854	80.008	19.994	104.099	19.245	58.673	0.501
601.000	376.155	80.009	19.994	104.088	19.244	58.754	0.528
601.500	376.402	80.008	19.994	104.081	19.236	59.305	0.548
602.000	376.611	80.008	19.994	104.081	19.231	59.635	0.502
602.500	376.893	80.009	19.994	104.080	19.224	60.119	0.474
603.000	377.163	80.007	19.993	104.082	19.220	60.402	0.521
603.500	377.397	80.009	19.994	104.085	19.219	60.482	0.528
604.000	377.648	80.007	19.993	104.092	19.211	61.005	0.495
604.500	377.926	80.008	19.994	104.098	19.210	61.046	0.507
605.000	378.202	80.007	19.993	104.101	19.206	61.363	0.542
605.500	378.392	80.007	19.994	104.107	19.202	61.605	0.510
606.000	378.690	80.008	19.994	104.113	19.200	61.724	0.477
606.500	378.946	80.008	19.993	104.114	19.188	62.619	0.521
607.000	379.169	80.006	19.994	104.117	19.186	62.750	0.516
607.500	379.459	80.008	19.993	104.121	19.178	63.304	0.495
608.000	379.720	80.007	19.994	104.124	19.174	63.583	0.532
608.500	379.958	80.008	19.993	104.125	19.160	64.551	0.525
609.000	380.201	80.008	19.993	104.131	19.151	65.181	0.490
609.500	380.464	80.007	19.993	104.138	19.135	66.266	0.493
610.000	380.684	80.007	19.993	104.150	19.118	67.510	0.495
610.500	380.954	80.007	19.992	104.164	19.105	68.365	0.487
611.000	381.195	80.007	19.994	104.181	19.090	69.419	0.500
611.500	381.458	80.008	19.993	104.196	19.080	70.108	0.508
612.000	381.706	80.007	19.993	104.211	19.068	70.980	0.508
612.500	381.956	80.008	19.993	104.228	19.058	71.665	0.505
613.000	382.195	80.007	19.992	104.236	19.049	72.362	0.494
613.500	382.463	80.006	19.994	104.231	19.037	73.194	0.498
614.001	382.712	80.006	19.993	104.217	19.029	73.744	0.511
614.500	382.964	80.008	19.993	104.202	19.016	74.650	0.509
615.000	383.217	80.007	19.994	104.181	19.008	75.268	0.503
615.500	383.478	80.007	19.993	104.160	18.998	75.962	0.509
616.000	383.766	80.005	19.993	104.149	18.989	76.580	0.532
616.500	383.980	80.008	19.992	104.142	18.978	77.307	0.526
617.000	384.240	80.007	19.992	104.142	18.968	78.011	0.488
617.500	384.492	80.007	19.993	104.142	18.959	78.600	0.493
618.000	384.760	80.007	19.993	104.148	18.953	79.028	0.516
618.500	384.979	80.008	19.993	104.155	18.949	79.299	0.503
619.000	385.258	80.007	19.994	104.162	18.945	79.584	0.492
619.500	385.501	80.008	19.994	104.162	18.937	80.133	0.510
620.000	385.745	80.008	19.993	104.162	18.929	80.705	0.505
620.500	386.008	80.007	19.992	104.162	18.924	81.040	0.498
621.000	386.262	80.007	19.993	104.168	18.921	81.285	0.512
621.500	386.477	80.007	19.993	104.168	18.905	82.370	0.492
622.000	386.730	80.008	19.994	104.168	18.896	83.052	0.469
622.500	387.009	80.008	19.993	104.176	18.875	84.522	0.500
623.000	387.249	80.008	19.994	104.193	18.863	85.368	0.525
623.500	387.537	80.007	19.994	104.207	18.852	86.133	0.523
624.000	387.780	80.008	19.993	104.230	18.837	87.206	0.529
624.500	388.007	80.008	19.993	104.260	18.825	88.025	0.500
625.000	388.279	80.009	19.993	104.277	18.814	88.794	0.485
625.500	388.535	80.008	19.994	104.282	18.801	89.708	0.514
626.000	388.765	80.007	19.994	104.286	18.789	90.503	0.507
626.500	389.067	80.010	19.994	104.285	18.780	91.166	0.509
627.000	389.284	80.008	19.994	104.276	18.770	91.887	0.526
627.500	389.561	80.010	19.994	104.266	18.762	92.465	0.506
628.000	389.805	80.009	19.993	104.258	18.751	93.273	0.507
628.500	390.105	80.009	19.994	104.246	18.740	94.037	0.533
629.000	390.322	80.009	19.993	104.238	18.725	95.106	0.531
629.500	390.581	80.010	19.994	104.227	18.719	95.537	0.496
630.000	390.822	80.009	19.994	104.222	18.702	96.722	0.488
630.500	391.081	80.010	19.993	104.214	18.688	97.710	0.500
631.000	391.331	80.010	19.994	104.212	18.677	98.459	0.505
631.500	391.584	80.008	19.993	104.213	18.663	99.381	0.506
632.000	391.824	80.008	19.995	104.218	18.648	100.413	0.498
632.500	392.089	80.010	19.995	104.229	18.640	100.999	0.499
633.000	392.351	80.008	19.994	104.256	18.633	101.453	0.516
633.500	392.647	80.009	19.993	104.281	18.626	101.953	0.543
634.000	392.871	80.008	19.993	104.293	18.616	102.625	0.539
634.500	393.099	80.007	19.994	104.301	18.604	103.464	0.486
635.000	393.387	80.007	19.994	104.306	18.592	104.263	0.484
635.500	393.682	80.008	19.993	104.302	18.581	105.095	0.549
636.000	393.898	80.007	19.993	104.293	18.560	106.548	0.547
636.500	394.171	80.007	19.993	104.290	18.542	107.827	0.500
637.000	394.391	80.008	19.995	104.292	18.518	109.478	0.491
637.500	394.650	80.007	19.993	104.294	18.495	111.091	0.486
638.000	394.912	80.007	19.994	104.301	18.478	112.309	0.500
638.500	395.167	80.006	19.993	104.320	18.453	114.044	0.519
639.000	395.443	80.007	19.994	104.349	18.434	115.373	0.524
639.500	395.657	80.008	19.994	104.380	18.416	116.644	0.511
640.000	395.920	80.006	19.994	104.410	18.401	117.717	0.484
640.500	396.153	80.007	19.995	104.422	18.390	118.519	0.487
641.000	396.411	80.007	19.994	104.418	18.373	119.691	0.494
641.500	396.636	80.007	19.994	104.405	18.362	120.494	0.487
642.000	396.912	80.006	19.994	104.387	18.349	121.372	0.492
642.500	397.161	80.007	19.993	104.367	18.345	121.664	0.513
643.001	397.379	80.006	19.993	104.357	18.333	122.466	0.496
643.500	397.663	80.006	19.994	104.347	18.326	123.003	0.484
644.000	397.914	80.005	19.992	104.332	18.319	123.496	0.518
644.500	398.124	80.007	19.996	104.315	18.307	124.313	0.498
645.000	398.417	80.007	19.995	104.303	18.302	124.686	0.482
645.500	398.687	80.006	19.995	104.294	18.293	125.263	0.533
646.000	398.925	80.005	19.995	104.294	18.294	125.226	0.535
646.500	399.177	80.007	19.994	104.299	18.280	126.166	0.499
647.000	399.428	80.006	19.995	104.308	18.278	126.311	0.496
647.500	399.679	80.007	19.995	104.311	18.276	126.476	0.502
648.000	399.958	80.007	19.995	104.314	18.265	127.214	0.516
648.500	400.201	80.006	19.993	104.314	18.264	127.326	0.526
649.000	400.408	80.006	19.994	104.323	18.260	127.612	0.486
649.500	400.673	80.007	19.993	104.338	18.253	128.095	0.461
650.000	400.926	80.007	19.994	104.352	18.251	128.253	0.495
650.500	401.208	80.007	19.995	104.364	18.243	128.815	0.526
651.000	401.428	80.007	19.994	104.377	18.237	129.228	0.518
651.500	401.696	80.007	19.995	104.383	18.230	129.714	0.495
652.000	401.972	80.007	19.994	104.383	18.229	129.746	0.516
652.500	402.169	80.006	19.994	104.384	18.223	130.163	0.509
653.000	402.422	80.006	19.995	104.386	18.219	130.425	0.462
653.500	402.676	80.006	19.994	104.388	18.216	130.701	0.479
654.000	402.942	80.008	19.994	104.390	18.205	131.454	0.514
654.500	403.201	80.006	19.995	104.392	18.200	131.803	0.522
655.000	403.462	80.006	19.994	104.395	18.196	132.100	0.522
655.500	403.703	80.007	19.994	104.394	18.190	132.520	0.511
656.000	403.968	80.005	19.994	104.395	18.183	132.969	0.504
656.500	404.213	80.007	19.995	104.395	18.176	133.486	0.508
657.000	404.440	80.007	19.995	104.394	18.168	134.047	0.491
657.500	404.697	80.007	19.995	104.391	18.158	134.704	0.478
658.000	404.963	80.007	19.995	104.391	18.153	135.073	0.504
658.500	405.202	80.006	19.995	104.391	18.150	135.277	0.514
659.000	405.471	80.007	19.996	104.390	18.143	135.717	0.506
659.501	405.706	80.006	19.995	104.391	18.134	136.359	0.506
660.001	405.982	80.007	19.995	104.397	18.125	136.995	0.507
660.500	406.216	80.006	19.994	104.405	18.116	137.669	0.510
661.000	406.452	80.006	19.995	104.413	18.115	137.731	0.490
661.500	406.707	80.005	19.994	104.417	18.107	138.260	0.481
662.000	406.994	80.006	19.995	104.418	18.098	138.914	0.517
662.500	407.259	80.005	19.993	104.408	18.097	138.955	0.547
663.000	407.465	80.006	19.996	104.392	18.089	139.548	0.512
663.500	407.744	80.004	19.994	104.380	18.081	140.094	0.478
664.000	407.974	80.004	19.995	104.379	18.079	140.216	0.497
664.500	408.250	80.005	19.995	104.388	18.068	140.997	0.508
665.000	408.498	80.006	19.995	104.394	18.068	141.004	0.515
665.500	408.766	80.004	19.994	104.402	18.064	141.293	0.520
666.000	408.982	80.007	19.996	104.406	18.055	141.914	0.500
666.500	409.265	80.004	19.994	104.400	18.053	142.049	0.492
667.000	409.517	80.005	19.995	104.392	18.044	142.661	0.517
667.500	409.786	80.007	19.995	104.389	18.041	142.894	0.528
668.000	409.996	80.007	19.995	104.386	18.034	143.369	0.500
668.500	410.256	80.006	19.995	104.375	18.035	143.293	0.475
669.000	410.535	80.006	19.995	104.370	18.026	143.907	0.504
669.500	410.760	80.006	19.993	104.368	18.029	143.706	0.522
670.000	411.031	80.006	19.993	104.368	18.022	144.175	0.500
670.500	411.275	80.007	19.993	104.371	18.013	144.796	0.505
671.000	411.522	80.006	19.995	104.383	18.012	144.888	0.503
671.500	411.784	80.006	19.994	104.388	18.013	144.782	0.500
672.000	412.047	80.005	19.994	104.382	18.014	144.688	0.517
672.500	412.267	80.005	19.993	104.376	18.007	145.185	0.504
673.000	412.516	80.006	19.994	104.373	18.008	145.102	0.476
673.500	412.756	80.006	19.993	104.372	18.010	144.970	0.480
674.000	413.042	80.006	19.994	104.376	18.015	144.645	0.508
674.500	413.301	80.006	19.994	104.384	18.011	144.926	0.535
675.000	413.491	80.006	19.995	104.391	18.009	145.057	0.497
675.500	413.757	80.006	19.994	104.392	18.012	144.802	0.453
676.000	413.986	80.005	19.993	104.392	18.016	144.577	0.475
676.500	414.274	80.006	19.994	104.390	18.020	144.257	0.506
677.000	414.483	80.005	19.993	104.386	18.021	144.214	0.507
677.500	414.728	80.008	19.994	104.379	18.031	143.497	0.475
678.000	414.985	80.008	19.994	104.373	18.028	143.674	0.478
678.500	415.227	80.006	19.994	104.366	18.033	143.323	0.501
679.000	415.442	80.008	19.995	104.359	18.037	143.024	0.478
679.500	415.712	80.008	19.995	104.355	18.038	142.924	0.471
680.000	415.994	80.007	19.993	104.354	18.044	142.502	0.519
680.500	416.229	80.007	19.995	104.353	18.055	141.729	0.534
681.000	416.484	80.007	19.993	104.353	18.062	141.205	0.503
681.500	416.682	80.008	19.994	104.355	18.068	140.779	0.472
682.000	416.957	80.009	19.994	104.349	18.081	139.904	0.463
682.500	417.193	80.009	19.995	104.343	18.091	139.211	0.492
683.000	417.471	80.009	19.994	104.337	18.099	138.670	0.512
683.500	417.745	80.007	19.994	104.330	18.108	138.032	0.533
684.000	418.017	80.008	19.993	104.324	18.109	137.941	0.549
684.500	418.211	80.007	19.993	104.323	18.126	136.691	0.506
685.000	418.473	80.008	19.993	104.325	18.144	135.427	0.461
685.500	418.748	80.008	19.993	104.324	18.151	134.989	0.496
686.000	418.974	80.008	19.993	104.321	18.161	134.253	0.519
686.500	419.247	80.008	19.993	104.319	18.178	133.095	0.500
687.000	419.467	80.008	19.994	104.317	18.191	132.183	0.496
687.500	419.724	80.008	19.994	104.310	18.198	131.688	0.485
688.000	420.018	80.009	19.994	104.305	18.221	130.073	0.514
688.500	420.191	80.009	19.994	104.303	18.233	129.186	0.509
689.000	420.488	80.007	19.993	104.296	18.247	128.232	0.469
689.500	420.710	80.009	19.995	104.289	18.264	127.042	0.495
690.000	421.000	80.009	19.994	104.283	18.272	126.474	0.515
690.500	421.301	80.010	19.994	104.273	18.293	124.993	0.551
691.000	421.538	80.009	19.993	104.260	18.307	123.993	0.564
691.500	421.765	80.009	19.995	104.250	18.320	123.093	0.501
692.000	422.029	80.009	19.994	104.244	18.340	121.712	0.478
692.500	422.246	80.008	19.994	104.238	18.358	120.452	0.486
693.000	422.510	80.008	19.994	104.236	18.380	118.917	0.481
693.500	422.780	80.008	19.994	104.235	18.401	117.447	0.508
694.000	423.011	80.009	19.994	104.232	18.413	116.641	0.518
694.500	423.266	80.007	19.992	104.222	18.430	115.435	0.494
695.000	423.541	80.008	19.995	104.215	18.458	113.434	0.508
695.500	423.762	80.008	19.995	104.209	18.472	112.487	0.513
696.000	424.028	80.008	19.994	104.202	18.487	111.384	0.492
696.500	424.295	80.008	19.994	104.198	18.514	109.486	0.510
697.000	424.557	80.008	19.994	104.197	18.529	108.488	0.531
697.500	424.807	80.008	19.995	104.198	18.553	106.810	0.521
698.000	425.037	80.007	19.994	104.196	18.572	105.509	0.496
698.500	425.290	80.008	19.993	104.189	18.593	104.041	0.481
699.000	425.604	80.007	19.994	104.181	18.615	102.473	0.525
699.500	425.780	80.008	19.996	104.173	18.629	101.463	0.529
700.000	426.028	80.009	19.995	104.166	18.645	100.379	0.457
700.500	426.322	80.009	19.996	104.159	18.674	98.352	0.483
701.000	426.564	80.008	19.994	104.159	18.686	97.471	0.539
701.500	426.812	80.008	19.994	104.153	18.713	95.618	0.513
702.000	427.054	80.009	19.994	104.147	18.731	94.361	0.490
702.500	427.307	80.009	19.994	104.146	18.760	92.328	0.493
703.000	427.554	80.008	19.994	104.144	18.776	91.206	0.498
703.500	427.815	80.009	19.994	104.142	18.795	89.900	0.504
704.000	428.117	80.007	19.993	104.146	18.816	88.413	0.535
704.500	428.309	80.009	19.995	104.146	18.835	87.086	0.528
705.000	428.547	80.010	19.994	104.139	18.861	85.314	0.462
705.500	428.809	80.008	19.993	104.129	18.876	84.234	0.465
706.000	429.091	80.010	19.994	104.114	18.902	82.397	0.522
706.500	429.278	80.009	19.994	104.101	18.922	81.026	0.507
707.000	429.579	80.008	19.994	104.091	18.952	78.947	0.479
707.500	429.865	80.007	19.992	104.084	18.964	78.079	0.538
708.000	430.099	80.008	19.993	104.079	18.981	76.881	0.554
708.500	430.388	80.009	19.993	104.080	19.006	75.152	0.522
709.000	430.610	80.009	19.995	104.079	19.024	73.916	0.517
709.500	430.883	80.009	19.992	104.078	19.040	72.833	0.502
710.000	431.180	80.008	19.992	104.075	19.060	71.399	0.532
710.500	431.403	80.009	19.993	104.068	19.075	70.393	0.546
711.000	431.719	80.010	19.992	104.060	19.099	68.706	0.530
711.500	431.913	80.010	19.993	104.053	19.119	67.302	0.524
712.000	432.162	80.010	19.994	104.046	19.133	66.287	0.476
712.500	432.391	80.009	19.993	104.042	19.150	65.098	0.461
713.000	432.680	80.011	19.992	104.038	19.169	63.837	0.498
713.500	432.941	80.008	19.992	104.036	19.192	62.202	0.534
714.000	433.227	80.008	19.993	104.034	19.205	61.314	0.549
714.500	433.453	80.010	19.993	104.029	19.228	59.707	0.530
715.000	433.687	80.009	19.994	104.020	19.245	58.537	0.486
715.500	433.968	80.009	19.993	104.014	19.261	57.386	0.487
716.000	434.290	80.009	19.992	104.011	19.276	56.353	0.559
716.500	434.582	80.008	19.994	104.006	19.288	55.496	0.608
717.000	434.762	80.009	19.994	104.004	19.306	54.222	0.543
717.500	435.037	80.008	19.992	104.004	19.318	53.439	0.464
718.000	435.288	80.008	19.993	104.004	19.336	52.151	0.490
718.500	435.547	80.007	19.993	104.002	19.351	51.153	0.517
719.000	435.828	80.007	19.993	104.000	19.357	50.690	0.525
719.500	436.108	80.006	19.992	104.000	19.374	49.543	0.551
720.000	436.320	80.007	19.993	103.999	19.388	48.518	0.527
720.500	436.623	80.006	19.994	103.997	19.400	47.717	0.503
721.000	436.875	80.007	19.995	103.994	19.409	47.079	0.534
721.500	437.110	80.007	19.994	103.989	19.425	45.954	0.521
722.000	437.381	80.007	19.994	103.982	19.432	45.495	0.497
722.500	437.700	80.007	19.994	103.979	19.444	44.675	0.548
723.000	437.898	80.007	19.995	103.974	19.452	44.095	0.554
723.500	438.169	80.006	19.994	103.969	19.461	43.450	0.493
724.000	438.436	80.007	19.993	103.967	19.474	42.567	0.503
724.500	438.701	80.007	19.994	103.966	19.487	41.649	0.535
725.000	438.959	80.006	19.995	103.962	19.496	41.048	0.528
725.500	439.202	80.005	19.995	103.961	19.507	40.250	0.512
726.000	439.471	80.005	19.994	103.962	19.519	39.436	0.506
726.500	439.777	80.005	19.994	103.959	19.527	38.856	0.544
727.000	439.989	80.005	19.993	103.953	19.535	38.313	0.546
727.500	440.286	80.005	19.995	103.949	19.544	37.647	0.513
728.000	440.541	80.005	19.992	103.944	19.554	37.007	0.530
728.500	440.796	80.006	19.996	103.941	19.563	36.373	0.531
729.000	441.054	80.007	19.995	103.938	19.570	35.874	0.512
729.500	441.348	80.006	19.994	103.938	19.579	35.247	0.533
730.000	441.597	80.007	19.995	103.935	19.586	34.759	0.547
730.500	441.861	80.005	19.994	103.933	19.594	34.183	0.528
731.000	442.082	80.007	19.995	103.928	19.594	34.173	0.499
731.500	442.360	80.006	19.993	103.927	19.611	33.024	0.492
732.000	442.568	80.007	19.994	103.926	19.614	32.812	0.493
732.500	442.884	80.007	19.994	103.926	19.619	32.480	0.505
733.000	443.117	80.007	19.993	103.926	19.627	31.879	0.536
733.500	443.373	80.006	19.995	103.926	19.628	31.851	0.519
734.000	443.610	80.007	19.996	103.925	19.634	31.402	0.491
734.500	443.892	80.007	19.995	103.925	19.638	31.157	0.506
735.000	444.167	80.006	19.995	103.924	19.652	30.186	0.538
735.500	444.398	80.007	19.995	103.923	19.644	30.709	0.531
736.000	444.669	80.007	19.993	103.923	19.649	30.396	0.504
736.500	444.960	80.006	19.994	103.920	19.656	29.919	0.532
737.000	445.196	80.006	19.993	103.915	19.657	29.792	0.544
737.500	445.440	80.006	19.993	103.910	19.662	29.467	0.504
738.000	445.689	80.007	19.993	103.909	19.674	28.601	0.486
738.500	445.964	80.006	19.996	103.909	19.677	28.442	0.508
739.000	446.234	80.007	19.994	103.912	19.679	28.311	0.535
739.500	446.483	80.006	19.994	103.916	19.688	27.661	0.532
740.000	446.714	80.007	19.995	103.918	19.689	27.576	0.500
740.501	447.007	80.008	19.995	103.913	19.691	27.429	0.502
741.000	447.289	80.007	19.994	103.907	19.694	27.269	0.549
741.500	447.522	80.008	19.995	103.905	19.695	27.166	0.545
742.000	447.811	80.008	19.994	103.900	19.701	26.751	0.518
742.500	448.082	80.007	19.993	103.900	19.703	26.584	0.541
743.000	448.326	80.006	19.994	103.904	19.708	26.269	0.537
743.500	448.619	80.006	19.995	103.906	19.708	26.269	0.526
744.000	448.861	80.005	19.994	103.905	19.714	25.852	0.536
744.500	449.077	80.007	19.995	103.906	19.715	25.796	0.496
745.000	449.389	80.007	19.993	103.901	19.716	25.706	0.493
745.500	449.615	80.007	19.993	103.898	19.721	25.340	0.533
746.000	449.893	80.007	19.995	103.897	19.719	25.526	0.521
746.500	450.155	80.006	19.994	103.895	19.720	25.411	0.522
747.000	450.395	80.006	19.994	103.894	19.727	24.972	0.521
747.500	450.673	80.007	19.994	103.895	19.729	24.825	0.510
748.000	450.916	80.008	19.995	103.894	19.726	25.018	0.520
748.500	451.153	80.006	19.994	103.891	19.734	24.457	0.501
749.000	451.402	80.006	19.994	103.891	19.731	24.651	0.483
749.500	451.670	80.005	19.993	103.890	19.735	24.414	0.502
750.000	451.885	80.006	19.994	103.889	19.733	24.565	0.500
750.500	452.204	80.004	19.994	103.891	19.736	24.334	0.509
751.000	452.401	80.005	19.994	103.891	19.741	23.956	0.525
751.500	452.691	80.005	19.993	103.892	19.734	24.428	0.501
752.000	452.972	80.006	19.995	103.892	19.742	23.933	0.529
752.500	453.181	80.005	19.995	103.893	19.746	23.590	0.531
753.000	453.464	80.005	19.995	103.892	19.745	23.710	0.491
753.500	453.704	80.006	19.996	103.891	19.746	23.619	0.507
754.000	453.955	80.007	19.995	103.890	19.751	23.266	0.507
754.500	454.242	80.005	19.994	103.889	19.747	23.565	0.515
755.000	454.469	80.005	19.996	103.888	19.756	22.933	0.526
755.500	454.776	80.004	19.994	103.888	19.754	23.043	0.524
756.000	455.008	80.006	19.995	103.889	19.754	23.080	0.537
756.500	455.283	80.007	19.995	103.888	19.753	23.130	0.523
757.000	455.524	80.006	19.995	103.890	19.754	23.030	0.512
757.500	455.798	80.006	19.994	103.897	19.759	22.728	0.515
758.000	456.035	80.007	19.996	103.900	19.757	22.821	0.513
758.500	456.286	80.006	19.995	103.903	19.760	22.634	0.500
759.001	456.548	80.004	19.994	103.907	19.754	23.028	0.501
759.500	456.798	80.007	19.996	103.905	19.757	22.867	0.512
760.000	457.045	80.006	19.995	103.899	19.759	22.690	0.504
760.500	457.316	80.005	19.995	103.903	19.761	22.563	0.508
761.000	457.563	80.005	19.994	103.906	19.759	22.722	0.518
761.500	457.799	80.005	19.996	103.906	19.759	22.716	0.500
762.000	458.029	80.008	19.995	103.907	19.763	22.459	0.475
762.500	458.298	80.006	19.996	103.905	19.761	22.574	0.482
763.000	458.565	80.007	19.995	103.897	19.754	23.058	0.517
763.500	458.828	80.006	19.994	103.890	19.755	22.967	0.533
764.000	459.093	80.006	19.993	103.886	19.759	22.733	0.529
764.500	459.325	80.006	19.994	103.882	19.755	22.979	0.513
765.000	459.576	80.005	19.995	103.881	19.757	22.810	0.490
765.500	459.826	80.007	19.995	103.882	19.766	22.253	0.492
766.000	460.094	80.009	19.996	103.878	19.759	22.745	0.510
766.500	460.343	80.008	19.994	103.874	19.757	22.865	0.517
767.001	460.541	80.008	19.995	103.875	19.762	22.530	0.482
767.500	460.850	80.010	19.994	103.876	19.758	22.818	0.477
768.000	461.126	80.007	19.995	103.866	19.763	22.480	0.547
768.500	461.388	80.008	19.993	103.844	19.759	22.692	0.562
769.000	461.625	80.008	19.993	103.833	19.757	22.882	0.519
769.500	461.861	80.007	19.994	103.829	19.759	22.689	0.486
770.000	462.138	80.010	19.994	103.829	19.760	22.628	0.493
770.500	462.394	80.009	19.994	103.840	19.760	22.609	0.523
771.000	462.626	80.008	19.993	103.882	19.759	22.730	0.511
771.500	462.854	80.009	19.994	103.918	19.757	22.845	0.474
772.000	463.109	80.008	19.994	103.922	19.759	22.681	0.472
772.500	463.370	80.010	19.994	103.921	19.763	22.443	0.499
773.000	463.607	80.008	19.993	103.921	19.756	22.943	0.507
773.500	463.872	80.008	19.993	103.903	19.758	22.782	0.500
774.000	464.151	80.008	19.993	103.855	19.755	22.984	0.523
774.500	464.333	80.007	19.993	103.834	19.755	22.971	0.502
775.000	464.621	80.007	19.992	103.824	19.758	22.760	0.465
775.500	464.841	80.007	19.993	103.819	19.761	22.543	0.489
776.000	465.108	80.009	19.994	103.824	19.757	22.839	0.497
776.500	465.358	80.008	19.993	103.857	19.764	22.374	0.502
777.001	465.574	80.008	19.994	103.914	19.759	22.717	0.492
777.501	465.830	80.007	19.994	103.944	19.758	22.759	0.469
778.001	466.074	80.007	19.995	103.957	19.763	22.410	0.486
778.500	466.379	80.006	19.994	103.959	19.753	23.146	0.524
779.000	466.614	80.009	19.994	103.956	19.755	22.998	0.544
779.500	466.838	80.009	19.994	103.919	19.756	22.936	0.500
780.000	467.112	80.006	19.994	103.899	19.762	22.523	0.479
780.500	467.383	80.007	19.994	103.884	19.757	22.843	0.521
781.000	467.624	80.007	19.995	103.872	19.756	22.924	0.529
781.500	467.861	80.008	19.994	103.865	19.752	23.190	0.495
782.000	468.109	80.007	19.994	103.864	19.749	23.388	0.481
782.500	468.401	80.007	19.994	103.863	19.753	23.121	0.512
783.000	468.625	80.007	19.993	103.870	19.754	23.029	0.529
783.500	468.924	80.007	19.993	103.878	19.750	23.340	0.520
784.000	469.103	80.008	19.994	103.881	19.755	23.021	0.500
784.500	469.372	80.008	19.994	103.881	19.757	22.861	0.463
785.000	469.633	80.007	19.994	103.882	19.746	23.641	0.489
785.500	469.860	80.007	19.993	103.879	19.750	23.370	0.509
786.000	470.134	80.008	19.993	103.869	19.750	23.361	0.494
786.500	470.436	80.007	19.994	103.867	19.741	23.953	0.538
787.000	470.671	80.007	19.993	103.869	19.743	23.800	0.557
787.500	470.889	80.007	19.994	103.868	19.747	23.527	0.495
788.000	471.164	80.008	19.993	103.865	19.747	23.558	0.473
788.500	471.406	80.007	19.993	103.871	19.743	23.794	0.505
789.000	471.705	80.007	19.993	103.875	19.746	23.605	0.529
789.500	471.953	80.008	19.994	103.870	19.744	23.729	0.544
790.000	472.182	80.007	19.993	103.868	19.742	23.921	0.512
790.500	472.433	80.009	19.995	103.874	19.744	23.767	0.478
791.000	472.680	80.008	19.993	103.872	19.747	23.579	0.489
791.500	472.926	80.009	19.994	103.864	19.740	24.030	0.496
792.000	473.205	80.010	19.994	103.862	19.742	23.930	0.509
792.500	473.458	80.008	19.993	103.863	19.746	23.622	0.529
793.000	473.751	80.008	19.993	103.856	19.746	23.628	0.540
793.500	473.947	80.009	19.994	103.855	19.738	24.148	0.518
794.000	474.245	80.009	19.994	103.853	19.737	24.220	0.492
794.500	474.503	80.010	19.995	103.854	19.740	24.030	0.525
795.000	474.791	80.010	19.994	103.850	19.743	23.820	0.551
795.500	474.971	80.010	19.994	103.850	19.741	23.987	0.506
796.000	475.230	80.010	19.994	103.854	19.746	23.650	0.453
796.500	475.489	80.006	19.994	103.860	19.743	23.852	0.479
797.000	475.768	80.010	19.993	103.863	19.742	23.877	0.528
797.500	475.995	80.009	19.993	103.866	19.739	24.067	0.521
798.000	476.262	80.009	19.993	103.869	19.742	23.886	0.500
798.501	476.501	80.008	19.994	103.865	19.745	23.691	0.501
799.000	476.763	80.010	19.993	103.859	19.744	23.743	0.503
799.500	477.007	80.007	19.993	103.860	19.741	23.938	0.503
800.000	477.246	80.009	19.992	103.864	19.745	23.684	0.494
800.500	477.535	80.007	19.993	103.862	19.743	23.833	0.506
801.000	477.771	80.010	19.993	103.861	19.743	23.780	0.527
801.500	478.019	80.009	19.994	103.869	19.745	23.691	0.505
802.000	478.262	80.008	19.994	103.876	19.737	24.217	0.488
802.500	478.511	80.007	19.993	103.876	19.743	23.786	0.492
803.000	478.765	80.007	19.994	103.875	19.745	23.697	0.497
803.500	479.004	80.008	19.993	103.872	19.747	23.524	0.498
804.000	479.248	80.005	19.994	103.862	19.742	23.911	0.488
804.500	479.506	80.004	19.992	103.857	19.739	24.096	0.493
805.000	479.750	80.006	19.994	103.851	19.745	23.732	0.502
805.500	479.997	80.005	19.993	103.853	19.740	24.035	0.496
806.000	480.256	80.006	19.993	103.862	19.743	23.811	0.499
806.500	480.528	80.007	19.994	103.865	19.739	24.120	0.518
807.000	480.754	80.006	19.995	103.859	19.747	23.533	0.515
807.500	481.035	80.005	19.992	103.855	19.746	23.628	0.503
808.001	481.267	80.008	19.992	103.852	19.749	23.438	0.510
808.500	481.504	80.005	19.993	103.853	19.743	23.816	0.491
809.000	481.771	80.008	19.992	103.859	19.745	23.715	0.487
809.500	481.994	80.006	19.994	103.864	19.745	23.664	0.497
810.000	482.286	80.005	19.994	103.874	19.747	23.551	0.502
810.500	482.541	80.005	19.993	103.879	19.742	23.858	0.531
811.000	482.821	80.007	19.993	103.867	19.750	23.320	0.541
811.500	483.018	80.006	19.994	103.847	19.750	23.330	0.506
812.000	483.287	80.009	19.992	103.806	19.746	23.611	0.471
812.500	483.527	80.005	19.994	103.777	19.754	23.090	0.488
813.000	483.775	80.006	19.994	103.771	19.750	23.347	0.498
813.500	484.024	80.005	19.993	103.775	19.747	23.528	0.493
814.000	484.292	80.004	19.992	103.788	19.753	23.130	0.508
814.500	484.538	80.006	19.994	103.827	19.756	22.906	0.516
815.001	484.767	80.007	19.994	103.876	19.758	22.814	0.494
815.500	485.010	80.007	19.994	103.913	19.760	22.614	0.473
816.000	485.308	80.007	19.993	103.922	19.759	22.731	0.506
816.500	485.540	80.006	19.992	103.932	19.761	22.579	0.535
817.000	485.786	80.007	19.993	103.935	19.758	22.781	0.504
817.500	486.050	80.006	19.994	103.909	19.763	22.453	0.494
818.000	486.307	80.006	19.994	103.876	19.761	22.592	0.516
818.500	486.542	80.004	19.992	103.864	19.757	22.834	0.506
819.000	486.779	80.006	19.995	103.854	19.762	22.529	0.481
819.500	487.030	80.008	19.993	103.846	19.765	22.278	0.480
820.001	487.287	80.005	19.994	103.843	19.760	22.612	0.499
820.501	487.563	80.006	19.994	103.835	19.766	22.220	0.521
821.000	487.775	80.006	19.994	103.829	19.766	22.255	0.510
821.500	488.019	80.003	19.995	103.823	19.769	22.023	0.472
822.000	488.283	80.007	19.995	103.824	19.769	21.986	0.482
822.500	488.560	80.007	19.994	103.828	19.767	22.135	0.524
823.000	488.808	80.009	19.995	103.840	19.767	22.176	0.533
823.500	489.064	80.006	19.995	103.852	19.775	21.570	0.515
824.000	489.333	80.007	19.993	103.859	19.779	21.351	0.514
824.500	489.535	80.008	19.995	103.862	19.777	21.444	0.498
825.000	489.828	80.008	19.996	103.867	19.780	21.285	0.483
825.500	490.069	80.007	19.996	103.868	19.777	21.467	0.515
826.000	490.336	80.005	19.995	103.871	19.779	21.342	0.521
826.500	490.551	80.005	19.995	103.879	19.777	21.443	0.495
827.000	490.839	80.008	19.995	103.884	19.781	21.173	0.492
827.500	491.104	80.007	19.994	103.884	19.783	21.054	0.528
828.000	491.345	80.006	19.996	103.884	19.785	20.909	0.530
828.500	491.578	80.007	19.996	103.880	19.785	20.916	0.490
829.000	491.870	80.007	19.996	103.872	19.789	20.590	0.499
829.500	492.099	80.006	19.996	103.866	19.790	20.570	0.523
830.000	492.374	80.007	19.993	103.858	19.790	20.523	0.513
830.500	492.631	80.006	19.994	103.850	19.794	20.308	0.518
831.000	492.856	80.007	19.995	103.848	19.795	20.220	0.507
831.500	493.137	80.006	19.996	103.848	19.797	20.072	0.494
832.000	493.351	80.006	19.995	103.848	19.790	20.569	0.500
832.500	493.614	80.006	19.994	103.848	19.795	20.210	0.485
833.000	493.900	80.007	19.994	103.847	19.797	20.091	0.512
833.500	494.168	80.007	19.994	103.842	19.799	19.937	0.551
834.000	494.393	80.006	19.994	103.840	19.797	20.083	0.524
834.500	494.668	80.006	19.995	103.840	19.801	19.803	0.497
835.000	494.937	80.007	19.993	103.845	19.806	19.430	0.522
835.500	495.192	80.006	19.995	103.850	19.809	19.213	0.534
836.000	495.438	80.007	19.994	103.855	19.806	19.425	0.512
836.500	495.700	80.007	19.995	103.860	19.809	19.248	0.505
837.000	495.940	80.006	19.994	103.867	19.813	18.938	0.505
837.500	496.240	80.007	19.994	103.863	19.809	19.218	0.521
838.000	496.505	80.005	19.995	103.858	19.812	19.037	0.552
838.500	496.736	80.007	19.994	103.857	19.820	18.439	0.531
839.000	497.010	80.004	19.993	103.854	19.824	18.205	0.501
839.500	497.273	80.006	19.995	103.848	19.827	17.952	0.521
840.000	497.515	80.005	19.994	103.848	19.823	18.252	0.521
840.500	497.748	80.009	19.995	103.848	19.829	17.863	0.490
841.000	497.997	80.005	19.994	103.849	19.827	17.952	0.478
841.500	498.307	80.006	19.994	103.850	19.829	17.825	0.521
842.000	498.547	80.003	19.994	103.850	19.832	17.637	0.555
842.500	498.824	80.006	19.994	103.850	19.835	17.398	0.533
843.000	499.060	80.006	19.994	103.849	19.832	17.647	0.515
843.500	499.330	80.009	19.994	103.848	19.836	17.342	0.510
844.000	499.610	80.008	19.994	103.847	19.843	16.875	0.528
844.500	499.836	80.007	19.995	103.846	19.844	16.795	0.528
845.000	500.079	80.006	19.995	103.848	19.843	16.898	0.488
845.500	500.338	80.008	19.995	103.850	19.845	16.716	0.486
846.000	500.627	80.006	19.995	103.856	19.850	16.396	0.525
846.500	500.849	80.006	19.995	103.863	19.851	16.306	0.529
847.000	501.137	80.006	19.994	103.869	19.853	16.178	0.510
847.500	501.423	80.006	19.995	103.873	19.860	15.661	0.542
848.000	501.642	80.006	19.994	103.880	19.860	15.667	0.539
848.500	501.932	80.007	19.995	103.880	19.862	15.580	0.507
849.000	502.201	80.008	19.994	103.877	19.865	15.359	0.534
849.500	502.462	80.009	19.996	103.871	19.865	15.317	0.545
850.000	502.696	80.007	19.994	103.866	19.866	15.246	0.512
850.500	502.961	80.007	19.994	103.863	19.870	14.969	0.497
851.000	503.228	80.006	19.995	103.863	19.870	14.989	0.515
851.500	503.480	80.009	19.994	103.867	19.876	14.567	0.525
852.000	503.763	80.007	19.996	103.873	19.876	14.563	0.527
852.500	504.008	80.007	19.995	103.880	19.879	14.375	0.531
853.000	504.260	80.009	19.995	103.883	19.880	14.331	0.513
853.500	504.513	80.007	19.995	103.877	19.882	14.177	0.502
854.000	504.756	80.007	19.994	103.869	19.885	13.922	0.501
854.500	505.046	80.006	19.995	103.860	19.892	13.483	0.514
855.000	505.248	80.008	19.995	103.853	19.890	13.628	0.512
855.500	505.569	80.006	19.995	103.846	19.890	13.631	0.508
856.000	505.804	80.007	19.996	103.844	19.894	13.345	0.539
856.500	506.094	80.008	19.994	103.846	19.900	12.898	0.540
857.000	506.338	80.005	19.994	103.849	19.896	13.202	0.530
857.500	506.599	80.007	19.995	103.851	19.897	13.148	0.520
858.000	506.839	80.008	19.995	103.853	19.900	12.912	0.503
858.500	507.103	80.007	19.996	103.857	19.902	12.776	0.502
859.000	507.341	80.006	19.994	103.862	19.909	12.269	0.503
859.500	507.589	80.006	19.994	103.868	19.905	12.565	0.494
860.000	507.866	80.006	19.996	103.876	19.909	12.306	0.506
860.500	508.165	80.007	19.995	103.880	19.913	11.987	0.550
861.000	508.383	80.005	19.994	103.877	19.913	12.035	0.547
861.500	508.681	80.006	19.996	103.872	19.912	12.064	0.517
862.000	508.922	80.006	19.995	103.870	19.923	11.314	0.528
862.500	509.188	80.006	19.996	103.868	19.919	11.599	0.523
863.000	509.438	80.007	19.994	103.864	19.922	11.357	0.511
863.500	509.675	80.006	19.995	103.857	19.923	11.274	0.501
864.000	509.933	80.007	19.994	103.853	19.925	11.191	0.491
864.500	510.197	80.005	19.993	103.849	19.929	10.906	0.508
865.000	510.482	80.005	19.994	103.841	19.930	10.844	0.536
865.500	510.718	80.007	19.994	103.842	19.928	10.959	0.535
866.000	511.000	80.007	19.994	103.851	19.930	10.822	0.519
866.500	511.240	80.007	19.994	103.854	19.936	10.374	0.520
867.000	511.526	80.006	19.994	103.854	19.936	10.413	0.524
867.500	511.776	80.009	19.995	103.853	19.938	10.254	0.531
868.000	512.018	80.005	19.993	103.851	19.941	10.067	0.514
868.500	512.266	80.008	19.994	103.848	19.940	10.122	0.491
869.000	512.539	80.006	19.993	103.845	19.942	9.968	0.505
869.500	512.774	80.009	19.993	103.845	19.945	9.774	0.514
870.000	513.040	80.008	19.994	103.845	19.946	9.700	0.504
870.500	513.321	80.013	19.993	103.845	19.948	9.592	0.524
871.000	513.568	80.014	19.993	103.850	19.951	9.381	0.538
871.500	513.810	80.011	19.993	103.858	19.951	9.390	0.509
872.000	514.064	80.009	19.993	103.860	19.952	9.267	0.493
872.500	514.330	80.011	19.994	103.861	19.954	9.128	0.508
873.000	514.608	80.006	19.993	103.862	19.956	9.011	0.532
873.500	514.856	80.012	19.993	103.851	19.958	8.880	0.535
874.000	515.116	80.010	19.993	103.838	19.955	9.096	0.517
874.500	515.379	80.009	19.994	103.829	19.960	8.766	0.516
875.000	515.618	80.009	19.994	103.828	19.957	8.911	0.513
875.500	515.927	80.008	19.993	103.828	19.961	8.631	0.525
876.000	516.168	80.009	19.994	103.842	19.962	8.574	0.549
876.500	516.461	80.007	19.994	103.858	19.969	8.142	0.542
877.000	516.709	80.008	19.995	103.875	19.966	8.283	0.537
877.500	516.953	80.007	19.993	103.884	19.972	7.884	0.516
878.000	517.216	80.014	19.993	103.891	19.972	7.918	0.500
878.500	517.492	80.004	19.995	103.889	19.972	7.929	0.523
879.000	517.709	80.010	19.993	103.882	19.974	7.789	0.516
879.500	517.988	80.010	19.993	103.878	19.981	7.301	0.495
880.000	518.226	80.011	19.993	103.872	19.977	7.534	0.507
880.500	518.489	80.012	19.993	103.864	19.978	7.504	0.509
881.000	518.757	80.014	19.994	103.855	19.977	7.546	0.516
881.500	519.039	80.005	19.994	103.853	19.980	7.350	0.541
882.000	519.314	80.009	19.992	103.846	19.981	7.273	0.554
882.500	519.543	80.008	19.993	103.845	19.983	7.131	0.530
883.000	519.825	80.011	19.992	103.846	19.984	7.048	0.507
883.500	520.085	80.012	19.993	103.849	19.985	7.025	0.526
884.000	520.311	80.005	19.993	103.850	19.989	6.724	0.514
884.500	520.591	80.011	19.994	103.853	19.987	6.829	0.496
885.000	520.875	80.002	19.995	103.856	19.986	6.900	0.535
885.500	521.112	79.998	19.996	103.856	19.989	6.722	0.543
886.000	521.375	80.016	19.991	103.853	19.992	6.544	0.511
886.500	521.674	80.015	19.992	103.855	19.990	6.666	0.531
887.000	521.906	80.004	19.992	103.854	19.990	6.657	0.546
887.500	522.145	80.007	19.994	103.850	19.988	6.759	0.501
888.000	522.374	80.007	19.996	103.845	19.990	6.658	0.470
888.500	522.661	80.008	19.994	103.839	19.995	6.282	0.492
889.000	522.893	80.007	19.994	103.832	19.992	6.525	0.518
889.500	523.188	80.009	19.995	103.834	19.995	6.306	0.523
890.000	523.431	80.007	19.994	103.834	19.991	6.588	0.532
890.500	523.710	80.006	19.994	103.846	19.999	5.995	0.530
891.000	523.948	80.006	19.993	103.860	19.997	6.162	0.519
891.500	524.194	80.009	19.994	103.868	19.998	6.089	0.500
892.000	524.491	80.013	19.994	103.866	19.997	6.169	0.514
892.500	524.729	80.008	19.994	103.866	19.997	6.146	0.539
893.000	524.982	80.006	19.995	103.859	20.003	5.758	0.513
893.500	525.275	80.007	19.994	103.851	20.002	5.822	0.518
894.000	525.533	80.004	19.994	103.847	19.999	6.052	0.548
894.500	525.796	80.009	19.993	103.846	20.003	5.727	0.536
895.000	526.074	80.011	19.995	103.849	20.007	5.472	0.531
895.500	526.321	80.011	19.995	103.848	20.001	5.900	0.533
896.000	526.574	80.011	19.993	103.847	20.006	5.534	0.512
896.500	526.836	80.010	19.992	103.846	20.004	5.674	0.507
897.000	527.091	80.004	19.994	103.849	20.002	5.797	0.516
897.500	527.348	80.007	19.995	103.845	20.001	5.888	0.515
898.000	527.606	80.004	19.994	103.846	20.004	5.692	0.514
898.500	527.865	80.011	19.994	103.853	20.004	5.703	0.516
899.000	528.124	80.017	19.993	103.861	20.008	5.417	0.517
899.500	528.379	80.004	19.994	103.863	20.008	5.419	0.516
900.000	528.667	80.009	19.993	103.862	20.012	5.116	0.529
900.500	528.886	80.010	19.993	103.862	20.008	5.421	0.525
901.000	529.134	80.006	19.995	103.858	20.009	5.304	0.487
901.500	529.394	80.009	19.993	103.851	20.006	5.551	0.488
902.000	529.656	80.007	19.993	103.846	20.010	5.281	0.515
902.500	529.922	80.002	19.994	103.844	20.008	5.379	0.525
903.000	530.171	80.010	19.993	103.843	20.007	5.465	0.521
903.501	530.449	80.011	19.994	103.842	20.011	5.172	0.521
904.000	530.705	80.000	19.994	103.840	20.009	5.330	0.531
904.500	530.942	80.012	19.993	103.836	20.006	5.542	0.514
905.000	531.204	80.008	19.993	103.837	20.010	5.285	0.496
905.500	531.463	80.006	19.994	103.835	20.011	5.218	0.510
906.000	531.751	80.005	19.994	103.835	20.012	5.141	0.534
906.500	531.978	80.007	19.993	103.837	20.018	4.678	0.531
907.000	532.277	80.008	19.994	103.845	20.013	5.077	0.520
907.500	532.503	80.009	19.993	103.847	20.015	4.893	0.526
908.000	532.750	80.012	19.993	103.850	20.010	5.230	0.499
908.500	533.031	80.004	19.994	103.851	20.016	4.839	0.501
909.000	533.254	80.007	19.994	103.852	20.014	4.992	0.516
909.500	533.513	80.009	19.993	103.849	20.015	4.881	0.493
910.000	533.795	80.011	19.994	103.844	20.011	5.157	0.511
910.500	534.023	80.010	19.994	103.844	20.013	5.031	0.526
911.000	534.275	80.011	19.993	103.841	20.018	4.727	0.495
911.500	534.522	80.006	19.994	103.839	20.017	4.767	0.490
912.000	534.809	80.009	19.994	103.838	20.020	4.566	0.516
912.500	535.075	80.009	19.993	103.839	20.021	4.475	0.543
913.000	535.374	80.010	19.993	103.839	20.019	4.646	0.559
913.500	535.607	80.009	19.993	103.840	20.020	4.595	0.549
914.000	535.888	80.007	19.994	103.846	20.020	4.543	0.523
914.500	536.086	80.005	19.994	103.853	20.018	4.689	0.497
915.000	536.359	80.007	19.993	103.865	20.023	4.347	0.475
915.500	536.585	80.013	19.994	103.874	20.022	4.445	0.485
916.000	536.895	80.008	19.994	103.881	20.019	4.663	0.518
916.500	537.150	80.006	19.993	103.882	20.019	4.614	0.551
917.000	537.380	80.008	19.994	103.879	20.022	4.391	0.525
917.500	537.657	80.008	19.994	103.872	20.025	4.211	0.496
918.000	537.875	80.007	19.994	103.869	20.023	4.346	0.501
918.500	538.142	80.010	19.993	103.869	20.021	4.482	0.490
919.000	538.440	80.007	19.994	103.869	20.022	4.447	0.525
919.500	538.680	80.008	19.994	103.868	20.021	4.463	0.552
920.000	538.927	80.008	19.994	103.865	20.021	4.530	0.513
920.500	539.207	80.008	19.995	103.866	20.022	4.444	0.507
921.000	539.455	80.004	19.995	103.866	20.025	4.226	0.528
921.501	539.717	80.008	19.994	103.863	20.022	4.440	0.519
922.000	539.991	80.007	19.994	103.858	20.025	4.209	0.523
922.500	540.249	80.005	19.995	103.855	20.021	4.514	0.534
923.000	540.491	80.004	19.994	103.851	20.023	4.371	0.516
923.500	540.748	80.006	19.995	103.848	20.017	4.742	0.499
924.000	541.003	80.008	19.995	103.853	20.020	4.570	0.505
924.500	541.245	80.004	19.994	103.857	20.018	4.716	0.504
925.000	541.506	80.007	19.994	103.859	20.020	4.549	0.499
925.500	541.744	80.004	19.995	103.858	20.024	4.258	0.501
926.000	542.053	80.007	19.994	103.854	20.022	4.433	0.523
926.500	542.279	80.007	19.995	103.849	20.024	4.268	0.541
927.000	542.532	80.005	19.996	103.848	20.025	4.227	0.507
927.500	542.782	80.006	19.994	103.848	20.025	4.227	0.491
928.000	543.086	80.007	19.996	103.849	20.019	4.664	0.529
928.500	543.311	80.008	19.995	103.853	20.027	4.089	0.542
929.000	543.591	80.009	19.995	103.859	20.026	4.131	0.517
929.500	543.853	80.007	19.995	103.870	20.024	4.258	0.524
930.000	544.080	80.008	19.994	103.893	20.031	3.782	0.516
930.501	544.302	80.007	19.994	103.912	20.025	4.184	0.469
931.000	544.540	80.008	19.996	103.916	20.026	4.159	0.454
931.500	544.839	80.008	19.994	103.909	20.016	4.835	0.498
932.000	545.100	80.006	19.994	103.892	20.026	4.117	0.549
932.500	545.339	80.008	19.994	103.867	20.025	4.212	0.530
933.000	545.582	80.007	19.994	103.849	20.021	4.500	0.491
933.500	545.870	80.010	19.994	103.851	20.026	4.166	0.507
934.000	546.081	80.007	19.994	103.866	20.023	4.360	0.515
934.501	546.355	80.011	19.993	103.884	20.025	4.186	0.492
935.000	546.611	80.011	19.994	103.894	20.026	4.160	0.508
935.500	546.858	80.009	19.994	103.903	20.029	3.947	0.517
936.000	547.156	80.009	19.993	103.896	20.027	4.097	0.524
936.500	547.392	80.007	19.994	103.873	20.027	4.070	0.540
937.000	547.650	80.008	19.994	103.852	20.026	4.148	0.514
937.500	547.883	80.009	19.994	103.841	20.025	4.187	0.492
938.000	548.116	80.008	19.994	103.828	20.028	3.975	0.478
938.500	548.395	80.009	19.994	103.833	20.029	3.908	0.489
939.000	548.675	80.010	19.993	103.850	20.022	4.426	0.536
939.500	548.931	80.007	19.993	103.864	20.030	3.837	0.548
940.000	549.157	80.009	19.994	103.867	20.028	4.032	0.509
940.500	549.463	80.006	19.994	103.868	20.025	4.234	0.507
941.000	549.702	80.008	19.994	103.863	20.027	4.067	0.538
941.500	549.909	80.010	19.993	103.858	20.024	4.303	0.495
942.000	550.190	80.006	19.993	103.860	20.026	4.119	0.467
942.500	550.434	80.007	19.994	103.859	20.026	4.141	0.507
943.000	550.722	80.007	19.994	103.851	20.024	4.269	0.528
943.500	550.984	80.007	19.992	103.843	20.028	4.014	0.541
944.000	551.256	80.006	19.993	103.832	20.027	4.106	0.542
944.500	551.458	80.008	19.995	103.822	20.031	3.766	0.504
945.000	551.704	80.007	19.995	103.831	20.025	4.240	0.461
945.500	551.982	80.007	19.993	103.847	20.025	4.197	0.486
946.000	552.203	80.006	19.995	103.863	20.026	4.165	0.511
946.500	552.500	80.007	19.995	103.875	20.026	4.157	0.509
947.000	552.718	80.006	19.994	103.885	20.026	4.119	0.517
947.500	553.018	80.006	19.995	103.882	20.025	4.238	0.516
948.001	553.254	80.006	19.994	103.874	20.027	4.058	0.527
948.501	553.487	80.005	19.995	103.868	20.026	4.118	0.502
949.000	553.710	80.006	19.994	103.863	20.027	4.053	0.462
949.500	554.035	80.006	19.995	103.855	20.028	3.991	0.502
950.000	554.276	80.008	19.995	103.850	20.028	4.041	0.557
950.500	554.539	79.998	19.995	103.852	20.032	3.763	0.535
951.000	554.859	80.005	19.995	103.850	20.029	3.958	0.543
951.500	555.053	80.003	19.996	103.849	20.029	3.958	0.549
952.001	555.303	80.006	19.993	103.849	20.030	3.875	0.479
952.500	555.579	80.006	19.995	103.852	20.026	4.123	0.485
953.000	555.867	80.007	19.994	103.859	20.026	4.121	0.545
953.500	556.102	80.007	19.995	103.867	20.028	3.990	0.543
954.000	556.311	80.007	19.995	103.874	20.031	3.806	0.483
954.500	556.560	80.007	19.994	103.879	20.024	4.256	0.451
955.000	556.854	80.006	19.994	103.876	20.029	3.944	0.500
955.500	557.132	80.009	19.995	103.866	20.025	4.197	0.557
956.000	557.316	80.008	19.995	103.859	20.028	3.991	0.517
956.500	557.630	80.008	19.995	103.851	20.026	4.158	0.481
957.000	557.895	80.008	19.994	103.848	20.027	4.097	0.539
957.500	558.130	80.008	19.995	103.850	20.034	3.600	0.539
958.000	558.408	80.009	19.995	103.856	20.034	3.570	0.506
958.500	558.630	80.009	19.994	103.862	20.031	3.813	0.507
959.000	558.898	80.009	19.995	103.870	20.029	3.911	0.495
959.500	559.138	80.008	19.994	103.876	20.028	4.013	0.499
960.000	559.411	80.009	19.995	103.875	20.030	3.865	0.511
960.500	559.621	80.009	19.994	103.870	20.033	3.673	0.499
961.000	559.919	80.008	19.995	103.867	20.031	3.814	0.496
961.500	560.120	80.009	19.994	103.865	20.032	3.743	0.503
962.000	560.402	80.009	19.994	103.862	20.028	3.998	0.491
962.500	560.644	80.008	19.993	103.859	20.028	3.979	0.504
963.000	560.973	80.008	19.993	103.859	20.032	3.746	0.547
963.500	561.182	80.009	19.994	103.856	20.028	4.028	0.554
964.000	561.446	80.009	19.994	103.850	20.028	4.005	0.505
964.500	561.761	80.010	19.995	103.844	20.028	4.011	0.526
965.000	561.917	80.009	19.993	103.839	20.025	4.248	0.526
965.501	562.174	80.009	19.992	103.835	20.031	3.818	0.442
966.000	562.441	80.009	19.993	103.834	20.027	4.061	0.468
966.500	562.662	80.009	19.994	103.830	20.024	4.315	0.506
967.000	562.917	80.008	19.993	103.829	20.025	4.201	0.482
967.500	563.213	80.009	19.993	103.834	20.024	4.303	0.514
968.000	563.397	80.009	19.993	103.837	20.027	4.048	0.516
968.500	563.677	80.009	19.994	103.835	20.023	4.359	0.472
969.000	563.913	80.007	19.993	103.836	20.029	3.964	0.489
969.500	564.154	80.010	19.994	103.838	20.029	3.920	0.497
970.000	564.453	80.008	19.994	103.838	20.030	3.893	0.509
970.500	564.673	80.009	19.992	103.838	20.025	4.243	0.529
971.000	564.917	80.007	19.993	103.840	20.026	4.174	0.491
971.500	565.217	80.010	19.994	103.843	20.026	4.165	0.504
972.000	565.477	80.006	19.994	103.845	20.028	4.030	0.552
972.500	565.699	80.006	19.993	103.846	20.031	3.789	0.520
973.000	565.894	80.007	19.994	103.846	20.033	3.685	0.449
973.500	566.142	80.007	19.993	103.846	20.027	4.082	0.430
974.000	566.428	80.007	19.994	103.846	20.030	3.875	0.489
974.500	566.717	80.008	19.994	103.846	20.031	3.790	0.554
975.000	566.890	80.008	19.994	103.847	20.028	3.982	0.518
975.501	567.192	80.008	19.994	103.852	20.030	3.861	0.469
976.000	567.402	80.006	19.993	103.857	20.030	3.842	0.494
976.500	567.624	80.006	19.993	103.857	20.026	4.164	0.472
977.000	567.913	80.008	19.994	103.857	20.033	3.683	0.471
977.500	568.156	80.007	19.994	103.857	20.035	3.504	0.521
978.000	568.396	80.007	19.994	103.853	20.030	3.897	0.507
978.500	568.667	80.008	19.994	103.856	20.032	3.755	0.497
979.000	568.911	80.009	19.994	103.863	20.035	3.537	0.513
979.500	569.149	80.006	19.994	103.866	20.032	3.736	0.499
980.000	569.388	80.007	19.994	103.866	20.037	3.393	0.480
980.500	569.624	80.008	19.994	103.864	20.034	3.576	0.476
981.000	569.880	80.007	19.995	103.857	20.031	3.804	0.483
981.500	570.128	80.006	19.993	103.849	20.032	3.737	0.498
982.000	570.375	80.006	19.994	103.846	20.035	3.517	0.500
982.500	570.616	80.008	19.994	103.848	20.031	3.789	0.491
983.000	570.869	80.007	19.995	103.849	20.034	3.565	0.491
983.500	571.145	80.007	19.994	103.849	20.037	3.411	0.511
984.000	571.360	80.007	19.994	103.853	20.032	3.749	0.510
984.500	571.625	80.007	19.994	103.853	20.029	3.940	0.485
985.000	571.870	80.007	19.994	103.849	20.027	4.071	0.495
985.500	572.068	80.009	19.994	103.840	20.033	3.645	0.477
986.000	572.376	80.008	19.993	103.833	20.033	3.675	0.475
986.500	572.623	80.009	19.995	103.828	20.035	3.490	0.531
987.000	572.862	80.008	19.995	103.827	20.035	3.532	0.521
987.500	573.093	80.009	19.994	103.827	20.029	3.906	0.478
988.000	573.386	80.007	19.994	103.831	20.031	3.768	0.497
988.500	573.652	80.008	19.994	103.833	20.029	3.920	0.541
989.000	573.868	80.007	19.995	103.827	20.033	3.629	0.521
989.500	574.195	80.009	19.994	103.827	20.032	3.741	0.512
990.000	574.440	80.007	19.994	103.829	20.033	3.660	0.557
990.500	574.658	80.008	19.994	103.832	20.032	3.720	0.518
991.000	574.961	80.009	19.995	103.838	20.034	3.616	0.492
991.500	575.217	80.009	19.994	103.846	20.035	3.521	0.539
992.000	575.454	80.008	19.995	103.852	20.033	3.645	0.526
992.500	575.705	80.007	19.993	103.858	20.038	3.315	0.491
993.000	575.967	80.008	19.994	103.859	20.036	3.466	0.501
993.500	576.239	80.008	19.994	103.859	20.038	3.310	0.523
994.000	576.517	80.008	19.994	103.859	20.041	3.113	0.542
994.500	576.774	80.008	19.994	103.861	20.035	3.487	0.542
995.000	576.998	80.008	19.994	103.870	20.038	3.278	0.508
995.500	577.202	80.007	19.994	103.884	20.038	3.323	0.455
996.000	577.509	80.009	19.994	103.893	20.035	3.503	0.470
996.500	577.751	80.007	19.993	103.893	20.039	3.267	0.530
997.000	578.072	80.007	19.994	103.886	20.038	3.277	0.556
997.500	578.312	80.008	19.993	103.872	20.036	3.438	0.562
998.000	578.529	80.008	19.994	103.860	20.037	3.384	0.508
998.500	578.755	80.007	19.994	103.860	20.037	3.367	0.450
999.000	578.979	80.008	19.994	103.869	20.040	3.140	0.447
999.500	579.274	80.008	19.993	103.879	20.038	3.296	0.485
1000.000	579.491	80.007	19.994	103.889	20.037	3.350	0.515
1000.501	579.835	80.007	19.993	103.900	20.038	3.295	0.536
1001.001	580.111	80.008	19.994	103.900	20.037	3.374	0.591
1001.500	580.301	80.008	19.994	103.898	20.036	3.460	0.543
1002.000	580.526	80.007	19.994	103.889	20.044	2.871	0.440
1002.500	580.822	80.007	19.993	103.880	20.042	3.014	0.468
1003.000	581.074	80.006	19.993	103.860	20.039	3.269	0.535
1003.500	581.312	80.007	19.993	103.845	20.042	3.001	0.519
1004.000	581.635	80.007	19.993	103.831	20.040	3.198	0.525
1004.500	581.835	80.007	19.994	103.823	20.037	3.411	0.542
1005.000	582.118	80.009	19.995	103.821	20.039	3.252	0.503
1005.500	582.342	80.007	19.994	103.826	20.040	3.167	0.495
1006.000	582.588	80.007	19.995	103.834	20.035	3.505	0.488
1006.500	582.888	80.008	19.993	103.846	20.040	3.139	0.508
1007.000	583.075	80.008	19.993	103.852	20.038	3.335	0.517
1007.500	583.327	80.008	19.994	103.854	20.034	3.559	0.463
1008.000	583.607	80.006	19.994	103.855	20.040	3.200	0.485
1008.500	583.840	80.008	19.993	103.856	20.036	3.440	0.522
1009.000	584.128	80.008	19.993	103.852	20.039	3.242	0.517
1009.500	584.338	80.006	19.993	103.851	20.040	3.140	0.510
1010.000	584.611	80.009	19.994	103.853	20.041	3.120	0.490
1010.500	584.840	80.007	19.994	103.860	20.037	3.383	0.492
1011.000	585.091	80.007	19.993	103.870	20.037	3.347	0.491
1011.500	585.376	80.007	19.993	103.884	20.039	3.268	0.509
1012.000	585.622	80.006	19.993	103.893	20.036	3.466	0.534
1012.500	585.873	80.008	19.994	103.894	20.039	3.230	0.514
1013.000	586.138	80.008	19.994	103.887	20.043	2.987	0.506
1013.500	586.401	80.007	19.994	103.874	20.042	3.062	0.521
1014.000	586.619	80.008	19.994	103.859	20.042	3.039	0.504
1014.500	586.885	80.008	19.993	103.857	20.041	3.081	0.483
1015.000	587.157	80.008	19.994	103.857	20.043	2.991	0.511
1015.500	587.389	80.009	19.993	103.857	20.044	2.899	0.521
1016.000	587.706	80.007	19.994	103.858	20.042	3.000	0.526
1016.500	587.942	80.008	19.994	103.858	20.043	2.971	0.551
1017.000	588.208	80.009	19.995	103.853	20.043	2.971	0.528
1017.500	588.424	80.007	19.993	103.859	20.042	3.006	0.492
1018.000	588.676	80.008	19.994	103.864	20.047	2.689	0.475
1018.500	588.920	80.009	19.994	103.863	20.045	2.829	0.482
1019.000	589.215	80.007	19.993	103.859	20.041	3.111	0.518
1019.500	589.446	80.008	19.995	103.849	20.043	2.948	0.533
1020.000	589.664	80.009	19.994	103.835	20.043	2.945	0.488
1020.500	589.940	80.008	19.995	103.823	20.042	3.042	0.471
1021.000	590.225	80.007	19.994	103.816	20.042	3.002	0.527
1021.500	590.434	80.009	19.994	103.812	20.040	3.163	0.527
1022.000	590.704	80.009	19.994	103.819	20.039	3.254	0.486
1022.500	590.947	80.009	19.995	103.828	20.044	2.920	0.496
1023.000	591.207	80.008	19.994	103.835	20.044	2.916	0.508
1023.500	591.453	80.008	19.995	103.840	20.041	3.091	0.504
1024.001	591.718	80.008	19.993	103.847	20.042	3.068	0.509
1024.501	591.952	80.008	19.995	103.848	20.042	3.053	0.505
1025.001	592.209	80.009	19.994	103.844	20.041	3.077	0.495
1025.500	592.465	80.010	19.994	103.843	20.039	3.213	0.502
1026.000	592.748	80.008	19.993	103.844	20.042	3.042	0.526
1026.500	593.012	80.008	19.994	103.844	20.041	3.108	0.543
1027.000	593.237	80.007	19.993	103.844	20.043	2.977	0.518
1027.500	593.502	80.008	19.994	103.844	20.039	3.215	0.490
1028.000	593.799	80.007	19.994	103.843	20.038	3.306	0.526
1028.500	594.018	80.008	19.993	103.843	20.036	3.440	0.539
1029.000	594.293	80.008	19.994	103.843	20.037	3.350	0.505
1029.500	594.556	80.010	19.994	103.844	20.038	3.317	0.516
1030.000	594.846	80.009	19.994	103.844	20.039	3.275	0.546
1030.500	595.104	80.007	19.995	103.845	20.041	3.083	0.550
1031.000	595.375	80.008	19.994	103.847	20.042	3.064	0.538
1031.500	595.590	80.009	19.993	103.848	20.040	3.187	0.508
1032.000	595.857	80.007	19.995	103.848	20.042	3.066	0.484
1032.500	596.080	80.010	19.994	103.847	20.041	3.073	0.486
1033.000	596.398	80.007	19.994	103.848	20.044	2.914	0.516
1033.500	596.647	80.010	19.996	103.848	20.040	3.171	0.554
1034.001	596.884	80.010	19.994	103.855	20.039	3.271	0.526
1034.501	597.125	80.009	19.994	103.864	20.046	2.766	0.482
1035.000	597.383	80.007	19.994	103.873	20.044	2.897	0.489
1035.501	597.659	80.011	19.994	103.885	20.043	2.994	0.516
1036.001	597.914	80.008	19.994	103.897	20.045	2.831	0.532
1036.500	598.194	80.009	19.994	103.902	20.042	3.060	0.533
1037.000	598.420	80.010	19.995	103.908	20.042	3.016	0.520
1037.500	598.686	80.010	19.995	103.910	20.046	2.747	0.499
1038.000	598.985	80.010	19.995	103.904	20.045	2.816	0.528
1038.500	599.205	80.008	19.995	103.892	20.042	3.062	0.541
1039.000	599.450	80.011	19.995	103.879	20.045	2.810	0.492
1039.500	599.723	80.011	19.994	103.864	20.048	2.592	0.492
1040.000	600.002	80.009	19.994	103.853	20.044	2.916	0.535
1040.500	600.196	80.008	19.994	103.845	20.045	2.839	0.512
1041.000	600.470	80.009	19.994	103.845	20.046	2.787	0.471
1041.501	600.752	80.011	19.993	103.846	20.042	3.027	0.512
1042.001	600.967	80.006	19.994	103.852	20.046	2.722	0.526
1042.500	601.249	80.009	19.994	103.858	20.046	2.770	0.497
1043.000	601.518	80.007	19.994	103.857	20.045	2.804	0.524
1043.500	601.755	80.008	19.995	103.857	20.048	2.624	0.529
1044.000	602.027	80.013	19.994	103.855	20.043	2.981	0.507
1044.500	602.288	80.014	19.994	103.849	20.046	2.775	0.521
1045.000	602.543	80.010	19.994	103.845	20.047	2.655	0.525
1045.500	602.817	80.008	19.995	103.845	20.042	3.021	0.523
1046.000	603.080	80.011	19.995	103.844	20.047	2.686	0.533
1046.500	603.279	80.013	19.994	103.844	20.043	2.933	0.499
1047.000	603.582	80.007	19.995	103.845	20.044	2.897	0.481
1047.500	603.820	80.005	19.995	103.844	20.045	2.847	0.521
1048.000	604.110	80.010	19.994	103.844	20.043	2.937	0.535
1048.500	604.374	80.008	19.994	103.844	20.045	2.809	0.542
1049.000	604.586	80.010	19.994	103.844	20.044	2.889	0.515
1049.500	604.824	79.996	19.995	103.845	20.041	3.110	0.463
1050.001	605.123	80.015	19.992	103.844	20.038	3.336	0.493
1050.501	605.382	80.009	19.995	103.845	20.040	3.187	0.547
1051.000	605.630	80.010	19.995	103.846	20.042	3.050	0.532
1051.500	605.882	80.015	19.994	103.847	20.041	3.116	0.504
1052.000	606.148	80.013	19.995	103.847	20.041	3.094	0.509
1052.500	606.386	80.009	19.996	103.848	20.038	3.286	0.511
1053.000	606.676	80.010	19.995	103.846	20.041	3.092	0.516
1053.500	606.923	80.008	19.995	103.838	20.045	2.802	0.533
1054.000	607.157	80.007	19.995	103.832	20.042	3.027	0.509
1054.500	607.425	80.008	19.994	103.828	20.039	3.210	0.491
1055.000	607.676	80.007	19.993	103.829	20.039	3.252	0.511
1055.500	607.919	80.003	19.996	103.831	20.041	3.095	0.507
1056.000	608.230	80.014	19.992	103.836	20.039	3.244	0.524
1056.500	608.501	80.008	19.995	103.845	20.038	3.305	0.568
1057.000	608.724	80.011	19.994	103.849	20.042	2.998	0.538
1057.501	608.992	80.009	19.994	103.850	20.042	3.027	0.492
1058.001	609.256	80.007	19.994	103.855	20.042	3.036	0.511
1058.500	609.495	80.006	19.995	103.860	20.046	2.756	0.517
1059.001	609.768	80.004	19.995	103.857	20.040	3.164	0.508
1059.501	610.040	80.008	19.994	103.856	20.040	3.191	0.529
1060.001	610.299	80.011	19.994	103.855	20.036	3.429	0.538
1060.500	610.532	80.011	19.993	103.851	20.043	2.987	0.511
1061.000	610.770	80.006	19.994	103.851	20.039	3.216	0.481
1061.500	611.041	80.015	19.993	103.854	20.040	3.179	0.490
1062.000	611.337	80.004	19.995	103.858	20.037	3.404	0.538
1062.501	611.529	80.003	19.996	103.854	20.036	3.421	0.528
1063.001	611.781	80.005	19.994	103.848	20.040	3.153	0.466
1063.500	612.031	80.018	19.992	103.837	20.041	3.103	0.473
1064.000	612.275	80.001	19.994	103.835	20.040	3.143	0.498
1064.500	612.552	80.012	19.993	103.837	20.042	3.065	0.508
1065.000	612.819	80.004	19.994	103.852	20.046	2.742	0.532
1065.500	613.043	80.007	19.995	103.862	20.043	2.932	0.518
1066.000	613.352	80.009	19.993	103.869	20.042	3.008	0.512
1066.500	613.586	80.003	19.994	103.869	20.042	3.016	0.538
1067.000	613.861	80.005	19.994	103.863	20.039	3.240	0.526
1067.500	614.093	80.009	19.995	103.844	20.044	2.868	0.508
1068.000	614.346	80.008	19.994	103.833	20.041	3.088	0.496
1068.500	614.624	80.004	19.994	103.836	20.041	3.098	0.508
1069.000	614.834	79.997	19.995	103.839	20.042	3.048	0.510
1069.501	615.148	80.011	19.994	103.841	20.046	2.751	0.506
1070.001	615.397	80.005	19.994	103.855	20.042	3.046	0.543
1070.500	615.635	80.008	19.993	103.866	20.044	2.868	0.525
1071.000	615.905	80.010	19.992	103.867	20.041	3.121	0.498
1071.500	616.164	80.008	19.994	103.864	20.043	2.952	0.519
1072.000	616.388	80.009	19.994	103.867	20.045	2.845	0.506
1072.500	616.681	80.004	19.995	103.869	20.045	2.809	0.500
1073.000	616.901	80.011	19.993	103.866	20.045	2.826	0.515
1073.500	617.176	79.999	19.995	103.867	20.045	2.840	0.504
1074.000	617.428	80.008	19.993	103.874	20.044	2.870	0.511
1074.500	617.695	80.011	19.994	103.881	20.045	2.834	0.523
1075.000	617.924	80.015	19.995	103.880	20.041	3.085	0.507
1075.500	618.226	80.007	19.993	103.879	20.044	2.878	0.514
1076.000	618.445	80.013	19.994	103.877	20.044	2.910	0.527
1076.500	618.701	80.005	19.992	103.871	20.046	2.786	0.498
1077.000	618.968	80.002	19.994	103.860	20.046	2.741	0.499
1077.500	619.225	80.004	19.994	103.852	20.041	3.133	0.523
1078.000	619.487	80.012	19.994	103.843	20.045	2.822	0.521
1078.500	619.778	80.015	19.992	103.835	20.039	3.250	0.536
1079.000	619.993	80.014	19.993	103.835	20.044	2.908	0.530
1079.500	620.313	80.010	19.993	103.835	20.044	2.922	0.520
1080.000	620.540	80.000	19.995	103.835	20.044	2.927	0.541
1080.500	620.758	80.003	19.994	103.840	20.044	2.889	0.496
1081.000	621.069	80.006	19.994	103.846	20.045	2.849	0.487
1081.500	621.328	80.013	19.993	103.845	20.047	2.669	0.550
1082.001	621.580	80.003	19.994	103.847	20.042	3.038	0.540
1082.501	621.849	80.009	19.993	103.848	20.047	2.669	0.516
1083.001	622.077	80.005	19.994	103.853	20.041	3.135	0.509
1083.501	622.345	80.015	19.992	103.862	20.042	3.018	0.496
1084.000	622.578	80.000	19.995	103.867	20.045	2.818	0.499
1084.500	622.880	79.999	19.995	103.865	20.045	2.855	0.518
1085.001	623.111	80.004	19.995	103.865	20.047	2.695	0.534
1085.501	623.411	80.008	19.994	103.865	20.045	2.829	0.532
1086.000	623.617	80.004	19.994	103.860	20.046	2.745	0.518
1086.500	623.903	80.009	19.992	103.857	20.043	2.973	0.499
1087.000	624.141	80.015	19.994	103.860	20.044	2.873	0.508
1087.500	624.405	80.006	19.993	103.859	20.043	2.990	0.513
1088.001	624.643	79.994	19.995	103.854	20.045	2.808	0.502
1088.501	624.946	80.006	19.994	103.849	20.047	2.670	0.521
1089.001	625.197	80.005	19.994	103.848	20.043	2.989	0.548
1089.500	625.409	80.008	19.993	103.845	20.044	2.897	0.509
1090.000	625.650	80.016	19.994	103.846	20.044	2.880	0.459
1090.500	625.951	80.010	19.994	103.848	20.046	2.748	0.498
1091.000	626.163	80.012	19.992	103.851	20.046	2.752	0.527
1091.500	626.406	80.006	19.993	103.859	20.049	2.523	0.484
1092.001	626.703	80.009	19.993	103.863	20.042	3.001	0.498
1092.501	626.922	80.004	19.994	103.870	20.048	2.588	0.528
1093.000	627.197	80.011	19.993	103.876	20.043	2.974	0.505
1093.500	627.425	80.006	19.995	103.881	20.047	2.657	0.499
1094.000	627.691	80.007	19.993	103.871	20.046	2.765	0.499
1094.500	627.955	80.009	19.994	103.867	20.043	2.991	0.512
1095.000	628.235	80.002	19.995	103.860	20.044	2.864	0.537
1095.500	628.446	80.003	19.994	103.852	20.045	2.791	0.518
1096.000	628.700	80.007	19.994	103.840	20.045	2.801	0.478
1096.500	628.985	80.010	19.994	103.837	20.043	2.972	0.502
1097.000	629.208	80.005	19.994	103.837	20.042	3.016	0.524
1097.500	629.469	79.998	19.995	103.832	20.046	2.732	0.496
1098.000	629.686	79.996	19.996	103.830	20.046	2.747	0.481
1098.500	630.004	80.009	19.993	103.834	20.044	2.884	0.507
1099.001	630.229	80.008	19.995	103.845	20.042	3.002	0.539
1099.501	630.432	80.013	19.993	103.853	20.044	2.866	0.485
1100.001	630.697	80.015	19.992	103.858	20.044	2.866	0.448
1100.501	630.990	80.007	19.995	103.870	20.044	2.906	0.513
1101.000	631.247	80.017	19.992	103.880	20.045	2.793	0.554
1101.500	631.495	80.010	19.994	103.881	20.046	2.771	0.527
1102.000	631.771	80.010	19.994	103.881	20.049	2.578	0.515
1102.500	631.990	80.006	19.996	103.882	20.046	2.762	0.510
1103.000	632.302	80.012	19.992	103.872	20.046	2.755	0.513
1103.500	632.528	80.009	19.994	103.871	20.048	2.582	0.534
1104.001	632.755	80.018	19.993	103.871	20.051	2.415	0.496
1104.501	633.020	80.010	19.993	103.865	20.048	2.638	0.473
1105.001	633.262	80.013	19.994	103.859	20.049	2.571	0.500
1105.501	633.501	80.028	19.993	103.857	20.050	2.475	0.494
1106.001	633.812	80.013	19.992	103.853	20.048	2.613	0.515
1106.501	634.019	80.013	19.993	103.855	20.053	2.254	0.534
1107.000	634.291	80.003	19.994	103.859	20.047	2.718	0.498
1107.501	634.527	80.007	19.994	103.862	20.050	2.453	0.494
1108.001	634.797	80.021	19.993	103.871	20.047	2.674	0.507
1108.500	635.016	80.003	19.995	103.874	20.050	2.472	0.497
1109.000	635.296	80.019	19.994	103.861	20.049	2.547	0.494
1109.500	635.561	80.018	19.992	103.856	20.047	2.695	0.522
1110.000	635.847	80.008	19.993	103.858	20.046	2.731	0.548
1110.500	636.070	80.011	19.993	103.850	20.049	2.565	0.530
1111.000	636.336	80.008	19.993	103.839	20.048	2.647	0.499
1111.500	636.572	80.007	19.994	103.838	20.050	2.446	0.496
1112.000	636.810	80.004	19.994	103.832	20.047	2.665	0.488
1112.500	637.120	80.011	19.994	103.828	20.048	2.621	0.512
1113.001	637.330	80.003	19.995	103.831	20.049	2.556	0.534
1113.501	637.606	80.004	19.995	103.840	20.046	2.738	0.503
1114.000	637.859	80.001	19.995	103.849	20.047	2.678	0.507
1114.500	638.116	80.003	19.994	103.858	20.048	2.625	0.519
1115.000	638.378	80.012	19.994	103.860	20.048	2.644	0.514
1115.500	638.643	80.006	19.994	103.859	20.051	2.419	0.523
1116.000	638.878	80.007	19.994	103.855	20.050	2.443	0.514
1116.500	639.143	80.003	19.995	103.845	20.052	2.358	0.500
1117.000	639.398	79.993	19.996	103.837	20.047	2.673	0.510
1117.500	639.646	80.008	19.995	103.834	20.045	2.818	0.512
1118.000	639.888	80.003	19.995	103.834	20.048	2.586	0.496
1118.500	640.165	80.006	19.994	103.829	20.047	2.688	0.504
1119.000	640.416	80.014	19.995	103.825	20.045	2.804	0.523
1119.500	640.660	80.003	19.995	103.831	20.048	2.586	0.512
1120.000	640.928	80.008	19.994	103.829	20.049	2.519	0.504
1120.500	641.212	80.012	19.992	103.829	20.046	2.729	0.532
1121.001	641.427	80.016	19.993	103.835	20.047	2.711	0.525
1121.501	641.666	80.012	19.994	103.844	20.045	2.840	0.477
1122.000	641.951	80.003	19.994	103.846	20.048	2.584	0.490
1122.500	642.233	80.014	19.992	103.848	20.050	2.463	0.546
1123.000	642.455	80.008	19.995	103.852	20.051	2.438	0.535
1123.501	642.709	80.008	19.994	103.859	20.053	2.269	0.490
1124.001	642.923	80.008	19.992	103.863	20.047	2.680	0.472
1124.500	643.216	80.013	19.994	103.861	20.052	2.369	0.488
1125.000	643.506	80.004	19.993	103.863	20.051	2.373	0.545
1125.500	643.751	80.013	19.994	103.863	20.047	2.685	0.559
1126.000	644.019	80.002	19.996	103.862	20.049	2.515	0.524
1126.500	644.234	80.010	19.995	103.862	20.047	2.703	0.498
1127.001	644.501	80.002	19.996	103.869	20.051	2.394	0.483
1127.501	644.729	80.009	19.995	103.874	20.050	2.504	0.488
1128.000	645.003	80.008	19.995	103.873	20.050	2.479	0.498
1128.501	645.249	80.001	19.996	103.864	20.051	2.429	0.511
1129.001	645.496	80.010	19.993	103.855	20.049	2.542	0.506
1129.500	645.749	80.008	19.995	103.849	20.053	2.302	0.496
1130.000	646.014	80.019	19.992	103.843	20.052	2.362	0.509
1130.500	646.270	80.009	19.992	103.851	20.053	2.265	0.520
1131.000	646.519	80.013	19.992	103.862	20.052	2.335	0.513
1131.500	646.768	80.004	19.994	103.873	20.051	2.386	0.501
1132.001	647.049	80.011	19.994	103.876	20.046	2.786	0.514
1132.501	647.246	80.000	19.995	103.878	20.046	2.786	0.504
1133.000	647.536	80.015	19.994	103.865	20.048	2.600	0.483
1133.500	647.775	80.006	19.995	103.856	20.047	2.659	0.508
1134.000	648.051	80.011	19.994	103.846	20.053	2.281	0.522
1134.500	648.257	80.000	19.995	103.842	20.053	2.289	0.498
1135.000	648.562	80.016	19.993	103.837	20.049	2.577	0.497
1135.500	648.788	80.007	19.994	103.838	20.046	2.723	0.521
1136.000	649.039	80.009	19.994	103.837	20.049	2.525	0.504
1136.501	649.283	80.013	19.995	103.840	20.048	2.648	0.486
1137.001	649.577	80.007	19.993	103.842	20.049	2.521	0.517
1137.500	649.800	80.016	19.996	103.845	20.049	2.561	0.528
1138.000	650.072	80.002	19.994	103.849	20.049	2.527	0.506
1138.500	650.332	80.005	19.994	103.857	20.045	2.851	0.513
1139.000	650.540	80.008	19.995	103.862	20.046	2.770	0.499
1139.500	650.856	80.010	19.992	103.861	20.050	2.503	0.496
1140.000	651.127	80.009	19.994	103.863	20.044	2.891	0.556
1140.500	651.315	79.994	19.996	103.862	20.047	2.699	0.523
1141.000	651.588	80.006	19.994	103.850	20.049	2.568	0.460
1141.500	651.856	80.012	19.994	103.844	20.051	2.421	0.501
1142.000	652.115	80.008	19.993	103.846	20.049	2.549	0.534
1142.500	652.378	80.015	19.993	103.850	20.050	2.490	0.524
1143.000	652.592	80.002	19.994	103.858	20.049	2.574	0.499
1143.500	652.860	80.006	19.995	103.865	20.046	2.762	0.480
1144.000	653.115	80.005	19.993	103.866	20.050	2.505	0.503
1144.500	653.381	79.992	19.996	103.868	20.047	2.668	0.522
1145.000	653.651	80.019	19.992	103.862	20.047	2.716	0.528
1145.500	653.915	80.003	19.996	103.860	20.053	2.287	0.535
1146.000	654.151	80.005	19.993	103.859	20.049	2.555	0.517
1146.500	654.395	80.005	19.996	103.866	20.054	2.214	0.490
1147.000	654.628	80.007	19.994	103.864	20.050	2.477	0.478
1147.500	654.911	80.003	19.994	103.869	20.053	2.247	0.496
1148.000	655.180	80.009	19.994	103.866	20.051	2.427	0.534
1148.500	655.385	80.014	19.995	103.865	20.051	2.389	0.513
1149.000	655.687	80.000	19.995	103.857	20.050	2.479	0.490
1149.500	655.909	80.008	19.994	103.855	20.048	2.584	0.516
1150.000	656.186	80.007	19.995	103.849	20.054	2.170	0.512
1150.501	656.464	80.000	19.995	103.846	20.050	2.462	0.527
1151.001	656.680	80.014	19.994	103.841	20.045	2.811	0.525
1151.500	656.941	80.003	19.995	103.839	20.052	2.308	0.485
1152.000	657.183	80.004	19.996	103.840	20.053	2.264	0.489
1152.500	657.429	80.005	19.996	103.840	20.049	2.575	0.495
1153.000	657.698	80.003	19.996	103.841	20.051	2.410	0.501
1153.500	657.942	80.007	19.996	103.844	20.052	2.320	0.514
1154.000	658.165	80.005	19.996	103.844	20.048	2.592	0.490
1154.500	658.484	80.018	19.993	103.842	20.051	2.377	0.505
1155.000	658.705	80.011	19.995	103.846	20.053	2.285	0.541
1155.500	658.942	80.004	19.995	103.847	20.047	2.674	0.499
1156.000	659.215	80.006	19.995	103.848	20.049	2.517	0.485
1156.500	659.467	80.005	19.995	103.849	20.050	2.442	0.518
1157.000	659.696	80.009	19.995	103.850	20.051	2.410	0.503
1157.500	659.994	80.006	19.994	103.851	20.051	2.419	0.503
1158.000	660.235	80.011	19.994	103.853	20.052	2.327	0.533
1158.500	660.467	80.009	19.995	103.853	20.050	2.473	0.506
1159.000	660.750	80.007	19.993	103.852	20.047	2.667	0.495
1159.500	660.976	80.002	19.995	103.856	20.047	2.698	0.512
1160.000	661.271	80.004	19.994	103.857	20.051	2.404	0.514
1160.500	661.491	80.015	19.995	103.859	20.057	2.011	0.517
1161.000	661.796	80.009	19.994	103.863	20.053	2.262	0.520
1161.500	662.028	80.017	19.993	103.869	20.050	2.511	0.532
1162.001	662.301	80.009	19.994	103.873	20.050	2.446	0.521
1162.501	662.550	80.007	19.994	103.869	20.054	2.189	0.513
1163.001	662.798	80.016	19.992	103.870	20.050	2.471	0.510
1163.500	663.031	80.008	19.993	103.872	20.053	2.298	0.490
1164.000	663.325	80.019	19.993	103.867	20.054	2.231	0.504
1164.500	663.536	80.009	19.994	103.861	20.050	2.505	0.516
1165.000	663.773	80.006	19.994	103.858	20.052	2.319	0.476
1165.500	663.997	79.997	19.995	103.853	20.053	2.293	0.454
1166.001	664.291	80.010	19.994	103.843	20.052	2.346	0.489
1166.501	664.509	80.011	19.994	103.844	20.055	2.128	0.515
1167.000	664.783	80.005	19.995	103.841	20.048	2.625	0.502
1167.500	665.012	80.017	19.993	103.843	20.052	2.337	0.498
1168.000	665.255	80.008	19.994	103.852	20.053	2.289	0.488
1168.500	665.518	80.016	19.992	103.863	20.053	2.300	0.489
1169.000	665.748	80.011	19.993	103.871	20.053	2.239	0.499
1169.500	666.019	80.011	19.992	103.875	20.053	2.235	0.497
1170.000	666.270	80.005	19.995	103.877	20.053	2.235	0.512
1170.500	666.509	80.005	19.995	103.869	20.055	2.160	0.506
1171.000	666.777	80.015	19.993	103.860	20.054	2.179	0.499
1171.500	667.026	80.002	19.995	103.852	20.054	2.183	0.512
1172.000	667.260	80.008	19.995	103.852	20.054	2.166	0.500
1172.501	667.519	80.006	19.994	103.855	20.055	2.125	0.488
1173.001	667.746	80.004	19.995	103.858	20.055	2.125	0.490
1173.500	667.996	80.009	19.994	103.862	20.054	2.183	0.481
1174.000	668.238	79.998	19.995	103.862	20.056	2.060	0.484
1174.500	668.515	80.016	19.992	103.858	20.056	2.070	0.506
1175.000	668.772	80.014	19.993	103.855	20.055	2.148	0.527
1175.501	668.996	80.003	19.995	103.853	20.054	2.170	0.507
1176.001	669.263	80.011	19.995	103.853	20.056	2.033	0.486
1176.500	669.522	80.015	19.994	103.857	20.056	2.076	0.509
1177.000	669.752	80.011	19.995	103.860	20.056	2.087	0.508
1177.500	670.035	80.010	19.994	103.862	20.052	2.336	0.501
1178.000	670.285	80.006	19.996	103.868	20.056	2.062	0.523
1178.500	670.523	80.009	19.994	103.865	20.053	2.288	0.510
1179.000	670.812	80.015	19.992	103.859	20.057	1.999	0.508
1179.501	671.039	80.002	19.995	103.860	20.057	2.001	0.522
1180.001	671.284	80.007	19.994	103.854	20.055	2.103	0.494
1180.500	671.541	80.010	19.994	103.845	20.054	2.187	0.487
1181.000	671.772	80.008	19.994	103.844	20.058	1.932	0.495
1181.500	672.029	80.007	19.995	103.846	20.052	2.344	0.488
1182.000	672.291	80.008	19.995	103.842	20.054	2.233	0.503
1182.500	672.531	80.007	19.994	103.843	20.052	2.344	0.511
1183.000	672.843	80.011	19.993	103.844	20.053	2.243	0.527
1183.500	673.061	80.009	19.994	103.845	20.053	2.260	0.541
1184.001	673.287	80.011	19.993	103.845	20.054	2.227	0.487
1184.501	673.568	80.008	19.995	103.847	20.053	2.266	0.476
1185.001	673.807	80.005	19.995	103.847	20.054	2.206	0.513
1185.501	674.070	80.011	19.994	103.847	20.053	2.241	0.511
1186.001	674.324	80.008	19.995	103.845	20.052	2.304	0.510
1186.501	674.590	80.015	19.995	103.844	20.054	2.212	0.519
1187.001	674.849	80.012	19.994	103.842	20.054	2.210	0.523
1187.501	675.140	80.001	19.996	103.842	20.054	2.183	0.538
1188.000	675.399	80.010	19.995	103.841	20.054	2.177	0.550
1188.500	675.660	80.009	19.994	103.841	20.054	2.208	0.535
1189.000	675.894	80.008	19.993	103.843	20.053	2.269	0.508
1189.501	676.101	80.010	19.995	103.843	20.056	2.068	0.468
1190.001	676.378	80.011	19.993	103.843	20.056	2.064	0.462
1190.501	676.652	80.012	19.993	103.848	20.055	2.141	0.517
1191.001	676.907	80.017	19.992	103.851	20.056	2.035	0.540
1191.501	677.174	80.008	19.994	103.857	20.056	2.051	0.526
1192.000	677.472	80.014	19.994	103.858	20.055	2.151	0.544
1192.500	677.678	80.006	19.994	103.860	20.051	2.412	0.535
1193.000	677.946	80.010	19.993	103.855	20.056	2.084	0.489
1193.500	678.220	80.012	19.993	103.854	20.056	2.026	0.509
1194.000	678.506	80.009	19.994	103.848	20.054	2.224	0.551
1194.500	678.748	80.008	19.993	103.848	20.055	2.113	0.544
1195.001	678.992	80.006	19.995	103.847	20.051	2.376	0.507
1195.501	679.242	80.008	19.994	103.847	20.055	2.149	0.489
1196.000	679.511	80.009	19.993	103.848	20.057	1.998	0.506
1196.500	679.781	80.009	19.994	103.848	20.056	2.036	0.529
1197.000	679.982	80.011	19.993	103.848	20.058	1.938	0.506
1197.500	680.266	80.007	19.994	103.847	20.057	1.980	0.478
1198.000	680.474	80.007	19.994	103.847	20.057	2.013	0.488
1198.500	680.726	80.010	19.994	103.845	20.056	2.093	0.476
1199.000	681.010	80.006	19.994	103.844	20.056	2.058	0.498
1199.500	681.222	80.005	19.994	103.845	20.057	2.003	0.515
1200.000	681.520	80.009	19.995	103.848	20.055	2.118	0.503
1200.500	681.773	80.006	19.994	103.849	20.058	1.905	0.531
1201.000	682.027	80.010	19.994	103.850	20.055	2.156	0.529
1201.500	682.267	80.010	19.993	103.850	20.055	2.137	0.501
1202.000	682.549	80.010	19.993	103.851	20.057	1.987	0.508
1202.500	682.840	80.009	19.994	103.850	20.058	1.955	0.548
1203.000	683.072	80.009	19.995	103.850	20.057	1.995	0.548
1203.500	683.304	80.009	19.993	103.855	20.056	2.058	0.493
1204.001	683.586	80.010	19.994	103.863	20.054	2.174	0.489
1204.501	683.832	80.008	19.994	103.869	20.057	2.016	0.521
1205.000	684.108	80.009	19.993	103.875	20.056	2.077	0.525
1205.500	684.343	80.010	19.993	103.882	20.059	1.817	0.517
1206.000	684.613	80.008	19.994	103.884	20.054	2.214	0.508
1206.500	684.843	80.007	19.994	103.884	20.057	2.024	0.502
1207.000	685.116	80.010	19.994	103.884	20.058	1.893	0.501
1207.500	685.372	80.009	19.995	103.881	20.057	1.970	0.516
1208.001	685.576	80.010	19.994	103.874	20.056	2.064	0.495
1208.501	685.889	80.012	19.993	103.865	20.055	2.147	0.489
1209.000	686.122	80.010	19.993	103.857	20.055	2.139	0.532
1209.500	686.375	80.011	19.994	103.850	20.055	2.149	0.516
1210.000	686.638	80.009	19.995	103.847	20.056	2.043	0.501
1210.500	686.935	80.014	19.994	103.847	20.057	2.022	0.538
1211.000	687.152	80.010	19.993	103.848	20.054	2.212	0.537
1211.501	687.395	80.010	19.993	103.848	20.057	2.019	0.487
1212.001	687.639	80.009	19.993	103.848	20.057	1.990	0.473
1212.500	687.886	80.005	19.994	103.849	20.059	1.884	0.489
1213.000	688.141	80.011	19.994	103.849	20.056	2.057	0.497
1213.501	688.393	80.009	19.993	103.851	20.055	2.114	0.504
1214.001	688.657	80.012	19.995	103.851	20.055	2.164	0.511
1214.500	688.936	80.013	19.994	103.852	20.057	2.005	0.529
1215.000	689.196	80.010	19.994	103.851	20.058	1.928	0.541
1215.500	689.420	80.011	19.994	103.848	20.053	2.271	0.512
1216.000	689.687	80.010	19.994	103.841	20.057	1.970	0.488
1216.500	689.932	80.008	19.994	103.839	20.052	2.338	0.501
1217.001	690.206	80.005	19.994	103.839	20.056	2.077	0.515
1217.501	690.463	80.010	19.992	103.838	20.055	2.133	0.525
1218.000	690.702	80.010	19.994	103.842	20.055	2.147	0.514
1218.500	690.952	80.003	19.995	103.848	20.054	2.191	0.493
1219.000	691.191	80.008	19.994	103.852	20.053	2.291	0.489
1219.500	691.474	80.009	19.995	103.852	20.055	2.108	0.505
1220.000	691.688	80.005	19.995	103.852	20.057	1.999	0.509
1220.500	691.981	80.007	19.994	103.850	20.056	2.037	0.502
1221.000	692.198	80.008	19.996	103.855	20.054	2.225	0.508
1221.500	692.504	80.008	19.995	103.861	20.054	2.170	0.516
1222.000	692.717	80.004	19.994	103.867	20.056	2.053	0.521
1222.500	692.963	80.008	19.995	103.875	20.056	2.037	0.489
1223.001	693.269	80.009	19.994	103.882	20.056	2.037	0.506
1223.501	693.492	80.009	19.994	103.883	20.052	2.308	0.541
1224.001	693.771	80.005	19.995	103.877	20.055	2.152	0.516
1224.501	694.027	80.009	19.994	103.868	20.055	2.147	0.518
1225.000	694.256	80.006	19.994	103.861	20.053	2.302	0.510
1225.500	694.521	80.008	19.994	103.846	20.052	2.315	0.489
1226.000	694.761	80.008	19.994	103.831	20.054	2.210	0.500
1226.501	695.046	80.009	19.994	103.826	20.055	2.128	0.515
1227.001	695.269	80.010	19.995	103.828	20.055	2.101	0.516
1227.500	695.554	80.009	19.995	103.830	20.056	2.074	0.508
1228.000	695.790	80.007	19.994	103.837	20.054	2.178	0.515
1228.500	696.074	80.009	19.994	103.846	20.058	1.919	0.521
1229.000	696.344	80.010	19.994	103.850	20.057	2.017	0.537
1229.500	696.546	80.008	19.994	103.849	20.056	2.049	0.513
1230.000	696.800	80.007	19.994	103.848	20.054	2.207	0.463
1230.500	697.057	80.008	19.994	103.850	20.053	2.262	0.483
1231.000	697.349	80.015	19.993	103.853	20.053	2.289	0.530
1231.500	697.547	80.009	19.994	103.855	20.054	2.216	0.520
1232.001	697.814	80.008	19.994	103.854	20.054	2.212	0.478
1232.501	698.071	80.007	19.995	103.854	20.055	2.164	0.495
1233.001	698.336	80.007	19.994	103.852	20.056	2.093	0.523
1233.500	698.565	80.008	19.994	103.849	20.054	2.233	0.508
1234.000	698.811	80.003	19.996	103.846	20.052	2.362	0.484
1234.500	699.084	80.007	19.994	103.845	20.050	2.481	0.497
1235.000	699.311	80.006	19.995	103.845	20.053	2.245	0.510
1235.501	699.571	80.007	19.995	103.845	20.053	2.237	0.493
1236.001	699.841	80.009	19.995	103.846	20.054	2.207	0.509
1236.501	700.092	80.007	19.994	103.846	20.054	2.172	0.526
1237.000	700.326	80.004	19.995	103.849	20.055	2.139	0.503
1237.500	700.580	80.005	19.995	103.855	20.055	2.120	0.487
1238.000	700.882	80.007	19.995	103.861	20.055	2.116	0.522
1238.500	701.074	80.001	19.997	103.865	20.058	1.955	0.525
1239.001	701.363	80.010	19.995	103.870	20.062	1.677	0.487
1239.501	701.604	80.009	19.995	103.875	20.057	2.022	0.506
1240.000	701.869	80.009	19.995	103.876	20.055	2.162	0.518
1240.501	702.120	80.008	19.995	103.878	20.056	2.055	0.511
1241.001	702.365	80.007	19.995	103.881	20.055	2.095	0.506
1241.500	702.662	80.015	19.993	103.882	20.055	2.108	0.519
1242.000	702.848	80.000	19.997	103.882	20.056	2.028	0.512
1242.501	703.138	80.013	19.994	103.878	20.055	2.164	0.479
1243.001	703.379	80.011	19.994	103.873	20.055	2.116	0.504
1243.500	703.630	80.011	19.995	103.866	20.052	2.310	0.512
1244.001	703.901	80.008	19.996	103.866	20.056	2.049	0.507
1244.501	704.139	80.011	19.997	103.865	20.059	1.834	0.515
1245.000	704.374	80.008	19.996	103.867	20.055	2.101	0.491
1245.500	704.633	80.006	19.996	103.871	20.054	2.168	0.484
1246.000	704.887	80.007	19.997	103.875	20.054	2.173	0.504
1246.500	705.148	80.007	19.996	103.872	20.052	2.310	0.514
1247.000	705.431	80.008	19.995	103.868	20.058	1.924	0.529
1247.500	705.685	80.012	19.994	103.861	20.055	2.122	0.540
1248.001	705.883	80.007	19.994	103.856	20.054	2.172	0.495
1248.501	706.153	80.007	19.995	103.851	20.056	2.072	0.460
1249.000	706.394	80.005	19.996	103.847	20.054	2.197	0.489
1249.500	706.647	80.007	19.995	103.846	20.057	1.980	0.502
1250.000	706.892	80.001	19.997	103.847	20.056	2.062	0.496
1250.500	707.166	80.011	19.995	103.844	20.054	2.183	0.509
1251.000	707.471	80.008	19.995	103.844	20.055	2.162	0.549
1251.500	707.712	80.009	19.996	103.847	20.055	2.103	0.562
1252.000	707.949	80.008	19.996	103.846	20.054	2.183	0.512
1252.500	708.213	80.007	19.995	103.845	20.057	1.992	0.490
1253.000	708.456	80.007	19.995	103.851	20.053	2.295	0.504
1253.500	708.718	80.007	19.995	103.857	20.052	2.312	0.506
1254.000	708.963	80.008	19.994	103.858	20.055	2.164	0.506
1254.500	709.190	80.005	19.994	103.859	20.057	1.959	0.489
1255.000	709.473	80.007	19.995	103.859	20.055	2.133	0.491
1255.501	709.751	80.008	19.995	103.854	20.052	2.333	0.536
1256.001	710.020	80.005	19.995	103.849	20.051	2.427	0.554
1256.500	710.233	80.007	19.995	103.845	20.050	2.496	0.514
1257.000	710.488	80.008	19.994	103.846	20.052	2.335	0.475
1257.500	710.731	80.009	19.994	103.847	20.050	2.458	0.483
1258.000	711.020	80.007	19.995	103.848	20.051	2.419	0.515
1258.500	711.243	80.008	19.994	103.849	20.053	2.300	0.522
1259.001	711.498	80.011	19.994	103.849	20.054	2.223	0.495
1259.501	711.794	80.005	19.994	103.849	20.054	2.223	0.515
1260.000	712.011	80.006	19.994	103.849	20.054	2.200	0.532
1260.500	712.274	80.009	19.994	103.852	20.053	2.243	0.496
1261.000	712.560	80.013	19.993	103.856	20.057	1.988	0.514
1261.500	712.797	80.009	19.994	103.863	20.057	1.969	0.536
1262.001	713.066	80.009	19.993	103.863	20.056	2.063	0.515
1262.501	713.327	80.001	19.994	103.865	20.053	2.289	0.518
1263.000	713.586	80.011	19.994	103.866	20.052	2.324	0.525
1263.500	713.848	80.010	19.994	103.864	20.058	1.932	0.521
1264.000	714.045	80.008	19.994	103.861	20.053	2.303	0.490
1264.500	714.350	80.010	19.994	103.862	20.056	2.032	0.481
1265.000	714.598	80.009	19.994	103.859	20.053	2.274	0.528
1265.500	714.867	80.007	19.995	103.855	20.053	2.276	0.535
1266.000	715.125	80.008	19.994	103.852	20.053	2.262	0.522
1266.500	715.369	80.009	19.993	103.851	20.055	2.128	0.514
1267.000	715.646	80.010	19.993	103.850	20.057	2.015	0.512
1267.500	715.889	80.011	19.993	103.852	20.057	2.005	0.521
1268.000	716.130	80.010	19.993	103.853	20.058	1.904	0.502
1268.500	716.395	80.009	19.993	103.855	20.053	2.293	0.495
1269.000	716.670	80.009	19.993	103.853	20.056	2.093	0.523
1269.500	716.915	80.010	19.994	103.855	20.056	2.074	0.530
1270.000	717.169	80.009	19.994	103.853	20.057	1.959	0.510
1270.500	717.403	80.010	19.993	103.853	20.054	2.222	0.493
1271.000	717.674	80.009	19.993	103.854	20.058	1.932	0.496
1271.500	717.928	80.007	19.993	103.853	20.060	1.775	0.515
1272.000	718.190	80.009	19.993	103.857	20.055	2.145	0.520
1272.500	718.430	80.010	19.994	103.864	20.053	2.235	0.509
1273.000	718.716	80.008	19.993	103.870	20.054	2.218	0.514
1273.500	719.000	80.010	19.993	103.872	20.054	2.210	0.548
1274.000	719.219	80.007	19.993	103.878	20.057	1.993	0.537
1274.500	719.466	80.009	19.993	103.878	20.054	2.170	0.484
1275.000	719.742	80.010	19.994	103.874	20.058	1.899	0.495
1275.500	720.003	80.008	19.994	103.872	20.054	2.166	0.530
1276.000	720.262	80.008	19.993	103.871	20.057	1.995	0.528
1276.500	720.500	80.008	19.994	103.867	20.056	2.038	0.508
1277.000	720.736	80.008	19.994	103.868	20.056	2.055	0.486
1277.500	721.051	80.008	19.993	103.872	20.055	2.160	0.512
1278.001	721.279	80.010	19.994	103.874	20.055	2.103	0.547
1278.501	721.515	80.009	19.994	103.877	20.057	1.961	0.504
1279.000	721.754	80.008	19.994	103.880	20.058	1.945	0.469
1279.500	722.027	80.009	19.994	103.874	20.054	2.195	0.493
1280.000	722.295	80.009	19.994	103.871	20.056	2.081	0.527
1280.500	722.562	80.008	19.993	103.869	20.058	1.947	0.538
1281.000	722.781	80.008	19.994	103.864	20.055	2.156	0.510
1281.500	723.016	80.006	19.994	103.859	20.056	2.043	0.470
1282.000	723.297	80.010	19.993	103.858	20.056	2.079	0.485
1282.500	723.529	80.007	19.993	103.855	20.055	2.095	0.514
1283.000	723.792	80.008	19.994	103.853	20.060	1.805	0.504
1283.500	724.007	80.009	19.994	103.856	20.061	1.700	0.487
1284.000	724.283	80.009	19.994	103.858	20.060	1.792	0.485
1284.500	724.533	80.008	19.994	103.859	20.059	1.863	0.509
1285.001	724.811	80.009	19.994	103.860	20.060	1.815	0.527
1285.501	725.031	80.009	19.994	103.863	20.062	1.675	0.513
1286.000	725.300	80.009	19.994	103.865	20.057	1.999	0.493
1286.500	725.539	80.009	19.994	103.866	20.056	2.028	0.498
1287.000	725.771	80.010	19.994	103.867	20.058	1.943	0.490
1287.500	726.038	80.008	19.995	103.864	20.058	1.918	0.485
1288.000	726.247	80.009	19.994	103.858	20.057	2.014	0.487
1288.500	726.476	80.010	19.993	103.855	20.058	1.947	0.457
1289.000	726.768	80.009	19.993	103.851	20.059	1.870	0.479
1289.500	727.018	80.013	19.994	103.848	20.055	2.147	0.531
1290.000	727.247	80.009	19.994	103.848	20.054	2.218	0.510
1290.500	727.475	80.013	19.994	103.848	20.056	2.026	0.468
1291.001	727.772	80.011	19.993	103.847	20.057	1.993	0.491
1291.501	727.999	80.011	19.993	103.847	20.053	2.241	0.525
1292.000	728.279	80.013	19.993	103.848	20.055	2.147	0.516
1292.500	728.508	80.010	19.993	103.848	20.053	2.270	0.508
1293.000	728.775	80.010	19.993	103.847	20.056	2.070	0.502
1293.500	729.029	80.010	19.993	103.847	20.057	2.022	0.508
1294.000	729.202	80.008	19.993	103.847	20.054	2.218	0.474
1294.500	729.525	80.013	19.993	103.846	20.055	2.105	0.462
1295.000	729.756	80.012	19.993	103.845	20.050	2.461	0.525
1295.500	730.045	80.011	19.994	103.847	20.053	2.256	0.537
1296.000	730.268	80.010	19.993	103.847	20.053	2.258	0.516
1296.500	730.558	80.012	19.993	103.850	20.052	2.312	0.512
1297.000	730.834	80.011	19.993	103.850	20.053	2.255	0.539
1297.500	731.057	80.010	19.994	103.850	20.053	2.264	0.532
1298.001	731.331	80.009	19.993	103.848	20.054	2.226	0.498
1298.501	731.576	80.009	19.993	103.849	20.053	2.297	0.508
1299.001	731.862	80.011	19.993	103.851	20.054	2.223	0.525
1299.500	732.058	80.010	19.994	103.853	20.054	2.175	0.506
1300.000	732.330	80.009	19.994	103.853	20.057	1.993	0.475
1300.500	732.576	80.008	19.993	103.854	20.056	2.035	0.493
1301.001	732.852	80.009	19.994	103.857	20.055	2.164	0.520
1301.501	733.083	80.009	19.994	103.853	20.053	2.252	0.515
1302.000	733.334	80.008	19.995	103.856	20.053	2.246	0.495
1302.500	733.603	80.009	19.994	103.863	20.057	1.989	0.501
1303.000	733.856	80.008	19.994	103.869	20.056	2.043	0.521
1303.500	734.108	80.008	19.993	103.872	20.054	2.177	0.514
1304.000	734.338	80.007	19.993	103.873	20.055	2.120	0.493
1304.500	734.620	80.009	19.994	103.870	20.054	2.172	0.496
1305.000	734.875	80.008	19.993	103.868	20.058	1.946	0.525
1305.501	735.093	80.009	19.993	103.862	20.057	1.982	0.506
1306.001	735.355	80.009	19.995	103.856	20.056	2.039	0.477
1306.500	735.599	80.008	19.995	103.858	20.057	1.968	0.493
1307.000	735.847	80.009	19.994	103.864	20.054	2.183	0.499
1307.500	736.130	80.007	19.994	103.865	20.055	2.145	0.511
1308.000	736.329	80.006	19.994	103.869	20.056	2.045	0.507
1308.500	736.614	80.008	19.993	103.869	20.056	2.028	0.483
1309.000	736.844	80.008	19.994	103.866	20.058	1.888	0.499
1309.501	737.112	80.009	19.995	103.859	20.056	2.035	0.506
1310.001	737.384	80.008	19.994	103.853	20.057	1.966	0.519
1310.500	737.639	80.009	19.993	103.845	20.055	2.148	0.533
1311.000	737.889	80.009	19.995	103.846	20.057	1.999	0.516
1311.500	738.161	80.008	19.995	103.847	20.059	1.884	0.514
1312.001	738.424	80.008	19.994	103.844	20.059	1.876	0.529
1312.501	738.657	80.008	19.995	103.837	20.059	1.830	0.515
1313.000	738.900	80.007	19.994	103.837	20.059	1.884	0.486
1313.500	739.210	80.007	19.994	103.830	20.058	1.909	0.514
1314.000	739.459	80.008	19.994	103.833	20.056	2.051	0.556
1314.500	739.699	80.008	19.996	103.844	20.058	1.932	0.524
1315.001	739.946	80.010	19.994	103.854	20.058	1.953	0.488
1315.501	740.200	80.006	19.995	103.861	20.059	1.886	0.494
1316.001	740.442	80.006	19.994	103.872	20.057	2.022	0.499
1316.501	740.710	80.008	19.995	103.869	20.061	1.709	0.503
1317.000	740.972	80.007	19.995	103.861	20.058	1.918	0.520
1317.500	741.220	80.008	19.994	103.857	20.059	1.828	0.520
1318.000	741.501	80.007	19.995	103.853	20.057	1.987	0.519
1318.500	741.726	80.006	19.995	103.847	20.056	2.028	0.518
1319.000	742.015	80.008	19.994	103.846	20.059	1.880	0.510
1319.500	742.213	80.008	19.995	103.845	20.059	1.824	0.501
1320.000	742.547	80.007	19.995	103.843	20.055	2.094	0.510
1320.500	742.790	80.006	19.995	103.842	20.057	2.010	0.555
1321.000	743.028	80.008	19.995	103.841	20.057	1.964	0.529
1321.500	743.292	80.007	19.994	103.834	20.058	1.922	0.492
1322.000	743.534	80.008	19.995	103.834	20.058	1.908	0.504
