Sample ID:	C:\MCC\MCC Cal\Test\Fiberboard_Pressed_Paper_MCC_30K_min_211005_R3.txt
Sample Weight (mg):	4.63
Heating Rate (C/s):	0.5
Combustor Temp (C):	900
N2 Flow Rate (cc/min):	80
O2 Flow Rate (cc/min):	20
Calibration File:	C:\MCC\MCC Cal\Coeff1 JN10440_30_210304.txt.txt
T Correction Coefficients:	0	1.024463	0
Time Shift (s):	14
*
Time (s)	Temperature (C)	N2 flow rate (cc/min)	O2 flow rate (cc/min)	Flow Rate (cc/min)	Oxygen (%)	HRR (W/g)	Heating rate (C/s)
0.000	108.088	79.995	19.998	100.810	20.042	-0.028	-0.020
0.499	108.090	79.995	19.997	100.812	20.043	-0.037	-0.012
1.000	108.075	79.995	19.998	100.818	20.042	0.033	-0.004
1.500	108.100	79.997	19.997	100.822	20.044	-0.118	-0.002
2.000	108.076	79.995	19.997	100.823	20.040	0.120	0.005
2.500	108.071	79.995	19.996	100.823	20.041	0.039	-0.014
3.000	108.080	79.995	19.996	100.823	20.042	-0.018	-0.013
3.500	108.090	79.997	19.995	100.822	20.040	0.145	0.012
4.000	108.061	79.995	19.996	100.823	20.042	0.037	0.000
4.500	108.063	79.996	19.996	100.822	20.040	0.129	-0.023
5.000	108.081	79.996	19.997	100.820	20.039	0.221	-0.003
5.500	108.072	79.996	19.996	100.816	20.040	0.140	0.015
6.000	108.056	79.995	19.996	100.814	20.043	-0.046	-0.008
6.500	108.060	79.996	19.995	100.812	20.045	-0.184	-0.018
7.000	108.079	79.996	19.996	100.808	20.046	-0.246	0.006
7.500	108.085	79.996	19.996	100.809	20.043	-0.033	0.024
8.000	108.096	79.996	19.995	100.813	20.041	0.050	0.021
8.500	108.087	79.996	19.997	100.815	20.044	-0.143	0.009
9.000	108.087	79.997	19.996	100.817	20.045	-0.199	-0.003
9.500	108.077	79.997	19.996	100.819	20.042	-0.018	-0.009
10.000	108.048	79.996	19.996	100.821	20.043	-0.086	-0.024
10.500	108.076	79.998	19.998	100.822	20.043	-0.053	-0.020
11.000	108.063	79.997	19.995	100.822	20.045	-0.201	0.007
11.500	108.035	79.997	19.996	100.823	20.043	-0.068	-0.013
12.000	108.074	79.997	19.994	100.824	20.040	0.156	-0.015
12.500	108.027	79.997	19.996	100.825	20.042	0.029	0.002
13.000	108.029	79.997	19.996	100.830	20.043	-0.044	-0.026
13.500	108.029	79.998	19.995	100.836	20.040	0.162	-0.022
14.000	108.075	79.996	19.997	100.843	20.042	-0.028	0.024
14.500	108.037	79.997	19.995	100.849	20.040	0.121	0.027
15.000	108.039	79.998	19.996	100.855	20.039	0.206	-0.014
15.500	108.071	79.996	19.996	100.857	20.039	0.182	-0.001
16.000	108.055	79.998	19.995	100.858	20.038	0.287	0.025
16.500	108.051	79.997	19.996	100.860	20.039	0.239	-0.002
17.000	108.071	79.996	19.996	100.862	20.039	0.186	-0.002
17.500	108.061	79.998	19.995	100.863	20.040	0.164	0.013
18.000	108.052	79.997	19.995	100.863	20.039	0.217	-0.005
18.500	108.049	79.997	19.994	100.863	20.037	0.377	-0.016
19.000	108.055	79.996	19.996	100.863	20.038	0.306	-0.005
19.500	108.089	79.996	19.996	100.863	20.036	0.398	0.021
20.000	108.102	79.997	19.995	100.862	20.034	0.525	0.043
20.500	108.096	79.997	19.995	100.862	20.035	0.479	0.027
21.000	108.118	79.997	19.995	100.863	20.033	0.611	0.012
21.500	108.173	79.997	19.996	100.862	20.034	0.554	0.047
22.000	108.117	79.996	19.995	100.862	20.035	0.460	0.038
22.500	108.127	79.996	19.995	100.864	20.034	0.556	-0.024
23.000	108.148	79.997	19.995	100.865	20.037	0.342	-0.008
23.500	108.172	79.996	19.996	100.873	20.038	0.291	0.038
24.000	108.179	79.997	19.996	100.881	20.033	0.584	0.038
24.500	108.184	79.995	19.997	100.889	20.031	0.735	0.022
25.000	108.232	79.997	19.995	100.897	20.034	0.562	0.032
25.500	108.232	79.996	19.995	100.900	20.034	0.576	0.050
26.000	108.273	79.995	19.997	100.894	20.033	0.619	0.045
26.500	108.245	79.996	19.996	100.893	20.029	0.855	0.027
27.000	108.302	79.996	19.996	100.890	20.031	0.775	0.021
27.500	108.262	79.997	19.996	100.889	20.033	0.599	0.023
28.000	108.325	79.996	19.996	100.892	20.030	0.792	0.020
28.500	108.344	79.996	19.995	100.898	20.027	0.997	0.053
29.000	108.386	79.997	19.995	100.905	20.028	0.976	0.072
29.500	108.373	79.996	19.996	100.914	20.025	1.148	0.045
30.000	108.430	79.996	19.996	100.924	20.026	1.115	0.036
30.500	108.402	79.998	19.996	100.932	20.026	1.096	0.037
31.000	108.459	79.997	19.996	100.939	20.026	1.069	0.029
31.500	108.505	79.996	19.996	100.942	20.023	1.308	0.066
32.000	108.550	79.996	19.997	100.942	20.022	1.367	0.097
32.499	108.558	79.997	19.996	100.944	20.022	1.332	0.072
32.999	108.594	79.996	19.996	100.951	20.021	1.407	0.049
33.499	108.577	79.998	19.996	100.958	20.020	1.499	0.032
33.999	108.626	79.997	19.995	100.965	20.018	1.612	0.026
34.499	108.662	79.996	19.997	100.973	20.019	1.566	0.058
34.999	108.745	79.998	19.997	100.979	20.016	1.790	0.102
35.499	108.765	79.997	19.996	100.979	20.015	1.822	0.111
35.999	108.803	79.996	19.996	100.982	20.015	1.860	0.081
36.499	108.861	79.996	19.997	100.984	20.015	1.823	0.077
36.999	108.904	79.997	19.996	100.985	20.015	1.868	0.098
37.499	108.951	79.998	19.996	100.987	20.013	2.008	0.095
37.999	109.042	79.997	19.996	100.991	20.012	2.074	0.114
38.499	109.042	79.998	19.996	100.996	20.013	1.998	0.115
38.999	109.117	79.998	19.996	101.001	20.009	2.236	0.083
39.499	109.168	79.997	19.996	101.008	20.009	2.236	0.100
39.999	109.221	79.998	19.995	101.015	20.008	2.312	0.115
40.499	109.251	79.998	19.995	101.017	20.010	2.208	0.094
40.999	109.366	79.998	19.995	101.018	20.010	2.162	0.114
41.499	109.429	79.998	19.996	101.018	20.011	2.142	0.161
41.999	109.470	79.998	19.996	101.017	20.010	2.148	0.141
42.499	109.502	79.997	19.995	101.010	20.009	2.240	0.088
42.999	109.609	79.998	19.996	101.004	20.009	2.262	0.106
43.499	109.690	79.997	19.996	100.998	20.011	2.082	0.164
43.999	109.753	79.997	19.996	100.996	20.013	1.995	0.166
44.499	109.804	79.999	19.996	100.994	20.013	2.003	0.129
44.999	109.874	79.998	19.996	100.993	20.010	2.187	0.117
45.499	109.945	79.997	19.996	100.993	20.011	2.143	0.131
45.999	110.033	79.996	19.996	100.992	20.012	2.060	0.150
46.499	110.118	79.997	19.996	100.988	20.012	2.034	0.166
46.999	110.171	79.997	19.995	100.984	20.011	2.095	0.156
47.499	110.281	79.996	19.996	100.985	20.016	1.806	0.150
47.999	110.340	79.998	19.996	100.986	20.014	1.909	0.165
48.499	110.423	79.998	19.996	100.986	20.010	2.163	0.155
48.999	110.508	79.997	19.995	100.987	20.012	2.016	0.155
49.500	110.602	79.995	19.995	100.991	20.010	2.215	0.174
50.001	110.663	79.997	19.997	100.990	20.010	2.172	0.167
50.501	110.751	79.996	19.995	100.990	20.012	2.014	0.152
51.001	110.819	79.996	19.996	100.992	20.012	2.064	0.153
51.500	110.932	79.996	19.996	100.995	20.012	2.058	0.169
52.000	110.991	79.997	19.994	100.991	20.013	1.992	0.176
52.500	111.092	79.997	19.996	100.992	20.012	2.075	0.166
53.000	111.176	79.997	19.996	100.994	20.011	2.135	0.172
53.500	111.226	79.997	19.996	100.997	20.012	2.076	0.159
54.000	111.342	79.997	19.996	101.000	20.008	2.334	0.150
54.500	111.450	79.998	19.996	101.007	20.009	2.261	0.195
55.000	111.532	79.997	19.997	101.013	20.008	2.344	0.207
55.500	111.606	79.996	19.997	101.019	20.010	2.198	0.173
56.000	111.695	79.997	19.996	101.022	20.007	2.412	0.159
56.500	111.861	79.997	19.996	101.022	20.010	2.200	0.209
57.000	111.930	79.998	19.995	101.022	20.010	2.206	0.245
57.500	112.051	79.996	19.996	101.022	20.010	2.195	0.213
58.000	112.156	79.999	19.997	101.023	20.010	2.200	0.208
58.500	112.269	80.000	19.996	101.023	20.010	2.164	0.222
59.000	112.341	79.997	19.997	101.023	20.011	2.107	0.202
59.500	112.462	79.999	19.996	101.023	20.007	2.396	0.189
60.000	112.557	79.999	19.996	101.022	20.009	2.223	0.205
60.500	112.670	79.998	19.995	101.020	20.008	2.311	0.212
61.000	112.790	79.998	19.997	101.021	20.008	2.335	0.221
61.500	112.944	79.999	19.995	101.024	20.006	2.462	0.254
62.000	113.002	79.998	19.996	101.024	20.006	2.475	0.243
62.500	113.125	79.998	19.996	101.026	20.006	2.457	0.197
63.000	113.217	79.998	19.997	101.026	20.006	2.453	0.199
63.500	113.315	79.999	19.997	101.024	20.004	2.569	0.202
64.000	113.431	80.000	19.996	101.021	20.006	2.472	0.202
64.500	113.588	79.998	19.996	101.022	20.003	2.630	0.244
65.000	113.720	79.999	19.997	101.020	20.002	2.719	0.281
65.500	113.825	79.999	19.996	101.022	19.999	2.945	0.263
66.000	113.967	79.999	19.996	101.028	20.000	2.868	0.242
66.500	114.057	79.999	19.996	101.029	20.000	2.888	0.239
67.000	114.211	79.999	19.996	101.033	19.999	2.938	0.238
67.500	114.281	79.998	19.996	101.040	20.001	2.815	0.234
68.000	114.438	79.998	19.996	101.042	20.002	2.702	0.225
68.500	114.562	79.998	19.996	101.044	20.000	2.854	0.254
69.000	114.686	79.998	19.997	101.049	19.999	2.926	0.265
69.500	114.831	79.998	19.996	101.052	19.999	2.926	0.259
70.000	114.962	79.998	19.996	101.052	19.997	3.062	0.272
70.500	115.093	79.997	19.996	101.055	19.997	3.079	0.269
71.000	115.231	79.998	19.996	101.056	19.996	3.163	0.265
71.500	115.382	79.997	19.996	101.058	19.996	3.117	0.279
72.000	115.526	79.996	19.995	101.058	19.999	2.953	0.292
72.500	115.656	79.998	19.995	101.061	19.999	2.949	0.284
73.000	115.793	79.998	19.995	101.062	19.997	3.078	0.270
73.500	115.899	79.996	19.995	101.062	19.998	2.999	0.255
74.000	116.108	79.998	19.994	101.062	19.996	3.161	0.279
74.500	116.235	79.997	19.996	101.061	19.994	3.239	0.325
75.000	116.330	79.996	19.996	101.059	19.996	3.158	0.279
75.500	116.511	79.996	19.994	101.058	19.995	3.189	0.249
76.000	116.690	79.997	19.996	101.060	19.994	3.280	0.318
76.500	116.830	79.996	19.997	101.060	19.995	3.173	0.339
77.000	116.955	79.996	19.995	101.060	19.994	3.241	0.292
77.500	117.121	79.997	19.995	101.062	19.996	3.130	0.278
78.000	117.282	79.997	19.996	101.068	19.996	3.169	0.309
78.500	117.437	79.997	19.995	101.069	19.995	3.189	0.321
79.000	117.581	79.994	19.996	101.071	19.995	3.171	0.308
79.500	117.747	79.996	19.996	101.074	19.995	3.222	0.304
80.000	117.874	79.997	19.995	101.080	19.996	3.169	0.302
80.500	118.015	79.996	19.995	101.076	19.995	3.187	0.281
81.000	118.184	79.996	19.997	101.076	19.995	3.189	0.289
81.500	118.345	79.997	19.995	101.078	19.993	3.373	0.320
82.000	118.536	79.996	19.995	101.077	19.996	3.141	0.342
82.500	118.702	79.996	19.995	101.072	19.994	3.280	0.355
83.000	118.909	79.998	19.996	101.072	19.996	3.167	0.365
83.500	119.039	79.996	19.997	101.070	19.994	3.274	0.354
84.000	119.223	79.996	19.995	101.068	19.992	3.431	0.326
84.500	119.393	79.997	19.995	101.071	19.995	3.195	0.335
85.000	119.550	79.997	19.996	101.076	19.992	3.390	0.340
85.500	119.708	79.997	19.996	101.076	19.993	3.309	0.320
86.000	119.905	79.998	19.997	101.077	19.992	3.433	0.335
86.500	120.076	79.997	19.995	101.082	19.994	3.298	0.361
87.000	120.267	79.996	19.996	101.082	19.992	3.442	0.365
87.500	120.433	79.997	19.997	101.079	19.991	3.497	0.360
88.000	120.612	79.997	19.995	101.076	19.990	3.512	0.352
88.500	120.768	79.996	19.995	101.077	19.993	3.331	0.341
89.000	120.973	79.997	19.997	101.077	19.995	3.204	0.348
89.500	121.130	79.997	19.995	101.073	19.993	3.307	0.361
90.000	121.321	79.996	19.996	101.071	19.992	3.420	0.355
90.500	121.494	79.998	19.996	101.077	19.996	3.116	0.356
91.000	121.695	79.997	19.994	101.078	19.994	3.252	0.369
91.500	121.857	79.996	19.996	101.075	19.997	3.103	0.368
92.000	122.051	79.995	19.997	101.073	19.994	3.275	0.359
92.500	122.275	79.997	19.996	101.077	19.995	3.182	0.387
93.000	122.496	79.997	19.995	101.078	19.996	3.107	0.432
93.500	122.674	79.996	19.995	101.080	19.992	3.426	0.422
94.000	122.852	79.997	19.995	101.085	19.991	3.457	0.377
94.500	123.055	79.996	19.996	101.091	19.993	3.339	0.368
95.000	123.210	79.997	19.996	101.093	19.994	3.287	0.370
95.500	123.413	79.998	19.996	101.088	19.997	3.103	0.358
96.000	123.622	79.997	19.995	101.083	19.993	3.321	0.385
96.500	123.793	79.997	19.995	101.083	19.991	3.466	0.396
97.000	124.003	79.996	19.995	101.080	19.996	3.160	0.381
97.500	124.193	79.995	19.996	101.080	19.992	3.418	0.391
98.000	124.403	79.996	19.996	101.084	19.992	3.431	0.400
98.501	124.617	79.996	19.995	101.084	19.994	3.249	0.411
99.000	124.784	79.996	19.996	101.085	19.993	3.319	0.402
99.500	124.995	79.997	19.995	101.089	19.991	3.460	0.379
100.000	125.199	79.996	19.995	101.089	19.994	3.250	0.396
100.500	125.361	79.996	19.994	101.088	19.994	3.255	0.391
101.000	125.586	79.996	19.995	101.090	19.994	3.248	0.377
101.500	125.836	79.995	19.995	101.090	19.996	3.165	0.431
102.000	126.009	79.996	19.996	101.089	19.996	3.121	0.449
102.500	126.237	79.996	19.995	101.091	19.996	3.108	0.413
103.000	126.458	79.995	19.995	101.095	19.995	3.197	0.425
103.500	126.648	79.996	19.996	101.098	19.994	3.300	0.430
104.000	126.836	79.996	19.995	101.095	19.994	3.251	0.394
104.500	127.039	79.995	19.996	101.097	19.996	3.150	0.384
105.000	127.256	79.996	19.995	101.097	19.993	3.353	0.406
105.500	127.448	79.997	19.995	101.096	19.993	3.368	0.415
106.000	127.675	79.996	19.995	101.095	19.996	3.156	0.414
106.500	127.900	79.996	19.995	101.096	19.990	3.521	0.435
107.000	128.123	79.996	19.994	101.092	19.991	3.451	0.450
107.500	128.300	79.996	19.995	101.091	19.993	3.348	0.424
108.000	128.494	79.995	19.995	101.091	19.994	3.276	0.385
108.500	128.715	79.996	19.995	101.091	19.994	3.252	0.393
109.000	128.980	79.995	19.995	101.094	19.994	3.274	0.451
109.500	129.165	79.996	19.995	101.093	19.993	3.307	0.468
110.000	129.362	79.996	19.996	101.087	19.993	3.335	0.416
110.500	129.583	79.996	19.996	101.083	19.995	3.172	0.400
111.000	129.775	79.997	19.995	101.078	19.993	3.309	0.416
111.500	129.995	79.995	19.996	101.076	19.992	3.414	0.412
112.000	130.229	79.996	19.995	101.080	19.993	3.333	0.433
112.500	130.456	79.996	19.996	101.086	19.994	3.296	0.458
113.000	130.639	79.997	19.994	101.084	19.992	3.408	0.435
113.500	130.878	79.997	19.995	101.084	19.993	3.325	0.416
114.000	131.107	79.997	19.995	101.079	19.997	3.080	0.445
114.500	131.360	79.997	19.995	101.072	19.993	3.337	0.475
115.000	131.549	79.996	19.995	101.067	19.997	3.056	0.462
115.500	131.839	79.998	19.996	101.068	19.994	3.289	0.461
116.000	132.046	79.996	19.996	101.068	19.995	3.235	0.488
116.500	132.241	79.998	19.994	101.071	19.992	3.388	0.449
117.000	132.461	79.996	19.995	101.078	19.993	3.373	0.408
117.500	132.692	79.997	19.995	101.084	19.994	3.255	0.434
118.000	132.942	79.999	19.995	101.088	19.994	3.283	0.467
118.500	133.160	79.997	19.993	101.093	19.994	3.263	0.474
119.000	133.360	79.996	19.995	101.095	19.993	3.334	0.443
119.500	133.594	79.997	19.995	101.087	19.992	3.410	0.426
120.000	133.809	79.996	19.995	101.082	19.993	3.331	0.442
120.500	134.021	79.996	19.995	101.076	19.993	3.347	0.438
121.000	134.278	79.997	19.995	101.072	19.992	3.397	0.448
121.500	134.472	79.998	19.996	101.067	19.992	3.391	0.460
122.000	134.736	79.997	19.995	101.069	19.993	3.318	0.455
122.500	134.969	79.996	19.995	101.068	19.992	3.399	0.478
123.000	135.222	79.997	19.995	101.068	19.994	3.249	0.491
123.500	135.447	79.998	19.995	101.066	19.992	3.390	0.482
124.000	135.647	79.997	19.995	101.068	19.996	3.139	0.451
124.500	135.882	79.998	19.996	101.072	19.996	3.148	0.429
125.000	136.105	79.998	19.995	101.076	19.995	3.200	0.446
125.500	136.340	79.997	19.996	101.077	19.995	3.229	0.458
126.000	136.583	79.996	19.997	101.079	19.999	2.918	0.468
126.500	136.808	79.998	19.996	101.079	19.997	3.102	0.473
127.000	137.049	79.997	19.997	101.074	19.999	2.914	0.468
127.500	137.278	79.998	19.996	101.069	19.997	3.071	0.468
128.000	137.526	79.996	19.997	101.069	19.998	2.997	0.473
128.500	137.718	79.997	19.996	101.069	19.997	3.039	0.458
129.000	137.992	79.996	19.996	101.068	19.996	3.139	0.453
129.500	138.196	79.997	19.997	101.067	19.995	3.178	0.472
130.000	138.479	79.997	19.996	101.068	19.998	2.977	0.482
130.500	138.699	79.997	19.997	101.067	19.996	3.122	0.495
131.000	138.870	79.996	19.996	101.064	19.999	2.942	0.447
131.500	139.144	79.996	19.996	101.063	19.997	3.091	0.418
132.000	139.406	79.997	19.995	101.062	19.998	2.978	0.490
132.500	139.630	79.996	19.997	101.061	19.999	2.901	0.511
133.000	139.824	79.997	19.996	101.059	19.994	3.246	0.452
133.500	140.062	79.998	19.997	101.059	19.999	2.905	0.425
134.000	140.272	79.997	19.996	101.060	20.001	2.824	0.440
134.500	140.544	79.998	19.996	101.061	19.997	3.052	0.465
135.000	140.771	79.998	19.996	101.061	19.995	3.209	0.491
135.500	141.020	79.998	19.996	101.061	19.992	3.391	0.487
136.000	141.250	79.998	19.996	101.062	19.995	3.191	0.477
136.500	141.507	79.996	19.996	101.061	19.997	3.052	0.483
137.000	141.731	79.997	19.996	101.062	19.998	2.986	0.484
137.500	141.991	79.998	19.996	101.061	19.997	3.047	0.482
138.000	142.225	79.996	19.995	101.061	19.996	3.148	0.489
138.500	142.467	79.998	19.995	101.060	19.997	3.095	0.485
139.000	142.731	79.997	19.995	101.059	19.997	3.089	0.491
139.500	142.951	79.997	19.996	101.059	20.001	2.774	0.495
140.000	143.229	79.998	19.996	101.059	19.998	3.030	0.491
140.500	143.464	79.997	19.995	101.059	19.998	2.989	0.506
141.000	143.733	79.997	19.996	101.060	19.999	2.965	0.508
141.500	143.979	79.999	19.997	101.060	19.993	3.343	0.510
142.000	144.205	79.998	19.997	101.060	19.997	3.100	0.494
142.500	144.434	79.999	19.997	101.060	19.996	3.148	0.464
143.000	144.696	79.998	19.996	101.060	19.996	3.130	0.473
143.500	144.906	79.998	19.996	101.060	19.995	3.216	0.482
144.000	145.222	79.999	19.995	101.062	19.999	2.932	0.499
144.500	145.426	79.998	19.996	101.061	19.998	3.013	0.523
145.000	145.710	79.999	19.995	101.062	19.999	2.918	0.504
145.500	145.910	80.000	19.997	101.062	19.998	3.025	0.486
146.000	146.152	79.999	19.996	101.061	19.999	2.953	0.463
146.500	146.394	79.999	19.996	101.059	19.999	2.958	0.463
147.000	146.645	79.999	19.996	101.062	19.998	3.010	0.488
147.500	146.877	79.998	19.996	101.062	19.999	2.962	0.487
148.000	147.098	79.998	19.996	101.063	19.996	3.154	0.468
148.500	147.319	79.999	19.996	101.062	19.996	3.133	0.448
149.000	147.570	79.997	19.996	101.063	19.998	3.004	0.457
149.500	147.818	79.998	19.995	101.060	19.999	2.918	0.486
150.000	148.063	79.997	19.996	101.059	19.999	2.940	0.496
150.500	148.281	79.998	19.995	101.057	19.998	2.984	0.478
151.000	148.554	79.996	19.995	101.058	19.997	3.100	0.477
151.500	148.840	79.997	19.996	101.056	19.999	2.932	0.525
152.000	149.088	79.996	19.998	101.055	19.993	3.360	0.546
152.500	149.275	79.996	19.998	101.056	19.997	3.085	0.484
153.000	149.535	79.996	19.997	101.056	19.997	3.058	0.441
153.500	149.811	79.995	19.997	101.057	19.997	3.039	0.491
154.000	150.039	79.996	19.996	101.057	19.998	3.006	0.520
154.500	150.263	79.995	19.996	101.057	19.996	3.141	0.478
155.000	150.538	79.995	19.996	101.057	19.998	3.026	0.475
155.500	150.731	79.996	19.996	101.058	19.998	2.973	0.483
156.000	150.985	79.996	19.997	101.057	19.996	3.132	0.458
156.500	151.248	79.994	19.998	101.058	19.998	2.999	0.482
157.000	151.476	79.995	19.997	101.059	19.998	2.990	0.504
157.500	151.745	79.994	19.996	101.059	19.997	3.052	0.494
158.000	151.982	79.994	19.998	101.058	19.999	2.953	0.502
158.500	152.222	79.996	19.997	101.059	19.997	3.087	0.492
159.000	152.498	79.995	19.996	101.058	19.997	3.098	0.496
159.500	152.719	79.995	19.997	101.058	19.998	2.991	0.506
160.000	153.022	79.996	19.998	101.057	19.998	2.990	0.510
160.500	153.226	79.995	19.996	101.057	19.999	2.934	0.516
161.000	153.457	79.996	19.997	101.058	19.995	3.200	0.471
161.500	153.722	79.997	19.996	101.057	19.999	2.955	0.465
162.000	153.923	79.996	19.996	101.058	19.996	3.128	0.481
162.500	154.168	79.995	19.997	101.059	19.999	2.901	0.456
162.999	154.443	79.995	19.996	101.060	19.995	3.225	0.483
163.500	154.696	79.994	19.996	101.061	19.998	2.984	0.524
164.000	154.899	79.996	19.996	101.062	19.995	3.185	0.492
164.500	155.167	79.996	19.997	101.062	19.998	3.006	0.464
164.999	155.387	79.995	19.996	101.063	19.997	3.035	0.480
165.499	155.659	79.997	19.995	101.063	19.996	3.155	0.490
165.999	155.842	79.996	19.995	101.063	19.996	3.124	0.473
166.499	156.105	79.996	19.995	101.063	19.996	3.109	0.450
166.999	156.337	79.996	19.996	101.062	19.998	3.002	0.471
167.499	156.630	79.996	19.995	101.062	19.994	3.264	0.510
167.999	156.840	79.995	19.996	101.061	19.997	3.079	0.514
168.499	157.098	79.995	19.995	101.061	19.997	3.057	0.486
168.999	157.371	79.995	19.995	101.062	19.998	2.989	0.500
169.499	157.639	79.996	19.996	101.062	19.998	2.989	0.536
169.999	157.880	79.996	19.995	101.061	19.999	2.949	0.525
170.499	158.121	79.996	19.995	101.060	19.997	3.082	0.496
170.999	158.332	79.996	19.996	101.060	19.997	3.083	0.467
171.499	158.561	79.996	19.996	101.060	19.999	2.965	0.446
171.999	158.809	79.995	19.995	101.060	20.000	2.884	0.458
172.499	159.101	79.996	19.996	101.060	19.999	2.952	0.509
172.999	159.336	79.996	19.995	101.062	20.001	2.814	0.533
173.499	159.568	79.996	19.996	101.062	20.000	2.890	0.497
173.999	159.826	79.997	19.995	101.060	20.001	2.766	0.479
174.499	160.105	79.996	19.996	101.059	20.002	2.750	0.514
174.999	160.310	79.996	19.996	101.054	19.998	3.000	0.510
175.499	160.566	79.998	19.995	101.053	20.000	2.842	0.472
175.999	160.793	79.996	19.995	101.050	20.001	2.768	0.472
176.500	161.029	79.996	19.996	101.046	20.002	2.746	0.473
177.001	161.280	79.996	19.995	101.042	20.000	2.846	0.475
177.500	161.536	79.996	19.995	101.043	20.002	2.709	0.497
177.999	161.792	79.996	19.996	101.042	20.002	2.753	0.509
178.499	162.012	79.995	19.996	101.043	20.000	2.892	0.494
178.999	162.269	79.996	19.996	101.047	19.998	3.013	0.477
179.500	162.537	79.995	19.996	101.051	20.001	2.785	0.501
180.000	162.809	79.997	19.995	101.054	19.999	2.907	0.533
180.499	163.020	79.995	19.995	101.054	20.001	2.783	0.511
180.999	163.257	79.995	19.996	101.055	20.000	2.892	0.466
181.499	163.493	79.996	19.996	101.057	19.998	3.006	0.461
181.999	163.749	79.995	19.996	101.053	20.000	2.847	0.483
182.499	164.040	79.996	19.997	101.049	20.002	2.757	0.519
182.999	164.213	79.995	19.995	101.049	19.998	2.983	0.505
183.499	164.542	79.994	19.995	101.048	20.002	2.718	0.483
183.999	164.763	79.996	19.996	101.048	20.000	2.841	0.526
184.499	165.033	79.995	19.997	101.051	19.999	2.915	0.520
184.999	165.264	79.995	19.997	101.053	19.998	3.007	0.496
185.499	165.542	79.995	19.997	101.053	20.000	2.887	0.505
185.999	165.805	79.994	19.995	101.055	20.000	2.897	0.524
186.499	166.032	79.994	19.996	101.055	19.999	2.954	0.515
186.999	166.304	79.995	19.996	101.054	19.997	3.046	0.495
187.499	166.528	79.995	19.995	101.058	19.999	2.946	0.498
187.999	166.770	79.996	19.996	101.055	19.999	2.935	0.481
188.499	167.060	79.996	19.996	101.051	20.000	2.845	0.499
188.999	167.280	79.995	19.996	101.050	19.998	3.029	0.521
189.500	167.518	79.997	19.996	101.051	19.998	2.978	0.484
190.000	167.794	79.996	19.995	101.050	19.997	3.046	0.486
190.500	168.023	79.995	19.997	101.053	19.998	2.985	0.509
190.999	168.254	79.995	19.995	101.057	19.997	3.059	0.482
191.499	168.519	79.996	19.996	101.057	19.995	3.177	0.478
191.999	168.747	79.995	19.995	101.056	19.999	2.921	0.495
192.499	169.015	79.996	19.995	101.054	19.996	3.116	0.495
192.999	169.279	79.997	19.996	101.048	19.998	3.014	0.514
193.499	169.517	79.997	19.995	101.041	19.998	3.027	0.517
193.999	169.749	79.996	19.995	101.039	19.998	3.011	0.486
194.499	170.026	79.996	19.995	101.034	19.999	2.917	0.490
194.999	170.254	79.997	19.996	101.035	19.999	2.930	0.507
195.499	170.527	79.996	19.995	101.035	20.002	2.753	0.503
195.999	170.751	79.998	19.995	101.035	19.996	3.160	0.499
196.499	170.990	79.997	19.995	101.032	19.998	3.013	0.480
196.999	171.244	79.997	19.995	101.031	19.999	2.950	0.478
197.499	171.464	79.998	19.995	101.029	19.999	2.928	0.484
197.999	171.711	79.997	19.995	101.033	20.001	2.788	0.470
198.499	171.969	79.998	19.995	101.035	19.998	3.014	0.486
198.999	172.244	79.998	19.995	101.033	19.999	2.959	0.519
199.499	172.497	79.998	19.995	101.034	19.998	2.987	0.530
199.999	172.682	79.998	19.995	101.036	19.996	3.114	0.483
200.499	172.964	79.998	19.995	101.036	20.000	2.836	0.452
200.999	173.188	79.998	19.996	101.038	19.999	2.963	0.487
201.499	173.475	79.998	19.996	101.045	19.998	2.980	0.509
201.999	173.706	79.999	19.995	101.048	20.001	2.805	0.514
202.499	173.951	79.997	19.995	101.043	20.000	2.860	0.497
202.999	174.190	79.997	19.995	101.038	20.001	2.790	0.480
203.499	174.440	79.999	19.996	101.035	19.999	2.910	0.486
203.999	174.660	79.999	19.996	101.028	20.002	2.723	0.480
204.499	174.926	79.998	19.995	101.025	20.001	2.825	0.478
204.999	175.165	79.999	19.995	101.025	20.000	2.838	0.495
205.499	175.398	79.998	19.996	101.027	19.999	2.922	0.488
205.999	175.672	79.998	19.995	101.031	19.999	2.928	0.489
206.499	175.926	79.996	19.996	101.035	20.000	2.876	0.517
206.999	176.161	79.997	19.996	101.035	19.998	2.983	0.508
207.499	176.401	79.997	19.995	101.034	20.001	2.815	0.482
207.999	176.646	79.997	19.995	101.032	19.996	3.130	0.480
208.499	176.895	79.996	19.996	101.027	19.997	3.044	0.490
208.999	177.115	79.997	19.997	101.022	20.000	2.885	0.482
209.499	177.389	79.996	19.996	101.020	20.000	2.894	0.482
209.999	177.655	79.996	19.996	101.022	19.996	3.132	0.517
210.499	177.897	79.997	19.995	101.029	19.997	3.049	0.524
210.999	178.120	79.996	19.996	101.035	19.998	3.018	0.486
211.499	178.392	79.996	19.995	101.038	19.999	2.942	0.479
211.999	178.627	79.995	19.996	101.039	19.999	2.933	0.501
212.499	178.894	79.996	19.997	101.040	19.998	3.014	0.505
212.999	179.158	79.996	19.996	101.035	19.996	3.160	0.517
213.499	179.386	79.997	19.996	101.030	19.996	3.145	0.512
213.999	179.648	79.997	19.995	101.032	19.994	3.246	0.491
214.499	179.894	79.997	19.996	101.035	19.999	2.955	0.499
214.999	180.149	79.997	19.997	101.035	19.997	3.034	0.505
215.499	180.384	79.998	19.997	101.036	19.996	3.165	0.495
215.999	180.651	79.996	19.997	101.039	19.996	3.121	0.496
216.499	180.903	79.997	19.996	101.036	19.992	3.390	0.510
216.999	181.113	79.997	19.996	101.032	19.995	3.211	0.490
217.499	181.405	79.997	19.996	101.029	19.993	3.359	0.482
217.999	181.664	79.997	19.996	101.025	19.998	3.025	0.526
218.499	181.885	79.997	19.997	101.019	19.996	3.119	0.515
218.999	182.137	79.998	19.995	101.020	19.995	3.169	0.477
219.499	182.412	79.998	19.997	101.020	19.996	3.139	0.500
219.999	182.613	79.999	19.997	101.021	19.998	3.001	0.501
220.499	182.862	79.999	19.996	101.022	19.996	3.149	0.463
220.999	183.112	79.998	19.996	101.022	19.995	3.178	0.475
221.499	183.369	79.998	19.996	101.021	19.993	3.318	0.503
221.999	183.609	79.999	19.996	101.022	19.995	3.221	0.502
222.499	183.876	79.999	19.996	101.023	19.996	3.130	0.502
222.999	184.115	79.999	19.997	101.022	19.998	2.987	0.507
223.499	184.407	79.998	19.996	101.022	19.995	3.228	0.519
223.999	184.642	79.999	19.997	101.022	19.993	3.335	0.529
224.499	184.881	80.000	19.997	101.020	19.994	3.269	0.500
224.999	185.113	79.999	19.996	101.019	19.995	3.228	0.473
225.499	185.388	80.000	19.996	101.019	19.994	3.252	0.489
225.999	185.645	80.000	19.995	101.020	19.994	3.252	0.519
226.499	185.922	80.000	19.996	101.020	19.996	3.143	0.533
226.999	186.130	79.999	19.996	101.019	19.994	3.248	0.509
227.499	186.396	79.998	19.996	101.020	19.995	3.189	0.480
227.999	186.675	79.999	19.996	101.020	19.995	3.171	0.510
228.499	186.900	79.998	19.995	101.020	19.993	3.311	0.525
228.999	187.157	79.997	19.996	101.020	19.994	3.283	0.493
229.499	187.432	79.998	19.995	101.021	19.994	3.254	0.507
229.999	187.647	79.998	19.996	101.020	19.995	3.191	0.511
230.500	187.881	79.997	19.996	101.021	19.994	3.291	0.470
231.000	188.114	79.998	19.995	101.020	19.993	3.305	0.458
231.499	188.369	79.998	19.996	101.020	19.993	3.331	0.477
231.999	188.678	79.997	19.997	101.021	19.994	3.278	0.526
232.500	188.900	79.997	19.997	101.020	19.989	3.633	0.548
233.000	189.137	79.996	19.997	101.021	19.992	3.419	0.495
233.500	189.357	79.995	19.996	101.023	19.987	3.718	0.458
234.000	189.631	79.996	19.997	101.023	19.988	3.652	0.475
234.499	189.865	79.995	19.996	101.023	19.988	3.652	0.501
234.999	190.147	79.994	19.996	101.023	19.990	3.563	0.512
235.499	190.373	79.997	19.997	101.023	19.990	3.530	0.512
235.999	190.625	79.995	19.996	101.021	19.991	3.462	0.493
236.499	190.895	79.995	19.997	101.020	19.992	3.436	0.500
236.999	191.156	79.995	19.996	101.020	19.991	3.482	0.526
237.499	191.373	79.995	19.997	101.020	19.992	3.434	0.504
238.000	191.614	79.996	19.998	101.021	19.990	3.558	0.468
238.501	191.866	79.995	19.996	101.022	19.989	3.595	0.475
239.000	192.103	79.995	19.996	101.022	19.992	3.436	0.491
239.500	192.316	79.995	19.997	101.022	19.990	3.517	0.470
240.000	192.565	79.996	19.998	101.022	19.994	3.285	0.456
240.499	192.868	79.995	19.998	101.022	19.990	3.547	0.507
241.000	193.072	79.995	19.997	101.022	19.989	3.615	0.529
241.500	193.337	79.994	19.997	101.022	19.990	3.574	0.488
242.000	193.591	79.995	19.997	101.020	19.988	3.652	0.494
242.500	193.859	79.995	19.998	101.019	19.989	3.644	0.521
243.000	194.102	79.995	19.996	101.019	19.991	3.462	0.516
243.499	194.319	79.994	19.997	101.019	19.985	3.863	0.486
243.999	194.567	79.994	19.997	101.019	19.986	3.823	0.463
244.499	194.801	79.994	19.998	101.021	19.985	3.884	0.474
244.999	195.063	79.995	19.997	101.022	19.983	4.016	0.489
245.499	195.312	79.994	19.997	101.022	19.985	3.858	0.503
245.999	195.544	79.994	19.997	101.021	19.985	3.915	0.496
246.499	195.768	79.994	19.997	101.021	19.987	3.762	0.468
246.999	196.003	79.995	19.997	101.020	19.986	3.836	0.457
247.499	196.272	79.993	19.997	101.020	19.984	3.983	0.482
247.999	196.492	79.994	19.997	101.019	19.985	3.906	0.497
248.499	196.757	79.996	19.997	101.020	19.982	4.073	0.487
248.999	197.017	79.995	19.996	101.020	19.983	3.992	0.505
249.499	197.258	79.995	19.997	101.020	19.981	4.155	0.513
249.999	197.495	79.995	19.996	101.020	19.986	3.821	0.489
250.499	197.766	79.995	19.996	101.020	19.984	3.980	0.493
250.999	197.997	79.996	19.998	101.019	19.983	4.002	0.505
251.499	198.268	79.995	19.996	101.019	19.982	4.114	0.502
251.999	198.481	79.996	19.996	101.019	19.983	4.005	0.493
252.499	198.717	79.995	19.996	101.019	19.984	3.950	0.467
252.999	198.951	79.997	19.997	101.019	19.981	4.166	0.460
253.499	199.231	79.995	19.995	101.019	19.980	4.237	0.492
253.999	199.482	79.995	19.995	101.019	19.980	4.225	0.522
254.499	199.718	79.996	19.996	101.019	19.980	4.199	0.509
254.999	199.984	79.996	19.996	101.019	19.979	4.276	0.495
255.499	200.202	79.996	19.995	101.018	19.980	4.248	0.493
255.999	200.459	79.995	19.995	101.015	19.976	4.471	0.480
256.500	200.713	79.996	19.996	101.014	19.976	4.486	0.493
257.000	200.933	79.995	19.996	101.015	19.976	4.483	0.492
257.500	201.181	79.996	19.997	101.015	19.977	4.424	0.471
258.000	201.435	79.995	19.996	101.015	19.975	4.558	0.485
258.500	201.664	79.996	19.996	101.018	19.975	4.591	0.492
259.000	201.917	79.995	19.994	101.018	19.975	4.558	0.482
259.500	202.159	79.996	19.995	101.018	19.975	4.580	0.488
260.000	202.445	79.996	19.995	101.018	19.976	4.486	0.512
260.500	202.644	79.996	19.996	101.019	19.973	4.683	0.507
261.000	202.920	79.996	19.995	101.019	19.975	4.558	0.480
261.500	203.134	79.996	19.996	101.019	19.975	4.575	0.483
262.000	203.389	79.996	19.995	101.019	19.973	4.727	0.480
262.500	203.645	79.996	19.997	101.019	19.973	4.681	0.490
263.000	203.864	79.995	19.997	101.018	19.974	4.615	0.493
263.500	204.123	79.996	19.996	101.018	19.974	4.648	0.477
264.000	204.393	79.996	19.996	101.018	19.974	4.641	0.503
264.500	204.658	79.996	19.995	101.018	19.974	4.637	0.532
265.000	204.873	79.996	19.996	101.017	19.973	4.724	0.508
265.500	205.130	79.995	19.997	101.018	19.974	4.619	0.476
266.000	205.331	79.996	19.996	101.018	19.975	4.552	0.465
266.500	205.599	79.996	19.996	101.018	19.973	4.722	0.464
267.000	205.841	79.996	19.996	101.018	19.975	4.593	0.489
267.500	206.071	79.996	19.996	101.019	19.971	4.836	0.491
268.000	206.342	79.996	19.995	101.019	19.974	4.657	0.487
268.500	206.580	79.995	19.995	101.020	19.975	4.567	0.505
269.000	206.865	79.995	19.997	101.020	19.974	4.661	0.516
269.500	207.062	79.996	19.997	101.021	19.972	4.773	0.502
270.000	207.319	79.996	19.996	101.021	19.974	4.645	0.468
270.500	207.611	79.997	19.996	101.021	19.971	4.829	0.501
271.000	207.817	79.996	19.997	101.019	19.971	4.820	0.523
271.500	208.062	79.995	19.996	101.019	19.972	4.797	0.475
272.000	208.304	79.995	19.996	101.018	19.969	4.943	0.469
272.500	208.557	79.996	19.996	101.018	19.969	5.002	0.491
273.000	208.820	79.996	19.996	101.017	19.971	4.855	0.505
273.500	209.084	79.996	19.996	101.019	19.968	5.030	0.521
274.000	209.309	79.997	19.995	101.019	19.972	4.799	0.508
274.500	209.535	79.996	19.997	101.019	19.969	4.984	0.470
275.000	209.790	79.996	19.996	101.020	19.967	5.078	0.466
275.500	210.050	79.997	19.997	101.020	19.967	5.085	0.498
276.000	210.298	79.997	19.996	101.019	19.968	5.068	0.512
276.500	210.568	79.997	19.996	101.018	19.966	5.197	0.513
277.000	210.810	79.997	19.996	101.016	19.964	5.337	0.515
277.500	211.039	79.997	19.995	101.014	19.963	5.358	0.491
278.000	211.306	79.997	19.998	101.013	19.965	5.214	0.483
278.500	211.569	79.997	19.995	101.014	19.967	5.122	0.513
279.000	211.807	79.997	19.996	101.014	19.966	5.155	0.515
279.500	212.066	79.999	19.996	101.015	19.965	5.212	0.499
280.000	212.288	79.998	19.995	101.016	19.965	5.219	0.489
280.500	212.569	79.997	19.995	101.016	19.966	5.185	0.492
281.000	212.803	79.997	19.996	101.016	19.962	5.448	0.509
281.500	213.054	79.998	19.995	101.015	19.962	5.468	0.500
282.000	213.288	79.998	19.997	101.016	19.959	5.667	0.485
282.500	213.529	79.998	19.994	101.016	19.960	5.590	0.480
283.000	213.828	79.999	19.996	101.013	19.961	5.505	0.508
283.500	214.079	79.998	19.996	101.014	19.962	5.481	0.545
284.000	214.326	79.997	19.995	101.016	19.961	5.516	0.523
284.500	214.568	79.997	19.996	101.017	19.959	5.627	0.493
285.000	214.823	79.997	19.995	101.017	19.960	5.586	0.493
285.500	215.004	79.998	19.996	101.020	19.961	5.490	0.467
286.000	215.272	79.997	19.996	101.021	19.958	5.722	0.442
286.500	215.524	79.997	19.995	101.021	19.960	5.608	0.484
287.000	215.753	79.997	19.996	101.019	19.957	5.796	0.501
287.500	216.018	79.997	19.996	101.018	19.960	5.584	0.488
288.000	216.279	79.997	19.996	101.017	19.958	5.756	0.511
288.500	216.494	79.997	19.994	101.017	19.959	5.654	0.501
289.000	216.750	79.997	19.997	101.016	19.961	5.535	0.473
289.500	216.985	79.997	19.995	101.017	19.959	5.647	0.481
290.000	217.229	79.996	19.996	101.019	19.961	5.496	0.485
290.500	217.492	79.997	19.995	101.019	19.958	5.726	0.493
291.000	217.722	79.997	19.995	101.019	19.957	5.763	0.500
291.500	217.981	79.997	19.996	101.020	19.958	5.739	0.491
292.000	218.215	79.996	19.995	101.018	19.956	5.859	0.491
292.500	218.483	79.997	19.994	101.015	19.954	6.023	0.498
293.000	218.726	79.996	19.996	101.015	19.954	5.991	0.507
293.500	218.972	79.997	19.995	101.015	19.954	6.021	0.500
294.000	219.245	79.997	19.996	101.015	19.953	6.039	0.504
294.500	219.464	79.996	19.995	101.018	19.953	6.076	0.505
295.001	219.704	79.996	19.996	101.022	19.954	5.977	0.475
295.500	219.971	79.996	19.996	101.022	19.952	6.163	0.483
296.000	220.196	79.997	19.995	101.022	19.953	6.087	0.500
296.500	220.437	79.997	19.996	101.017	19.949	6.319	0.479
297.000	220.690	79.997	19.996	101.014	19.950	6.264	0.480
297.500	220.935	79.996	19.996	101.013	19.951	6.179	0.496
298.000	221.163	79.997	19.996	101.013	19.950	6.292	0.486
298.500	221.407	79.996	19.995	101.013	19.950	6.264	0.473
299.000	221.653	79.998	19.995	101.018	19.949	6.304	0.481
299.500	221.932	79.998	19.995	101.021	19.948	6.426	0.507
300.000	222.181	79.996	19.996	101.021	19.946	6.537	0.527
300.500	222.432	79.997	19.997	101.021	19.948	6.413	0.514
301.000	222.661	79.998	19.996	101.021	19.948	6.435	0.490
301.500	222.933	79.998	19.995	101.016	19.946	6.560	0.491
302.000	223.163	79.998	19.995	101.016	19.944	6.689	0.502
302.500	223.415	79.997	19.996	101.016	19.944	6.667	0.492
303.000	223.687	79.999	19.995	101.016	19.942	6.811	0.503
303.500	223.936	79.999	19.996	101.015	19.942	6.842	0.523
304.000	224.182	79.998	19.996	101.020	19.942	6.813	0.508
304.500	224.406	79.997	19.996	101.020	19.944	6.665	0.482
305.000	224.641	79.998	19.995	101.019	19.943	6.732	0.464
305.500	224.892	79.997	19.995	101.019	19.945	6.595	0.472
306.000	225.106	79.999	19.996	101.018	19.942	6.798	0.476
306.500	225.387	79.998	19.996	101.017	19.939	6.993	0.480
307.000	225.669	79.997	19.997	101.015	19.940	6.955	0.529
307.500	225.877	79.998	19.995	101.015	19.941	6.874	0.527
308.000	226.135	79.997	19.997	101.015	19.938	7.069	0.478
308.500	226.404	79.998	19.997	101.014	19.937	7.128	0.497
309.000	226.637	79.996	19.995	101.015	19.936	7.213	0.515
309.500	226.847	79.996	19.997	101.017	19.938	7.106	0.472
310.000	227.098	79.997	19.997	101.017	19.936	7.185	0.452
310.500	227.368	79.998	19.996	101.017	19.939	7.015	0.491
311.000	227.600	79.996	19.996	101.016	19.937	7.172	0.512
311.500	227.824	79.996	19.995	101.011	19.937	7.171	0.479
312.000	228.084	79.997	19.995	101.006	19.936	7.232	0.470
312.500	228.346	79.996	19.995	101.004	19.934	7.387	0.503
313.000	228.596	79.996	19.996	101.004	19.932	7.483	0.516
313.500	228.840	79.995	19.995	101.006	19.936	7.229	0.503
314.000	229.096	79.995	19.996	101.010	19.933	7.398	0.497
314.500	229.351	79.997	19.995	101.013	19.934	7.321	0.506
315.000	229.590	79.995	19.997	101.013	19.934	7.334	0.503
315.500	229.836	79.995	19.994	101.012	19.930	7.634	0.489
316.000	230.109	79.997	19.997	101.013	19.932	7.481	0.501
316.500	230.365	79.995	19.997	101.014	19.932	7.460	0.524
317.000	230.593	79.996	19.997	101.015	19.931	7.547	0.507
317.500	230.828	79.996	19.996	101.016	19.931	7.545	0.474
318.000	231.061	79.996	19.996	101.017	19.930	7.597	0.466
318.500	231.301	79.996	19.996	101.015	19.927	7.820	0.470
319.000	231.607	79.996	19.996	101.015	19.929	7.688	0.510
319.500	231.829	79.996	19.996	101.016	19.927	7.850	0.537
320.000	232.070	79.996	19.996	101.016	19.926	7.929	0.495
320.500	232.290	79.996	19.996	101.016	19.925	8.000	0.462
321.000	232.532	79.996	19.996	101.018	19.927	7.814	0.461
321.500	232.785	79.996	19.996	101.014	19.925	7.996	0.478
322.000	233.001	79.996	19.996	101.009	19.928	7.786	0.482
322.500	233.294	79.997	19.996	101.006	19.925	7.993	0.489
323.000	233.504	79.997	19.996	101.006	19.924	8.050	0.506
323.500	233.771	79.996	19.995	101.004	19.922	8.184	0.490
324.000	234.008	79.996	19.997	101.006	19.925	7.941	0.491
324.500	234.266	79.997	19.997	101.008	19.921	8.215	0.500
325.000	234.537	79.996	19.996	101.011	19.920	8.301	0.512
325.500	234.798	79.996	19.997	101.011	19.916	8.573	0.531
326.000	235.015	79.994	19.997	101.011	19.920	8.281	0.504
326.500	235.270	79.997	19.996	101.010	19.919	8.360	0.475
327.000	235.519	79.996	19.998	101.007	19.918	8.443	0.489
327.500	235.770	79.996	19.997	101.001	19.916	8.555	0.502
328.000	236.024	79.995	19.997	100.999	19.918	8.461	0.502
328.500	236.268	79.996	19.996	101.001	19.912	8.866	0.502
329.000	236.497	79.996	19.998	101.003	19.915	8.670	0.486
329.500	236.740	79.996	19.997	101.009	19.916	8.562	0.472
330.000	236.965	79.995	19.999	101.015	19.915	8.634	0.470
330.500	237.268	79.995	19.997	101.013	19.915	8.658	0.498
331.000	237.523	79.996	19.997	101.009	19.914	8.717	0.543
331.500	237.725	79.995	19.997	101.006	19.913	8.780	0.508
332.000	238.015	79.997	19.996	101.002	19.914	8.710	0.475
332.500	238.247	79.996	19.996	101.001	19.914	8.707	0.507
333.000	238.450	79.997	19.996	101.001	19.913	8.792	0.478
333.500	238.704	79.996	19.998	101.000	19.911	8.899	0.446
334.000	238.951	79.996	19.996	100.998	19.911	8.912	0.479
334.500	239.187	79.997	19.998	100.998	19.913	8.804	0.492
335.000	239.482	79.996	19.998	100.996	19.913	8.815	0.507
335.500	239.676	79.995	19.998	100.999	19.910	8.987	0.510
336.000	239.911	79.996	19.997	101.004	19.911	8.931	0.459
336.500	240.171	79.998	19.997	101.007	19.912	8.832	0.462
337.000	240.454	79.996	19.997	101.010	19.909	9.036	0.519
337.500	240.713	79.997	19.997	101.012	19.910	8.966	0.542
338.000	240.938	79.997	19.998	101.010	19.908	9.118	0.513
338.500	241.138	79.996	19.998	101.004	19.909	9.026	0.455
339.000	241.400	79.996	19.998	101.005	19.904	9.424	0.443
339.500	241.645	79.996	19.996	101.004	19.908	9.098	0.484
340.000	241.885	79.996	19.997	100.999	19.907	9.161	0.496
340.500	242.187	79.995	19.996	101.002	19.906	9.251	0.514
341.000	242.380	79.997	19.997	101.008	19.906	9.292	0.519
341.500	242.648	79.995	19.995	101.007	19.906	9.268	0.478
342.000	242.863	79.995	19.998	101.003	19.906	9.233	0.472
342.500	243.145	79.996	19.996	101.006	19.905	9.329	0.490
343.000	243.394	79.996	19.996	101.006	19.906	9.285	0.514
343.500	243.648	79.996	19.996	101.002	19.906	9.265	0.517
344.000	243.871	79.995	19.996	101.000	19.907	9.209	0.490
344.500	244.099	79.996	19.997	101.007	19.903	9.467	0.464
345.000	244.364	79.996	19.997	101.008	19.902	9.552	0.472
345.500	244.648	79.996	19.996	101.009	19.903	9.489	0.521
346.000	244.889	79.995	19.995	101.014	19.902	9.501	0.537
346.500	245.090	79.996	19.996	101.016	19.902	9.520	0.483
347.000	245.367	79.996	19.995	101.011	19.899	9.704	0.460
347.500	245.603	79.996	19.996	101.010	19.897	9.876	0.496
348.000	245.839	79.995	19.996	101.008	19.898	9.806	0.492
348.500	246.103	79.996	19.995	101.005	19.897	9.856	0.486
349.000	246.377	79.996	19.996	101.000	19.899	9.757	0.519
349.500	246.637	79.996	19.996	101.001	19.899	9.755	0.536
350.000	246.867	79.996	19.995	101.000	19.897	9.898	0.512
350.500	247.132	79.996	19.996	101.001	19.897	9.861	0.492
351.000	247.362	79.997	19.995	101.003	19.896	9.913	0.495
351.500	247.599	79.995	19.995	101.007	19.897	9.849	0.481
352.000	247.837	79.996	19.996	101.009	19.896	9.948	0.471
352.500	248.089	79.996	19.995	101.012	19.893	10.120	0.483
353.000	248.357	79.996	19.996	101.013	19.895	10.043	0.504
353.500	248.593	79.998	19.996	101.013	19.895	10.033	0.512
354.000	248.844	79.996	19.996	101.012	19.895	10.018	0.496
354.500	249.106	79.997	19.995	101.015	19.894	10.101	0.500
355.000	249.323	79.996	19.996	101.010	19.894	10.056	0.496
355.500	249.599	79.997	19.996	101.009	19.892	10.242	0.486
356.000	249.840	79.997	19.996	101.010	19.894	10.073	0.505
356.500	250.100	79.996	19.996	101.009	19.889	10.384	0.509
357.000	250.370	79.998	19.996	101.003	19.893	10.131	0.516
357.500	250.646	79.998	19.996	101.003	19.891	10.287	0.538
358.000	250.897	79.998	19.996	101.006	19.890	10.328	0.536
358.500	251.141	79.998	19.996	101.005	19.889	10.423	0.511
359.000	251.390	79.998	19.996	101.007	19.887	10.536	0.494
359.500	251.590	79.999	19.995	101.012	19.889	10.398	0.472
360.000	251.845	79.999	19.996	101.014	19.887	10.577	0.452
360.500	252.069	79.999	19.996	101.012	19.889	10.448	0.467
361.000	252.317	79.998	19.996	101.012	19.887	10.578	0.476
361.500	252.551	79.999	19.996	101.011	19.887	10.539	0.477
362.000	252.798	79.998	19.996	101.012	19.888	10.484	0.481
362.500	253.050	79.999	19.996	101.015	19.889	10.438	0.490
363.000	253.318	79.999	19.996	101.015	19.887	10.587	0.510
363.500	253.537	79.999	19.996	101.016	19.883	10.829	0.503
364.000	253.798	79.996	19.996	101.017	19.884	10.750	0.483
364.500	254.030	79.999	19.995	101.015	19.884	10.774	0.487
365.000	254.297	79.998	19.995	101.010	19.883	10.798	0.496
365.500	254.534	79.997	19.995	101.006	19.884	10.756	0.502
366.000	254.747	79.997	19.995	101.004	19.882	10.874	0.477
366.500	254.990	79.996	19.994	101.001	19.881	10.986	0.453
367.000	255.244	79.997	19.995	101.004	19.881	10.955	0.477
367.500	255.507	79.996	19.995	101.009	19.882	10.896	0.507
368.000	255.749	79.999	19.997	101.012	19.880	11.052	0.511
368.500	255.971	79.996	19.996	101.012	19.881	10.949	0.485
369.000	256.228	79.997	19.995	101.013	19.882	10.922	0.471
369.500	256.450	79.997	19.995	101.012	19.881	10.959	0.479
370.000	256.674	79.997	19.997	101.013	19.879	11.106	0.463
370.500	256.933	79.997	19.995	101.013	19.878	11.174	0.464
371.000	257.205	79.997	19.996	101.015	19.880	11.054	0.507
371.500	257.419	79.998	19.996	101.014	19.878	11.194	0.509
372.000	257.639	79.998	19.995	101.013	19.876	11.310	0.461
372.500	257.904	79.997	19.996	101.010	19.877	11.220	0.460
373.000	258.120	79.997	19.995	101.011	19.875	11.367	0.483
373.500	258.350	79.997	19.996	101.012	19.875	11.388	0.463
374.000	258.623	79.998	19.995	101.012	19.873	11.483	0.475
374.500	258.863	79.999	19.994	101.014	19.874	11.415	0.508
375.000	259.112	79.997	19.997	101.016	19.873	11.516	0.501
375.500	259.396	79.998	19.996	101.017	19.874	11.444	0.511
376.000	259.616	79.997	19.996	101.016	19.871	11.638	0.518
376.500	259.872	79.998	19.995	101.018	19.871	11.610	0.490
377.000	260.059	79.998	19.997	101.018	19.872	11.599	0.460
377.500	260.296	79.997	19.995	101.018	19.873	11.538	0.434
378.000	260.530	79.998	19.994	101.018	19.872	11.581	0.447
378.500	260.804	79.999	19.994	101.018	19.871	11.614	0.489
379.000	261.032	79.999	19.996	101.019	19.869	11.797	0.505
379.500	261.298	79.998	19.994	101.019	19.869	11.756	0.498
380.000	261.484	79.999	19.994	101.019	19.871	11.636	0.474
380.500	261.743	79.999	19.994	101.020	19.869	11.761	0.449
381.000	261.953	80.000	19.995	101.020	19.869	11.750	0.457
381.500	262.231	79.999	19.995	101.019	19.867	11.911	0.478
382.000	262.472	79.999	19.994	101.020	19.869	11.754	0.503
382.500	262.746	79.999	19.995	101.020	19.871	11.662	0.517
383.000	262.961	79.999	19.996	101.019	19.870	11.741	0.502
383.500	263.177	79.998	19.995	101.018	19.871	11.612	0.460
384.000	263.421	79.999	19.994	101.018	19.870	11.745	0.446
384.500	263.656	79.999	19.995	101.017	19.872	11.605	0.470
385.000	263.914	79.999	19.996	101.018	19.868	11.841	0.486
385.500	264.155	80.000	19.995	101.017	19.868	11.865	0.496
386.000	264.385	79.999	19.995	101.016	19.872	11.581	0.485
386.500	264.640	79.998	19.996	101.014	19.867	11.942	0.478
387.000	264.877	79.999	19.996	101.013	19.867	11.896	0.488
387.500	265.113	79.999	19.996	101.014	19.868	11.819	0.483
388.000	265.334	80.000	19.996	101.014	19.870	11.708	0.465
388.500	265.546	79.999	19.995	101.016	19.868	11.837	0.445
389.000	265.823	79.997	19.996	101.018	19.866	11.957	0.461
389.500	266.042	79.999	19.996	101.019	19.867	11.907	0.493
390.000	266.295	79.998	19.995	101.017	19.866	12.009	0.484
390.500	266.528	79.998	19.995	101.018	19.865	12.028	0.479
391.000	266.780	79.999	19.997	101.017	19.863	12.177	0.485
391.500	267.010	79.999	19.995	101.017	19.866	12.013	0.484
392.000	267.286	79.998	19.995	101.016	19.866	12.005	0.494
392.500	267.481	79.997	19.995	101.016	19.862	12.224	0.488
393.000	267.707	79.996	19.996	101.016	19.864	12.143	0.446
393.500	267.971	79.996	19.994	101.016	19.864	12.129	0.456
394.000	268.206	79.997	19.996	101.015	19.859	12.428	0.494
394.500	268.457	79.995	19.996	101.016	19.861	12.335	0.492
395.000	268.696	79.997	19.998	101.017	19.860	12.383	0.488
395.500	268.916	79.995	19.998	101.017	19.861	12.335	0.475
396.000	269.128	79.995	19.996	101.017	19.861	12.327	0.446
396.500	269.433	79.997	19.996	101.018	19.863	12.217	0.474
397.000	269.709	79.995	19.997	101.018	19.862	12.270	0.548
397.500	269.912	79.996	19.998	101.018	19.859	12.433	0.530
398.000	270.145	79.996	19.994	101.019	19.861	12.315	0.458
398.500	270.392	79.996	19.997	101.019	19.861	12.298	0.459
399.000	270.680	79.996	19.997	101.019	19.859	12.458	0.508
399.500	270.893	79.996	19.997	101.020	19.859	12.488	0.518
400.000	271.165	79.996	19.996	101.020	19.860	12.400	0.492
400.500	271.407	79.996	19.997	101.019	19.856	12.640	0.499
401.000	271.639	79.996	19.997	101.023	19.857	12.627	0.494
401.500	271.856	79.995	19.996	101.024	19.856	12.699	0.462
402.000	272.151	79.995	19.997	101.023	19.854	12.772	0.481
402.500	272.373	79.997	19.996	101.023	19.858	12.510	0.514
403.000	272.651	79.995	19.996	101.023	19.854	12.790	0.508
403.500	272.859	79.996	19.996	101.020	19.854	12.783	0.493
404.000	273.083	79.998	19.995	101.018	19.850	13.080	0.459
404.500	273.294	79.995	19.996	101.023	19.853	12.844	0.434
405.000	273.580	79.997	19.995	101.025	19.853	12.874	0.467
405.500	273.816	79.997	19.997	101.025	19.851	13.021	0.510
406.000	274.055	79.996	19.996	101.025	19.852	12.942	0.498
406.500	274.278	79.997	19.996	101.024	19.852	12.937	0.468
407.000	274.497	79.997	19.996	101.020	19.853	12.891	0.452
407.500	274.781	79.996	19.995	101.018	19.850	13.108	0.472
408.000	275.003	79.996	19.997	101.018	19.850	13.108	0.505
408.500	275.261	79.997	19.996	101.022	19.850	13.055	0.493
409.000	275.513	79.995	19.995	101.027	19.851	12.995	0.495
409.500	275.763	79.996	19.996	101.031	19.850	13.075	0.506
410.000	275.993	79.998	19.997	101.033	19.851	12.977	0.491
410.500	276.240	79.998	19.995	101.037	19.852	12.968	0.479
411.000	276.476	79.997	19.995	101.037	19.847	13.266	0.480
411.500	276.700	79.998	19.995	101.033	19.845	13.386	0.471
412.000	276.934	79.997	19.995	101.029	19.845	13.411	0.459
412.500	277.158	79.997	19.996	101.027	19.846	13.330	0.458
413.000	277.405	79.997	19.995	101.024	19.843	13.530	0.465
413.500	277.677	79.996	19.997	101.021	19.845	13.403	0.495
414.000	277.915	79.997	19.995	101.023	19.841	13.668	0.514
414.500	278.180	79.997	19.996	101.024	19.844	13.510	0.506
415.000	278.404	79.997	19.995	101.026	19.845	13.441	0.496
415.500	278.631	79.997	19.996	101.026	19.842	13.638	0.470
416.000	278.886	79.997	19.996	101.026	19.843	13.586	0.467
416.500	279.123	79.995	19.996	101.028	19.841	13.713	0.487
417.000	279.354	79.996	19.995	101.030	19.841	13.673	0.480
417.500	279.576	79.996	19.997	101.032	19.842	13.609	0.460
418.000	279.803	79.995	19.997	101.036	19.840	13.729	0.451
418.500	280.065	79.996	19.997	101.041	19.836	14.048	0.469
419.000	280.347	79.996	19.997	101.040	19.835	14.125	0.516
419.500	280.541	79.994	19.995	101.036	19.836	14.055	0.510
420.000	280.768	79.995	19.997	101.036	19.834	14.149	0.449
420.500	280.999	79.994	19.997	101.031	19.832	14.326	0.440
421.000	281.271	79.995	19.997	101.029	19.832	14.288	0.481
421.500	281.523	79.994	19.997	101.033	19.833	14.203	0.514
422.000	281.737	79.996	19.997	101.039	19.832	14.283	0.495
422.500	282.015	79.993	19.996	101.042	19.833	14.236	0.479
423.000	282.256	79.995	19.996	101.049	19.829	14.502	0.505
423.500	282.508	79.995	19.996	101.052	19.827	14.612	0.506
424.000	282.748	79.995	19.996	101.053	19.829	14.502	0.492
424.500	282.978	79.994	19.996	101.055	19.830	14.456	0.481
425.000	283.217	79.994	19.996	101.058	19.826	14.708	0.469
425.500	283.435	79.995	19.997	101.057	19.826	14.699	0.463
426.000	283.718	79.996	19.997	101.055	19.825	14.808	0.480
426.500	283.971	79.994	19.997	101.053	19.825	14.764	0.519
427.000	284.163	79.994	19.997	101.051	19.820	15.105	0.491
427.500	284.396	79.995	19.997	101.050	19.821	15.028	0.435
428.001	284.659	79.994	19.996	101.051	19.820	15.088	0.460
428.500	284.950	79.995	19.996	101.054	19.822	15.004	0.525
429.000	285.197	79.995	19.997	101.056	19.819	15.199	0.546
429.500	285.414	79.994	19.997	101.056	19.818	15.251	0.501
430.000	285.641	79.995	19.997	101.057	19.817	15.354	0.453
430.500	285.884	79.995	19.997	101.057	19.812	15.699	0.457
431.000	286.162	79.996	19.997	101.057	19.813	15.625	0.496
431.500	286.380	79.994	19.996	101.058	19.814	15.507	0.509
432.000	286.620	79.995	19.997	101.060	19.809	15.875	0.477
432.500	286.886	79.995	19.996	101.061	19.810	15.811	0.482
433.000	287.118	79.994	19.996	101.061	19.809	15.903	0.502
433.500	287.345	79.996	19.996	101.061	19.805	16.176	0.478
434.000	287.605	79.996	19.997	101.061	19.805	16.162	0.473
434.500	287.791	79.996	19.997	101.061	19.801	16.400	0.466
435.000	288.095	79.997	19.996	101.061	19.801	16.417	0.468
435.500	288.328	79.996	19.996	101.061	19.799	16.572	0.514
436.000	288.591	79.996	19.996	101.061	19.798	16.654	0.517
436.500	288.828	79.997	19.995	101.061	19.796	16.773	0.498
437.000	289.064	79.997	19.996	101.061	19.796	16.758	0.487
437.500	289.306	79.997	19.995	101.061	19.796	16.759	0.476
438.000	289.553	79.997	19.996	101.062	19.795	16.831	0.484
438.500	289.839	79.997	19.995	101.064	19.796	16.790	0.511
439.000	290.059	79.997	19.994	101.064	19.793	16.973	0.519
439.500	290.302	79.998	19.994	101.064	19.792	17.015	0.485
440.000	290.546	79.997	19.993	101.067	19.794	16.882	0.475
440.500	290.793	79.996	19.996	101.067	19.794	16.867	0.489
441.000	291.033	79.997	19.995	101.065	19.787	17.365	0.489
441.500	291.290	79.997	19.995	101.065	19.789	17.259	0.492
442.000	291.548	79.997	19.995	101.066	19.787	17.378	0.506
442.500	291.780	79.997	19.994	101.063	19.788	17.316	0.503
443.000	292.049	79.998	19.995	101.063	19.787	17.389	0.496
443.500	292.316	79.997	19.996	101.063	19.782	17.722	0.518
444.000	292.520	79.998	19.995	101.063	19.783	17.626	0.503
444.500	292.757	79.998	19.996	101.064	19.782	17.743	0.457
445.000	293.025	79.998	19.995	101.069	19.780	17.871	0.473
445.500	293.288	79.996	19.993	101.071	19.776	18.111	0.518
446.000	293.513	79.997	19.994	101.072	19.777	18.038	0.509
446.500	293.738	79.997	19.996	101.073	19.775	18.195	0.469
447.000	293.990	79.998	19.996	101.070	19.775	18.181	0.464
447.500	294.208	79.997	19.995	101.065	19.772	18.380	0.474
448.000	294.438	79.998	19.995	101.064	19.772	18.376	0.459
448.500	294.691	79.997	19.996	101.066	19.769	18.596	0.466
449.000	294.950	79.997	19.997	101.070	19.768	18.651	0.498
449.500	295.197	79.997	19.997	101.076	19.767	18.730	0.509
450.000	295.446	79.996	19.996	101.082	19.768	18.684	0.501
450.500	295.694	79.997	19.995	101.087	19.765	18.855	0.496
451.000	295.927	79.997	19.996	101.087	19.765	18.856	0.489
451.500	296.166	79.996	19.995	101.087	19.764	18.920	0.476
452.000	296.430	79.996	19.997	101.086	19.760	19.196	0.487
452.500	296.690	79.997	19.996	101.082	19.756	19.501	0.514
453.000	296.926	79.998	19.996	101.078	19.755	19.564	0.510
453.500	297.181	79.998	19.995	101.078	19.757	19.428	0.493
454.000	297.435	79.996	19.996	101.078	19.754	19.616	0.500
454.500	297.680	79.997	19.997	101.080	19.751	19.814	0.504
455.000	297.938	79.998	19.997	101.085	19.748	20.035	0.501
455.500	298.198	79.997	19.996	101.090	19.749	19.982	0.510
456.000	298.428	79.998	19.996	101.093	19.747	20.078	0.504
456.500	298.650	79.998	19.997	101.096	19.745	20.233	0.471
457.000	298.912	79.997	19.996	101.095	19.740	20.598	0.468
457.500	299.160	79.998	19.995	101.091	19.741	20.509	0.497
458.000	299.401	79.997	19.995	101.091	19.738	20.708	0.500
458.500	299.684	79.997	19.995	101.091	19.737	20.816	0.507
459.000	299.886	79.997	19.995	101.090	19.736	20.875	0.505
459.500	300.110	79.997	19.996	101.085	19.735	20.909	0.455
460.000	300.399	79.998	19.995	101.090	19.734	21.018	0.469
460.500	300.659	79.997	19.995	101.090	19.731	21.174	0.531
461.000	300.889	79.998	19.995	101.089	19.729	21.308	0.519
461.500	301.152	79.998	19.994	101.088	19.730	21.246	0.491
462.000	301.376	79.999	19.996	101.093	19.726	21.560	0.490
462.500	301.648	79.999	19.996	101.091	19.725	21.623	0.491
463.000	301.902	79.998	19.995	101.090	19.723	21.736	0.511
463.500	302.123	79.998	19.994	101.091	19.724	21.690	0.501
464.000	302.379	79.999	19.995	101.094	19.720	21.909	0.476
464.500	302.612	80.001	19.995	101.094	19.718	22.051	0.483
465.000	302.893	79.999	19.995	101.095	19.717	22.119	0.501
465.500	303.136	79.999	19.996	101.097	19.710	22.639	0.519
466.000	303.373	80.000	19.995	101.099	19.711	22.536	0.502
466.500	303.627	79.999	19.994	101.100	19.710	22.606	0.486
467.001	303.872	79.999	19.995	101.100	19.708	22.793	0.495
467.500	304.085	79.998	19.995	101.100	19.705	22.956	0.479
468.000	304.351	79.999	19.994	101.100	19.702	23.156	0.469
468.500	304.597	79.998	19.994	101.099	19.702	23.142	0.496
469.000	304.851	79.999	19.994	101.100	19.703	23.105	0.506
469.500	305.108	79.998	19.994	101.103	19.699	23.365	0.505
470.000	305.333	79.998	19.995	101.106	19.698	23.411	0.496
470.500	305.599	79.997	19.996	101.108	19.697	23.541	0.486
471.000	305.865	79.999	19.994	101.108	19.692	23.875	0.512
471.500	306.089	79.998	19.995	101.106	19.691	23.938	0.511
472.000	306.304	79.999	19.994	101.102	19.689	24.047	0.465
472.500	306.589	79.997	19.995	101.104	19.684	24.423	0.469
473.000	306.858	79.998	19.996	101.108	19.685	24.352	0.527
473.500	307.077	79.998	19.995	101.111	19.681	24.612	0.521
474.000	307.345	79.997	19.994	101.111	19.680	24.673	0.488
474.500	307.611	79.997	19.995	101.111	19.681	24.627	0.511
475.000	307.877	79.996	19.996	101.108	19.677	24.898	0.533
475.500	308.124	79.996	19.996	101.102	19.674	25.067	0.522
476.000	308.364	79.998	19.995	101.101	19.674	25.080	0.500
476.500	308.615	79.997	19.996	101.103	19.673	25.172	0.489
477.000	308.863	79.996	19.996	101.109	19.671	25.287	0.495
477.500	309.118	79.996	19.995	101.116	19.671	25.317	0.501
478.000	309.359	79.996	19.995	101.121	19.667	25.532	0.500
478.500	309.625	79.997	19.996	101.126	19.662	25.922	0.501
479.000	309.879	79.997	19.995	101.129	19.662	25.886	0.513
479.500	310.083	79.996	19.995	101.130	19.660	26.026	0.489
480.000	310.347	79.996	19.996	101.129	19.659	26.133	0.463
480.500	310.584	79.996	19.995	101.129	19.657	26.273	0.485
481.000	310.837	79.995	19.994	101.123	19.655	26.363	0.496
481.500	311.115	79.996	19.995	101.126	19.652	26.612	0.510
482.000	311.371	79.996	19.996	101.126	19.648	26.838	0.532
482.500	311.612	79.996	19.996	101.127	19.646	26.970	0.516
483.000	311.867	79.997	19.997	101.130	19.642	27.271	0.497
483.500	312.132	79.996	19.994	101.137	19.639	27.508	0.508
484.000	312.368	79.995	19.997	101.138	19.641	27.317	0.510
484.500	312.623	79.996	19.996	101.138	19.637	27.635	0.496
485.000	312.888	79.994	19.995	101.140	19.635	27.745	0.506
485.500	313.139	79.995	19.995	101.141	19.634	27.796	0.518
486.000	313.418	79.995	19.997	101.145	19.632	27.932	0.523
486.500	313.637	79.997	19.997	101.145	19.629	28.154	0.514
487.000	313.886	79.996	19.995	101.145	19.624	28.483	0.483
487.500	314.186	79.996	19.995	101.145	19.620	28.804	0.509
488.000	314.424	79.996	19.996	101.144	19.620	28.763	0.544
488.500	314.757	79.996	19.997	101.142	19.618	28.944	0.554
489.000	314.981	79.997	19.996	101.144	19.615	29.127	0.563
489.500	315.212	79.997	19.997	101.147	19.612	29.291	0.506
490.000	315.519	79.997	19.996	101.150	19.609	29.495	0.497
490.500	315.761	79.997	19.995	101.151	19.609	29.510	0.543
491.000	316.046	79.996	19.996	101.151	19.603	29.911	0.538
491.500	316.298	79.996	19.996	101.150	19.604	29.889	0.532
492.000	316.524	79.995	19.995	101.148	19.594	30.553	0.507
492.500	316.782	79.996	19.996	101.148	19.592	30.688	0.481
493.000	317.024	79.996	19.997	101.150	19.592	30.690	0.492
493.500	317.323	79.997	19.995	101.153	19.591	30.764	0.521
494.000	317.614	79.997	19.996	101.157	19.584	31.225	0.565
494.500	317.870	79.997	19.996	101.160	19.587	30.992	0.568
495.000	318.132	79.996	19.997	101.162	19.580	31.489	0.533
495.500	318.415	79.997	19.995	101.165	19.577	31.691	0.532
496.000	318.609	79.998	19.996	101.167	19.578	31.637	0.511
496.500	318.906	79.996	19.997	101.168	19.570	32.161	0.484
497.000	319.190	79.997	19.996	101.172	19.570	32.159	0.536
497.500	319.463	79.996	19.996	101.174	19.566	32.457	0.570
498.000	319.706	79.996	19.994	101.175	19.564	32.579	0.537
498.500	319.988	79.997	19.996	101.174	19.561	32.825	0.520
499.001	320.266	79.997	19.996	101.175	19.555	33.182	0.542
499.500	320.524	79.996	19.995	101.175	19.554	33.271	0.548
500.000	320.832	79.996	19.997	101.175	19.544	33.967	0.551
500.500	321.036	79.995	19.995	101.176	19.547	33.785	0.539
501.000	321.323	79.995	19.996	101.180	19.538	34.355	0.501
501.500	321.618	79.997	19.996	101.180	19.537	34.445	0.536
502.000	321.870	79.996	19.998	101.180	19.541	34.166	0.565
502.500	322.117	79.996	19.995	101.181	19.537	34.416	0.523
503.000	322.392	79.995	19.995	101.181	19.528	35.082	0.510
503.500	322.680	79.995	19.995	101.181	19.530	34.922	0.542
504.000	322.934	79.994	19.996	101.181	19.522	35.482	0.552
504.500	323.252	79.995	19.996	101.181	19.522	35.458	0.557
505.000	323.476	79.996	19.995	101.181	19.514	35.994	0.557
505.500	323.753	79.994	19.994	101.181	19.514	35.985	0.522
506.000	323.983	79.997	19.995	101.181	19.510	36.281	0.504
506.500	324.260	79.995	19.996	101.183	19.508	36.439	0.508
507.000	324.527	79.995	19.996	101.182	19.502	36.814	0.526
507.500	324.870	79.997	19.996	101.182	19.501	36.929	0.577
508.000	325.067	79.995	19.997	101.182	19.498	37.122	0.575
508.500	325.303	79.996	19.996	101.184	19.495	37.338	0.486
509.000	325.659	79.995	19.995	101.186	19.494	37.379	0.512
509.500	325.850	79.994	19.996	101.189	19.492	37.490	0.569
510.000	326.174	79.995	19.996	101.195	19.483	38.100	0.531
510.500	326.435	79.996	19.996	101.202	19.480	38.355	0.551
511.000	326.750	79.994	19.995	101.203	19.475	38.680	0.581
511.500	326.960	79.996	19.997	101.200	19.474	38.713	0.550
512.000	327.245	79.997	19.997	101.197	19.471	38.964	0.510
512.500	327.507	79.995	19.996	101.191	19.466	39.293	0.521
513.000	327.616	79.996	19.996	101.185	19.464	39.451	0.459
513.500	328.013	79.995	19.996	101.183	19.461	39.631	0.438
514.000	328.368	79.995	19.997	101.188	19.458	39.868	0.629
514.500	328.376	79.994	19.998	101.195	19.451	40.292	0.558
515.000	328.519	79.995	19.996	101.201	19.450	40.410	0.257
515.500	328.851	79.996	19.997	101.206	19.448	40.529	0.313
516.000	329.415	79.995	19.997	101.209	19.445	40.752	0.685
516.500	329.899	79.996	19.997	101.209	19.438	41.206	0.972
517.000	329.847	79.997	19.997	101.206	19.439	41.141	0.740
517.500	330.356	79.997	19.998	101.206	19.436	41.358	0.445
518.000	330.405	79.996	19.997	101.205	19.428	41.849	0.508
518.500	330.914	79.997	19.998	101.207	19.425	42.074	0.558
519.000	330.875	79.996	19.996	101.209	19.421	42.365	0.514
519.500	331.294	79.997	19.996	101.209	19.417	42.616	0.425
520.000	331.603	79.998	19.997	101.206	19.417	42.641	0.554
520.500	331.835	79.998	19.997	101.207	19.414	42.869	0.635
521.000	332.090	79.996	19.996	101.208	19.407	43.286	0.514
521.500	332.339	79.997	19.997	101.209	19.405	43.492	0.495
522.000	332.597	79.999	19.996	101.210	19.400	43.771	0.505
522.500	332.849	79.997	19.997	101.214	19.393	44.247	0.509
523.000	333.249	79.998	19.996	101.214	19.390	44.460	0.581
523.500	333.471	79.998	19.996	101.215	19.387	44.670	0.637
524.000	333.726	79.997	19.996	101.214	19.386	44.759	0.550
524.500	334.006	79.998	19.997	101.215	19.380	45.201	0.506
525.000	334.226	79.997	19.997	101.217	19.377	45.378	0.517
525.500	334.580	79.998	19.997	101.216	19.372	45.710	0.537
526.000	334.844	79.997	19.995	101.216	19.367	46.046	0.596
526.500	335.107	79.996	19.994	101.217	19.365	46.156	0.572
527.000	335.347	79.996	19.995	101.217	19.360	46.519	0.515
527.500	335.618	79.997	19.996	101.215	19.356	46.808	0.507
528.000	335.941	79.998	19.995	101.216	19.351	47.139	0.553
528.500	336.155	79.998	19.995	101.217	19.347	47.447	0.565
529.000	336.417	79.998	19.995	101.219	19.345	47.581	0.506
529.500	336.705	79.997	19.995	101.218	19.342	47.756	0.513
530.000	336.949	79.997	19.995	101.220	19.339	47.944	0.541
530.500	337.242	79.999	19.995	101.220	19.333	48.382	0.535
531.000	337.547	79.997	19.996	101.219	19.330	48.561	0.568
531.500	337.781	79.999	19.996	101.221	19.326	48.878	0.568
532.000	338.041	79.997	19.996	101.228	19.319	49.306	0.516
532.500	338.358	79.997	19.994	101.234	19.318	49.400	0.536
533.000	338.609	79.999	19.995	101.240	19.313	49.744	0.573
533.500	338.862	79.998	19.995	101.244	19.308	50.105	0.536
534.000	339.149	79.997	19.995	101.248	19.305	50.297	0.522
534.500	339.443	79.997	19.996	101.245	19.301	50.566	0.561
535.000	339.659	79.997	19.995	101.245	19.297	50.856	0.546
535.500	339.977	79.997	19.995	101.245	19.294	51.007	0.522
536.000	340.211	79.997	19.995	101.245	19.289	51.406	0.543
536.500	340.434	79.997	19.996	101.242	19.284	51.696	0.504
537.000	340.741	79.998	19.995	101.241	19.283	51.791	0.494
537.500	341.028	79.998	19.995	101.239	19.278	52.147	0.562
538.000	341.283	79.997	19.994	101.240	19.273	52.470	0.568
538.500	341.510	79.998	19.995	101.242	19.268	52.809	0.512
539.000	341.829	79.998	19.995	101.243	19.266	52.971	0.515
539.500	342.101	79.998	19.995	101.244	19.259	53.413	0.569
540.000	342.290	79.997	19.994	101.242	19.260	53.347	0.526
540.500	342.578	79.997	19.994	101.242	19.255	53.694	0.469
541.000	342.860	79.999	19.995	101.243	19.254	53.786	0.523
541.500	343.138	79.997	19.994	101.245	19.253	53.813	0.565
542.000	343.352	79.997	19.996	101.248	19.241	54.629	0.526
542.500	343.587	79.998	19.994	101.251	19.243	54.520	0.471
543.000	343.891	79.998	19.996	101.253	19.240	54.708	0.494
543.500	344.159	79.998	19.995	101.253	19.238	54.896	0.555
544.000	344.419	79.999	19.996	101.254	19.233	55.200	0.550
544.500	344.647	80.000	19.995	101.253	19.232	55.245	0.508
545.000	344.926	79.999	19.994	101.253	19.227	55.604	0.497
545.500	345.207	79.998	19.995	101.252	19.220	56.065	0.534
546.000	345.454	79.998	19.995	101.252	19.218	56.251	0.544
546.500	345.715	79.999	19.994	101.254	19.213	56.584	0.518
547.000	345.964	79.997	19.995	101.255	19.210	56.765	0.509
547.500	346.223	79.999	19.995	101.256	19.207	56.997	0.509
548.000	346.465	79.997	19.996	101.256	19.203	57.222	0.504
548.500	346.750	80.000	19.994	101.256	19.198	57.571	0.514
549.000	346.990	79.998	19.996	101.256	19.194	57.860	0.526
549.500	347.235	79.999	19.994	101.257	19.192	58.034	0.505
550.000	347.499	79.998	19.995	101.256	19.190	58.150	0.497
550.500	347.792	79.999	19.995	101.258	19.185	58.501	0.533
551.000	348.078	79.997	19.995	101.258	19.181	58.754	0.568
551.500	348.313	79.998	19.995	101.258	19.179	58.911	0.550
552.000	348.568	79.997	19.994	101.257	19.172	59.381	0.506
552.500	348.812	79.997	19.995	101.260	19.173	59.302	0.495
553.000	349.068	79.997	19.995	101.258	19.168	59.679	0.499
553.500	349.349	79.996	19.995	101.260	19.164	59.912	0.518
554.000	349.624	79.996	19.994	101.261	19.160	60.212	0.547
554.500	349.912	79.995	19.994	101.261	19.158	60.338	0.560
555.000	350.128	79.997	19.995	101.263	19.153	60.660	0.533
555.500	350.430	79.995	19.995	101.267	19.154	60.620	0.511
556.000	350.675	79.996	19.994	101.269	19.148	61.012	0.532
556.500	350.928	79.996	19.996	101.268	19.146	61.140	0.522
557.000	351.203	79.996	19.996	101.269	19.142	61.429	0.513
557.500	351.492	79.996	19.996	101.265	19.138	61.695	0.546
558.000	351.740	79.996	19.994	101.261	19.136	61.801	0.551
558.500	352.037	79.996	19.995	101.259	19.137	61.744	0.541
559.000	352.253	79.997	19.996	101.259	19.132	62.104	0.529
559.500	352.491	79.997	19.995	101.259	19.128	62.363	0.483
560.000	352.764	79.997	19.995	101.262	19.126	62.516	0.482
560.500	353.019	79.996	19.996	101.262	19.124	62.673	0.519
561.000	353.282	79.997	19.995	101.268	19.121	62.818	0.523
561.500	353.538	79.996	19.994	101.270	19.119	62.971	0.519
562.000	353.790	79.996	19.994	101.274	19.117	63.119	0.513
562.500	354.049	79.996	19.995	101.276	19.113	63.380	0.509
563.000	354.291	79.995	19.995	101.276	19.113	63.378	0.506
563.500	354.536	79.995	19.995	101.270	19.109	63.624	0.494
564.000	354.783	79.995	19.996	101.271	19.108	63.734	0.489
564.500	355.070	79.997	19.995	101.271	19.107	63.785	0.513
565.000	355.301	79.997	19.997	101.267	19.105	63.909	0.526
565.500	355.570	79.996	19.995	101.267	19.102	64.092	0.509
566.000	355.824	79.997	19.995	101.267	19.103	64.058	0.511
566.500	356.087	79.996	19.995	101.265	19.101	64.193	0.520
567.000	356.341	79.997	19.995	101.260	19.099	64.306	0.517
567.500	356.591	79.997	19.996	101.261	19.098	64.415	0.510
568.000	356.860	79.997	19.995	101.260	19.097	64.444	0.512
568.500	357.111	79.997	19.994	101.260	19.097	64.460	0.520
569.000	357.354	79.997	19.995	101.261	19.098	64.383	0.507
569.500	357.609	79.997	19.996	101.262	19.094	64.648	0.496
570.000	357.872	79.996	19.996	101.262	19.096	64.517	0.508
570.500	358.108	79.996	19.995	101.262	19.092	64.784	0.508
571.000	358.341	79.998	19.995	101.261	19.097	64.422	0.484
571.500	358.608	79.997	19.996	101.259	19.096	64.543	0.485
572.000	358.869	79.997	19.995	101.257	19.098	64.397	0.514
572.500	359.110	79.998	19.996	101.256	19.099	64.294	0.515
573.000	359.346	79.997	19.995	101.254	19.098	64.352	0.489
573.500	359.596	79.996	19.996	101.252	19.099	64.303	0.481
574.000	359.893	79.996	19.996	101.249	19.101	64.166	0.516
574.500	360.131	79.996	19.996	101.243	19.099	64.270	0.541
575.000	360.357	79.997	19.996	101.236	19.103	64.039	0.500
575.500	360.624	79.996	19.996	101.232	19.102	64.114	0.479
576.000	360.867	79.997	19.997	101.233	19.103	63.989	0.502
576.500	361.145	79.997	19.996	101.227	19.109	63.635	0.516
577.000	361.380	79.995	19.996	101.226	19.108	63.674	0.517
577.500	361.625	79.996	19.996	101.226	19.111	63.440	0.496
578.000	361.857	79.997	19.996	101.222	19.109	63.588	0.478
578.500	362.136	79.997	19.997	101.215	19.114	63.228	0.494
579.000	362.390	79.996	19.997	101.214	19.121	62.778	0.522
579.500	362.636	79.997	19.996	101.213	19.124	62.593	0.517
580.000	362.875	79.996	19.997	101.211	19.127	62.391	0.493
580.500	363.107	79.997	19.997	101.210	19.125	62.478	0.478
581.000	363.370	79.998	19.997	101.210	19.131	62.103	0.483
581.500	363.628	79.997	19.997	101.207	19.136	61.758	0.508
582.000	363.862	79.996	19.997	101.204	19.138	61.569	0.506
582.500	364.121	79.996	19.995	101.199	19.143	61.273	0.492
583.000	364.368	79.996	19.996	101.192	19.153	60.582	0.500
583.500	364.623	79.996	19.997	101.184	19.156	60.366	0.504
584.000	364.892	79.995	19.997	101.180	19.158	60.247	0.513
584.500	365.140	79.996	19.996	101.176	19.165	59.755	0.520
585.000	365.380	79.994	19.997	101.176	19.170	59.415	0.502
585.500	365.618	79.996	19.996	101.176	19.177	58.916	0.483
586.000	365.872	79.996	19.995	101.173	19.181	58.673	0.485
586.500	366.142	79.996	19.997	101.168	19.189	58.088	0.508
587.000	366.363	79.995	19.996	101.161	19.192	57.883	0.508
587.500	366.630	79.995	19.996	101.155	19.200	57.373	0.490
588.000	366.865	79.995	19.996	101.153	19.203	57.146	0.495
588.500	367.134	79.996	19.996	101.154	19.210	56.640	0.503
589.000	367.328	79.995	19.996	101.152	19.218	56.147	0.483
589.500	367.608	79.996	19.997	101.151	19.226	55.589	0.469
590.000	367.860	79.995	19.995	101.148	19.231	55.215	0.504
590.500	368.127	79.994	19.996	101.141	19.240	54.643	0.526
591.000	368.401	79.996	19.996	101.136	19.243	54.392	0.530
591.500	368.638	79.995	19.997	101.134	19.252	53.767	0.526
592.000	368.850	79.996	19.997	101.127	19.259	53.297	0.480
592.500	369.136	79.996	19.995	101.120	19.270	52.550	0.473
593.000	369.403	79.996	19.996	101.116	19.275	52.245	0.526
593.500	369.651	79.995	19.996	101.109	19.285	51.514	0.534
594.000	369.885	79.996	19.996	101.103	19.296	50.767	0.498
594.500	370.114	79.996	19.997	101.102	19.306	50.122	0.472
595.000	370.390	79.996	19.996	101.102	19.311	49.791	0.484
595.500	370.640	79.996	19.995	101.099	19.317	49.337	0.516
596.000	370.887	79.996	19.996	101.098	19.329	48.533	0.511
596.500	371.135	79.996	19.995	101.096	19.339	47.883	0.496
597.000	371.401	79.998	19.997	101.092	19.345	47.454	0.504
597.500	371.660	79.997	19.997	101.085	19.357	46.653	0.520
598.000	371.934	79.996	19.995	101.078	19.368	45.900	0.529
598.500	372.173	79.997	19.997	101.070	19.377	45.238	0.523
599.000	372.438	79.997	19.996	101.063	19.385	44.697	0.508
599.500	372.729	79.997	19.997	101.058	19.395	43.996	0.530
600.000	372.957	79.997	19.996	101.057	19.406	43.281	0.537
600.500	373.184	79.997	19.996	101.053	19.415	42.653	0.486
601.000	373.472	79.997	19.997	101.050	19.424	42.050	0.485
601.500	373.711	79.997	19.996	101.046	19.434	41.338	0.522
602.000	373.954	79.996	19.996	101.042	19.444	40.699	0.505
602.500	374.200	79.997	19.997	101.035	19.454	40.036	0.486
603.000	374.424	79.998	19.997	101.031	19.466	39.181	0.480
603.500	374.696	79.997	19.996	101.026	19.474	38.679	0.482
604.000	374.926	79.998	19.996	101.021	19.486	37.822	0.499
604.500	375.212	79.996	19.997	101.018	19.496	37.170	0.509
605.000	375.436	79.996	19.997	101.017	19.507	36.419	0.513
605.500	375.711	79.998	19.997	101.016	19.516	35.806	0.504
606.000	375.995	79.998	19.997	101.016	19.529	34.875	0.529
606.500	376.230	79.997	19.997	101.015	19.538	34.313	0.539
607.000	376.478	79.997	19.997	101.010	19.550	33.499	0.501
607.500	376.711	79.996	19.997	101.003	19.560	32.790	0.482
608.000	376.983	79.997	19.997	100.999	19.572	31.985	0.493
608.500	377.236	79.995	19.997	100.993	19.583	31.205	0.515
609.000	377.505	79.997	19.997	100.988	19.590	30.752	0.523
609.500	377.727	79.997	19.995	100.986	19.604	29.796	0.507
610.000	377.995	79.996	19.997	100.984	19.612	29.224	0.491
610.500	378.269	79.996	19.997	100.981	19.622	28.579	0.516
611.000	378.490	79.996	19.996	100.980	19.633	27.810	0.518
611.500	378.753	79.996	19.996	100.976	19.644	27.075	0.490
612.000	379.025	79.995	19.997	100.973	19.652	26.517	0.509
612.500	379.236	79.996	19.997	100.972	19.660	25.971	0.509
613.000	379.475	79.996	19.997	100.970	19.670	25.277	0.466
613.500	379.760	79.996	19.997	100.965	19.681	24.555	0.487
614.000	380.040	79.996	19.997	100.966	19.690	23.924	0.544
614.500	380.237	79.996	19.997	100.966	19.699	23.334	0.521
615.001	380.531	79.995	19.995	100.965	19.709	22.674	0.484
615.500	380.773	79.997	19.996	100.963	19.717	22.118	0.513
616.000	380.984	79.997	19.996	100.960	19.724	21.600	0.495
616.500	381.274	79.998	19.997	100.955	19.734	20.976	0.477
617.000	381.525	79.998	19.996	100.950	19.743	20.363	0.521
617.500	381.803	79.997	19.996	100.946	19.752	19.708	0.535
618.000	382.063	79.996	19.996	100.942	19.761	19.132	0.534
618.501	382.315	79.998	19.995	100.942	19.766	18.758	0.525
619.000	382.563	79.997	19.995	100.943	19.774	18.215	0.506
619.500	382.839	79.997	19.996	100.943	19.783	17.629	0.512
620.000	383.062	79.997	19.995	100.943	19.790	17.165	0.512
620.500	383.313	79.998	19.995	100.943	19.798	16.580	0.487
621.000	383.548	79.998	19.995	100.943	19.803	16.259	0.480
621.500	383.833	79.998	19.995	100.942	19.811	15.749	0.503
622.000	384.066	79.998	19.995	100.942	19.815	15.416	0.519
622.500	384.317	79.996	19.995	100.942	19.828	14.564	0.501
623.000	384.577	79.999	19.995	100.942	19.830	14.421	0.497
623.500	384.855	79.998	19.995	100.941	19.836	14.034	0.524
624.000	385.080	79.999	19.994	100.942	19.844	13.463	0.521
624.500	385.344	80.000	19.995	100.942	19.848	13.198	0.496
625.000	385.605	79.998	19.995	100.942	19.855	12.756	0.507
625.500	385.879	79.999	19.994	100.942	19.859	12.454	0.530
626.000	386.124	79.999	19.995	100.942	19.863	12.185	0.527
626.500	386.367	79.998	19.995	100.943	19.867	11.896	0.504
627.000	386.634	79.998	19.995	100.943	19.875	11.388	0.499
627.500	386.867	79.998	19.996	100.943	19.880	11.026	0.505
628.000	387.117	79.998	19.996	100.943	19.881	10.974	0.492
628.500	387.360	79.997	19.995	100.943	19.885	10.689	0.488
629.000	387.635	79.997	19.995	100.943	19.889	10.429	0.506
629.500	387.899	79.997	19.995	100.943	19.891	10.249	0.528
630.000	388.150	79.998	19.995	100.943	19.895	10.002	0.527
630.500	388.409	79.999	19.996	100.943	19.899	9.759	0.513
631.000	388.680	79.999	19.996	100.941	19.902	9.507	0.520
631.500	388.941	79.998	19.995	100.941	19.903	9.429	0.531
632.000	389.172	79.997	19.994	100.941	19.909	9.039	0.512
632.500	389.430	79.997	19.995	100.941	19.911	8.923	0.490
633.000	389.709	79.997	19.995	100.941	19.918	8.441	0.513
633.500	389.960	79.996	19.995	100.943	19.918	8.452	0.534
634.000	390.201	79.996	19.995	100.943	19.921	8.220	0.511
634.500	390.450	79.996	19.995	100.943	19.920	8.325	0.490
635.000	390.671	79.995	19.996	100.943	19.922	8.174	0.480
635.500	390.949	79.996	19.995	100.942	19.926	7.907	0.485
636.000	391.228	79.997	19.995	100.942	19.927	7.817	0.528
636.500	391.478	79.995	19.996	100.942	19.927	7.857	0.543
637.000	391.715	79.997	19.996	100.942	19.929	7.717	0.508
637.500	392.014	79.995	19.997	100.941	19.930	7.644	0.511
638.000	392.237	79.995	19.994	100.941	19.934	7.364	0.529
638.500	392.468	79.995	19.997	100.941	19.933	7.441	0.488
639.000	392.787	79.996	19.996	100.941	19.938	7.080	0.502
639.500	393.015	79.995	19.995	100.941	19.939	6.986	0.549
640.000	393.244	79.996	19.997	100.941	19.940	6.931	0.503
640.500	393.497	79.996	19.996	100.940	19.939	7.020	0.469
641.000	393.781	79.996	19.995	100.940	19.941	6.870	0.509
641.501	394.028	79.996	19.995	100.940	19.945	6.611	0.534
642.000	394.308	79.995	19.995	100.940	19.948	6.399	0.529
642.500	394.571	79.997	19.996	100.940	19.948	6.370	0.535
643.000	394.770	79.997	19.995	100.940	19.948	6.375	0.502
643.500	395.057	79.995	19.995	100.940	19.949	6.362	0.474
644.000	395.288	79.996	19.995	100.940	19.951	6.221	0.503
644.500	395.562	79.996	19.995	100.940	19.947	6.462	0.512
645.000	395.767	79.996	19.996	100.940	19.948	6.383	0.492
645.500	396.031	79.996	19.996	100.940	19.950	6.270	0.474
646.000	396.337	79.996	19.995	100.940	19.950	6.243	0.520
646.500	396.568	79.996	19.996	100.940	19.949	6.318	0.554
647.000	396.789	79.997	19.995	100.940	19.954	6.011	0.494
647.500	397.053	79.998	19.995	100.941	19.957	5.793	0.468
648.000	397.327	79.996	19.996	100.941	19.954	5.963	0.511
648.500	397.554	79.998	19.996	100.942	19.956	5.845	0.519
649.000	397.848	79.996	19.995	100.942	19.955	5.898	0.511
649.500	398.046	79.997	19.996	100.942	19.954	5.965	0.506
650.000	398.305	79.996	19.996	100.940	19.956	5.858	0.474
650.500	398.561	79.997	19.996	100.941	19.957	5.814	0.486
651.000	398.803	79.997	19.996	100.941	19.957	5.806	0.507
651.500	399.036	79.997	19.996	100.940	19.955	5.913	0.487
652.000	399.314	79.998	19.995	100.941	19.957	5.797	0.493
652.500	399.570	79.997	19.996	100.940	19.955	5.946	0.523
653.000	399.844	79.997	19.995	100.940	19.955	5.896	0.532
653.500	400.099	79.996	19.996	100.939	19.954	5.974	0.529
654.000	400.356	79.998	19.995	100.940	19.956	5.856	0.521
654.500	400.609	79.998	19.995	100.939	19.954	5.955	0.512
655.000	400.817	79.997	19.995	100.940	19.955	5.919	0.486
655.500	401.106	79.997	19.995	100.940	19.958	5.720	0.479
656.000	401.338	79.998	19.996	100.940	19.954	5.974	0.509
656.500	401.632	79.996	19.995	100.940	19.958	5.716	0.523
657.000	401.877	79.998	19.994	100.940	19.960	5.600	0.533
657.500	402.098	79.996	19.995	100.940	19.959	5.677	0.502
658.000	402.381	79.998	19.998	100.940	19.959	5.637	0.485
658.500	402.599	79.997	19.996	100.940	19.959	5.659	0.502
659.000	402.847	79.997	19.995	100.940	19.960	5.567	0.483
659.500	403.070	79.997	19.995	100.940	19.961	5.538	0.468
660.000	403.356	79.997	19.995	100.940	19.961	5.503	0.490
660.500	403.611	79.997	19.996	100.940	19.960	5.610	0.525
661.000	403.831	79.997	19.996	100.940	19.958	5.691	0.508
661.500	404.102	79.998	19.996	100.940	19.958	5.705	0.484
662.000	404.354	79.996	19.996	100.939	19.963	5.379	0.507
662.500	404.623	79.996	19.996	100.940	19.962	5.468	0.522
663.000	404.865	79.996	19.995	100.940	19.961	5.503	0.515
663.500	405.108	79.996	19.996	100.940	19.961	5.538	0.498
664.000	405.347	79.997	19.995	100.939	19.962	5.425	0.484
664.500	405.559	79.997	19.996	100.939	19.962	5.462	0.467
665.000	405.819	79.998	19.996	100.939	19.964	5.333	0.462
665.500	406.107	79.997	19.995	100.940	19.961	5.534	0.510
666.000	406.329	79.996	19.996	100.940	19.960	5.573	0.529
666.500	406.591	79.997	19.995	100.941	19.962	5.444	0.497
667.000	406.848	79.996	19.997	100.941	19.962	5.420	0.502
667.500	407.089	79.995	19.997	100.940	19.964	5.293	0.509
668.000	407.343	79.996	19.996	100.941	19.963	5.355	0.496
668.500	407.560	79.996	19.996	100.940	19.963	5.366	0.483
669.000	407.798	79.996	19.996	100.940	19.963	5.400	0.463
669.500	408.062	79.994	19.996	100.940	19.966	5.168	0.479
670.000	408.350	79.996	19.996	100.941	19.966	5.168	0.527
670.500	408.576	79.995	19.996	100.941	19.961	5.530	0.533
671.000	408.847	79.995	19.996	100.942	19.961	5.481	0.505
671.500	409.078	79.996	19.996	100.943	19.964	5.285	0.499
672.000	409.313	79.995	19.996	100.943	19.966	5.168	0.484
672.500	409.588	79.995	19.997	100.944	19.963	5.401	0.488
673.000	409.836	79.996	19.997	100.944	19.964	5.276	0.517
673.500	410.119	79.996	19.997	100.943	19.965	5.262	0.527
674.000	410.355	79.996	19.997	100.943	19.963	5.394	0.525
674.500	410.583	79.995	19.997	100.943	19.966	5.175	0.491
675.000	410.818	79.995	19.996	100.943	19.965	5.239	0.464
675.500	411.074	79.997	19.996	100.944	19.966	5.204	0.477
676.000	411.312	79.997	19.996	100.944	19.966	5.201	0.492
676.500	411.563	79.997	19.996	100.943	19.965	5.274	0.492
677.000	411.835	79.996	19.996	100.944	19.966	5.197	0.506
677.500	412.074	79.997	19.996	100.942	19.969	4.949	0.516
678.000	412.316	79.998	19.995	100.942	19.969	4.974	0.496
678.500	412.603	79.997	19.996	100.942	19.966	5.193	0.505
679.000	412.793	79.996	19.995	100.941	19.966	5.160	0.503
679.500	413.063	79.997	19.995	100.942	19.966	5.177	0.469
680.000	413.306	79.998	19.995	100.944	19.965	5.236	0.486
680.500	413.510	79.997	19.996	100.944	19.968	5.024	0.480
681.000	413.781	79.997	19.994	100.944	19.967	5.085	0.461
681.500	414.062	79.998	19.996	100.944	19.970	4.891	0.514
682.000	414.282	79.998	19.995	100.943	19.968	5.052	0.526
682.500	414.528	79.997	19.995	100.943	19.971	4.862	0.483
683.000	414.767	79.998	19.996	100.943	19.968	5.017	0.475
683.500	415.038	79.998	19.996	100.943	19.967	5.076	0.498
684.000	415.288	79.997	19.996	100.943	19.966	5.190	0.515
684.500	415.517	79.999	19.996	100.943	19.965	5.221	0.500
685.000	415.724	79.997	19.996	100.942	19.966	5.199	0.458
685.500	416.043	79.998	19.996	100.942	19.966	5.151	0.481
686.000	416.241	79.997	19.996	100.942	19.964	5.335	0.521
686.500	416.488	79.997	19.996	100.942	19.966	5.147	0.481
687.000	416.763	79.996	19.996	100.942	19.965	5.260	0.483
687.500	416.995	79.998	19.996	100.943	19.962	5.436	0.515
688.000	417.243	79.997	19.996	100.943	19.967	5.101	0.494
688.500	417.537	79.996	19.996	100.944	19.968	5.064	0.511
689.000	417.780	79.997	19.995	100.943	19.967	5.118	0.539
689.500	418.034	79.996	19.996	100.943	19.969	4.982	0.517
690.000	418.275	79.997	19.996	100.944	19.965	5.219	0.496
690.500	418.530	79.997	19.996	100.943	19.967	5.134	0.495
691.000	418.769	79.996	19.996	100.942	19.967	5.133	0.495
691.500	419.009	79.998	19.996	100.941	19.968	5.007	0.487
692.000	419.272	79.996	19.996	100.941	19.966	5.197	0.491
692.500	419.550	79.996	19.996	100.941	19.968	5.039	0.522
693.000	419.774	79.995	19.996	100.941	19.966	5.164	0.522
693.500	420.001	79.995	19.997	100.942	19.968	5.011	0.476
694.000	420.259	79.995	19.995	100.944	19.969	4.985	0.468
694.500	420.500	79.997	19.997	100.944	19.968	5.040	0.492
695.000	420.730	79.996	19.997	100.944	19.970	4.917	0.485
695.500	421.010	79.995	19.997	100.944	19.967	5.125	0.491
696.000	421.258	79.996	19.997	100.943	19.970	4.875	0.519
696.500	421.507	79.996	19.996	100.943	19.969	4.989	0.512
697.000	421.779	79.997	19.996	100.942	19.965	5.221	0.509
697.500	421.996	79.996	19.997	100.941	19.972	4.784	0.505
698.000	422.226	79.997	19.997	100.941	19.973	4.694	0.468
698.500	422.476	79.996	19.996	100.940	19.973	4.669	0.463
699.000	422.728	79.997	19.997	100.940	19.971	4.856	0.491
699.500	422.944	79.997	19.997	100.939	19.968	5.046	0.485
700.000	423.199	79.997	19.997	100.940	19.970	4.867	0.469
700.500	423.465	79.999	19.996	100.939	19.971	4.864	0.496
701.000	423.705	79.998	19.996	100.940	19.971	4.801	0.514
701.500	423.944	79.997	19.997	100.940	19.972	4.742	0.492
702.000	424.200	79.999	19.997	100.939	19.970	4.882	0.487
702.500	424.471	79.999	19.996	100.939	19.970	4.924	0.511
703.000	424.720	79.999	19.997	100.938	19.971	4.840	0.524
703.500	424.953	79.999	19.996	100.938	19.970	4.928	0.501
704.000	425.202	79.999	19.996	100.938	19.972	4.796	0.482
704.500	425.469	79.998	19.996	100.937	19.971	4.825	0.498
705.000	425.719	80.000	19.997	100.937	19.968	5.004	0.516
705.500	425.967	79.998	19.996	100.935	19.972	4.750	0.508
706.000	426.197	79.998	19.996	100.936	19.975	4.542	0.488
706.500	426.488	79.999	19.995	100.936	19.972	4.794	0.499
707.000	426.708	79.999	19.996	100.936	19.973	4.692	0.516
707.500	426.990	79.999	19.996	100.936	19.974	4.630	0.507
708.000	427.216	79.999	19.995	100.938	19.974	4.650	0.505
708.500	427.501	80.000	19.996	100.938	19.976	4.505	0.510
709.000	427.721	79.999	19.996	100.937	19.975	4.543	0.508
709.500	428.009	79.999	19.995	100.938	19.977	4.400	0.507
710.000	428.242	79.998	19.996	100.938	19.977	4.448	0.514
710.500	428.472	79.998	19.995	100.936	19.977	4.451	0.491
711.000	428.736	79.998	19.995	100.936	19.978	4.330	0.478
711.500	429.018	79.998	19.994	100.935	19.975	4.572	0.520
712.000	429.289	79.997	19.995	100.936	19.976	4.504	0.550
712.500	429.529	79.998	19.996	100.937	19.978	4.329	0.532
713.000	429.780	79.997	19.995	100.938	19.976	4.508	0.501
713.500	430.017	79.999	19.995	100.939	19.976	4.504	0.489
714.000	430.252	79.998	19.995	100.939	19.978	4.355	0.480
714.500	430.549	79.997	19.995	100.938	19.973	4.700	0.502
715.000	430.753	79.995	19.996	100.937	19.979	4.317	0.516
715.500	431.030	79.997	19.995	100.937	19.976	4.525	0.491
716.000	431.222	79.996	19.996	100.937	19.977	4.400	0.475
716.500	431.527	79.996	19.995	100.938	19.971	4.807	0.483
717.000	431.766	79.998	19.996	100.938	19.974	4.621	0.520
717.500	432.045	79.998	19.996	100.938	19.976	4.501	0.531
718.000	432.293	79.997	19.997	100.938	19.974	4.633	0.523
718.500	432.562	79.997	19.996	100.938	19.975	4.541	0.522
719.000	432.785	79.996	19.996	100.938	19.974	4.615	0.505
719.500	433.081	79.996	19.996	100.939	19.977	4.440	0.506
720.000	433.333	79.997	19.995	100.939	19.976	4.507	0.533
720.500	433.566	79.996	19.995	100.939	19.978	4.358	0.517
721.000	433.868	79.997	19.997	100.939	19.975	4.571	0.510
721.500	434.082	79.998	19.995	100.939	19.975	4.578	0.525
722.000	434.396	79.996	19.995	100.936	19.974	4.612	0.522
722.500	434.691	79.998	19.996	100.928	19.977	4.451	0.568
723.000	434.878	79.997	19.996	100.923	19.974	4.637	0.545
723.500	435.157	79.997	19.997	100.920	19.976	4.483	0.474
724.000	435.418	79.997	19.995	100.920	19.976	4.514	0.503
724.500	435.659	79.996	19.996	100.924	19.975	4.530	0.521
725.000	435.946	79.996	19.995	100.931	19.974	4.627	0.515
725.500	436.195	79.997	19.995	100.937	19.975	4.532	0.532
726.000	436.397	79.997	19.996	100.939	19.974	4.600	0.494
726.500	436.695	79.995	19.996	100.939	19.976	4.500	0.476
727.000	436.971	79.996	19.996	100.940	19.975	4.580	0.537
727.500	437.217	79.997	19.996	100.939	19.977	4.429	0.547
728.000	437.433	79.996	19.997	100.938	19.974	4.654	0.492
728.500	437.711	79.997	19.997	100.937	19.975	4.556	0.478
729.000	437.982	79.997	19.996	100.937	19.975	4.563	0.521
729.500	438.232	79.995	19.997	100.937	19.975	4.571	0.535
730.000	438.478	79.996	19.996	100.938	19.975	4.552	0.509
730.500	438.702	79.997	19.996	100.940	19.978	4.372	0.483
731.000	438.973	79.997	19.996	100.941	19.977	4.409	0.483
731.500	439.189	79.997	19.995	100.941	19.980	4.188	0.492
732.000	439.509	79.998	19.995	100.941	19.977	4.417	0.512
732.500	439.759	79.996	19.995	100.941	19.977	4.426	0.553
733.000	439.991	79.997	19.996	100.941	19.978	4.356	0.526
733.500	440.298	79.997	19.996	100.941	19.979	4.282	0.511
734.000	440.527	79.996	19.995	100.937	19.979	4.286	0.537
734.500	440.774	79.997	19.996	100.936	19.979	4.271	0.506
735.000	441.013	79.997	19.995	100.935	19.978	4.350	0.481
735.500	441.256	79.997	19.996	100.928	19.981	4.122	0.484
736.000	441.517	79.996	19.996	100.926	19.981	4.157	0.493
736.500	441.796	79.997	19.996	100.929	19.983	3.991	0.522
737.000	442.032	79.996	19.996	100.930	19.983	4.032	0.527
737.500	442.285	79.997	19.995	100.927	19.981	4.150	0.502
738.000	442.542	79.996	19.996	100.932	19.980	4.234	0.500
738.500	442.816	79.996	19.995	100.934	19.981	4.126	0.521
739.000	443.030	79.995	19.995	100.934	19.982	4.092	0.510
739.500	443.326	79.996	19.995	100.933	19.981	4.173	0.499
740.000	443.576	79.996	19.996	100.934	19.983	3.989	0.528
740.500	443.814	79.996	19.997	100.935	19.980	4.195	0.517
741.000	444.086	79.996	19.995	100.936	19.982	4.118	0.499
741.500	444.321	79.996	19.996	100.937	19.981	4.131	0.508
742.000	444.604	79.996	19.995	100.939	19.979	4.304	0.512
742.500	444.865	79.996	19.995	100.942	19.983	4.008	0.530
743.000	445.131	79.995	19.995	100.943	19.982	4.100	0.535
743.500	445.354	79.994	19.995	100.942	19.979	4.317	0.508
744.000	445.611	79.995	19.995	100.938	19.982	4.058	0.485
744.500	445.877	79.996	19.994	100.936	19.982	4.092	0.502
745.000	446.155	79.996	19.995	100.935	19.983	4.041	0.533
745.500	446.398	79.996	19.996	100.934	19.981	4.133	0.532
746.000	446.635	79.995	19.995	100.935	19.979	4.298	0.501
746.500	446.884	79.995	19.996	100.937	19.981	4.149	0.484
747.000	447.151	79.996	19.996	100.938	19.984	3.949	0.501
747.500	447.371	79.996	19.995	100.940	19.986	3.796	0.501
748.000	447.638	79.996	19.996	100.941	19.984	3.923	0.487
748.500	447.924	79.995	19.995	100.941	19.983	3.998	0.521
749.000	448.182	79.995	19.996	100.942	19.982	4.061	0.549
749.500	448.451	79.996	19.994	100.941	19.983	4.015	0.535
750.000	448.701	79.995	19.996	100.936	19.986	3.834	0.523
750.500	448.959	79.996	19.996	100.934	19.984	3.917	0.514
751.000	449.211	79.996	19.997	100.933	19.984	3.967	0.509
751.500	449.481	79.995	19.995	100.930	19.983	4.040	0.516
752.000	449.720	79.995	19.995	100.930	19.982	4.086	0.515
752.500	449.966	79.995	19.995	100.936	19.987	3.734	0.497
753.000	450.243	79.995	19.995	100.939	19.987	3.764	0.504
753.500	450.509	79.996	19.996	100.939	19.986	3.806	0.533
754.000	450.729	79.995	19.994	100.942	19.984	3.932	0.515
754.500	451.010	79.995	19.995	100.943	19.985	3.906	0.494
755.000	451.286	79.996	19.995	100.943	19.987	3.766	0.529
755.500	451.512	79.996	19.995	100.938	19.984	3.947	0.529
756.000	451.791	79.995	19.995	100.938	19.988	3.685	0.504
756.500	452.014	79.995	19.996	100.936	19.985	3.882	0.504
757.000	452.276	79.998	19.996	100.934	19.989	3.623	0.493
757.500	452.554	79.996	19.996	100.934	19.985	3.847	0.512
758.000	452.791	79.996	19.996	100.938	19.985	3.869	0.528
758.500	453.032	79.997	19.996	100.938	19.989	3.636	0.497
759.000	453.311	79.997	19.996	100.937	19.990	3.556	0.499
759.500	453.563	79.997	19.996	100.937	19.987	3.718	0.526
760.000	453.811	79.998	19.995	100.937	19.987	3.768	0.516
760.500	454.065	79.996	19.995	100.934	19.987	3.728	0.501
761.000	454.362	79.998	19.996	100.930	19.990	3.567	0.526
761.500	454.588	79.998	19.996	100.929	19.989	3.637	0.537
762.000	454.827	79.997	19.996	100.926	19.988	3.694	0.494
762.500	455.075	79.997	19.996	100.920	19.987	3.735	0.476
763.000	455.376	79.999	19.996	100.919	19.989	3.580	0.518
763.500	455.577	79.998	19.995	100.917	19.988	3.696	0.526
764.000	455.845	79.999	19.997	100.918	19.991	3.459	0.486
764.500	456.100	79.998	19.995	100.920	19.988	3.657	0.496
765.000	456.366	79.997	19.996	100.924	19.989	3.611	0.522
765.500	456.606	79.998	19.995	100.927	19.988	3.700	0.513
766.000	456.884	79.998	19.996	100.930	19.989	3.608	0.512
766.500	457.135	79.998	19.996	100.931	19.991	3.505	0.524
767.000	457.400	79.998	19.998	100.933	19.992	3.426	0.522
767.500	457.656	79.998	19.996	100.934	19.990	3.536	0.518
768.000	457.872	79.998	19.996	100.934	19.992	3.392	0.496
768.500	458.128	79.996	19.996	100.933	19.992	3.390	0.472
769.000	458.384	79.998	19.996	100.933	19.993	3.326	0.492
769.500	458.658	79.995	19.996	100.933	19.993	3.351	0.521
770.000	458.915	79.996	19.996	100.934	19.994	3.297	0.531
770.500	459.133	79.997	19.995	100.934	19.992	3.398	0.503
771.000	459.410	79.997	19.996	100.934	19.994	3.266	0.485
771.500	459.673	79.997	19.996	100.931	19.992	3.396	0.517
772.000	459.965	79.997	19.996	100.927	19.991	3.459	0.548
772.500	460.198	79.998	19.995	100.927	19.995	3.177	0.541
773.000	460.443	79.997	19.996	100.926	19.994	3.265	0.502
773.500	460.710	79.996	19.995	100.926	19.989	3.604	0.495
774.000	460.963	79.998	19.997	100.929	19.993	3.359	0.516
774.500	461.203	79.998	19.995	100.930	19.995	3.223	0.506
775.000	461.469	79.998	19.995	100.928	19.993	3.306	0.499
775.500	461.752	79.997	19.996	100.926	19.995	3.171	0.528
776.000	462.000	79.997	19.995	100.928	19.995	3.208	0.541
776.500	462.207	79.997	19.995	100.929	19.996	3.155	0.494
777.000	462.490	79.996	19.995	100.932	19.996	3.120	0.472
777.500	462.746	79.998	19.996	100.935	19.997	3.081	0.514
778.000	463.007	79.997	19.996	100.934	19.999	2.939	0.528
778.500	463.271	79.998	19.995	100.926	19.995	3.180	0.522
779.000	463.499	79.998	19.995	100.918	19.996	3.145	0.509
779.500	463.736	79.998	19.996	100.911	19.995	3.181	0.478
780.000	463.996	79.999	19.996	100.909	19.997	3.078	0.481
780.500	464.233	79.999	19.996	100.914	19.996	3.159	0.497
781.000	464.498	79.998	19.996	100.921	19.994	3.241	0.500
781.500	464.757	79.997	19.996	100.929	19.999	2.954	0.513
782.000	465.009	79.998	19.996	100.935	19.998	2.969	0.518
782.500	465.254	79.999	19.997	100.934	19.996	3.138	0.504
783.000	465.509	79.999	19.996	100.933	19.997	3.059	0.499
783.500	465.749	79.998	19.996	100.933	20.000	2.868	0.497
784.000	466.012	80.001	19.996	100.928	19.996	3.127	0.499
784.500	466.278	79.999	19.996	100.925	19.997	3.043	0.516
785.000	466.525	79.998	19.996	100.925	19.996	3.146	0.521
785.500	466.762	79.999	19.997	100.924	19.998	2.982	0.498
786.000	467.069	79.999	19.996	100.918	20.000	2.873	0.514
786.500	467.283	79.999	19.997	100.918	20.001	2.789	0.533
787.000	467.515	79.999	19.996	100.922	19.999	2.910	0.484
787.500	467.750	80.000	19.996	100.923	19.997	3.043	0.456
788.000	468.046	80.000	19.996	100.919	19.998	2.987	0.499
788.500	468.294	79.998	19.997	100.921	19.998	3.030	0.538
789.000	468.556	79.999	19.996	100.921	19.998	3.007	0.527
789.500	468.782	79.997	19.996	100.916	19.999	2.937	0.499
790.000	469.047	79.997	19.996	100.917	19.997	3.070	0.490
790.500	469.333	79.999	19.997	100.922	20.002	2.698	0.521
791.000	469.560	79.997	19.997	100.925	20.000	2.873	0.532
791.500	469.793	79.997	19.996	100.924	20.000	2.893	0.487
792.000	470.035	79.998	19.996	100.925	20.000	2.862	0.468
792.500	470.300	79.997	19.997	100.925	20.001	2.777	0.491
793.000	470.562	79.998	19.996	100.926	20.003	2.671	0.517
793.500	470.823	79.997	19.997	100.926	20.001	2.787	0.525
794.000	471.061	79.996	19.997	100.931	20.003	2.650	0.511
794.500	471.298	79.997	19.996	100.931	20.002	2.708	0.487
795.000	471.556	79.997	19.997	100.927	20.002	2.739	0.485
795.500	471.761	79.996	19.997	100.922	20.005	2.536	0.479
796.000	472.029	79.995	19.997	100.923	20.006	2.446	0.468
796.500	472.275	79.997	19.996	100.923	20.003	2.649	0.494
797.000	472.565	79.997	19.996	100.925	20.007	2.406	0.525
797.500	472.797	79.997	19.996	100.928	20.002	2.706	0.529
798.000	473.036	79.997	19.995	100.930	20.006	2.429	0.497
798.500	473.312	79.995	19.997	100.927	20.008	2.325	0.493
799.000	473.535	79.997	19.995	100.925	20.005	2.488	0.507
799.500	473.819	79.998	19.995	100.922	20.009	2.266	0.504
800.000	474.071	79.996	19.995	100.917	20.008	2.339	0.522
800.500	474.341	79.997	19.995	100.917	20.009	2.220	0.529
801.000	474.585	79.997	19.994	100.919	20.008	2.306	0.517
801.500	474.804	79.997	19.996	100.918	20.009	2.268	0.489
802.000	475.062	79.998	19.995	100.922	20.009	2.233	0.471
802.500	475.291	79.997	19.995	100.923	20.010	2.155	0.482
803.000	475.556	79.996	19.995	100.921	20.010	2.190	0.490
803.500	475.797	79.995	19.996	100.920	20.008	2.343	0.500
804.000	476.062	79.997	19.994	100.920	20.006	2.470	0.506
804.500	476.314	79.996	19.995	100.922	20.010	2.153	0.511
805.000	476.561	79.996	19.995	100.921	20.012	2.076	0.508
805.500	476.804	79.996	19.995	100.924	20.010	2.174	0.495
806.000	477.070	79.996	19.995	100.925	20.009	2.238	0.500
806.500	477.329	79.996	19.996	100.925	20.006	2.429	0.517
807.000	477.551	79.996	19.995	100.920	20.011	2.111	0.503
807.500	477.822	79.996	19.996	100.921	20.012	2.050	0.487
808.000	478.014	79.996	19.995	100.920	20.013	2.008	0.478
808.500	478.303	79.995	19.996	100.918	20.012	2.070	0.472
809.000	478.521	79.996	19.995	100.914	20.012	2.034	0.494
809.500	478.817	79.996	19.995	100.914	20.014	1.914	0.511
810.000	479.047	79.996	19.995	100.917	20.014	1.884	0.520
810.500	479.288	79.997	19.994	100.921	20.016	1.785	0.498
811.000	479.547	79.996	19.996	100.922	20.012	2.035	0.486
811.500	479.809	79.996	19.996	100.923	20.016	1.794	0.510
812.000	480.079	79.998	19.995	100.924	20.016	1.743	0.526
812.500	480.340	79.996	19.996	100.920	20.015	1.842	0.531
813.000	480.554	79.997	19.994	100.915	20.016	1.792	0.503
813.500	480.817	79.997	19.995	100.914	20.017	1.702	0.476
814.000	481.069	79.997	19.995	100.915	20.017	1.711	0.496
814.500	481.288	79.997	19.996	100.915	20.016	1.800	0.493
815.000	481.558	79.997	19.996	100.913	20.018	1.669	0.480
815.500	481.812	79.997	19.996	100.911	20.016	1.767	0.506
816.000	482.032	79.996	19.996	100.909	20.018	1.658	0.499
816.500	482.281	79.996	19.996	100.913	20.018	1.618	0.471
817.000	482.483	79.996	19.995	100.914	20.016	1.789	0.460
817.500	482.737	79.996	19.995	100.914	20.017	1.680	0.454
818.000	482.980	79.996	19.995	100.914	20.015	1.866	0.477
818.500	483.254	79.996	19.995	100.913	20.015	1.837	0.507
819.000	483.502	79.995	19.994	100.908	20.018	1.665	0.519
819.500	483.747	79.996	19.994	100.906	20.017	1.706	0.507
820.000	483.968	79.997	19.996	100.905	20.022	1.336	0.480
820.500	484.199	79.996	19.995	100.904	20.018	1.616	0.459
821.000	484.451	79.996	19.995	100.904	20.020	1.509	0.467
821.500	484.695	79.995	19.995	100.904	20.019	1.535	0.490
822.000	484.964	79.997	19.995	100.905	20.019	1.598	0.505
822.500	485.193	79.997	19.995	100.905	20.018	1.636	0.505
823.000	485.382	79.996	19.995	100.905	20.021	1.452	0.457
823.500	485.663	79.996	19.995	100.906	20.021	1.399	0.444
824.000	485.872	79.997	19.996	100.906	20.020	1.478	0.480
824.500	486.150	79.996	19.995	100.906	20.026	1.119	0.489
825.000	486.367	79.995	19.996	100.906	20.023	1.283	0.491
825.500	486.630	79.996	19.995	100.905	20.023	1.305	0.487
826.000	486.847	79.996	19.994	100.905	20.022	1.371	0.480
826.500	487.101	79.996	19.995	100.905	20.023	1.276	0.476
827.000	487.307	79.996	19.996	100.906	20.024	1.196	0.465
827.500	487.563	79.996	19.995	100.906	20.025	1.147	0.461
828.000	487.775	79.997	19.995	100.909	20.022	1.397	0.465
828.500	487.990	79.996	19.995	100.909	20.019	1.539	0.448
829.000	488.244	79.997	19.995	100.908	20.024	1.207	0.448
829.500	488.472	79.996	19.995	100.907	20.021	1.430	0.476
830.000	488.680	79.996	19.995	100.906	20.025	1.132	0.459
830.500	488.937	79.998	19.995	100.904	20.026	1.121	0.451
831.000	489.179	79.996	19.995	100.905	20.024	1.202	0.482
831.500	489.395	79.997	19.994	100.908	20.025	1.145	0.478
832.000	489.654	79.998	19.996	100.911	20.024	1.257	0.466
832.500	489.875	79.997	19.994	100.917	20.024	1.205	0.478
833.000	490.109	79.998	19.995	100.922	20.022	1.382	0.468
833.500	490.329	79.998	19.995	100.926	20.025	1.183	0.454
834.000	490.588	79.997	19.995	100.923	20.025	1.126	0.466
834.500	490.799	79.998	19.995	100.920	20.023	1.314	0.475
835.000	491.073	79.998	19.995	100.915	20.021	1.413	0.478
835.500	491.306	79.997	19.996	100.913	20.025	1.191	0.496
836.000	491.531	79.998	19.995	100.912	20.025	1.180	0.483
836.500	491.754	79.998	19.995	100.917	20.025	1.134	0.453
837.000	491.999	79.999	19.995	100.920	20.026	1.062	0.457
837.500	492.276	79.997	19.995	100.920	20.026	1.117	0.495
838.000	492.508	79.998	19.995	100.919	20.025	1.183	0.516
838.500	492.741	79.999	19.995	100.920	20.027	1.023	0.487
839.000	493.000	80.000	19.995	100.916	20.025	1.156	0.478
839.500	493.260	79.998	19.995	100.914	20.028	0.924	0.505
840.000	493.470	79.999	19.995	100.913	20.025	1.134	0.495
840.500	493.720	79.999	19.995	100.910	20.025	1.134	0.465
841.000	493.942	79.998	19.995	100.904	20.023	1.266	0.466
841.500	494.195	79.999	19.995	100.903	20.024	1.261	0.473
842.000	494.430	79.998	19.995	100.903	20.025	1.159	0.481
842.500	494.625	79.998	19.996	100.903	20.024	1.231	0.459
843.000	494.881	79.999	19.994	100.905	20.025	1.163	0.440
843.500	495.166	79.998	19.996	100.907	20.023	1.281	0.496
844.000	495.394	79.998	19.996	100.908	20.023	1.264	0.527
844.500	495.595	79.998	19.997	100.910	20.024	1.259	0.470
845.000	495.859	79.999	19.996	100.913	20.024	1.200	0.447
845.500	496.076	79.998	19.995	100.912	20.024	1.237	0.473
846.000	496.317	79.999	19.996	100.910	20.023	1.292	0.470
846.500	496.551	79.998	19.996	100.911	20.024	1.241	0.467
847.000	496.817	79.997	19.997	100.909	20.023	1.274	0.487
847.500	497.017	79.998	19.996	100.909	20.024	1.217	0.482
848.000	497.261	79.998	19.995	100.909	20.024	1.252	0.455
848.500	497.514	79.998	19.996	100.907	20.021	1.445	0.471
849.000	497.757	79.998	19.996	100.905	20.025	1.169	0.497
849.500	497.952	79.999	19.996	100.905	20.024	1.209	0.467
850.000	498.226	79.997	19.996	100.907	20.024	1.213	0.453
850.500	498.431	79.998	19.995	100.910	20.024	1.248	0.474
851.000	498.687	79.998	19.996	100.913	20.028	0.941	0.470
851.500	498.931	79.997	19.996	100.914	20.025	1.152	0.480
852.000	499.168	79.997	19.996	100.913	20.025	1.173	0.491
852.500	499.397	79.998	19.996	100.910	20.023	1.268	0.474
853.000	499.647	79.997	19.996	100.909	20.023	1.283	0.473
853.500	499.907	79.998	19.996	100.909	20.026	1.081	0.495
854.000	500.124	79.997	19.997	100.909	20.027	1.009	0.493
854.501	500.364	79.997	19.996	100.911	20.024	1.211	0.467
855.000	500.594	79.998	19.996	100.912	20.027	1.047	0.464
855.500	500.856	79.997	19.996	100.913	20.026	1.114	0.481
856.000	501.087	79.998	19.995	100.917	20.026	1.117	0.492
856.500	501.327	79.998	19.995	100.920	20.026	1.086	0.482
857.000	501.546	79.998	19.996	100.924	20.025	1.162	0.465
857.500	501.828	79.998	19.996	100.926	20.027	1.025	0.480
858.000	502.040	79.998	19.995	100.931	20.026	1.086	0.497
858.500	502.279	79.997	19.996	100.932	20.027	1.038	0.472
859.000	502.539	79.999	19.996	100.936	20.028	0.987	0.475
859.500	502.792	79.998	19.997	100.936	20.030	0.808	0.506
860.000	503.040	79.998	19.997	100.938	20.027	1.046	0.507
860.500	503.271	79.999	19.995	100.937	20.026	1.092	0.490
861.000	503.546	80.000	19.996	100.937	20.025	1.147	0.493
861.500	503.802	79.999	19.996	100.937	20.024	1.255	0.519
862.000	504.050	79.998	19.995	100.938	20.024	1.219	0.518
862.500	504.312	79.998	19.995	100.937	20.026	1.070	0.507
863.000	504.573	79.999	19.995	100.937	20.026	1.081	0.517
863.500	504.863	79.999	19.995	100.935	20.027	1.038	0.537
864.000	505.135	79.998	19.995	100.934	20.027	1.013	0.556
864.500	505.351	79.999	19.995	100.933	20.027	1.022	0.525
865.000	505.652	80.000	19.996	100.934	20.027	1.055	0.503
865.500	505.901	79.999	19.995	100.935	20.025	1.184	0.534
866.000	506.163	79.999	19.996	100.933	20.024	1.206	0.530
866.500	506.448	79.999	19.996	100.934	20.028	0.970	0.528
867.000	506.711	80.000	19.995	100.936	20.027	0.998	0.547
867.500	506.961	80.000	19.996	100.935	20.026	1.086	0.531
868.000	507.243	79.999	19.996	100.935	20.024	1.211	0.522
868.500	507.533	79.999	19.994	100.939	20.025	1.143	0.552
869.000	507.807	79.998	19.995	100.939	20.025	1.149	0.568
869.500	508.064	79.999	19.996	100.939	20.026	1.081	0.547
870.000	508.359	79.998	19.996	100.939	20.027	1.042	0.542
870.500	508.623	79.998	19.996	100.939	20.030	0.821	0.555
871.000	508.884	79.998	19.995	100.939	20.026	1.081	0.541
871.500	509.179	79.997	19.995	100.939	20.028	0.979	0.540
872.000	509.457	79.998	19.996	100.939	20.028	0.937	0.565
872.500	509.753	79.997	19.995	100.938	20.027	1.011	0.574
873.000	510.054	79.997	19.995	100.938	20.027	1.027	0.586
873.500	510.310	79.996	19.995	100.938	20.029	0.897	0.577
874.000	510.558	79.993	19.995	100.938	20.026	1.099	0.530
874.500	510.846	79.995	19.997	100.940	20.024	1.208	0.520
875.000	511.111	79.996	19.998	100.941	20.025	1.175	0.545
875.500	511.389	79.996	19.998	100.941	20.027	0.996	0.548
876.000	511.670	79.995	19.998	100.941	20.027	0.994	0.551
876.500	511.973	79.995	19.996	100.941	20.026	1.059	0.572
877.000	512.248	79.995	19.997	100.938	20.027	1.053	0.581
877.500	512.539	79.996	19.997	100.937	20.030	0.851	0.572
878.000	512.804	79.995	19.996	100.936	20.029	0.915	0.561
878.500	513.095	79.995	19.996	100.936	20.026	1.103	0.556
879.000	513.389	79.996	19.996	100.936	20.031	0.770	0.571
879.500	513.659	79.995	19.996	100.939	20.030	0.849	0.574
880.000	513.963	79.994	19.996	100.940	20.028	0.957	0.569
880.500	514.253	79.994	19.996	100.940	20.029	0.878	0.584
881.000	514.581	79.994	19.995	100.941	20.029	0.882	0.606
881.500	514.802	79.995	19.996	100.941	20.027	1.035	0.584
882.000	515.112	79.996	19.996	100.941	20.028	0.972	0.540
882.500	515.373	79.995	19.995	100.941	20.029	0.887	0.551
883.000	515.703	79.994	19.996	100.940	20.029	0.873	0.581
883.500	515.993	79.995	19.996	100.940	20.028	0.948	0.606
884.000	516.275	79.995	19.995	100.940	20.029	0.915	0.596
884.500	516.563	79.995	19.997	100.942	20.028	0.939	0.571
885.000	516.876	79.996	19.997	100.942	20.029	0.902	0.585
885.500	517.166	79.996	19.996	100.943	20.028	0.963	0.602
886.000	517.439	79.995	19.997	100.944	20.028	0.979	0.583
886.500	517.709	79.996	19.995	100.944	20.029	0.915	0.553
887.000	518.008	79.996	19.997	100.944	20.026	1.084	0.556
887.500	518.239	79.994	19.996	100.944	20.030	0.839	0.549
888.000	518.531	79.996	19.995	100.944	20.027	1.031	0.526
888.500	518.847	79.995	19.996	100.943	20.028	0.957	0.566
889.000	519.124	79.996	19.996	100.943	20.030	0.841	0.600
889.500	519.405	79.996	19.996	100.942	20.028	0.954	0.575
890.000	519.711	79.998	19.995	100.942	20.028	0.939	0.573
890.500	520.021	79.998	19.995	100.941	20.029	0.873	0.601
891.000	520.344	79.998	19.996	100.942	20.026	1.084	0.625
891.500	520.588	79.996	19.996	100.942	20.029	0.891	0.601
892.000	520.922	79.996	19.995	100.942	20.026	1.108	0.573
892.500	521.166	79.997	19.996	100.941	20.031	0.760	0.578
893.000	521.487	79.996	19.995	100.941	20.027	1.007	0.571
893.500	521.764	79.998	19.995	100.941	20.030	0.832	0.581
894.000	522.019	79.996	19.996	100.941	20.029	0.880	0.565
894.500	522.299	79.997	19.996	100.940	20.033	0.639	0.534
895.000	522.614	79.996	19.995	100.938	20.029	0.862	0.565
895.500	522.897	79.997	19.996	100.938	20.029	0.878	0.596
896.000	523.203	79.996	19.996	100.937	20.027	1.049	0.594
896.500	523.506	79.997	19.996	100.936	20.026	1.081	0.599
897.000	523.790	79.998	19.996	100.935	20.029	0.858	0.598
897.500	524.042	79.996	19.996	100.936	20.026	1.079	0.561
898.000	524.345	79.996	19.996	100.934	20.029	0.874	0.545
898.500	524.664	79.996	19.994	100.932	20.028	0.974	0.588
899.000	524.947	79.996	19.995	100.932	20.031	0.782	0.612
899.500	525.219	79.996	19.994	100.931	20.030	0.851	0.579
900.000	525.505	79.998	19.994	100.930	20.031	0.736	0.557
900.500	525.781	79.997	19.995	100.931	20.027	0.996	0.560
901.000	526.058	79.998	19.995	100.934	20.030	0.821	0.557
901.500	526.352	79.997	19.995	100.935	20.031	0.747	0.562
902.000	526.635	79.995	19.996	100.937	20.032	0.661	0.575
902.500	526.932	79.997	19.995	100.938	20.030	0.841	0.579
903.000	527.203	79.995	19.995	100.939	20.028	0.966	0.574
903.500	527.497	79.995	19.995	100.940	20.030	0.812	0.566
904.000	527.805	79.996	19.995	100.940	20.034	0.558	0.583
904.500	528.076	79.996	19.995	100.941	20.031	0.738	0.591
905.000	528.368	79.996	19.995	100.940	20.031	0.718	0.571
905.500	528.654	79.997	19.995	100.939	20.032	0.703	0.571
906.000	528.902	79.996	19.995	100.937	20.031	0.747	0.556
906.500	529.220	79.996	19.996	100.936	20.029	0.860	0.550
907.000	529.519	79.996	19.995	100.938	20.031	0.725	0.591
907.501	529.823	79.997	19.996	100.938	20.031	0.782	0.610
908.000	530.081	79.997	19.996	100.938	20.032	0.692	0.583
908.500	530.400	79.997	19.996	100.941	20.032	0.711	0.570
909.000	530.648	79.996	19.996	100.940	20.032	0.700	0.572
909.500	530.938	79.997	19.997	100.939	20.031	0.747	0.552
910.001	531.222	79.997	19.996	100.939	20.031	0.723	0.556
910.500	531.501	79.997	19.996	100.939	20.029	0.874	0.568
911.000	531.806	79.997	19.996	100.938	20.031	0.746	0.573
911.500	532.084	79.997	19.996	100.939	20.031	0.722	0.584
912.000	532.340	79.997	19.996	100.939	20.030	0.803	0.559
912.500	532.651	79.996	19.996	100.938	20.031	0.781	0.551
913.000	532.986	79.996	19.997	100.938	20.027	1.024	0.607
913.500	533.259	79.997	19.995	100.938	20.031	0.718	0.627
914.000	533.484	79.997	19.996	100.939	20.031	0.775	0.552
914.500	533.799	79.996	19.996	100.940	20.031	0.760	0.519
915.000	534.090	79.998	19.996	100.941	20.028	0.926	0.573
915.500	534.374	79.998	19.996	100.941	20.031	0.747	0.591
916.000	534.677	79.997	19.996	100.941	20.030	0.819	0.581
916.500	534.966	79.999	19.995	100.938	20.031	0.729	0.590
917.000	535.265	79.996	19.996	100.936	20.034	0.517	0.590
917.500	535.560	79.997	19.996	100.934	20.030	0.851	0.591
918.000	535.839	79.999	19.995	100.934	20.032	0.689	0.584
918.500	536.092	79.997	19.996	100.933	20.033	0.630	0.553
919.000	536.384	79.999	19.996	100.935	20.031	0.751	0.539
919.500	536.648	79.998	19.995	100.937	20.033	0.613	0.551
920.000	536.945	79.998	19.995	100.938	20.030	0.806	0.559
920.500	537.203	79.997	19.995	100.936	20.032	0.714	0.558
921.000	537.486	79.998	19.996	100.938	20.031	0.742	0.548
921.500	537.775	80.000	19.995	100.939	20.029	0.854	0.556
922.000	538.055	79.999	19.996	100.939	20.031	0.764	0.570
922.500	538.318	79.999	19.994	100.940	20.034	0.550	0.556
923.000	538.599	79.999	19.995	100.942	20.030	0.790	0.543
923.500	538.868	79.997	19.995	100.942	20.030	0.817	0.546
924.000	539.151	80.000	19.995	100.941	20.030	0.788	0.551
924.500	539.444	79.999	19.996	100.940	20.030	0.847	0.564
925.000	539.706	80.000	19.996	100.938	20.030	0.801	0.566
925.500	539.979	79.998	19.994	100.938	20.033	0.637	0.545
926.000	540.239	79.998	19.995	100.938	20.029	0.898	0.534
926.500	540.554	79.998	19.996	100.939	20.028	0.944	0.554
927.000	540.808	79.998	19.995	100.940	20.031	0.784	0.572
927.500	541.107	79.998	19.995	100.942	20.029	0.898	0.561
928.000	541.398	79.998	19.995	100.942	20.031	0.718	0.571
928.500	541.655	79.997	19.996	100.942	20.034	0.545	0.569
929.000	541.917	79.998	19.995	100.942	20.030	0.826	0.534
929.500	542.178	79.997	19.996	100.942	20.028	0.953	0.521
930.000	542.471	79.997	19.995	100.942	20.031	0.780	0.538
930.500	542.761	79.997	19.996	100.941	20.030	0.801	0.569
931.000	543.040	79.998	19.995	100.942	20.033	0.622	0.576
931.500	543.296	79.998	19.995	100.942	20.031	0.768	0.552
932.000	543.565	79.998	19.995	100.942	20.030	0.828	0.530
932.500	543.840	79.997	19.995	100.942	20.026	1.070	0.534
933.000	544.131	79.998	19.995	100.943	20.029	0.902	0.555
933.500	544.409	79.998	19.995	100.942	20.029	0.904	0.568
934.000	544.646	79.997	19.994	100.940	20.029	0.911	0.542
934.500	544.917	79.997	19.996	100.939	20.031	0.735	0.512
935.000	545.189	79.998	19.996	100.940	20.032	0.714	0.526
935.500	545.488	79.997	19.996	100.940	20.029	0.865	0.557
936.000	545.737	79.997	19.995	100.941	20.029	0.860	0.559
936.500	546.012	79.997	19.994	100.941	20.030	0.808	0.536
937.000	546.283	79.997	19.995	100.940	20.030	0.843	0.535
937.500	546.580	79.997	19.995	100.937	20.027	1.042	0.557
938.000	546.836	79.997	19.996	100.934	20.031	0.755	0.561
938.500	547.095	79.998	19.996	100.933	20.030	0.790	0.534
939.000	547.397	79.997	19.996	100.931	20.029	0.908	0.538
939.500	547.648	79.998	19.996	100.928	20.032	0.712	0.557
940.000	547.932	79.998	19.995	100.926	20.031	0.768	0.544
940.500	548.226	79.998	19.996	100.924	20.033	0.600	0.556
941.000	548.469	79.999	19.995	100.921	20.031	0.753	0.557
941.500	548.739	79.998	19.995	100.921	20.029	0.876	0.525
942.000	549.003	79.998	19.995	100.926	20.032	0.657	0.524
942.500	549.267	79.999	19.995	100.928	20.032	0.652	0.531
943.000	549.533	79.999	19.996	100.931	20.034	0.578	0.529
943.500	549.797	80.000	19.996	100.934	20.033	0.630	0.530
944.000	550.104	79.999	19.995	100.937	20.034	0.563	0.551
944.500	550.351	79.999	19.996	100.937	20.035	0.479	0.563
945.000	550.642	79.999	19.994	100.939	20.035	0.491	0.546
945.500	550.882	80.000	19.996	100.941	20.031	0.733	0.534
946.000	551.148	79.999	19.994	100.941	20.033	0.641	0.518
946.500	551.371	79.998	19.995	100.940	20.033	0.602	0.498
947.000	551.646	79.999	19.994	100.940	20.032	0.677	0.494
947.500	551.936	79.999	19.996	100.940	20.031	0.725	0.531
948.000	552.185	79.999	19.995	100.940	20.033	0.615	0.552
948.500	552.518	79.998	19.995	100.940	20.036	0.445	0.561
949.000	552.749	80.000	19.995	100.940	20.036	0.412	0.573
949.500	553.010	79.999	19.995	100.941	20.036	0.405	0.528
950.000	553.274	79.999	19.995	100.942	20.036	0.422	0.508
950.500	553.544	79.999	19.994	100.942	20.035	0.466	0.529
951.000	553.824	79.999	19.995	100.942	20.032	0.659	0.542
951.500	554.066	79.998	19.996	100.943	20.030	0.837	0.536
952.000	554.368	79.999	19.994	100.942	20.032	0.683	0.533
952.500	554.630	79.997	19.995	100.942	20.033	0.598	0.554
953.000	554.901	79.998	19.995	100.939	20.033	0.595	0.549
953.500	555.179	79.998	19.995	100.935	20.032	0.700	0.541
954.000	555.433	79.996	19.995	100.935	20.031	0.733	0.540
954.500	555.710	79.996	19.996	100.931	20.030	0.793	0.531
955.000	555.956	79.998	19.996	100.924	20.030	0.788	0.527
955.500	556.229	79.997	19.996	100.920	20.030	0.828	0.521
956.000	556.479	79.996	19.996	100.920	20.032	0.679	0.521
956.500	556.789	79.997	19.995	100.917	20.033	0.641	0.541
957.000	556.998	79.997	19.996	100.918	20.032	0.709	0.539
957.500	557.265	79.998	19.997	100.922	20.033	0.609	0.498
958.000	557.575	79.997	19.995	100.923	20.031	0.736	0.527
958.500	557.814	79.998	19.996	100.924	20.029	0.865	0.563
959.000	558.065	79.997	19.996	100.921	20.031	0.736	0.519
959.500	558.318	79.997	19.996	100.924	20.032	0.685	0.496
960.000	558.534	79.997	19.996	100.925	20.033	0.642	0.486
960.500	558.851	79.996	19.996	100.927	20.030	0.817	0.501
961.000	559.137	79.996	19.996	100.923	20.032	0.688	0.568
961.500	559.394	79.996	19.995	100.925	20.030	0.821	0.573
962.000	559.622	79.996	19.996	100.925	20.030	0.832	0.514
962.500	559.915	79.997	19.996	100.924	20.033	0.606	0.504
963.000	560.193	79.997	19.996	100.926	20.031	0.722	0.546
963.500	560.421	79.996	19.996	100.930	20.033	0.604	0.538
964.000	560.690	79.996	19.996	100.934	20.032	0.666	0.501
964.500	560.913	79.995	19.996	100.933	20.031	0.745	0.494
965.000	561.195	79.997	19.996	100.934	20.032	0.670	0.499
965.500	561.475	79.996	19.996	100.935	20.030	0.790	0.534
966.000	561.692	79.998	19.997	100.933	20.031	0.731	0.530
966.500	561.964	79.996	19.997	100.933	20.035	0.510	0.493
967.000	562.223	79.996	19.996	100.932	20.036	0.422	0.510
967.500	562.540	79.997	19.997	100.930	20.034	0.532	0.553
968.000	562.761	79.997	19.996	100.932	20.037	0.330	0.557
968.500	563.034	79.997	19.996	100.935	20.037	0.311	0.516
969.000	563.230	79.996	19.996	100.935	20.033	0.582	0.482
969.500	563.490	79.996	19.997	100.937	20.035	0.490	0.462
970.000	563.765	79.997	19.998	100.938	20.034	0.545	0.496
970.500	564.048	79.996	19.996	100.937	20.036	0.438	0.547
971.000	564.272	79.996	19.996	100.932	20.033	0.639	0.532
971.500	564.558	79.996	19.996	100.932	20.035	0.497	0.508
972.000	564.800	79.995	19.997	100.930	20.039	0.210	0.519
972.500	565.053	79.997	19.996	100.929	20.034	0.526	0.511
973.000	565.328	79.998	19.995	100.929	20.033	0.615	0.512
973.500	565.554	79.996	19.996	100.933	20.032	0.716	0.514
974.000	565.813	79.998	19.995	100.933	20.032	0.655	0.493
974.500	566.085	79.998	19.997	100.931	20.031	0.760	0.508
975.000	566.330	79.998	19.996	100.927	20.035	0.453	0.524
975.500	566.585	79.997	19.996	100.924	20.030	0.815	0.508
976.000	566.861	79.997	19.997	100.923	20.033	0.582	0.516
976.500	567.082	79.997	19.995	100.923	20.031	0.734	0.515
977.000	567.386	79.997	19.996	100.926	20.032	0.652	0.511
977.500	567.625	79.997	19.995	100.931	20.028	0.937	0.534
978.000	567.870	79.996	19.996	100.935	20.032	0.698	0.513
978.500	568.093	79.996	19.996	100.935	20.030	0.812	0.476
979.000	568.384	79.996	19.996	100.937	20.033	0.646	0.491
979.500	568.618	79.996	19.995	100.937	20.033	0.607	0.519
980.000	568.892	79.997	19.996	100.934	20.030	0.812	0.516
980.500	569.143	79.997	19.995	100.931	20.033	0.582	0.516
981.000	569.445	79.997	19.994	100.931	20.030	0.841	0.539
981.500	569.716	79.996	19.995	100.929	20.034	0.549	0.563
982.000	569.939	79.996	19.995	100.928	20.035	0.503	0.534
982.500	570.231	79.996	19.995	100.927	20.030	0.839	0.504
983.000	570.461	79.997	19.995	100.930	20.033	0.644	0.518
983.500	570.724	79.995	19.995	100.927	20.032	0.696	0.507
984.000	570.981	79.996	19.995	100.927	20.031	0.755	0.506
984.500	571.219	79.995	19.995	100.929	20.032	0.659	0.507
985.000	571.492	79.997	19.994	100.932	20.032	0.679	0.503
985.500	571.721	79.997	19.995	100.931	20.032	0.674	0.507
986.000	571.992	79.997	19.996	100.933	20.034	0.523	0.501
986.500	572.256	79.995	19.996	100.931	20.034	0.523	0.517
987.000	572.516	79.997	19.995	100.927	20.033	0.587	0.529
987.500	572.738	79.997	19.996	100.923	20.032	0.663	0.503
988.000	573.015	79.996	19.996	100.920	20.031	0.757	0.491
988.500	573.264	79.994	19.995	100.920	20.029	0.898	0.513
989.000	573.522	79.998	19.996	100.922	20.031	0.747	0.516
989.500	573.783	79.996	19.995	100.926	20.030	0.827	0.513
990.000	574.025	79.996	19.996	100.928	20.033	0.619	0.511
990.500	574.299	79.995	19.995	100.931	20.028	0.952	0.509
991.000	574.554	79.996	19.995	100.934	20.032	0.709	0.522
991.500	574.836	79.998	19.996	100.936	20.032	0.663	0.533
992.000	575.105	79.997	19.995	100.936	20.031	0.781	0.544
992.500	575.390	79.996	19.996	100.938	20.030	0.793	0.552
993.000	575.586	79.995	19.995	100.939	20.031	0.727	0.518
993.500	575.835	79.995	19.994	100.937	20.028	0.931	0.463
994.000	576.108	79.996	19.995	100.934	20.028	0.924	0.483
994.500	576.368	79.997	19.996	100.927	20.028	0.943	0.527
995.000	576.608	79.997	19.996	100.925	20.028	0.930	0.516
995.500	576.879	79.996	19.996	100.926	20.030	0.843	0.506
996.000	577.136	79.997	19.995	100.929	20.030	0.830	0.520
996.500	577.379	79.997	19.996	100.932	20.034	0.536	0.514
997.000	577.595	79.998	19.995	100.939	20.031	0.762	0.479
997.500	577.897	79.997	19.995	100.942	20.031	0.735	0.488
998.000	578.128	79.998	19.995	100.942	20.034	0.538	0.525
998.500	578.390	79.998	19.996	100.941	20.033	0.628	0.513
999.000	578.645	79.998	19.996	100.940	20.032	0.677	0.505
999.500	578.854	79.998	19.996	100.938	20.037	0.361	0.491
1000.000	579.154	79.999	19.995	100.936	20.033	0.619	0.487
1000.500	579.402	79.997	19.995	100.934	20.030	0.828	0.529
1001.000	579.669	79.997	19.996	100.934	20.030	0.830	0.531
1001.500	579.900	79.997	19.996	100.935	20.032	0.709	0.506
1002.000	580.137	79.998	19.996	100.937	20.035	0.449	0.482
1002.500	580.391	79.997	19.996	100.935	20.031	0.729	0.480
1003.000	580.605	79.998	19.995	100.933	20.032	0.663	0.480
1003.500	580.876	79.998	19.995	100.934	20.032	0.687	0.477
1004.000	581.133	79.999	19.996	100.933	20.031	0.731	0.507
1004.500	581.377	79.997	19.995	100.933	20.030	0.817	0.514
1005.000	581.666	79.998	19.995	100.938	20.031	0.773	0.516
1005.500	581.901	79.997	19.995	100.942	20.029	0.884	0.528
1006.000	582.156	79.997	19.995	100.942	20.028	0.928	0.507
1006.500	582.402	79.998	19.995	100.942	20.032	0.666	0.495
1007.000	582.659	79.997	19.996	100.942	20.030	0.803	0.502
1007.500	582.886	79.998	19.995	100.941	20.031	0.738	0.494
1008.000	583.140	79.996	19.995	100.941	20.033	0.589	0.483
1008.500	583.402	79.998	19.995	100.941	20.032	0.670	0.499
1009.000	583.627	79.998	19.995	100.942	20.032	0.681	0.501
1009.500	583.893	79.999	19.996	100.942	20.033	0.639	0.489
1010.000	584.130	79.996	19.995	100.944	20.032	0.670	0.497
1010.500	584.411	79.998	19.995	100.944	20.033	0.626	0.510
1011.000	584.666	79.997	19.994	100.943	20.028	0.941	0.527
1011.500	584.888	79.998	19.995	100.938	20.036	0.427	0.507
1012.000	585.187	79.997	19.995	100.936	20.031	0.780	0.499
1012.500	585.383	79.998	19.995	100.934	20.034	0.580	0.508
1013.000	585.632	79.996	19.995	100.931	20.032	0.705	0.470
1013.500	585.888	79.997	19.996	100.931	20.031	0.720	0.475
1014.000	586.193	79.998	19.995	100.932	20.031	0.777	0.533
1014.500	586.419	79.997	19.995	100.934	20.033	0.635	0.546
1015.000	586.656	79.997	19.994	100.935	20.033	0.622	0.497
1015.500	586.952	79.998	19.994	100.938	20.030	0.814	0.498
1016.000	587.156	79.997	19.995	100.938	20.031	0.771	0.517
1016.500	587.429	79.998	19.994	100.935	20.034	0.563	0.489
1017.000	587.667	79.999	19.995	100.935	20.034	0.554	0.494
1017.500	587.903	79.998	19.995	100.933	20.032	0.711	0.493
1018.000	588.169	79.998	19.995	100.933	20.032	0.696	0.488
1018.500	588.434	79.998	19.995	100.933	20.030	0.797	0.516
1019.000	588.674	79.997	19.995	100.939	20.032	0.650	0.518
1019.500	588.911	79.999	19.995	100.940	20.032	0.653	0.491
1020.000	589.160	79.998	19.994	100.940	20.034	0.554	0.481
1020.500	589.423	79.998	19.996	100.940	20.032	0.655	0.498
1021.000	589.676	79.999	19.995	100.940	20.031	0.769	0.514
1021.500	589.926	79.998	19.994	100.938	20.034	0.514	0.510
1022.000	590.239	79.997	19.997	100.937	20.032	0.683	0.534
1022.500	590.500	79.999	19.995	100.932	20.032	0.672	0.569
1023.000	590.719	79.999	19.995	100.931	20.038	0.285	0.527
1023.500	590.963	79.999	19.995	100.929	20.033	0.635	0.471
1024.000	591.201	79.999	19.996	100.928	20.036	0.407	0.473
1024.500	591.479	79.997	19.995	100.929	20.032	0.707	0.499
1025.001	591.739	79.998	19.994	100.935	20.032	0.703	0.527
1025.501	591.989	79.999	19.996	100.935	20.033	0.620	0.524
1026.000	592.213	79.998	19.994	100.935	20.033	0.602	0.492
1026.500	592.439	79.999	19.995	100.934	20.033	0.583	0.462
1027.000	592.745	79.999	19.995	100.933	20.031	0.722	0.491
1027.500	592.981	79.997	19.995	100.933	20.030	0.810	0.537
1028.000	593.197	79.998	19.994	100.933	20.033	0.615	0.497
1028.500	593.482	79.998	19.995	100.932	20.033	0.633	0.477
1029.001	593.741	80.000	19.995	100.933	20.030	0.814	0.523
1029.500	593.989	79.998	19.995	100.933	20.032	0.652	0.525
1030.000	594.252	79.999	19.996	100.933	20.029	0.880	0.508
1030.500	594.525	79.998	19.996	100.931	20.033	0.637	0.523
1031.000	594.778	79.999	19.996	100.933	20.034	0.578	0.531
1031.500	594.978	79.998	19.996	100.934	20.032	0.701	0.490
1032.000	595.232	79.998	19.996	100.934	20.034	0.556	0.454
1032.500	595.482	79.998	19.996	100.933	20.034	0.547	0.479
1033.000	595.763	79.998	19.996	100.933	20.031	0.747	0.517
1033.500	596.017	79.998	19.996	100.932	20.032	0.655	0.533
1034.000	596.275	79.997	19.996	100.930	20.032	0.698	0.524
1034.500	596.486	79.998	19.996	100.925	20.031	0.766	0.491
1035.000	596.760	79.996	19.996	100.919	20.030	0.799	0.477
1035.500	597.036	79.997	19.995	100.916	20.029	0.863	0.518
1036.001	597.274	79.996	19.996	100.919	20.032	0.701	0.532
1036.501	597.555	79.996	19.996	100.918	20.030	0.791	0.517
1037.000	597.812	79.997	19.997	100.918	20.030	0.828	0.528
1037.500	598.050	79.996	19.997	100.924	20.030	0.792	0.516
1038.000	598.274	79.997	19.996	100.929	20.030	0.850	0.479
1038.500	598.530	79.997	19.997	100.927	20.032	0.687	0.471
1039.000	598.801	79.997	19.997	100.930	20.029	0.893	0.504
1039.500	599.042	79.997	19.995	100.933	20.029	0.891	0.520
1040.000	599.289	79.998	19.996	100.934	20.032	0.657	0.500
1040.500	599.543	79.997	19.997	100.930	20.033	0.639	0.495
1041.000	599.772	79.998	19.996	100.925	20.032	0.709	0.492
1041.500	600.026	79.996	19.996	100.922	20.032	0.687	0.483
1042.000	600.303	79.997	19.997	100.919	20.032	0.652	0.507
1042.500	600.553	79.996	19.997	100.916	20.032	0.668	0.529
1043.000	600.781	79.996	19.996	100.917	20.032	0.700	0.502
1043.500	601.057	79.997	19.997	100.919	20.032	0.700	0.491
1044.000	601.269	79.997	19.995	100.921	20.032	0.683	0.496
1044.500	601.553	79.996	19.996	100.925	20.033	0.615	0.491
1045.000	601.811	79.996	19.996	100.922	20.033	0.630	0.519
1045.500	602.034	79.997	19.997	100.918	20.034	0.556	0.512
1046.000	602.284	79.997	19.996	100.915	20.029	0.865	0.477
1046.500	602.544	79.998	19.997	100.914	20.034	0.569	0.492
1047.000	602.777	79.994	19.996	100.912	20.031	0.725	0.502
1047.500	603.056	79.997	19.995	100.919	20.030	0.792	0.502
1048.000	603.328	79.997	19.996	100.926	20.030	0.797	0.531
1048.500	603.536	79.998	19.995	100.934	20.031	0.742	0.516
1049.000	603.760	79.997	19.996	100.937	20.029	0.887	0.456
1049.500	604.063	79.996	19.996	100.936	20.030	0.812	0.479
1050.000	604.306	79.996	19.996	100.935	20.032	0.672	0.536
1050.500	604.537	79.997	19.996	100.931	20.033	0.637	0.510
1051.000	604.814	79.996	19.997	100.927	20.033	0.613	0.491
1051.500	605.068	79.995	19.997	100.927	20.030	0.839	0.519
1052.000	605.299	79.997	19.997	100.926	20.032	0.665	0.508
1052.501	605.546	79.997	19.996	100.925	20.031	0.764	0.482
1053.001	605.774	79.996	19.997	100.929	20.029	0.891	0.476
1053.500	606.061	79.996	19.996	100.931	20.033	0.591	0.495
1054.000	606.304	79.996	19.995	100.932	20.031	0.745	0.522
1054.500	606.588	79.996	19.996	100.937	20.032	0.655	0.528
1055.000	606.804	79.997	19.997	100.938	20.034	0.576	0.514
1055.500	607.076	79.997	19.996	100.937	20.032	0.709	0.494
1056.000	607.303	79.996	19.997	100.937	20.031	0.744	0.494
1056.500	607.597	79.996	19.997	100.936	20.032	0.674	0.510
1057.000	607.829	79.995	19.996	100.936	20.033	0.582	0.523
1057.500	608.067	79.996	19.998	100.937	20.033	0.598	0.498
1058.000	608.330	79.995	19.995	100.936	20.032	0.676	0.485
1058.500	608.610	79.995	19.996	100.937	20.031	0.782	0.522
1059.000	608.837	79.998	19.997	100.938	20.031	0.738	0.525
1059.500	609.101	79.997	19.996	100.938	20.030	0.821	0.499
1060.000	609.343	79.997	19.997	100.939	20.029	0.895	0.499
1060.500	609.617	79.998	19.998	100.940	20.029	0.895	0.511
1061.000	609.861	79.997	19.996	100.941	20.027	0.998	0.517
1061.500	610.091	79.996	19.996	100.941	20.030	0.843	0.496
1062.000	610.363	79.997	19.996	100.940	20.032	0.685	0.488
1062.500	610.597	79.996	19.997	100.938	20.033	0.618	0.504
1063.000	610.826	79.996	19.998	100.938	20.031	0.725	0.484
1063.500	611.093	79.995	19.997	100.933	20.033	0.584	0.479
1064.000	611.374	79.996	19.998	100.929	20.027	0.996	0.523
1064.500	611.611	79.995	19.996	100.927	20.033	0.637	0.533
1065.000	611.830	79.996	19.997	100.926	20.035	0.486	0.486
1065.500	612.141	79.995	19.996	100.926	20.031	0.731	0.493
1066.000	612.367	79.996	19.996	100.926	20.034	0.571	0.533
1066.500	612.604	79.995	19.997	100.930	20.031	0.775	0.500
1067.000	612.890	79.996	19.996	100.931	20.030	0.793	0.493
1067.500	613.125	79.995	19.997	100.930	20.032	0.683	0.522
1068.000	613.398	79.996	19.996	100.926	20.029	0.893	0.515
1068.500	613.656	79.995	19.997	100.927	20.028	0.957	0.519
1069.000	613.883	79.997	19.995	100.926	20.035	0.501	0.508
1069.500	614.133	79.995	19.996	100.927	20.031	0.755	0.481
1070.000	614.383	79.996	19.996	100.931	20.025	1.152	0.488
1070.500	614.654	79.996	19.996	100.935	20.029	0.920	0.511
1071.000	614.928	79.995	19.996	100.937	20.028	0.974	0.533
1071.500	615.163	79.994	19.996	100.937	20.031	0.731	0.526
1072.000	615.421	79.996	19.996	100.932	20.031	0.781	0.501
1072.500	615.690	79.995	19.994	100.929	20.028	0.946	0.510
1073.000	615.911	79.996	19.995	100.928	20.033	0.641	0.508
1073.500	616.151	79.998	19.995	100.930	20.030	0.808	0.476
1074.000	616.421	79.997	19.996	100.933	20.032	0.694	0.486
1074.500	616.683	79.995	19.996	100.939	20.028	0.933	0.521
1075.000	616.897	79.996	19.995	100.942	20.033	0.611	0.504
1075.500	617.167	79.996	19.994	100.942	20.030	0.834	0.480
1076.000	617.423	79.997	19.995	100.942	20.029	0.887	0.505
1076.500	617.660	79.998	19.995	100.941	20.029	0.896	0.510
1077.000	617.942	79.996	19.995	100.939	20.031	0.760	0.506
1077.500	618.208	79.996	19.995	100.933	20.029	0.865	0.533
1078.000	618.464	79.998	19.995	100.933	20.027	1.051	0.535
1078.500	618.712	79.999	19.995	100.933	20.028	0.987	0.513
1079.000	618.946	79.998	19.996	100.934	20.030	0.832	0.493
1079.500	619.203	79.996	19.995	100.935	20.031	0.760	0.487
1080.000	619.470	79.997	19.995	100.941	20.032	0.707	0.507
1080.500	619.690	79.997	19.995	100.943	20.031	0.735	0.505
1081.000	619.971	79.997	19.995	100.941	20.028	0.963	0.494
1081.500	620.226	79.998	19.995	100.941	20.031	0.738	0.519
1082.000	620.469	79.998	19.996	100.941	20.026	1.081	0.517
1082.500	620.696	79.998	19.995	100.941	20.032	0.663	0.483
1083.000	620.954	79.999	19.996	100.940	20.029	0.897	0.478
1083.500	621.222	79.998	19.995	100.938	20.030	0.849	0.506
1084.000	621.441	79.998	19.994	100.932	20.027	1.018	0.507
1084.500	621.724	79.999	19.996	100.927	20.029	0.882	0.494
1085.000	621.991	80.000	19.995	100.923	20.028	0.987	0.526
1085.500	622.270	79.998	19.995	100.920	20.026	1.101	0.548
1086.000	622.476	79.998	19.996	100.922	20.029	0.898	0.516
1086.500	622.735	79.997	19.995	100.926	20.028	0.987	0.475
1087.000	622.999	80.000	19.995	100.925	20.028	0.955	0.494
1087.500	623.233	80.000	19.994	100.923	20.029	0.904	0.511
1088.000	623.491	79.998	19.996	100.926	20.027	1.035	0.495
1088.500	623.729	79.998	19.995	100.927	20.029	0.856	0.494
1089.000	623.983	79.999	19.995	100.927	20.029	0.893	0.494
1089.500	624.211	79.999	19.996	100.934	20.027	1.003	0.487
1090.000	624.483	79.996	19.996	100.939	20.027	1.009	0.490
1090.500	624.726	79.996	19.995	100.940	20.023	1.287	0.507
1091.000	624.981	79.998	19.996	100.943	20.032	0.692	0.507
1091.500	625.245	79.996	19.995	100.943	20.029	0.874	0.509
1092.000	625.477	79.998	19.996	100.942	20.030	0.808	0.507
1092.500	625.730	79.998	19.996	100.941	20.029	0.904	0.491
1093.000	625.997	79.998	19.995	100.939	20.030	0.850	0.503
1093.500	626.211	79.999	19.996	100.936	20.029	0.902	0.500
1094.000	626.501	79.998	19.995	100.936	20.029	0.867	0.492
1094.500	626.759	79.999	19.997	100.936	20.027	1.051	0.526
1095.000	627.003	79.998	19.996	100.938	20.029	0.917	0.525
1095.500	627.265	79.998	19.996	100.939	20.028	0.966	0.504
1096.001	627.513	79.999	19.995	100.939	20.029	0.893	0.508
1096.501	627.774	79.997	19.995	100.933	20.029	0.887	0.510
1097.000	627.964	79.998	19.995	100.929	20.027	1.012	0.480
1097.500	628.259	79.999	19.995	100.928	20.026	1.077	0.468
1098.000	628.499	79.998	19.995	100.928	20.029	0.874	0.510
1098.500	628.765	80.000	19.996	100.929	20.030	0.839	0.520
1099.000	628.999	79.999	19.995	100.935	20.031	0.723	0.503
1099.500	629.276	79.999	19.996	100.939	20.027	1.012	0.506
1100.000	629.535	79.999	19.995	100.940	20.031	0.768	0.524
1100.500	629.744	80.000	19.995	100.939	20.027	1.007	0.502
1101.000	629.998	80.000	19.995	100.938	20.030	0.825	0.465
1101.500	630.262	79.996	19.995	100.937	20.025	1.167	0.491
1102.000	630.487	80.000	19.995	100.936	20.026	1.086	0.504
1102.500	630.767	79.999	19.995	100.935	20.026	1.106	0.497
1103.000	631.034	79.998	19.995	100.936	20.024	1.211	0.526
1103.500	631.285	80.000	19.996	100.937	20.024	1.197	0.532
1104.000	631.518	80.000	19.995	100.935	20.027	0.990	0.501
1104.500	631.795	80.000	19.995	100.934	20.026	1.097	0.498
1105.000	632.038	80.000	19.996	100.935	20.025	1.189	0.515
1105.500	632.309	80.001	19.995	100.934	20.028	0.932	0.517
1106.000	632.531	80.001	19.995	100.934	20.028	0.956	0.504
1106.500	632.801	80.000	19.994	100.936	20.027	1.009	0.492
1107.000	633.048	80.000	19.995	100.939	20.025	1.134	0.504
1107.500	633.337	80.001	19.995	100.937	20.026	1.094	0.527
1108.000	633.542	80.000	19.995	100.937	20.028	0.970	0.515
1108.500	633.831	80.000	19.995	100.937	20.028	0.976	0.494
1109.000	634.064	80.001	19.995	100.937	20.025	1.129	0.508
1109.500	634.330	80.000	19.995	100.937	20.028	0.950	0.510
1110.000	634.579	80.000	19.994	100.938	20.026	1.088	0.507
1110.500	634.802	79.999	19.996	100.938	20.027	0.996	0.493
1111.000	635.106	80.000	19.995	100.940	20.026	1.059	0.500
1111.500	635.355	79.999	19.995	100.941	20.028	0.946	0.540
1112.000	635.603	79.999	19.995	100.941	20.025	1.130	0.525
1112.500	635.870	79.999	19.995	100.941	20.027	1.027	0.506
1113.000	636.137	79.998	19.995	100.942	20.024	1.224	0.524
1113.500	636.394	79.999	19.996	100.939	20.027	1.002	0.529
1114.000	636.617	79.998	19.996	100.937	20.024	1.233	0.503
1114.500	636.893	79.997	19.996	100.938	20.028	0.970	0.490
1115.000	637.122	79.999	19.996	100.942	20.025	1.186	0.502
1115.500	637.372	79.998	19.996	100.946	20.029	0.917	0.491
1116.000	637.612	79.997	19.995	100.953	20.026	1.066	0.484
1116.500	637.873	79.998	19.995	100.954	20.027	1.009	0.496
1117.000	638.149	79.998	19.995	100.955	20.028	0.963	0.519
1117.500	638.346	79.998	19.997	100.951	20.027	1.051	0.505
1118.000	638.623	79.997	19.996	100.945	20.028	0.970	0.474
1118.500	638.862	79.997	19.996	100.941	20.024	1.202	0.495
1119.000	639.142	79.996	19.997	100.941	20.027	1.029	0.517
1119.500	639.423	79.997	19.996	100.940	20.024	1.195	0.540
1120.000	639.668	79.997	19.997	100.940	20.024	1.224	0.543
1120.500	639.886	79.997	19.997	100.942	20.026	1.088	0.494
1121.000	640.146	79.997	19.996	100.942	20.022	1.375	0.470
1121.500	640.408	79.997	19.996	100.943	20.027	1.027	0.500
1122.000	640.643	79.997	19.997	100.943	20.023	1.263	0.510
1122.500	640.922	79.997	19.996	100.943	20.027	1.055	0.505
1123.001	641.165	79.997	19.997	100.943	20.022	1.362	0.518
1123.501	641.450	79.996	19.995	100.943	20.022	1.370	0.525
1124.000	641.665	79.998	19.996	100.943	20.021	1.410	0.514
1124.500	641.933	79.998	19.997	100.943	20.023	1.300	0.491
1125.000	642.164	79.997	19.996	100.944	20.023	1.324	0.491
1125.500	642.446	79.996	19.997	100.944	20.022	1.335	0.507
1126.000	642.712	79.997	19.997	100.945	20.025	1.132	0.531
1126.500	642.947	79.997	19.996	100.944	20.028	0.928	0.524
1127.000	643.150	79.995	19.997	100.944	20.027	1.025	0.469
1127.500	643.427	79.996	19.997	100.944	20.027	1.003	0.459
1128.000	643.683	79.996	19.996	100.943	20.023	1.318	0.506
1128.500	643.928	79.996	19.996	100.943	20.027	1.009	0.516
1129.000	644.185	79.997	19.996	100.943	20.029	0.908	0.502
1129.500	644.433	79.997	19.997	100.943	20.029	0.887	0.503
1130.000	644.688	79.997	19.996	100.942	20.028	0.965	0.504
1130.500	644.921	79.999	19.996	100.944	20.028	0.928	0.496
1131.000	645.177	79.998	19.997	100.946	20.028	0.965	0.488
1131.500	645.462	79.997	19.996	100.945	20.026	1.073	0.515
1132.000	645.683	79.997	19.995	100.946	20.027	0.991	0.524
1132.500	645.960	79.994	19.996	100.946	20.025	1.132	0.502
1133.000	646.191	79.997	19.996	100.945	20.025	1.188	0.502
1133.500	646.402	79.996	19.995	100.943	20.023	1.283	0.475
1134.000	646.676	79.996	19.996	100.944	20.026	1.081	0.464
1134.500	646.914	79.998	19.996	100.945	20.026	1.077	0.499
1135.000	647.199	79.998	19.996	100.945	20.026	1.097	0.517
1135.500	647.428	79.997	19.995	100.945	20.024	1.228	0.518
1136.000	647.661	79.994	19.996	100.947	20.022	1.362	0.488
1136.500	647.903	79.995	19.995	100.946	20.022	1.386	0.469
1137.000	648.167	79.996	19.996	100.946	20.026	1.118	0.490
1137.500	648.428	79.996	19.995	100.946	20.029	0.919	0.515
1138.000	648.674	79.995	19.996	100.946	20.027	1.038	0.516
1138.500	648.944	79.996	19.996	100.945	20.026	1.106	0.512
1139.000	649.155	79.997	19.996	100.945	20.023	1.279	0.499
1139.500	649.429	79.996	19.996	100.945	20.028	0.963	0.483
1140.000	649.695	79.997	19.996	100.946	20.023	1.324	0.512
1140.500	649.968	79.996	19.995	100.946	20.027	1.035	0.539
1141.000	650.219	79.995	19.996	100.946	20.025	1.140	0.532
1141.500	650.484	79.995	19.996	100.948	20.029	0.889	0.521
1142.000	650.728	79.996	19.997	100.949	20.030	0.801	0.513
1142.500	650.961	79.997	19.996	100.948	20.028	0.945	0.492
1143.000	651.214	79.996	19.996	100.950	20.028	0.959	0.481
1143.500	651.496	79.994	19.998	100.951	20.028	0.956	0.511
1144.000	651.744	79.995	19.996	100.953	20.028	0.957	0.533
1144.500	651.957	79.997	19.996	100.955	20.026	1.108	0.496
1145.000	652.247	79.996	19.997	100.955	20.027	1.000	0.482
1145.500	652.484	79.997	19.996	100.954	20.029	0.882	0.515
1146.000	652.758	79.996	19.996	100.952	20.027	1.013	0.519
1146.500	652.972	79.997	19.997	100.948	20.027	0.998	0.500
1147.000	653.230	79.996	19.998	100.948	20.028	0.976	0.480
1147.500	653.484	79.994	19.996	100.951	20.027	0.992	0.492
1148.000	653.759	79.996	19.996	100.950	20.027	1.040	0.521
1148.500	654.018	79.996	19.996	100.950	20.030	0.841	0.532
1149.000	654.283	79.995	19.998	100.949	20.028	0.922	0.529
1149.500	654.538	79.997	19.997	100.946	20.028	0.932	0.522
1150.000	654.783	79.994	19.996	100.942	20.025	1.147	0.510
1150.500	655.022	79.997	19.997	100.943	20.027	1.048	0.492
1151.000	655.319	79.995	19.997	100.944	20.030	0.830	0.510
1151.500	655.562	79.995	19.997	100.948	20.028	0.981	0.538
1152.000	655.815	79.996	19.998	100.955	20.026	1.079	0.518
1152.500	656.120	79.994	19.997	100.958	20.027	1.055	0.527
1153.000	656.347	79.995	19.996	100.958	20.026	1.059	0.545
1153.500	656.588	79.994	19.998	100.955	20.025	1.186	0.500
1154.000	656.790	79.996	19.997	100.951	20.025	1.156	0.455
1154.500	657.044	79.996	19.996	100.946	20.025	1.147	0.449
1155.000	657.312	79.996	19.996	100.948	20.027	1.055	0.489
1155.500	657.595	79.996	19.995	100.955	20.023	1.287	0.537
1156.000	657.829	79.997	19.997	100.963	20.025	1.188	0.534
1156.500	658.112	79.997	19.997	100.965	20.029	0.900	0.517
1157.000	658.386	79.998	19.996	100.967	20.027	1.013	0.537
1157.500	658.611	79.997	19.996	100.967	20.026	1.066	0.528
1158.000	658.882	79.997	19.996	100.960	20.030	0.825	0.497
1158.500	659.120	79.999	19.996	100.952	20.027	1.017	0.503
1159.000	659.375	79.998	19.996	100.950	20.026	1.123	0.501
1159.500	659.646	79.999	19.997	100.950	20.023	1.278	0.509
1160.000	659.894	79.998	19.998	100.949	20.026	1.079	0.522
1160.500	660.155	79.998	19.997	100.951	20.024	1.201	0.514
1161.000	660.412	79.997	19.996	100.955	20.021	1.422	0.514
1161.500	660.665	79.999	19.995	100.961	20.025	1.131	0.514
1162.000	660.941	79.997	19.996	100.960	20.025	1.129	0.520
1162.500	661.182	79.998	19.996	100.957	20.026	1.064	0.523
1163.000	661.396	79.999	19.996	100.956	20.023	1.302	0.486
1163.500	661.639	79.999	19.996	100.952	20.024	1.195	0.456
1164.000	661.910	79.997	19.996	100.947	20.022	1.398	0.485
1164.500	662.193	79.997	19.997	100.947	20.023	1.326	0.534
1165.000	662.418	79.999	19.997	100.947	20.023	1.267	0.531
1165.500	662.694	80.000	19.996	100.946	20.026	1.101	0.505
1166.000	662.910	79.999	19.995	100.953	20.028	0.928	0.496
1166.500	663.166	79.996	19.996	100.958	20.025	1.169	0.482
1167.000	663.437	80.000	19.996	100.958	20.025	1.177	0.500
1167.500	663.705	79.999	19.996	100.962	20.027	1.005	0.533
1168.000	663.941	79.997	19.996	100.969	20.023	1.274	0.521
1168.500	664.192	79.997	19.995	100.967	20.027	1.046	0.495
1169.000	664.444	79.997	19.996	100.968	20.025	1.149	0.495
1169.500	664.701	79.997	19.996	100.973	20.024	1.214	0.506
1170.000	664.949	79.999	19.997	100.973	20.028	0.943	0.507
1170.500	665.245	79.999	19.996	100.967	20.025	1.173	0.525
1171.000	665.522	79.997	19.996	100.969	20.022	1.359	0.558
1171.500	665.722	79.998	19.996	100.970	20.023	1.315	0.525
1172.000	665.977	79.998	19.995	100.966	20.027	0.994	0.466
1172.500	666.228	79.998	19.995	100.966	20.022	1.357	0.480
1173.000	666.434	79.998	19.996	100.969	20.025	1.173	0.481
1173.500	666.749	79.997	19.997	100.969	20.024	1.197	0.489
1174.000	666.984	79.999	19.995	100.965	20.025	1.147	0.536
1174.500	667.216	79.999	19.997	100.967	20.025	1.131	0.509
1175.000	667.481	79.999	19.995	100.970	20.027	0.994	0.482
1175.500	667.729	79.997	19.996	100.974	20.029	0.913	0.505
1176.000	668.007	79.999	19.996	100.973	20.024	1.260	0.519
1176.500	668.244	79.998	19.996	100.972	20.027	1.009	0.521
1177.000	668.491	79.998	19.996	100.972	20.027	1.024	0.500
1177.500	668.754	79.998	19.996	100.970	20.028	0.976	0.497
1178.000	669.021	80.000	19.996	100.970	20.024	1.215	0.520
1178.500	669.261	79.997	19.995	100.971	20.027	1.033	0.518
1179.000	669.490	79.998	19.996	100.976	20.026	1.120	0.488
1179.500	669.750	79.998	19.997	100.976	20.024	1.204	0.479
1180.000	670.020	79.999	19.996	100.975	20.021	1.401	0.510
1180.500	670.257	80.001	19.996	100.972	20.025	1.147	0.518
1181.000	670.532	79.997	19.996	100.969	20.023	1.269	0.509
1181.500	670.783	79.999	19.995	100.968	20.022	1.337	0.519
1182.000	671.023	79.997	19.997	100.968	20.026	1.118	0.509
1182.500	671.272	79.998	19.995	100.967	20.021	1.460	0.490
1183.000	671.543	79.999	19.996	100.970	20.022	1.374	0.505
1183.500	671.805	79.999	19.996	100.971	20.022	1.365	0.526
1184.000	672.092	79.999	19.996	100.971	20.024	1.206	0.541
1184.500	672.338	79.999	19.995	100.972	20.024	1.208	0.541
1185.000	672.511	80.000	19.996	100.973	20.023	1.276	0.476
1185.500	672.773	79.999	19.997	100.971	20.023	1.302	0.427
1186.000	673.001	79.999	19.995	100.972	20.023	1.271	0.463
1186.500	673.304	80.001	19.997	100.968	20.019	1.545	0.511
1187.000	673.545	79.999	19.995	100.965	20.021	1.413	0.538
1187.500	673.797	80.000	19.995	100.964	20.025	1.193	0.518
1188.000	674.044	79.999	19.995	100.963	20.026	1.064	0.496
1188.500	674.325	80.000	19.995	100.963	20.021	1.400	0.513
1189.000	674.588	79.999	19.996	100.969	20.024	1.258	0.536
1189.500	674.889	80.000	19.997	100.971	20.018	1.622	0.554
1190.000	675.123	79.999	19.995	100.973	20.020	1.492	0.549
1190.500	675.383	79.999	19.995	100.976	20.020	1.532	0.515
1191.000	675.634	79.999	19.994	100.977	20.020	1.532	0.503
1191.500	675.902	79.999	19.996	100.973	20.024	1.219	0.515
1192.000	676.130	79.997	19.996	100.974	20.022	1.372	0.507
1192.500	676.378	79.998	19.994	100.973	20.022	1.374	0.486
1193.000	676.635	79.997	19.996	100.972	20.020	1.532	0.491
1193.500	676.890	79.998	19.996	100.972	20.021	1.451	0.509
1194.000	677.141	79.997	19.995	100.976	20.020	1.530	0.509
1194.500	677.390	79.997	19.995	100.974	20.019	1.551	0.503
1195.000	677.616	79.997	19.997	100.976	20.017	1.672	0.488
1195.500	677.903	79.997	19.995	100.976	20.022	1.333	0.494
1196.000	678.149	79.997	19.996	100.974	20.021	1.435	0.523
1196.500	678.414	79.996	19.995	100.974	20.019	1.554	0.522
1197.000	678.668	79.996	19.995	100.977	20.020	1.505	0.515
1197.500	678.903	79.998	19.995	100.977	20.019	1.600	0.504
1198.000	679.152	79.997	19.996	100.977	20.021	1.436	0.486
1198.500	679.432	79.996	19.996	100.980	20.020	1.532	0.507
1199.001	679.703	79.996	19.996	100.980	20.021	1.447	0.540
1199.500	679.965	79.997	19.995	100.977	20.021	1.407	0.542
1200.000	680.205	79.996	19.994	100.973	20.023	1.320	0.518
1200.500	680.415	79.996	19.996	100.971	20.023	1.282	0.476
1201.000	680.707	79.996	19.996	100.969	20.023	1.326	0.476
1201.500	680.954	79.997	19.996	100.970	20.018	1.610	0.521
1202.000	681.202	79.996	19.996	100.974	20.019	1.558	0.517
1202.501	681.469	79.997	19.995	100.978	20.020	1.484	0.505
1203.000	681.692	79.997	19.995	100.982	20.019	1.597	0.502
1203.500	681.935	79.997	19.996	100.984	20.021	1.431	0.478
1204.000	682.244	79.997	19.996	100.983	20.019	1.560	0.509
1204.500	682.480	79.994	19.996	100.983	20.017	1.672	0.549
1205.000	682.704	79.995	19.995	100.983	20.023	1.296	0.502
1205.500	682.926	79.998	19.996	100.982	20.019	1.547	0.453
1206.000	683.244	79.997	19.996	100.983	20.019	1.564	0.493
1206.500	683.444	79.997	19.995	100.984	20.020	1.512	0.529
1207.000	683.699	79.995	19.995	100.984	20.019	1.556	0.487
1207.500	683.967	79.997	19.997	100.984	20.021	1.448	0.489
1208.000	684.243	79.997	19.996	100.982	20.018	1.617	0.534
1208.500	684.492	79.996	19.996	100.979	20.021	1.416	0.535
1209.000	684.719	79.996	19.997	100.976	20.020	1.505	0.501
1209.500	684.972	79.997	19.997	100.975	20.020	1.470	0.478
1210.000	685.225	79.997	19.996	100.974	20.020	1.499	0.493
1210.500	685.466	79.998	19.995	100.976	20.020	1.517	0.500
1211.000	685.767	79.996	19.996	100.978	20.017	1.680	0.518
1211.500	685.958	79.997	19.997	100.979	20.017	1.715	0.517
1212.000	686.264	79.995	19.996	100.981	20.019	1.584	0.495
1212.500	686.478	79.996	19.996	100.980	20.017	1.733	0.509
1213.000	686.770	79.997	19.996	100.980	20.020	1.484	0.512
1213.500	686.991	79.997	19.996	100.980	20.016	1.788	0.509
1214.000	687.255	79.996	19.997	100.980	20.020	1.521	0.499
1214.500	687.515	79.998	19.996	100.980	20.020	1.525	0.504
1215.000	687.767	79.998	19.996	100.980	20.020	1.481	0.518
1215.500	687.980	79.996	19.996	100.980	20.019	1.586	0.489
1216.000	688.240	79.997	19.997	100.977	20.017	1.722	0.469
1216.500	688.489	79.997	19.997	100.977	20.022	1.390	0.491
1217.000	688.756	79.997	19.996	100.978	20.018	1.639	0.512
1217.500	688.983	79.997	19.996	100.978	20.020	1.481	0.505
1218.000	689.243	79.998	19.996	100.977	20.020	1.525	0.491
1218.500	689.519	79.997	19.995	100.980	20.020	1.523	0.511
1219.000	689.766	79.996	19.996	100.976	20.020	1.503	0.529
1219.500	689.996	79.997	19.996	100.976	20.020	1.525	0.500
1220.000	690.210	79.997	19.996	100.975	20.020	1.527	0.460
1220.500	690.508	79.997	19.996	100.975	20.018	1.615	0.478
1221.000	690.742	79.998	19.996	100.974	20.018	1.617	0.522
1221.500	691.006	79.997	19.996	100.977	20.016	1.762	0.515
1222.000	691.252	79.997	19.996	100.977	20.019	1.558	0.504
1222.500	691.504	79.997	19.996	100.976	20.020	1.492	0.504
1223.000	691.779	79.998	19.997	100.976	20.023	1.302	0.512
1223.500	692.044	79.998	19.996	100.977	20.017	1.689	0.533
1224.000	692.249	79.996	19.996	100.979	20.018	1.620	0.505
1224.500	692.523	79.997	19.996	100.977	20.023	1.320	0.475
1225.000	692.755	79.995	19.994	100.977	20.020	1.512	0.493
1225.501	692.992	79.997	19.997	100.977	20.020	1.519	0.488
1226.001	693.252	79.997	19.995	100.974	20.020	1.525	0.483
1226.500	693.499	79.997	19.996	100.973	20.022	1.346	0.502
1227.000	693.744	79.997	19.996	100.975	20.021	1.400	0.500
1227.500	694.015	79.997	19.996	100.976	20.020	1.484	0.504
1228.000	694.265	79.998	19.997	100.976	20.022	1.366	0.519
1228.500	694.522	79.997	19.996	100.979	20.025	1.180	0.515
1229.000	694.761	79.996	19.996	100.981	20.022	1.363	0.502
1229.500	695.031	79.996	19.996	100.981	20.027	1.044	0.502
1230.000	695.277	79.997	19.996	100.981	20.020	1.477	0.512
1230.500	695.553	79.996	19.997	100.981	20.022	1.355	0.519
1231.000	695.783	79.997	19.997	100.980	20.021	1.453	0.514
1231.500	696.021	79.998	19.996	100.980	20.023	1.278	0.487
1232.000	696.263	79.996	19.997	100.979	20.020	1.491	0.473
1232.500	696.495	79.997	19.997	100.978	20.018	1.615	0.476
1233.000	696.797	79.998	19.997	100.977	20.022	1.352	0.504
1233.500	697.031	79.997	19.997	100.972	20.022	1.370	0.536
1234.000	697.269	79.997	19.997	100.966	20.021	1.462	0.504
1234.500	697.519	79.997	19.996	100.967	20.018	1.654	0.480
1235.000	697.769	79.998	19.998	100.969	20.024	1.256	0.494
1235.500	697.999	79.999	19.997	100.968	20.023	1.285	0.490
1236.000	698.265	79.998	19.997	100.972	20.025	1.131	0.488
1236.500	698.545	79.997	19.996	100.978	20.024	1.230	0.521
1237.000	698.792	79.997	19.998	100.978	20.031	0.783	0.537
1237.500	699.051	79.999	19.997	100.978	20.026	1.083	0.516
1238.000	699.296	79.998	19.998	100.979	20.023	1.313	0.505
1238.500	699.559	79.997	19.996	100.979	20.026	1.072	0.505
1239.001	699.817	79.997	19.997	100.978	20.024	1.226	0.514
1239.501	700.038	79.999	19.997	100.979	20.024	1.250	0.500
1240.001	700.310	79.999	19.998	100.978	20.025	1.134	0.486
1240.500	700.570	79.998	19.996	100.978	20.027	1.028	0.513
1241.000	700.836	79.997	19.997	100.978	20.022	1.331	0.529
1241.500	701.044	79.997	19.995	100.978	20.023	1.311	0.500
1242.000	701.320	79.999	19.996	100.974	20.024	1.243	0.479
1242.500	701.594	79.999	19.997	100.969	20.024	1.260	0.517
1243.000	701.858	79.998	19.996	100.963	20.021	1.436	0.544
1243.500	702.076	79.996	19.996	100.961	20.020	1.510	0.510
1244.001	702.341	79.998	19.996	100.962	20.023	1.320	0.483
1244.502	702.581	79.997	19.997	100.964	20.022	1.392	0.494
1245.001	702.839	79.996	19.997	100.970	20.021	1.407	0.502
1245.500	703.083	79.998	19.997	100.975	20.024	1.258	0.500
1246.000	703.325	79.999	19.995	100.974	20.021	1.405	0.494
1246.500	703.608	79.997	19.995	100.973	20.022	1.363	0.506
1247.000	703.840	79.998	19.996	100.973	20.022	1.340	0.520
1247.500	704.062	79.998	19.996	100.972	20.021	1.405	0.484
1248.000	704.321	79.998	19.996	100.974	20.024	1.217	0.468
1248.500	704.606	79.998	19.996	100.973	20.021	1.414	0.513
1249.000	704.865	79.997	19.996	100.970	20.023	1.326	0.544
1249.500	705.098	79.997	19.996	100.964	20.022	1.348	0.518
1250.000	705.372	79.997	19.995	100.961	20.022	1.385	0.499
1250.500	705.645	79.997	19.996	100.961	20.025	1.180	0.527
1251.000	705.869	79.998	19.996	100.964	20.023	1.291	0.522
1251.500	706.185	80.000	19.995	100.967	20.025	1.193	0.518
1252.000	706.359	79.998	19.996	100.973	20.022	1.379	0.515
1252.500	706.639	79.999	19.995	100.977	20.022	1.397	0.472
1253.000	706.847	79.997	19.996	100.977	20.024	1.210	0.471
1253.500	707.096	79.997	19.996	100.973	20.021	1.458	0.472
1254.000	707.345	79.996	19.994	100.971	20.022	1.348	0.478
1254.500	707.621	79.996	19.996	100.970	20.021	1.440	0.512
1255.000	707.846	79.998	19.996	100.967	20.024	1.230	0.513
1255.500	708.115	79.996	19.994	100.962	20.023	1.316	0.498
1256.000	708.371	79.997	19.996	100.966	20.024	1.221	0.510
1256.500	708.627	79.998	19.996	100.967	20.021	1.414	0.518
1257.000	708.832	79.998	19.996	100.965	20.024	1.200	0.486
1257.500	709.127	79.997	19.995	100.962	20.023	1.324	0.480
1258.000	709.347	79.998	19.995	100.962	20.022	1.383	0.508
1258.500	709.615	79.998	19.995	100.955	20.025	1.191	0.501
1259.000	709.863	79.997	19.995	100.950	20.022	1.362	0.502
1259.500	710.089	79.999	19.995	100.947	20.024	1.217	0.495
1260.000	710.369	79.996	19.995	100.951	20.023	1.311	0.490
1260.500	710.628	79.998	19.995	100.953	20.023	1.309	0.522
1261.000	710.882	79.998	19.996	100.952	20.022	1.395	0.526
1261.500	711.112	79.999	19.995	100.952	20.022	1.368	0.498
1262.000	711.373	79.999	19.996	100.952	20.021	1.454	0.487
1262.500	711.612	79.999	19.996	100.947	20.022	1.340	0.495
1263.000	711.889	79.999	19.995	100.944	20.023	1.311	0.508
1263.500	712.136	79.997	19.996	100.944	20.024	1.202	0.520
1264.000	712.381	79.999	19.995	100.944	20.023	1.288	0.508
1264.500	712.650	79.999	19.996	100.942	20.025	1.189	0.503
1265.000	712.874	80.000	19.997	100.943	20.023	1.329	0.504
1265.500	713.129	80.001	19.997	100.943	20.021	1.450	0.486
1266.000	713.400	79.998	19.995	100.947	20.025	1.152	0.502
1266.500	713.622	80.000	19.996	100.947	20.024	1.231	0.509
1267.000	713.918	80.000	19.996	100.948	20.023	1.283	0.506
1267.500	714.146	79.999	19.996	100.946	20.024	1.253	0.521
1268.000	714.405	79.999	19.996	100.944	20.023	1.268	0.505
1268.500	714.650	79.998	19.995	100.939	20.022	1.380	0.495
1269.000	714.899	80.000	19.996	100.938	20.026	1.117	0.499
1269.500	715.153	79.998	19.994	100.935	20.027	1.040	0.499
1270.000	715.416	79.999	19.996	100.935	20.024	1.195	0.510
1270.500	715.656	80.000	19.996	100.935	20.026	1.115	0.510
1271.000	715.953	79.999	19.996	100.933	20.025	1.169	0.520
1271.500	716.192	79.999	19.995	100.932	20.028	0.933	0.537
1272.000	716.431	80.000	19.996	100.934	20.024	1.253	0.507
1272.500	716.723	80.000	19.995	100.934	20.027	1.007	0.504
1273.000	716.940	79.998	19.995	100.930	20.026	1.080	0.520
1273.500	717.217	79.998	19.995	100.927	20.027	1.003	0.502
1274.000	717.472	79.999	19.996	100.924	20.022	1.344	0.513
1274.500	717.699	79.998	19.996	100.919	20.026	1.101	0.507
1275.000	717.954	79.997	19.996	100.915	20.022	1.331	0.482
1275.500	718.202	79.997	19.995	100.918	20.024	1.240	0.492
1276.000	718.486	79.997	19.996	100.916	20.025	1.167	0.517
1276.500	718.702	79.997	19.995	100.914	20.026	1.090	0.516
1277.000	718.966	79.997	19.995	100.912	20.027	0.996	0.490
1277.500	719.221	80.000	19.994	100.910	20.026	1.119	0.499
1278.000	719.479	79.997	19.995	100.910	20.025	1.149	0.516
1278.500	719.735	79.998	19.995	100.913	20.024	1.244	0.514
1279.000	719.998	79.998	19.998	100.918	20.023	1.283	0.516
1279.500	720.215	79.998	19.996	100.922	20.025	1.183	0.500
1280.000	720.474	79.998	19.997	100.925	20.025	1.172	0.478
1280.500	720.722	79.998	19.995	100.925	20.024	1.198	0.491
1281.000	721.011	79.998	19.995	100.924	20.022	1.331	0.522
1281.500	721.266	79.998	19.996	100.922	20.025	1.141	0.541
1282.000	721.499	79.996	19.996	100.920	20.027	1.056	0.516
1282.500	721.748	79.997	19.995	100.916	20.026	1.069	0.485
1283.000	722.024	79.998	19.995	100.912	20.030	0.841	0.503
1283.500	722.257	79.998	19.996	100.914	20.027	0.994	0.517
1284.000	722.532	79.998	19.996	100.915	20.028	0.957	0.509
1284.500	722.747	79.996	19.996	100.915	20.028	0.931	0.499
1285.000	723.021	79.996	19.995	100.915	20.029	0.887	0.489
1285.500	723.259	79.998	19.996	100.915	20.031	0.725	0.500
1286.000	723.531	79.998	19.995	100.912	20.029	0.876	0.511
1286.500	723.778	79.999	19.996	100.911	20.027	1.031	0.515
1287.000	724.000	79.999	19.995	100.913	20.029	0.887	0.494
1287.500	724.261	79.999	19.996	100.919	20.028	0.950	0.476
1288.000	724.471	79.997	19.996	100.924	20.027	0.992	0.477
1288.500	724.756	79.997	19.994	100.928	20.026	1.110	0.483
1289.000	724.998	79.997	19.996	100.927	20.026	1.088	0.511
1289.500	725.242	79.998	19.995	100.922	20.028	0.935	0.507
1290.000	725.508	79.998	19.996	100.915	20.029	0.876	0.498
1290.500	725.736	79.998	19.996	100.910	20.028	0.952	0.502
1291.000	725.987	79.999	19.996	100.907	20.024	1.261	0.487
1291.500	726.238	79.997	19.995	100.910	20.028	0.946	0.491
1292.000	726.468	79.998	19.995	100.910	20.027	1.003	0.491
1292.500	726.739	79.998	19.995	100.910	20.029	0.907	0.491
1293.000	727.003	79.997	19.995	100.909	20.030	0.786	0.518
1293.500	727.253	79.998	19.995	100.905	20.031	0.749	0.524
1294.000	727.468	79.997	19.995	100.901	20.031	0.762	0.490
1294.500	727.684	79.997	19.995	100.901	20.030	0.815	0.449
1295.000	727.962	79.998	19.996	100.903	20.030	0.850	0.462
1295.500	728.243	80.000	19.995	100.906	20.030	0.848	0.526
1296.000	728.464	79.995	19.996	100.911	20.028	0.948	0.530
1296.500	728.719	79.999	19.996	100.916	20.029	0.891	0.489
1297.000	728.977	79.997	19.996	100.923	20.030	0.847	0.495
1297.500	729.256	79.997	19.996	100.929	20.028	0.983	0.525
1298.000	729.484	79.998	19.996	100.934	20.025	1.159	0.522
1298.500	729.723	79.997	19.996	100.935	20.028	0.955	0.487
1299.001	729.962	79.997	19.997	100.934	20.029	0.917	0.472
1299.500	730.282	79.998	19.995	100.927	20.027	1.021	0.518
1300.000	730.520	79.999	19.996	100.919	20.025	1.165	0.558
1300.500	730.727	79.997	19.995	100.914	20.025	1.161	0.501
1301.000	730.981	79.996	19.996	100.912	20.025	1.176	0.453
1301.501	731.244	79.996	19.996	100.913	20.028	0.957	0.489
1302.001	731.500	79.998	19.997	100.914	20.027	1.049	0.518
1302.500	731.713	79.997	19.996	100.915	20.028	0.974	0.494
1303.000	731.966	79.996	19.997	100.913	20.027	1.033	0.467
1303.500	732.230	79.996	19.996	100.909	20.027	1.051	0.492
1304.000	732.441	79.998	19.997	100.904	20.025	1.182	0.496
1304.500	732.722	79.996	19.995	100.906	20.026	1.093	0.483
1305.000	732.992	79.997	19.996	100.909	20.029	0.917	0.521
1305.500	733.240	79.996	19.997	100.909	20.029	0.858	0.535
1306.000	733.493	79.995	19.997	100.910	20.028	0.935	0.510
1306.500	733.741	79.998	19.997	100.910	20.029	0.913	0.501
1307.000	734.016	79.996	19.996	100.908	20.032	0.703	0.512
1307.500	734.251	79.997	19.996	100.905	20.027	0.998	0.516
1308.000	734.507	79.995	19.995	100.906	20.028	0.981	0.500
1308.500	734.752	79.995	19.997	100.907	20.026	1.106	0.496
1309.000	735.020	79.997	19.996	100.908	20.028	0.946	0.507
1309.500	735.242	79.995	19.996	100.908	20.031	0.753	0.501
1310.000	735.494	79.996	19.996	100.911	20.027	1.055	0.482
1310.500	735.706	79.997	19.996	100.911	20.027	1.010	0.469
1311.000	735.990	79.997	19.996	100.911	20.028	0.968	0.480
1311.500	736.228	79.996	19.996	100.915	20.029	0.900	0.509
1312.000	736.509	79.997	19.995	100.918	20.028	0.983	0.521
1312.500	736.761	79.997	19.996	100.924	20.030	0.828	0.526
1313.000	737.015	79.997	19.996	100.927	20.032	0.653	0.519
1313.500	737.242	79.996	19.996	100.925	20.029	0.909	0.493
1314.000	737.505	79.998	19.997	100.921	20.028	0.987	0.486
1314.500	737.731	79.998	19.996	100.917	20.029	0.894	0.489
1315.000	737.989	79.996	19.996	100.910	20.027	0.999	0.486
1315.500	738.242	79.997	19.997	100.908	20.027	1.045	0.497
1316.000	738.509	79.998	19.995	100.913	20.024	1.217	0.516
1316.500	738.795	79.996	19.996	100.913	20.030	0.837	0.536
1317.000	739.000	80.000	19.996	100.913	20.028	0.955	0.522
1317.500	739.215	80.000	19.995	100.913	20.028	0.968	0.455
1318.000	739.530	79.997	19.996	100.913	20.027	1.023	0.476
1318.500	739.729	79.999	19.996	100.911	20.026	1.119	0.522
1319.000	740.022	80.000	19.997	100.910	20.024	1.224	0.503
1319.500	740.266	80.000	19.996	100.911	20.026	1.058	0.514
1320.000	740.532	80.000	19.995	100.911	20.030	0.812	0.524
1320.500	740.774	80.001	19.995	100.912	20.029	0.900	0.509
1321.000	741.025	80.002	19.996	100.909	20.029	0.920	0.501
1321.500	741.316	80.000	19.996	100.909	20.026	1.069	0.518
1322.000	741.540	79.998	19.996	100.909	20.027	1.021	0.529
1322.500	741.796	79.999	19.995	100.912	20.031	0.784	0.498
1323.000	742.045	79.999	19.995	100.914	20.030	0.812	0.492
1323.500	742.281	80.000	19.996	100.918	20.026	1.110	0.494
1324.000	742.545	79.999	19.995	100.922	20.027	1.040	0.492
1324.500	742.805	79.999	19.996	100.922	20.030	0.804	0.512
1325.000	743.075	79.999	19.996	100.920	20.026	1.058	0.527
1325.500	743.313	80.000	19.996	100.918	20.026	1.069	0.519
1326.000	743.529	79.999	19.996	100.918	20.024	1.196	0.481
1326.500	743.777	79.999	19.995	100.916	20.024	1.198	0.459
