Sample ID:	C:\MCC\MCC Cal\Test\Fiberboard_Pressed_Paper_MCC_30K_min_211005_R1.txt
Sample Weight (mg):	4.86
Heating Rate (C/s):	0.5
Combustor Temp (C):	900
N2 Flow Rate (cc/min):	80
O2 Flow Rate (cc/min):	20
Calibration File:	C:\MCC\MCC Cal\Coeff1 JN10440_30_210304.txt.txt
T Correction Coefficients:	0	1.024463	0
Time Shift (s):	14
*
Time (s)	Temperature (C)	N2 flow rate (cc/min)	O2 flow rate (cc/min)	Flow Rate (cc/min)	Oxygen (%)	HRR (W/g)	Heating rate (C/s)
0.000	108.152	79.994	19.997	100.625	20.032	0.108	-0.020
0.500	108.154	79.995	19.996	100.621	20.031	0.129	-0.032
1.000	108.148	79.995	19.997	100.617	20.032	0.101	-0.016
1.500	108.146	79.995	19.997	100.619	20.033	0.024	-0.006
2.000	108.151	79.996	19.997	100.618	20.036	-0.142	-0.002
2.500	108.177	79.995	19.998	100.617	20.032	0.093	0.017
3.000	108.161	79.996	19.997	100.619	20.032	0.093	0.020
3.500	108.125	79.994	19.997	100.617	20.033	0.010	-0.021
4.000	108.102	79.995	19.996	100.614	20.033	0.049	-0.056
4.500	108.170	79.995	19.997	100.614	20.034	-0.024	-0.008
5.000	108.131	79.996	19.997	100.615	20.033	0.030	0.037
5.500	108.163	79.995	19.997	100.614	20.032	0.080	0.011
6.000	108.159	79.994	19.996	100.618	20.036	-0.185	0.010
6.500	108.175	79.995	19.998	100.620	20.032	0.094	0.020
7.000	108.177	79.995	19.997	100.621	20.033	0.054	0.015
7.500	108.190	79.996	19.997	100.622	20.031	0.133	0.016
8.001	108.148	79.995	19.997	100.626	20.031	0.122	-0.007
8.501	108.186	79.995	19.996	100.629	20.030	0.203	-0.016
9.000	108.159	79.996	19.997	100.630	20.031	0.142	0.004
9.500	108.144	79.996	19.997	100.627	20.030	0.191	-0.016
10.000	108.159	79.995	19.997	100.624	20.029	0.278	-0.021
10.500	108.148	79.995	19.996	100.621	20.028	0.346	0.002
11.000	108.175	79.996	19.998	100.621	20.030	0.224	0.010
11.500	108.180	79.997	19.999	100.622	20.028	0.322	0.024
12.000	108.160	79.996	19.998	100.627	20.028	0.367	0.008
12.500	108.160	79.995	19.997	100.632	20.031	0.182	-0.018
13.000	108.165	79.996	19.997	100.634	20.029	0.282	-0.007
13.500	108.156	79.996	19.997	100.635	20.033	-0.007	0.001
14.000	108.145	79.997	19.997	100.637	20.028	0.320	-0.012
14.500	108.136	79.997	19.997	100.638	20.028	0.371	-0.020
15.000	108.136	79.996	19.998	100.642	20.029	0.283	-0.015
15.500	108.151	79.997	19.997	100.645	20.028	0.326	0.003
16.000	108.167	79.996	19.997	100.650	20.029	0.296	0.023
16.500	108.158	79.997	19.996	100.656	20.029	0.268	0.019
17.000	108.182	79.997	19.998	100.659	20.028	0.345	0.011
17.500	108.168	79.996	19.997	100.661	20.024	0.600	0.013
18.000	108.152	79.998	19.997	100.666	20.022	0.758	-0.010
18.500	108.138	79.997	19.998	100.668	20.023	0.679	-0.031
19.000	108.180	79.997	19.997	100.670	20.022	0.739	-0.002
19.500	108.151	79.998	19.997	100.675	20.023	0.686	0.020
20.000	108.214	79.995	19.998	100.682	20.023	0.667	0.024
20.500	108.192	79.995	19.998	100.690	20.019	0.949	0.038
21.000	108.205	79.996	19.997	100.694	20.019	0.932	0.016
21.500	108.214	79.996	19.998	100.699	20.020	0.884	0.006
22.000	108.230	79.995	19.998	100.699	20.020	0.883	0.023
22.500	108.210	79.996	19.998	100.693	20.019	0.958	0.011
23.000	108.255	79.996	19.997	100.687	20.020	0.848	0.010
23.500	108.229	79.996	19.997	100.686	20.017	1.051	0.022
24.000	108.266	79.996	19.998	100.686	20.016	1.128	0.015
24.500	108.264	79.995	19.996	100.690	20.016	1.114	0.023
25.000	108.333	79.997	19.996	100.696	20.016	1.142	0.051
25.500	108.330	79.996	19.998	100.703	20.015	1.219	0.067
26.000	108.357	79.997	19.997	100.714	20.013	1.302	0.045
26.500	108.383	79.995	19.998	100.722	20.010	1.542	0.038
27.000	108.422	79.995	19.998	100.730	20.012	1.401	0.059
27.500	108.431	79.995	19.998	100.736	20.010	1.510	0.056
28.000	108.468	79.996	19.997	100.742	20.010	1.491	0.047
28.500	108.478	79.995	19.997	100.744	20.007	1.676	0.046
29.000	108.501	79.995	19.997	100.745	20.008	1.671	0.040
29.500	108.547	79.996	19.998	100.746	20.009	1.561	0.051
30.000	108.586	79.995	19.997	100.750	20.007	1.676	0.077
30.500	108.622	79.995	19.997	100.757	20.008	1.641	0.080
31.000	108.645	79.995	19.998	100.764	20.004	1.915	0.068
31.500	108.697	79.996	19.997	100.773	20.006	1.780	0.067
32.000	108.731	79.997	19.997	100.781	20.005	1.850	0.080
32.500	108.777	79.996	19.997	100.788	20.004	1.934	0.083
33.000	108.795	79.996	19.997	100.793	20.005	1.846	0.072
33.500	108.848	79.996	19.997	100.797	20.003	1.992	0.067
34.000	108.878	79.996	19.997	100.798	20.001	2.101	0.077
34.500	108.953	79.996	19.996	100.799	20.002	2.039	0.094
35.000	108.983	79.997	19.996	100.805	20.000	2.150	0.105
35.500	109.037	79.995	19.996	100.810	19.998	2.284	0.094
36.000	109.089	79.996	19.997	100.813	19.998	2.286	0.095
36.500	109.165	79.997	19.997	100.816	19.999	2.246	0.117
37.000	109.231	79.998	19.995	100.820	19.997	2.358	0.135
37.500	109.288	79.999	19.997	100.819	19.996	2.414	0.132
38.001	109.316	79.997	19.997	100.819	19.998	2.321	0.104
38.502	109.412	79.997	19.997	100.819	19.996	2.444	0.105
39.001	109.478	79.997	19.996	100.820	19.998	2.299	0.143
39.500	109.544	79.997	19.995	100.819	19.998	2.268	0.147
40.000	109.604	79.998	19.995	100.820	19.998	2.289	0.129
40.500	109.652	79.998	19.996	100.821	19.995	2.511	0.117
41.000	109.734	79.998	19.996	100.822	19.996	2.415	0.119
41.500	109.816	79.998	19.996	100.822	19.996	2.420	0.147
42.000	109.890	79.998	19.996	100.826	19.991	2.716	0.160
42.500	109.973	79.996	19.997	100.827	19.996	2.446	0.157
43.000	110.068	79.998	19.996	100.827	19.994	2.537	0.167
43.500	110.144	79.998	19.996	100.827	19.996	2.393	0.174
44.000	110.228	79.997	19.997	100.829	19.993	2.627	0.166
44.500	110.326	79.996	19.997	100.829	19.995	2.516	0.171
45.000	110.425	79.996	19.995	100.829	19.993	2.599	0.189
45.500	110.502	79.997	19.996	100.829	19.992	2.706	0.187
46.000	110.614	79.997	19.996	100.828	19.993	2.597	0.183
46.500	110.691	79.998	19.997	100.829	19.994	2.544	0.189
47.000	110.801	79.997	19.996	100.829	19.992	2.664	0.188
47.500	110.885	79.997	19.996	100.828	19.994	2.527	0.190
48.000	110.955	79.996	19.995	100.829	19.995	2.490	0.174
48.500	111.056	79.997	19.997	100.832	19.994	2.539	0.162
49.000	111.153	79.997	19.996	100.839	19.995	2.482	0.185
49.500	111.277	79.996	19.997	100.846	19.992	2.692	0.210
50.000	111.371	79.996	19.996	100.852	19.995	2.469	0.220
50.500	111.491	79.996	19.997	100.858	19.994	2.569	0.216
51.000	111.586	79.995	19.997	100.858	19.995	2.473	0.214
51.500	111.687	79.994	19.997	100.854	19.994	2.566	0.205
52.000	111.794	79.995	19.997	100.850	19.992	2.662	0.202
52.500	111.916	79.996	19.997	100.846	19.992	2.660	0.219
53.000	112.030	79.996	19.996	100.842	19.993	2.625	0.233
53.500	112.122	79.994	19.996	100.842	19.992	2.659	0.221
54.000	112.214	79.995	19.997	100.842	19.991	2.748	0.195
54.501	112.338	79.995	19.996	100.845	19.992	2.676	0.200
55.001	112.455	79.996	19.996	100.850	19.988	2.916	0.228
55.500	112.586	79.996	19.996	100.855	19.991	2.715	0.245
56.000	112.682	79.995	19.996	100.859	19.985	3.118	0.238
56.500	112.834	79.995	19.997	100.858	19.987	3.029	0.238
57.000	112.960	79.996	19.998	100.858	19.985	3.132	0.263
57.500	113.082	79.996	19.996	100.858	19.986	3.087	0.263
58.000	113.207	79.995	19.997	100.858	19.988	2.967	0.247
58.500	113.351	79.994	19.996	100.859	19.987	3.034	0.258
59.000	113.474	79.994	19.997	100.864	19.988	2.909	0.268
59.500	113.585	79.996	19.996	100.865	19.987	3.023	0.250
60.000	113.752	79.994	19.997	100.864	19.988	2.946	0.255
60.500	113.863	79.996	19.996	100.863	19.989	2.844	0.278
61.000	114.031	79.995	19.996	100.863	19.990	2.802	0.279
61.500	114.133	79.994	19.998	100.863	19.990	2.790	0.275
62.000	114.253	79.994	19.997	100.864	19.988	2.951	0.246
62.500	114.419	79.995	19.996	100.865	19.987	3.020	0.254
63.000	114.571	79.995	19.996	100.866	19.986	3.081	0.302
63.500	114.728	79.996	19.997	100.867	19.986	3.049	0.313
64.000	114.856	79.995	19.997	100.867	19.986	3.093	0.297
64.500	114.994	79.995	19.995	100.866	19.987	3.036	0.276
65.000	115.117	79.994	19.996	100.866	19.986	3.064	0.263
65.500	115.270	79.994	19.997	100.866	19.986	3.076	0.268
66.000	115.435	79.996	19.997	100.867	19.985	3.138	0.297
66.500	115.604	79.996	19.996	100.867	19.981	3.371	0.327
67.000	115.761	79.998	19.996	100.868	19.983	3.266	0.330
67.500	115.915	79.996	19.996	100.871	19.982	3.343	0.318
68.000	116.047	79.996	19.996	100.877	19.981	3.369	0.298
68.500	116.203	79.995	19.996	100.876	19.981	3.420	0.286
69.000	116.344	79.996	19.995	100.875	19.981	3.425	0.293
69.500	116.502	79.995	19.995	100.876	19.981	3.365	0.298
70.000	116.643	79.996	19.996	100.873	19.982	3.304	0.299
70.500	116.821	79.994	19.996	100.868	19.982	3.315	0.309
71.000	116.980	79.995	19.996	100.868	19.981	3.417	0.328
71.500	117.097	79.995	19.995	100.869	19.982	3.338	0.306
72.000	117.302	79.995	19.995	100.869	19.977	3.630	0.299
72.500	117.482	79.996	19.996	100.869	19.982	3.311	0.353
73.000	117.610	79.995	19.995	100.868	19.980	3.485	0.347
73.500	117.809	79.995	19.996	100.868	19.982	3.327	0.318
74.000	118.012	79.995	19.995	100.866	19.979	3.511	0.365
74.500	118.166	79.996	19.996	100.866	19.979	3.493	0.379
75.000	118.317	79.996	19.996	100.867	19.981	3.392	0.331
75.500	118.526	79.995	19.996	100.871	19.979	3.506	0.333
76.000	118.665	79.996	19.995	100.877	19.980	3.459	0.354
76.501	118.846	79.996	19.996	100.884	19.979	3.511	0.334
77.001	119.013	79.995	19.996	100.889	19.978	3.557	0.334
77.500	119.195	79.996	19.998	100.889	19.980	3.431	0.349
78.000	119.363	79.996	19.996	100.887	19.980	3.480	0.350
78.500	119.491	79.995	19.996	100.888	19.981	3.422	0.323
79.000	119.685	79.997	19.997	100.883	19.978	3.562	0.309
79.500	119.853	79.993	19.997	100.881	19.982	3.357	0.342
80.001	120.071	79.994	19.996	100.883	19.978	3.583	0.374
80.501	120.232	79.995	19.998	100.884	19.978	3.597	0.383
81.000	120.436	79.994	19.999	100.883	19.979	3.523	0.373
81.500	120.567	79.995	20.000	100.889	19.978	3.581	0.350
82.000	120.779	79.995	19.997	100.891	19.980	3.484	0.339
82.500	120.985	79.994	20.000	100.891	19.981	3.423	0.381
83.000	121.147	79.995	19.998	100.891	19.981	3.378	0.393
83.500	121.349	79.994	19.998	100.888	19.980	3.448	0.366
84.000	121.548	79.993	19.997	100.880	19.982	3.331	0.382
84.500	121.773	79.994	19.997	100.876	19.979	3.492	0.412
85.000	121.925	79.994	19.998	100.880	19.980	3.438	0.400
85.500	122.121	79.995	19.998	100.884	19.980	3.457	0.362
86.000	122.316	79.995	19.999	100.888	19.978	3.581	0.369
86.500	122.517	79.996	19.998	100.894	19.980	3.453	0.393
87.000	122.704	79.996	19.998	100.899	19.980	3.471	0.392
87.500	122.913	79.996	19.997	100.896	19.980	3.483	0.392
88.000	123.130	79.995	19.997	100.893	19.981	3.386	0.412
88.500	123.299	79.995	19.999	100.892	19.980	3.465	0.406
89.001	123.492	79.995	19.997	100.890	19.976	3.684	0.374
89.501	123.726	79.996	19.997	100.888	19.979	3.537	0.394
90.000	123.898	79.995	19.997	100.890	19.979	3.534	0.416
90.501	124.090	79.995	19.998	100.891	19.979	3.555	0.385
91.001	124.262	79.996	19.999	100.890	19.977	3.635	0.364
91.500	124.528	79.995	19.997	100.888	19.979	3.497	0.401
92.001	124.707	79.994	19.997	100.884	19.977	3.651	0.442
92.501	124.909	79.994	19.998	100.882	19.976	3.688	0.413
93.000	125.102	79.995	19.998	100.878	19.977	3.669	0.387
93.500	125.330	79.995	19.997	100.878	19.977	3.621	0.408
94.000	125.527	79.996	19.996	100.883	19.980	3.467	0.423
94.500	125.722	79.996	19.997	100.888	19.978	3.614	0.409
95.000	125.945	79.995	19.997	100.887	19.977	3.678	0.405
95.500	126.130	79.996	19.996	100.890	19.974	3.821	0.413
96.000	126.369	79.996	19.997	100.894	19.976	3.685	0.416
96.500	126.566	79.996	19.997	100.895	19.976	3.715	0.430
97.000	126.790	79.996	19.996	100.895	19.977	3.673	0.428
97.501	126.964	79.996	19.997	100.893	19.979	3.543	0.409
98.001	127.241	79.997	19.997	100.888	19.977	3.622	0.425
98.500	127.414	79.996	19.996	100.881	19.981	3.409	0.451
99.000	127.616	79.996	19.997	100.875	19.979	3.520	0.412
99.500	127.830	79.995	19.996	100.874	19.978	3.600	0.395
100.000	128.047	79.998	19.997	100.879	19.977	3.664	0.424
100.500	128.236	79.997	19.997	100.882	19.979	3.551	0.418
101.000	128.457	79.996	19.997	100.883	19.978	3.602	0.408
101.500	128.698	79.996	19.997	100.883	19.978	3.612	0.436
102.001	128.891	79.997	19.995	100.885	19.977	3.658	0.448
102.501	129.135	79.996	19.996	100.885	19.979	3.553	0.436
103.001	129.315	79.996	19.997	100.888	19.980	3.455	0.430
103.500	129.509	79.997	19.995	100.888	19.979	3.530	0.398
104.000	129.743	79.996	19.996	100.889	19.978	3.574	0.401
104.500	129.969	79.997	19.997	100.884	19.976	3.691	0.444
105.000	130.162	79.996	19.995	100.885	19.979	3.523	0.440
105.500	130.434	79.996	19.998	100.884	19.977	3.639	0.442
106.000	130.621	79.995	19.997	100.889	19.980	3.462	0.462
106.501	130.838	79.997	19.996	100.891	19.981	3.423	0.431
107.001	131.055	79.996	19.997	100.895	19.980	3.460	0.419
107.500	131.288	79.996	19.996	100.896	19.981	3.395	0.443
108.000	131.545	79.995	19.996	100.894	19.979	3.553	0.470
108.500	131.721	79.997	19.997	100.892	19.979	3.515	0.461
109.000	131.943	79.994	19.997	100.890	19.978	3.560	0.415
109.500	132.171	79.997	19.996	100.886	19.978	3.607	0.424
110.000	132.383	79.994	19.997	100.886	19.976	3.686	0.445
110.500	132.640	79.996	19.997	100.886	19.977	3.681	0.454
111.000	132.858	79.996	19.997	100.887	19.976	3.739	0.472
111.500	133.100	79.995	19.997	100.885	19.976	3.704	0.467
112.000	133.323	79.996	19.998	100.885	19.976	3.724	0.462
112.500	133.549	79.994	19.998	100.879	19.979	3.528	0.457
113.000	133.770	79.995	19.997	100.877	19.978	3.572	0.448
113.500	134.004	79.995	19.996	100.873	19.977	3.656	0.451
114.000	134.225	79.995	19.996	100.874	19.978	3.591	0.455
114.500	134.439	79.995	19.997	100.873	19.979	3.500	0.445
115.000	134.660	79.995	19.997	100.875	19.980	3.451	0.435
115.500	134.910	79.996	19.998	100.875	19.980	3.456	0.453
116.000	135.124	79.996	19.997	100.874	19.978	3.579	0.467
116.500	135.355	79.995	19.997	100.874	19.979	3.503	0.454
117.000	135.562	79.996	19.997	100.877	19.979	3.533	0.442
117.500	135.811	79.997	19.998	100.877	19.980	3.458	0.447
118.000	136.060	79.997	19.996	100.880	19.979	3.554	0.476
118.501	136.240	79.996	19.997	100.884	19.978	3.610	0.463
119.001	136.480	79.997	19.996	100.887	19.978	3.566	0.425
119.500	136.706	79.997	19.997	100.886	19.979	3.544	0.443
120.000	136.971	79.997	19.996	100.884	19.980	3.437	0.478
120.500	137.198	79.997	19.998	100.884	19.980	3.476	0.491
121.000	137.451	79.996	19.997	100.885	19.979	3.497	0.486
121.500	137.633	79.998	19.996	100.882	19.980	3.483	0.458
122.000	137.878	79.998	19.997	100.878	19.979	3.491	0.431
122.500	138.105	79.998	19.996	100.878	19.980	3.453	0.450
123.000	138.340	79.997	19.997	100.873	19.979	3.519	0.467
123.501	138.599	79.997	19.999	100.867	19.980	3.486	0.478
124.001	138.816	79.997	19.998	100.866	19.980	3.430	0.485
124.500	139.040	79.998	19.997	100.865	19.978	3.579	0.459
125.000	139.272	79.997	19.996	100.866	19.979	3.502	0.449
125.500	139.481	79.998	19.996	100.866	19.979	3.516	0.449
126.000	139.724	79.998	19.997	100.866	19.979	3.518	0.446
126.500	139.961	80.000	19.996	100.865	19.980	3.484	0.466
127.000	140.190	79.998	19.996	100.866	19.983	3.262	0.473
127.500	140.456	79.998	19.997	100.866	19.982	3.302	0.480
128.000	140.674	79.998	19.995	100.865	19.983	3.246	0.489
128.500	140.910	79.998	19.996	100.865	19.983	3.244	0.469
129.000	141.159	79.998	19.996	100.865	19.981	3.374	0.470
129.500	141.397	79.998	19.997	100.865	19.986	3.078	0.485
130.000	141.670	79.997	19.995	100.866	19.981	3.367	0.499
130.500	141.858	79.997	19.997	100.866	19.984	3.221	0.486
131.000	142.093	79.996	19.996	100.870	19.984	3.214	0.442
131.500	142.296	79.996	19.996	100.874	19.982	3.330	0.430
132.000	142.564	79.995	19.996	100.874	19.981	3.391	0.455
132.500	142.806	79.995	19.997	100.874	19.981	3.409	0.491
133.000	143.030	79.995	19.996	100.874	19.983	3.254	0.488
133.501	143.313	79.995	19.996	100.871	19.982	3.360	0.486
134.001	143.549	79.996	19.997	100.867	19.981	3.379	0.513
134.500	143.797	79.996	19.996	100.868	19.979	3.509	0.501
135.000	144.004	79.995	19.997	100.868	19.980	3.463	0.470
135.500	144.210	79.996	19.995	100.868	19.979	3.524	0.434
136.000	144.484	79.996	19.996	100.868	19.979	3.519	0.447
136.500	144.739	79.995	19.996	100.871	19.980	3.426	0.505
137.000	145.001	79.995	19.997	100.873	19.979	3.552	0.523
137.500	145.215	79.996	19.995	100.873	19.980	3.475	0.497
138.000	145.447	79.995	19.997	100.873	19.981	3.382	0.461
138.500	145.685	79.996	19.996	100.874	19.980	3.437	0.458
139.000	145.921	79.995	19.998	100.873	19.980	3.470	0.472
139.500	146.160	79.996	19.996	100.870	19.980	3.475	0.475
140.000	146.437	79.994	19.996	100.870	19.978	3.559	0.495
140.500	146.657	79.995	19.998	100.871	19.982	3.354	0.506
141.000	146.878	79.995	19.997	100.870	19.981	3.398	0.469
141.500	147.138	79.996	19.997	100.868	19.984	3.226	0.461
142.000	147.395	79.997	19.996	100.868	19.984	3.177	0.499
142.500	147.650	79.996	19.996	100.867	19.982	3.337	0.515
143.000	147.807	79.995	19.997	100.866	19.980	3.444	0.462
143.500	148.096	79.995	19.996	100.866	19.982	3.326	0.429
144.000	148.378	79.996	19.995	100.866	19.981	3.384	0.509
144.500	148.602	79.997	19.997	100.865	19.985	3.149	0.539
145.000	148.816	79.997	19.997	100.866	19.987	3.026	0.472
145.500	149.066	79.997	19.996	100.866	19.982	3.321	0.451
146.000	149.329	79.996	19.997	100.866	19.982	3.314	0.488
146.500	149.566	79.995	19.998	100.866	19.985	3.133	0.506
147.000	149.791	79.996	19.997	100.865	19.982	3.347	0.481
147.500	150.052	79.997	19.998	100.865	19.982	3.337	0.474
148.000	150.270	79.996	19.997	100.864	19.983	3.290	0.482
148.500	150.511	79.996	19.997	100.861	19.981	3.372	0.469
149.000	150.723	79.996	19.996	100.861	19.981	3.400	0.456
149.500	150.984	79.997	19.997	100.862	19.982	3.349	0.463
150.000	151.216	79.997	19.997	100.862	19.982	3.314	0.483
150.500	151.456	79.996	19.996	100.862	19.984	3.195	0.482
151.000	151.687	79.997	19.997	100.865	19.982	3.351	0.471
151.500	151.936	79.996	19.996	100.866	19.983	3.249	0.476
152.000	152.191	79.997	19.997	100.865	19.984	3.209	0.492
152.500	152.387	79.997	19.996	100.865	19.983	3.244	0.477
153.000	152.648	79.997	19.997	100.866	19.983	3.242	0.454
153.500	152.910	79.996	19.997	100.865	19.981	3.418	0.490
154.000	153.117	79.997	19.997	100.864	19.980	3.454	0.496
154.500	153.361	79.996	19.996	100.861	19.983	3.277	0.460
155.000	153.607	79.996	19.996	100.859	19.984	3.190	0.470
155.500	153.856	79.996	19.996	100.858	19.982	3.309	0.492
156.000	154.095	79.995	19.996	100.858	19.984	3.185	0.491
156.500	154.359	79.996	19.996	100.857	19.983	3.234	0.496
157.000	154.555	79.997	19.997	100.860	19.983	3.283	0.482
157.500	154.756	79.997	19.996	100.864	19.982	3.349	0.428
158.000	155.029	79.996	19.997	100.863	19.981	3.407	0.435
158.500	155.262	79.996	19.997	100.864	19.981	3.400	0.490
159.000	155.507	79.995	19.997	100.867	19.982	3.347	0.492
159.500	155.742	79.995	19.998	100.868	19.984	3.169	0.479
160.000	155.957	79.995	19.997	100.868	19.985	3.158	0.465
160.500	156.176	79.996	19.996	100.870	19.984	3.176	0.442
161.000	156.445	79.995	19.996	100.871	19.984	3.214	0.461
161.500	156.646	79.995	19.997	100.872	19.983	3.237	0.479
162.000	156.904	79.997	19.996	100.872	19.983	3.251	0.465
162.500	157.141	79.994	19.997	100.872	19.984	3.174	0.478
163.000	157.401	79.996	19.996	100.872	19.983	3.265	0.496
163.500	157.615	79.995	19.996	100.871	19.988	2.953	0.485
164.000	157.867	79.996	19.996	100.871	19.983	3.244	0.469
164.500	158.108	79.994	19.997	100.870	19.988	2.923	0.480
165.000	158.325	79.995	19.996	100.870	19.985	3.128	0.476
165.500	158.605	79.997	19.996	100.870	19.986	3.070	0.477
166.000	158.796	79.995	19.997	100.871	19.988	2.937	0.484
166.500	159.081	79.996	19.996	100.871	19.984	3.190	0.474
167.000	159.326	79.996	19.996	100.871	19.986	3.086	0.503
167.500	159.579	79.995	19.996	100.871	19.986	3.078	0.514
168.000	159.781	79.996	19.996	100.872	19.983	3.234	0.476
168.500	160.015	79.994	19.997	100.871	19.984	3.213	0.445
169.000	160.296	79.996	19.996	100.870	19.985	3.111	0.476
169.500	160.525	79.996	19.997	100.868	19.984	3.183	0.513
170.000	160.758	79.994	19.996	100.868	19.987	2.992	0.486
170.500	160.993	79.995	19.996	100.869	19.987	3.013	0.465
171.000	161.260	79.994	19.996	100.870	19.988	2.929	0.485
171.500	161.478	79.995	19.997	100.871	19.985	3.125	0.493
172.000	161.705	79.996	19.998	100.873	19.987	3.009	0.465
172.500	161.976	79.994	19.997	100.873	19.986	3.098	0.471
173.000	162.217	79.996	19.997	100.871	19.987	3.035	0.505
173.500	162.474	79.997	19.996	100.870	19.983	3.256	0.505
174.000	162.700	79.997	19.997	100.869	19.984	3.175	0.491
174.500	163.012	79.996	19.997	100.868	19.984	3.188	0.511
175.000	163.190	79.996	19.996	100.868	19.982	3.298	0.514
175.500	163.455	79.996	19.997	100.866	19.984	3.175	0.467
176.000	163.680	79.996	19.996	100.866	19.983	3.279	0.467
176.500	163.943	79.996	19.995	100.866	19.984	3.221	0.489
177.000	164.214	79.996	19.997	100.867	19.981	3.380	0.511
177.500	164.445	79.997	19.997	100.867	19.983	3.237	0.518
178.000	164.701	79.996	19.996	100.869	19.984	3.214	0.494
178.500	164.972	79.997	19.996	100.870	19.983	3.286	0.507
179.000	165.217	79.997	19.997	100.870	19.983	3.277	0.522
179.500	165.439	79.998	19.997	100.871	19.983	3.291	0.491
180.000	165.724	79.997	19.997	100.870	19.983	3.280	0.487
180.500	165.948	79.996	19.995	100.870	19.983	3.289	0.508
181.000	166.226	79.996	19.997	100.869	19.983	3.249	0.506
181.500	166.463	79.996	19.996	100.869	19.983	3.263	0.509
182.000	166.677	79.997	19.998	100.869	19.980	3.475	0.483
182.500	166.942	79.998	19.997	100.868	19.982	3.326	0.465
183.000	167.167	79.998	19.997	100.867	19.979	3.524	0.484
183.500	167.435	79.998	19.996	100.866	19.982	3.298	0.491
184.000	167.665	79.996	19.996	100.865	19.981	3.364	0.496
184.500	167.920	79.996	19.997	100.863	19.981	3.415	0.492
185.000	168.164	79.997	19.996	100.861	19.982	3.342	0.492
185.500	168.402	79.997	19.996	100.861	19.982	3.333	0.490
186.000	168.651	79.997	19.997	100.860	19.981	3.422	0.484
186.500	168.858	79.998	19.997	100.858	19.982	3.324	0.471
187.000	169.113	79.996	19.997	100.858	19.982	3.352	0.459
187.500	169.368	79.996	19.997	100.860	19.980	3.428	0.486
188.000	169.582	79.998	19.996	100.859	19.979	3.505	0.490
188.500	169.839	79.997	19.996	100.860	19.979	3.552	0.470
189.000	170.077	79.997	19.996	100.859	19.978	3.558	0.483
189.500	170.319	79.996	19.997	100.853	19.981	3.423	0.487
190.000	170.569	79.997	19.997	100.848	19.979	3.491	0.486
190.500	170.857	79.996	19.998	100.844	19.975	3.777	0.515
191.000	171.056	79.997	19.997	100.841	19.979	3.540	0.513
191.500	171.298	79.996	19.997	100.842	19.977	3.654	0.464
192.000	171.543	79.997	19.997	100.849	19.980	3.459	0.464
192.500	171.805	79.997	19.996	100.854	19.977	3.680	0.497
193.000	172.030	79.998	19.996	100.853	19.978	3.601	0.497
193.500	172.295	79.997	19.996	100.849	19.977	3.636	0.488
194.000	172.496	79.998	19.995	100.850	19.976	3.690	0.478
194.500	172.749	79.998	19.997	100.850	19.981	3.401	0.460
195.000	173.004	79.998	19.997	100.847	19.978	3.585	0.481
195.500	173.236	79.997	19.997	100.853	19.978	3.617	0.498
196.000	173.492	79.997	19.997	100.859	19.977	3.626	0.488
196.500	173.745	79.996	19.997	100.858	19.977	3.662	0.498
197.000	173.930	79.998	19.997	100.854	19.975	3.757	0.473
197.500	174.189	79.996	19.998	100.855	19.974	3.869	0.441
198.000	174.454	79.997	19.997	100.854	19.974	3.825	0.484
198.500	174.709	79.998	19.996	100.854	19.974	3.848	0.522
199.000	174.946	79.997	19.997	100.859	19.974	3.827	0.506
199.500	175.173	79.997	19.998	100.863	19.974	3.869	0.478
200.000	175.465	79.997	19.997	100.865	19.974	3.832	0.492
200.500	175.627	79.998	19.998	100.865	19.977	3.672	0.487
201.000	175.936	79.998	19.997	100.864	19.975	3.776	0.462
201.500	176.153	79.998	19.996	100.863	19.975	3.774	0.498
202.000	176.396	79.999	19.997	100.860	19.974	3.827	0.493
202.500	176.627	79.997	19.997	100.857	19.976	3.724	0.468
203.000	176.888	79.999	19.997	100.850	19.974	3.852	0.483
203.500	177.116	79.999	19.997	100.848	19.977	3.641	0.490
204.000	177.394	79.997	19.997	100.849	19.980	3.476	0.497
204.500	177.608	79.998	19.996	100.849	19.975	3.774	0.499
205.000	177.832	79.998	19.997	100.851	19.975	3.774	0.465
205.500	178.094	79.998	19.997	100.856	19.975	3.757	0.462
206.000	178.327	79.998	19.997	100.855	19.974	3.820	0.490
206.500	178.592	79.997	19.998	100.853	19.975	3.792	0.497
207.000	178.834	79.998	19.996	100.855	19.974	3.848	0.502
207.500	179.079	79.998	19.997	100.852	19.975	3.808	0.497
208.000	179.318	79.998	19.997	100.849	19.976	3.717	0.486
208.500	179.601	79.997	19.998	100.852	19.974	3.822	0.503
209.000	179.819	79.998	19.997	100.852	19.975	3.795	0.511
209.500	180.060	79.998	19.996	100.847	19.974	3.816	0.480
210.000	180.283	79.998	19.998	100.845	19.971	4.025	0.461
210.500	180.533	79.998	19.997	100.842	19.973	3.919	0.468
211.000	180.783	79.996	19.997	100.839	19.973	3.930	0.486
211.500	181.028	79.995	19.997	100.838	19.974	3.839	0.498
212.000	181.276	79.997	19.998	100.843	19.970	4.086	0.494
212.500	181.523	79.997	19.997	100.847	19.970	4.109	0.494
213.000	181.766	79.996	19.996	100.850	19.970	4.078	0.492
213.500	181.983	79.995	19.997	100.852	19.971	4.020	0.476
214.000	182.258	79.996	19.996	100.853	19.971	4.067	0.476
214.500	182.504	79.997	19.997	100.848	19.972	3.981	0.506
215.000	182.739	79.997	19.998	100.843	19.973	3.919	0.501
215.500	182.994	79.997	19.997	100.846	19.968	4.242	0.486
216.001	183.271	79.997	19.996	100.848	19.968	4.252	0.511
216.501	183.522	79.996	19.997	100.849	19.967	4.301	0.530
217.000	183.721	79.995	19.998	100.853	19.968	4.225	0.489
217.500	183.965	79.997	19.997	100.854	19.967	4.288	0.447
218.000	184.211	79.998	19.997	100.854	19.967	4.325	0.466
218.500	184.491	79.997	19.997	100.853	19.967	4.279	0.508
219.000	184.745	79.996	19.996	100.851	19.967	4.277	0.530
219.500	184.983	79.995	19.997	100.850	19.967	4.316	0.513
220.000	185.217	79.995	19.996	100.848	19.965	4.402	0.482
220.500	185.493	79.995	19.996	100.845	19.966	4.339	0.491
221.000	185.721	79.995	19.996	100.842	19.968	4.212	0.507
221.500	185.975	79.995	19.996	100.839	19.967	4.281	0.493
222.000	186.234	79.996	19.996	100.838	19.968	4.216	0.498
222.500	186.459	79.995	19.996	100.843	19.968	4.220	0.499
223.000	186.738	79.997	19.996	100.847	19.967	4.272	0.494
223.500	186.994	79.995	19.996	100.849	19.969	4.149	0.519
224.000	187.196	79.997	19.997	100.850	19.968	4.217	0.496
224.500	187.434	79.994	19.996	100.851	19.967	4.275	0.449
225.000	187.693	79.996	19.996	100.846	19.966	4.345	0.469
225.500	187.942	79.996	19.997	100.840	19.966	4.349	0.503
226.000	188.206	79.995	19.996	100.838	19.967	4.324	0.511
226.500	188.438	79.996	19.997	100.838	19.967	4.277	0.504
227.000	188.688	79.997	19.996	100.838	19.968	4.260	0.489
227.500	188.916	79.997	19.996	100.842	19.968	4.253	0.480
228.000	189.157	79.996	19.996	100.846	19.966	4.377	0.473
228.500	189.415	79.996	19.995	100.847	19.964	4.482	0.484
229.000	189.666	79.997	19.996	100.850	19.967	4.322	0.504
229.500	189.916	79.996	19.996	100.852	19.967	4.301	0.505
230.000	190.122	79.995	19.996	100.854	19.965	4.415	0.478
230.500	190.368	79.995	19.996	100.853	19.965	4.447	0.454
231.000	190.660	79.995	19.997	100.853	19.965	4.458	0.495
231.500	190.856	79.996	19.996	100.851	19.962	4.605	0.513
232.000	191.124	79.996	19.996	100.852	19.963	4.584	0.476
232.500	191.391	79.996	19.997	100.852	19.961	4.693	0.500
233.000	191.652	79.997	19.996	100.854	19.962	4.637	0.531
233.500	191.854	79.995	19.996	100.855	19.965	4.430	0.495
234.000	192.122	79.994	19.997	100.852	19.961	4.663	0.467
234.500	192.366	79.995	19.996	100.846	19.963	4.584	0.491
235.000	192.626	79.994	19.997	100.841	19.962	4.645	0.508
235.500	192.856	79.995	19.997	100.837	19.962	4.605	0.497
236.000	193.117	79.996	19.997	100.834	19.961	4.657	0.491
236.500	193.344	79.996	19.997	100.841	19.963	4.558	0.490
237.000	193.626	79.995	19.996	100.847	19.961	4.689	0.498
237.500	193.878	79.996	19.997	100.848	19.960	4.754	0.522
238.000	194.098	79.995	19.996	100.848	19.961	4.666	0.503
238.500	194.352	79.995	19.996	100.848	19.960	4.783	0.473
239.000	194.589	79.996	19.996	100.846	19.961	4.710	0.482
239.500	194.855	79.995	19.998	100.839	19.959	4.814	0.497
240.000	195.068	79.994	19.997	100.837	19.959	4.844	0.491
240.500	195.362	79.994	19.996	100.840	19.961	4.716	0.493
241.000	195.587	79.994	19.997	100.845	19.955	5.047	0.513
241.500	195.831	79.995	19.996	100.845	19.954	5.147	0.494
242.000	196.071	79.995	19.996	100.852	19.954	5.154	0.476
242.500	196.334	79.997	19.996	100.857	19.955	5.068	0.494
243.000	196.537	79.994	19.996	100.856	19.952	5.285	0.484
243.500	196.834	79.996	19.996	100.855	19.952	5.282	0.482
244.000	197.073	79.995	19.996	100.854	19.953	5.235	0.518
244.500	197.314	79.995	19.996	100.851	19.950	5.368	0.508
245.000	197.552	79.994	19.996	100.845	19.956	4.979	0.480
245.500	197.795	79.995	19.998	100.846	19.952	5.292	0.480
246.000	198.057	79.994	19.999	100.844	19.958	4.912	0.493
246.500	198.336	79.995	19.999	100.843	19.954	5.137	0.523
247.000	198.555	79.995	19.997	100.845	19.954	5.126	0.520
247.500	198.796	79.996	19.998	100.851	19.957	4.965	0.479
248.000	199.093	79.995	19.997	100.853	19.956	4.988	0.499
248.500	199.308	79.994	19.997	100.851	19.956	5.011	0.525
249.000	199.522	79.996	19.996	100.848	19.954	5.117	0.471
249.500	199.787	79.995	19.997	100.845	19.953	5.229	0.455
250.000	200.021	79.994	19.996	100.839	19.955	5.087	0.489
250.500	200.260	79.995	19.996	100.834	19.953	5.172	0.485
251.000	200.502	79.995	19.997	100.832	19.952	5.236	0.477
251.500	200.777	79.995	19.997	100.831	19.955	5.102	0.499
252.000	201.003	79.996	19.996	100.829	19.955	5.091	0.509
252.500	201.273	79.996	19.996	100.829	19.953	5.212	0.499
253.000	201.507	79.996	19.995	100.829	19.954	5.131	0.500
253.500	201.781	79.996	19.996	100.829	19.951	5.312	0.506
254.000	202.016	79.996	19.996	100.830	19.951	5.345	0.508
254.500	202.264	79.996	19.995	100.829	19.950	5.370	0.496
255.000	202.484	79.997	19.996	100.830	19.951	5.322	0.476
255.500	202.697	79.997	19.996	100.830	19.951	5.310	0.450
256.000	202.977	79.997	19.996	100.829	19.950	5.380	0.463
256.500	203.198	79.997	19.996	100.828	19.949	5.452	0.497
257.000	203.461	79.997	19.996	100.829	19.950	5.369	0.492
257.500	203.705	79.997	19.996	100.830	19.949	5.438	0.496
258.000	203.920	79.998	19.996	100.830	19.951	5.338	0.483
258.500	204.158	79.998	19.996	100.833	19.951	5.306	0.456
259.000	204.444	79.997	19.995	100.833	19.949	5.473	0.488
259.500	204.691	79.999	19.995	100.832	19.949	5.436	0.529
260.000	204.986	79.997	19.995	100.829	19.948	5.520	0.537
260.500	205.234	79.998	19.997	100.829	19.948	5.511	0.543
261.000	205.458	79.997	19.996	100.827	19.947	5.576	0.508
261.500	205.759	79.998	19.996	100.828	19.949	5.463	0.498
262.000	205.989	79.998	19.996	100.828	19.947	5.583	0.528
262.501	206.229	79.998	19.996	100.829	19.948	5.548	0.500
263.001	206.479	79.998	19.996	100.829	19.945	5.753	0.480
263.501	206.749	79.999	19.995	100.829	19.949	5.478	0.505
264.000	207.029	79.998	19.996	100.828	19.946	5.643	0.535
264.500	207.217	79.998	19.997	100.828	19.945	5.727	0.509
265.000	207.519	79.997	19.996	100.829	19.943	5.837	0.479
265.501	207.744	79.997	19.996	100.831	19.944	5.762	0.509
266.001	208.013	79.997	19.997	100.829	19.946	5.669	0.511
266.500	208.254	79.998	19.997	100.829	19.945	5.703	0.502
267.000	208.498	79.997	19.997	100.829	19.945	5.729	0.498
267.500	208.751	79.997	19.997	100.828	19.944	5.815	0.491
268.000	208.986	79.997	19.997	100.826	19.943	5.871	0.492
268.500	209.249	79.997	19.998	100.826	19.941	5.993	0.492
269.000	209.499	79.997	19.998	100.826	19.942	5.946	0.505
269.500	209.769	79.997	19.997	100.826	19.942	5.930	0.517
270.000	209.991	79.996	19.997	100.826	19.940	6.027	0.507
270.500	210.229	79.997	19.996	100.830	19.940	6.050	0.476
271.000	210.508	79.996	19.996	100.830	19.940	6.064	0.488
271.500	210.752	79.997	19.997	100.830	19.936	6.330	0.520
272.000	211.004	79.997	19.997	100.830	19.939	6.091	0.510
272.500	211.242	79.996	19.997	100.833	19.940	6.021	0.493
273.000	211.471	79.997	19.997	100.830	19.937	6.230	0.478
273.500	211.743	79.997	19.998	100.832	19.940	6.076	0.485
274.000	211.951	79.995	19.997	100.832	19.936	6.283	0.491
274.500	212.204	79.995	19.997	100.833	19.934	6.410	0.470
275.000	212.494	79.997	19.998	100.830	19.935	6.395	0.502
275.500	212.669	79.996	19.996	100.833	19.935	6.351	0.504
276.000	212.989	79.997	19.996	100.831	19.936	6.307	0.480
276.500	213.191	79.996	19.997	100.832	19.934	6.428	0.508
277.000	213.443	79.997	19.997	100.834	19.935	6.397	0.488
277.500	213.678	79.997	19.996	100.834	19.933	6.513	0.471
278.000	213.942	79.996	19.996	100.830	19.935	6.363	0.493
278.500	214.200	79.997	19.998	100.830	19.931	6.626	0.510
279.000	214.438	79.997	19.996	100.830	19.933	6.494	0.509
279.500	214.698	79.997	19.997	100.828	19.933	6.468	0.497
280.000	214.917	79.997	19.997	100.830	19.931	6.598	0.488
280.500	215.193	79.998	19.996	100.833	19.930	6.675	0.487
281.000	215.441	79.998	19.997	100.834	19.934	6.442	0.510
281.500	215.712	79.998	19.996	100.835	19.931	6.606	0.522
282.000	215.942	79.998	19.997	100.835	19.930	6.674	0.510
282.500	216.161	79.999	19.996	100.834	19.932	6.546	0.475
283.000	216.420	79.998	19.997	100.830	19.932	6.538	0.463
283.500	216.672	79.999	19.996	100.830	19.927	6.872	0.494
284.000	216.957	79.998	19.996	100.831	19.927	6.863	0.524
284.500	217.157	79.997	19.996	100.832	19.928	6.802	0.511
285.000	217.430	79.999	19.996	100.833	19.927	6.887	0.479
285.500	217.630	79.998	19.996	100.834	19.929	6.784	0.473
286.000	217.908	79.998	19.996	100.836	19.929	6.782	0.475
286.501	218.187	79.997	19.996	100.839	19.930	6.721	0.517
287.000	218.400	79.998	19.995	100.839	19.929	6.787	0.524
287.500	218.636	79.998	19.997	100.842	19.925	6.996	0.471
288.000	218.888	79.998	19.997	100.845	19.927	6.914	0.469
288.500	219.125	79.997	19.996	100.850	19.923	7.158	0.488
289.000	219.410	79.999	19.996	100.853	19.926	6.924	0.505
289.500	219.622	79.999	19.996	100.855	19.922	7.196	0.509
290.000	219.914	79.998	19.995	100.859	19.923	7.126	0.501
290.500	220.159	79.998	19.996	100.860	19.922	7.215	0.520
291.000	220.435	79.996	19.997	100.858	19.923	7.132	0.529
291.500	220.656	79.997	19.995	100.857	19.920	7.349	0.509
292.000	220.912	79.997	19.996	100.857	19.921	7.246	0.487
292.500	221.168	79.997	19.997	100.853	19.923	7.129	0.495
293.000	221.408	79.998	19.996	100.851	19.919	7.397	0.504
293.500	221.661	79.997	19.997	100.850	19.918	7.474	0.495
294.000	221.970	79.996	19.996	100.848	19.920	7.367	0.528
294.500	222.197	79.997	19.996	100.847	19.918	7.469	0.549
295.000	222.468	79.996	19.996	100.845	19.916	7.569	0.517
295.500	222.722	79.995	19.997	100.843	19.917	7.539	0.512
296.000	222.977	79.996	19.997	100.838	19.916	7.579	0.517
296.500	223.233	79.996	19.998	100.836	19.919	7.394	0.510
297.000	223.509	79.995	19.997	100.834	19.915	7.662	0.522
297.500	223.733	79.995	19.998	100.837	19.916	7.623	0.517
298.000	223.989	79.994	19.997	100.838	19.912	7.870	0.490
298.500	224.261	79.996	19.998	100.841	19.915	7.663	0.503
299.000	224.545	79.994	19.998	100.845	19.912	7.826	0.542
299.500	224.765	79.995	19.998	100.844	19.913	7.800	0.530
300.000	225.032	79.995	19.997	100.841	19.915	7.651	0.496
300.500	225.320	79.996	19.996	100.839	19.912	7.871	0.521
301.000	225.584	79.994	19.998	100.837	19.909	8.082	0.553
301.500	225.845	79.995	19.996	100.834	19.910	7.992	0.538
302.000	226.109	79.995	19.998	100.832	19.911	7.906	0.525
302.500	226.370	79.996	19.997	100.830	19.909	8.054	0.525
303.000	226.627	79.994	19.997	100.830	19.911	7.924	0.521
303.500	226.884	79.995	19.995	100.831	19.908	8.119	0.516
304.000	227.139	79.995	19.996	100.832	19.904	8.352	0.513
304.500	227.426	79.996	19.997	100.835	19.907	8.175	0.527
305.000	227.637	79.995	19.997	100.836	19.908	8.102	0.520
305.500	227.948	79.995	19.997	100.838	19.908	8.140	0.510
306.000	228.205	79.997	19.996	100.838	19.905	8.297	0.545
306.500	228.438	79.995	19.997	100.838	19.905	8.295	0.529
307.000	228.705	79.996	19.997	100.837	19.906	8.225	0.495
307.500	228.956	79.995	19.997	100.838	19.905	8.300	0.509
308.000	229.270	79.996	19.996	100.840	19.905	8.318	0.542
308.500	229.522	79.996	19.996	100.839	19.902	8.479	0.566
309.000	229.798	79.996	19.996	100.838	19.901	8.539	0.547
309.500	230.035	79.996	19.997	100.837	19.902	8.537	0.520
310.000	230.316	79.998	19.996	100.834	19.901	8.539	0.516
310.500	230.560	79.998	19.995	100.831	19.897	8.842	0.521
311.000	230.786	79.997	19.996	100.831	19.898	8.786	0.498
311.500	231.077	79.996	19.996	100.830	19.900	8.623	0.494
312.000	231.310	79.996	19.996	100.830	19.901	8.563	0.520
312.500	231.600	79.998	19.996	100.830	19.898	8.772	0.524
313.000	231.849	79.995	19.995	100.830	19.900	8.603	0.531
313.500	232.135	79.997	19.996	100.830	19.897	8.821	0.537
314.000	232.382	79.996	19.996	100.833	19.895	8.955	0.534
314.500	232.641	79.997	19.996	100.836	19.896	8.898	0.519
315.000	232.871	79.998	19.996	100.840	19.894	9.045	0.497
315.500	233.128	79.999	19.995	100.842	19.895	8.964	0.488
316.000	233.390	79.997	19.996	100.840	19.893	9.062	0.503
316.500	233.666	79.996	19.997	100.837	19.892	9.150	0.529
317.000	233.939	79.996	19.996	100.834	19.889	9.374	0.544
317.500	234.182	79.998	19.996	100.830	19.891	9.204	0.532
318.000	234.461	79.997	19.996	100.827	19.888	9.390	0.519
318.500	234.741	79.998	19.996	100.828	19.889	9.371	0.541
319.000	234.975	79.996	19.996	100.828	19.889	9.374	0.536
319.500	235.229	79.996	19.997	100.828	19.887	9.453	0.501
320.000	235.491	79.996	19.997	100.828	19.888	9.418	0.502
320.500	235.770	79.996	19.996	100.829	19.888	9.432	0.528
321.000	236.053	79.997	19.997	100.830	19.887	9.493	0.551
321.500	236.292	79.996	19.998	100.832	19.886	9.520	0.542
322.000	236.549	79.996	19.998	100.832	19.887	9.502	0.509
322.500	236.809	79.996	19.996	100.832	19.887	9.486	0.507
323.000	237.056	79.996	19.997	100.831	19.883	9.719	0.512
323.500	237.308	79.996	19.996	100.830	19.886	9.542	0.503
324.000	237.565	79.997	19.997	100.828	19.884	9.672	0.504
324.500	237.834	79.996	19.996	100.827	19.883	9.711	0.517
325.000	238.078	79.996	19.997	100.827	19.883	9.765	0.520
325.500	238.391	79.995	19.995	100.827	19.881	9.852	0.535
326.000	238.613	79.995	19.997	100.827	19.882	9.768	0.546
326.500	238.864	79.996	19.998	100.827	19.881	9.880	0.504
327.000	239.130	79.997	19.997	100.827	19.876	10.164	0.495
327.500	239.373	79.995	19.997	100.827	19.879	10.022	0.513
328.000	239.617	79.996	19.996	100.828	19.877	10.118	0.498
328.500	239.862	79.995	19.997	100.829	19.877	10.118	0.488
329.000	240.137	79.996	19.997	100.828	19.878	10.076	0.504
329.500	240.401	79.996	19.996	100.827	19.877	10.092	0.529
330.000	240.655	79.995	19.996	100.826	19.873	10.384	0.528
330.500	240.915	79.996	19.996	100.826	19.873	10.385	0.516
331.000	241.144	79.996	19.996	100.825	19.874	10.307	0.501
331.500	241.424	79.995	19.998	100.825	19.872	10.420	0.499
332.000	241.645	79.994	19.996	100.826	19.871	10.481	0.505
332.500	241.933	79.996	19.996	100.827	19.871	10.488	0.505
333.000	242.174	79.997	19.997	100.826	19.870	10.586	0.518
333.500	242.471	79.996	19.996	100.826	19.873	10.406	0.533
334.000	242.699	79.996	19.997	100.826	19.868	10.685	0.532
334.500	242.962	79.997	19.997	100.826	19.869	10.653	0.508
335.000	243.217	79.997	19.996	100.826	19.871	10.480	0.504
335.500	243.488	79.996	19.997	100.827	19.871	10.543	0.522
336.000	243.701	79.997	19.996	100.828	19.866	10.805	0.506
336.500	243.987	79.997	19.996	100.828	19.870	10.576	0.491
337.000	244.254	79.995	19.996	100.827	19.865	10.876	0.526
337.501	244.475	79.997	19.996	100.827	19.864	10.937	0.520
338.001	244.775	79.997	19.996	100.825	19.864	10.977	0.504
338.502	245.002	79.998	19.996	100.825	19.864	10.981	0.525
339.001	245.244	79.998	19.997	100.824	19.862	11.065	0.498
339.500	245.540	79.997	19.996	100.824	19.860	11.229	0.503
340.000	245.767	79.998	19.995	100.824	19.864	10.977	0.531
340.500	246.002	79.998	19.997	100.822	19.862	11.126	0.493
341.000	246.275	79.997	19.996	100.822	19.861	11.143	0.485
341.500	246.520	79.998	19.996	100.823	19.865	10.902	0.513
342.000	246.789	79.998	19.997	100.822	19.861	11.130	0.515
342.500	247.047	79.998	19.996	100.822	19.861	11.133	0.520
343.000	247.310	79.999	19.996	100.826	19.862	11.112	0.524
343.500	247.521	79.998	19.996	100.827	19.859	11.279	0.498
344.000	247.754	79.999	19.995	100.826	19.859	11.305	0.459
344.500	248.004	79.997	19.995	100.827	19.860	11.254	0.463
345.000	248.261	79.998	19.997	100.827	19.858	11.359	0.495
345.500	248.547	79.998	19.996	100.827	19.857	11.442	0.525
346.000	248.768	79.996	19.995	100.827	19.859	11.282	0.525
346.500	249.046	79.998	19.996	100.827	19.854	11.608	0.503
347.000	249.327	79.996	19.995	100.827	19.857	11.435	0.529
347.500	249.549	79.997	19.995	100.828	19.855	11.522	0.531
348.000	249.844	79.997	19.996	100.828	19.854	11.613	0.511
348.500	250.097	79.997	19.996	100.828	19.858	11.379	0.533
349.000	250.400	79.997	19.996	100.829	19.858	11.347	0.552
349.500	250.605	79.998	19.995	100.829	19.856	11.470	0.532
350.000	250.851	79.997	19.996	100.827	19.855	11.526	0.479
350.500	251.110	79.998	19.994	100.827	19.852	11.740	0.478
351.000	251.316	79.997	19.995	100.827	19.853	11.673	0.485
351.500	251.576	79.997	19.997	100.828	19.851	11.813	0.465
352.000	251.842	79.997	19.996	100.826	19.852	11.713	0.495
352.500	252.114	79.997	19.995	100.828	19.852	11.762	0.532
353.000	252.333	79.996	19.995	100.828	19.848	11.978	0.515
353.500	252.585	79.997	19.996	100.828	19.849	11.936	0.481
354.000	252.829	79.997	19.996	100.828	19.848	11.976	0.483
354.500	253.085	79.996	19.996	100.830	19.846	12.135	0.498
355.000	253.335	79.996	19.997	100.830	19.849	11.911	0.503
355.500	253.593	79.997	19.997	100.830	19.847	12.063	0.507
356.000	253.847	79.997	19.996	100.830	19.850	11.897	0.510
356.500	254.066	79.997	19.997	100.830	19.848	12.007	0.493
357.000	254.301	79.995	19.996	100.829	19.848	11.997	0.464
357.500	254.590	79.997	19.997	100.829	19.846	12.100	0.489
358.000	254.797	79.996	19.997	100.830	19.843	12.346	0.510
358.500	255.063	79.996	19.996	100.829	19.843	12.307	0.484
359.000	255.297	79.995	19.996	100.830	19.844	12.260	0.486
359.500	255.563	79.996	19.996	100.830	19.842	12.414	0.500
360.000	255.825	79.996	19.996	100.830	19.845	12.211	0.514
360.500	256.058	79.997	19.996	100.830	19.844	12.260	0.511
361.000	256.304	79.997	19.997	100.831	19.842	12.417	0.487
361.500	256.540	79.996	19.997	100.831	19.840	12.538	0.481
362.000	256.802	79.997	19.996	100.831	19.840	12.544	0.490
362.500	257.033	79.997	19.996	100.830	19.842	12.369	0.496
363.000	257.332	79.997	19.996	100.830	19.840	12.511	0.511
363.500	257.577	79.996	19.996	100.829	19.840	12.517	0.537
364.000	257.786	79.997	19.996	100.829	19.839	12.577	0.499
364.500	258.056	79.998	19.997	100.829	19.839	12.582	0.466
365.000	258.284	79.997	19.996	100.829	19.839	12.572	0.488
365.500	258.501	79.997	19.996	100.829	19.837	12.698	0.472
366.000	258.753	79.997	19.997	100.828	19.836	12.778	0.458
366.500	259.042	79.997	19.996	100.828	19.839	12.588	0.505
367.000	259.256	79.998	19.996	100.827	19.836	12.752	0.521
367.501	259.512	79.998	19.996	100.828	19.835	12.824	0.486
368.001	259.703	79.997	19.997	100.828	19.836	12.808	0.459
368.501	259.953	79.998	19.996	100.829	19.839	12.560	0.445
369.000	260.198	79.998	19.996	100.829	19.835	12.828	0.468
369.500	260.457	79.997	19.996	100.830	19.833	12.979	0.499
370.000	260.704	79.997	19.996	100.830	19.834	12.877	0.505
370.500	260.917	79.998	19.997	100.830	19.833	12.972	0.483
371.000	261.191	79.997	19.996	100.830	19.834	12.928	0.474
371.500	261.428	79.997	19.996	100.830	19.833	12.961	0.499
372.000	261.639	79.997	19.995	100.829	19.832	13.010	0.480
372.500	261.876	79.997	19.996	100.829	19.832	13.017	0.448
373.000	262.142	79.997	19.996	100.830	19.836	12.788	0.475
373.500	262.379	79.996	19.995	100.831	19.834	12.883	0.503
374.000	262.611	79.996	19.996	100.831	19.836	12.800	0.486
374.500	262.855	79.997	19.998	100.831	19.834	12.919	0.473
375.000	263.087	79.995	19.996	100.831	19.831	13.092	0.476
375.500	263.329	79.995	19.997	100.830	19.832	13.045	0.475
376.000	263.603	79.995	19.996	100.829	19.835	12.873	0.495
376.500	263.844	79.996	19.997	100.829	19.829	13.199	0.516
377.000	264.053	79.996	19.996	100.830	19.827	13.345	0.482
377.500	264.290	79.995	19.997	100.831	19.829	13.236	0.448
378.000	264.547	79.995	19.997	100.830	19.828	13.322	0.470
378.500	264.806	79.997	19.997	100.831	19.828	13.300	0.505
379.001	264.981	79.994	19.996	100.832	19.828	13.319	0.475
379.501	265.257	79.995	19.996	100.834	19.828	13.298	0.443
380.000	265.507	79.995	19.998	100.834	19.826	13.443	0.488
380.500	265.756	79.995	19.996	100.835	19.828	13.323	0.513
381.000	266.029	79.995	19.998	100.834	19.828	13.303	0.511
381.500	266.246	79.995	19.997	100.833	19.826	13.430	0.506
382.000	266.486	79.994	19.997	100.833	19.826	13.399	0.473
382.500	266.754	79.995	19.998	100.832	19.826	13.452	0.482
383.000	266.983	79.996	19.997	100.832	19.825	13.512	0.502
383.500	267.229	79.994	19.997	100.836	19.825	13.467	0.486
384.000	267.409	79.994	19.998	100.838	19.825	13.513	0.451
384.500	267.708	79.995	19.997	100.837	19.825	13.495	0.453
385.000	267.909	79.996	19.997	100.837	19.826	13.399	0.489
385.500	268.149	79.995	19.997	100.836	19.825	13.524	0.470
386.000	268.414	79.995	19.997	100.833	19.822	13.658	0.473
386.500	268.673	79.995	19.999	100.830	19.821	13.780	0.514
387.000	268.920	79.994	19.997	100.832	19.822	13.712	0.515
387.500	269.152	79.996	19.997	100.834	19.820	13.830	0.493
388.000	269.418	79.996	19.997	100.838	19.823	13.620	0.489
388.500	269.636	79.994	19.997	100.843	19.820	13.783	0.491
389.000	269.882	79.995	19.997	100.849	19.821	13.757	0.474
389.500	270.128	79.995	19.998	100.850	19.821	13.767	0.478
390.000	270.366	79.995	19.998	100.850	19.818	13.926	0.488
390.500	270.617	79.995	19.997	100.850	19.816	14.103	0.486
391.000	270.818	79.995	19.997	100.848	19.816	14.057	0.470
391.500	271.099	79.995	19.998	100.842	19.820	13.795	0.467
392.000	271.311	79.995	19.998	100.839	19.818	13.929	0.488
392.500	271.577	79.995	19.997	100.842	19.818	13.939	0.486
393.000	271.828	79.995	19.996	100.845	19.819	13.901	0.498
393.500	272.061	79.996	19.999	100.847	19.818	13.963	0.501
394.000	272.296	79.995	19.997	100.852	19.815	14.127	0.476
394.500	272.553	79.995	19.997	100.855	19.814	14.176	0.480
395.000	272.793	79.994	19.997	100.857	19.814	14.202	0.495
395.500	273.037	79.996	19.999	100.859	19.812	14.337	0.490
396.000	273.262	79.995	19.997	100.859	19.814	14.229	0.476
396.500	273.511	79.996	19.996	100.860	19.809	14.554	0.471
397.000	273.760	79.996	19.997	100.860	19.812	14.332	0.486
397.500	274.020	79.997	19.997	100.855	19.810	14.473	0.504
398.000	274.224	79.995	19.998	100.852	19.811	14.429	0.487
398.500	274.469	79.995	19.997	100.848	19.810	14.445	0.456
399.000	274.726	79.995	19.996	100.847	19.808	14.587	0.475
399.500	274.952	79.995	19.997	100.846	19.809	14.537	0.493
400.000	275.227	79.996	19.996	100.847	19.810	14.487	0.492
400.500	275.440	79.995	19.997	100.849	19.805	14.786	0.494
401.000	275.691	79.996	19.998	100.854	19.807	14.683	0.476
401.500	275.953	79.996	19.997	100.853	19.807	14.653	0.488
402.000	276.181	79.995	19.996	100.852	19.803	14.919	0.501
402.500	276.419	79.995	19.996	100.850	19.804	14.856	0.478
403.000	276.647	79.996	19.997	100.850	19.802	14.969	0.466
403.500	276.879	79.995	19.998	100.850	19.804	14.846	0.463
404.000	277.131	79.996	19.996	100.852	19.806	14.704	0.471
404.500	277.344	79.994	19.997	100.857	19.801	15.035	0.474
405.001	277.590	79.995	19.996	100.862	19.803	14.937	0.462
405.501	277.830	79.994	19.996	100.864	19.800	15.142	0.473
406.000	278.066	79.995	19.997	100.864	19.801	15.070	0.481
406.500	278.309	79.995	19.996	100.864	19.800	15.083	0.477
407.000	278.559	79.995	19.996	100.864	19.799	15.197	0.486
407.500	278.843	79.995	19.996	100.864	19.799	15.170	0.514
408.000	279.043	79.995	19.996	100.862	19.798	15.211	0.509
408.500	279.276	79.995	19.997	100.861	19.799	15.163	0.458
409.000	279.520	79.995	19.996	100.860	19.797	15.333	0.455
409.500	279.743	79.995	19.996	100.860	19.796	15.376	0.472
410.000	280.016	79.994	19.995	100.861	19.795	15.464	0.482
410.500	280.255	79.994	19.996	100.866	19.794	15.501	0.504
411.000	280.504	79.994	19.996	100.868	19.794	15.501	0.500
411.500	280.718	79.995	19.996	100.868	19.795	15.417	0.475
412.000	280.951	79.995	19.997	100.868	19.794	15.490	0.455
412.500	281.199	79.995	19.996	100.868	19.795	15.430	0.464
413.000	281.447	79.995	19.997	100.867	19.793	15.593	0.488
413.500	281.659	79.994	19.996	100.867	19.791	15.668	0.478
414.000	281.933	79.995	19.997	100.867	19.789	15.817	0.473
414.500	282.181	79.996	19.996	100.867	19.790	15.768	0.504
415.000	282.364	79.996	19.997	100.868	19.793	15.551	0.477
415.500	282.623	79.995	19.996	100.868	19.787	15.977	0.437
416.000	282.873	79.995	19.996	100.868	19.789	15.841	0.475
416.500	283.115	79.995	19.995	100.868	19.781	16.346	0.500
417.000	283.363	79.995	19.996	100.868	19.787	15.978	0.491
417.500	283.578	79.994	19.997	100.868	19.787	15.945	0.477
418.000	283.829	79.995	19.996	100.869	19.788	15.923	0.465
418.500	284.118	79.996	19.997	100.869	19.782	16.294	0.503
419.000	284.324	79.996	19.997	100.869	19.788	15.880	0.517
419.500	284.593	79.995	19.997	100.869	19.788	15.894	0.485
420.000	284.795	79.996	19.996	100.869	19.786	16.050	0.473
420.500	285.065	79.997	19.997	100.871	19.784	16.131	0.471
421.000	285.284	79.997	19.996	100.874	19.785	16.103	0.480
421.500	285.526	79.996	19.996	100.879	19.778	16.562	0.475
422.000	285.766	79.995	19.997	100.885	19.781	16.370	0.472
422.500	286.009	79.996	19.996	100.889	19.777	16.636	0.483
423.000	286.284	79.997	19.996	100.888	19.781	16.377	0.501
423.500	286.496	79.996	19.996	100.885	19.777	16.598	0.502
424.000	286.725	79.996	19.996	100.883	19.773	16.851	0.464
424.500	287.025	79.997	19.996	100.878	19.776	16.705	0.485
425.000	287.231	79.996	19.996	100.878	19.773	16.882	0.518
425.500	287.504	79.996	19.997	100.882	19.768	17.161	0.493
426.000	287.737	79.996	19.996	100.882	19.771	17.017	0.493
426.500	287.939	79.997	19.996	100.882	19.767	17.249	0.471
427.000	288.123	79.994	19.996	100.888	19.769	17.124	0.410
427.500	288.478	79.997	19.995	100.890	19.767	17.289	0.462
428.000	288.609	79.997	19.995	100.887	19.765	17.359	0.513
428.500	288.908	79.998	19.996	100.891	19.762	17.554	0.459
429.000	289.204	79.997	19.996	100.895	19.763	17.542	0.513
429.500	289.359	79.997	19.995	100.893	19.762	17.582	0.523
430.001	289.625	79.995	19.996	100.890	19.760	17.726	0.436
430.501	289.764	79.995	19.996	100.890	19.757	17.885	0.413
431.000	290.359	79.996	19.996	100.892	19.760	17.733	0.570
431.500	290.691	79.996	19.996	100.890	19.761	17.668	0.830
432.000	290.581	79.996	19.996	100.893	19.756	17.940	0.574
432.500	290.706	79.997	19.995	100.899	19.756	17.983	0.118
433.000	291.330	79.996	19.996	100.905	19.758	17.866	0.382
433.500	291.450	79.996	19.995	100.906	19.754	18.087	0.746
434.000	291.472	79.997	19.996	100.908	19.754	18.125	0.443
434.500	291.729	79.995	19.995	100.908	19.750	18.377	0.211
435.000	292.156	79.996	19.995	100.909	19.749	18.411	0.481
435.500	292.210	79.996	19.996	100.909	19.750	18.334	0.582
436.000	292.727	79.996	19.996	100.909	19.748	18.497	0.526
436.500	292.669	79.995	19.995	100.909	19.745	18.706	0.515
437.001	293.209	79.995	19.996	100.909	19.747	18.588	0.470
437.501	293.279	79.995	19.996	100.909	19.744	18.758	0.546
438.000	293.528	79.995	19.996	100.910	19.746	18.647	0.465
438.500	293.779	79.996	19.996	100.910	19.741	18.969	0.409
439.000	294.037	79.996	19.996	100.910	19.737	19.174	0.505
439.500	294.268	79.997	19.996	100.910	19.735	19.360	0.499
440.000	294.515	79.996	19.996	100.911	19.736	19.291	0.483
440.500	294.747	79.996	19.996	100.910	19.735	19.301	0.479
441.000	295.011	79.997	19.995	100.910	19.732	19.557	0.488
441.500	295.225	79.997	19.996	100.909	19.730	19.658	0.487
442.000	295.549	79.998	19.996	100.909	19.729	19.747	0.508
442.500	295.714	79.997	19.995	100.908	19.725	19.969	0.514
443.000	295.961	79.998	19.995	100.909	19.727	19.830	0.450
443.500	296.253	79.999	19.995	100.909	19.724	20.011	0.475
444.000	296.466	79.996	19.995	100.909	19.724	20.042	0.522
444.500	296.659	79.998	19.996	100.909	19.723	20.129	0.456
445.000	296.954	79.998	19.995	100.908	19.718	20.405	0.446
445.500	297.201	79.998	19.995	100.906	19.722	20.203	0.515
446.000	297.456	79.998	19.997	100.907	19.718	20.456	0.523
446.500	297.696	79.998	19.998	100.910	19.715	20.652	0.499
447.000	297.993	79.998	19.997	100.916	19.716	20.540	0.515
447.500	298.263	79.999	19.995	100.919	19.714	20.716	0.552
448.000	298.445	79.998	19.997	100.925	19.714	20.698	0.510
448.500	298.679	79.997	19.996	100.927	19.705	21.272	0.434
449.000	298.943	79.998	19.996	100.930	19.707	21.148	0.457
449.500	299.217	79.998	19.996	100.927	19.704	21.347	0.518
450.000	299.442	79.996	19.996	100.927	19.706	21.207	0.519
450.500	299.673	79.999	19.995	100.922	19.705	21.273	0.477
451.000	299.930	79.998	19.998	100.919	19.704	21.369	0.472
451.500	300.212	79.999	19.996	100.915	19.700	21.578	0.514
452.000	300.418	79.998	19.997	100.914	19.698	21.702	0.514
452.500	300.703	79.997	19.997	100.910	19.696	21.852	0.490
453.000	300.901	79.997	19.995	100.910	19.699	21.690	0.487
453.500	301.161	79.996	19.995	100.913	19.695	21.913	0.470
454.000	301.386	79.996	19.998	100.912	19.693	22.036	0.471
454.500	301.679	79.997	19.997	100.915	19.689	22.327	0.502
455.000	301.893	79.996	19.997	100.921	19.689	22.343	0.513
455.500	302.115	79.996	19.996	100.924	19.685	22.562	0.471
456.000	302.377	79.995	19.997	100.921	19.684	22.652	0.460
456.500	302.637	79.995	19.996	100.926	19.681	22.810	0.503
457.000	302.884	79.995	19.996	100.927	19.679	22.998	0.515
457.500	303.098	79.996	19.997	100.927	19.680	22.912	0.484
458.000	303.378	79.996	19.997	100.926	19.675	23.213	0.478
458.500	303.591	79.996	19.997	100.929	19.673	23.338	0.493
459.000	303.822	79.996	19.996	100.928	19.674	23.294	0.468
459.500	304.095	79.995	19.998	100.930	19.669	23.588	0.474
460.000	304.325	79.994	19.997	100.932	19.668	23.650	0.503
460.500	304.573	79.995	19.996	100.936	19.666	23.828	0.490
461.000	304.827	79.995	19.997	100.941	19.668	23.654	0.490
461.500	305.047	79.993	19.997	100.943	19.664	23.928	0.488
462.000	305.330	79.994	19.997	100.943	19.658	24.319	0.488
462.500	305.569	79.995	19.997	100.943	19.660	24.193	0.512
463.000	305.805	79.996	19.997	100.943	19.659	24.272	0.498
463.500	306.033	79.995	19.996	100.943	19.655	24.502	0.469
464.000	306.292	79.996	19.998	100.944	19.653	24.676	0.476
464.500	306.524	79.996	19.996	100.944	19.649	24.924	0.490
465.001	306.805	79.995	19.997	100.944	19.651	24.811	0.502
465.500	307.032	79.996	19.996	100.944	19.644	25.213	0.510
466.000	307.301	79.994	19.997	100.944	19.644	25.245	0.502
466.500	307.560	79.994	19.996	100.944	19.641	25.434	0.512
467.000	307.807	79.994	19.997	100.944	19.639	25.560	0.517
467.500	308.053	79.994	19.997	100.946	19.639	25.566	0.499
468.000	308.282	79.994	19.997	100.949	19.634	25.883	0.484
468.500	308.550	79.996	19.996	100.954	19.630	26.153	0.486
469.000	308.782	79.996	19.996	100.959	19.629	26.244	0.499
469.500	308.991	79.995	19.997	100.963	19.625	26.467	0.471
470.000	309.257	79.995	19.997	100.964	19.625	26.469	0.458
470.500	309.498	79.995	19.996	100.960	19.622	26.691	0.490
471.000	309.766	79.995	19.997	100.955	19.620	26.783	0.508
471.500	310.021	79.995	19.997	100.951	19.617	26.970	0.516
472.000	310.311	79.997	19.997	100.948	19.616	27.043	0.534
472.500	310.536	79.995	19.996	100.948	19.613	27.233	0.530
473.000	310.784	79.995	19.997	100.950	19.609	27.483	0.494
473.500	311.034	79.995	19.996	100.958	19.603	27.897	0.485
474.000	311.266	79.996	19.997	100.964	19.601	28.049	0.490
474.500	311.582	79.996	19.997	100.965	19.601	28.053	0.515
475.000	311.794	79.996	19.998	100.968	19.601	28.053	0.538
475.500	312.102	79.996	19.996	100.971	19.599	28.150	0.524
476.000	312.334	79.995	19.996	100.969	19.596	28.386	0.530
476.500	312.587	79.994	19.996	100.968	19.592	28.597	0.513
477.000	312.862	79.996	19.996	100.971	19.592	28.611	0.506
477.500	313.122	79.995	19.997	100.970	19.591	28.694	0.531
478.000	313.359	79.995	19.997	100.973	19.585	29.094	0.516
478.500	313.649	79.996	19.997	100.975	19.581	29.326	0.512
479.000	313.854	79.995	19.996	100.975	19.581	29.332	0.510
479.500	314.115	79.995	19.996	100.974	19.576	29.641	0.481
480.000	314.392	79.995	19.996	100.975	19.573	29.855	0.502
480.500	314.617	79.996	19.997	100.975	19.570	30.060	0.519
481.000	314.914	79.995	19.998	100.976	19.565	30.375	0.512
481.500	315.151	79.995	19.998	100.978	19.564	30.414	0.529
482.000	315.389	79.995	19.997	100.980	19.563	30.473	0.505
482.500	315.642	79.996	19.997	100.983	19.561	30.627	0.483
483.000	315.876	79.993	19.997	100.984	19.556	30.952	0.489
483.500	316.155	79.994	19.998	100.983	19.552	31.243	0.500
484.000	316.444	79.995	19.998	100.983	19.552	31.181	0.541
484.500	316.654	79.994	19.998	100.986	19.550	31.355	0.534
485.000	316.942	79.995	19.997	100.987	19.545	31.687	0.499
485.500	317.181	79.994	19.996	100.987	19.543	31.789	0.512
486.000	317.411	79.996	19.998	100.987	19.543	31.828	0.497
486.500	317.685	79.995	19.998	100.987	19.540	31.992	0.487
487.000	317.923	79.995	19.997	100.986	19.533	32.433	0.508
487.500	318.193	79.995	19.999	100.985	19.532	32.549	0.510
488.000	318.442	79.994	19.997	100.986	19.532	32.526	0.514
488.500	318.697	79.994	19.997	100.990	19.529	32.705	0.512
489.000	318.955	79.996	19.997	100.990	19.522	33.179	0.508
489.500	319.261	79.994	19.997	100.991	19.521	33.258	0.538
490.000	319.521	79.994	19.997	100.994	19.519	33.356	0.565
490.500	319.767	79.994	19.996	100.999	19.516	33.534	0.536
491.000	320.000	79.993	19.997	100.998	19.512	33.789	0.492
491.500	320.288	79.994	19.997	101.003	19.510	33.936	0.500
492.000	320.533	79.995	19.997	101.007	19.509	34.008	0.527
492.500	320.810	79.994	19.997	101.007	19.506	34.200	0.527
493.000	321.027	79.993	19.997	101.000	19.503	34.414	0.508
493.500	321.282	79.994	19.998	100.999	19.500	34.565	0.484
494.000	321.550	79.994	19.997	100.998	19.496	34.828	0.498
494.500	321.801	79.994	19.997	100.994	19.493	35.016	0.521
495.000	322.039	79.994	19.997	100.996	19.490	35.228	0.504
495.500	322.370	79.994	19.997	101.003	19.488	35.377	0.529
496.000	322.612	79.996	19.996	101.010	19.485	35.550	0.571
496.500	322.866	79.997	19.996	101.015	19.481	35.815	0.535
497.000	323.107	79.995	19.997	101.021	19.479	35.987	0.496
497.500	323.388	79.995	19.996	101.025	19.477	36.115	0.508
498.000	323.617	79.995	19.997	101.021	19.473	36.324	0.516
498.500	323.892	79.996	19.997	101.021	19.467	36.736	0.508
499.000	324.142	79.997	19.997	101.022	19.470	36.559	0.514
499.500	324.432	79.995	19.996	101.022	19.466	36.807	0.532
500.000	324.677	79.997	19.997	101.022	19.461	37.147	0.538
500.500	324.917	79.997	19.996	101.026	19.456	37.476	0.510
501.000	325.200	79.997	19.996	101.026	19.452	37.705	0.504
501.500	325.428	79.995	19.996	101.023	19.449	37.879	0.517
502.000	325.698	79.997	19.996	101.023	19.446	38.094	0.504
502.500	325.997	79.998	19.997	101.023	19.443	38.280	0.534
503.000	326.246	79.997	19.996	101.024	19.440	38.508	0.559
503.500	326.496	79.997	19.996	101.023	19.438	38.599	0.524
504.000	326.752	79.998	19.996	101.025	19.433	38.973	0.503
504.500	327.009	79.997	19.996	101.025	19.430	39.128	0.509
505.000	327.271	79.998	19.997	101.025	19.427	39.319	0.516
505.500	327.548	79.998	19.996	101.024	19.426	39.402	0.529
506.001	327.812	80.000	19.998	101.024	19.420	39.825	0.540
506.500	328.060	79.997	19.997	101.026	19.418	39.932	0.527
507.000	328.329	79.997	19.997	101.026	19.413	40.268	0.514
507.500	328.635	79.997	19.996	101.026	19.410	40.422	0.546
508.000	328.822	79.998	19.997	101.025	19.406	40.707	0.534
508.500	329.116	79.996	19.996	101.025	19.403	40.929	0.487
509.000	329.358	79.998	19.997	101.026	19.399	41.148	0.508
509.500	329.647	79.996	19.998	101.029	19.399	41.137	0.534
510.000	329.854	79.997	19.996	101.029	19.388	41.871	0.513
510.500	330.154	79.998	19.997	101.030	19.385	42.078	0.501
511.000	330.419	79.998	19.996	101.030	19.381	42.310	0.536
511.500	330.651	79.998	19.997	101.030	19.379	42.474	0.531
512.000	330.905	79.995	19.996	101.033	19.374	42.756	0.491
512.500	331.200	79.997	19.996	101.039	19.375	42.743	0.518
513.000	331.460	79.996	19.997	101.046	19.370	43.033	0.552
513.500	331.707	79.997	19.996	101.053	19.365	43.349	0.531
514.000	331.979	79.996	19.997	101.057	19.364	43.425	0.513
514.500	332.219	79.995	19.997	101.056	19.360	43.685	0.515
515.000	332.480	79.996	19.997	101.053	19.357	43.916	0.506
515.500	332.744	79.995	19.997	101.054	19.352	44.183	0.513
516.000	332.996	79.996	19.997	101.054	19.348	44.476	0.521
516.500	333.252	79.996	19.997	101.055	19.345	44.662	0.512
517.000	333.542	79.997	19.996	101.055	19.337	45.190	0.527
517.500	333.805	79.996	19.997	101.055	19.334	45.349	0.549
518.000	334.032	79.997	19.996	101.055	19.335	45.312	0.521
518.500	334.327	79.996	19.996	101.055	19.328	45.797	0.506
519.000	334.583	79.996	19.996	101.055	19.323	46.099	0.537
519.500	334.845	79.996	19.996	101.057	19.322	46.177	0.535
520.000	335.071	79.997	19.996	101.060	19.322	46.162	0.503
520.500	335.345	79.996	19.996	101.061	19.316	46.562	0.494
521.000	335.633	79.996	19.996	101.059	19.311	46.841	0.531
521.500	335.878	79.997	19.997	101.059	19.308	47.081	0.548
522.000	336.137	79.997	19.996	101.061	19.303	47.371	0.518
522.500	336.388	79.995	19.996	101.062	19.300	47.582	0.506
523.000	336.660	79.997	19.997	101.063	19.299	47.657	0.516
523.500	336.869	79.997	19.996	101.066	19.290	48.260	0.502
524.000	337.149	79.997	19.997	101.067	19.290	48.260	0.486
524.500	337.406	79.997	19.996	101.067	19.284	48.648	0.513
525.000	337.674	79.997	19.996	101.068	19.282	48.745	0.531
525.500	337.910	79.998	19.997	101.067	19.278	49.009	0.515
526.000	338.198	79.998	19.997	101.066	19.273	49.321	0.514
526.500	338.473	79.997	19.996	101.067	19.273	49.375	0.543
527.000	338.730	80.000	19.996	101.066	19.272	49.436	0.548
527.500	338.980	79.998	19.996	101.062	19.265	49.839	0.520
528.000	339.219	79.999	19.996	101.061	19.263	49.991	0.498
528.500	339.518	79.999	19.996	101.063	19.259	50.256	0.513
529.000	339.773	80.000	19.997	101.066	19.254	50.604	0.546
529.500	339.993	79.999	19.996	101.067	19.250	50.815	0.515
530.000	340.257	80.000	19.996	101.068	19.245	51.145	0.479
530.500	340.504	79.999	19.996	101.068	19.243	51.307	0.497
531.000	340.757	79.999	19.995	101.070	19.238	51.595	0.505
531.500	341.035	79.999	19.996	101.068	19.234	51.877	0.515
532.000	341.320	80.000	19.997	101.073	19.232	51.978	0.547
532.500	341.518	79.999	19.996	101.078	19.226	52.374	0.523
533.000	341.747	80.000	19.997	101.084	19.227	52.360	0.455
533.500	342.048	80.000	19.997	101.080	19.221	52.732	0.478
534.000	342.308	79.999	19.996	101.080	19.217	52.970	0.546
534.500	342.533	79.997	19.997	101.077	19.212	53.334	0.523
535.000	342.780	79.999	19.995	101.072	19.209	53.522	0.478
535.500	343.056	79.998	19.996	101.069	19.205	53.791	0.497
536.000	343.264	79.998	19.997	101.070	19.201	54.015	0.503
536.500	343.503	79.997	19.997	101.072	19.198	54.194	0.465
537.000	343.785	79.997	19.995	101.077	19.196	54.351	0.484
537.500	344.053	79.999	19.996	101.084	19.194	54.501	0.536
538.000	344.286	79.996	19.996	101.090	19.189	54.823	0.526
538.500	344.556	79.996	19.997	101.095	19.183	55.194	0.502
539.000	344.799	79.996	19.996	101.100	19.182	55.281	0.508
539.500	345.021	79.995	19.995	101.100	19.174	55.757	0.489
540.000	345.327	79.996	19.997	101.099	19.174	55.802	0.497
540.500	345.557	79.995	19.998	101.100	19.173	55.866	0.532
541.000	345.808	79.995	19.997	101.096	19.163	56.520	0.508
541.500	346.060	79.997	19.996	101.094	19.162	56.534	0.492
542.000	346.337	79.995	19.995	101.094	19.161	56.648	0.516
542.500	346.590	79.995	19.995	101.095	19.153	57.125	0.530
543.001	346.821	79.997	19.997	101.094	19.153	57.133	0.507
543.501	347.092	79.996	19.996	101.099	19.150	57.341	0.493
544.002	347.323	79.995	19.997	101.102	19.148	57.501	0.502
544.501	347.566	79.996	19.996	101.102	19.145	57.697	0.489
545.000	347.825	79.995	19.997	101.103	19.137	58.171	0.488
545.500	348.110	79.996	19.997	101.103	19.134	58.345	0.523
546.000	348.341	79.994	19.996	101.103	19.131	58.584	0.530
546.500	348.563	79.996	19.998	101.103	19.127	58.832	0.485
547.000	348.809	79.996	19.997	101.103	19.124	59.054	0.460
547.500	349.090	79.996	19.995	101.103	19.123	59.082	0.497
548.000	349.347	79.995	19.997	101.103	19.122	59.124	0.533
548.500	349.559	79.996	19.996	101.105	19.114	59.677	0.504
549.000	349.817	79.996	19.997	101.107	19.112	59.818	0.470
549.500	350.039	79.996	19.997	101.110	19.108	60.043	0.475
550.000	350.300	79.996	19.996	101.114	19.104	60.345	0.481
550.500	350.565	79.995	19.996	101.114	19.102	60.456	0.505
551.000	350.815	79.996	19.996	101.113	19.098	60.719	0.520
551.500	351.094	79.996	19.997	101.111	19.098	60.706	0.522
552.000	351.347	79.997	19.997	101.108	19.094	60.946	0.530
552.500	351.561	79.996	19.996	101.106	19.094	60.987	0.500
553.000	351.811	79.997	19.996	101.108	19.088	61.333	0.466
553.500	352.073	79.996	19.997	101.111	19.088	61.344	0.488
554.000	352.296	79.996	19.997	101.111	19.086	61.514	0.498
554.500	352.596	79.996	19.997	101.111	19.086	61.495	0.504
555.000	352.859	79.997	19.997	101.110	19.082	61.772	0.543
555.500	353.129	79.997	19.996	101.109	19.080	61.880	0.548
556.000	353.368	79.997	19.996	101.106	19.078	62.031	0.521
556.500	353.591	79.996	19.996	101.106	19.073	62.306	0.485
557.000	353.861	79.997	19.996	101.106	19.073	62.340	0.478
557.500	354.105	79.997	19.997	101.106	19.070	62.558	0.503
558.000	354.382	79.996	19.996	101.104	19.069	62.568	0.517
558.500	354.608	79.995	19.996	101.104	19.066	62.808	0.512
559.000	354.836	79.997	19.996	101.104	19.064	62.942	0.479
559.500	355.076	79.996	19.996	101.104	19.062	63.017	0.461
560.000	355.345	79.996	19.997	101.105	19.061	63.105	0.489
560.500	355.570	79.996	19.996	101.107	19.058	63.315	0.502
561.000	355.863	79.995	19.996	101.106	19.060	63.166	0.506
561.500	356.080	79.996	19.997	101.107	19.059	63.201	0.514
562.000	356.344	79.996	19.997	101.107	19.058	63.270	0.496
562.500	356.570	79.997	19.996	101.106	19.056	63.420	0.485
563.000	356.842	79.994	19.998	101.105	19.055	63.486	0.494
563.500	357.059	79.995	19.998	101.105	19.053	63.624	0.493
564.000	357.332	79.996	19.997	101.105	19.055	63.478	0.489
564.501	357.591	79.996	19.996	101.105	19.049	63.862	0.511
565.001	357.849	79.995	19.997	101.105	19.054	63.554	0.525
565.500	358.115	79.995	19.995	101.105	19.052	63.665	0.521
566.000	358.381	79.995	19.997	101.105	19.052	63.673	0.528
566.500	358.644	79.995	19.998	101.106	19.053	63.615	0.530
567.000	358.861	79.995	19.997	101.106	19.052	63.632	0.505
567.500	359.115	79.996	19.997	101.105	19.057	63.349	0.476
568.000	359.383	79.995	19.996	101.105	19.054	63.500	0.496
568.500	359.647	79.995	19.997	101.105	19.056	63.401	0.527
569.000	359.924	79.996	19.996	101.105	19.056	63.401	0.536
569.500	360.138	79.995	19.996	101.104	19.058	63.280	0.516
570.000	360.395	79.995	19.998	101.103	19.058	63.248	0.481
570.500	360.648	79.995	19.998	101.096	19.060	63.118	0.490
571.000	360.894	79.997	19.997	101.088	19.061	63.075	0.505
571.500	361.156	79.994	19.997	101.081	19.062	63.019	0.504
572.000	361.411	79.995	19.997	101.073	19.064	62.847	0.513
572.500	361.620	79.995	19.997	101.066	19.067	62.675	0.490
573.000	361.933	79.996	19.999	101.064	19.067	62.684	0.493
573.500	362.173	79.996	19.998	101.063	19.071	62.383	0.537
574.000	362.396	79.995	19.997	101.062	19.072	62.312	0.508
574.500	362.643	79.995	19.997	101.061	19.076	62.047	0.467
575.000	362.933	79.996	19.997	101.061	19.081	61.757	0.504
575.500	363.162	79.996	19.998	101.060	19.082	61.652	0.528
576.000	363.411	79.995	19.997	101.059	19.087	61.364	0.499
576.500	363.668	79.995	19.998	101.054	19.092	61.028	0.492
577.000	363.920	79.994	19.997	101.046	19.094	60.907	0.507
577.500	364.158	79.995	19.998	101.039	19.097	60.662	0.500
578.000	364.427	79.995	19.997	101.032	19.106	60.111	0.499
578.500	364.633	79.995	19.997	101.026	19.108	59.956	0.491
579.000	364.921	79.995	19.997	101.023	19.113	59.657	0.484
579.500	365.222	79.995	19.997	101.023	19.121	59.136	0.541
580.000	365.455	79.995	19.998	101.022	19.125	58.847	0.562
580.500	365.722	79.996	19.999	101.022	19.127	58.738	0.517
581.000	365.959	79.996	19.998	101.022	19.135	58.232	0.502
581.500	366.197	79.996	19.997	101.021	19.140	57.883	0.490
582.000	366.466	79.996	19.997	101.017	19.145	57.570	0.491
582.500	366.713	79.997	19.998	101.012	19.151	57.166	0.512
583.000	366.968	79.996	19.997	101.005	19.157	56.776	0.509
583.500	367.214	79.997	19.997	100.998	19.163	56.371	0.501
584.000	367.477	79.998	19.996	100.989	19.170	55.954	0.505
584.500	367.742	79.996	19.997	100.984	19.176	55.540	0.519
585.000	368.008	79.997	19.996	100.981	19.185	54.965	0.530
585.500	368.243	79.998	19.997	100.980	19.189	54.725	0.516
586.000	368.517	79.997	19.997	100.980	19.197	54.189	0.505
586.500	368.776	79.997	19.997	100.981	19.206	53.566	0.521
587.000	369.061	79.998	19.997	100.977	19.213	53.123	0.538
587.500	369.270	79.996	19.997	100.972	19.224	52.409	0.519
588.000	369.558	79.998	19.996	100.967	19.228	52.130	0.496
588.500	369.814	79.997	19.997	100.959	19.235	51.673	0.521
589.000	370.067	79.997	19.996	100.952	19.248	50.857	0.526
589.500	370.272	79.996	19.996	100.949	19.258	50.231	0.483
590.000	370.573	79.997	19.996	100.945	19.262	49.924	0.482
590.500	370.824	79.996	19.996	100.941	19.271	49.372	0.529
591.000	371.100	79.997	19.996	100.939	19.282	48.648	0.539
591.500	371.336	79.996	19.997	100.936	19.292	47.980	0.520
592.000	371.579	79.997	19.996	100.934	19.302	47.334	0.495
592.500	371.848	79.997	19.997	100.927	19.306	47.056	0.496
593.000	372.129	79.997	19.997	100.921	19.323	45.970	0.531
593.500	372.403	79.999	19.996	100.916	19.328	45.646	0.553
594.000	372.698	79.996	19.996	100.911	19.339	44.971	0.562
594.500	372.903	79.998	19.996	100.906	19.350	44.217	0.534
595.000	373.186	79.998	19.997	100.905	19.358	43.708	0.494
595.500	373.420	79.997	19.996	100.905	19.369	43.027	0.503
596.000	373.685	79.997	19.996	100.905	19.375	42.597	0.508
596.500	373.932	79.997	19.996	100.905	19.388	41.798	0.505
597.000	374.173	79.996	19.996	100.904	19.395	41.320	0.500
597.500	374.451	79.996	19.997	100.898	19.407	40.551	0.504
598.000	374.681	79.997	19.995	100.890	19.416	39.984	0.513
598.500	374.960	79.997	19.997	100.882	19.429	39.115	0.508
599.000	375.227	79.996	19.997	100.875	19.437	38.575	0.527
599.501	375.507	79.997	19.997	100.868	19.449	37.817	0.546
600.001	375.747	79.997	19.997	100.863	19.460	37.123	0.534
600.500	376.018	79.996	19.997	100.859	19.471	36.395	0.516
601.000	376.279	79.996	19.996	100.851	19.484	35.554	0.521
601.500	376.532	79.998	19.996	100.844	19.491	35.125	0.523
602.000	376.769	79.996	19.996	100.836	19.500	34.485	0.502
602.500	377.047	79.996	19.996	100.832	19.514	33.620	0.502
603.000	377.291	79.997	19.997	100.827	19.521	33.136	0.519
603.500	377.552	79.997	19.997	100.826	19.531	32.479	0.514
604.000	377.808	79.998	19.997	100.826	19.544	31.685	0.511
604.500	378.057	79.998	19.996	100.826	19.552	31.151	0.511
605.000	378.309	79.997	19.996	100.826	19.561	30.570	0.503
605.500	378.586	79.999	19.996	100.824	19.572	29.854	0.515
606.000	378.804	79.998	19.996	100.822	19.582	29.230	0.512
606.500	379.074	79.997	19.997	100.822	19.594	28.449	0.492
607.000	379.354	79.998	19.996	100.819	19.602	27.934	0.519
607.500	379.599	79.998	19.996	100.819	19.612	27.240	0.538
608.000	379.859	79.997	19.996	100.820	19.622	26.618	0.515
608.500	380.117	79.997	19.996	100.817	19.629	26.188	0.511
609.000	380.391	79.998	19.996	100.809	19.639	25.519	0.525
609.500	380.608	79.998	19.997	100.804	19.651	24.719	0.512
610.000	380.866	79.998	19.996	100.801	19.659	24.192	0.483
610.500	381.084	79.998	19.996	100.798	19.668	23.653	0.476
611.000	381.343	79.998	19.996	100.802	19.678	23.007	0.476
611.500	381.578	79.998	19.995	100.802	19.685	22.528	0.485
612.000	381.862	79.997	19.996	100.801	19.696	21.846	0.507
612.500	382.106	79.998	19.996	100.798	19.702	21.416	0.524
613.000	382.340	79.997	19.995	100.796	19.714	20.661	0.503
613.500	382.618	79.999	19.996	100.791	19.722	20.114	0.495
614.000	382.882	79.997	19.997	100.790	19.731	19.580	0.527
614.500	383.117	79.997	19.996	100.789	19.736	19.232	0.520
615.000	383.384	79.998	19.996	100.787	19.744	18.737	0.500
615.500	383.628	79.998	19.996	100.787	19.749	18.414	0.507
616.000	383.872	79.997	19.997	100.786	19.759	17.780	0.499
616.500	384.142	79.998	19.996	100.787	19.767	17.221	0.501
617.000	384.347	79.996	19.995	100.787	19.774	16.778	0.495
617.500	384.609	79.997	19.997	100.785	19.779	16.432	0.471
618.000	384.868	79.997	19.996	100.784	19.786	16.026	0.494
618.501	385.133	79.997	19.996	100.783	19.790	15.721	0.523
619.001	385.391	79.996	19.995	100.783	19.796	15.328	0.524
619.500	385.627	79.996	19.996	100.783	19.803	14.917	0.508
620.000	385.873	79.995	19.997	100.783	19.809	14.495	0.488
620.500	386.129	79.996	19.996	100.785	19.815	14.162	0.492
621.000	386.348	79.996	19.996	100.787	19.820	13.821	0.489
621.500	386.623	79.995	19.996	100.787	19.824	13.534	0.485
622.000	386.862	79.996	19.995	100.788	19.829	13.243	0.504
622.500	387.117	79.995	19.997	100.790	19.835	12.837	0.504
623.000	387.315	79.996	19.996	100.789	19.837	12.718	0.474
623.500	387.588	79.994	19.996	100.786	19.843	12.348	0.462
624.000	387.873	79.995	19.997	100.782	19.845	12.199	0.514
624.500	388.115	79.995	19.995	100.781	19.849	11.930	0.543
625.000	388.390	79.995	19.997	100.781	19.855	11.572	0.522
625.500	388.620	79.995	19.995	100.783	19.857	11.418	0.511
626.000	388.873	79.994	19.996	100.784	19.862	11.066	0.494
626.500	389.104	79.996	19.998	100.788	19.869	10.654	0.484
627.000	389.372	79.996	19.996	100.790	19.869	10.637	0.492
627.500	389.618	79.995	19.997	100.790	19.870	10.588	0.507
628.000	389.852	79.996	19.996	100.790	19.876	10.201	0.496
628.500	390.095	79.995	19.997	100.792	19.877	10.097	0.478
629.000	390.388	79.996	19.995	100.792	19.878	10.034	0.507
629.500	390.618	79.996	19.996	100.791	19.881	9.838	0.530
630.000	390.864	79.995	19.997	100.790	19.882	9.805	0.499
630.500	391.119	79.995	19.996	100.790	19.888	9.418	0.488
631.000	391.376	79.995	19.996	100.789	19.887	9.453	0.507
631.500	391.608	79.996	19.995	100.789	19.888	9.404	0.501
632.001	391.869	79.995	19.996	100.791	19.893	9.057	0.491
632.501	392.120	79.996	19.997	100.792	19.892	9.141	0.502
633.000	392.350	79.996	19.997	100.793	19.893	9.053	0.497
633.500	392.635	79.996	19.997	100.793	19.897	8.801	0.498
634.000	392.906	79.995	19.997	100.793	19.897	8.835	0.536
634.500	393.124	79.995	19.997	100.793	19.896	8.891	0.522
635.000	393.396	79.996	19.997	100.793	19.897	8.805	0.489
635.500	393.642	79.996	19.996	100.792	19.899	8.703	0.504
636.000	393.939	79.995	19.996	100.792	19.901	8.540	0.531
636.500	394.174	79.996	19.997	100.791	19.901	8.563	0.537
637.000	394.438	79.996	19.996	100.790	19.907	8.197	0.516
637.500	394.693	79.996	19.996	100.788	19.903	8.428	0.509
638.000	394.905	79.995	19.997	100.787	19.905	8.276	0.492
638.500	395.160	79.995	19.998	100.787	19.906	8.227	0.467
639.000	395.435	79.996	19.997	100.787	19.909	8.022	0.499
639.500	395.714	79.995	19.997	100.787	19.905	8.297	0.543
640.000	395.991	79.995	19.997	100.789	19.910	8.001	0.555
640.500	396.210	79.996	19.998	100.789	19.904	8.379	0.525
641.000	396.494	79.994	19.996	100.789	19.905	8.334	0.500
641.500	396.711	79.995	19.997	100.788	19.905	8.332	0.502
642.000	396.963	79.997	19.998	100.787	19.907	8.176	0.485
642.500	397.244	79.997	19.997	100.786	19.908	8.127	0.501
643.000	397.488	79.996	19.997	100.786	19.907	8.173	0.529
643.500	397.765	79.995	19.996	100.786	19.907	8.148	0.523
644.000	398.016	79.996	19.996	100.786	19.910	7.964	0.524
644.500	398.242	79.996	19.998	100.786	19.909	8.043	0.502
645.000	398.466	79.994	19.998	100.786	19.910	7.973	0.463
645.500	398.769	79.996	19.996	100.787	19.913	7.789	0.488
646.000	399.012	79.996	19.997	100.786	19.913	7.758	0.537
646.500	399.262	79.996	19.997	100.783	19.912	7.852	0.520
647.000	399.493	79.996	19.998	100.781	19.909	8.054	0.487
647.500	399.728	79.996	19.996	100.780	19.910	7.975	0.474
648.000	400.031	79.996	19.998	100.780	19.912	7.844	0.502
648.500	400.282	79.996	19.996	100.780	19.912	7.874	0.546
649.000	400.528	79.996	19.997	100.784	19.918	7.472	0.525
649.500	400.787	79.995	19.997	100.786	19.914	7.737	0.500
650.000	401.004	79.995	19.997	100.787	19.917	7.519	0.490
650.500	401.260	79.996	19.996	100.787	19.914	7.712	0.475
651.000	401.517	79.996	19.996	100.787	19.917	7.498	0.493
651.500	401.811	79.996	19.996	100.786	19.911	7.891	0.532
652.000	402.031	79.996	19.997	100.787	19.914	7.698	0.533
652.500	402.277	79.995	19.996	100.786	19.915	7.684	0.490
653.000	402.543	79.996	19.996	100.787	19.914	7.733	0.489
653.500	402.774	79.995	19.997	100.788	19.913	7.803	0.504
654.000	403.018	79.996	19.996	100.788	19.914	7.740	0.486
654.500	403.260	79.996	19.997	100.788	19.914	7.742	0.481
655.000	403.513	79.995	19.996	100.788	19.915	7.649	0.491
655.500	403.748	79.995	19.996	100.788	19.913	7.774	0.492
656.001	404.016	79.997	19.997	100.787	19.914	7.705	0.495
656.500	404.227	79.994	19.997	100.787	19.919	7.380	0.490
657.000	404.483	79.994	19.996	100.788	19.913	7.758	0.473
657.500	404.719	79.994	19.996	100.790	19.914	7.725	0.480
658.000	404.982	79.995	19.996	100.790	19.917	7.539	0.495
658.500	405.253	79.996	19.997	100.793	19.920	7.345	0.517
659.000	405.512	79.995	19.997	100.793	19.915	7.639	0.532
659.500	405.745	79.995	19.997	100.792	19.916	7.579	0.511
660.000	406.002	79.995	19.997	100.790	19.916	7.591	0.491
660.500	406.274	79.996	19.997	100.789	19.915	7.677	0.510
661.000	406.489	79.996	19.997	100.787	19.916	7.605	0.508
661.500	406.748	79.997	19.996	100.787	19.919	7.394	0.480
662.000	407.012	79.996	19.998	100.786	19.917	7.502	0.498
662.500	407.255	79.996	19.997	100.786	19.916	7.623	0.516
663.000	407.521	79.996	19.997	100.787	19.917	7.514	0.508
663.500	407.754	79.996	19.998	100.785	19.920	7.346	0.504
664.000	408.037	79.996	19.997	100.785	19.919	7.392	0.507
664.500	408.264	79.996	19.997	100.785	19.918	7.441	0.513
665.000	408.509	79.996	19.997	100.785	19.918	7.478	0.491
665.500	408.737	79.996	19.998	100.785	19.918	7.464	0.472
666.000	409.033	79.997	19.997	100.788	19.918	7.449	0.498
666.500	409.263	79.997	19.996	100.790	19.918	7.435	0.525
667.000	409.475	79.996	19.996	100.790	19.920	7.322	0.484
667.500	409.738	79.997	19.996	100.790	19.918	7.477	0.458
668.000	410.006	79.997	19.998	100.790	19.920	7.341	0.503
668.500	410.253	79.997	19.996	100.789	19.920	7.343	0.523
669.000	410.505	79.996	19.997	100.788	19.921	7.252	0.507
669.500	410.785	79.997	19.997	100.789	19.919	7.418	0.516
670.000	410.998	79.996	19.996	100.789	19.919	7.371	0.512
670.500	411.256	79.996	19.997	100.789	19.921	7.294	0.482
671.000	411.553	79.995	19.998	100.790	19.919	7.397	0.513
671.500	411.719	79.996	19.998	100.790	19.920	7.359	0.509
672.000	412.021	79.994	19.998	100.789	19.919	7.424	0.465
672.500	412.307	79.996	19.996	100.789	19.917	7.502	0.528
673.000	412.493	79.996	19.998	100.789	19.921	7.261	0.530
673.500	412.797	79.996	19.998	100.789	19.920	7.369	0.481
674.000	413.030	79.995	19.996	100.789	19.921	7.271	0.514
674.500	413.261	79.995	19.997	100.789	19.920	7.329	0.501
675.000	413.534	79.994	19.997	100.789	19.922	7.224	0.484
675.500	413.750	79.995	19.998	100.789	19.920	7.331	0.497
676.000	413.994	79.995	19.996	100.790	19.920	7.368	0.474
676.500	414.289	79.995	19.996	100.789	19.923	7.120	0.499
677.000	414.498	79.996	19.997	100.787	19.919	7.407	0.521
677.500	414.781	79.997	19.997	100.788	19.920	7.307	0.498
678.000	414.997	79.995	19.997	100.787	19.924	7.047	0.495
678.500	415.290	79.995	19.997	100.787	19.923	7.156	0.504
679.000	415.517	79.995	19.997	100.789	19.922	7.240	0.515
679.500	415.770	79.997	19.996	100.790	19.926	6.923	0.500
680.000	415.980	79.997	19.996	100.791	19.923	7.138	0.471
680.500	416.269	79.997	19.997	100.791	19.924	7.048	0.481
681.000	416.525	79.997	19.997	100.791	19.924	7.056	0.522
681.500	416.791	79.996	19.997	100.792	19.922	7.233	0.533
682.000	417.048	79.996	19.997	100.792	19.923	7.174	0.523
682.500	417.307	79.996	19.997	100.792	19.924	7.088	0.520
683.000	417.570	79.997	19.996	100.793	19.921	7.276	0.518
683.500	417.809	79.997	19.995	100.793	19.922	7.200	0.512
684.000	418.075	79.997	19.996	100.791	19.921	7.282	0.504
684.500	418.315	79.997	19.996	100.790	19.921	7.275	0.506
685.000	418.578	79.996	19.996	100.790	19.922	7.237	0.505
685.500	418.829	79.995	19.997	100.791	19.925	7.016	0.509
686.000	419.116	79.996	19.997	100.797	19.921	7.250	0.526
686.500	419.340	79.998	19.996	100.801	19.926	6.968	0.525
687.000	419.610	79.999	19.996	100.805	19.920	7.352	0.502
687.500	419.831	79.996	19.996	100.805	19.923	7.138	0.492
688.000	420.115	79.997	19.996	100.804	19.920	7.319	0.498
688.500	420.415	79.998	19.996	100.799	19.923	7.152	0.545
689.000	420.665	79.997	19.996	100.794	19.921	7.280	0.567
689.500	420.874	79.999	19.996	100.792	19.922	7.219	0.504
690.000	421.179	79.998	19.996	100.792	19.924	7.110	0.486
690.500	421.445	79.999	19.996	100.794	19.921	7.301	0.542
691.000	421.680	79.997	19.996	100.798	19.921	7.254	0.536
691.500	421.926	79.998	19.996	100.801	19.921	7.266	0.491
692.000	422.211	79.998	19.996	100.801	19.921	7.293	0.506
692.500	422.435	79.998	19.995	100.801	19.922	7.203	0.520
693.000	422.693	79.997	19.996	100.799	19.921	7.259	0.495
693.500	423.008	79.999	19.996	100.795	19.920	7.329	0.527
694.000	423.228	79.998	19.996	100.792	19.922	7.178	0.554
694.500	423.493	79.999	19.995	100.795	19.923	7.168	0.510
695.000	423.744	79.999	19.996	100.797	19.924	7.110	0.500
695.500	424.001	79.998	19.996	100.797	19.921	7.301	0.512
696.001	424.227	79.997	19.995	100.798	19.923	7.159	0.496
696.500	424.523	79.998	19.996	100.799	19.920	7.343	0.503
697.000	424.775	79.997	19.996	100.796	19.924	7.096	0.535
697.500	425.015	79.998	19.996	100.794	19.923	7.129	0.520
698.000	425.321	79.996	19.997	100.794	19.923	7.131	0.519
698.500	425.547	79.996	19.996	100.796	19.926	6.947	0.539
699.000	425.840	79.996	19.996	100.795	19.926	6.975	0.525
699.501	426.099	79.997	19.995	100.794	19.923	7.127	0.536
700.001	426.352	79.996	19.996	100.796	19.924	7.098	0.532
700.500	426.648	79.998	19.996	100.795	19.925	6.984	0.530
701.000	426.850	79.995	19.996	100.794	19.923	7.135	0.523
701.500	427.119	79.995	19.996	100.796	19.923	7.154	0.485
702.000	427.406	79.995	19.995	100.797	19.921	7.277	0.514
702.500	427.671	79.995	19.996	100.797	19.924	7.051	0.554
703.000	427.889	79.995	19.997	100.798	19.927	6.883	0.518
703.500	428.186	79.996	19.997	100.796	19.927	6.895	0.499
704.000	428.460	79.995	19.996	100.794	19.927	6.884	0.543
704.500	428.709	79.996	19.996	100.796	19.927	6.911	0.547
705.000	428.995	79.996	19.997	100.794	19.926	6.921	0.529
705.500	429.245	79.995	19.996	100.792	19.928	6.826	0.536
706.000	429.494	79.995	19.996	100.792	19.928	6.817	0.518
706.500	429.803	79.996	19.997	100.791	19.929	6.735	0.529
707.000	429.995	79.997	19.996	100.789	19.929	6.772	0.529
707.500	430.294	79.995	19.996	100.791	19.926	6.957	0.495
708.000	430.581	79.996	19.998	100.792	19.929	6.770	0.538
708.500	430.814	79.995	19.996	100.792	19.932	6.579	0.553
709.000	431.080	79.996	19.997	100.793	19.929	6.774	0.510
709.500	431.362	79.996	19.997	100.794	19.929	6.774	0.524
710.000	431.647	79.997	19.997	100.791	19.928	6.849	0.557
710.500	431.893	79.995	19.996	100.791	19.928	6.823	0.549
711.000	432.156	79.996	19.997	100.789	19.929	6.758	0.520
711.500	432.468	79.996	19.997	100.789	19.929	6.768	0.543
712.000	432.701	79.996	19.996	100.793	19.928	6.838	0.560
712.500	432.977	79.996	19.997	100.798	19.932	6.537	0.527
713.001	433.237	79.996	19.996	100.798	19.929	6.779	0.522
713.500	433.556	79.995	19.996	100.802	19.932	6.581	0.558
714.000	433.777	79.995	19.996	100.802	19.932	6.562	0.560
714.500	434.074	79.996	19.996	100.798	19.933	6.513	0.529
715.000	434.319	79.996	19.997	100.794	19.935	6.378	0.530
715.500	434.631	79.995	19.996	100.794	19.931	6.599	0.550
716.000	434.885	79.996	19.997	100.791	19.932	6.536	0.561
716.500	435.130	79.997	19.996	100.788	19.933	6.523	0.532
717.000	435.394	79.997	19.997	100.787	19.934	6.446	0.504
717.500	435.672	79.996	19.997	100.786	19.931	6.605	0.526
718.000	435.947	79.996	19.996	100.785	19.932	6.540	0.547
718.500	436.231	79.997	19.995	100.786	19.930	6.710	0.556
719.000	436.478	79.997	19.996	100.788	19.932	6.540	0.545
719.501	436.737	79.996	19.997	100.790	19.930	6.691	0.518
720.002	436.977	79.997	19.996	100.791	19.934	6.422	0.502
720.501	437.270	79.997	19.995	100.790	19.931	6.625	0.517
721.000	437.535	79.996	19.995	100.789	19.934	6.443	0.546
721.500	437.787	79.996	19.999	100.788	19.931	6.655	0.538
722.000	438.014	79.997	19.996	100.788	19.933	6.488	0.497
722.500	438.330	79.997	19.997	100.788	19.932	6.560	0.511
723.000	438.567	79.996	19.995	100.788	19.934	6.409	0.549
723.500	438.845	79.997	19.997	100.789	19.937	6.268	0.534
724.000	439.074	79.997	19.996	100.788	19.933	6.507	0.510
724.500	439.328	79.997	19.997	100.789	19.934	6.455	0.495
725.000	439.585	79.996	19.996	100.792	19.938	6.145	0.497
725.500	439.865	79.996	19.997	100.793	19.935	6.346	0.524
726.000	440.141	79.997	19.996	100.793	19.933	6.476	0.546
726.500	440.436	79.996	19.998	100.793	19.935	6.395	0.563
727.000	440.692	79.997	19.995	100.791	19.931	6.630	0.561
727.500	440.925	79.996	19.996	100.788	19.936	6.299	0.521
728.000	441.200	79.995	19.997	100.785	19.935	6.362	0.499
728.500	441.469	79.996	19.997	100.785	19.933	6.502	0.526
729.000	441.736	79.997	19.997	100.785	19.935	6.389	0.540
729.500	441.987	79.997	19.996	100.785	19.936	6.308	0.527
730.000	442.256	79.995	19.997	100.786	19.935	6.362	0.519
730.500	442.530	79.996	19.997	100.787	19.935	6.360	0.532
731.000	442.779	79.996	19.997	100.788	19.932	6.548	0.533
731.501	443.044	79.994	19.997	100.788	19.935	6.385	0.518
732.000	443.270	79.995	19.998	100.788	19.935	6.380	0.502
732.500	443.542	79.994	19.998	100.789	19.932	6.532	0.495
733.000	443.799	79.995	19.997	100.790	19.935	6.365	0.514
733.500	444.052	79.995	19.997	100.789	19.935	6.369	0.520
734.000	444.294	79.994	19.997	100.789	19.933	6.504	0.502
734.500	444.569	79.994	19.997	100.789	19.935	6.348	0.506
735.000	444.838	79.993	19.996	100.790	19.934	6.420	0.531
735.500	445.104	79.994	19.997	100.790	19.935	6.339	0.539
736.000	445.337	79.993	19.997	100.791	19.936	6.316	0.517
736.500	445.564	79.994	19.996	100.791	19.935	6.385	0.479
737.000	445.835	79.994	19.997	100.792	19.935	6.362	0.479
737.500	446.120	79.995	19.998	100.791	19.938	6.187	0.527
738.000	446.367	79.995	19.997	100.791	19.935	6.344	0.544
738.500	446.624	79.995	19.997	100.791	19.936	6.316	0.518
739.000	446.878	79.994	19.997	100.792	19.937	6.239	0.508
739.500	447.104	79.995	19.998	100.793	19.933	6.465	0.496
740.000	447.374	79.995	19.997	100.793	19.937	6.262	0.488
740.500	447.622	79.996	19.998	100.793	19.934	6.461	0.507
741.000	447.886	79.995	19.997	100.793	19.936	6.332	0.515
741.500	448.152	79.996	19.997	100.791	19.940	6.023	0.521
742.000	448.391	79.995	19.997	100.790	19.936	6.270	0.518
742.500	448.652	79.995	19.996	100.788	19.935	6.359	0.502
743.000	448.895	79.994	19.997	100.788	19.936	6.284	0.502
743.500	449.170	79.996	19.997	100.787	19.938	6.185	0.511
744.000	449.402	79.996	19.996	100.787	19.938	6.166	0.512
744.500	449.645	79.996	19.997	100.787	19.937	6.225	0.491
745.000	449.921	79.995	19.997	100.789	19.937	6.250	0.497
745.500	450.162	79.995	19.996	100.789	19.938	6.180	0.518
746.000	450.409	79.995	19.998	100.790	19.939	6.098	0.503
746.500	450.701	79.997	19.997	100.790	19.934	6.402	0.514
747.000	450.881	79.996	19.997	100.788	19.938	6.189	0.505
747.500	451.170	79.996	19.998	100.788	19.937	6.210	0.470
748.000	451.424	79.996	19.997	100.788	19.937	6.212	0.506
748.500	451.669	79.997	19.997	100.787	19.937	6.250	0.521
749.001	451.897	79.996	19.996	100.786	19.940	6.026	0.486
749.501	452.130	79.997	19.997	100.787	19.938	6.185	0.467
750.000	452.382	79.997	19.997	100.787	19.938	6.161	0.473
750.500	452.637	79.997	19.996	100.787	19.942	5.891	0.496
751.000	452.896	79.996	19.996	100.786	19.941	5.991	0.511
751.500	453.148	79.997	19.997	100.782	19.938	6.196	0.512
752.000	453.395	79.997	19.996	100.777	19.942	5.914	0.505
752.500	453.656	79.996	19.997	100.775	19.942	5.903	0.504
753.000	453.890	79.997	19.999	100.772	19.945	5.740	0.502
753.500	454.112	79.996	19.997	100.771	19.942	5.896	0.476
754.000	454.359	79.996	19.997	100.777	19.943	5.831	0.462
754.500	454.578	79.996	19.999	100.783	19.944	5.803	0.468
755.000	454.833	79.996	19.997	100.782	19.941	5.994	0.470
755.500	455.081	79.996	19.998	100.786	19.942	5.910	0.488
756.000	455.326	79.997	19.996	100.788	19.943	5.858	0.498
756.500	455.571	79.996	19.998	100.787	19.943	5.861	0.491
757.000	455.807	79.995	19.996	100.786	19.941	5.977	0.485
757.500	456.041	79.995	19.998	100.789	19.943	5.880	0.476
758.000	456.286	79.996	19.998	100.790	19.943	5.824	0.475
758.500	456.531	79.996	19.997	100.790	19.942	5.884	0.485
759.000	456.749	79.994	19.997	100.790	19.943	5.823	0.476
759.500	457.016	79.995	19.997	100.790	19.943	5.868	0.473
760.000	457.269	79.995	19.998	100.790	19.944	5.760	0.502
760.500	457.497	79.995	19.998	100.788	19.943	5.824	0.501
761.000	457.752	79.996	19.997	100.786	19.946	5.660	0.483
761.500	457.996	79.995	19.998	100.786	19.946	5.630	0.491
762.000	458.247	79.995	19.998	100.786	19.944	5.779	0.497
762.500	458.486	79.995	19.998	100.787	19.944	5.768	0.493
763.000	458.714	79.995	19.998	100.788	19.949	5.464	0.478
763.500	459.009	79.995	19.996	100.789	19.947	5.583	0.495
764.000	459.229	79.995	19.997	100.789	19.947	5.609	0.519
764.500	459.455	79.996	19.998	100.789	19.946	5.644	0.481
765.000	459.733	79.996	19.998	100.789	19.946	5.670	0.475
765.500	459.980	79.995	19.997	100.788	19.947	5.562	0.514
766.000	460.219	79.997	19.999	100.787	19.943	5.849	0.505
766.500	460.472	79.996	19.997	100.787	19.945	5.742	0.489
767.000	460.722	79.997	19.997	100.787	19.947	5.597	0.497
767.500	460.991	79.998	19.996	100.785	19.945	5.703	0.511
768.000	461.226	79.998	19.998	100.785	19.946	5.666	0.512
768.500	461.442	79.997	19.998	100.786	19.945	5.720	0.478
769.000	461.688	79.997	19.997	100.786	19.947	5.572	0.456
769.500	461.916	79.998	19.997	100.786	19.947	5.619	0.468
770.000	462.175	79.998	19.997	100.787	19.948	5.500	0.480
770.500	462.436	79.997	19.997	100.787	19.952	5.246	0.503
771.000	462.706	79.999	19.997	100.787	19.949	5.490	0.525
771.500	462.906	79.998	19.998	100.786	19.950	5.427	0.501
772.000	463.171	79.999	19.996	100.785	19.949	5.476	0.468
772.500	463.400	79.998	19.996	100.786	19.951	5.360	0.479
773.000	463.668	79.999	19.996	100.786	19.949	5.486	0.495
773.500	463.949	79.999	19.996	100.786	19.949	5.471	0.523
774.000	464.216	79.998	19.997	100.787	19.951	5.313	0.548
774.500	464.419	79.999	19.995	100.789	19.955	5.047	0.509
775.000	464.683	79.999	19.997	100.788	19.953	5.227	0.468
775.501	464.931	79.999	19.997	100.788	19.954	5.113	0.489
776.001	465.172	79.997	19.996	100.788	19.954	5.140	0.501
776.500	465.423	79.997	19.995	100.788	19.952	5.278	0.491
777.000	465.682	79.999	19.996	100.786	19.953	5.199	0.501
777.500	465.914	79.998	19.996	100.786	19.956	5.017	0.501
778.000	466.195	79.998	19.996	100.785	19.953	5.217	0.502
778.500	466.407	79.997	19.997	100.784	19.954	5.141	0.503
779.000	466.666	79.998	19.995	100.781	19.953	5.182	0.482
779.500	466.917	79.998	19.996	100.777	19.954	5.115	0.490
780.000	467.170	79.997	19.995	100.775	19.958	4.866	0.507
780.500	467.389	79.997	19.996	100.776	19.960	4.760	0.488
781.000	467.668	79.996	19.997	100.777	19.956	5.010	0.484
781.500	467.887	79.996	19.996	100.780	19.955	5.099	0.498
782.000	468.148	79.996	19.997	100.783	19.956	5.020	0.489
782.500	468.355	79.997	19.997	100.786	19.961	4.682	0.474
783.000	468.636	79.996	19.997	100.786	19.956	5.023	0.478
783.500	468.894	79.996	19.996	100.786	19.957	4.925	0.513
784.001	469.173	79.996	19.996	100.786	19.959	4.841	0.538
784.501	469.437	79.996	19.996	100.787	19.958	4.859	0.540
785.000	469.646	79.995	19.996	100.788	19.961	4.675	0.508
785.500	469.915	79.995	19.997	100.788	19.962	4.588	0.476
786.000	470.187	79.996	19.996	100.788	19.960	4.749	0.510
786.500	470.391	79.997	19.997	100.788	19.961	4.676	0.508
787.000	470.675	79.995	19.996	100.787	19.961	4.660	0.482
787.500	470.883	79.996	19.997	100.787	19.963	4.548	0.490
788.000	471.138	79.995	19.995	100.786	19.959	4.830	0.478
788.500	471.365	79.996	19.997	100.786	19.963	4.584	0.472
789.000	471.616	79.996	19.996	100.786	19.964	4.521	0.480
789.500	471.875	79.995	19.997	100.785	19.966	4.360	0.494
790.000	472.102	79.996	19.997	100.785	19.964	4.522	0.498
790.500	472.350	79.995	19.997	100.786	19.963	4.558	0.480
791.000	472.589	79.996	19.996	100.786	19.960	4.739	0.481
791.500	472.839	79.996	19.997	100.786	19.959	4.826	0.488
792.000	473.109	79.996	19.996	100.784	19.961	4.693	0.504
792.500	473.347	79.995	19.997	100.779	19.960	4.779	0.514
793.000	473.605	79.996	19.996	100.776	19.962	4.613	0.503
793.500	473.904	79.996	19.996	100.771	19.958	4.882	0.527
794.000	474.117	79.996	19.998	100.767	19.963	4.569	0.534
794.500	474.375	79.996	19.996	100.765	19.963	4.550	0.491
795.000	474.603	79.995	19.997	100.770	19.964	4.458	0.479
795.500	474.833	79.996	19.996	100.774	19.963	4.581	0.472
796.000	475.093	79.996	19.996	100.778	19.965	4.397	0.474
796.500	475.344	79.995	19.997	100.783	19.964	4.510	0.500
797.000	475.566	79.995	19.996	100.788	19.963	4.529	0.492
797.500	475.862	79.994	19.997	100.786	19.962	4.590	0.496
798.000	476.079	79.995	19.997	100.785	19.963	4.564	0.516
798.500	476.325	79.996	19.996	100.785	19.963	4.572	0.488
799.000	476.592	79.995	19.995	100.785	19.963	4.553	0.488
799.500	476.852	79.995	19.995	100.785	19.962	4.625	0.520
800.000	477.094	79.996	19.996	100.787	19.963	4.569	0.515
800.500	477.321	79.995	19.996	100.788	19.964	4.462	0.486
801.000	477.582	79.995	19.997	100.789	19.963	4.546	0.479
801.500	477.845	79.997	19.996	100.790	19.963	4.523	0.506
802.000	478.085	79.996	19.996	100.790	19.964	4.504	0.513
802.500	478.330	79.996	19.996	100.791	19.966	4.373	0.493
803.000	478.614	79.996	19.996	100.792	19.965	4.446	0.507
803.500	478.848	79.997	19.997	100.792	19.966	4.357	0.524
804.000	479.113	79.996	19.996	100.791	19.964	4.467	0.509
804.500	479.358	79.995	19.996	100.791	19.967	4.297	0.504
805.000	479.604	79.997	19.997	100.789	19.963	4.555	0.500
805.500	479.854	79.996	19.996	100.787	19.964	4.494	0.493
806.000	480.089	79.996	19.996	100.787	19.964	4.462	0.490
806.500	480.318	79.996	19.996	100.788	19.964	4.513	0.475
807.000	480.605	79.996	19.996	100.790	19.965	4.394	0.490
807.500	480.833	79.996	19.996	100.793	19.964	4.460	0.515
808.000	481.122	79.996	19.996	100.794	19.967	4.298	0.516
808.500	481.400	79.996	19.997	100.794	19.965	4.425	0.542
809.000	481.610	79.996	19.997	100.794	19.968	4.262	0.527
809.500	481.874	79.995	19.996	100.791	19.967	4.299	0.480
810.000	482.153	79.997	19.997	100.789	19.967	4.306	0.508
810.500	482.359	79.997	19.998	100.789	19.968	4.199	0.514
811.000	482.625	79.996	19.997	100.789	19.964	4.509	0.479
811.500	482.901	79.994	19.997	100.788	19.964	4.474	0.507
812.000	483.122	79.995	19.996	100.789	19.966	4.346	0.520
812.500	483.395	79.996	19.997	100.790	19.966	4.331	0.496
813.000	483.635	79.996	19.996	100.789	19.967	4.283	0.504
813.500	483.926	79.994	19.996	100.790	19.966	4.350	0.522
814.000	484.147	79.996	19.995	100.789	19.968	4.199	0.521
814.500	484.399	79.995	19.997	100.790	19.966	4.362	0.493
815.000	484.646	79.996	19.997	100.789	19.967	4.310	0.486
815.500	484.881	79.995	19.995	100.790	19.968	4.252	0.490
816.000	485.168	79.995	19.995	100.790	19.968	4.241	0.502
816.500	485.435	79.996	19.997	100.791	19.967	4.282	0.538
817.000	485.702	79.995	19.997	100.791	19.969	4.161	0.544
817.500	485.975	79.996	19.997	100.792	19.967	4.285	0.537
818.000	486.240	79.994	19.996	100.791	19.972	3.944	0.539
818.500	486.518	79.995	19.997	100.791	19.971	4.022	0.540
819.000	486.723	79.994	19.998	100.791	19.970	4.105	0.513
819.500	487.022	79.995	19.997	100.791	19.969	4.164	0.494
820.000	487.272	79.994	19.996	100.791	19.968	4.210	0.527
820.500	487.530	79.995	19.998	100.792	19.972	3.942	0.529
821.000	487.784	79.996	19.997	100.792	19.969	4.148	0.510
821.500	488.041	79.995	19.996	100.791	19.970	4.120	0.511
822.000	488.315	79.996	19.997	100.790	19.969	4.178	0.521
822.500	488.608	79.994	19.996	100.788	19.973	3.912	0.550
823.000	488.829	79.995	19.997	100.786	19.970	4.101	0.541
823.500	489.127	79.996	19.995	100.785	19.973	3.928	0.516
824.000	489.398	79.994	19.997	100.784	19.966	4.339	0.544
824.500	489.644	79.995	19.997	100.782	19.970	4.098	0.543
825.000	489.895	79.995	19.997	100.783	19.969	4.143	0.507
825.500	490.165	79.995	19.998	100.785	19.971	4.022	0.509
826.000	490.447	79.995	19.996	100.786	19.971	4.049	0.537
826.500	490.709	79.997	19.998	100.787	19.970	4.096	0.548
827.000	490.962	79.996	19.997	100.790	19.972	3.986	0.529
827.500	491.214	79.996	19.996	100.790	19.973	3.875	0.510
828.000	491.481	79.998	19.998	100.786	19.972	3.963	0.512
828.500	491.765	79.997	19.997	100.785	19.973	3.896	0.535
829.000	492.005	79.999	19.996	100.785	19.972	3.940	0.537
829.500	492.276	79.997	19.997	100.784	19.972	3.975	0.517
830.000	492.514	79.998	19.997	100.783	19.974	3.821	0.510
830.500	492.843	79.997	19.999	100.786	19.973	3.928	0.539
831.000	493.062	79.997	20.000	100.786	19.972	3.999	0.558
831.500	493.350	79.999	19.999	100.786	19.973	3.914	0.527
832.000	493.637	79.996	19.998	100.787	19.974	3.852	0.541
832.501	493.906	79.997	19.997	100.787	19.971	4.068	0.565
833.001	494.138	79.997	19.997	100.788	19.975	3.781	0.529
833.500	494.391	79.998	19.996	100.789	19.976	3.713	0.493
834.000	494.652	79.997	19.998	100.789	19.974	3.835	0.499
834.500	494.945	79.997	19.998	100.789	19.974	3.835	0.534
835.000	495.216	79.997	19.997	100.789	19.977	3.658	0.559
835.500	495.483	79.997	19.997	100.789	19.975	3.793	0.551
836.000	495.724	79.997	19.997	100.789	19.974	3.810	0.524
836.500	495.989	79.999	19.996	100.788	19.973	3.877	0.507
837.000	496.240	79.998	19.996	100.787	19.976	3.707	0.511
837.500	496.505	79.997	19.997	100.787	19.974	3.868	0.516
838.000	496.769	79.996	19.997	100.788	19.974	3.810	0.523
838.500	497.039	79.999	19.996	100.788	19.973	3.910	0.531
839.000	497.291	79.997	19.997	100.789	19.974	3.845	0.528
839.500	497.539	79.996	19.998	100.790	19.973	3.907	0.511
840.000	497.812	79.996	19.997	100.789	19.972	3.966	0.510
840.500	498.079	79.997	19.995	100.788	19.976	3.702	0.530
841.000	498.364	79.997	19.997	100.788	19.975	3.786	0.546
841.500	498.602	79.996	19.997	100.782	19.975	3.809	0.538
842.000	498.871	79.996	19.998	100.782	19.976	3.744	0.515
842.500	499.117	79.996	19.998	100.782	19.971	4.005	0.511
843.000	499.400	79.997	19.998	100.783	19.973	3.931	0.522
843.500	499.641	79.995	19.997	100.783	19.974	3.852	0.527
844.000	499.898	79.997	19.998	100.789	19.975	3.796	0.511
844.500	500.150	79.997	19.997	100.789	19.978	3.584	0.503
845.000	500.458	79.996	19.997	100.788	19.976	3.715	0.534
845.500	500.687	79.997	19.998	100.784	19.977	3.666	0.548
846.000	500.980	79.997	19.998	100.781	19.976	3.734	0.529
846.500	501.210	79.996	19.997	100.781	19.976	3.721	0.523
847.000	501.491	79.995	19.997	100.781	19.977	3.626	0.517
847.500	501.796	79.997	19.999	100.781	19.975	3.787	0.549
848.000	502.009	79.996	19.998	100.783	19.977	3.639	0.551
848.500	502.315	79.997	19.998	100.786	19.976	3.691	0.518
849.000	502.551	79.998	19.997	100.786	19.979	3.542	0.531
849.500	502.804	79.996	19.998	100.786	19.976	3.682	0.516
850.000	503.095	79.997	19.997	100.786	19.978	3.576	0.516
850.500	503.312	79.997	19.997	100.787	19.975	3.746	0.526
851.000	503.610	79.998	19.997	100.786	19.976	3.718	0.512
851.500	503.852	79.997	19.998	100.786	19.973	3.891	0.527
852.000	504.091	79.997	19.998	100.786	19.977	3.665	0.511
852.500	504.359	79.997	19.998	100.785	19.977	3.628	0.494
853.000	504.641	79.997	19.998	100.785	19.976	3.719	0.528
853.500	504.877	79.998	19.997	100.785	19.977	3.656	0.534
854.000	505.117	79.998	19.998	100.785	19.976	3.711	0.497
854.500	505.381	79.997	19.997	100.780	19.978	3.614	0.490
855.000	505.659	79.997	19.998	100.776	19.975	3.748	0.523
855.500	505.913	79.999	19.997	100.771	19.977	3.676	0.537
856.000	506.210	79.998	19.999	100.766	19.975	3.762	0.542
856.500	506.406	79.999	19.998	100.762	19.974	3.872	0.522
857.000	506.674	79.999	19.997	100.767	19.976	3.721	0.478
857.500	506.930	79.998	19.997	100.771	19.976	3.725	0.494
858.000	507.165	79.998	19.997	100.775	19.976	3.716	0.508
858.500	507.423	79.999	19.997	100.777	19.978	3.585	0.492
859.000	507.697	79.998	19.999	100.778	19.977	3.629	0.512
859.500	507.945	79.998	19.998	100.777	19.977	3.660	0.527
860.000	508.209	79.997	19.997	100.777	19.975	3.809	0.517
860.500	508.476	79.997	19.998	100.778	19.975	3.802	0.522
861.000	508.732	79.998	19.997	100.781	19.977	3.618	0.528
861.500	508.978	79.997	19.995	100.783	19.980	3.471	0.513
862.000	509.247	79.997	19.998	100.784	19.979	3.543	0.508
862.500	509.489	79.997	19.997	100.784	19.976	3.690	0.512
863.000	509.749	79.997	19.996	100.785	19.978	3.583	0.506
863.500	509.978	79.997	19.998	100.786	19.977	3.637	0.496
864.000	510.254	79.996	19.997	100.787	19.977	3.630	0.497
864.500	510.526	79.997	19.997	100.788	19.979	3.511	0.527
865.000	510.724	79.996	19.996	100.790	19.979	3.534	0.509
865.501	510.999	79.995	19.996	100.790	19.979	3.547	0.471
866.001	511.245	79.995	19.998	100.789	19.976	3.698	0.497
866.500	511.534	79.996	19.997	100.790	19.977	3.631	0.528
867.000	511.758	79.995	19.998	100.790	19.977	3.635	0.524
867.500	512.046	79.996	19.999	100.789	19.980	3.439	0.513
868.000	512.263	79.997	19.997	100.789	19.981	3.388	0.509
868.500	512.534	79.995	19.998	100.790	19.979	3.514	0.497
869.001	512.790	79.996	19.998	100.790	19.980	3.470	0.507
869.501	513.034	79.996	19.997	100.791	19.977	3.619	0.514
870.000	513.292	79.995	19.998	100.790	19.977	3.619	0.501
870.500	513.534	79.997	19.996	100.790	19.977	3.639	0.501
871.000	513.799	79.997	19.997	100.787	19.978	3.597	0.503
871.500	514.078	79.995	19.996	100.786	19.977	3.625	0.525
872.000	514.310	79.994	19.996	100.786	19.976	3.693	0.527
872.500	514.581	79.996	19.996	100.786	19.981	3.422	0.507
873.000	514.857	79.995	19.997	100.787	19.980	3.462	0.525
873.500	515.141	79.996	19.996	100.789	19.978	3.613	0.554
874.000	515.372	79.996	19.997	100.788	19.980	3.480	0.537
874.500	515.621	79.997	19.996	100.785	19.979	3.534	0.498
875.000	515.892	79.996	19.997	100.782	19.978	3.611	0.500
875.500	516.169	79.997	19.997	100.781	19.979	3.546	0.534
876.000	516.425	79.996	19.996	100.777	19.979	3.525	0.540
876.500	516.672	79.995	19.997	100.773	19.980	3.465	0.518
877.000	516.952	79.996	19.996	100.773	19.977	3.670	0.515
877.500	517.207	79.995	19.996	100.776	19.982	3.355	0.531
878.000	517.428	79.996	19.997	100.777	19.979	3.537	0.506
878.500	517.692	79.997	19.997	100.776	19.981	3.376	0.480
879.000	517.930	79.996	19.996	100.777	19.979	3.527	0.493
879.500	518.231	79.995	19.996	100.775	19.980	3.467	0.521
880.000	518.452	79.995	19.996	100.775	19.984	3.227	0.530
880.500	518.717	79.996	19.997	100.776	19.981	3.364	0.504
881.000	518.962	79.995	19.995	100.779	19.982	3.320	0.498
881.500	519.255	79.996	19.998	100.785	19.981	3.381	0.524
882.000	519.514	79.996	19.997	100.789	19.982	3.318	0.545
882.500	519.745	79.995	19.996	100.789	19.980	3.455	0.521
883.000	519.985	79.995	19.997	100.787	19.982	3.334	0.481
883.500	520.271	79.995	20.000	100.787	19.980	3.464	0.499
884.000	520.480	79.995	19.997	100.787	19.976	3.735	0.511
884.500	520.750	79.994	19.996	100.786	19.982	3.308	0.487
885.000	521.012	79.995	19.997	100.787	19.981	3.383	0.505
885.500	521.286	79.995	19.998	100.788	19.987	3.031	0.534
886.000	521.509	79.995	19.995	100.789	19.983	3.241	0.517
886.500	521.790	79.995	19.996	100.786	19.980	3.451	0.501
887.000	522.024	79.995	19.996	100.786	19.979	3.537	0.510
887.500	522.270	79.995	19.996	100.786	19.979	3.503	0.498
888.000	522.517	79.995	19.998	100.785	19.980	3.437	0.486
888.500	522.798	79.995	19.996	100.785	19.978	3.574	0.510
889.000	523.033	79.996	19.996	100.788	19.976	3.698	0.522
889.500	523.259	79.994	19.996	100.788	19.978	3.602	0.489
890.000	523.531	79.996	19.997	100.789	19.979	3.499	0.480
890.500	523.771	79.995	19.995	100.790	19.983	3.269	0.505
891.000	524.031	79.994	19.995	100.788	19.981	3.385	0.506
891.500	524.269	79.996	19.995	100.782	19.983	3.273	0.499
892.000	524.554	79.995	19.996	100.779	19.981	3.415	0.511
892.500	524.788	79.996	19.998	100.777	19.982	3.334	0.521
893.000	525.023	79.996	19.996	100.776	19.983	3.254	0.494
893.500	525.267	79.996	19.995	100.778	19.982	3.343	0.474
894.000	525.567	79.995	19.997	100.779	19.981	3.397	0.512
894.500	525.777	79.995	19.996	100.780	19.980	3.449	0.527
895.000	526.064	79.994	19.996	100.782	19.980	3.440	0.503
895.500	526.241	79.995	19.996	100.782	19.979	3.498	0.481
896.000	526.533	79.995	19.996	100.780	19.981	3.418	0.467
896.500	526.759	79.996	19.997	100.781	19.981	3.367	0.493
897.000	527.023	79.996	19.997	100.777	19.981	3.358	0.504
897.500	527.251	79.993	19.997	100.771	19.981	3.378	0.491
898.000	527.548	79.995	19.996	100.766	19.982	3.332	0.508
898.500	527.788	79.994	19.996	100.767	19.984	3.184	0.531
899.000	528.009	79.995	19.997	100.770	19.983	3.292	0.500
899.500	528.258	79.995	19.998	100.775	19.979	3.493	0.466
900.000	528.504	79.995	19.997	100.781	19.984	3.185	0.482
900.500	528.777	79.995	19.997	100.785	19.982	3.307	0.507
901.000	528.980	79.995	19.996	100.786	19.986	3.043	0.498
901.500	529.244	79.995	19.996	100.786	19.984	3.220	0.471
902.000	529.477	79.996	19.996	100.786	19.984	3.174	0.482
902.500	529.718	79.996	19.996	100.787	19.984	3.211	0.486
903.000	529.959	79.995	19.995	100.787	19.983	3.258	0.478
903.500	530.223	79.995	19.996	100.787	19.984	3.224	0.493
904.000	530.430	79.996	19.996	100.788	19.984	3.164	0.487
904.500	530.733	79.996	19.997	100.787	19.985	3.105	0.491
905.000	530.988	79.997	19.995	100.783	19.984	3.192	0.534
905.500	531.206	79.996	19.995	100.776	19.986	3.089	0.515
906.000	531.486	79.997	19.996	100.769	19.980	3.425	0.485
906.500	531.710	79.996	19.996	100.766	19.983	3.252	0.501
907.000	531.964	79.996	19.996	100.767	19.983	3.283	0.492
907.500	532.246	79.997	19.996	100.772	19.983	3.229	0.507
908.000	532.447	79.997	19.996	100.779	19.984	3.178	0.509
908.500	532.687	79.998	19.997	100.784	19.982	3.334	0.462
909.000	532.926	79.998	19.996	100.785	19.983	3.247	0.461
909.500	533.169	79.997	19.995	100.785	19.980	3.446	0.480
910.000	533.475	79.998	19.996	100.785	19.982	3.311	0.515
910.500	533.651	79.998	19.997	100.783	19.985	3.113	0.516
911.000	533.905	79.998	19.998	100.777	19.981	3.374	0.456
911.500	534.218	79.999	19.997	100.771	19.982	3.325	0.498
912.000	534.433	79.999	19.996	100.766	19.985	3.100	0.547
912.500	534.699	79.998	19.996	100.763	19.982	3.325	0.505
913.000	534.962	79.997	19.996	100.762	19.986	3.037	0.505
913.500	535.203	79.997	19.997	100.768	19.985	3.135	0.517
914.000	535.474	79.998	19.997	100.773	19.980	3.450	0.508
914.500	535.708	79.997	19.998	100.777	19.984	3.192	0.508
915.000	535.964	79.996	19.997	100.779	19.982	3.348	0.497
915.500	536.223	79.997	19.997	100.781	19.984	3.201	0.503
916.000	536.456	79.997	19.997	100.781	19.982	3.303	0.504
916.500	536.714	79.997	19.997	100.782	19.982	3.341	0.491
917.000	536.925	79.997	19.997	100.783	19.983	3.262	0.480
917.500	537.196	79.996	19.998	100.783	19.983	3.243	0.476
918.000	537.462	79.997	19.998	100.784	19.982	3.357	0.509
918.500	537.688	79.996	19.999	100.785	19.984	3.203	0.514
919.000	537.951	79.997	19.997	100.784	19.986	3.045	0.491
919.500	538.210	79.996	19.997	100.784	19.981	3.372	0.506
920.000	538.448	79.997	19.997	100.783	19.985	3.148	0.509
920.500	538.690	79.997	19.997	100.781	19.984	3.176	0.489
921.000	538.974	79.996	19.998	100.780	19.984	3.208	0.503
921.500	539.203	79.996	19.997	100.781	19.981	3.387	0.519
922.000	539.459	79.996	19.997	100.782	19.983	3.266	0.499
922.500	539.749	79.996	19.997	100.783	19.983	3.245	0.515
923.000	539.970	79.996	19.997	100.785	19.982	3.309	0.528
923.500	540.219	79.996	19.998	100.787	19.985	3.150	0.490
924.000	540.501	79.998	19.998	100.788	19.983	3.239	0.501
924.500	540.741	79.997	19.996	100.788	19.983	3.267	0.527
925.001	540.962	79.998	19.996	100.788	19.984	3.213	0.491
925.501	541.215	79.996	19.997	100.788	19.983	3.261	0.468
926.000	541.522	79.998	19.998	100.785	19.982	3.294	0.517
926.500	541.751	79.997	19.996	100.785	19.987	3.030	0.548
927.000	542.018	79.996	19.996	100.785	19.987	3.003	0.516
927.500	542.267	79.997	19.997	100.785	19.987	3.005	0.506
928.000	542.531	79.997	19.999	100.785	19.983	3.240	0.514
928.500	542.773	79.998	19.998	100.787	19.987	3.008	0.509
929.000	543.048	79.997	19.998	100.787	19.983	3.282	0.512
929.500	543.319	79.998	19.996	100.784	19.987	3.007	0.531
930.000	543.558	79.997	19.995	100.779	19.984	3.168	0.528
930.500	543.848	79.997	19.996	100.778	19.985	3.156	0.520
931.000	544.084	79.997	19.996	100.778	19.983	3.277	0.527
931.500	544.354	79.999	19.998	100.779	19.985	3.154	0.515
932.000	544.588	79.997	19.996	100.780	19.984	3.170	0.505
932.500	544.848	79.998	19.996	100.784	19.983	3.282	0.499
933.000	545.092	79.999	19.997	100.785	19.985	3.143	0.499
933.500	545.352	79.997	19.995	100.782	19.983	3.263	0.504
934.000	545.591	79.998	19.996	100.779	19.983	3.243	0.502
934.500	545.840	79.997	19.996	100.779	19.984	3.166	0.494
935.000	546.091	79.999	19.996	100.780	19.983	3.238	0.494
935.500	546.360	79.997	19.996	100.781	19.983	3.287	0.510
936.000	546.594	79.999	19.996	100.784	19.985	3.152	0.511
936.500	546.870	79.997	19.996	100.788	19.983	3.273	0.506
937.000	547.138	80.000	19.997	100.788	19.976	3.690	0.527
937.500	547.400	79.999	19.996	100.788	19.982	3.308	0.537
938.000	547.701	79.997	19.997	100.786	19.982	3.322	0.546
938.500	547.942	79.997	19.997	100.784	19.981	3.390	0.552
939.000	548.187	79.998	19.997	100.786	19.980	3.443	0.514
939.500	548.467	79.997	19.995	100.786	19.984	3.168	0.506
940.000	548.735	79.998	19.996	100.786	19.983	3.276	0.537
940.500	548.998	79.998	19.997	100.788	19.981	3.376	0.540
941.000	549.280	79.997	19.997	100.790	19.984	3.227	0.538
941.500	549.521	79.996	19.997	100.790	19.982	3.322	0.534
942.000	549.787	79.997	19.998	100.792	19.978	3.583	0.515
942.500	550.031	79.996	19.997	100.792	19.981	3.390	0.508
943.000	550.314	79.995	19.998	100.792	19.980	3.432	0.518
943.500	550.542	79.996	19.997	100.792	19.981	3.404	0.519
944.000	550.781	79.996	19.998	100.792	19.982	3.341	0.489
944.500	551.083	79.995	19.998	100.790	19.982	3.305	0.504
945.000	551.410	79.994	19.996	100.790	19.980	3.446	0.585
945.500	551.649	79.995	19.998	100.789	19.979	3.504	0.598
946.000	551.914	79.994	19.998	100.789	19.984	3.226	0.535
946.500	552.180	79.995	19.996	100.789	19.985	3.143	0.517
947.000	552.437	79.995	19.998	100.789	19.984	3.217	0.526
947.500	552.706	79.995	19.997	100.790	19.985	3.107	0.524
948.000	552.967	79.994	19.998	100.789	19.985	3.161	0.528
948.500	553.256	79.993	19.997	100.790	19.990	2.777	0.540
949.000	553.521	79.995	19.997	100.789	19.986	3.082	0.553
949.500	553.785	79.995	19.997	100.789	19.985	3.126	0.542
950.000	554.050	79.994	19.996	100.789	19.987	3.031	0.529
950.500	554.306	79.995	19.997	100.789	19.986	3.040	0.525
951.000	554.588	79.995	19.997	100.789	19.986	3.091	0.530
951.500	554.823	79.995	19.997	100.790	19.986	3.084	0.528
952.000	555.117	79.994	19.998	100.790	19.987	2.984	0.523
952.500	555.385	79.996	19.996	100.791	19.984	3.203	0.545
953.000	555.662	79.995	19.997	100.792	19.986	3.093	0.553
953.500	555.946	79.994	19.998	100.792	19.988	2.949	0.553
954.000	556.217	79.995	19.997	100.792	19.984	3.173	0.558
954.500	556.445	79.995	19.997	100.792	19.985	3.101	0.527
955.000	556.722	79.995	19.996	100.791	19.986	3.098	0.502
955.500	556.983	79.995	19.997	100.791	19.989	2.891	0.521
956.000	557.258	79.995	19.997	100.791	19.984	3.201	0.537
956.500	557.545	79.995	19.996	100.790	19.987	3.010	0.549
957.000	557.777	79.996	19.996	100.789	19.985	3.121	0.541
957.500	558.081	79.995	19.997	100.788	19.986	3.080	0.528
958.000	558.326	79.994	19.997	100.788	19.983	3.266	0.543
958.500	558.581	79.995	19.996	100.787	19.984	3.178	0.524
959.000	558.900	79.996	19.995	100.788	19.987	2.998	0.537
959.500	559.153	79.996	19.996	100.788	19.983	3.268	0.573
960.000	559.429	79.995	19.997	100.788	19.987	3.033	0.551
960.500	559.703	79.996	19.997	100.788	19.985	3.157	0.539
961.000	559.986	79.997	19.997	100.789	19.984	3.164	0.554
961.500	560.243	79.995	19.997	100.789	19.980	3.452	0.549
962.000	560.557	79.996	19.997	100.790	19.981	3.362	0.556
962.500	560.803	79.997	19.997	100.790	19.984	3.170	0.566
963.000	561.118	79.996	19.996	100.790	19.985	3.122	0.560
963.500	561.362	79.997	19.995	100.790	19.982	3.296	0.560
964.000	561.649	79.997	19.996	100.791	19.985	3.115	0.545
964.500	561.966	79.996	19.997	100.791	19.983	3.289	0.567
965.000	562.231	79.996	19.996	100.791	19.987	2.974	0.593
965.500	562.511	79.995	19.997	100.791	19.984	3.184	0.563
966.000	562.749	79.997	19.998	100.791	19.985	3.142	0.532
966.500	563.050	79.996	19.995	100.790	19.985	3.142	0.529
967.000	563.353	79.996	19.996	100.789	19.979	3.509	0.572
967.500	563.604	79.996	19.997	100.788	19.984	3.199	0.579
968.000	563.892	79.997	19.997	100.788	19.986	3.056	0.546
968.500	564.167	79.997	19.997	100.788	19.987	3.007	0.551
969.001	564.456	79.998	19.997	100.788	19.989	2.870	0.564
969.500	564.736	79.996	19.996	100.788	19.984	3.173	0.567
970.000	565.015	79.996	19.997	100.789	19.985	3.133	0.564
970.501	565.309	79.996	19.996	100.789	19.985	3.138	0.566
971.000	565.553	79.996	19.997	100.789	19.986	3.089	0.555
971.500	565.863	79.996	19.997	100.789	19.985	3.152	0.546
972.000	566.148	79.996	19.996	100.790	19.981	3.364	0.575
972.500	566.427	79.997	19.996	100.790	19.982	3.334	0.580
973.000	566.733	79.997	19.997	100.790	19.989	2.902	0.574
973.500	566.987	79.996	19.997	100.789	19.986	3.058	0.573
974.000	567.310	79.997	19.996	100.789	19.985	3.121	0.569
974.500	567.542	79.995	19.997	100.789	19.985	3.154	0.565
975.000	567.866	79.995	19.996	100.790	19.987	3.033	0.555
975.500	568.136	79.997	19.995	100.792	19.988	2.968	0.576
976.000	568.404	79.995	19.997	100.792	19.987	2.995	0.566
976.500	568.710	79.995	19.998	100.791	19.986	3.089	0.556
977.000	568.965	79.995	19.997	100.791	19.987	2.982	0.568
977.500	569.267	79.994	19.998	100.789	19.988	2.968	0.559
978.000	569.574	79.996	19.997	100.788	19.984	3.226	0.582
978.500	569.834	79.996	19.997	100.788	19.987	3.017	0.588
979.000	570.168	79.996	19.997	100.788	19.986	3.042	0.581
979.500	570.453	79.995	19.997	100.789	19.988	2.918	0.606
980.000	570.733	79.995	19.996	100.790	19.985	3.105	0.592
980.500	571.035	79.995	19.996	100.790	19.984	3.209	0.574
981.000	571.310	79.995	19.997	100.790	19.987	2.974	0.580
981.500	571.603	79.995	19.998	100.789	19.987	3.011	0.572
982.000	571.910	79.995	19.998	100.789	19.983	3.247	0.584
982.500	572.175	79.996	19.998	100.789	19.983	3.230	0.586
983.000	572.491	79.996	19.998	100.789	19.986	3.098	0.576
983.500	572.776	79.996	19.997	100.790	19.985	3.158	0.591
984.000	573.102	79.996	19.996	100.791	19.989	2.883	0.606
984.500	573.411	79.996	19.996	100.790	19.987	3.022	0.623
985.000	573.682	79.996	19.997	100.789	19.989	2.882	0.607
985.500	573.965	79.995	19.996	100.789	19.988	2.913	0.567
986.000	574.250	79.995	19.996	100.788	19.992	2.673	0.562
986.500	574.522	79.996	19.998	100.789	19.996	2.401	0.563
987.000	574.830	79.997	19.997	100.792	19.992	2.669	0.568
987.500	575.159	79.996	19.996	100.795	19.993	2.592	0.609
988.000	575.464	79.998	19.998	100.795	19.992	2.704	0.636
988.500	575.754	79.997	19.997	100.795	19.992	2.699	0.614
989.000	576.050	79.998	19.997	100.796	19.994	2.568	0.590
989.500	576.323	79.998	19.998	100.795	19.995	2.459	0.578
990.000	576.628	79.999	19.997	100.794	20.000	2.187	0.574
990.500	576.870	79.998	19.995	100.796	19.997	2.331	0.563
991.000	577.161	79.998	19.996	100.803	19.999	2.203	0.540
991.500	577.455	79.999	19.996	100.810	20.001	2.109	0.560
992.000	577.776	79.997	19.995	100.814	20.004	1.925	0.600
992.500	578.018	79.997	19.996	100.815	19.999	2.194	0.588
993.000	578.305	79.999	19.997	100.813	20.001	2.107	0.546
993.500	578.581	79.998	19.997	100.810	20.001	2.093	0.546
994.000	578.900	79.998	19.996	100.806	20.001	2.070	0.579
994.500	579.189	79.998	19.996	100.807	20.001	2.122	0.601
995.000	579.489	79.998	19.997	100.809	20.002	2.021	0.598
995.500	579.730	79.997	19.996	100.815	20.005	1.809	0.565
996.000	580.032	79.996	19.996	100.817	20.003	1.986	0.542
996.500	580.323	79.996	19.996	100.816	20.000	2.172	0.568
997.000	580.618	79.997	19.996	100.812	20.001	2.093	0.590
997.500	580.868	79.997	19.996	100.811	20.001	2.110	0.566
998.000	581.143	79.997	19.996	100.807	20.001	2.065	0.535
998.500	581.476	79.998	19.996	100.805	20.000	2.138	0.566
999.000	581.735	79.997	19.995	100.807	20.004	1.904	0.600
999.500	582.041	79.998	19.997	100.805	19.997	2.334	0.579
1000.000	582.328	79.997	19.998	100.802	19.999	2.229	0.579
1000.500	582.630	79.997	19.997	100.800	19.998	2.312	0.591
1001.000	582.882	79.997	19.996	100.797	19.999	2.242	0.572
1001.500	583.179	79.998	19.996	100.797	19.997	2.350	0.552
1002.001	583.469	79.997	19.996	100.800	20.002	2.009	0.568
1002.501	583.765	79.997	19.997	100.801	19.999	2.249	0.586
1003.000	584.062	79.997	19.996	100.801	20.000	2.165	0.590
1003.500	584.335	79.997	19.996	100.800	19.997	2.355	0.582
1004.000	584.587	79.996	19.998	100.796	19.993	2.595	0.547
1004.500	584.899	79.997	19.996	100.793	19.999	2.245	0.544
1005.000	585.182	79.997	19.997	100.791	19.997	2.364	0.580
1005.500	585.458	79.996	19.996	100.791	19.989	2.856	0.577
1006.000	585.761	79.998	19.997	100.792	19.993	2.644	0.569
1006.500	586.011	79.996	19.996	100.792	19.992	2.658	0.566
1007.000	586.316	79.996	19.995	100.791	19.993	2.643	0.554
1007.500	586.567	79.997	19.997	100.792	19.992	2.669	0.556
1008.000	586.852	79.998	19.997	100.792	19.994	2.564	0.546
1008.500	587.152	79.996	19.997	100.791	19.993	2.643	0.561
1009.000	587.439	79.996	19.997	100.790	19.993	2.601	0.586
1009.500	587.692	79.997	19.997	100.791	19.992	2.704	0.563
1010.000	587.995	79.997	19.998	100.790	19.990	2.805	0.548
1010.500	588.289	79.996	19.996	100.791	19.989	2.888	0.576
1011.000	588.564	79.996	19.995	100.790	19.986	3.054	0.582
1011.500	588.849	79.997	19.996	100.791	19.990	2.798	0.565
1012.000	589.157	79.997	19.997	100.790	19.990	2.794	0.577
1012.500	589.412	79.997	19.997	100.790	19.988	2.907	0.578
1013.000	589.711	79.998	19.997	100.790	19.991	2.717	0.558
1013.500	590.005	79.997	19.997	100.791	19.991	2.770	0.574
1014.000	590.268	79.999	19.996	100.791	19.988	2.924	0.575
1014.500	590.551	79.998	19.996	100.791	19.988	2.961	0.552
1015.000	590.856	79.998	19.996	100.792	19.987	3.003	0.567
1015.500	591.118	79.999	19.996	100.792	19.990	2.819	0.578
1016.000	591.406	79.997	19.996	100.791	19.994	2.578	0.558
1016.500	591.686	79.997	19.995	100.791	19.986	3.038	0.559
1017.000	592.002	79.998	19.995	100.790	19.983	3.234	0.582
1017.500	592.251	79.998	19.995	100.791	19.989	2.868	0.581
1018.000	592.521	79.998	19.996	100.791	19.989	2.891	0.542
1018.500	592.826	79.997	19.995	100.791	19.990	2.828	0.547
1019.000	593.074	79.999	19.997	100.791	19.987	2.984	0.564
1019.500	593.328	79.998	19.994	100.791	19.988	2.921	0.527
1020.000	593.642	79.998	19.997	100.790	19.987	3.033	0.535
1020.500	593.932	79.998	19.996	100.790	19.988	2.959	0.586
1021.000	594.228	79.998	19.996	100.789	19.983	3.241	0.595
1021.500	594.502	79.998	19.997	100.789	19.986	3.089	0.578
1022.000	594.788	79.998	19.995	100.786	19.984	3.166	0.565
1022.500	595.069	79.998	19.997	100.780	19.985	3.106	0.564
1023.000	595.356	79.998	19.997	100.774	19.985	3.119	0.568
1023.500	595.611	79.998	19.997	100.773	19.986	3.078	0.555
1024.000	595.889	79.996	19.996	100.773	19.985	3.105	0.537
1024.500	596.151	79.996	19.995	100.774	19.986	3.066	0.537
1025.000	596.433	79.996	19.996	100.780	19.986	3.070	0.543
1025.500	596.732	79.995	19.996	100.785	19.981	3.380	0.563
1026.000	597.007	79.995	19.996	100.787	19.983	3.234	0.577
1026.500	597.257	79.997	19.997	100.787	19.984	3.203	0.549
1027.000	597.557	79.997	19.997	100.787	19.982	3.353	0.537
1027.500	597.834	79.997	19.998	100.787	19.986	3.064	0.563
1028.000	598.129	79.995	19.996	100.788	19.988	2.950	0.575
1028.500	598.420	79.996	19.997	100.788	19.987	2.987	0.579
1029.000	598.655	79.996	19.996	100.787	19.981	3.418	0.556
1029.500	598.951	79.996	19.996	100.786	19.983	3.243	0.529
1030.000	599.255	79.996	19.998	100.786	19.988	2.945	0.565
1030.500	599.499	79.995	19.996	100.785	19.985	3.117	0.574
1031.000	599.743	79.995	19.997	100.785	19.982	3.353	0.518
1031.500	600.049	79.995	19.997	100.784	19.984	3.194	0.518
1032.000	600.327	79.994	19.999	100.783	19.980	3.476	0.567
1032.500	600.600	79.995	19.999	100.783	19.986	3.098	0.568
1033.000	600.885	79.994	19.998	100.783	19.981	3.369	0.555
1033.501	601.158	79.994	19.998	100.783	19.982	3.351	0.558
1034.001	601.431	79.995	19.997	100.780	19.984	3.225	0.552
1034.500	601.710	79.995	19.998	100.780	19.983	3.258	0.549
1035.000	601.953	79.994	19.998	100.779	19.985	3.101	0.537
1035.500	602.212	79.995	19.996	100.778	19.983	3.267	0.512
1036.000	602.492	79.994	19.996	100.779	19.981	3.358	0.520
1036.500	602.761	79.995	19.998	100.780	19.984	3.166	0.544
1037.000	603.040	79.995	19.999	100.778	19.986	3.057	0.549
1037.500	603.312	79.995	19.997	100.777	19.983	3.245	0.550
1038.000	603.570	79.995	19.998	100.776	19.984	3.199	0.541
1038.500	603.792	79.995	19.997	100.776	19.980	3.483	0.505
1039.000	604.093	79.995	19.997	100.778	19.985	3.154	0.501
1039.500	604.359	79.995	19.997	100.783	19.984	3.196	0.545
1040.000	604.624	79.995	19.998	100.784	19.981	3.399	0.549
1040.500	604.897	79.995	19.997	100.785	19.980	3.425	0.535
1041.000	605.194	79.996	19.997	100.784	19.980	3.427	0.553
1041.500	605.462	79.997	19.999	100.785	19.983	3.289	0.567
1042.000	605.718	79.997	19.999	100.785	19.983	3.269	0.545
1042.500	605.996	79.995	19.998	100.785	19.981	3.394	0.530
1043.000	606.264	79.996	19.997	100.784	19.978	3.555	0.540
1043.500	606.551	79.996	19.997	100.783	19.981	3.364	0.550
1044.000	606.783	79.995	19.998	100.778	19.983	3.292	0.537
1044.500	607.079	79.997	19.997	100.774	19.982	3.353	0.524
1045.000	607.318	79.997	19.997	100.769	19.984	3.176	0.531
1045.501	607.579	79.997	19.997	100.765	19.983	3.257	0.517
1046.001	607.856	79.996	19.997	100.762	19.982	3.344	0.519
1046.500	608.106	79.998	19.999	100.767	19.982	3.341	0.533
1047.000	608.386	79.997	19.996	100.770	19.982	3.336	0.529
1047.501	608.633	79.997	19.996	100.776	19.986	3.098	0.529
1048.001	608.915	79.998	19.996	100.778	19.982	3.294	0.528
1048.500	609.190	79.998	19.996	100.779	19.982	3.315	0.543
1049.001	609.461	79.997	19.996	100.779	19.980	3.436	0.552
1049.501	609.716	79.997	19.996	100.779	19.981	3.406	0.536
1050.001	609.978	79.997	19.997	100.778	19.981	3.420	0.522
1050.500	610.243	79.997	19.997	100.780	19.980	3.478	0.522
1051.000	610.516	79.998	19.997	100.783	19.978	3.611	0.532
1051.500	610.796	79.997	19.996	100.784	19.981	3.364	0.546
1052.000	611.033	79.997	19.996	100.785	19.979	3.532	0.535
1052.500	611.262	79.995	19.996	100.785	19.978	3.614	0.491
1053.000	611.564	79.997	19.997	100.788	19.983	3.262	0.498
1053.500	611.787	79.997	19.998	100.788	19.980	3.439	0.528
1054.000	612.055	79.996	19.997	100.785	19.984	3.189	0.508
1054.500	612.306	79.996	19.996	100.782	19.981	3.406	0.505
1055.000	612.561	79.994	19.997	100.782	19.979	3.544	0.512
1055.500	612.845	79.997	19.996	100.782	19.980	3.476	0.522
1056.000	613.099	79.996	19.996	100.780	19.980	3.460	0.539
1056.500	613.381	79.996	19.997	100.779	19.980	3.451	0.537
1057.000	613.649	79.996	19.995	100.778	19.977	3.639	0.543
1057.500	613.894	79.995	19.996	100.778	19.982	3.336	0.531
1058.001	614.171	79.995	19.998	100.779	19.981	3.409	0.517
1058.501	614.462	79.997	19.996	100.780	19.977	3.651	0.545
1059.000	614.731	79.996	19.996	100.784	19.978	3.604	0.564
1059.500	614.958	79.999	19.997	100.786	19.979	3.504	0.528
1060.000	615.214	79.996	19.997	100.785	19.979	3.499	0.490
1060.500	615.491	79.995	19.997	100.785	19.984	3.178	0.508
1061.000	615.724	79.996	19.996	100.786	19.982	3.345	0.521
1061.500	615.979	79.995	19.997	100.787	19.978	3.606	0.500
1062.000	616.244	79.997	19.996	100.790	19.981	3.376	0.504
1062.500	616.506	79.997	19.996	100.792	19.978	3.597	0.523
1063.000	616.749	79.996	19.995	100.788	19.981	3.381	0.516
1063.500	617.021	79.996	19.997	100.786	19.979	3.488	0.510
1064.000	617.260	79.997	19.997	100.786	19.980	3.472	0.513
1064.500	617.507	79.997	19.998	100.785	19.977	3.642	0.499
1065.000	617.773	79.998	19.997	100.785	19.979	3.539	0.500
1065.500	618.028	79.997	19.997	100.789	19.981	3.367	0.517
1066.000	618.341	79.996	19.996	100.788	19.978	3.576	0.544
1066.500	618.543	79.995	19.996	100.788	19.980	3.478	0.542
1067.000	618.805	79.997	19.997	100.788	19.979	3.551	0.489
1067.500	619.072	79.996	19.997	100.785	19.980	3.432	0.496
1068.000	619.325	79.996	19.998	100.783	19.982	3.308	0.525
1068.500	619.599	79.996	19.997	100.785	19.979	3.513	0.524
1069.001	619.848	79.997	19.996	100.785	19.979	3.527	0.525
1069.501	620.075	79.996	19.997	100.785	19.978	3.573	0.499
1070.000	620.383	79.996	19.996	100.787	19.978	3.564	0.506
1070.500	620.580	79.996	19.997	100.789	19.978	3.578	0.520
1071.000	620.824	79.997	19.996	100.790	19.979	3.531	0.473
1071.500	621.100	79.997	19.996	100.790	19.982	3.343	0.481
1072.000	621.372	79.997	19.995	100.790	19.976	3.725	0.534
1072.500	621.606	79.997	19.997	100.789	19.978	3.557	0.526
1073.000	621.819	79.999	19.997	100.786	19.980	3.478	0.476
1073.500	622.116	79.997	19.996	100.786	19.978	3.573	0.479
1074.000	622.377	79.997	19.995	100.786	19.980	3.434	0.535
1074.500	622.599	79.998	19.996	100.784	19.978	3.585	0.521
1075.000	622.880	79.997	19.996	100.782	19.979	3.501	0.493
1075.500	623.125	79.999	19.996	100.784	19.975	3.770	0.514
1076.000	623.388	79.999	19.997	100.784	19.975	3.763	0.517
1076.500	623.672	79.998	19.996	100.785	19.975	3.746	0.527
1077.000	623.914	79.998	19.996	100.786	19.978	3.578	0.536
1077.500	624.111	79.999	19.997	100.790	19.978	3.581	0.483
1078.000	624.411	79.997	19.995	100.790	19.978	3.615	0.468
1078.500	624.668	79.998	19.995	100.791	19.979	3.501	0.527
1079.000	624.906	79.997	19.995	100.790	19.979	3.522	0.526
1079.500	625.146	79.997	19.996	100.791	19.977	3.644	0.486
1080.000	625.386	79.998	19.996	100.791	19.972	3.940	0.479
1080.500	625.623	79.997	19.996	100.791	19.974	3.854	0.479
1081.000	625.917	79.997	19.996	100.791	19.976	3.707	0.504
1081.500	626.164	79.997	19.995	100.791	19.975	3.749	0.536
1082.000	626.384	79.998	19.997	100.792	19.975	3.790	0.504
1082.500	626.642	79.997	19.996	100.792	19.976	3.707	0.472
1083.000	626.898	79.995	19.995	100.792	19.975	3.760	0.496
1083.500	627.158	79.996	19.997	100.792	19.977	3.665	0.515
1084.000	627.424	79.996	19.996	100.792	19.976	3.681	0.521
1084.500	627.656	79.996	19.997	100.793	19.975	3.767	0.512
1085.000	627.899	79.998	19.996	100.793	19.976	3.725	0.486
1085.500	628.172	79.998	19.997	100.792	19.974	3.870	0.496
1086.000	628.399	79.997	19.995	100.792	19.976	3.719	0.508
1086.500	628.678	79.998	19.995	100.791	19.976	3.691	0.503
1087.000	628.910	79.998	19.998	100.791	19.974	3.812	0.508
1087.500	629.178	79.998	19.996	100.790	19.973	3.917	0.505
1088.000	629.376	79.998	19.997	100.790	19.978	3.606	0.483
1088.500	629.645	79.997	19.996	100.790	19.973	3.910	0.467
1089.000	629.904	79.998	19.996	100.790	19.977	3.627	0.497
1089.500	630.189	79.998	19.996	100.790	19.978	3.579	0.536
1090.000	630.400	79.996	19.996	100.789	19.976	3.726	0.520
1090.500	630.650	79.997	19.995	100.788	19.981	3.420	0.479
1091.000	630.922	79.997	19.996	100.788	19.975	3.769	0.492
1091.500	631.151	79.998	19.997	100.788	19.976	3.739	0.511
1092.000	631.405	79.997	19.996	100.788	19.974	3.874	0.492
1092.500	631.687	79.998	19.995	100.788	19.973	3.886	0.510
1093.000	631.952	79.998	19.996	100.788	19.975	3.751	0.541
1093.500	632.146	79.997	19.995	100.789	19.976	3.705	0.503
1094.000	632.363	79.998	19.995	100.788	19.975	3.755	0.436
1094.500	632.653	79.997	19.996	100.787	19.978	3.564	0.459
1095.000	632.886	79.996	19.998	100.787	19.975	3.783	0.515
1095.500	633.142	79.998	19.997	100.785	19.977	3.679	0.506
1096.000	633.404	79.998	19.996	100.782	19.979	3.492	0.503
1096.501	633.646	79.998	19.996	100.780	19.978	3.595	0.511
1097.001	633.917	80.000	19.997	100.779	19.973	3.909	0.508
1097.500	634.157	79.999	19.996	100.779	19.979	3.532	0.512
1098.000	634.374	79.997	19.996	100.781	19.976	3.683	0.485
1098.500	634.658	79.998	19.996	100.783	19.976	3.683	0.479
1099.000	634.888	79.999	19.996	100.785	19.976	3.728	0.507
1099.500	635.146	79.999	19.997	100.785	19.977	3.664	0.501
1100.001	635.444	79.999	19.996	100.785	19.975	3.800	0.522
1100.501	635.649	79.999	19.997	100.786	19.977	3.678	0.529
1101.000	635.942	79.997	19.996	100.787	19.979	3.548	0.500
1101.500	636.178	79.998	19.996	100.787	19.977	3.618	0.513
1102.000	636.415	79.998	19.997	100.788	19.976	3.684	0.501
1102.500	636.654	79.998	19.997	100.787	19.976	3.695	0.475
1103.000	636.895	79.997	19.998	100.787	19.977	3.648	0.478
1103.500	637.129	79.996	19.997	100.787	19.973	3.937	0.478
1104.000	637.404	79.997	19.998	100.787	19.975	3.763	0.492
1104.500	637.678	79.998	19.999	100.787	19.973	3.933	0.529
1105.000	637.923	79.995	19.997	100.787	19.972	3.965	0.534
1105.500	638.144	79.996	19.996	100.787	19.975	3.758	0.493
1106.000	638.420	79.994	19.997	100.787	19.977	3.636	0.481
1106.500	638.676	79.996	19.997	100.788	19.977	3.660	0.514
1107.000	638.912	79.995	19.997	100.793	19.977	3.629	0.512
1107.500	639.184	79.995	19.997	100.793	19.976	3.697	0.500
1108.000	639.426	79.996	19.998	100.794	19.979	3.523	0.511
1108.500	639.668	79.994	19.999	100.794	19.975	3.755	0.499
1109.001	639.883	79.995	19.997	100.794	19.974	3.847	0.470
1109.501	640.150	79.996	19.997	100.788	19.976	3.732	0.469
1110.000	640.428	79.996	19.998	100.789	19.971	4.033	0.513
1110.500	640.661	79.996	19.997	100.790	19.974	3.847	0.528
1111.000	640.911	79.996	19.996	100.790	19.978	3.578	0.497
1111.500	641.135	79.996	19.997	100.789	19.973	3.928	0.479
1112.000	641.412	79.996	19.997	100.789	19.974	3.842	0.487
1112.500	641.661	79.996	19.998	100.787	19.974	3.811	0.513
1113.000	641.905	79.995	19.996	100.787	19.976	3.716	0.510
1113.500	642.131	79.995	19.996	100.787	19.976	3.734	0.482
1114.000	642.419	79.995	19.996	100.789	19.976	3.685	0.492
1114.500	642.669	79.997	19.997	100.789	19.972	3.993	0.526
1115.000	642.905	79.995	19.996	100.790	19.975	3.809	0.512
1115.500	643.155	79.995	19.995	100.793	19.972	3.942	0.486
1116.000	643.394	79.995	19.998	100.796	19.975	3.748	0.488
1116.500	643.656	79.995	19.998	100.795	19.975	3.802	0.495
1117.000	643.881	79.996	19.998	100.795	19.974	3.858	0.494
1117.500	644.167	79.997	19.996	100.794	19.972	3.946	0.499
1118.000	644.355	79.996	19.997	100.790	19.973	3.928	0.492
1118.500	644.621	79.995	19.996	100.788	19.970	4.114	0.464
1119.000	644.865	79.996	19.998	100.789	19.974	3.855	0.482
1119.500	645.121	79.996	19.997	100.790	19.971	4.061	0.505
1120.000	645.358	79.996	19.997	100.790	19.971	4.063	0.497
1120.500	645.631	79.995	19.998	100.793	19.974	3.837	0.501
1121.000	645.853	79.994	19.997	100.792	19.975	3.790	0.502
1121.500	646.089	79.996	19.998	100.792	19.975	3.806	0.476
1122.000	646.381	79.998	19.997	100.792	19.973	3.935	0.493
1122.500	646.623	79.994	19.997	100.792	19.974	3.821	0.531
1123.000	646.854	79.995	19.998	100.791	19.977	3.678	0.504
1123.500	647.076	79.995	19.998	100.792	19.977	3.638	0.463
1124.000	647.368	79.994	19.998	100.793	19.976	3.745	0.484
1124.500	647.572	79.995	19.998	100.792	19.972	3.981	0.505
1125.000	647.858	79.996	19.997	100.792	19.976	3.698	0.493
1125.500	648.064	79.995	19.998	100.792	19.972	3.964	0.491
1126.000	648.380	79.995	19.997	100.795	19.975	3.806	0.507
1126.500	648.572	79.996	19.998	100.797	19.973	3.916	0.515
1127.000	648.863	79.995	19.997	100.802	19.972	3.944	0.495
1127.500	649.072	79.996	19.997	100.803	19.975	3.797	0.492
1128.001	649.304	79.995	19.998	100.803	19.975	3.787	0.470
1128.501	649.592	79.996	19.999	100.803	19.972	3.972	0.481
1129.000	649.843	79.994	19.999	100.800	19.973	3.939	0.530
1129.500	650.105	79.996	19.996	100.799	19.971	4.037	0.526
1130.000	650.358	79.994	19.998	100.799	19.970	4.095	0.514
1130.500	650.603	79.994	19.998	100.801	19.976	3.687	0.507
1131.000	650.843	79.994	19.998	100.798	19.974	3.836	0.492
1131.500	651.089	79.995	19.997	100.799	19.973	3.926	0.486
1132.000	651.328	79.995	19.998	100.797	19.971	4.059	0.485
1132.500	651.583	79.995	19.998	100.798	19.979	3.544	0.489
1133.000	651.865	79.996	19.997	100.796	19.972	3.959	0.515
1133.501	652.091	79.995	19.997	100.796	19.971	4.038	0.522
1134.001	652.364	79.994	19.997	100.795	19.974	3.869	0.503
1134.500	652.592	79.996	19.998	100.799	19.974	3.818	0.500
1135.000	652.853	79.995	19.998	100.803	19.973	3.890	0.495
1135.500	653.121	79.995	19.996	100.807	19.970	4.097	0.509
1136.000	653.365	79.995	19.997	100.811	19.973	3.934	0.521
1136.500	653.610	79.996	19.999	100.815	19.977	3.655	0.501
1137.000	653.890	79.995	19.997	100.814	19.973	3.899	0.507
1137.500	654.104	79.996	19.997	100.810	19.974	3.817	0.509
1138.000	654.373	79.996	19.997	100.809	19.977	3.670	0.488
1138.500	654.616	79.995	19.996	100.808	19.974	3.859	0.498
1139.000	654.856	79.996	19.997	100.806	19.975	3.771	0.497
1139.500	655.106	79.996	19.997	100.803	19.971	4.058	0.486
1140.000	655.376	79.996	19.996	100.806	19.979	3.529	0.505
1140.500	655.639	79.995	19.997	100.807	19.972	4.002	0.526
1141.000	655.882	79.995	19.997	100.808	19.975	3.796	0.520
1141.501	656.100	79.995	19.996	100.813	19.973	3.883	0.483
1142.001	656.379	79.995	19.997	100.815	19.976	3.728	0.479
1142.500	656.614	79.996	19.997	100.817	19.978	3.580	0.506
1143.000	656.911	79.994	19.997	100.819	19.975	3.747	0.523
1143.500	657.120	79.995	19.996	100.820	19.974	3.816	0.519
1144.000	657.359	79.993	19.995	100.816	19.972	4.004	0.477
1144.500	657.629	79.995	19.997	100.816	19.971	4.005	0.479
1145.000	657.912	79.994	19.996	100.812	19.978	3.575	0.531
1145.500	658.131	79.994	19.997	100.807	19.975	3.801	0.527
1146.000	658.386	79.994	19.996	100.806	19.971	4.034	0.488
1146.500	658.641	79.996	19.997	100.804	19.978	3.616	0.492
1147.000	658.862	79.997	19.996	100.805	19.972	3.955	0.493
1147.500	659.135	79.996	19.996	100.808	19.975	3.769	0.485
1148.000	659.407	79.999	19.996	100.811	19.972	3.999	0.519
1148.500	659.624	79.995	19.995	100.810	19.973	3.881	0.517
1149.000	659.892	79.997	19.996	100.811	19.974	3.832	0.487
1149.500	660.176	79.996	19.996	100.809	19.973	3.901	0.519
1150.000	660.378	79.997	19.995	100.806	19.971	4.060	0.519
1150.500	660.672	79.998	19.996	100.803	19.969	4.148	0.491
1151.000	660.901	79.996	19.995	100.806	19.971	4.062	0.509
1151.500	661.157	79.998	19.996	100.812	19.973	3.906	0.504
1152.000	661.421	79.997	19.997	100.816	19.970	4.073	0.503
1152.500	661.722	79.998	19.996	100.817	19.973	3.899	0.543
1153.000	661.952	79.997	19.996	100.818	19.971	4.020	0.548
1153.500	662.163	79.996	19.997	100.816	19.972	3.998	0.486
1154.000	662.437	79.997	19.998	100.809	19.971	4.048	0.463
1154.500	662.717	79.997	19.996	100.805	19.973	3.903	0.519
1155.000	662.905	79.998	19.996	100.799	19.972	3.954	0.511
1155.500	663.152	79.996	19.996	100.797	19.972	4.005	0.452
1156.000	663.460	79.998	19.997	100.800	19.971	4.042	0.495
1156.500	663.697	79.997	19.995	100.807	19.977	3.647	0.550
1157.000	663.899	79.998	19.996	100.813	19.966	4.338	0.492
1157.500	664.180	79.997	19.997	100.820	19.970	4.124	0.461
1158.000	664.400	79.997	19.996	100.819	19.974	3.852	0.492
1158.501	664.598	79.997	19.997	100.813	19.970	4.077	0.460
1159.001	664.927	79.998	19.997	100.812	19.972	3.964	0.473
1159.500	665.172	79.997	19.997	100.808	19.970	4.131	0.551
1160.000	665.409	79.997	19.996	100.807	19.970	4.131	0.528
1160.500	665.674	79.997	19.998	100.811	19.968	4.222	0.492
1161.000	665.890	79.996	19.997	100.816	19.971	4.057	0.491
1161.500	666.169	79.995	19.998	100.816	19.970	4.073	0.488
1162.000	666.382	79.997	19.997	100.817	19.970	4.096	0.494
1162.501	666.648	79.998	19.997	100.817	19.967	4.281	0.486
1163.001	666.914	79.997	19.996	100.819	19.973	3.894	0.505
1163.500	667.127	79.996	19.997	100.820	19.972	3.973	0.505
1164.000	667.391	79.996	19.997	100.821	19.972	3.950	0.478
1164.500	667.668	79.997	19.996	100.822	19.969	4.167	0.509
1165.000	667.882	79.996	19.997	100.824	19.968	4.234	0.516
1165.500	668.111	79.996	19.995	100.824	19.968	4.241	0.467
1166.000	668.358	79.997	19.996	100.824	19.969	4.164	0.460
1166.500	668.646	79.997	19.997	100.825	19.968	4.203	0.505
1167.000	668.902	79.997	19.997	100.828	19.971	4.044	0.539
1167.500	669.103	79.997	19.997	100.828	19.971	4.052	0.501
1168.000	669.381	79.996	19.996	100.828	19.971	4.026	0.468
1168.500	669.626	79.998	19.997	100.828	19.972	4.000	0.501
1169.000	669.889	79.996	19.996	100.828	19.968	4.206	0.515
1169.500	670.166	79.998	19.996	100.828	19.969	4.145	0.524
1170.001	670.418	79.996	19.996	100.824	19.970	4.071	0.535
1170.501	670.644	79.997	19.998	100.822	19.972	3.956	0.503
1171.000	670.883	79.997	19.996	100.820	19.971	4.024	0.471
1171.500	671.175	79.997	19.996	100.817	19.974	3.835	0.498
1172.000	671.451	79.998	19.996	100.816	19.970	4.085	0.550
1172.501	671.669	79.999	19.996	100.820	19.972	3.968	0.531
1173.001	671.960	79.997	19.996	100.821	19.973	3.926	0.501
1173.501	672.210	79.998	19.995	100.823	19.969	4.159	0.525
1174.001	672.437	79.997	19.996	100.823	19.971	4.050	0.509
1174.501	672.700	79.998	19.996	100.822	19.972	3.968	0.483
1175.000	672.984	79.998	19.997	100.822	19.968	4.243	0.519
1175.500	673.254	79.999	19.997	100.823	19.971	4.031	0.551
1176.000	673.473	79.998	19.996	100.825	19.970	4.115	0.521
1176.500	673.791	79.998	19.996	100.829	19.974	3.851	0.513
1177.000	674.011	79.998	19.997	100.830	19.969	4.164	0.538
1177.500	674.285	79.999	19.998	100.836	19.975	3.800	0.516
1178.000	674.530	80.000	19.997	100.836	19.972	3.968	0.506
1178.500	674.784	79.998	19.996	100.834	19.973	3.917	0.509
1179.000	675.046	80.000	19.997	100.833	19.972	3.961	0.507
1179.500	675.296	80.000	19.996	100.833	19.976	3.744	0.514
1180.000	675.553	79.999	19.998	100.827	19.972	4.005	0.510
1180.500	675.840	79.998	19.996	100.827	19.974	3.858	0.526
1181.000	676.115	80.001	19.997	100.827	19.973	3.916	0.553
1181.500	676.363	79.999	19.996	100.827	19.975	3.786	0.542
1182.000	676.643	79.999	19.996	100.827	19.976	3.690	0.525
1182.500	676.881	79.998	19.996	100.827	19.971	4.060	0.523
1183.000	677.171	79.998	19.995	100.827	19.972	3.993	0.523
1183.500	677.379	79.999	19.996	100.827	19.971	4.033	0.513
1184.000	677.649	79.998	19.996	100.826	19.970	4.116	0.488
1184.501	677.917	79.997	19.996	100.825	19.970	4.113	0.507
1185.001	678.221	79.999	19.997	100.825	19.973	3.929	0.555
1185.501	678.445	79.996	19.996	100.828	19.975	3.759	0.550
1186.000	678.720	79.998	19.997	100.833	19.971	4.064	0.514
1186.500	679.014	79.998	19.996	100.836	19.974	3.815	0.534
1187.000	679.232	79.995	19.996	100.837	19.971	4.025	0.541
1187.500	679.496	79.997	19.996	100.837	19.971	4.049	0.497
1188.000	679.756	79.995	19.996	100.834	19.972	4.000	0.503
1188.500	680.047	79.996	19.997	100.831	19.971	4.045	0.537
1189.000	680.303	79.995	19.997	100.830	19.975	3.810	0.549
1189.500	680.531	79.996	19.997	100.830	19.967	4.266	0.515
1190.000	680.789	79.995	19.996	100.834	19.971	4.028	0.485
1190.500	681.067	79.996	19.997	100.835	19.977	3.656	0.511
1191.000	681.297	79.993	19.996	100.835	19.971	4.051	0.523
1191.500	681.604	79.996	19.998	100.835	19.972	4.002	0.523
1192.000	681.848	79.996	19.998	100.835	19.971	4.067	0.544
1192.500	682.130	79.995	19.997	100.834	19.971	4.033	0.538
1193.000	682.386	79.996	19.998	100.836	19.972	3.995	0.532
1193.500	682.642	79.996	19.997	100.840	19.973	3.932	0.525
1194.000	682.926	79.995	19.997	100.842	19.970	4.102	0.525
1194.500	683.170	79.997	19.997	100.844	19.975	3.774	0.534
1195.000	683.463	79.996	19.998	100.849	19.971	4.037	0.533
1195.500	683.695	79.994	19.998	100.854	19.972	3.984	0.531
1196.000	683.945	79.995	19.997	100.858	19.974	3.861	0.503
1196.500	684.208	79.994	19.997	100.860	19.974	3.860	0.497
1197.000	684.486	79.994	19.998	100.861	19.974	3.874	0.527
1197.500	684.725	79.994	19.997	100.854	19.969	4.154	0.529
1198.001	684.982	79.995	19.996	100.848	19.968	4.219	0.506
1198.501	685.241	79.997	19.997	100.840	19.967	4.282	0.506
1199.000	685.528	79.995	19.997	100.835	19.975	3.786	0.531
1199.500	685.788	79.994	19.996	100.833	19.970	4.098	0.547
1200.000	686.064	79.998	19.997	100.831	19.967	4.305	0.542
1200.500	686.296	79.996	19.997	100.830	19.971	4.030	0.522
1201.001	686.550	79.996	19.996	100.831	19.969	4.198	0.497
1201.501	686.832	79.996	19.997	100.832	19.970	4.072	0.511
1202.000	687.074	79.995	19.998	100.834	19.970	4.121	0.530
1202.500	687.331	79.995	19.997	100.839	19.967	4.310	0.512
1203.000	687.582	79.995	19.997	100.842	19.970	4.131	0.503
1203.500	687.845	79.995	19.995	100.842	19.969	4.154	0.510
1204.000	688.103	79.995	19.996	100.842	19.970	4.114	0.518
1204.500	688.348	79.995	19.998	100.845	19.965	4.399	0.512
1205.000	688.641	79.995	19.996	100.842	19.970	4.106	0.521
1205.500	688.892	79.995	19.996	100.839	19.970	4.101	0.541
1206.000	689.130	79.997	19.996	100.840	19.971	4.045	0.517
1206.500	689.399	79.996	19.996	100.840	19.973	3.877	0.498
1207.001	689.652	79.996	19.996	100.835	19.972	3.989	0.514
1207.501	689.951	79.995	19.997	100.833	19.971	4.045	0.536
1208.001	690.183	79.995	19.996	100.834	19.974	3.849	0.541
1208.501	690.475	79.995	19.997	100.833	19.971	4.039	0.528
1209.000	690.720	79.995	19.996	100.834	19.970	4.123	0.531
1209.500	690.930	79.997	19.997	100.839	19.968	4.243	0.496
1210.000	691.238	79.995	19.996	100.844	19.970	4.080	0.486
1210.501	691.479	79.997	19.996	100.849	19.969	4.191	0.533
1211.001	691.720	79.996	19.997	100.848	19.968	4.224	0.516
1211.500	691.978	79.996	19.997	100.846	19.968	4.264	0.491
1212.000	692.257	79.995	19.997	100.842	19.971	4.037	0.518
1212.500	692.470	79.994	19.997	100.840	19.971	4.016	0.514
1213.000	692.758	79.995	19.997	100.838	19.969	4.192	0.496
1213.500	693.004	79.995	19.996	100.840	19.966	4.354	0.517
1214.000	693.261	79.995	19.997	100.840	19.965	4.403	0.519
1214.500	693.526	79.996	19.998	100.839	19.969	4.150	0.512
1215.001	693.791	79.996	19.996	100.836	19.970	4.088	0.526
1215.501	694.035	79.995	19.997	100.833	19.974	3.855	0.520
1216.001	694.310	79.995	19.997	100.830	19.970	4.076	0.515
1216.501	694.591	79.996	19.998	100.829	19.973	3.886	0.538
1217.001	694.857	79.994	19.998	100.829	19.973	3.937	0.551
1217.501	695.085	79.996	19.997	100.830	19.967	4.266	0.520
1218.000	695.355	79.997	19.998	100.831	19.971	4.014	0.496
1218.500	695.615	79.995	19.997	100.834	19.972	4.000	0.514
1219.001	695.873	79.996	19.997	100.838	19.967	4.303	0.524
1219.501	696.194	79.994	19.997	100.839	19.968	4.238	0.548
1220.000	696.432	79.997	19.998	100.837	19.969	4.196	0.569
1220.501	696.646	79.995	19.998	100.835	19.968	4.203	0.506
1221.001	696.958	79.995	19.998	100.834	19.968	4.247	0.489
1221.500	697.181	79.996	19.998	100.831	19.968	4.231	0.530
1222.000	697.451	79.995	19.998	100.830	19.971	4.049	0.514
1222.500	697.670	79.994	19.998	100.832	19.967	4.307	0.491
1223.000	697.898	79.995	19.998	100.833	19.967	4.305	0.468
1223.500	698.178	79.996	19.997	100.834	19.968	4.252	0.478
1224.000	698.475	79.996	19.997	100.832	19.964	4.475	0.542
1224.500	698.732	79.995	19.998	100.831	19.969	4.154	0.566
1225.000	698.920	79.996	19.997	100.831	19.968	4.217	0.500
1225.500	699.213	79.994	19.997	100.833	19.972	3.993	0.463
1226.000	699.483	79.995	19.999	100.838	19.964	4.491	0.522
1226.500	699.732	79.996	20.001	100.839	19.966	4.370	0.541
1227.000	699.967	79.995	20.000	100.845	19.966	4.349	0.501
1227.500	700.215	79.997	20.001	100.845	19.968	4.244	0.483
1228.000	700.483	79.996	19.998	100.842	19.963	4.571	0.500
1228.500	700.753	79.997	19.998	100.840	19.973	3.886	0.527
1229.000	701.005	79.997	19.998	100.839	19.971	4.056	0.530
1229.501	701.293	79.997	19.998	100.834	19.964	4.488	0.530
1230.002	701.534	79.997	19.998	100.834	19.969	4.136	0.535
1230.502	701.787	79.998	19.998	100.832	19.966	4.352	0.512
1231.001	702.057	79.998	19.997	100.829	19.969	4.143	0.508
1231.500	702.335	79.997	19.996	100.829	19.966	4.381	0.535
1232.000	702.540	79.997	19.996	100.828	19.967	4.310	0.516
1232.500	702.823	79.998	19.995	100.830	19.965	4.441	0.486
1233.000	703.049	79.997	19.995	100.835	19.964	4.508	0.499
1233.500	703.301	79.997	19.997	100.837	19.970	4.115	0.493
1234.000	703.572	79.998	19.995	100.837	19.968	4.259	0.500
1234.500	703.794	79.998	19.997	100.838	19.967	4.294	0.508
1235.000	704.059	79.998	19.997	100.835	19.962	4.628	0.490
1235.500	704.335	79.998	19.996	100.834	19.970	4.098	0.514
1236.000	704.571	79.998	19.996	100.834	19.966	4.343	0.526
1236.500	704.835	79.998	19.996	100.835	19.968	4.210	0.506
1237.000	705.067	79.998	19.996	100.839	19.966	4.341	0.498
1237.500	705.321	79.997	19.997	100.842	19.964	4.499	0.491
1238.000	705.587	79.997	19.995	100.842	19.962	4.650	0.503
1238.500	705.854	79.998	19.996	100.840	19.971	4.006	0.527
1239.000	706.096	79.998	19.996	100.840	19.971	4.062	0.521
1239.500	706.355	79.999	19.997	100.835	19.961	4.665	0.505
1240.000	706.584	79.998	19.997	100.833	19.960	4.726	0.494
1240.500	706.856	79.998	19.997	100.829	19.959	4.819	0.494
1241.000	707.098	79.997	19.997	100.827	19.961	4.679	0.508
1241.500	707.362	79.998	19.996	100.827	19.965	4.441	0.510
1242.000	707.622	79.998	19.995	100.829	19.964	4.509	0.515
1242.500	707.881	79.998	19.997	100.828	19.967	4.301	0.521
1243.000	708.143	79.998	19.997	100.828	19.965	4.439	0.519
1243.500	708.377	79.998	19.996	100.828	19.963	4.563	0.509
1244.000	708.604	79.999	19.997	100.829	19.959	4.831	0.479
1244.500	708.876	79.996	19.997	100.826	19.963	4.539	0.480
1245.000	709.145	79.999	19.997	100.826	19.959	4.793	0.519
1245.500	709.388	79.996	19.996	100.826	19.964	4.507	0.526
1246.000	709.650	79.998	19.996	100.826	19.963	4.556	0.509
1246.500	709.874	79.997	19.997	100.826	19.967	4.267	0.496
1247.000	710.167	79.999	19.996	100.827	19.965	4.435	0.502
1247.500	710.398	79.996	19.997	100.828	19.961	4.682	0.520
1248.000	710.671	79.999	19.996	100.829	19.964	4.522	0.514
1248.500	710.897	79.998	19.997	100.829	19.963	4.538	0.501
1249.000	711.174	79.994	19.995	100.829	19.959	4.793	0.501
1249.500	711.434	79.997	19.996	100.827	19.964	4.459	0.520
1250.000	711.659	79.996	19.996	100.825	19.964	4.462	0.511
1250.500	711.918	79.997	19.997	100.823	19.964	4.509	0.485
1251.000	712.203	79.998	19.996	100.823	19.963	4.564	0.514
1251.500	712.425	79.996	19.996	100.823	19.958	4.898	0.525
1252.000	712.649	79.997	19.994	100.825	19.960	4.721	0.477
1252.500	712.911	79.997	19.996	100.823	19.964	4.466	0.466
1253.000	713.155	79.997	19.996	100.823	19.960	4.760	0.496
1253.500	713.369	79.998	19.995	100.822	19.960	4.728	0.482
1254.000	713.634	79.996	19.997	100.820	19.963	4.555	0.469
1254.500	713.879	79.998	19.997	100.818	19.963	4.553	0.495
1255.000	714.131	79.997	19.996	100.818	19.961	4.700	0.504
1255.500	714.377	79.997	19.997	100.818	19.965	4.423	0.497
1256.000	714.661	79.998	19.996	100.819	19.965	4.432	0.514
1256.500	714.916	80.001	19.998	100.820	19.965	4.395	0.534
1257.000	715.122	79.999	19.996	100.822	19.968	4.224	0.500
1257.500	715.427	79.998	19.996	100.819	19.969	4.161	0.486
1258.000	715.644	79.998	19.997	100.813	19.967	4.308	0.517
1258.500	715.903	80.000	19.996	100.806	19.966	4.374	0.499
1259.000	716.135	79.999	19.995	100.803	19.967	4.311	0.483
1259.500	716.403	79.998	19.996	100.797	19.966	4.336	0.496
1260.000	716.686	79.998	19.996	100.794	19.970	4.082	0.526
1260.500	716.964	80.000	19.995	100.794	19.971	4.024	0.556
1261.000	717.156	79.998	19.996	100.795	19.967	4.277	0.515
1261.500	717.426	79.998	19.995	100.791	19.963	4.564	0.466
1262.000	717.664	79.998	19.996	100.790	19.966	4.373	0.485
1262.501	717.910	79.999	19.996	100.792	19.968	4.258	0.496
1263.001	718.150	79.998	19.996	100.790	19.960	4.767	0.485
1263.500	718.415	79.999	19.996	100.789	19.965	4.408	0.496
1264.000	718.655	79.997	19.995	100.790	19.969	4.154	0.505
1264.500	718.925	80.000	19.995	100.790	19.973	3.879	0.507
1265.000	719.161	79.999	19.996	100.788	19.964	4.462	0.508
1265.500	719.399	79.997	19.995	100.788	19.969	4.172	0.490
1266.001	719.666	79.999	19.995	100.787	19.969	4.184	0.489
1266.501	719.893	79.999	19.996	100.788	19.966	4.375	0.499
1267.000	720.162	79.999	19.996	100.788	19.969	4.147	0.495
1267.500	720.435	79.995	19.995	100.788	19.973	3.902	0.520
1268.000	720.662	79.996	19.995	100.789	19.966	4.340	0.521
1268.500	720.899	79.996	19.995	100.789	19.971	4.054	0.482
1269.000	721.139	79.997	19.996	100.789	19.973	3.891	0.470
1269.500	721.404	79.997	19.997	100.789	19.966	4.371	0.491
1270.000	721.651	79.996	19.996	100.789	19.974	3.851	0.509
1270.501	721.937	79.995	19.995	100.789	19.972	3.994	0.523
1271.001	722.230	79.996	19.996	100.790	19.969	4.156	0.556
1271.500	722.426	79.995	19.996	100.791	19.971	4.005	0.534
1272.000	722.689	79.997	19.996	100.794	19.971	4.045	0.474
1272.500	722.961	79.997	19.997	100.798	19.967	4.324	0.497
1273.000	723.187	79.995	19.996	100.800	19.974	3.872	0.516
1273.500	723.456	79.995	19.995	100.802	19.968	4.261	0.496
1274.000	723.702	79.997	19.997	100.801	19.968	4.210	0.505
1274.500	723.955	79.994	19.997	100.799	19.970	4.112	0.507
1275.000	724.160	79.995	19.996	100.796	19.971	4.024	0.478
1275.500	724.431	79.994	19.996	100.794	19.965	4.406	0.466
1276.000	724.707	79.996	19.995	100.792	19.976	3.707	0.512
1276.500	724.930	79.996	19.997	100.793	19.976	3.734	0.523
1277.000	725.203	79.995	19.995	100.793	19.970	4.112	0.497
1277.500	725.403	79.996	19.997	100.792	19.975	3.800	0.485
1278.000	725.667	79.997	19.996	100.791	19.974	3.863	0.469
1278.500	725.932	79.996	19.997	100.791	19.969	4.184	0.496
1279.000	726.203	79.998	19.997	100.790	19.971	4.014	0.533
1279.500	726.437	79.996	19.997	100.790	19.972	3.963	0.520
1280.000	726.675	79.995	19.998	100.791	19.969	4.149	0.488
1280.500	726.936	79.995	19.996	100.791	19.967	4.285	0.485
1281.000	727.225	79.997	19.997	100.790	19.969	4.149	0.525
1281.500	727.454	79.996	19.998	100.789	19.976	3.732	0.535
1282.001	727.701	79.995	19.995	100.789	19.973	3.909	0.497
1282.501	727.965	79.996	19.996	100.788	19.974	3.874	0.493
1283.000	728.250	79.995	19.996	100.787	19.975	3.795	0.530
1283.500	728.456	79.995	19.997	100.787	19.969	4.148	0.520
1284.000	728.711	79.996	19.997	100.787	19.975	3.781	0.476
1284.500	728.999	79.997	19.997	100.787	19.967	4.280	0.502
1285.000	729.231	79.997	19.997	100.787	19.971	4.044	0.532
1285.500	729.439	79.995	19.996	100.787	19.970	4.084	0.480
1286.000	729.731	79.997	19.997	100.787	19.969	4.185	0.470
1286.500	729.963	79.996	19.996	100.789	19.966	4.357	0.512
1287.000	730.236	79.997	19.997	100.790	19.969	4.170	0.514
1287.500	730.500	79.996	19.997	100.790	19.968	4.210	0.521
1288.000	730.732	79.997	19.996	100.791	19.973	3.877	0.517
1288.500	730.971	79.997	19.996	100.791	19.974	3.828	0.484
1289.000	731.245	79.996	19.997	100.790	19.970	4.072	0.492
1289.500	731.518	79.998	19.996	100.789	19.969	4.187	0.529
1290.000	731.767	79.998	19.998	100.789	19.972	3.993	0.534
1290.500	732.006	79.997	19.997	100.788	19.972	3.961	0.505
1291.000	732.248	79.996	19.997	100.789	19.972	3.977	0.484
1291.500	732.491	79.996	19.998	100.788	19.971	4.026	0.483
1292.000	732.744	79.997	19.998	100.789	19.967	4.310	0.491
1292.500	733.013	79.997	19.997	100.789	19.968	4.240	0.509
1293.000	733.243	79.996	19.997	100.789	19.967	4.266	0.511
1293.500	733.552	79.994	19.996	100.788	19.970	4.081	0.519
1294.000	733.780	79.998	19.997	100.788	19.968	4.240	0.538
1294.501	734.011	79.996	19.996	100.787	19.967	4.317	0.498
1295.001	734.256	79.995	19.996	100.787	19.970	4.122	0.467
1295.500	734.522	79.999	19.997	100.787	19.970	4.128	0.494
1296.001	734.778	79.996	19.998	100.791	19.966	4.346	0.517
1296.501	735.003	79.997	19.998	100.791	19.968	4.247	0.501
1297.000	735.264	79.998	19.997	100.792	19.966	4.385	0.483
1297.500	735.518	79.993	19.996	100.791	19.971	4.035	0.501
1298.000	735.827	79.996	19.997	100.791	19.963	4.544	0.539
1298.500	736.062	79.996	19.996	100.788	19.966	4.331	0.554
1299.000	736.268	79.996	19.997	100.789	19.968	4.240	0.493
1299.500	736.523	79.997	19.997	100.789	19.966	4.343	0.451
1300.000	736.800	79.996	19.995	100.791	19.967	4.292	0.496
1300.500	737.032	79.995	19.997	100.793	19.967	4.273	0.520
1301.000	737.237	79.995	19.996	100.793	19.971	4.050	0.473
1301.500	737.533	79.996	19.996	100.792	19.969	4.185	0.469
1302.001	737.805	79.996	19.997	100.792	19.968	4.261	0.535
1302.501	738.031	79.996	19.996	100.794	19.966	4.366	0.533
1303.000	738.307	79.997	19.997	100.794	19.969	4.166	0.500
1303.500	738.554	79.995	19.997	100.798	19.965	4.429	0.512
1304.000	738.819	79.995	19.998	100.801	19.974	3.814	0.517
1304.500	739.027	79.997	19.997	100.801	19.965	4.452	0.493
1305.000	739.301	79.996	19.998	100.800	19.969	4.173	0.478
1305.500	739.575	79.999	19.997	100.798	19.972	4.002	0.515
1306.000	739.792	79.995	19.997	100.793	19.973	3.939	0.519
1306.500	740.064	79.996	19.996	100.790	19.963	4.567	0.490
1307.000	740.326	79.996	19.997	100.789	19.966	4.329	0.511
1307.500	740.564	79.997	19.998	100.788	19.971	4.068	0.517
1308.000	740.811	79.995	19.998	100.788	19.965	4.397	0.493
1308.500	741.086	79.996	19.997	100.788	19.969	4.166	0.504
1309.000	741.350	79.998	19.999	100.788	19.970	4.077	0.531
1309.500	741.570	79.995	19.998	100.788	19.969	4.157	0.512
1310.000	741.813	79.998	19.999	100.788	19.971	4.068	0.473
1310.500	742.072	79.997	19.998	100.788	19.970	4.086	0.482
1311.000	742.329	79.997	19.998	100.787	19.967	4.294	0.509
1311.500	742.600	79.996	19.997	100.787	19.966	4.373	0.522
1312.000	742.821	79.996	19.997	100.787	19.971	4.017	0.510
1312.500	743.126	79.997	19.997	100.786	19.965	4.410	0.509
1313.000	743.368	79.996	19.998	100.786	19.964	4.478	0.536
1313.500	743.625	79.996	19.997	100.786	19.970	4.074	0.523
