Sample ID:	C:\MCC\MCC Cal\Test\Scott_HT_SCBA_MCC_30K_min_220204_R1.txt
Sample Weight (mg):	4.7
Heating Rate (C/s):	0.5
Combustor Temp (C):	900
N2 Flow Rate (cc/min):	80
O2 Flow Rate (cc/min):	20
Calibration File:	C:\MCC\MCC Cal\Coeff1 JN10440_30_210304.txt.txt
T Correction Coefficients:	0	1.024463	0
Time Shift (s):	14
*
Time (s)	Temperature (C)	N2 flow rate (cc/min)	O2 flow rate (cc/min)	Flow Rate (cc/min)	Oxygen (%)	HRR (W/g)	Heating rate (C/s)
0.000	113.326	80.003	19.995	103.765	20.092	0.142	-0.014
0.500	113.381	80.005	19.996	103.765	20.092	0.127	0.006
1.000	113.350	80.004	19.995	103.765	20.095	-0.076	0.032
1.500	113.357	80.004	19.995	103.766	20.092	0.129	-0.000
2.000	113.329	80.004	19.995	103.765	20.093	0.038	-0.022
2.500	113.350	80.005	19.994	103.768	20.094	0.011	-0.014
3.000	113.332	80.005	19.995	103.770	20.094	-0.015	-0.002
3.500	113.311	80.004	19.995	103.770	20.091	0.178	-0.018
4.000	113.307	80.005	19.995	103.770	20.094	0.013	-0.032
4.500	113.328	80.004	19.995	103.770	20.096	-0.169	-0.004
5.000	113.344	80.005	19.995	103.768	20.094	0.019	0.027
5.500	113.361	80.004	19.995	103.767	20.095	-0.068	0.035
6.000	113.346	80.003	19.995	103.769	20.091	0.207	0.018
6.500	113.365	80.004	19.995	103.771	20.094	0.008	0.003
7.000	113.327	80.003	19.997	103.775	20.096	-0.112	-0.007
7.500	113.312	80.005	19.995	103.780	20.094	-0.015	-0.036
8.000	113.314	80.004	19.995	103.784	20.095	-0.055	-0.033
8.500	113.303	80.005	19.994	103.782	20.092	0.142	-0.011
9.000	113.325	80.003	19.995	103.779	20.095	-0.047	0.001
9.500	113.320	80.005	19.994	103.775	20.091	0.197	0.014
10.000	113.310	80.006	19.994	103.767	20.094	0.021	0.001
10.500	113.281	80.005	19.995	103.762	20.092	0.129	-0.027
11.000	113.279	80.005	19.995	103.762	20.092	0.148	-0.035
11.500	113.275	80.006	19.995	103.762	20.092	0.106	-0.018
12.000	113.333	80.006	19.995	103.766	20.091	0.193	0.024
12.500	113.275	80.005	19.994	103.775	20.094	0.000	0.027
13.000	113.275	80.006	19.995	103.783	20.091	0.201	-0.029
13.501	113.284	80.004	19.995	103.791	20.091	0.192	-0.024
14.001	113.275	80.006	19.994	103.799	20.090	0.258	0.004
14.501	113.293	80.005	19.995	103.803	20.094	0.032	0.004
15.000	113.305	80.005	19.995	103.805	20.093	0.072	0.019
15.500	113.272	80.006	19.995	103.806	20.091	0.173	0.005
16.000	113.301	80.006	19.996	103.806	20.093	0.046	-0.012
16.500	113.323	80.006	19.995	103.807	20.092	0.144	0.024
17.000	113.316	80.006	19.995	103.807	20.092	0.161	0.033
17.500	113.325	80.007	19.995	103.806	20.093	0.095	0.008
18.000	113.326	80.005	19.994	103.805	20.091	0.182	0.006
18.500	113.333	80.006	19.995	103.803	20.093	0.070	0.009
19.000	113.360	80.007	19.994	103.803	20.090	0.308	0.021
19.500	113.359	80.006	19.995	103.802	20.088	0.429	0.030
20.000	113.331	80.007	19.996	103.802	20.088	0.431	-0.001
20.500	113.352	80.006	19.995	103.803	20.086	0.518	-0.018
21.000	113.358	80.006	19.995	103.804	20.085	0.627	0.010
21.500	113.345	80.006	19.995	103.804	20.090	0.245	0.010
22.000	113.376	80.005	19.995	103.808	20.087	0.450	0.005
22.500	113.378	80.006	19.994	103.813	20.088	0.378	0.025
23.000	113.352	80.006	19.995	103.815	20.085	0.602	0.005
23.500	113.398	80.006	19.996	103.820	20.086	0.541	-0.002
24.000	113.423	80.006	19.996	103.822	20.087	0.497	0.046
24.500	113.424	80.006	19.994	103.825	20.084	0.657	0.049
25.000	113.418	80.006	19.995	103.829	20.084	0.657	0.011
25.500	113.419	80.006	19.995	103.836	20.083	0.752	-0.005
26.000	113.453	80.005	19.994	103.842	20.082	0.792	0.015
26.500	113.464	80.005	19.994	103.854	20.080	0.961	0.040
27.000	113.476	80.004	19.995	103.863	20.075	1.327	0.034
27.500	113.481	80.005	19.994	103.871	20.077	1.191	0.020
28.000	113.529	80.005	19.996	103.881	20.077	1.198	0.035
28.500	113.511	80.006	19.996	103.893	20.074	1.384	0.042
29.000	113.533	80.007	19.995	103.903	20.072	1.540	0.017
29.501	113.556	80.005	19.995	103.912	20.072	1.516	0.025
30.000	113.620	80.005	19.995	103.922	20.073	1.443	0.066
30.500	113.650	80.006	19.995	103.928	20.070	1.669	0.091
31.000	113.683	80.005	19.995	103.930	20.069	1.709	0.079
31.500	113.698	80.006	19.995	103.935	20.069	1.696	0.055
32.000	113.735	80.006	19.995	103.940	20.069	1.727	0.050
32.500	113.782	80.005	19.996	103.945	20.068	1.772	0.068
33.000	113.813	80.005	19.995	103.948	20.067	1.862	0.081
33.500	113.826	80.005	19.995	103.949	20.065	1.981	0.061
34.000	113.880	80.006	19.996	103.946	20.062	2.188	0.056
34.500	113.867	80.006	19.995	103.939	20.064	2.084	0.054
35.000	113.951	80.004	19.995	103.933	20.064	2.038	0.056
35.500	114.018	80.004	19.995	103.930	20.063	2.151	0.111
36.000	114.070	80.005	19.995	103.933	20.067	1.860	0.135
36.500	114.124	80.005	19.995	103.940	20.062	2.198	0.113
37.001	114.188	80.005	19.994	103.944	20.063	2.109	0.112
37.501	114.246	80.005	19.995	103.946	20.064	2.088	0.120
38.000	114.321	80.004	19.996	103.949	20.062	2.180	0.128
38.501	114.378	80.005	19.994	103.950	20.058	2.474	0.132
39.001	114.432	80.005	19.994	103.950	20.062	2.204	0.121
39.500	114.528	80.005	19.995	103.951	20.059	2.425	0.130
40.000	114.562	80.006	19.995	103.956	20.057	2.521	0.140
40.500	114.606	80.005	19.994	103.960	20.060	2.360	0.104
41.001	114.717	80.006	19.994	103.961	20.056	2.595	0.116
41.501	114.750	80.005	19.994	103.963	20.060	2.352	0.149
42.000	114.833	80.006	19.994	103.970	20.055	2.685	0.130
42.500	114.874	80.006	19.995	103.972	20.060	2.352	0.120
43.000	114.937	80.006	19.995	103.976	20.058	2.463	0.114
43.500	115.016	80.005	19.995	103.979	20.056	2.590	0.123
44.000	115.079	80.005	19.995	103.981	20.053	2.795	0.142
44.500	115.183	80.005	19.995	103.979	20.057	2.538	0.155
45.000	115.279	80.006	19.995	103.984	20.055	2.673	0.183
45.500	115.378	80.006	19.995	103.988	20.055	2.675	0.197
46.000	115.419	80.006	19.994	103.993	20.052	2.916	0.168
46.500	115.530	80.006	19.995	103.998	20.054	2.741	0.146
47.000	115.597	80.006	19.995	104.003	20.057	2.572	0.165
47.500	115.716	80.007	19.995	104.004	20.056	2.650	0.182
48.000	115.782	80.007	19.996	104.009	20.053	2.802	0.186
48.500	115.912	80.007	19.995	104.016	20.051	2.960	0.191
49.000	115.983	80.007	19.994	104.017	20.054	2.772	0.198
49.500	116.109	80.005	19.996	104.015	20.055	2.715	0.199
50.000	116.201	80.007	19.995	104.015	20.052	2.893	0.208
50.500	116.303	80.004	19.997	104.013	20.054	2.789	0.206
51.000	116.377	80.005	19.996	104.005	20.050	3.044	0.185
51.500	116.532	80.004	19.995	104.005	20.053	2.857	0.202
52.000	116.588	80.006	19.995	104.006	20.050	3.049	0.220
52.501	116.723	80.005	19.995	104.012	20.054	2.766	0.201
53.001	116.824	80.004	19.995	104.013	20.053	2.835	0.213
53.500	116.921	80.004	19.997	104.014	20.056	2.624	0.217
54.000	117.049	80.003	19.996	104.011	20.053	2.795	0.212
54.500	117.182	80.004	19.996	104.009	20.052	2.867	0.243
55.000	117.278	80.003	19.995	104.001	20.054	2.789	0.245
55.500	117.445	80.004	19.996	103.998	20.054	2.749	0.246
56.000	117.550	80.003	19.995	103.998	20.053	2.823	0.268
56.500	117.668	80.004	19.996	103.998	20.051	2.979	0.247
57.001	117.772	80.003	19.996	103.999	20.053	2.842	0.222
57.501	117.903	80.004	19.995	103.995	20.050	3.055	0.228
58.000	118.012	80.002	19.996	103.993	20.048	3.200	0.237
58.500	118.144	80.002	19.997	103.991	20.051	2.958	0.240
59.000	118.287	80.004	19.996	103.989	20.050	3.031	0.258
59.500	118.389	80.003	19.996	103.989	20.048	3.193	0.261
60.000	118.533	80.003	19.995	103.993	20.050	3.020	0.246
60.500	118.626	80.003	19.995	103.994	20.052	2.904	0.242
61.000	118.759	80.003	19.996	103.995	20.050	3.018	0.231
61.501	118.920	80.004	19.995	103.997	20.050	3.050	0.259
62.001	119.037	80.003	19.996	103.998	20.050	3.046	0.286
62.500	119.166	80.003	19.995	103.997	20.051	2.978	0.262
63.000	119.313	80.004	19.996	103.998	20.051	2.987	0.261
63.500	119.432	80.004	19.996	103.998	20.050	3.054	0.271
64.000	119.575	80.002	19.996	103.998	20.048	3.183	0.265
64.500	119.681	80.004	19.998	103.998	20.049	3.088	0.256
65.000	119.818	80.002	19.997	103.999	20.049	3.119	0.246
65.500	120.001	80.005	19.996	104.000	20.050	3.041	0.281
66.000	120.089	80.004	19.996	104.000	20.051	2.946	0.295
66.500	120.233	80.005	19.996	104.000	20.048	3.147	0.251
67.000	120.406	80.004	19.996	103.999	20.052	2.894	0.275
67.500	120.589	80.005	19.996	103.999	20.051	2.934	0.337
68.001	120.690	80.005	19.995	103.998	20.051	2.938	0.320
68.501	120.868	80.005	19.995	103.998	20.053	2.856	0.281
69.000	121.030	80.005	19.995	104.002	20.053	2.856	0.309
69.500	121.126	80.005	19.996	104.006	20.050	3.065	0.298
70.000	121.279	80.006	19.995	104.014	20.057	2.573	0.254
70.500	121.448	80.005	19.996	104.021	20.052	2.870	0.286
71.000	121.604	80.005	19.995	104.029	20.052	2.929	0.324
71.500	121.695	80.004	19.996	104.029	20.049	3.117	0.286
72.000	121.870	80.004	19.995	104.028	20.049	3.140	0.256
72.500	122.000	80.006	19.995	104.024	20.051	2.936	0.285
73.000	122.213	80.005	19.995	104.018	20.049	3.086	0.324
73.500	122.350	80.005	19.994	104.012	20.051	2.940	0.346
74.000	122.540	80.006	19.996	104.016	20.051	2.974	0.338
74.500	122.630	80.006	19.995	104.021	20.048	3.207	0.304
75.000	122.844	80.005	19.995	104.025	20.049	3.136	0.292
75.501	123.010	80.005	19.995	104.031	20.046	3.297	0.342
76.001	123.164	80.004	19.995	104.036	20.048	3.151	0.350
76.501	123.303	80.004	19.994	104.030	20.047	3.243	0.307
77.001	123.491	80.005	19.995	104.026	20.046	3.329	0.310
77.501	123.640	80.005	19.995	104.023	20.047	3.221	0.332
78.001	123.802	80.006	19.995	104.016	20.048	3.164	0.324
78.500	123.975	80.004	19.995	104.015	20.043	3.508	0.323
79.000	124.162	80.005	19.993	104.017	20.043	3.509	0.348
79.500	124.320	80.004	19.996	104.018	20.046	3.336	0.353
80.000	124.514	80.006	19.996	104.021	20.045	3.356	0.349
80.501	124.688	80.006	19.996	104.028	20.045	3.389	0.360
81.001	124.884	80.005	19.996	104.029	20.043	3.488	0.369
81.500	125.058	80.005	19.995	104.032	20.047	3.246	0.370
82.000	125.221	80.004	19.995	104.036	20.047	3.275	0.354
82.500	125.386	80.006	19.995	104.032	20.049	3.121	0.332
83.000	125.565	80.006	19.994	104.028	20.048	3.186	0.336
83.500	125.703	80.005	19.995	104.025	20.046	3.328	0.331
84.000	125.907	80.004	19.994	104.019	20.045	3.372	0.329
84.500	126.088	80.004	19.996	104.018	20.047	3.254	0.364
85.000	126.262	80.004	19.996	104.005	20.047	3.271	0.370
85.500	126.439	80.004	19.995	103.987	20.043	3.511	0.353
86.000	126.617	80.004	19.994	103.977	20.045	3.389	0.353
86.500	126.750	80.004	19.996	103.973	20.046	3.321	0.333
87.000	126.956	80.003	19.995	103.969	20.045	3.364	0.325
87.500	127.126	80.003	19.997	103.980	20.045	3.370	0.358
88.000	127.296	80.004	19.995	104.001	20.044	3.459	0.358
88.500	127.490	80.002	19.995	104.031	20.046	3.313	0.352
89.000	127.656	80.004	19.995	104.070	20.044	3.486	0.363
89.500	127.811	80.004	19.995	104.087	20.044	3.467	0.340
90.000	128.059	80.003	19.996	104.094	20.045	3.385	0.361
90.500	128.247	80.004	19.995	104.095	20.041	3.625	0.419
91.001	128.388	80.004	19.995	104.081	20.047	3.220	0.382
91.501	128.595	80.004	19.995	104.052	20.044	3.436	0.339
92.000	128.765	80.003	19.996	104.043	20.042	3.623	0.363
92.501	128.962	80.004	19.996	104.042	20.046	3.345	0.371
93.001	129.166	80.004	19.996	104.040	20.044	3.461	0.384
93.500	129.342	80.004	19.995	104.039	20.043	3.492	0.391
94.000	129.494	80.004	19.996	104.040	20.042	3.583	0.354
94.500	129.709	80.004	19.995	104.039	20.044	3.452	0.347
95.000	129.899	80.004	19.995	104.039	20.044	3.438	0.386
95.500	130.119	80.005	19.995	104.041	20.046	3.309	0.408
96.000	130.288	80.004	19.995	104.042	20.045	3.357	0.399
96.500	130.490	80.004	19.995	104.042	20.042	3.590	0.380
97.000	130.668	80.006	19.995	104.042	20.043	3.549	0.376
97.500	130.907	80.005	19.995	104.041	20.046	3.347	0.399
98.000	131.140	80.005	19.995	104.041	20.045	3.387	0.445
98.500	131.325	80.005	19.995	104.040	20.044	3.477	0.445
99.000	131.526	80.005	19.995	104.040	20.045	3.380	0.402
99.501	131.705	80.005	19.995	104.040	20.044	3.418	0.383
100.001	131.871	80.006	19.995	104.040	20.044	3.460	0.362
100.500	132.079	80.006	19.995	104.040	20.044	3.455	0.360
101.001	132.313	80.006	19.994	104.040	20.047	3.276	0.408
101.501	132.512	80.005	19.994	104.040	20.048	3.200	0.437
102.000	132.719	80.006	19.994	104.040	20.045	3.412	0.420
102.500	132.912	80.004	19.994	104.040	20.045	3.372	0.404
103.000	133.109	80.006	19.994	104.041	20.047	3.247	0.395
103.500	133.318	80.006	19.995	104.040	20.045	3.353	0.397
104.001	133.497	80.006	19.994	104.040	20.050	3.020	0.396
104.501	133.714	80.005	19.994	104.040	20.049	3.089	0.392
105.001	133.915	80.006	19.995	104.041	20.045	3.395	0.407
105.501	134.124	80.005	19.994	104.041	20.046	3.336	0.414
106.000	134.356	80.005	19.994	104.041	20.046	3.296	0.425
106.500	134.558	80.004	19.993	104.040	20.046	3.321	0.438
107.000	134.767	80.005	19.994	104.039	20.046	3.334	0.423
107.500	134.957	80.004	19.994	104.039	20.044	3.464	0.405
108.000	135.152	80.006	19.995	104.043	20.043	3.504	0.392
108.500	135.364	80.005	19.995	104.045	20.040	3.758	0.396
109.000	135.625	80.005	19.993	104.047	20.039	3.771	0.440
109.500	135.825	80.006	19.994	104.054	20.040	3.754	0.467
110.000	136.038	80.005	19.995	104.058	20.040	3.720	0.437
110.500	136.238	80.005	19.995	104.061	20.042	3.566	0.413
111.000	136.454	80.004	19.995	104.065	20.040	3.733	0.414
111.500	136.680	80.005	19.994	104.070	20.040	3.737	0.429
112.001	136.879	80.006	19.995	104.068	20.038	3.900	0.433
112.501	137.129	80.007	19.995	104.067	20.039	3.813	0.437
113.000	137.351	80.006	19.994	104.062	20.037	3.914	0.461
113.500	137.583	80.005	19.996	104.058	20.042	3.598	0.464
114.001	137.781	80.006	19.995	104.051	20.040	3.718	0.442
114.501	137.956	80.005	19.995	104.047	20.041	3.649	0.401
115.001	138.240	80.005	19.995	104.042	20.041	3.628	0.416
115.501	138.454	80.006	19.995	104.041	20.043	3.543	0.479
116.001	138.644	80.005	19.994	104.041	20.043	3.510	0.451
116.500	138.872	80.006	19.995	104.044	20.045	3.412	0.411
117.000	139.119	80.006	19.995	104.050	20.044	3.463	0.446
117.500	139.378	80.005	19.995	104.053	20.042	3.569	0.490
118.000	139.583	80.004	19.995	104.060	20.046	3.345	0.485
118.501	139.838	80.006	19.995	104.060	20.043	3.493	0.462
119.001	140.052	80.005	19.995	104.057	20.046	3.296	0.465
119.500	140.239	80.006	19.996	104.052	20.044	3.446	0.435
120.000	140.485	80.006	19.995	104.052	20.043	3.514	0.417
120.500	140.727	80.006	19.995	104.046	20.043	3.554	0.460
121.000	140.869	80.006	19.996	104.045	20.041	3.689	0.436
121.501	141.129	80.005	19.995	104.045	20.043	3.539	0.393
122.001	141.370	80.005	19.996	104.047	20.044	3.425	0.452
122.500	141.549	80.007	19.995	104.045	20.042	3.590	0.461
123.000	141.808	80.006	19.995	104.044	20.043	3.497	0.429
123.500	141.988	80.006	19.996	104.042	20.040	3.719	0.438
124.000	142.226	80.007	19.995	104.042	20.041	3.661	0.428
124.500	142.471	80.006	19.995	104.038	20.039	3.812	0.450
125.000	142.694	80.007	19.996	104.037	20.040	3.696	0.476
125.500	142.933	80.006	19.995	104.037	20.040	3.759	0.465
126.000	143.147	80.007	19.995	104.037	20.042	3.603	0.458
126.500	143.421	80.007	19.995	104.036	20.041	3.643	0.470
127.000	143.644	80.006	19.994	104.036	20.043	3.516	0.492
127.500	143.857	80.007	19.996	104.035	20.039	3.814	0.467
128.000	144.128	80.006	19.996	104.035	20.038	3.845	0.461
128.500	144.322	80.007	19.995	104.035	20.042	3.602	0.474
129.000	144.587	80.006	19.995	104.035	20.039	3.813	0.461
129.500	144.836	80.006	19.995	104.035	20.039	3.784	0.487
130.000	145.061	80.007	19.994	104.035	20.042	3.590	0.495
130.500	145.339	80.005	19.996	104.035	20.040	3.727	0.488
131.000	145.548	80.007	19.994	104.034	20.041	3.662	0.495
131.500	145.779	80.006	19.995	104.035	20.038	3.894	0.464
132.000	146.006	80.006	19.995	104.035	20.037	3.938	0.449
132.500	146.253	80.006	19.995	104.035	20.040	3.731	0.466
133.000	146.512	80.006	19.996	104.035	20.037	3.948	0.490
133.500	146.726	80.006	19.995	104.036	20.037	3.923	0.490
134.000	146.973	80.005	19.996	104.035	20.039	3.824	0.467
134.500	147.150	80.006	19.995	104.035	20.035	4.096	0.442
135.000	147.426	80.006	19.996	104.035	20.037	3.946	0.439
135.500	147.631	80.004	19.995	104.033	20.038	3.889	0.467
136.000	147.904	80.003	19.996	104.031	20.036	4.031	0.479
136.500	148.142	80.005	19.995	104.026	20.033	4.202	0.495
137.000	148.384	80.005	19.996	104.025	20.031	4.349	0.496
137.500	148.589	80.004	19.995	104.026	20.033	4.179	0.464
138.000	148.836	80.004	19.995	104.031	20.036	4.003	0.449
138.500	149.092	80.005	19.995	104.034	20.036	4.001	0.477
139.000	149.330	80.003	19.995	104.038	20.035	4.103	0.499
139.500	149.549	80.003	19.995	104.040	20.039	3.767	0.475
140.000	149.824	80.003	19.997	104.039	20.037	3.913	0.475
140.500	150.051	80.004	19.996	104.037	20.036	4.027	0.498
141.000	150.300	80.004	19.996	104.037	20.037	3.946	0.489
141.500	150.529	80.004	19.995	104.037	20.038	3.889	0.477
142.000	150.786	80.005	19.997	104.037	20.037	3.915	0.482
142.500	151.009	80.004	19.996	104.037	20.034	4.149	0.483
143.000	151.218	80.004	19.996	104.037	20.038	3.894	0.456
143.500	151.495	80.004	19.996	104.037	20.036	4.005	0.459
144.000	151.682	80.004	19.996	104.037	20.036	4.012	0.475
144.500	151.936	80.005	19.995	104.037	20.036	3.982	0.453
145.000	152.176	80.004	19.996	104.036	20.036	3.980	0.467
145.500	152.404	80.004	19.995	104.033	20.035	4.056	0.480
146.000	152.672	80.003	19.995	104.033	20.033	4.183	0.481
146.500	152.878	80.003	19.996	104.033	20.035	4.096	0.485
147.000	153.114	80.004	19.995	104.033	20.037	3.929	0.458
147.500	153.323	80.003	19.994	104.034	20.033	4.206	0.444
148.000	153.603	80.004	19.995	104.037	20.034	4.115	0.467
148.500	153.833	80.004	19.996	104.037	20.037	3.915	0.499
149.000	154.048	80.004	19.996	104.035	20.037	3.902	0.477
149.500	154.301	80.003	19.996	104.033	20.039	3.797	0.456
150.000	154.546	80.003	19.996	104.033	20.037	3.917	0.483
150.500	154.765	80.003	19.996	104.033	20.037	3.946	0.481
151.000	155.035	80.003	19.995	104.031	20.038	3.898	0.476
151.500	155.266	80.003	19.997	104.032	20.036	4.002	0.495
152.000	155.514	80.002	19.996	104.034	20.035	4.056	0.490
152.500	155.751	80.004	19.996	104.034	20.035	4.096	0.482
153.000	156.005	80.003	19.995	104.033	20.035	4.105	0.488
153.500	156.193	80.005	19.996	104.036	20.038	3.898	0.467
154.000	156.492	80.005	19.996	104.037	20.039	3.775	0.464
154.500	156.732	80.002	19.995	104.037	20.040	3.759	0.513
155.000	156.977	80.004	19.995	104.037	20.036	4.006	0.512
155.500	157.189	80.003	19.996	104.039	20.040	3.735	0.471
156.000	157.431	80.004	19.997	104.039	20.037	3.957	0.456
156.500	157.721	80.004	19.996	104.039	20.039	3.803	0.493
157.000	157.908	80.004	19.997	104.041	20.035	4.082	0.504
157.500	158.175	80.005	19.996	104.042	20.036	3.993	0.465
158.000	158.409	80.003	19.996	104.041	20.037	3.937	0.477
158.500	158.676	80.004	19.996	104.040	20.038	3.894	0.501
159.000	158.917	80.003	19.996	104.039	20.035	4.097	0.505
159.500	159.137	80.004	19.997	104.037	20.036	3.989	0.485
160.000	159.402	80.004	19.996	104.037	20.036	4.031	0.472
160.500	159.612	80.003	19.996	104.036	20.038	3.879	0.480
161.000	159.871	80.002	19.996	104.034	20.037	3.934	0.472
161.500	160.108	80.003	19.995	104.033	20.041	3.687	0.483
162.000	160.390	80.002	19.995	104.028	20.038	3.894	0.508
162.500	160.628	80.004	19.995	104.026	20.038	3.900	0.520
163.000	160.902	80.003	19.996	104.028	20.038	3.847	0.516
163.500	161.133	80.003	19.995	104.029	20.036	3.985	0.509
164.000	161.371	80.003	19.996	104.030	20.034	4.131	0.487
164.500	161.641	80.004	19.995	104.033	20.032	4.247	0.488
165.000	161.880	80.004	19.995	104.034	20.034	4.137	0.508
165.500	162.114	80.004	19.994	104.031	20.035	4.038	0.491
166.000	162.317	80.003	19.995	104.033	20.036	4.008	0.455
166.500	162.594	80.003	19.994	104.033	20.034	4.164	0.459
167.000	162.797	80.003	19.994	104.032	20.033	4.244	0.480
167.500	163.070	80.003	19.996	104.027	20.033	4.206	0.478
168.000	163.336	80.003	19.995	104.023	20.035	4.107	0.507
168.500	163.569	80.003	19.995	104.019	20.033	4.201	0.519
169.000	163.799	80.002	19.995	104.020	20.035	4.095	0.481
169.500	164.078	80.003	19.995	104.023	20.033	4.209	0.486
170.000	164.354	80.004	19.995	104.029	20.029	4.456	0.532
170.500	164.572	80.002	19.995	104.035	20.033	4.217	0.524
171.000	164.808	80.004	19.994	104.037	20.036	3.983	0.474
171.500	165.099	80.004	19.994	104.036	20.035	4.076	0.490
172.000	165.332	80.003	19.995	104.036	20.035	4.088	0.525
172.500	165.615	80.002	19.995	104.035	20.036	3.997	0.520
173.000	165.841	80.005	19.993	104.031	20.038	3.835	0.512
173.500	166.100	80.004	19.995	104.028	20.037	3.945	0.497
174.000	166.344	80.003	19.994	104.027	20.038	3.900	0.494
174.500	166.593	80.004	19.995	104.022	20.036	4.002	0.498
175.000	166.878	80.005	19.995	104.022	20.039	3.803	0.514
175.500	167.107	80.004	19.995	104.019	20.037	3.940	0.524
176.000	167.357	80.005	19.995	104.023	20.036	4.023	0.496
176.500	167.611	80.004	19.994	104.026	20.037	3.959	0.492
177.000	167.878	80.006	19.995	104.030	20.035	4.084	0.513
177.500	168.070	80.005	19.996	104.032	20.036	4.008	0.490
178.000	168.324	80.006	19.995	104.034	20.037	3.914	0.452
178.500	168.617	80.005	19.997	104.029	20.036	3.992	0.496
179.000	168.800	80.005	19.995	104.022	20.036	4.005	0.512
179.500	169.081	80.005	19.994	104.016	20.038	3.840	0.470
180.000	169.327	80.006	19.995	104.011	20.040	3.701	0.495
180.500	169.556	80.004	19.995	104.014	20.035	4.040	0.500
181.000	169.820	80.006	19.995	104.019	20.035	4.076	0.484
181.500	170.097	80.005	19.995	104.022	20.038	3.861	0.518
182.000	170.357	80.005	19.996	104.024	20.034	4.154	0.539
182.500	170.599	80.006	19.995	104.028	20.035	4.080	0.519
183.000	170.827	80.006	19.995	104.026	20.035	4.053	0.486
183.500	171.104	80.006	19.994	104.025	20.034	4.145	0.487
184.000	171.339	80.006	19.995	104.027	20.037	3.949	0.508
184.500	171.588	80.007	19.995	104.030	20.033	4.185	0.498
185.001	171.840	80.005	19.995	104.028	20.031	4.337	0.493
185.501	172.112	80.006	19.995	104.029	20.032	4.268	0.513
186.000	172.330	80.007	19.994	104.027	20.033	4.242	0.507
186.500	172.589	80.006	19.994	104.026	20.034	4.158	0.483
187.000	172.874	80.006	19.995	104.026	20.037	3.962	0.511
187.500	173.147	80.005	19.994	104.026	20.034	4.165	0.551
188.000	173.379	80.005	19.995	104.022	20.038	3.838	0.531
188.500	173.667	80.006	19.995	104.019	20.036	4.034	0.513
189.000	173.920	80.006	19.995	104.014	20.038	3.884	0.530
189.500	174.164	80.005	19.995	104.010	20.040	3.720	0.519
190.000	174.399	80.005	19.995	104.009	20.037	3.924	0.488
190.500	174.625	80.006	19.995	104.009	20.036	4.002	0.470
191.000	174.864	80.006	19.996	104.011	20.041	3.631	0.463
191.500	175.119	80.007	19.995	104.011	20.036	4.015	0.479
192.000	175.390	80.006	19.995	104.011	20.035	4.068	0.510
192.500	175.633	80.006	19.994	104.006	20.037	3.967	0.521
193.000	175.849	80.004	19.995	104.006	20.035	4.057	0.487
193.500	176.125	80.005	19.995	104.009	20.035	4.041	0.475
194.000	176.350	80.006	19.995	104.015	20.036	3.992	0.496
194.500	176.667	80.005	19.995	104.020	20.035	4.074	0.521
195.000	176.865	80.005	19.995	104.026	20.038	3.855	0.528
195.500	177.097	80.006	19.994	104.029	20.038	3.853	0.472
196.000	177.370	80.006	19.995	104.028	20.037	3.925	0.468
196.500	177.581	80.005	19.995	104.029	20.033	4.201	0.495
197.000	177.878	80.006	19.995	104.027	20.037	3.904	0.496
197.500	178.111	80.005	19.995	104.022	20.036	3.988	0.519
198.000	178.323	80.007	19.994	104.019	20.038	3.870	0.487
198.500	178.650	80.006	19.995	104.014	20.041	3.682	0.492
199.000	178.907	80.005	19.994	104.008	20.037	3.952	0.561
199.500	179.125	80.005	19.993	104.005	20.040	3.697	0.530
200.000	179.389	80.006	19.996	104.008	20.037	3.924	0.479
200.500	179.643	80.007	19.996	104.010	20.037	3.912	0.500
201.000	179.909	80.006	19.995	104.009	20.037	3.956	0.519
201.500	180.143	80.006	19.995	104.008	20.038	3.861	0.510
202.000	180.405	80.007	19.995	104.007	20.039	3.819	0.498
202.500	180.675	80.007	19.996	104.003	20.039	3.787	0.514
203.000	180.937	80.008	19.995	104.002	20.038	3.853	0.532
203.500	181.182	80.007	19.995	104.003	20.035	4.093	0.519
204.000	181.451	80.006	19.995	104.004	20.038	3.864	0.510
204.500	181.681	80.006	19.996	104.003	20.039	3.769	0.507
205.000	181.952	80.007	19.995	104.002	20.039	3.806	0.501
205.500	182.206	80.006	19.995	104.002	20.037	3.914	0.513
206.000	182.443	80.009	19.995	104.001	20.036	3.996	0.508
206.500	182.703	80.008	19.994	104.000	20.038	3.855	0.494
207.000	182.946	80.008	19.995	104.000	20.039	3.766	0.500
207.500	183.171	80.008	19.993	103.999	20.040	3.745	0.485
208.000	183.484	80.008	19.994	103.998	20.035	4.041	0.503
208.500	183.670	80.008	19.994	104.000	20.036	4.024	0.519
209.000	183.944	80.008	19.995	104.001	20.040	3.703	0.479
209.500	184.207	80.009	19.995	104.001	20.042	3.614	0.498
210.000	184.437	80.007	19.995	104.001	20.042	3.568	0.515
210.500	184.683	80.008	19.993	104.002	20.039	3.790	0.485
211.000	184.940	80.007	19.995	104.005	20.038	3.851	0.489
211.500	185.230	80.008	19.994	104.010	20.039	3.821	0.525
212.000	185.465	80.007	19.995	104.015	20.036	3.974	0.536
212.500	185.689	80.006	19.995	104.016	20.038	3.897	0.492
213.000	185.981	80.006	19.994	104.017	20.038	3.862	0.488
213.500	186.253	80.008	19.994	104.011	20.038	3.834	0.540
214.000	186.504	80.005	19.995	104.005	20.036	4.018	0.543
214.500	186.781	80.005	19.995	104.001	20.037	3.914	0.525
215.000	187.026	80.007	19.995	104.000	20.038	3.885	0.525
215.500	187.293	80.005	19.995	104.000	20.035	4.066	0.517
216.000	187.551	80.007	19.995	104.000	20.038	3.891	0.518
216.500	187.766	80.006	19.995	104.001	20.041	3.676	0.499
217.000	188.077	80.004	19.995	104.001	20.034	4.127	0.500
217.500	188.292	80.005	19.995	104.001	20.039	3.819	0.526
218.000	188.533	80.004	19.995	104.001	20.037	3.954	0.491
218.500	188.822	80.004	19.995	104.000	20.037	3.954	0.493
219.000	189.022	80.004	19.996	104.000	20.038	3.887	0.510
219.501	189.280	80.004	19.995	104.001	20.039	3.804	0.474
220.001	189.549	80.004	19.995	104.002	20.036	3.973	0.492
220.501	189.814	80.004	19.995	104.002	20.038	3.859	0.530
221.000	190.057	80.004	19.996	104.001	20.039	3.771	0.521
221.500	190.330	80.004	19.996	103.999	20.036	3.988	0.512
222.000	190.564	80.005	19.995	103.997	20.039	3.773	0.512
222.500	190.822	80.004	19.996	103.996	20.041	3.680	0.499
223.000	191.107	80.005	19.996	103.995	20.042	3.604	0.517
223.500	191.318	80.004	19.995	103.996	20.040	3.751	0.520
224.000	191.536	80.005	19.996	103.994	20.043	3.553	0.463
224.500	191.824	80.003	19.996	103.995	20.041	3.671	0.468
225.000	192.040	80.005	19.996	103.995	20.040	3.754	0.505
225.500	192.292	80.004	19.996	103.998	20.040	3.724	0.486
226.000	192.543	80.004	19.997	103.995	20.039	3.826	0.485
226.500	192.812	80.004	19.996	103.999	20.039	3.773	0.511
227.000	193.036	80.004	19.995	104.001	20.039	3.801	0.506
227.500	193.330	80.004	19.997	104.000	20.037	3.902	0.505
228.000	193.548	80.004	19.995	103.998	20.039	3.769	0.515
228.500	193.799	80.006	19.995	104.000	20.038	3.850	0.490
229.000	194.023	80.004	19.995	103.999	20.038	3.854	0.472
229.500	194.291	80.004	19.996	103.999	20.038	3.858	0.484
230.000	194.578	80.004	19.995	103.999	20.037	3.908	0.524
230.500	194.803	80.004	19.995	104.000	20.037	3.965	0.534
231.000	195.036	80.005	19.995	103.996	20.036	3.980	0.485
231.500	195.256	80.004	19.995	103.995	20.037	3.950	0.455
232.000	195.500	80.003	19.995	103.996	20.040	3.747	0.458
232.500	195.757	80.005	19.995	103.996	20.038	3.845	0.482
233.000	195.979	80.005	19.995	103.996	20.039	3.800	0.490
233.500	196.283	80.005	19.995	104.001	20.038	3.885	0.503
234.000	196.499	80.003	19.995	104.002	20.040	3.707	0.523
234.500	196.753	80.005	19.995	104.002	20.042	3.589	0.495
235.000	197.025	80.005	19.995	104.001	20.038	3.847	0.498
235.500	197.267	80.004	19.994	103.998	20.037	3.919	0.519
236.000	197.515	80.005	19.995	103.993	20.038	3.879	0.502
236.500	197.789	80.005	19.995	103.994	20.038	3.849	0.506
237.000	198.004	80.004	19.995	103.994	20.040	3.733	0.506
237.500	198.248	80.005	19.996	103.991	20.041	3.655	0.474
238.000	198.501	80.003	19.995	103.987	20.039	3.807	0.478
238.500	198.773	80.005	19.994	103.986	20.037	3.927	0.511
239.000	199.007	80.004	19.995	103.981	20.040	3.710	0.516
239.500	199.257	80.003	19.995	103.979	20.038	3.883	0.495
240.000	199.493	80.004	19.995	103.983	20.043	3.522	0.485
240.500	199.773	80.003	19.996	103.989	20.039	3.767	0.501
241.000	200.059	80.004	19.995	103.995	20.037	3.908	0.541
241.500	200.228	80.003	19.996	104.000	20.043	3.526	0.510
242.000	200.513	80.004	19.995	104.000	20.042	3.608	0.455
242.500	200.751	80.005	19.994	103.997	20.042	3.608	0.489
243.000	200.993	80.003	19.996	103.996	20.038	3.839	0.501
243.500	201.214	80.003	19.996	103.996	20.041	3.661	0.471
244.000	201.443	80.005	19.996	103.991	20.039	3.799	0.457
244.500	201.667	80.005	19.996	103.990	20.041	3.667	0.452
245.000	201.950	80.003	19.996	103.992	20.040	3.726	0.480
245.500	202.212	80.003	19.996	103.990	20.041	3.623	0.526
246.000	202.470	80.003	19.997	103.987	20.045	3.380	0.532
246.500	202.735	80.002	19.997	103.991	20.042	3.606	0.521
247.000	202.975	80.003	19.997	103.993	20.038	3.830	0.514
247.500	203.222	80.003	19.996	103.992	20.038	3.878	0.496
248.000	203.440	80.003	19.996	103.994	20.041	3.636	0.476
248.500	203.718	80.004	19.997	103.996	20.041	3.651	0.481
249.000	203.959	80.003	19.996	103.992	20.041	3.644	0.507
249.500	204.182	80.003	19.996	103.991	20.040	3.705	0.491
250.000	204.449	80.003	19.997	103.993	20.042	3.610	0.477
250.500	204.685	80.003	19.996	103.992	20.041	3.667	0.497
251.000	204.898	80.004	19.996	103.991	20.042	3.593	0.476
251.500	205.183	80.004	19.996	103.994	20.043	3.539	0.473
252.000	205.415	80.003	19.997	103.995	20.043	3.545	0.507
252.500	205.647	80.003	19.996	103.995	20.042	3.619	0.491
253.000	205.949	80.003	19.997	103.992	20.042	3.558	0.500
253.500	206.188	80.004	19.997	103.992	20.041	3.624	0.538
254.000	206.431	80.003	19.996	103.991	20.042	3.611	0.511
254.500	206.651	80.004	19.996	103.989	20.040	3.755	0.472
255.000	206.910	80.004	19.997	103.989	20.041	3.641	0.471
255.500	207.146	80.004	19.995	103.992	20.043	3.529	0.487
256.000	207.406	80.004	19.995	103.995	20.043	3.514	0.495
256.500	207.647	80.003	19.996	103.996	20.043	3.527	0.499
257.000	207.925	80.004	19.995	103.998	20.043	3.535	0.510
257.500	208.181	80.004	19.996	103.997	20.042	3.561	0.527
258.000	208.398	80.005	19.995	103.996	20.041	3.679	0.504
258.500	208.614	80.004	19.996	103.993	20.040	3.715	0.453
259.000	208.886	80.004	19.995	103.992	20.040	3.715	0.461
259.500	209.131	80.004	19.995	103.989	20.039	3.791	0.502
260.000	209.361	80.004	19.995	103.990	20.037	3.914	0.495
260.500	209.627	80.005	19.996	103.992	20.040	3.753	0.486
261.000	209.835	80.007	19.996	103.995	20.039	3.825	0.485
261.500	210.070	80.006	19.996	103.997	20.040	3.730	0.459
262.000	210.326	80.006	19.995	103.999	20.042	3.576	0.467
262.500	210.617	80.006	19.995	103.996	20.039	3.820	0.519
263.000	210.836	80.006	19.995	103.993	20.041	3.626	0.528
263.501	211.086	80.006	19.995	103.991	20.045	3.406	0.489
264.000	211.346	80.006	19.995	103.987	20.040	3.706	0.490
264.500	211.576	80.007	19.996	103.980	20.043	3.537	0.500
265.000	211.815	80.006	19.995	103.975	20.042	3.575	0.480
265.500	212.059	80.007	19.995	103.971	20.042	3.573	0.476
266.000	212.260	80.006	19.995	103.965	20.040	3.700	0.464
266.500	212.519	80.007	19.995	103.962	20.041	3.639	0.452
267.000	212.766	80.007	19.995	103.967	20.042	3.614	0.484
267.500	213.018	80.007	19.995	103.966	20.038	3.894	0.503
268.000	213.251	80.006	19.995	103.965	20.038	3.835	0.492
268.500	213.487	80.005	19.995	103.965	20.038	3.839	0.477
269.000	213.736	80.007	19.995	103.964	20.041	3.639	0.477
269.500	213.986	80.005	19.996	103.959	20.038	3.843	0.492
270.000	214.244	80.006	19.995	103.960	20.038	3.862	0.504
270.500	214.497	80.006	19.995	103.960	20.040	3.698	0.509
271.000	214.751	80.006	19.996	103.960	20.040	3.721	0.508
271.500	214.976	80.007	19.995	103.960	20.040	3.759	0.493
272.000	215.197	80.006	19.995	103.960	20.043	3.540	0.463
272.500	215.476	80.005	19.995	103.960	20.039	3.820	0.473
273.000	215.710	80.006	19.994	103.963	20.042	3.615	0.507
273.500	215.932	80.007	19.995	103.968	20.040	3.694	0.484
274.000	216.140	80.006	19.994	103.972	20.037	3.951	0.443
274.500	216.424	80.006	19.995	103.973	20.038	3.858	0.462
275.000	216.656	80.006	19.995	103.973	20.037	3.934	0.504
275.500	216.898	80.006	19.995	103.971	20.039	3.791	0.495
276.001	217.141	80.005	19.994	103.966	20.038	3.894	0.479
276.500	217.357	80.005	19.995	103.963	20.038	3.873	0.472
277.000	217.639	80.005	19.994	103.962	20.040	3.750	0.478
277.500	217.887	80.006	19.995	103.963	20.035	4.055	0.514
278.000	218.137	80.006	19.995	103.963	20.037	3.922	0.514
278.500	218.375	80.004	19.994	103.965	20.037	3.911	0.493
279.000	218.613	80.004	19.994	103.965	20.037	3.909	0.482
279.500	218.849	80.006	19.994	103.970	20.040	3.740	0.475
280.000	219.115	80.006	19.994	103.973	20.040	3.759	0.488
280.500	219.324	80.007	19.994	103.975	20.042	3.615	0.488
281.000	219.593	80.007	19.995	103.972	20.041	3.651	0.476
281.500	219.839	80.004	19.994	103.972	20.044	3.451	0.497
282.000	220.051	80.006	19.995	103.968	20.039	3.791	0.487
282.500	220.309	80.006	19.994	103.966	20.042	3.608	0.464
283.000	220.529	80.004	19.994	103.968	20.042	3.569	0.474
283.500	220.783	80.007	19.995	103.969	20.041	3.673	0.476
284.000	221.046	80.006	19.995	103.969	20.041	3.641	0.496
284.500	221.266	80.006	19.993	103.970	20.045	3.398	0.500
285.000	221.598	80.006	19.995	103.974	20.045	3.381	0.517
285.500	221.817	80.007	19.994	103.973	20.044	3.464	0.552
286.000	222.039	80.007	19.995	103.971	20.043	3.529	0.496
286.500	222.286	80.007	19.994	103.973	20.044	3.479	0.455
287.000	222.507	80.006	19.995	103.977	20.043	3.487	0.468
287.500	222.783	80.009	19.995	103.976	20.042	3.557	0.482
288.000	222.976	80.007	19.996	103.973	20.042	3.599	0.483
288.500	223.234	80.008	19.994	103.974	20.043	3.515	0.460
289.000	223.476	80.007	19.994	103.973	20.045	3.377	0.476
289.500	223.728	80.008	19.996	103.971	20.045	3.407	0.497
290.000	223.987	80.007	19.995	103.970	20.044	3.415	0.502
290.500	224.210	80.008	19.995	103.971	20.039	3.795	0.496
291.000	224.458	80.008	19.995	103.970	20.040	3.698	0.476
291.500	224.687	80.008	19.994	103.969	20.041	3.643	0.474
292.000	224.899	80.007	19.995	103.967	20.043	3.516	0.459
292.500	225.150	80.008	19.994	103.961	20.042	3.565	0.452
293.000	225.421	80.007	19.994	103.960	20.040	3.715	0.492
293.500	225.683	80.007	19.994	103.960	20.042	3.591	0.527
294.000	225.918	80.009	19.995	103.959	20.041	3.646	0.515
294.500	226.189	80.007	19.994	103.959	20.042	3.555	0.502
295.000	226.421	80.006	19.994	103.961	20.041	3.635	0.504
295.500	226.684	80.007	19.994	103.960	20.042	3.618	0.499
296.000	226.920	80.007	19.994	103.960	20.041	3.662	0.497
296.500	227.124	80.007	19.994	103.960	20.044	3.472	0.469
297.000	227.372	80.006	19.994	103.960	20.041	3.656	0.446
297.500	227.660	80.007	19.994	103.960	20.040	3.696	0.494
298.000	227.848	80.006	19.994	103.959	20.042	3.606	0.506
298.500	228.178	80.006	19.994	103.959	20.042	3.599	0.497
299.000	228.415	80.006	19.994	103.960	20.043	3.509	0.543
299.500	228.618	80.005	19.994	103.962	20.041	3.659	0.504
300.000	228.879	80.005	19.994	103.966	20.043	3.542	0.452
300.500	229.131	80.005	19.993	103.969	20.044	3.432	0.489
301.000	229.374	80.006	19.994	103.969	20.042	3.555	0.504
301.500	229.604	80.006	19.994	103.969	20.040	3.715	0.484
302.000	229.896	80.006	19.994	103.967	20.038	3.863	0.498
302.500	230.107	80.005	19.994	103.963	20.039	3.774	0.512
303.000	230.362	80.005	19.994	103.962	20.040	3.758	0.485
303.500	230.615	80.006	19.994	103.961	20.039	3.774	0.487
304.000	230.849	80.006	19.994	103.960	20.039	3.785	0.498
304.500	231.086	80.005	19.995	103.959	20.039	3.785	0.479
305.000	231.302	80.005	19.994	103.954	20.038	3.874	0.462
305.500	231.538	80.005	19.995	103.952	20.038	3.867	0.452
306.000	231.787	80.005	19.995	103.954	20.040	3.713	0.469
306.500	232.047	80.006	19.994	103.955	20.038	3.851	0.497
307.000	232.282	80.004	19.995	103.955	20.036	3.994	0.502
307.500	232.515	80.005	19.994	103.961	20.040	3.705	0.481
308.000	232.805	80.006	19.995	103.963	20.039	3.766	0.496
308.500	233.037	80.005	19.996	103.961	20.040	3.749	0.522
309.000	233.286	80.005	19.994	103.955	20.040	3.692	0.501
309.500	233.514	80.004	19.995	103.949	20.037	3.914	0.479
310.000	233.784	80.005	19.996	103.947	20.041	3.684	0.488
310.500	233.987	80.005	19.996	103.947	20.034	4.115	0.486
311.000	234.208	80.006	19.995	103.947	20.040	3.716	0.449
311.500	234.505	80.005	19.995	103.954	20.036	4.007	0.472
312.000	234.729	80.005	19.996	103.959	20.040	3.705	0.520
312.500	234.946	80.005	19.995	103.957	20.037	3.935	0.481
313.000	235.211	80.005	19.996	103.957	20.038	3.828	0.461
313.500	235.490	80.006	19.995	103.957	20.036	3.971	0.513
314.001	235.683	80.006	19.996	103.958	20.040	3.737	0.508
314.500	235.972	80.005	19.996	103.958	20.038	3.853	0.477
315.000	236.166	80.004	19.994	103.960	20.037	3.899	0.483
315.500	236.413	80.006	19.995	103.956	20.040	3.718	0.462
316.000	236.631	80.006	19.995	103.955	20.042	3.614	0.453
316.500	236.881	80.004	19.997	103.952	20.038	3.851	0.467
317.000	237.143	80.005	19.996	103.951	20.040	3.745	0.490
317.500	237.380	80.005	19.996	103.950	20.041	3.677	0.505
318.000	237.614	80.007	19.994	103.951	20.041	3.679	0.485
318.500	237.840	80.006	19.995	103.948	20.036	4.013	0.466
319.000	238.070	80.004	19.995	103.950	20.038	3.872	0.458
319.500	238.332	80.004	19.997	103.949	20.040	3.754	0.474
320.000	238.565	80.006	19.997	103.948	20.036	4.003	0.494
320.500	238.812	80.006	19.996	103.951	20.037	3.899	0.487
321.000	239.050	80.005	19.997	103.955	20.039	3.779	0.482
321.500	239.282	80.004	19.996	103.955	20.041	3.684	0.478
322.000	239.534	80.006	19.996	103.952	20.039	3.792	0.477
322.500	239.744	80.005	19.995	103.952	20.042	3.557	0.473
323.000	240.010	80.005	19.995	103.945	20.037	3.918	0.469
323.500	240.239	80.004	19.995	103.944	20.034	4.132	0.485
324.000	240.453	80.004	19.996	103.944	20.036	3.980	0.469
324.500	240.701	80.005	19.995	103.946	20.040	3.734	0.453
325.000	240.963	80.004	19.996	103.947	20.039	3.774	0.486
325.500	241.194	80.005	19.996	103.951	20.040	3.737	0.501
326.000	241.430	80.004	19.995	103.952	20.034	4.159	0.479
326.500	241.695	80.006	19.995	103.952	20.034	4.136	0.484
327.000	241.917	80.004	19.996	103.954	20.037	3.916	0.495
327.500	242.143	80.004	19.996	103.954	20.037	3.950	0.468
328.000	242.410	80.005	19.996	103.956	20.038	3.868	0.470
328.500	242.665	80.004	19.995	103.956	20.034	4.163	0.507
329.000	242.913	80.004	19.996	103.956	20.038	3.893	0.513
329.500	243.192	80.004	19.996	103.955	20.034	4.167	0.515
330.000	243.405	80.003	19.995	103.954	20.035	4.083	0.509
330.500	243.661	80.003	19.996	103.949	20.033	4.195	0.481
331.000	243.913	80.003	19.995	103.949	20.033	4.190	0.489
331.500	244.123	80.005	19.996	103.950	20.039	3.791	0.485
332.000	244.339	80.003	19.995	103.948	20.038	3.891	0.444
332.500	244.597	80.004	19.995	103.947	20.037	3.937	0.450
333.000	244.862	80.004	19.995	103.950	20.038	3.874	0.499
333.500	245.091	80.005	19.996	103.949	20.038	3.859	0.509
334.000	245.352	80.003	19.995	103.948	20.037	3.919	0.492
334.500	245.586	80.004	19.995	103.949	20.038	3.897	0.493
335.000	245.845	80.003	19.994	103.951	20.039	3.765	0.494
335.500	246.083	80.004	19.997	103.952	20.043	3.530	0.495
336.000	246.333	80.004	19.995	103.954	20.036	4.033	0.492
336.500	246.533	80.004	19.996	103.954	20.038	3.880	0.469
337.000	246.835	80.004	19.995	103.954	20.038	3.861	0.476
337.500	247.054	80.003	19.997	103.952	20.039	3.807	0.511
338.000	247.287	80.005	19.996	103.952	20.040	3.722	0.487
338.500	247.547	80.003	19.996	103.953	20.039	3.773	0.472
339.000	247.784	80.005	19.996	103.954	20.039	3.819	0.495
339.500	247.984	80.004	19.996	103.954	20.041	3.648	0.467
340.000	248.242	80.004	19.996	103.956	20.039	3.794	0.448
340.500	248.491	80.005	19.996	103.957	20.044	3.471	0.483
341.000	248.764	80.004	19.996	103.957	20.040	3.735	0.515
341.500	248.991	80.005	19.996	103.957	20.044	3.468	0.510
342.000	249.223	80.004	19.996	103.959	20.042	3.563	0.479
342.500	249.483	80.003	19.996	103.957	20.044	3.445	0.475
343.000	249.708	80.004	19.996	103.958	20.043	3.485	0.489
343.500	249.973	80.004	19.995	103.957	20.042	3.582	0.488
344.000	250.225	80.004	19.996	103.955	20.044	3.464	0.503
344.500	250.483	80.004	19.995	103.947	20.043	3.547	0.514
345.000	250.731	80.006	19.996	103.945	20.042	3.564	0.509
345.500	250.950	80.005	19.996	103.943	20.042	3.560	0.487
346.000	251.244	80.005	19.996	103.941	20.039	3.780	0.490
346.500	251.468	80.005	19.996	103.937	20.042	3.568	0.516
347.000	251.715	80.006	19.996	103.943	20.042	3.593	0.495
347.500	251.954	80.004	19.996	103.947	20.041	3.682	0.478
348.000	252.222	80.006	19.996	103.947	20.039	3.796	0.496
348.500	252.494	80.006	19.996	103.945	20.043	3.546	0.523
349.000	252.724	80.006	19.996	103.949	20.040	3.745	0.521
349.500	252.972	80.005	19.996	103.950	20.041	3.680	0.490
350.000	253.221	80.007	19.995	103.951	20.043	3.515	0.488
350.500	253.458	80.007	19.995	103.951	20.040	3.749	0.492
351.000	253.688	80.006	19.996	103.952	20.039	3.772	0.476
351.500	253.964	80.007	19.997	103.950	20.041	3.643	0.486
352.000	254.186	80.006	19.995	103.950	20.039	3.785	0.502
352.500	254.443	80.006	19.996	103.949	20.039	3.806	0.489
353.000	254.739	80.006	19.996	103.950	20.038	3.846	0.516
353.500	254.928	80.007	19.996	103.953	20.039	3.798	0.519
354.000	255.206	80.007	19.996	103.956	20.036	4.011	0.476
354.500	255.446	80.006	19.995	103.949	20.038	3.868	0.493
355.000	255.706	80.006	19.995	103.943	20.038	3.857	0.508
355.500	255.930	80.006	19.996	103.938	20.038	3.831	0.492
356.000	256.216	80.006	19.995	103.933	20.039	3.791	0.498
356.500	256.445	80.006	19.994	103.930	20.037	3.903	0.513
357.000	256.693	80.006	19.995	103.937	20.038	3.834	0.496
357.500	256.923	80.005	19.994	103.943	20.037	3.964	0.477
358.000	257.165	80.006	19.996	103.944	20.031	4.324	0.476
358.500	257.415	80.006	19.994	103.949	20.036	4.024	0.482
359.000	257.638	80.005	19.994	103.953	20.037	3.958	0.482
359.500	257.929	80.005	19.994	103.952	20.038	3.848	0.493
360.000	258.200	80.005	19.995	103.947	20.036	3.982	0.538
360.500	258.444	80.006	19.995	103.948	20.037	3.965	0.539
361.000	258.648	80.005	19.994	103.950	20.039	3.812	0.481
361.500	258.931	80.007	19.995	103.949	20.038	3.836	0.467
362.000	259.166	80.005	19.995	103.951	20.038	3.855	0.502
362.500	259.342	80.006	19.995	103.957	20.040	3.758	0.464
363.000	259.645	80.004	19.994	103.959	20.037	3.925	0.445
363.500	259.888	80.006	19.994	103.959	20.035	4.077	0.513
364.000	260.151	80.005	19.994	103.961	20.036	4.000	0.526
364.500	260.362	80.005	19.995	103.960	20.039	3.808	0.490
365.000	260.606	80.005	19.994	103.956	20.038	3.876	0.464
365.500	260.860	80.007	19.995	103.954	20.038	3.845	0.477
366.000	261.083	80.006	19.995	103.954	20.036	4.011	0.488
366.500	261.367	80.006	19.995	103.954	20.038	3.878	0.493
367.000	261.562	80.006	19.995	103.953	20.037	3.935	0.493
367.500	261.840	80.007	19.995	103.957	20.033	4.182	0.476
368.000	262.068	80.006	19.995	103.959	20.037	3.935	0.489
368.500	262.351	80.006	19.994	103.960	20.036	3.980	0.508
369.000	262.552	80.006	19.994	103.959	20.034	4.119	0.497
369.500	262.825	80.006	19.994	103.959	20.034	4.123	0.479
370.000	263.088	80.007	19.995	103.959	20.032	4.259	0.505
370.500	263.296	80.009	19.995	103.958	20.035	4.049	0.503
371.000	263.550	80.007	19.995	103.955	20.034	4.132	0.466
371.500	263.798	80.007	19.995	103.953	20.037	3.901	0.482
372.000	264.043	80.007	19.995	103.955	20.037	3.899	0.498
372.500	264.314	80.007	19.995	103.953	20.039	3.769	0.505
373.000	264.558	80.006	19.995	103.954	20.038	3.876	0.516
373.500	264.802	80.007	19.994	103.954	20.040	3.705	0.501
374.000	265.054	80.007	19.994	103.953	20.037	3.908	0.491
374.500	265.329	80.007	19.994	103.953	20.040	3.693	0.511
375.000	265.616	80.007	19.994	103.954	20.037	3.929	0.545
375.500	265.812	80.007	19.995	103.954	20.039	3.798	0.523
376.000	266.051	80.008	19.996	103.951	20.040	3.741	0.460
376.500	266.331	80.007	19.995	103.949	20.038	3.864	0.477
377.000	266.571	80.006	19.995	103.949	20.040	3.699	0.519
377.500	266.805	80.007	19.995	103.946	20.037	3.916	0.497
378.000	267.071	80.007	19.994	103.946	20.040	3.716	0.487
378.500	267.329	80.006	19.994	103.951	20.039	3.818	0.512
379.000	267.593	80.005	19.994	103.953	20.040	3.701	0.523
379.500	267.804	80.005	19.996	103.947	20.038	3.866	0.498
380.000	268.096	80.006	19.997	103.948	20.041	3.653	0.489
380.500	268.286	80.007	19.996	103.948	20.044	3.458	0.493
381.000	268.594	80.005	19.995	103.948	20.040	3.754	0.490
381.500	268.798	80.005	19.996	103.950	20.042	3.610	0.505
382.000	269.050	80.005	19.996	103.955	20.041	3.629	0.484
382.500	269.272	80.006	19.996	103.954	20.040	3.699	0.465
383.000	269.515	80.005	19.995	103.949	20.044	3.461	0.469
383.500	269.804	80.005	19.995	103.946	20.047	3.271	0.498
384.000	270.054	80.005	19.995	103.943	20.042	3.600	0.536
384.500	270.330	80.004	19.995	103.938	20.041	3.630	0.533
385.000	270.552	80.005	19.995	103.940	20.043	3.505	0.512
385.500	270.849	80.004	19.996	103.944	20.044	3.429	0.508
386.000	271.061	80.004	19.995	103.943	20.043	3.493	0.514
386.500	271.342	80.004	19.995	103.946	20.045	3.381	0.502
387.000	271.615	80.005	19.995	103.948	20.043	3.520	0.524
387.500	271.855	80.004	19.996	103.946	20.043	3.516	0.533
388.000	272.150	80.004	19.995	103.944	20.044	3.413	0.524
388.501	272.353	80.004	19.994	103.943	20.045	3.353	0.517
389.000	272.636	80.004	19.995	103.937	20.043	3.546	0.492
389.500	272.897	80.007	19.995	103.934	20.042	3.573	0.515
390.000	273.147	80.006	19.995	103.934	20.043	3.548	0.528
390.500	273.382	80.005	19.996	103.936	20.040	3.695	0.498
391.000	273.647	80.005	19.995	103.940	20.044	3.458	0.493
391.500	273.903	80.005	19.995	103.942	20.045	3.399	0.511
392.000	274.152	80.004	19.994	103.945	20.046	3.298	0.513
392.500	274.405	80.005	19.996	103.941	20.043	3.522	0.504
393.000	274.660	80.005	19.996	103.935	20.045	3.359	0.505
393.500	274.884	80.004	19.995	103.929	20.044	3.436	0.494
394.000	275.153	80.006	19.996	103.926	20.044	3.463	0.486
394.500	275.423	80.004	19.995	103.923	20.046	3.305	0.516
395.000	275.686	80.005	19.995	103.924	20.045	3.360	0.536
395.500	275.938	80.004	19.994	103.924	20.044	3.429	0.525
396.000	276.168	80.005	19.996	103.923	20.045	3.408	0.499
396.500	276.429	80.005	19.994	103.923	20.043	3.533	0.487
397.000	276.699	80.004	19.995	103.922	20.044	3.457	0.511
397.500	276.922	80.005	19.995	103.921	20.042	3.600	0.511
398.000	277.182	80.005	19.995	103.920	20.043	3.548	0.488
398.500	277.413	80.006	19.995	103.919	20.044	3.467	0.487
399.000	277.633	80.006	19.995	103.919	20.042	3.611	0.471
399.500	277.896	80.004	19.995	103.919	20.047	3.264	0.467
400.000	278.170	80.004	19.994	103.920	20.042	3.554	0.510
400.500	278.432	80.004	19.995	103.920	20.044	3.459	0.536
401.000	278.713	80.004	19.995	103.920	20.043	3.518	0.540
401.500	278.935	80.006	19.996	103.926	20.044	3.421	0.523
402.000	279.179	80.005	19.994	103.931	20.042	3.588	0.484
402.500	279.404	80.005	19.995	103.932	20.042	3.607	0.467
403.000	279.651	80.005	19.995	103.932	20.039	3.794	0.471
403.500	279.910	80.005	19.996	103.933	20.042	3.613	0.489
404.000	280.175	80.006	19.995	103.927	20.044	3.461	0.515
404.500	280.406	80.006	19.996	103.923	20.042	3.552	0.510
405.000	280.641	80.004	19.996	103.921	20.045	3.397	0.481
405.500	280.897	80.004	19.994	103.921	20.042	3.560	0.479
406.001	281.118	80.004	19.996	103.921	20.044	3.438	0.484
406.500	281.407	80.005	19.995	103.921	20.041	3.687	0.493
407.000	281.649	80.005	19.995	103.921	20.042	3.575	0.521
407.500	281.942	80.004	19.995	103.922	20.045	3.365	0.533
408.000	282.129	80.005	19.996	103.922	20.042	3.601	0.508
408.500	282.389	80.004	19.996	103.921	20.045	3.373	0.464
409.000	282.701	80.004	19.996	103.925	20.045	3.369	0.510
409.500	282.891	80.004	19.995	103.926	20.046	3.291	0.537
410.000	283.190	80.003	19.996	103.927	20.043	3.498	0.495
410.500	283.429	80.005	19.996	103.927	20.042	3.552	0.513
411.000	283.663	80.003	19.996	103.927	20.043	3.541	0.505
411.500	283.878	80.004	19.996	103.923	20.047	3.258	0.461
412.000	284.133	80.004	19.995	103.922	20.047	3.211	0.460
412.500	284.399	80.003	19.995	103.921	20.046	3.338	0.496
413.000	284.638	80.004	19.995	103.929	20.046	3.306	0.513
413.500	284.889	80.003	19.996	103.930	20.046	3.281	0.498
414.000	285.127	80.003	19.996	103.932	20.049	3.137	0.490
414.500	285.348	80.003	19.996	103.933	20.043	3.518	0.474
415.000	285.604	80.003	19.996	103.934	20.045	3.359	0.468
415.500	285.848	80.004	19.996	103.927	20.048	3.156	0.488
416.000	286.086	80.003	19.995	103.926	20.046	3.330	0.491
416.500	286.324	80.002	19.995	103.924	20.047	3.239	0.478
417.000	286.573	80.016	19.998	103.923	20.044	3.448	0.482
417.500	286.814	80.022	20.000	103.929	20.044	3.477	0.489
418.000	287.099	80.023	20.001	103.935	20.043	3.530	0.508
418.500	287.344	80.023	19.999	103.944	20.044	3.424	0.528
419.000	287.613	80.015	19.998	103.950	20.045	3.382	0.522
419.500	287.854	80.005	19.997	103.954	20.045	3.363	0.512
420.000	288.113	80.004	19.997	103.948	20.043	3.494	0.505
420.500	288.362	80.004	19.997	103.942	20.042	3.553	0.504
421.000	288.606	80.005	19.997	103.936	20.041	3.621	0.500
421.500	288.838	80.004	19.996	103.931	20.042	3.562	0.484
422.000	289.087	80.004	19.996	103.929	20.045	3.405	0.479
422.500	289.324	80.004	19.995	103.932	20.044	3.481	0.484
423.000	289.606	80.006	19.996	103.934	20.042	3.576	0.503
423.500	289.850	80.005	19.996	103.939	20.046	3.310	0.522
424.000	290.088	80.005	19.995	103.939	20.043	3.539	0.503
424.500	290.329	80.004	19.995	103.939	20.041	3.624	0.481
425.000	290.607	80.004	19.995	103.936	20.043	3.490	0.500
425.500	290.853	80.004	19.995	103.934	20.044	3.433	0.522
426.000	291.119	80.006	19.996	103.929	20.046	3.283	0.518
426.500	291.387	80.005	19.994	103.929	20.047	3.269	0.523
427.000	291.657	80.004	19.996	103.933	20.049	3.108	0.536
427.500	291.870	80.005	19.996	103.940	20.050	3.009	0.510
428.000	292.110	80.005	19.997	103.944	20.046	3.298	0.468
428.500	292.348	80.005	19.996	103.943	20.047	3.229	0.466
429.000	292.612	80.005	19.995	103.943	20.047	3.250	0.490
429.500	292.880	80.005	19.996	103.939	20.049	3.112	0.517
430.000	293.120	80.006	19.996	103.937	20.046	3.292	0.520
430.500	293.354	80.005	19.997	103.931	20.047	3.213	0.491
431.000	293.608	80.005	19.996	103.932	20.045	3.362	0.481
431.500	293.846	80.006	19.996	103.934	20.048	3.193	0.490
432.000	294.104	80.005	19.995	103.936	20.045	3.412	0.494
432.500	294.308	80.005	19.996	103.938	20.047	3.263	0.479
433.000	294.577	80.005	19.996	103.944	20.046	3.300	0.467
433.500	294.842	80.006	19.997	103.944	20.049	3.114	0.504
434.000	295.084	80.006	19.994	103.944	20.048	3.144	0.520
434.500	295.285	80.004	19.995	103.941	20.047	3.237	0.475
435.000	295.514	80.005	19.995	103.935	20.048	3.144	0.437
435.500	295.822	80.006	19.995	103.928	20.048	3.142	0.484
436.000	296.021	80.006	19.995	103.927	20.047	3.256	0.522
436.500	296.315	80.007	19.997	103.924	20.049	3.091	0.500
437.000	296.523	80.004	19.996	103.922	20.048	3.182	0.498
437.500	296.797	80.006	19.996	103.920	20.044	3.436	0.492
438.000	297.065	80.005	19.996	103.919	20.049	3.127	0.512
438.500	297.290	80.006	19.995	103.918	20.045	3.410	0.518
439.000	297.559	80.003	19.996	103.919	20.046	3.309	0.494
439.500	297.819	80.003	19.996	103.920	20.047	3.216	0.512
440.000	298.069	80.005	19.998	103.925	20.047	3.220	0.519
440.500	298.303	80.005	19.997	103.928	20.044	3.440	0.497
441.001	298.582	80.005	19.996	103.929	20.045	3.349	0.499
441.501	298.852	80.005	19.997	103.930	20.046	3.309	0.531
442.000	299.101	80.006	19.996	103.928	20.044	3.467	0.534
442.500	299.303	80.005	19.997	103.923	20.046	3.301	0.485
443.000	299.564	80.005	19.997	103.920	20.045	3.357	0.457
443.500	299.791	80.005	19.996	103.920	20.047	3.229	0.475
444.000	300.039	80.006	19.996	103.919	20.046	3.307	0.481
444.500	300.269	80.006	19.996	103.922	20.049	3.072	0.476
445.000	300.540	80.006	19.996	103.925	20.050	3.045	0.489
445.500	300.772	80.007	19.996	103.925	20.049	3.081	0.502
446.000	301.018	80.004	19.996	103.924	20.049	3.081	0.491
446.500	301.296	80.007	19.996	103.924	20.047	3.209	0.501
447.000	301.551	80.006	19.996	103.921	20.050	3.068	0.528
447.500	301.802	80.005	19.994	103.918	20.050	3.030	0.519
448.000	302.071	80.006	19.996	103.918	20.049	3.091	0.513
448.500	302.258	80.005	19.996	103.919	20.049	3.079	0.488
449.000	302.539	80.006	19.996	103.919	20.052	2.872	0.462
449.500	302.824	80.007	19.996	103.920	20.052	2.886	0.517
450.000	303.040	80.006	19.995	103.921	20.050	3.017	0.533
450.501	303.297	80.006	19.996	103.923	20.049	3.098	0.487
451.000	303.546	80.007	19.995	103.926	20.053	2.838	0.489
451.500	303.795	80.007	19.995	103.926	20.051	2.944	0.502
452.000	304.025	80.006	19.995	103.925	20.051	2.973	0.489
452.500	304.245	80.007	19.995	103.925	20.050	3.013	0.465
453.000	304.516	80.007	19.994	103.923	20.051	2.931	0.470
453.500	304.757	80.007	19.995	103.920	20.047	3.227	0.501
454.000	305.017	80.007	19.995	103.920	20.053	2.806	0.506
454.500	305.265	80.008	19.995	103.921	20.052	2.871	0.505
455.000	305.477	80.007	19.996	103.922	20.050	3.019	0.484
455.500	305.785	80.008	19.994	103.924	20.051	2.945	0.490
456.000	305.976	80.008	19.996	103.925	20.051	2.937	0.510
456.500	306.241	80.008	19.995	103.925	20.048	3.169	0.477
457.000	306.496	80.006	19.995	103.924	20.053	2.804	0.488
457.500	306.733	80.007	19.995	103.923	20.052	2.872	0.506
458.001	306.972	80.008	19.995	103.921	20.050	3.013	0.484
458.500	307.255	80.007	19.996	103.920	20.052	2.918	0.499
459.000	307.495	80.007	19.995	103.920	20.052	2.880	0.523
459.500	307.785	80.007	19.996	103.919	20.054	2.749	0.526
460.000	308.001	80.007	19.995	103.919	20.051	2.941	0.518
460.500	308.227	80.007	19.996	103.920	20.049	3.114	0.474
461.000	308.460	80.007	19.994	103.919	20.050	3.038	0.451
461.500	308.730	80.006	19.995	103.919	20.053	2.815	0.481
462.001	309.007	80.006	19.996	103.918	20.049	3.074	0.525
462.500	309.246	80.006	19.995	103.917	20.050	3.062	0.532
463.000	309.502	80.005	19.995	103.917	20.051	2.950	0.505
463.500	309.755	80.006	19.996	103.918	20.052	2.912	0.502
464.000	309.998	80.005	19.996	103.918	20.050	3.062	0.502
464.500	310.241	80.006	19.995	103.919	20.052	2.899	0.491
465.000	310.528	80.004	19.995	103.920	20.050	3.007	0.508
465.500	310.758	80.006	19.996	103.920	20.052	2.865	0.524
466.000	311.019	80.004	19.996	103.922	20.052	2.873	0.504
466.500	311.250	80.005	19.995	103.922	20.054	2.751	0.491
467.000	311.514	80.005	19.995	103.922	20.050	3.034	0.494
467.500	311.761	80.004	19.996	103.922	20.054	2.772	0.503
468.000	312.027	80.005	19.995	103.922	20.051	2.964	0.512
468.500	312.279	80.004	19.996	103.920	20.049	3.089	0.516
469.000	312.522	80.006	19.996	103.920	20.053	2.825	0.506
469.500	312.796	80.005	19.995	103.920	20.054	2.779	0.506
470.000	313.035	80.004	19.996	103.920	20.052	2.907	0.515
470.500	313.258	80.005	19.995	103.920	20.053	2.835	0.487
471.000	313.556	80.005	19.995	103.919	20.053	2.825	0.492
471.500	313.767	80.005	19.996	103.920	20.050	3.021	0.516
472.000	314.033	80.004	19.996	103.921	20.049	3.137	0.493
472.500	314.286	80.004	19.996	103.921	20.052	2.903	0.498
473.000	314.543	80.005	19.995	103.921	20.052	2.867	0.515
473.500	314.781	80.004	19.996	103.921	20.052	2.869	0.503
474.000	315.064	80.003	19.994	103.922	20.049	3.102	0.508
474.500	315.284	80.005	19.995	103.922	20.046	3.284	0.512
475.000	315.540	80.005	19.995	103.923	20.051	2.933	0.489
475.500	315.805	80.003	19.995	103.925	20.050	3.038	0.499
476.000	316.050	80.004	19.995	103.926	20.050	3.017	0.516
476.500	316.279	80.004	19.995	103.926	20.050	3.015	0.492
477.000	316.540	80.004	19.995	103.926	20.049	3.121	0.482
477.501	316.781	80.004	19.995	103.924	20.050	3.059	0.496
478.000	317.034	80.004	19.996	103.922	20.052	2.880	0.498
478.500	317.256	80.004	19.994	103.921	20.052	2.922	0.484
479.000	317.526	80.005	19.995	103.921	20.053	2.827	0.483
479.500	317.785	80.005	19.996	103.922	20.053	2.853	0.510
480.000	318.054	80.005	19.996	103.923	20.052	2.907	0.528
480.500	318.331	80.005	19.995	103.923	20.048	3.191	0.537
481.000	318.569	80.004	19.995	103.923	20.052	2.872	0.531
481.500	318.821	80.005	19.995	103.925	20.054	2.770	0.502
482.000	319.022	80.004	19.996	103.926	20.051	2.971	0.472
482.500	319.309	80.005	19.995	103.928	20.054	2.749	0.470
483.000	319.550	80.005	19.994	103.929	20.051	2.960	0.507
483.500	319.805	80.006	19.995	103.929	20.050	3.024	0.512
484.000	320.058	80.005	19.995	103.926	20.050	3.011	0.502
484.500	320.285	80.007	19.995	103.925	20.053	2.844	0.494
485.000	320.583	80.005	19.996	103.922	20.051	2.967	0.502
485.500	320.813	80.005	19.996	103.922	20.053	2.800	0.527
486.000	321.033	80.005	19.995	103.922	20.054	2.730	0.489
486.500	321.315	80.004	19.996	103.922	20.051	2.981	0.476
487.000	321.554	80.005	19.994	103.922	20.049	3.095	0.512
487.500	321.805	80.004	19.994	103.922	20.051	2.933	0.506
488.000	322.047	80.005	19.995	103.923	20.050	3.000	0.491
488.500	322.339	80.005	19.995	103.923	20.050	3.022	0.513
489.000	322.570	80.006	19.994	103.923	20.049	3.125	0.529
489.500	322.808	80.004	19.995	103.923	20.050	3.024	0.496
490.000	323.048	80.004	19.994	103.922	20.052	2.867	0.473
490.500	323.289	80.004	19.995	103.922	20.053	2.804	0.479
491.000	323.559	80.004	19.994	103.922	20.051	2.952	0.496
491.500	323.774	80.004	19.995	103.922	20.051	2.933	0.498
492.000	324.048	80.003	19.996	103.922	20.051	2.941	0.487
492.500	324.316	80.005	19.995	103.923	20.053	2.795	0.515
493.000	324.574	80.003	19.995	103.922	20.057	2.572	0.534
493.500	324.811	80.005	19.995	103.923	20.052	2.926	0.510
494.000	325.068	80.004	19.996	103.923	20.053	2.808	0.494
494.500	325.297	80.005	19.995	103.923	20.054	2.781	0.490
495.000	325.613	80.004	19.996	103.923	20.052	2.912	0.516
495.500	325.815	80.004	19.995	103.923	20.052	2.878	0.532
496.000	326.067	80.003	19.994	103.922	20.052	2.910	0.486
496.500	326.330	80.003	19.995	103.923	20.054	2.734	0.484
497.000	326.534	80.004	19.996	103.923	20.054	2.791	0.491
497.500	326.791	80.005	19.996	103.921	20.051	2.958	0.464
498.000	327.050	80.003	19.995	103.921	20.048	3.157	0.488
498.500	327.294	80.004	19.994	103.920	20.051	2.982	0.510
499.000	327.557	80.004	19.995	103.919	20.052	2.927	0.505
499.500	327.807	80.004	19.996	103.919	20.050	3.058	0.510
500.000	328.037	80.004	19.997	103.921	20.049	3.085	0.497
500.500	328.306	80.004	19.996	103.922	20.050	3.062	0.489
501.000	328.590	80.004	19.996	103.923	20.050	3.003	0.526
501.500	328.816	80.003	19.997	103.924	20.049	3.085	0.531
502.000	329.055	80.004	19.996	103.922	20.052	2.904	0.487
502.500	329.331	80.005	19.996	103.921	20.051	2.931	0.490
503.000	329.556	80.003	19.995	103.920	20.052	2.916	0.508
503.500	329.835	80.004	19.996	103.919	20.054	2.741	0.503
504.000	330.074	80.005	19.997	103.919	20.052	2.925	0.511
504.500	330.362	80.004	19.996	103.920	20.056	2.626	0.523
505.001	330.606	80.005	19.997	103.920	20.054	2.760	0.530
505.500	330.816	80.005	19.995	103.920	20.053	2.838	0.493
506.000	331.084	80.005	19.997	103.921	20.055	2.709	0.466
506.500	331.328	80.004	19.995	103.921	20.055	2.677	0.495
507.000	331.641	80.004	19.995	103.921	20.052	2.893	0.534
507.500	331.871	80.004	19.994	103.921	20.056	2.648	0.550
508.000	332.149	80.004	19.996	103.921	20.055	2.715	0.526
508.500	332.386	80.006	19.996	103.920	20.052	2.869	0.512
509.000	332.607	80.005	19.995	103.919	20.052	2.924	0.487
509.500	332.891	80.006	19.996	103.919	20.054	2.726	0.482
510.000	333.124	80.005	19.996	103.918	20.056	2.599	0.511
510.501	333.381	80.006	19.995	103.918	20.054	2.772	0.503
511.000	333.627	80.005	19.996	103.918	20.052	2.926	0.497
511.500	333.871	80.005	19.994	103.916	20.051	2.931	0.497
512.000	334.103	80.005	19.996	103.915	20.050	3.051	0.483
512.500	334.385	80.006	19.995	103.913	20.051	2.971	0.495
513.000	334.606	80.005	19.995	103.914	20.051	2.996	0.508
513.500	334.868	80.006	19.994	103.912	20.052	2.893	0.493
514.000	335.119	80.005	19.995	103.914	20.052	2.906	0.498
514.500	335.374	80.006	19.995	103.915	20.048	3.138	0.509
515.000	335.640	80.007	19.995	103.917	20.053	2.815	0.513
515.500	335.887	80.007	19.995	103.916	20.052	2.908	0.517
516.000	336.136	80.008	19.995	103.917	20.051	2.973	0.504
516.500	336.381	80.005	19.994	103.917	20.050	3.019	0.494
517.000	336.649	80.006	19.995	103.917	20.052	2.878	0.504
517.500	336.882	80.007	19.995	103.917	20.048	3.152	0.508
518.000	337.164	80.005	19.995	103.918	20.052	2.876	0.508
518.500	337.415	80.006	19.996	103.919	20.053	2.821	0.524
519.000	337.640	80.005	19.996	103.918	20.050	3.022	0.504
519.500	337.906	80.005	19.995	103.919	20.051	2.965	0.483
520.000	338.154	80.006	19.995	103.919	20.048	3.144	0.502
520.500	338.437	80.007	19.996	103.919	20.048	3.157	0.523
521.000	338.697	80.005	19.995	103.919	20.048	3.170	0.537
521.500	338.941	80.005	19.995	103.920	20.048	3.150	0.523
522.000	339.192	80.005	19.996	103.919	20.049	3.117	0.499
522.500	339.420	80.006	19.995	103.919	20.050	3.011	0.487
523.000	339.641	80.005	19.996	103.919	20.051	2.992	0.465
523.500	339.955	80.005	19.994	103.918	20.048	3.157	0.492
524.000	340.183	80.005	19.996	103.915	20.048	3.187	0.538
524.500	340.434	80.005	19.996	103.914	20.046	3.297	0.510
525.000	340.633	80.005	19.996	103.913	20.049	3.091	0.465
525.500	340.909	80.005	19.995	103.914	20.051	2.980	0.463
526.000	341.151	80.005	19.995	103.916	20.049	3.098	0.496
526.500	341.393	80.005	19.996	103.920	20.052	2.869	0.501
527.000	341.660	80.005	19.996	103.923	20.051	2.969	0.497
527.500	341.933	80.005	19.995	103.924	20.047	3.216	0.525
528.000	342.185	80.006	19.996	103.924	20.048	3.189	0.533
528.500	342.387	80.005	19.996	103.923	20.046	3.298	0.490
529.000	342.682	80.006	19.996	103.923	20.047	3.224	0.475
529.500	342.923	80.006	19.995	103.920	20.048	3.176	0.516
530.000	343.187	80.006	19.996	103.919	20.051	2.960	0.521
530.500	343.436	80.006	19.996	103.919	20.047	3.220	0.510
531.000	343.712	80.006	19.995	103.919	20.050	3.015	0.519
531.500	343.926	80.007	19.996	103.919	20.049	3.125	0.507
532.000	344.214	80.005	19.995	103.919	20.049	3.131	0.496
532.500	344.455	80.005	19.996	103.919	20.049	3.112	0.515
533.000	344.678	80.006	19.996	103.919	20.050	3.002	0.497
533.500	344.942	80.006	19.995	103.919	20.050	3.062	0.476
534.000	345.192	80.006	19.995	103.918	20.051	2.956	0.500
534.501	345.420	80.005	19.996	103.919	20.050	3.062	0.496
535.001	345.690	80.006	19.996	103.916	20.051	2.937	0.489
535.500	345.927	80.004	19.996	103.915	20.051	2.994	0.503
536.001	346.210	80.006	19.996	103.914	20.050	3.039	0.513
536.500	346.460	80.007	19.996	103.915	20.049	3.079	0.526
537.000	346.728	80.006	19.996	103.915	20.048	3.148	0.525
537.500	346.984	80.006	19.995	103.917	20.049	3.112	0.521
538.000	347.204	80.006	19.995	103.918	20.049	3.133	0.500
538.500	347.456	80.006	19.995	103.919	20.047	3.220	0.474
539.000	347.724	80.006	19.995	103.919	20.051	2.986	0.496
539.500	347.966	80.007	19.997	103.919	20.045	3.347	0.516
540.000	348.214	80.007	19.995	103.920	20.049	3.127	0.500
540.500	348.494	80.008	19.995	103.920	20.046	3.324	0.509
541.000	348.743	80.007	19.995	103.920	20.048	3.167	0.528
541.500	348.979	80.006	19.996	103.920	20.047	3.249	0.507
542.000	349.232	80.006	19.997	103.920	20.047	3.224	0.487
542.500	349.516	80.007	19.996	103.918	20.048	3.203	0.513
543.000	349.727	80.005	19.995	103.918	20.046	3.290	0.516
543.500	350.041	80.006	19.995	103.919	20.046	3.288	0.510
544.000	350.278	80.006	19.995	103.920	20.047	3.214	0.538
544.500	350.514	80.005	19.995	103.921	20.045	3.370	0.512
545.000	350.793	80.007	19.995	103.922	20.048	3.186	0.494
545.500	351.054	80.006	19.996	103.922	20.046	3.336	0.528
546.001	351.288	80.005	19.996	103.921	20.044	3.471	0.518
546.500	351.549	80.005	19.996	103.920	20.043	3.516	0.495
547.000	351.833	80.004	19.995	103.920	20.046	3.290	0.519
547.500	352.111	80.004	19.995	103.921	20.048	3.193	0.553
548.000	352.350	80.005	19.996	103.921	20.045	3.402	0.540
548.500	352.568	80.006	19.995	103.922	20.045	3.370	0.487
549.000	352.872	80.005	19.995	103.922	20.048	3.201	0.489
549.500	353.124	80.005	19.995	103.921	20.047	3.231	0.539
550.000	353.383	80.002	19.995	103.922	20.049	3.133	0.534
550.500	353.688	80.005	19.994	103.922	20.046	3.313	0.538
551.000	353.916	80.005	19.995	103.922	20.046	3.338	0.549
551.500	354.181	80.006	19.995	103.923	20.048	3.205	0.513
552.001	354.449	80.005	19.996	103.924	20.046	3.338	0.513
552.500	354.715	80.005	19.995	103.928	20.047	3.264	0.534
553.000	354.916	80.004	19.994	103.929	20.043	3.529	0.501
553.500	355.211	80.004	19.996	103.929	20.046	3.311	0.481
554.000	355.452	80.005	19.996	103.928	20.044	3.474	0.516
554.500	355.695	80.004	19.996	103.928	20.046	3.338	0.511
555.000	355.981	80.003	19.994	103.925	20.047	3.231	0.507
555.500	356.270	80.005	19.995	103.924	20.047	3.228	0.552
556.000	356.463	80.004	19.995	103.924	20.047	3.241	0.528
556.500	356.751	80.004	19.996	103.925	20.047	3.237	0.482
557.000	356.996	80.004	19.994	103.925	20.045	3.368	0.508
557.500	357.289	80.004	19.996	103.925	20.046	3.296	0.536
558.000	357.523	80.003	19.996	103.926	20.046	3.336	0.532
558.500	357.805	80.003	19.995	103.926	20.048	3.174	0.521
559.000	358.053	80.003	19.994	103.927	20.046	3.334	0.523
559.500	358.294	80.004	19.996	103.926	20.046	3.298	0.510
560.000	358.541	80.004	19.995	103.926	20.044	3.455	0.489
560.500	358.810	80.005	19.995	103.924	20.045	3.379	0.502
561.000	359.080	80.004	19.998	103.924	20.043	3.505	0.527
561.500	359.361	80.004	19.996	103.923	20.046	3.288	0.545
562.000	359.568	80.004	19.997	103.924	20.046	3.322	0.520
562.500	359.892	80.004	19.995	103.923	20.045	3.353	0.510
563.000	360.115	80.003	19.996	103.924	20.045	3.398	0.539
563.500	360.420	80.003	19.996	103.922	20.046	3.313	0.538
564.000	360.676	80.004	19.995	103.921	20.046	3.318	0.545
564.500	360.915	80.005	19.996	103.921	20.047	3.269	0.528
565.000	361.190	80.004	19.995	103.921	20.044	3.428	0.504
565.500	361.460	80.004	19.996	103.921	20.048	3.189	0.529
566.000	361.712	80.007	19.996	103.924	20.047	3.235	0.534
566.500	361.975	80.005	19.995	103.925	20.047	3.273	0.518
567.000	362.198	80.004	19.995	103.925	20.050	3.007	0.500
567.500	362.491	80.005	19.995	103.924	20.044	3.425	0.501
568.000	362.714	80.004	19.996	103.924	20.047	3.239	0.516
568.500	363.030	80.005	19.994	103.922	20.047	3.267	0.528
569.000	363.290	80.006	19.996	103.921	20.049	3.117	0.558
569.500	363.542	80.006	19.996	103.920	20.047	3.236	0.544
570.000	363.789	80.005	19.996	103.920	20.050	3.020	0.505
570.500	364.067	80.006	19.997	103.919	20.050	3.060	0.511
571.000	364.296	80.005	19.995	103.918	20.048	3.178	0.516
571.500	364.575	80.004	19.996	103.918	20.052	2.925	0.508
572.000	364.848	80.006	19.996	103.918	20.048	3.140	0.530
572.500	365.110	80.004	19.996	103.918	20.046	3.276	0.544
573.000	365.358	80.006	19.996	103.918	20.048	3.200	0.523
573.500	365.639	80.005	19.996	103.918	20.047	3.263	0.519
574.000	365.883	80.004	19.995	103.915	20.047	3.248	0.527
574.500	366.168	80.005	19.994	103.914	20.046	3.324	0.527
575.000	366.410	80.005	19.996	103.912	20.047	3.259	0.528
575.500	366.672	80.005	19.996	103.912	20.047	3.214	0.516
576.000	366.980	80.005	19.995	103.913	20.048	3.161	0.537
576.500	367.203	80.005	19.995	103.916	20.047	3.220	0.550
577.001	367.442	80.004	19.995	103.916	20.047	3.246	0.496
577.500	367.732	80.005	19.996	103.917	20.050	3.056	0.496
578.000	367.981	80.004	19.995	103.917	20.049	3.077	0.535
578.500	368.271	80.004	19.994	103.916	20.048	3.159	0.539
579.000	368.497	80.005	19.994	103.914	20.051	2.938	0.527
579.500	368.806	80.004	19.995	103.909	20.051	2.986	0.525
580.000	369.060	80.005	19.995	103.909	20.050	3.050	0.549
580.500	369.339	80.003	19.995	103.906	20.048	3.138	0.548
581.000	369.581	80.005	19.995	103.903	20.048	3.149	0.527
581.500	369.849	80.005	19.995	103.903	20.049	3.119	0.515
582.000	370.091	80.004	19.994	103.908	20.046	3.286	0.510
582.500	370.360	80.004	19.995	103.908	20.048	3.159	0.511
583.000	370.615	80.005	19.995	103.904	20.048	3.161	0.518
583.500	370.855	80.004	19.994	103.905	20.045	3.358	0.509
584.000	371.191	80.003	19.995	103.903	20.047	3.214	0.536
584.500	371.390	80.004	19.995	103.901	20.048	3.181	0.556
585.000	371.691	80.004	19.995	103.904	20.050	3.007	0.517
585.500	371.924	80.004	19.994	103.910	20.047	3.257	0.517
586.000	372.177	80.004	19.995	103.908	20.045	3.405	0.510
586.500	372.473	80.004	19.995	103.912	20.045	3.383	0.518
587.000	372.730	80.004	19.995	103.913	20.046	3.314	0.550
587.500	373.016	80.004	19.995	103.913	20.047	3.254	0.548
588.000	373.233	80.004	19.995	103.913	20.047	3.265	0.523
588.500	373.486	80.006	19.996	103.914	20.044	3.458	0.487
589.000	373.769	80.005	19.995	103.910	20.044	3.481	0.503
589.500	374.035	80.005	19.995	103.910	20.046	3.339	0.543
590.000	374.266	80.006	19.995	103.907	20.044	3.413	0.523
590.500	374.561	80.004	19.995	103.905	20.044	3.462	0.512
591.000	374.808	80.005	19.994	103.907	20.043	3.548	0.534
591.500	375.073	80.005	19.994	103.912	20.044	3.415	0.526
592.000	375.329	80.006	19.996	103.912	20.042	3.580	0.517
592.500	375.605	80.006	19.996	103.911	20.045	3.360	0.527
593.000	375.871	80.005	19.995	103.911	20.045	3.400	0.537
593.500	376.137	80.006	19.994	103.909	20.044	3.428	0.537
594.000	376.397	80.005	19.996	103.907	20.044	3.417	0.529
594.500	376.647	80.005	19.996	103.904	20.046	3.325	0.518
595.000	376.896	80.005	19.994	103.900	20.046	3.331	0.505
595.500	377.179	80.007	19.995	103.899	20.044	3.441	0.515
596.000	377.459	80.005	19.995	103.899	20.044	3.472	0.547
596.500	377.696	80.005	19.995	103.903	20.044	3.434	0.540
597.000	377.933	80.006	19.995	103.905	20.044	3.470	0.496
597.500	378.198	80.005	19.996	103.909	20.046	3.343	0.488
598.000	378.451	80.006	19.996	103.909	20.043	3.519	0.510
598.500	378.721	80.004	19.996	103.905	20.045	3.358	0.521
599.000	378.959	80.005	19.996	103.900	20.047	3.261	0.515
599.500	379.217	80.005	19.996	103.897	20.044	3.475	0.502
600.000	379.505	80.004	19.995	103.899	20.046	3.284	0.521
600.500	379.700	80.005	19.995	103.900	20.044	3.439	0.515
601.000	379.963	80.005	19.995	103.901	20.046	3.284	0.471
601.500	380.205	80.004	19.996	103.900	20.047	3.244	0.481
602.000	380.454	80.004	19.995	103.901	20.044	3.416	0.498
602.500	380.759	80.005	19.996	103.901	20.045	3.356	0.523
603.001	381.022	80.005	19.995	103.902	20.043	3.524	0.561
603.500	381.254	80.004	19.996	103.905	20.043	3.521	0.531
604.000	381.529	80.004	19.996	103.910	20.039	3.796	0.501
604.500	381.757	80.005	19.995	103.906	20.041	3.688	0.505
605.000	382.013	80.004	19.996	103.900	20.043	3.521	0.494
605.500	382.262	80.005	19.995	103.895	20.041	3.622	0.495
606.000	382.509	80.005	19.994	103.892	20.043	3.498	0.500
606.500	382.775	80.006	19.995	103.893	20.041	3.624	0.505
607.000	383.004	80.005	19.996	103.897	20.041	3.656	0.504
607.500	383.269	80.006	19.995	103.902	20.043	3.519	0.495
608.000	383.544	80.004	19.994	103.907	20.046	3.343	0.517
608.500	383.810	80.004	19.996	103.908	20.044	3.467	0.540
609.000	384.090	80.004	19.996	103.906	20.045	3.347	0.543
609.500	384.341	80.004	19.995	103.902	20.047	3.252	0.538
610.000	384.568	80.005	19.995	103.897	20.045	3.349	0.504
610.500	384.812	80.005	19.996	103.894	20.046	3.322	0.475
611.000	385.030	80.005	19.995	103.897	20.046	3.290	0.467
611.500	385.326	80.004	19.996	103.898	20.043	3.529	0.488
612.000	385.547	80.005	19.995	103.896	20.044	3.434	0.516
612.500	385.823	80.005	19.996	103.897	20.046	3.297	0.507
613.000	386.072	80.006	19.995	103.896	20.048	3.141	0.511
613.500	386.346	80.006	19.995	103.891	20.043	3.523	0.523
614.000	386.559	80.006	19.995	103.889	20.044	3.457	0.505
614.500	386.811	80.006	19.996	103.889	20.046	3.324	0.476
615.000	387.112	80.006	19.995	103.891	20.042	3.605	0.509
615.500	387.331	80.006	19.995	103.897	20.044	3.474	0.537
616.000	387.581	80.005	19.996	103.901	20.046	3.307	0.495
616.500	387.819	80.007	19.995	103.900	20.045	3.352	0.479
617.000	388.104	80.005	19.995	103.903	20.046	3.331	0.506
617.500	388.329	80.005	19.996	103.907	20.046	3.342	0.516
618.000	388.547	80.005	19.995	103.908	20.046	3.335	0.476
618.500	388.823	80.006	19.996	103.909	20.041	3.641	0.469
619.000	389.059	80.005	19.994	103.914	20.042	3.580	0.503
619.500	389.315	80.006	19.995	103.918	20.042	3.597	0.502
620.000	389.535	80.005	19.996	103.918	20.041	3.635	0.484
620.500	389.824	80.006	19.996	103.918	20.045	3.396	0.492
621.000	390.049	80.005	19.996	103.918	20.041	3.686	0.511
621.500	390.324	80.006	19.996	103.912	20.044	3.441	0.507
622.000	390.577	80.006	19.996	103.910	20.044	3.438	0.514
622.500	390.853	80.005	19.996	103.908	20.047	3.235	0.528
623.000	391.101	80.006	19.995	103.903	20.047	3.242	0.526
623.500	391.347	80.006	19.997	103.899	20.046	3.282	0.510
624.000	391.619	80.007	19.996	103.900	20.045	3.350	0.506
624.500	391.872	80.005	19.995	103.901	20.046	3.324	0.522
625.000	392.120	80.005	19.996	103.903	20.043	3.483	0.513
625.500	392.352	80.003	19.995	103.905	20.047	3.206	0.490
626.000	392.600	80.004	19.995	103.907	20.045	3.411	0.480
626.500	392.861	80.004	19.995	103.905	20.044	3.447	0.494
627.000	393.127	80.005	19.997	103.899	20.046	3.338	0.518
627.500	393.371	80.004	19.996	103.896	20.046	3.310	0.519
628.000	393.630	80.003	19.995	103.895	20.045	3.352	0.506
628.500	393.853	80.004	19.996	103.896	20.047	3.232	0.492
629.000	394.150	80.003	19.996	103.902	20.049	3.104	0.501
629.500	394.395	80.004	19.996	103.907	20.048	3.155	0.532
630.000	394.658	80.004	19.996	103.909	20.045	3.396	0.525
630.501	394.891	80.004	19.996	103.911	20.048	3.162	0.501
631.001	395.151	80.003	19.996	103.911	20.048	3.183	0.494
631.500	395.426	80.004	19.996	103.905	20.046	3.320	0.514
632.000	395.644	80.004	19.995	103.902	20.044	3.438	0.514
632.500	395.907	80.004	19.996	103.903	20.046	3.331	0.487
633.000	396.153	80.004	19.995	103.904	20.044	3.432	0.495
633.500	396.407	80.004	19.995	103.905	20.043	3.519	0.505
634.000	396.633	80.003	19.995	103.906	20.044	3.449	0.490
634.500	396.891	80.003	19.996	103.909	20.044	3.432	0.482
635.000	397.177	80.004	19.996	103.906	20.043	3.519	0.513
635.500	397.419	80.003	19.996	103.903	20.044	3.464	0.536
636.000	397.665	80.003	19.996	103.900	20.044	3.468	0.509
636.500	397.911	80.004	19.995	103.898	20.041	3.643	0.490
637.000	398.201	80.005	19.996	103.892	20.043	3.499	0.514
637.500	398.414	80.004	19.996	103.890	20.042	3.588	0.520
638.000	398.707	80.003	19.995	103.888	20.043	3.521	0.505
638.500	398.968	80.003	19.995	103.891	20.042	3.591	0.530
639.000	399.174	80.003	19.995	103.895	20.042	3.600	0.510
639.500	399.472	80.004	19.996	103.900	20.042	3.576	0.486
640.000	399.713	80.004	19.996	103.903	20.041	3.676	0.522
640.500	399.954	80.004	19.996	103.902	20.042	3.580	0.510
641.000	400.242	80.004	19.995	103.902	20.043	3.489	0.506
641.500	400.479	80.004	19.995	103.904	20.042	3.591	0.527
642.000	400.766	80.006	19.995	103.904	20.044	3.415	0.524
642.500	400.959	80.004	19.994	103.903	20.038	3.859	0.502
643.000	401.265	80.004	19.996	103.906	20.039	3.778	0.490
643.500	401.457	80.003	19.995	103.904	20.042	3.554	0.498
644.000	401.770	80.004	19.995	103.904	20.042	3.616	0.501
644.500	401.995	80.004	19.995	103.903	20.042	3.612	0.522
645.000	402.295	80.005	19.995	103.903	20.042	3.565	0.531
645.500	402.513	80.004	19.995	103.905	20.042	3.565	0.521
646.000	402.745	80.005	19.995	103.910	20.041	3.627	0.484
646.500	403.017	80.005	19.995	103.909	20.044	3.443	0.477
647.000	403.260	80.005	19.996	103.913	20.039	3.764	0.509
647.500	403.479	80.005	19.994	103.914	20.043	3.525	0.488
648.000	403.777	80.005	19.995	103.910	20.041	3.620	0.490
648.500	404.015	80.006	19.996	103.906	20.044	3.466	0.527
649.000	404.232	80.005	19.995	103.900	20.041	3.648	0.495
649.500	404.479	80.006	19.996	103.894	20.039	3.823	0.459
650.000	404.755	80.005	19.995	103.890	20.043	3.498	0.494
650.500	404.976	80.005	19.995	103.889	20.041	3.629	0.511
651.000	405.247	80.005	19.994	103.892	20.041	3.642	0.495
651.500	405.515	80.005	19.995	103.893	20.040	3.743	0.515
652.000	405.791	80.004	19.995	103.897	20.040	3.732	0.541
652.500	406.031	80.004	19.996	103.903	20.038	3.853	0.531
653.000	406.206	80.005	19.995	103.909	20.038	3.893	0.466
653.500	406.522	80.004	19.996	103.911	20.038	3.883	0.453
654.000	406.773	80.004	19.995	103.917	20.037	3.900	0.529
654.500	407.050	80.004	19.995	103.918	20.036	4.018	0.547
655.000	407.301	80.004	19.995	103.914	20.034	4.128	0.528
655.500	407.553	80.005	19.995	103.909	20.035	4.052	0.515
656.000	407.790	80.004	19.994	103.903	20.035	4.088	0.496
656.500	408.105	80.004	19.995	103.903	20.033	4.219	0.520
657.000	408.267	80.004	19.995	103.901	20.034	4.161	0.515
657.501	408.608	80.003	19.995	103.901	20.031	4.345	0.490
658.000	408.816	80.004	19.996	103.902	20.034	4.138	0.526
658.500	409.113	80.004	19.996	103.904	20.032	4.242	0.527
659.000	409.340	80.004	19.995	103.900	20.033	4.235	0.515
659.500	409.601	80.004	19.995	103.899	20.033	4.189	0.506
660.000	409.819	80.004	19.995	103.900	20.032	4.265	0.483
660.500	410.128	80.003	19.996	103.900	20.032	4.303	0.503
661.000	410.357	80.005	19.995	103.902	20.035	4.075	0.532
661.500	410.643	80.004	19.994	103.903	20.035	4.049	0.527
662.000	410.900	80.003	19.996	103.900	20.033	4.238	0.530
662.500	411.163	80.004	19.995	103.899	20.037	3.899	0.531
663.000	411.390	80.004	19.995	103.901	20.037	3.939	0.505
663.500	411.630	80.004	19.995	103.895	20.033	4.229	0.479
664.000	411.933	80.003	19.995	103.894	20.033	4.210	0.505
664.500	412.140	80.004	19.995	103.895	20.032	4.246	0.527
665.000	412.436	80.003	19.996	103.894	20.036	4.030	0.507
665.500	412.651	80.006	19.994	103.890	20.031	4.368	0.507
666.000	412.919	80.004	19.996	103.891	20.039	3.825	0.497
666.500	413.170	80.003	19.995	103.890	20.031	4.337	0.501
667.000	413.381	80.003	19.995	103.892	20.031	4.339	0.490
667.500	413.676	80.004	19.996	103.893	20.030	4.417	0.484
668.000	413.901	80.004	19.994	103.898	20.030	4.392	0.514
668.500	414.132	80.003	19.995	103.903	20.035	4.083	0.488
669.000	414.373	80.005	19.994	103.903	20.031	4.340	0.464
669.500	414.670	80.005	19.995	103.902	20.028	4.573	0.505
670.000	414.848	80.005	19.995	103.901	20.032	4.286	0.506
670.500	415.104	80.003	19.995	103.900	20.028	4.533	0.454
671.000	415.392	80.004	19.994	103.895	20.038	3.853	0.489
671.500	415.583	80.004	19.993	103.894	20.036	4.015	0.512
672.000	415.903	80.004	19.995	103.895	20.031	4.339	0.495
672.500	416.153	80.005	19.995	103.896	20.022	4.951	0.540
673.000	416.402	80.004	19.994	103.896	20.024	4.852	0.535
673.500	416.714	80.004	19.995	103.898	20.021	5.038	0.530
674.000	416.951	80.006	19.995	103.898	20.024	4.843	0.554
674.500	417.160	80.006	19.994	103.899	20.030	4.440	0.497
675.000	417.458	80.005	19.995	103.899	20.022	4.960	0.476
675.501	417.715	80.005	19.996	103.896	20.029	4.487	0.531
676.000	417.945	80.005	19.994	103.898	20.026	4.720	0.521
676.500	418.311	80.006	19.994	103.904	20.029	4.510	0.542
677.000	418.494	80.006	19.995	103.902	20.024	4.816	0.573
677.500	418.830	80.006	19.994	103.902	20.024	4.803	0.534
678.000	418.941	80.005	19.994	103.906	20.023	4.915	0.483
678.500	419.256	80.007	19.995	103.907	20.020	5.086	0.436
679.000	419.577	80.007	19.994	103.904	20.022	4.994	0.531
679.500	419.724	80.005	19.995	103.909	20.020	5.101	0.552
680.000	420.158	80.004	19.995	103.914	20.020	5.101	0.525
680.500	420.262	80.004	19.995	103.913	20.018	5.230	0.559
681.000	420.447	80.004	19.995	103.912	20.017	5.334	0.414
681.500	420.863	80.006	19.997	103.912	20.021	5.002	0.445
682.000	420.964	80.005	19.996	103.905	20.023	4.926	0.558
682.500	421.458	80.004	19.994	103.902	20.020	5.131	0.556
683.000	421.673	80.007	19.995	103.905	20.020	5.095	0.653
683.500	421.671	80.005	19.994	103.906	20.015	5.450	0.461
684.000	422.061	80.004	19.994	103.909	20.016	5.382	0.300
684.501	422.369	80.004	19.995	103.913	20.015	5.446	0.543
685.000	422.899	80.005	19.995	103.911	20.020	5.122	0.768
685.500	422.997	80.006	19.994	103.904	20.017	5.319	0.733
686.000	422.958	80.004	19.996	103.898	20.017	5.325	0.344
686.500	423.200	80.007	19.994	103.896	20.017	5.338	0.132
687.000	423.425	80.006	19.995	103.896	20.015	5.454	0.335
687.500	423.467	80.005	19.994	103.897	20.013	5.575	0.367
688.000	423.690	80.004	19.994	103.904	20.013	5.554	0.266
688.500	424.374	80.005	19.995	103.912	20.010	5.805	0.586
689.000	424.615	80.005	19.994	103.914	20.011	5.714	0.916
689.500	424.820	80.004	19.995	103.911	20.008	5.911	0.686
690.000	425.177	80.005	19.995	103.911	20.010	5.817	0.505
690.500	425.405	80.005	19.994	103.910	20.010	5.811	0.574
691.000	425.608	80.004	19.995	103.907	20.008	5.949	0.508
691.500	425.913	80.004	19.995	103.906	20.004	6.202	0.469
692.000	426.131	80.006	19.996	103.912	20.005	6.168	0.516
692.500	426.362	80.005	19.995	103.915	20.006	6.065	0.486
693.000	426.635	80.005	19.995	103.913	20.002	6.338	0.476
693.500	426.883	80.006	19.995	103.910	20.001	6.384	0.513
694.000	427.159	80.005	19.996	103.911	20.002	6.365	0.523
694.500	427.435	80.006	19.995	103.910	19.999	6.565	0.538
695.000	427.684	80.005	19.995	103.911	19.998	6.644	0.538
695.500	427.972	80.006	19.996	103.911	19.998	6.607	0.531
696.000	428.234	80.006	19.995	103.916	19.993	6.979	0.543
696.500	428.426	80.006	19.995	103.914	19.995	6.823	0.501
697.000	428.777	80.006	19.995	103.911	19.994	6.918	0.499
697.500	428.971	80.006	19.995	103.907	19.995	6.819	0.545
698.000	429.285	80.006	19.996	103.905	19.995	6.816	0.527
698.500	429.540	80.007	19.994	103.903	19.991	7.129	0.539
699.000	429.779	80.007	19.995	103.902	19.988	7.276	0.532
699.500	430.046	80.006	19.995	103.904	19.990	7.170	0.500
700.000	430.293	80.007	19.996	103.909	19.985	7.508	0.509
700.500	430.544	80.006	19.995	103.911	19.983	7.673	0.506
701.000	430.811	80.007	19.995	103.913	19.979	7.914	0.509
701.500	431.058	80.007	19.995	103.914	19.982	7.757	0.516
702.000	431.334	80.006	19.995	103.913	19.982	7.738	0.519
702.500	431.538	80.006	19.995	103.913	19.977	8.068	0.501
703.000	431.860	80.007	19.995	103.911	19.976	8.135	0.502
703.500	432.061	80.007	19.995	103.910	19.971	8.512	0.524
704.000	432.352	80.007	19.995	103.911	19.971	8.465	0.508
704.500	432.572	80.007	19.995	103.912	19.971	8.492	0.501
705.000	432.853	80.007	19.995	103.913	19.966	8.811	0.506
705.500	433.103	80.007	19.995	103.914	19.967	8.731	0.517
706.000	433.361	80.006	19.995	103.909	19.966	8.839	0.520
706.500	433.699	80.005	19.996	103.902	19.967	8.765	0.552
707.000	433.863	80.006	19.994	103.898	19.964	8.989	0.549
707.500	434.114	80.005	19.995	103.893	19.963	9.055	0.458
708.000	434.407	80.005	19.995	103.889	19.959	9.311	0.480
708.500	434.661	80.005	19.995	103.891	19.956	9.505	0.546
709.000	434.954	80.005	19.995	103.895	19.957	9.428	0.547
709.500	435.149	80.005	19.995	103.900	19.957	9.469	0.518
710.000	435.398	80.004	19.995	103.905	19.959	9.330	0.466
710.500	435.714	80.003	19.996	103.909	19.952	9.805	0.504
711.000	435.969	80.005	19.995	103.914	19.953	9.720	0.568
711.500	436.203	80.004	19.995	103.916	19.946	10.175	0.530
712.000	436.503	80.004	19.995	103.916	19.948	10.065	0.512
712.500	436.717	80.003	19.995	103.915	19.944	10.350	0.524
713.000	436.996	80.004	19.995	103.915	19.942	10.494	0.503
713.500	437.248	80.003	19.995	103.913	19.940	10.633	0.511
714.000	437.487	80.004	19.996	103.914	19.938	10.732	0.511
714.500	437.732	80.003	19.996	103.913	19.936	10.897	0.488
715.000	437.962	80.003	19.996	103.914	19.933	11.132	0.480
715.500	438.238	80.003	19.995	103.915	19.929	11.372	0.491
716.000	438.505	80.004	19.995	103.916	19.928	11.448	0.525
716.500	438.758	80.003	19.997	103.916	19.925	11.637	0.531
717.000	438.987	80.003	19.996	103.912	19.922	11.844	0.500
717.500	439.280	80.004	19.996	103.911	19.917	12.196	0.502
718.000	439.552	80.004	19.995	103.911	19.916	12.281	0.544
718.500	439.757	80.004	19.995	103.912	19.912	12.546	0.521
719.000	440.064	80.004	19.996	103.911	19.906	12.968	0.494
719.500	440.325	80.003	19.995	103.916	19.903	13.146	0.541
720.000	440.597	80.004	19.996	103.917	19.898	13.508	0.551
720.501	440.858	80.004	19.997	103.915	19.895	13.691	0.533
721.000	441.127	80.004	19.995	103.912	19.891	14.008	0.531
721.500	441.356	80.003	19.996	103.913	19.887	14.285	0.514
722.000	441.629	80.002	19.996	103.913	19.882	14.597	0.500
722.500	441.860	80.003	19.997	103.912	19.881	14.704	0.503
723.000	442.119	80.003	19.996	103.912	19.876	15.030	0.497
723.500	442.414	80.003	19.996	103.914	19.870	15.457	0.522
724.000	442.668	80.003	19.996	103.914	19.867	15.645	0.552
724.500	442.907	80.004	19.997	103.915	19.865	15.765	0.521
725.000	443.193	80.004	19.997	103.914	19.863	15.949	0.509
725.500	443.466	80.003	19.996	103.916	19.853	16.602	0.542
726.000	443.695	80.004	19.996	103.918	19.849	16.925	0.531
726.500	443.951	80.003	19.998	103.918	19.845	17.147	0.494
727.000	444.239	80.003	19.997	103.917	19.839	17.557	0.514
727.500	444.507	80.004	19.996	103.917	19.834	17.956	0.550
728.000	444.741	80.004	19.996	103.918	19.829	18.292	0.529
728.500	445.023	80.003	19.996	103.918	19.828	18.362	0.510
729.000	445.280	80.004	19.996	103.915	19.820	18.890	0.527
729.500	445.524	80.004	19.995	103.914	19.817	19.122	0.519
730.000	445.763	80.004	19.996	103.913	19.813	19.353	0.492
730.500	446.012	80.004	19.995	103.910	19.810	19.612	0.486
731.000	446.256	80.004	19.996	103.907	19.804	19.984	0.491
731.500	446.542	80.004	19.996	103.910	19.799	20.367	0.512
732.000	446.806	80.004	19.995	103.912	19.796	20.525	0.540
732.500	447.015	80.004	19.996	103.913	19.791	20.935	0.511
733.000	447.262	80.003	19.995	103.916	19.788	21.094	0.465
733.500	447.553	80.002	19.995	103.920	19.783	21.485	0.497
734.000	447.789	80.005	19.996	103.920	19.777	21.850	0.532
734.500	448.043	80.003	19.995	103.919	19.774	22.042	0.508
735.000	448.288	80.003	19.995	103.918	19.769	22.408	0.495
735.500	448.572	80.003	19.995	103.918	19.769	22.446	0.514
736.000	448.828	80.004	19.995	103.917	19.765	22.691	0.535
736.500	449.073	80.005	19.995	103.917	19.756	23.314	0.521
737.000	449.332	80.005	19.996	103.919	19.755	23.352	0.502
737.500	449.603	80.004	19.995	103.920	19.750	23.741	0.517
738.000	449.887	80.003	19.995	103.921	19.742	24.250	0.543
738.500	450.183	80.004	19.995	103.921	19.743	24.214	0.567
739.001	450.376	80.003	19.993	103.922	19.737	24.647	0.534
739.500	450.685	80.003	19.996	103.922	19.734	24.833	0.495
740.000	450.935	80.003	19.997	103.922	19.731	25.036	0.531
740.500	451.169	80.004	19.995	103.922	19.724	25.524	0.522
741.000	451.410	80.003	19.996	103.922	19.723	25.626	0.480
741.500	451.670	80.004	19.996	103.922	19.719	25.847	0.488
742.000	451.953	80.003	19.995	103.922	19.716	26.101	0.522
742.500	452.207	80.004	19.995	103.921	19.714	26.181	0.540
743.000	452.467	80.003	19.996	103.921	19.712	26.321	0.526
743.500	452.639	80.003	19.995	103.921	19.709	26.581	0.474
744.000	452.984	80.002	19.995	103.921	19.707	26.726	0.475
744.500	453.245	80.002	19.995	103.921	19.708	26.605	0.561
745.000	453.460	80.002	19.995	103.921	19.708	26.652	0.541
745.500	453.744	80.003	19.996	103.921	19.703	26.959	0.487
746.000	454.022	80.002	19.995	103.922	19.702	27.051	0.530
746.500	454.231	80.002	19.996	103.922	19.699	27.235	0.524
747.000	454.471	80.003	19.995	103.923	19.698	27.323	0.468
747.500	454.745	80.004	19.994	103.923	19.696	27.472	0.482
748.000	455.033	80.003	19.995	103.923	19.698	27.352	0.537
748.500	455.314	80.003	19.996	103.923	19.698	27.292	0.565
749.000	455.577	80.003	19.994	103.923	19.695	27.552	0.557
749.500	455.850	80.003	19.994	103.921	19.695	27.548	0.540
750.000	456.066	80.003	19.995	103.922	19.694	27.623	0.512
750.500	456.339	80.003	19.996	103.922	19.690	27.858	0.489
751.000	456.590	80.004	19.995	103.922	19.687	28.076	0.506
751.500	456.822	80.002	19.995	103.922	19.684	28.258	0.503
752.000	457.070	80.004	19.995	103.923	19.684	28.274	0.481
752.500	457.392	80.002	19.995	103.923	19.681	28.499	0.525
753.000	457.629	80.003	19.995	103.923	19.678	28.669	0.565
753.500	457.875	80.003	19.995	103.924	19.673	29.037	0.521
754.000	458.126	80.005	19.996	103.929	19.670	29.228	0.490
754.500	458.378	80.004	19.996	103.930	19.668	29.399	0.500
755.000	458.637	80.004	19.995	103.937	19.664	29.670	0.508
755.500	458.886	80.004	19.996	103.942	19.658	30.060	0.510
756.000	459.140	80.005	19.994	103.948	19.651	30.571	0.505
756.500	459.353	80.005	19.995	103.951	19.644	31.035	0.485
757.000	459.657	80.005	19.995	103.953	19.644	31.041	0.492
757.500	459.899	80.005	19.994	103.947	19.639	31.372	0.532
758.000	460.156	80.004	19.994	103.942	19.636	31.584	0.522
758.500	460.411	80.005	19.994	103.937	19.632	31.885	0.505
759.000	460.692	80.006	19.994	103.930	19.629	32.070	0.524
759.500	460.941	80.006	19.995	103.925	19.633	31.857	0.533
760.000	461.183	80.006	19.995	103.924	19.631	31.931	0.510
760.500	461.453	80.005	19.995	103.923	19.636	31.591	0.502
761.000	461.726	80.006	19.995	103.919	19.641	31.284	0.528
761.500	461.979	80.005	19.996	103.913	19.644	31.047	0.535
762.000	462.245	80.006	19.995	103.904	19.650	30.662	0.522
762.500	462.525	80.005	19.996	103.895	19.654	30.362	0.532
763.000	462.772	80.005	19.996	103.886	19.657	30.123	0.536
763.500	463.028	80.006	19.996	103.881	19.661	29.860	0.515
764.000	463.277	80.005	19.995	103.878	19.664	29.663	0.504
764.500	463.516	80.005	19.995	103.878	19.662	29.791	0.496
765.000	463.791	80.006	19.996	103.881	19.663	29.730	0.501
765.500	463.998	80.006	19.995	103.890	19.660	29.897	0.499
766.000	464.294	80.003	19.995	103.901	19.657	30.138	0.493
766.500	464.543	80.004	19.994	103.916	19.654	30.332	0.524
767.000	464.803	80.004	19.996	103.934	19.646	30.870	0.526
767.500	465.034	80.005	19.994	103.953	19.639	31.410	0.500
768.000	465.279	80.005	19.996	103.968	19.632	31.845	0.483
768.500	465.524	80.006	19.994	103.982	19.619	32.749	0.483
769.000	465.824	80.005	19.995	103.993	19.611	33.300	0.518
769.500	466.045	80.004	19.994	104.005	19.599	34.179	0.533
770.000	466.311	80.005	19.995	104.008	19.585	35.114	0.504
770.500	466.585	80.006	19.994	104.008	19.574	35.917	0.513
771.000	466.836	80.006	19.994	104.008	19.566	36.428	0.533
771.500	467.089	80.006	19.994	104.002	19.560	36.832	0.515
772.000	467.354	80.005	19.995	103.987	19.552	37.423	0.511
772.501	467.581	80.004	19.995	103.980	19.547	37.710	0.505
773.000	467.848	80.005	19.995	103.970	19.546	37.823	0.493
773.500	468.140	80.005	19.994	103.949	19.541	38.143	0.526
774.000	468.403	80.005	19.996	103.927	19.542	38.088	0.557
774.500	468.659	80.005	19.995	103.908	19.538	38.355	0.537
775.000	468.929	80.005	19.995	103.884	19.533	38.720	0.522
775.500	469.188	80.006	19.995	103.862	19.526	39.148	0.528
776.000	469.458	80.005	19.995	103.851	19.516	39.904	0.529
776.500	469.709	80.007	19.994	103.846	19.508	40.442	0.525
777.000	469.950	80.005	19.995	103.848	19.496	41.254	0.506
777.500	470.228	80.007	19.995	103.860	19.484	42.093	0.505
778.000	470.470	80.006	19.995	103.878	19.469	43.143	0.520
778.500	470.722	80.006	19.994	103.901	19.461	43.732	0.507
779.000	471.028	80.006	19.994	103.926	19.447	44.645	0.526
779.500	471.295	80.007	19.995	103.952	19.442	45.001	0.565
780.000	471.500	80.007	19.995	103.970	19.439	45.234	0.522
780.500	471.794	80.007	19.995	103.990	19.442	44.995	0.486
781.000	472.040	80.006	19.995	104.004	19.443	44.943	0.520
781.500	472.298	80.006	19.996	104.006	19.438	45.302	0.522
782.000	472.517	80.007	19.995	103.989	19.437	45.339	0.490
782.500	472.807	80.007	19.995	103.971	19.433	45.618	0.493
783.000	473.059	80.006	19.995	103.941	19.432	45.691	0.526
783.500	473.303	80.006	19.994	103.910	19.425	46.183	0.519
784.000	473.613	80.006	19.995	103.889	19.420	46.549	0.525
784.500	473.848	80.007	19.994	103.881	19.413	47.001	0.550
785.000	474.113	80.007	19.995	103.876	19.402	47.746	0.522
785.500	474.353	80.008	19.996	103.880	19.390	48.582	0.502
786.000	474.603	80.007	19.995	103.890	19.382	49.149	0.497
786.500	474.879	80.007	19.996	103.908	19.370	49.949	0.508
787.000	475.150	80.007	19.996	103.924	19.363	50.423	0.537
787.500	475.378	80.007	19.996	103.950	19.355	50.956	0.523
788.000	475.651	80.008	19.995	103.977	19.346	51.547	0.500
788.500	475.889	80.006	19.996	103.994	19.336	52.267	0.506
789.000	476.105	80.006	19.995	104.002	19.329	52.745	0.482
789.500	476.350	80.005	19.996	104.010	19.316	53.649	0.457
790.000	476.608	80.005	19.995	104.009	19.306	54.402	0.482
790.500	476.868	80.005	19.995	104.002	19.292	55.378	0.511
791.000	477.133	80.005	19.995	103.992	19.278	56.326	0.521
791.500	477.361	80.006	19.996	103.984	19.262	57.438	0.508
792.000	477.630	80.005	19.995	103.974	19.244	58.725	0.495
792.500	477.903	80.004	19.995	103.965	19.230	59.715	0.520
793.000	478.108	80.004	19.996	103.957	19.209	61.169	0.510
793.500	478.369	80.005	19.995	103.959	19.193	62.272	0.472
794.000	478.619	80.004	19.995	103.965	19.179	63.241	0.488
794.500	478.957	80.003	19.995	103.967	19.168	63.981	0.550
795.000	479.186	80.005	19.996	103.971	19.163	64.348	0.578
795.500	479.440	80.003	19.996	103.984	19.156	64.858	0.525
796.000	479.685	80.004	19.996	103.993	19.155	64.866	0.491
796.500	479.954	80.004	19.995	103.985	19.155	64.827	0.507
797.000	480.167	80.003	19.995	103.970	19.153	64.970	0.498
797.500	480.464	80.003	19.996	103.951	19.146	65.387	0.496
798.000	480.736	80.005	19.996	103.922	19.141	65.732	0.539
798.500	480.996	80.005	19.996	103.895	19.127	66.672	0.550
799.000	481.261	80.003	19.995	103.884	19.115	67.489	0.529
799.500	481.510	80.003	19.996	103.886	19.101	68.432	0.520
800.000	481.773	80.004	19.997	103.897	19.085	69.519	0.513
800.500	482.034	80.004	19.997	103.917	19.068	70.703	0.518
801.000	482.266	80.004	19.997	103.943	19.052	71.886	0.508
801.500	482.534	80.005	19.996	103.976	19.029	73.448	0.497
802.000	482.760	80.004	19.996	104.011	19.003	75.342	0.497
802.501	483.024	80.005	19.995	104.040	18.976	77.247	0.492
803.000	483.299	80.004	19.995	104.060	18.944	79.483	0.515
803.500	483.550	80.004	19.996	104.078	18.914	81.611	0.532
804.000	483.825	80.004	19.995	104.093	18.882	83.871	0.526
804.500	484.072	80.004	19.995	104.103	18.858	85.578	0.524
805.000	484.311	80.004	19.996	104.112	18.840	86.814	0.504
805.500	484.598	80.005	19.995	104.130	18.826	87.788	0.506
806.000	484.801	80.004	19.995	104.142	18.818	88.361	0.508
806.500	485.064	80.004	19.996	104.125	18.817	88.383	0.478
807.000	485.351	80.004	19.996	104.088	18.818	88.276	0.508
807.500	485.597	80.004	19.996	104.048	18.821	88.018	0.542
808.000	485.866	80.005	19.997	103.990	18.825	87.697	0.524
808.500	486.107	80.005	19.995	103.924	18.826	87.528	0.512
809.001	486.347	80.005	19.996	103.877	18.831	87.124	0.495
809.500	486.622	80.004	19.996	103.841	18.827	87.308	0.498
810.000	486.869	80.003	19.996	103.814	18.819	87.817	0.518
810.500	487.114	80.003	19.995	103.801	18.803	88.914	0.507
811.000	487.366	80.003	19.995	103.807	18.781	90.420	0.495
811.500	487.647	80.005	19.996	103.833	18.753	92.324	0.515
812.000	487.882	80.003	19.995	103.879	18.725	94.305	0.524
812.500	488.114	80.004	19.997	103.932	18.687	96.962	0.492
813.000	488.411	80.004	19.996	103.992	18.648	99.719	0.498
813.500	488.658	80.003	19.995	104.061	18.603	102.888	0.536
814.000	488.884	80.004	19.995	104.130	18.555	106.285	0.508
814.500	489.172	80.003	19.996	104.198	18.509	109.546	0.494
815.000	489.445	80.003	19.996	104.258	18.461	112.962	0.538
815.500	489.722	80.003	19.996	104.305	18.414	116.259	0.555
816.000	489.957	80.003	19.995	104.322	18.374	119.085	0.530
816.500	490.260	80.003	19.996	104.322	18.344	121.168	0.525
817.000	490.527	80.004	19.996	104.312	18.323	122.710	0.555
817.500	490.766	80.003	19.996	104.285	18.303	124.063	0.538
818.000	491.085	80.004	19.996	104.225	18.290	125.036	0.532
818.500	491.300	80.003	19.996	104.152	18.281	125.634	0.546
819.000	491.541	80.003	19.995	104.070	18.281	125.589	0.495
819.500	491.814	80.003	19.997	103.974	18.281	125.505	0.485
820.000	492.100	80.003	19.996	103.883	18.279	125.564	0.536
820.500	492.313	80.003	19.996	103.817	18.280	125.436	0.529
821.000	492.587	80.003	19.995	103.768	18.276	125.660	0.493
821.500	492.840	80.003	19.997	103.734	18.272	125.875	0.507
822.001	493.050	80.002	19.995	103.719	18.264	126.349	0.495
822.501	493.291	80.003	19.996	103.729	18.253	127.006	0.457
823.001	493.558	80.003	19.997	103.763	18.240	127.906	0.480
823.500	493.853	80.003	19.996	103.817	18.225	128.849	0.535
824.000	494.143	80.003	19.996	103.884	18.200	130.608	0.574
824.500	494.387	80.004	19.995	103.960	18.177	132.169	0.560
825.000	494.631	80.004	19.996	104.037	18.145	134.395	0.511
825.500	494.891	80.003	19.996	104.111	18.101	137.416	0.496
826.000	495.155	80.004	19.995	104.179	18.056	140.580	0.514
826.500	495.426	80.003	19.995	104.245	18.007	144.075	0.529
827.000	495.674	80.003	19.996	104.292	17.952	147.960	0.527
827.500	495.908	80.003	19.996	104.326	17.898	151.789	0.501
828.000	496.154	80.004	19.995	104.352	17.848	155.340	0.481
828.500	496.459	80.004	19.995	104.376	17.804	158.398	0.515
829.000	496.705	80.004	19.996	104.398	17.761	161.481	0.551
829.500	496.953	80.003	19.997	104.384	17.720	164.325	0.523
830.000	497.231	80.004	19.996	104.345	17.684	166.842	0.510
830.500	497.520	80.005	19.996	104.297	17.658	168.599	0.547
831.000	497.807	80.004	19.995	104.232	17.629	170.604	0.571
831.500	498.033	80.005	19.996	104.152	17.605	172.234	0.544
832.000	498.311	80.004	19.993	104.100	17.589	173.349	0.509
832.500	498.560	80.005	19.995	104.057	17.570	174.584	0.516
833.000	498.786	80.005	19.995	104.001	17.557	175.497	0.501
833.500	499.051	80.004	19.995	103.950	17.546	176.232	0.483
834.000	499.304	80.006	19.995	103.912	17.532	177.111	0.504
834.500	499.578	80.004	19.994	103.881	17.523	177.765	0.523
835.000	499.823	80.005	19.995	103.858	17.508	178.785	0.523
835.500	500.051	80.004	19.996	103.854	17.490	180.025	0.496
836.000	500.309	80.004	19.995	103.865	17.471	181.342	0.480
836.500	500.562	80.004	19.996	103.886	17.452	182.662	0.498
837.000	500.843	80.007	19.995	103.923	17.429	184.296	0.522
837.500	501.107	80.004	19.995	103.976	17.404	186.030	0.540
838.000	501.352	80.006	19.996	104.044	17.380	187.717	0.527
838.500	501.619	80.005	19.995	104.110	17.365	188.802	0.511
839.000	501.867	80.005	19.996	104.169	17.338	190.677	0.514
839.500	502.120	80.005	19.994	104.213	17.316	192.162	0.508
840.000	502.391	80.005	19.995	104.247	17.291	193.868	0.512
840.500	502.646	80.006	19.995	104.267	17.269	195.400	0.525
841.000	502.864	80.005	19.994	104.275	17.246	196.976	0.500
841.500	503.137	80.006	19.995	104.268	17.223	198.601	0.482
842.000	503.403	80.005	19.994	104.257	17.195	200.533	0.515
842.500	503.642	80.006	19.995	104.247	17.176	201.831	0.522
843.000	503.912	80.004	19.996	104.228	17.152	203.505	0.507
843.500	504.141	80.005	19.995	104.206	17.130	205.047	0.504
844.000	504.455	80.006	19.995	104.191	17.108	206.586	0.521
844.500	504.680	80.006	19.994	104.179	17.081	208.464	0.541
845.000	504.969	80.006	19.994	104.160	17.054	210.414	0.527
845.500	505.235	80.005	19.994	104.152	17.029	212.119	0.534
846.000	505.439	80.006	19.995	104.150	17.002	214.052	0.513
846.500	505.737	80.007	19.995	104.152	16.980	215.601	0.486
847.000	505.962	80.006	19.994	104.158	16.954	217.399	0.512
847.500	506.280	80.006	19.994	104.168	16.923	219.497	0.533
848.000	506.527	80.006	19.995	104.181	16.900	221.132	0.554
848.500	506.778	80.006	19.994	104.193	16.880	222.514	0.532
849.000	507.055	80.004	19.996	104.201	16.855	224.225	0.513
849.500	507.264	80.006	19.995	104.206	16.834	225.721	0.507
850.000	507.555	80.005	19.995	104.209	16.810	227.334	0.493
850.500	507.825	80.006	19.995	104.206	16.793	228.538	0.530
851.000	508.075	80.006	19.995	104.203	16.772	229.962	0.541
851.500	508.339	80.006	19.995	104.202	16.751	231.475	0.517
852.000	508.622	80.006	19.995	104.203	16.729	232.984	0.531
852.500	508.888	80.006	19.994	104.201	16.704	234.719	0.548
853.000	509.127	80.005	19.996	104.199	16.681	236.305	0.527
853.500	509.373	80.006	19.996	104.202	16.656	238.036	0.495
854.000	509.642	80.005	19.996	104.207	16.631	239.782	0.499
854.500	509.878	80.005	19.996	104.215	16.608	241.406	0.510
855.000	510.146	80.006	19.995	104.226	16.583	243.108	0.504
855.500	510.369	80.005	19.995	104.241	16.554	245.119	0.497
856.000	510.602	80.006	19.994	104.255	16.533	246.565	0.474
856.500	510.905	80.006	19.995	104.267	16.509	248.276	0.497
857.000	511.136	80.005	19.996	104.276	16.483	250.084	0.535
857.500	511.449	80.006	19.995	104.282	16.456	251.925	0.539
858.000	511.665	80.005	19.996	104.287	16.429	253.777	0.537
858.500	511.932	80.007	19.995	104.291	16.402	255.624	0.506
859.000	512.164	80.007	19.994	104.291	16.376	257.444	0.491
859.500	512.447	80.006	19.995	104.291	16.350	259.226	0.507
860.000	512.731	80.007	19.995	104.295	16.320	261.365	0.541
860.500	512.960	80.006	19.995	104.297	16.297	262.952	0.540
861.000	513.214	80.007	19.996	104.296	16.266	265.119	0.498
861.500	513.514	80.006	19.995	104.296	16.240	266.995	0.519
862.000	513.744	80.007	19.995	104.297	16.212	268.926	0.542
862.500	514.026	80.007	19.994	104.295	16.182	270.933	0.520
863.000	514.270	80.006	19.995	104.294	16.158	272.610	0.519
863.500	514.538	80.007	19.995	104.297	16.134	274.280	0.519
864.000	514.785	80.007	19.992	104.302	16.103	276.413	0.514
864.500	515.086	80.007	19.992	104.305	16.076	278.300	0.532
865.000	515.314	80.007	19.994	104.307	16.047	280.250	0.538
865.500	515.566	80.007	19.994	104.311	16.023	281.906	0.504
866.000	515.852	80.008	19.995	104.313	15.995	283.868	0.509
866.500	516.064	80.007	19.994	104.314	15.968	285.720	0.518
867.000	516.348	80.008	19.994	104.318	15.942	287.504	0.497
867.500	516.584	80.008	19.994	104.321	15.918	289.120	0.508
868.000	516.855	80.008	19.995	104.325	15.893	290.834	0.514
868.500	517.137	80.007	19.995	104.324	15.863	292.966	0.530
869.000	517.362	80.007	19.994	104.319	15.841	294.515	0.530
869.500	517.628	80.008	19.994	104.314	15.814	296.344	0.499
870.000	517.899	80.006	19.995	104.312	15.791	297.993	0.515
870.500	518.199	80.006	19.994	104.313	15.763	299.894	0.554
871.000	518.398	80.007	19.994	104.322	15.748	301.007	0.535
871.500	518.665	80.006	19.995	104.334	15.723	302.764	0.482
872.000	518.923	80.006	19.995	104.343	15.705	304.014	0.495
872.500	519.190	80.005	19.995	104.349	15.686	305.318	0.525
873.000	519.440	80.005	19.995	104.347	15.670	306.462	0.521
873.500	519.662	80.004	19.995	104.342	15.656	307.354	0.495
874.000	519.953	80.003	19.995	104.342	15.643	308.267	0.492
874.500	520.174	80.005	19.996	104.339	15.633	308.963	0.513
875.000	520.416	80.004	19.996	104.334	15.622	309.672	0.488
875.500	520.716	80.004	19.995	104.332	15.617	310.059	0.503
876.000	520.938	80.004	19.994	104.330	15.611	310.488	0.532
876.500	521.204	80.004	19.995	104.326	15.606	310.810	0.505
877.000	521.475	80.003	19.994	104.324	15.607	310.670	0.512
877.500	521.751	80.004	19.995	104.320	15.610	310.495	0.542
878.000	521.988	80.004	19.995	104.315	15.611	310.364	0.530
878.500	522.252	80.004	19.995	104.307	15.614	310.117	0.507
879.000	522.459	80.004	19.995	104.301	15.618	309.839	0.486
879.500	522.716	80.004	19.994	104.302	15.627	309.233	0.468
880.000	522.985	80.003	19.995	104.307	15.639	308.407	0.495
880.500	523.271	80.004	19.994	104.312	15.647	307.820	0.540
881.000	523.537	80.005	19.994	104.318	15.661	306.872	0.553
881.500	523.776	80.004	19.996	104.321	15.679	305.604	0.529
882.000	524.026	80.005	19.995	104.327	15.701	304.066	0.497
882.500	524.297	80.004	19.994	104.336	15.723	302.515	0.505
883.000	524.548	80.003	19.995	104.342	15.749	300.674	0.522
883.500	524.789	80.004	19.995	104.345	15.772	299.081	0.507
884.000	525.013	80.003	19.995	104.344	15.803	296.889	0.478
884.501	525.246	80.004	19.995	104.337	15.837	294.574	0.461
885.000	525.525	80.003	19.998	104.329	15.869	292.320	0.485
885.500	525.774	80.004	19.997	104.326	15.907	289.722	0.520
886.000	526.073	80.003	19.994	104.325	15.949	286.785	0.538
886.500	526.297	80.003	19.996	104.324	15.990	283.908	0.536
887.000	526.538	80.003	19.995	104.324	16.037	280.673	0.494
887.500	526.844	80.004	19.996	104.320	16.085	277.282	0.506
888.000	527.098	80.003	19.996	104.312	16.134	273.921	0.553
888.500	527.306	80.002	19.995	104.305	16.182	270.606	0.511
889.000	527.569	80.004	19.995	104.298	16.238	266.780	0.467
889.500	527.815	80.004	19.996	104.290	16.291	263.058	0.490
890.000	528.085	80.004	19.994	104.288	16.348	259.089	0.512
890.500	528.299	80.005	19.995	104.286	16.411	254.745	0.500
891.000	528.570	80.004	19.995	104.282	16.473	250.445	0.484
891.500	528.855	80.006	19.995	104.280	16.534	246.186	0.520
892.000	529.099	80.005	19.995	104.278	16.601	241.592	0.543
892.500	529.335	80.004	19.996	104.272	16.668	236.936	0.504
893.000	529.585	80.005	19.995	104.263	16.737	232.171	0.483
893.500	529.861	80.004	19.995	104.255	16.808	227.250	0.506
894.000	530.085	80.005	19.995	104.247	16.876	222.542	0.513
894.500	530.343	80.004	19.996	104.239	16.953	217.193	0.491
895.000	530.562	80.005	19.995	104.234	17.024	212.238	0.479
895.500	530.839	80.004	19.994	104.233	17.097	207.211	0.487
896.000	531.116	80.005	19.996	104.233	17.176	201.718	0.525
896.500	531.333	80.004	19.995	104.230	17.253	196.402	0.524
897.000	531.604	80.004	19.995	104.222	17.326	191.380	0.491
897.500	531.876	80.004	19.994	104.214	17.398	186.331	0.516
898.000	532.113	80.006	19.995	104.207	17.475	180.999	0.526
898.500	532.360	80.005	19.995	104.204	17.550	175.854	0.496
899.000	532.610	80.004	19.995	104.206	17.622	170.822	0.491
899.500	532.879	80.003	19.994	104.207	17.693	165.913	0.509
900.000	533.117	80.004	19.995	104.210	17.769	160.635	0.513
900.501	533.401	80.004	19.995	104.209	17.838	155.900	0.514
901.000	533.681	80.005	19.997	104.204	17.907	151.054	0.543
901.500	533.923	80.005	19.997	104.194	17.975	146.394	0.543
902.000	534.147	80.004	19.996	104.190	18.042	141.753	0.494
902.500	534.409	80.005	19.997	104.186	18.116	136.653	0.476
903.000	534.685	80.005	19.996	104.186	18.178	132.314	0.512
903.500	534.926	80.004	19.995	104.183	18.244	127.770	0.528
904.000	535.154	80.005	19.996	104.180	18.303	123.661	0.493
904.500	535.443	80.004	19.995	104.174	18.366	119.314	0.493
905.000	535.676	80.003	19.995	104.168	18.424	115.330	0.519
905.500	535.931	80.004	19.995	104.162	18.479	111.488	0.505
906.000	536.166	80.004	19.997	104.157	18.536	107.547	0.489
906.500	536.427	80.004	19.995	104.154	18.591	103.770	0.493
907.000	536.681	80.004	19.995	104.150	18.640	100.325	0.506
907.500	536.937	80.004	19.996	104.145	18.696	96.481	0.513
908.000	537.168	80.004	19.998	104.142	18.743	93.255	0.499
908.500	537.435	80.003	19.998	104.135	18.792	89.881	0.493
909.000	537.673	80.004	19.995	104.129	18.840	86.537	0.502
909.500	537.943	80.003	19.997	104.124	18.883	83.562	0.506
910.000	538.166	80.004	19.996	104.112	18.926	80.632	0.500
910.500	538.443	80.003	19.996	104.099	18.969	77.625	0.496
911.000	538.709	80.004	19.996	104.090	19.009	74.839	0.521
911.500	538.972	80.004	19.996	104.081	19.047	72.232	0.536
912.000	539.191	80.003	19.996	104.071	19.083	69.783	0.506
912.500	539.452	80.003	19.997	104.063	19.120	67.230	0.481
913.000	539.678	80.003	19.997	104.056	19.152	64.999	0.483
913.500	539.924	80.002	19.998	104.049	19.182	62.905	0.479
914.000	540.182	80.004	19.997	104.042	19.213	60.754	0.488
914.500	540.447	80.004	19.998	104.033	19.247	58.456	0.514
915.000	540.667	80.004	19.996	104.027	19.272	56.677	0.504
915.500	540.866	80.004	19.996	104.019	19.300	54.752	0.453
916.000	541.174	80.005	19.997	104.010	19.326	52.988	0.463
916.500	541.441	80.004	19.996	104.002	19.351	51.275	0.540
917.000	541.669	80.006	19.996	103.993	19.372	49.782	0.535
917.500	541.914	80.006	19.997	103.986	19.397	48.056	0.484
918.000	542.152	80.004	19.996	103.979	19.422	46.347	0.479
918.500	542.420	80.005	19.997	103.971	19.441	45.062	0.495
919.000	542.643	80.005	19.996	103.965	19.462	43.564	0.498
919.500	542.881	80.005	19.997	103.959	19.483	42.150	0.476
920.000	543.136	80.004	19.997	103.956	19.504	40.666	0.477
920.500	543.377	80.005	19.997	103.956	19.522	39.461	0.495
921.000	543.610	80.006	19.997	103.956	19.540	38.212	0.485
921.500	543.860	80.006	19.997	103.953	19.553	37.313	0.478
922.000	544.111	80.006	19.995	103.948	19.569	36.221	0.492
922.500	544.359	80.006	19.996	103.943	19.582	35.295	0.500
923.000	544.589	80.005	19.994	103.934	19.600	34.084	0.488
923.500	544.857	80.005	19.996	103.930	19.613	33.186	0.488
924.000	545.122	80.006	19.996	103.927	19.626	32.243	0.516
924.500	545.317	80.006	19.995	103.927	19.642	31.178	0.497
925.000	545.582	80.007	19.995	103.925	19.649	30.662	0.460
925.500	545.875	80.006	19.996	103.926	19.662	29.776	0.509
926.000	546.110	80.005	19.996	103.922	19.673	29.064	0.543
926.500	546.322	80.005	19.995	103.916	19.681	28.487	0.488
927.000	546.591	80.006	19.995	103.909	19.697	27.380	0.464
927.500	546.856	80.006	19.995	103.903	19.705	26.797	0.507
928.000	547.094	80.005	19.995	103.900	19.714	26.233	0.519
928.500	547.371	80.005	19.995	103.899	19.723	25.549	0.509
929.000	547.616	80.005	19.995	103.897	19.731	25.006	0.518
929.500	547.859	80.005	19.996	103.901	19.739	24.461	0.505
930.000	548.109	80.005	19.994	103.900	19.746	24.026	0.490
930.500	548.325	80.003	19.995	103.897	19.755	23.391	0.480
931.001	548.598	80.004	19.995	103.891	19.763	22.854	0.478
931.500	548.858	80.005	19.995	103.892	19.769	22.410	0.511
932.000	549.094	80.005	19.994	103.889	19.775	22.026	0.515
932.500	549.352	80.004	19.994	103.889	19.781	21.607	0.495
933.000	549.575	80.003	19.996	103.888	19.789	21.049	0.487
933.500	549.846	80.005	19.994	103.888	19.794	20.692	0.487
934.000	550.109	80.003	19.994	103.886	19.798	20.408	0.514
934.500	550.334	80.007	19.996	103.887	19.803	20.049	0.511
935.000	550.607	80.004	19.995	103.886	19.810	19.552	0.493
935.500	550.853	80.005	19.994	103.885	19.814	19.311	0.508
936.000	551.116	80.005	19.994	103.886	19.820	18.914	0.514
936.500	551.357	80.006	19.995	103.887	19.822	18.726	0.507
937.000	551.608	80.004	19.995	103.886	19.822	18.724	0.498
937.500	551.871	80.004	19.995	103.886	19.829	18.251	0.503
938.000	552.128	80.006	19.995	103.884	19.834	17.906	0.516
938.500	552.365	80.005	19.995	103.883	19.834	17.904	0.507
939.000	552.604	80.006	19.994	103.880	19.840	17.539	0.485
939.500	552.897	80.005	19.994	103.879	19.844	17.205	0.504
940.000	553.149	80.006	19.994	103.878	19.848	16.951	0.539
940.500	553.405	80.005	19.994	103.874	19.852	16.699	0.527
941.000	553.658	80.005	19.994	103.873	19.859	16.227	0.508
941.500	553.916	80.005	19.994	103.876	19.861	16.092	0.510
942.000	554.173	80.004	19.995	103.877	19.865	15.790	0.513
942.500	554.448	80.006	19.995	103.877	19.868	15.549	0.524
943.000	554.696	80.006	19.994	103.882	19.870	15.436	0.528
943.500	554.941	80.006	19.994	103.884	19.872	15.305	0.508
944.000	555.183	80.006	19.995	103.885	19.875	15.083	0.489
944.500	555.464	80.006	19.994	103.886	19.878	14.876	0.505
945.000	555.720	80.007	19.994	103.887	19.880	14.756	0.531
945.500	555.969	80.005	19.994	103.887	19.885	14.382	0.521
946.000	556.221	80.007	19.995	103.886	19.885	14.437	0.503
946.500	556.476	80.007	19.995	103.886	19.887	14.292	0.504
947.000	556.728	80.006	19.994	103.884	19.887	14.297	0.507
947.500	556.970	80.005	19.995	103.883	19.889	14.116	0.500
948.000	557.200	80.006	19.994	103.883	19.896	13.678	0.483
948.500	557.507	80.007	19.994	103.882	19.890	14.048	0.505
949.000	557.740	80.007	19.994	103.882	19.894	13.756	0.538
949.500	558.000	80.007	19.996	103.882	19.898	13.523	0.516
950.000	558.269	80.006	19.994	103.882	19.898	13.520	0.511
950.500	558.494	80.006	19.995	103.881	19.900	13.349	0.512
951.000	558.761	80.006	19.995	103.881	19.903	13.196	0.493
951.500	558.972	80.006	19.993	103.881	19.903	13.193	0.485
952.000	559.254	80.007	19.995	103.878	19.905	13.030	0.485
952.500	559.503	80.006	19.995	103.875	19.907	12.859	0.512
953.000	559.741	80.005	19.994	103.869	19.908	12.853	0.509
953.500	559.993	80.005	19.993	103.869	19.911	12.586	0.489
954.000	560.280	80.006	19.996	103.868	19.910	12.662	0.515
954.500	560.566	80.006	19.995	103.867	19.913	12.469	0.556
955.000	560.807	80.007	19.995	103.863	19.914	12.432	0.550
955.500	561.078	80.006	19.996	103.864	19.914	12.413	0.519
956.000	561.322	80.005	19.996	103.863	19.916	12.303	0.514
956.500	561.591	80.005	19.994	103.858	19.916	12.288	0.514
957.000	561.849	80.005	19.994	103.859	19.916	12.271	0.519
957.500	562.101	80.005	19.996	103.863	19.916	12.241	0.519
958.000	562.384	80.006	19.996	103.860	19.918	12.121	0.523
958.500	562.651	80.005	19.995	103.855	19.920	12.002	0.543
959.000	562.901	80.004	19.995	103.858	19.921	11.914	0.533
959.501	563.147	80.006	19.995	103.856	19.921	11.907	0.507
960.000	563.398	80.005	19.994	103.858	19.926	11.597	0.497
960.500	563.671	80.005	19.995	103.863	19.927	11.538	0.510
961.000	563.885	80.004	19.994	103.866	19.929	11.390	0.505
961.500	564.176	80.005	19.994	103.869	19.927	11.482	0.497
962.000	564.405	80.005	19.996	103.872	19.926	11.578	0.512
962.500	564.692	80.004	19.995	103.868	19.928	11.461	0.517
963.000	564.915	80.005	19.994	103.866	19.929	11.354	0.513
963.500	565.193	80.004	19.993	103.863	19.930	11.307	0.506
964.000	565.455	80.005	19.995	103.862	19.932	11.199	0.521
964.500	565.681	80.006	19.994	103.863	19.929	11.371	0.514
965.000	565.959	80.004	19.995	103.868	19.930	11.303	0.496
965.500	566.187	80.006	19.996	103.871	19.931	11.229	0.505
966.000	566.426	80.005	19.996	103.877	19.931	11.235	0.486
966.500	566.704	80.004	19.994	103.878	19.934	11.051	0.491
967.000	567.014	80.005	19.995	103.881	19.935	10.957	0.552
967.500	567.267	80.005	19.994	103.881	19.938	10.742	0.576
968.000	567.516	80.004	19.995	103.882	19.936	10.904	0.533
968.500	567.790	80.004	19.995	103.882	19.936	10.885	0.512
969.000	568.029	80.004	19.995	103.882	19.939	10.701	0.518
969.500	568.255	80.005	19.996	103.881	19.942	10.511	0.489
970.000	568.530	80.005	19.994	103.881	19.941	10.582	0.483
970.500	568.817	80.004	19.996	103.880	19.943	10.430	0.531
971.000	569.042	80.006	19.995	103.880	19.941	10.515	0.537
971.500	569.343	80.006	19.994	103.880	19.944	10.367	0.519
972.000	569.562	80.004	19.993	103.881	19.941	10.580	0.523
972.500	569.826	80.005	19.994	103.882	19.947	10.145	0.501
973.000	570.101	80.003	19.994	103.883	19.944	10.312	0.511
973.500	570.391	80.004	19.994	103.883	19.944	10.369	0.552
974.000	570.653	80.005	19.995	103.881	19.948	10.035	0.559
974.500	570.896	80.005	19.996	103.880	19.948	10.042	0.529
975.000	571.164	80.004	19.995	103.879	19.947	10.132	0.509
975.500	571.421	80.004	19.996	103.878	19.949	9.973	0.519
976.000	571.694	80.006	19.996	103.878	19.949	9.997	0.527
976.501	571.959	80.004	19.996	103.879	19.949	9.969	0.534
977.000	572.191	80.005	19.995	103.879	19.950	9.954	0.517
977.500	572.458	80.004	19.996	103.879	19.949	9.995	0.498
978.000	572.717	80.004	19.995	103.874	19.950	9.904	0.512
978.500	572.961	80.003	19.996	103.872	19.947	10.164	0.514
979.000	573.245	80.004	19.994	103.871	19.949	9.978	0.516
979.500	573.504	80.003	19.996	103.871	19.950	9.927	0.536
980.000	573.785	80.005	19.996	103.872	19.948	10.035	0.541
980.500	574.081	80.004	19.996	103.878	19.951	9.893	0.558
981.000	574.301	80.004	19.996	103.880	19.950	9.937	0.546
981.500	574.631	80.004	19.996	103.880	19.952	9.768	0.533
982.000	574.888	80.005	19.996	103.880	19.953	9.730	0.568
982.500	575.146	80.004	19.995	103.880	19.954	9.684	0.551
983.000	575.386	80.004	19.996	103.878	19.951	9.855	0.507
983.500	575.683	80.004	19.996	103.874	19.955	9.585	0.518
984.000	575.958	80.004	19.997	103.873	19.950	9.894	0.554
984.500	576.221	80.003	19.997	103.873	19.955	9.551	0.555
985.000	576.491	80.004	19.996	103.873	19.955	9.587	0.536
985.500	576.739	80.004	19.996	103.874	19.951	9.871	0.525
986.000	577.015	80.005	19.995	103.877	19.957	9.442	0.521
986.500	577.296	80.004	19.994	103.879	19.955	9.556	0.540
987.000	577.503	80.004	19.996	103.878	19.956	9.522	0.522
987.500	577.771	80.004	19.996	103.877	19.957	9.447	0.481
988.000	578.033	80.005	19.997	103.879	19.956	9.525	0.503
988.500	578.287	80.003	19.997	103.878	19.957	9.436	0.523
989.000	578.540	80.004	19.995	103.877	19.958	9.394	0.512
989.500	578.813	80.004	19.996	103.877	19.956	9.486	0.516
990.000	579.051	80.002	19.997	103.879	19.959	9.310	0.518
990.500	579.350	80.003	19.994	103.878	19.962	9.105	0.524
991.000	579.612	80.003	19.997	103.879	19.958	9.401	0.549
991.500	579.834	80.004	19.996	103.879	19.960	9.230	0.523
992.000	580.099	80.004	19.997	103.879	19.962	9.075	0.486
992.500	580.321	80.004	19.996	103.880	19.964	8.974	0.487
993.000	580.586	80.003	19.995	103.880	19.965	8.911	0.487
993.500	580.852	80.004	19.994	103.879	19.962	9.091	0.509
994.000	581.076	80.004	19.996	103.878	19.962	9.114	0.510
994.500	581.316	80.005	19.994	103.877	19.963	9.037	0.477
995.000	581.623	80.004	19.995	103.873	19.962	9.073	0.506
995.500	581.886	80.004	19.996	103.873	19.961	9.175	0.558
996.000	582.167	80.004	19.996	103.872	19.965	8.890	0.557
996.500	582.397	80.005	19.996	103.868	19.963	9.035	0.527
997.000	582.648	80.004	19.995	103.869	19.966	8.790	0.496
997.500	582.897	80.004	19.996	103.873	19.966	8.851	0.491
998.000	583.162	80.003	19.996	103.874	19.966	8.800	0.507
998.500	583.425	80.005	19.996	103.876	19.965	8.904	0.521
999.000	583.689	80.003	19.997	103.882	19.969	8.638	0.527
999.501	583.917	80.006	19.995	103.882	19.967	8.779	0.509
1000.001	584.171	80.005	19.995	103.880	19.965	8.879	0.487
1000.500	584.395	80.005	19.995	103.875	19.967	8.721	0.480
1001.000	584.683	80.004	19.995	103.874	19.969	8.613	0.495
1001.500	584.918	80.004	19.996	103.875	19.967	8.739	0.518
1002.000	585.187	80.006	19.994	103.874	19.972	8.428	0.514
1002.500	585.434	80.005	19.996	103.874	19.972	8.413	0.510
1003.000	585.701	80.006	19.997	103.875	19.969	8.586	0.515
1003.500	585.946	80.005	19.996	103.876	19.967	8.764	0.513
1004.000	586.189	80.004	19.995	103.875	19.970	8.532	0.500
1004.500	586.436	80.005	19.995	103.872	19.970	8.555	0.489
1005.000	586.683	80.004	19.993	103.872	19.971	8.456	0.492
1005.500	586.936	80.004	19.996	103.874	19.970	8.534	0.497
1006.000	587.190	80.004	19.997	103.873	19.972	8.405	0.503
1006.500	587.494	80.005	19.996	103.872	19.970	8.540	0.532
1007.000	587.745	80.005	19.994	103.874	19.970	8.532	0.557
1007.500	587.957	80.004	19.996	103.876	19.973	8.322	0.509
1008.000	588.238	80.005	19.998	103.879	19.973	8.369	0.478
1008.500	588.430	80.004	19.996	103.880	19.973	8.348	0.483
1009.000	588.723	80.004	19.998	103.881	19.972	8.424	0.479
1009.500	588.950	80.003	19.995	103.881	19.973	8.374	0.503
1010.000	589.197	80.005	19.998	103.877	19.971	8.467	0.497
1010.500	589.457	80.004	19.995	103.875	19.974	8.256	0.490
1011.000	589.710	80.004	19.995	103.874	19.973	8.328	0.510
1011.500	589.968	80.004	19.998	103.873	19.974	8.256	0.512
1012.000	590.234	80.004	19.996	103.874	19.974	8.276	0.517
1012.500	590.485	80.003	19.996	103.877	19.974	8.251	0.520
1013.001	590.746	80.004	19.996	103.879	19.973	8.311	0.515
1013.500	590.984	80.004	19.997	103.880	19.975	8.180	0.506
1014.000	591.203	80.004	19.995	103.881	19.973	8.333	0.478
1014.500	591.463	80.004	19.998	103.882	19.976	8.161	0.468
1015.000	591.752	80.004	19.995	103.879	19.977	8.085	0.514
1015.500	591.985	80.004	19.995	103.875	19.977	8.078	0.535
1016.000	592.241	80.004	19.996	103.874	19.979	7.955	0.505
1016.500	592.475	80.004	19.997	103.873	19.977	8.078	0.489
1017.000	592.701	80.004	19.995	103.872	19.979	7.942	0.475
1017.500	592.971	80.006	19.997	103.876	19.977	8.073	0.478
1018.000	593.214	80.007	19.998	103.880	19.980	7.888	0.504
1018.500	593.479	80.005	19.995	103.879	19.980	7.879	0.511
1019.000	593.749	80.006	19.996	103.879	19.980	7.844	0.522
1019.500	594.011	80.006	19.997	103.878	19.978	7.998	0.534
1020.000	594.284	80.004	19.996	103.876	19.979	7.956	0.533
1020.500	594.507	80.006	19.997	103.868	19.984	7.617	0.515
1021.000	594.739	80.005	19.995	103.867	19.980	7.870	0.476
1021.500	594.992	80.008	19.994	103.868	19.980	7.830	0.470
1022.001	595.222	80.006	19.995	103.868	19.980	7.834	0.484
1022.501	595.499	80.006	19.996	103.868	19.981	7.771	0.495
1023.000	595.736	80.007	19.995	103.873	19.981	7.817	0.511
1023.500	595.981	80.007	19.994	103.871	19.979	7.913	0.498
1024.000	596.236	80.007	19.995	103.865	19.977	8.060	0.490
1024.500	596.504	80.007	19.995	103.860	19.980	7.826	0.511
1025.000	596.762	80.005	19.992	103.861	19.981	7.809	0.524
1025.501	597.006	80.006	19.996	103.862	19.982	7.724	0.514
1026.001	597.291	80.006	19.996	103.867	19.980	7.832	0.516
1026.500	597.530	80.005	19.995	103.873	19.978	8.018	0.527
1027.000	597.753	80.008	19.994	103.877	19.979	7.919	0.493
1027.500	598.037	80.008	19.994	103.876	19.981	7.790	0.484
1028.000	598.263	80.007	19.994	103.875	19.982	7.737	0.509
1028.500	598.539	80.008	19.997	103.874	19.982	7.731	0.506
1029.000	598.804	80.008	19.996	103.870	19.983	7.676	0.522
1029.500	599.068	80.008	19.995	103.869	19.982	7.733	0.535
1030.000	599.313	80.008	19.994	103.867	19.984	7.587	0.519
1030.501	599.575	80.006	19.993	103.868	19.987	7.379	0.508
1031.001	599.814	80.008	19.994	103.869	19.986	7.464	0.504
1031.501	600.093	80.006	19.993	103.873	19.986	7.441	0.510
1032.001	600.373	80.008	19.994	103.875	19.990	7.187	0.539
1032.500	600.621	80.006	19.995	103.878	19.986	7.466	0.543
1033.000	600.868	80.006	19.993	103.879	19.985	7.494	0.511
1033.500	601.145	80.007	19.993	103.879	19.986	7.477	0.509
1034.001	601.369	80.005	19.995	103.878	19.984	7.608	0.513
1034.501	601.654	80.006	19.995	103.878	19.984	7.551	0.505
1035.001	601.932	80.006	19.996	103.878	19.985	7.547	0.536
1035.501	602.165	80.005	19.994	103.878	19.984	7.576	0.537
1036.000	602.426	80.007	19.996	103.878	19.984	7.591	0.502
1036.500	602.684	80.004	19.997	103.879	19.986	7.443	0.506
1037.000	602.982	80.005	19.994	103.880	19.987	7.374	0.537
1037.500	603.238	80.005	19.993	103.880	19.985	7.499	0.555
1038.000	603.494	80.004	19.993	103.880	19.985	7.492	0.533
1038.500	603.726	80.002	19.998	103.880	19.989	7.258	0.501
1039.000	604.034	80.004	19.995	103.881	19.988	7.313	0.514
1039.501	604.273	80.003	19.995	103.881	19.986	7.433	0.543
1040.001	604.515	80.004	19.995	103.881	19.988	7.287	0.514
1040.500	604.782	80.004	19.995	103.881	19.987	7.386	0.495
1041.000	605.056	80.004	19.996	103.881	19.988	7.306	0.525
1041.500	605.315	80.005	19.995	103.881	19.989	7.251	0.537
1042.000	605.617	80.005	19.997	103.881	19.988	7.293	0.547
1042.500	605.863	80.003	19.995	103.880	19.988	7.285	0.554
1043.000	606.146	80.005	19.996	103.880	19.988	7.295	0.538
1043.500	606.375	80.005	19.995	103.880	19.988	7.327	0.520
1044.000	606.673	80.003	19.996	103.879	19.990	7.185	0.519
1044.500	606.986	80.003	19.997	103.879	19.989	7.247	0.569
1045.000	607.245	80.004	19.996	103.878	19.990	7.171	0.591
1045.500	607.496	80.004	19.995	103.877	19.990	7.197	0.541
1046.001	607.780	80.004	19.996	103.877	19.993	6.959	0.523
1046.501	608.076	80.004	19.995	103.879	19.992	7.029	0.558
1047.001	608.290	80.005	19.996	103.879	19.992	7.023	0.545
1047.500	608.539	80.004	19.993	103.879	19.994	6.900	0.487
1048.000	608.809	80.005	19.995	103.876	19.994	6.860	0.491
1048.500	609.104	80.005	19.995	103.873	19.996	6.728	0.542
1049.000	609.383	80.003	19.997	103.873	19.995	6.851	0.570
1049.500	609.626	80.004	19.996	103.873	19.992	7.005	0.548
1050.000	609.909	80.005	19.996	103.873	19.992	7.015	0.524
1050.500	610.158	80.005	19.994	103.873	19.991	7.090	0.529
1051.000	610.442	80.005	19.995	103.877	19.993	6.960	0.533
1051.500	610.696	80.005	19.996	103.877	19.992	7.002	0.536
1052.000	610.965	80.005	19.993	103.875	19.993	6.974	0.530
1052.500	611.268	80.005	19.997	103.875	19.996	6.746	0.547
1053.000	611.474	80.005	19.996	103.878	19.992	7.061	0.540
1053.500	611.780	80.005	19.995	103.875	19.994	6.879	0.510
1054.000	612.014	80.006	19.996	103.876	19.991	7.098	0.526
1054.501	612.289	80.005	19.996	103.878	19.993	6.938	0.525
1055.001	612.569	80.005	19.995	103.878	19.993	6.985	0.533
1055.500	612.847	80.004	19.995	103.870	19.992	7.021	0.556
1056.000	613.054	80.004	19.995	103.866	19.995	6.828	0.521
1056.500	613.368	80.006	19.994	103.858	19.995	6.854	0.503
1057.000	613.652	80.006	19.991	103.852	19.993	6.934	0.559
1057.500	613.902	80.006	19.994	103.847	19.993	6.984	0.566
1058.000	614.154	80.006	19.995	103.848	19.995	6.857	0.518
1058.500	614.431	80.004	19.996	103.848	19.994	6.887	0.516
1059.000	614.751	80.004	19.996	103.849	19.998	6.646	0.563
1059.500	614.990	80.005	19.995	103.853	19.997	6.690	0.577
1060.000	615.288	80.004	19.995	103.858	19.997	6.701	0.548
1060.500	615.544	80.005	19.994	103.865	19.998	6.601	0.546
1061.000	615.819	80.005	19.994	103.872	19.999	6.526	0.543
1061.500	616.068	80.004	19.994	103.877	19.998	6.617	0.528
1062.001	616.382	80.006	19.992	103.873	20.001	6.418	0.544
1062.501	616.645	80.004	19.994	103.870	19.998	6.646	0.570
1063.000	616.923	80.004	19.994	103.869	19.997	6.706	0.559
1063.500	617.177	80.005	19.995	103.870	20.001	6.433	0.537
1064.000	617.449	80.003	19.996	103.871	20.000	6.494	0.529
1064.500	617.712	80.004	19.995	103.877	19.999	6.547	0.531
1065.000	617.939	80.004	19.996	103.882	20.000	6.475	0.512
1065.500	618.208	80.004	19.994	103.881	19.996	6.769	0.493
1066.000	618.481	80.006	19.996	103.876	19.997	6.656	0.519
1066.500	618.746	80.005	19.994	103.876	19.999	6.522	0.540
1067.000	619.001	80.005	19.994	103.876	20.000	6.484	0.529
1067.500	619.284	80.004	19.994	103.875	20.000	6.501	0.529
1068.000	619.541	80.005	19.996	103.876	19.995	6.797	0.539
1068.500	619.783	80.004	19.995	103.880	20.001	6.429	0.519
1069.000	620.066	80.005	19.994	103.881	19.999	6.514	0.512
1069.500	620.340	80.004	19.996	103.882	19.999	6.545	0.541
1070.000	620.606	80.005	19.995	103.883	20.004	6.228	0.549
1070.500	620.834	80.003	19.995	103.884	19.998	6.593	0.517
1071.000	621.128	80.004	19.995	103.883	20.003	6.241	0.508
1071.500	621.381	80.003	19.994	103.883	20.002	6.376	0.535
1072.000	621.648	80.004	19.996	103.881	19.999	6.516	0.534
1072.500	621.930	80.003	19.996	103.877	20.007	6.017	0.534
1073.000	622.213	80.002	19.996	103.877	20.005	6.119	0.556
1073.501	622.481	80.003	19.995	103.877	20.004	6.186	0.558
1074.001	622.756	80.003	19.995	103.877	20.003	6.286	0.547
1074.500	622.992	80.003	19.995	103.879	20.006	6.085	0.527
1075.001	623.278	80.003	19.995	103.882	20.003	6.271	0.517
1075.501	623.571	80.004	19.996	103.880	20.003	6.273	0.551
1076.000	623.804	80.004	19.995	103.881	20.003	6.239	0.553
1076.500	624.074	80.003	19.996	103.882	20.006	6.080	0.515
1077.000	624.343	80.003	19.995	103.882	20.003	6.279	0.521
1077.500	624.612	80.004	19.997	103.878	20.003	6.243	0.538
1078.000	624.860	80.003	19.995	103.872	20.001	6.393	0.528
1078.500	625.112	80.003	19.995	103.867	20.006	6.074	0.509
1079.000	625.349	80.004	19.997	103.863	20.003	6.266	0.494
1079.500	625.606	80.004	19.995	103.863	20.009	5.863	0.491
1080.000	625.894	80.003	19.997	103.868	20.007	6.025	0.520
1080.500	626.128	80.005	19.996	103.875	20.006	6.057	0.534
1081.000	626.388	80.005	19.995	103.880	20.009	5.881	0.508
1081.501	626.689	80.004	19.994	103.879	20.007	6.004	0.527
1082.001	626.915	80.005	19.994	103.875	20.007	6.009	0.544
1082.500	627.186	80.006	19.994	103.873	20.008	5.924	0.512
1083.000	627.459	80.006	19.992	103.867	20.006	6.055	0.520
1083.500	627.726	80.004	19.995	103.864	20.009	5.877	0.541
1084.000	628.016	80.009	19.993	103.865	20.006	6.084	0.548
1084.500	628.260	80.005	19.995	103.863	20.006	6.033	0.546
1085.000	628.501	80.006	19.994	103.864	20.008	5.921	0.510
1085.500	628.759	80.005	19.995	103.868	20.009	5.829	0.492
1086.000	629.012	80.004	19.995	103.868	20.008	5.932	0.505
1086.500	629.330	80.005	19.996	103.870	20.007	6.017	0.541
1087.000	629.576	80.007	19.995	103.874	20.005	6.102	0.568
1087.500	629.842	80.005	19.997	103.874	20.004	6.216	0.538
1088.000	630.032	80.005	19.995	103.874	20.008	5.907	0.484
1088.500	630.303	80.004	19.996	103.874	20.008	5.930	0.459
1089.000	630.577	80.005	19.997	103.871	20.005	6.108	0.503
1089.500	630.863	80.006	19.995	103.866	20.008	5.915	0.552
1090.001	631.097	80.004	19.997	103.866	20.009	5.877	0.540
1090.501	631.382	80.005	19.998	103.868	20.008	5.913	0.520
1091.001	631.653	80.007	19.995	103.870	20.009	5.882	0.537
1091.501	631.888	80.005	19.994	103.873	20.008	5.956	0.531
1092.000	632.143	80.005	19.995	103.874	20.005	6.122	0.498
1092.500	632.369	80.005	19.995	103.867	20.009	5.860	0.486
1093.000	632.642	80.005	19.992	103.862	20.007	5.999	0.490
1093.500	632.899	80.006	19.995	103.862	20.008	5.931	0.514
1094.000	633.151	80.003	19.994	103.861	20.008	5.946	0.519
1094.500	633.406	80.005	19.995	103.867	20.005	6.117	0.508
1095.000	633.712	80.005	19.995	103.871	20.006	6.079	0.534
1095.500	633.943	80.004	19.995	103.874	20.009	5.880	0.549
1096.000	634.192	80.005	19.995	103.872	20.009	5.842	0.508
1096.500	634.458	80.005	19.996	103.871	20.008	5.909	0.498
1097.000	634.736	80.005	19.997	103.867	20.012	5.660	0.530
1097.500	634.989	80.006	19.997	103.865	20.007	5.983	0.537
1098.000	635.249	80.006	19.995	103.866	20.008	5.903	0.521
1098.500	635.519	80.004	19.997	103.868	20.014	5.493	0.522
1099.000	635.769	80.004	19.995	103.867	20.013	5.588	0.525
1099.500	636.007	80.003	19.997	103.869	20.008	5.897	0.504
1100.000	636.279	80.004	19.996	103.873	20.010	5.764	0.499
1100.500	636.545	80.006	19.995	103.874	20.011	5.755	0.524
1101.000	636.801	80.004	19.996	103.871	20.011	5.717	0.530
1101.501	637.052	80.005	19.995	103.869	20.011	5.725	0.514
1102.001	637.294	80.005	19.997	103.865	20.011	5.753	0.500
1102.500	637.544	80.006	19.995	103.860	20.014	5.547	0.493
1103.000	637.794	80.004	19.995	103.853	20.010	5.769	0.496
1103.500	638.027	80.004	19.997	103.850	20.007	6.030	0.492
1104.000	638.319	80.005	19.997	103.853	20.008	5.932	0.504
1104.500	638.586	80.004	19.996	103.857	20.012	5.626	0.542
1105.000	638.820	80.006	19.995	103.858	20.013	5.579	0.530
1105.500	639.091	80.005	19.995	103.860	20.010	5.765	0.503
1106.000	639.322	80.006	19.994	103.861	20.010	5.767	0.503
1106.500	639.623	80.005	19.995	103.860	20.013	5.586	0.517
1107.000	639.857	80.007	19.997	103.861	20.012	5.632	0.534
1107.500	640.098	80.006	19.996	103.863	20.010	5.791	0.505
1108.000	640.394	80.008	19.995	103.868	20.011	5.695	0.506
1108.500	640.572	80.007	19.995	103.871	20.010	5.790	0.505
1109.000	640.872	80.006	19.994	103.871	20.013	5.598	0.476
1109.500	641.119	80.006	19.995	103.868	20.011	5.723	0.513
1110.000	641.362	80.003	19.994	103.867	20.014	5.526	0.519
1110.500	641.635	80.007	19.995	103.861	20.015	5.463	0.503
1111.000	641.914	80.007	19.995	103.856	20.013	5.563	0.534
1111.500	642.157	80.006	19.997	103.858	20.014	5.538	0.537
1112.000	642.374	80.006	19.995	103.861	20.012	5.649	0.491
1112.500	642.649	80.006	19.997	103.863	20.015	5.454	0.476
1113.000	642.896	80.006	19.994	103.866	20.013	5.606	0.507
1113.500	643.145	80.007	19.995	103.871	20.015	5.465	0.509
1114.000	643.399	80.005	19.995	103.872	20.014	5.543	0.500
1114.500	643.670	80.007	19.995	103.869	20.018	5.234	0.514
1115.000	643.931	80.006	19.995	103.867	20.019	5.150	0.528
1115.500	644.197	80.007	19.992	103.870	20.016	5.410	0.529
1116.000	644.436	80.006	19.993	103.868	20.013	5.590	0.516
1116.500	644.655	80.007	19.996	103.865	20.016	5.372	0.481
1117.000	644.940	80.005	19.994	103.868	20.019	5.183	0.481
1117.500	645.190	80.005	19.995	103.868	20.017	5.329	0.519
1118.001	645.420	80.005	19.994	103.868	20.014	5.520	0.507
1118.501	645.666	80.005	19.996	103.868	20.016	5.359	0.478
1119.000	645.963	80.003	19.995	103.872	20.016	5.353	0.510
1119.500	646.171	80.003	19.996	103.873	20.019	5.169	0.524
1120.000	646.465	80.003	19.993	103.877	20.020	5.133	0.504
1120.500	646.703	80.004	19.993	103.870	20.019	5.160	0.517
1121.001	646.957	80.004	19.994	103.867	20.022	4.932	0.512
1121.501	647.199	80.003	19.997	103.864	20.019	5.141	0.494
1122.000	647.416	80.004	19.995	103.864	20.018	5.247	0.478
1122.500	647.702	80.001	19.995	103.860	20.018	5.220	0.481
1123.000	647.977	80.003	19.996	103.867	20.018	5.208	0.531
1123.500	648.211	80.005	19.995	103.873	20.022	4.980	0.535
1124.000	648.497	80.005	19.996	103.878	20.016	5.362	0.515
1124.501	648.753	80.005	19.996	103.877	20.017	5.333	0.531
1125.001	649.012	80.004	19.995	103.877	20.018	5.271	0.529
1125.501	649.306	80.005	19.996	103.874	20.022	4.948	0.534
1126.001	649.535	80.005	19.994	103.873	20.018	5.264	0.538
1126.501	649.774	80.004	19.995	103.873	20.017	5.325	0.496
1127.000	650.024	80.004	19.994	103.875	20.018	5.228	0.479
1127.500	650.315	80.005	19.995	103.878	20.019	5.198	0.515
1128.000	650.591	80.005	19.995	103.877	20.018	5.251	0.554
1128.500	650.824	80.004	19.994	103.873	20.018	5.244	0.538
1129.000	651.089	80.004	19.995	103.870	20.016	5.365	0.503
1129.500	651.339	80.005	19.994	103.866	20.013	5.587	0.506
1130.000	651.616	80.003	19.996	103.865	20.015	5.447	0.521
1130.500	651.857	80.004	19.995	103.867	20.013	5.553	0.523
1131.001	652.111	80.004	19.994	103.870	20.016	5.371	0.507
1131.501	652.368	80.002	19.995	103.872	20.016	5.352	0.503
1132.001	652.628	80.002	19.995	103.874	20.015	5.464	0.514
1132.500	652.872	80.004	19.995	103.873	20.013	5.613	0.511
1133.001	653.131	80.005	19.993	103.869	20.014	5.508	0.504
1133.501	653.426	80.003	19.995	103.865	20.016	5.409	0.528
1134.001	653.633	80.005	19.995	103.859	20.011	5.695	0.528
1134.500	653.957	80.004	19.995	103.855	20.016	5.405	0.516
1135.000	654.184	80.004	19.993	103.856	20.016	5.358	0.541
1135.500	654.425	80.005	19.995	103.857	20.014	5.492	0.510
1136.000	654.676	80.006	19.994	103.861	20.016	5.386	0.480
1136.500	654.925	80.006	19.998	103.862	20.020	5.113	0.496
1137.000	655.189	80.005	19.995	103.868	20.019	5.145	0.507
1137.500	655.478	80.005	19.996	103.871	20.020	5.122	0.533
1138.000	655.697	80.004	19.996	103.875	20.021	5.031	0.530
1138.500	655.953	80.004	19.996	103.875	20.017	5.287	0.491
1139.000	656.212	80.005	19.995	103.880	20.020	5.111	0.495
1139.500	656.455	80.005	19.994	103.881	20.015	5.458	0.509
1140.000	656.786	80.004	19.992	103.881	20.018	5.246	0.538
1140.500	657.016	80.004	19.994	103.881	20.014	5.488	0.567
1141.000	657.288	80.005	19.994	103.884	20.016	5.355	0.532
1141.500	657.505	80.006	19.994	103.885	20.020	5.102	0.496
1142.000	657.701	80.005	19.996	103.884	20.020	5.084	0.450
1142.500	657.988	80.004	19.995	103.884	20.020	5.091	0.448
1143.000	658.206	80.004	19.995	103.878	20.019	5.150	0.494
1143.500	658.497	80.004	19.994	103.871	20.022	4.964	0.507
1144.000	658.762	80.006	19.997	103.863	20.018	5.215	0.533
1144.501	658.985	80.004	19.995	103.856	20.022	4.980	0.522
1145.001	659.242	80.005	19.992	103.850	20.019	5.202	0.484
1145.500	659.491	80.004	19.995	103.854	20.021	5.004	0.493
1146.000	659.767	80.003	19.996	103.861	20.019	5.183	0.515
1146.500	660.007	80.004	19.994	103.869	20.019	5.198	0.520
1147.000	660.238	80.003	19.997	103.876	20.019	5.184	0.494
1147.500	660.505	80.004	19.994	103.881	20.020	5.087	0.485
1148.000	660.753	80.004	19.994	103.883	20.021	5.011	0.507
1148.500	661.004	80.008	19.995	103.883	20.021	5.053	0.507
1149.001	661.312	80.007	19.997	103.882	20.021	5.052	0.529
1149.501	661.573	80.006	19.994	103.883	20.022	4.979	0.564
1150.000	661.828	80.003	19.995	103.884	20.021	5.038	0.543
1150.500	662.116	80.006	19.996	103.882	20.017	5.334	0.529
1151.000	662.359	80.005	19.997	103.883	20.021	5.061	0.537
1151.500	662.588	80.002	19.995	103.877	20.023	4.873	0.502
1152.000	662.847	80.005	19.994	103.872	20.027	4.592	0.480
1152.500	663.087	80.004	19.996	103.868	20.023	4.882	0.493
1153.000	663.378	80.005	19.993	103.868	20.022	4.937	0.515
1153.500	663.613	80.004	19.994	103.868	20.022	4.981	0.529
1154.000	663.859	80.005	19.996	103.873	20.023	4.870	0.503
1154.500	664.111	80.004	19.995	103.875	20.023	4.859	0.489
1155.000	664.377	80.005	19.995	103.879	20.024	4.840	0.508
1155.500	664.592	80.006	19.994	103.878	20.021	5.050	0.500
1156.000	664.916	80.003	19.997	103.876	20.021	5.020	0.510
1156.500	665.193	80.004	19.994	103.876	20.020	5.119	0.570
1157.000	665.360	80.004	19.995	103.879	20.019	5.202	0.522
1157.500	665.727	80.005	19.996	103.878	20.023	4.902	0.488
1158.000	665.934	80.002	19.996	103.872	20.017	5.274	0.554
1158.500	666.213	80.005	19.995	103.866	20.023	4.887	0.530
1159.000	666.421	80.003	19.995	103.859	20.020	5.071	0.487
1159.500	666.705	80.006	19.998	103.855	20.021	5.032	0.489
1160.000	666.949	80.004	19.997	103.853	20.023	4.922	0.510
1160.500	667.173	80.005	19.997	103.859	20.024	4.808	0.498
1161.000	667.451	80.002	19.998	103.865	20.021	5.000	0.485
1161.500	667.738	80.004	19.996	103.869	20.022	4.951	0.534
1162.000	668.018	80.005	19.993	103.872	20.024	4.835	0.566
1162.500	668.259	80.007	19.995	103.875	20.022	4.991	0.543
1163.000	668.505	80.004	19.994	103.870	20.023	4.880	0.504
1163.500	668.788	80.007	19.993	103.870	20.025	4.748	0.508
1164.000	669.042	80.006	19.995	103.869	20.023	4.880	0.533
1164.500	669.271	80.005	19.995	103.862	20.027	4.620	0.510
1165.000	669.519	80.007	19.996	103.857	20.023	4.865	0.480
1165.500	669.791	80.009	19.996	103.856	20.023	4.895	0.498
1166.000	670.031	80.007	19.995	103.850	20.022	4.973	0.516
1166.500	670.327	80.008	19.995	103.850	20.024	4.852	0.524
1167.000	670.562	80.005	19.996	103.850	20.025	4.740	0.534
1167.501	670.798	80.005	19.996	103.849	20.026	4.660	0.501
1168.001	671.059	80.006	19.995	103.851	20.022	4.941	0.484
1168.500	671.313	80.005	19.997	103.852	20.022	4.949	0.506
1169.000	671.597	80.005	19.995	103.852	20.027	4.617	0.527
1169.501	671.832	80.005	19.996	103.851	20.025	4.756	0.529
1170.001	672.075	80.006	19.997	103.853	20.022	4.930	0.498
1170.500	672.285	80.004	19.996	103.857	20.025	4.789	0.465
1171.000	672.586	80.006	19.994	103.862	20.023	4.928	0.482
1171.500	672.847	80.004	19.994	103.866	20.022	4.972	0.536
1172.000	673.113	80.004	19.995	103.870	20.022	4.939	0.544
1172.500	673.361	80.007	19.997	103.871	20.017	5.279	0.521
1173.000	673.631	80.005	19.997	103.871	20.019	5.172	0.517
1173.500	673.875	80.007	19.996	103.870	20.022	4.937	0.516
1174.000	674.207	80.006	19.996	103.868	20.022	4.954	0.545
1174.500	674.370	80.004	19.994	103.867	20.019	5.167	0.536
1175.000	674.633	80.005	19.995	103.865	20.024	4.812	0.460
1175.501	674.942	80.002	19.997	103.862	20.025	4.729	0.499
1176.001	675.218	80.005	19.998	103.861	20.024	4.818	0.579
1176.500	675.468	80.006	19.995	103.862	20.022	4.954	0.556
1177.000	675.724	80.004	19.996	103.867	20.020	5.100	0.516
1177.500	676.003	80.005	19.996	103.870	20.021	5.053	0.520
1178.000	676.226	80.005	19.995	103.866	20.020	5.085	0.518
1178.500	676.517	80.004	19.996	103.866	20.026	4.713	0.508
1179.001	676.769	80.005	19.997	103.866	20.025	4.751	0.529
1179.501	677.027	80.004	19.996	103.866	20.024	4.833	0.527
1180.000	677.309	80.006	19.994	103.869	20.022	4.979	0.525
1180.500	677.541	80.006	19.996	103.874	20.022	4.996	0.527
1181.000	677.789	80.005	19.994	103.870	20.024	4.842	0.497
1181.500	678.000	80.005	19.996	103.871	20.024	4.795	0.469
1182.000	678.268	80.005	19.995	103.871	20.025	4.758	0.469
1182.500	678.514	80.006	19.995	103.871	20.022	4.980	0.496
1183.000	678.795	80.005	19.995	103.868	20.024	4.793	0.520
1183.501	679.092	80.006	19.996	103.869	20.024	4.825	0.552
1184.001	679.324	80.005	19.994	103.864	20.025	4.774	0.554
1184.501	679.537	80.005	19.995	103.860	20.023	4.869	0.487
1185.001	679.831	80.005	19.994	103.861	20.026	4.681	0.476
1185.500	680.023	80.007	19.995	103.862	20.024	4.840	0.496
1186.001	680.295	80.006	19.996	103.864	20.024	4.819	0.475
1186.501	680.538	80.004	19.994	103.866	20.021	5.016	0.490
1187.001	680.803	80.004	19.996	103.867	20.026	4.705	0.512
1187.501	681.037	80.008	19.996	103.864	20.027	4.597	0.503
1188.000	681.295	80.006	19.995	103.863	20.026	4.697	0.495
1188.500	681.548	80.005	19.994	103.862	20.027	4.612	0.501
1189.000	681.827	80.006	19.994	103.861	20.022	4.959	0.522
1189.500	682.058	80.006	19.996	103.862	20.026	4.705	0.522
1190.001	682.298	80.007	19.995	103.864	20.028	4.523	0.491
1190.501	682.560	80.005	19.994	103.865	20.025	4.764	0.486
1191.000	682.821	80.006	19.996	103.867	20.023	4.887	0.512
1191.500	683.064	80.008	19.995	103.866	20.025	4.732	0.514
1192.001	683.313	80.005	19.995	103.863	20.025	4.741	0.498
1192.501	683.516	80.007	19.996	103.857	20.026	4.709	0.472
1193.001	683.848	80.007	19.996	103.853	20.026	4.686	0.494
1193.500	684.112	80.007	19.995	103.855	20.025	4.722	0.566
1194.000	684.352	80.007	19.995	103.860	20.027	4.605	0.550
1194.500	684.562	80.007	19.994	103.866	20.025	4.754	0.477
1195.000	684.806	80.006	19.995	103.869	20.025	4.785	0.452
1195.500	685.077	80.007	19.996	103.869	20.023	4.918	0.485
1196.000	685.321	80.005	19.995	103.864	20.023	4.865	0.515
1196.500	685.574	80.005	19.995	103.857	20.024	4.836	0.506
1197.000	685.857	80.008	19.996	103.851	20.017	5.328	0.516
1197.500	686.102	80.006	19.996	103.847	20.020	5.125	0.532
1198.000	686.331	80.007	19.996	103.844	20.020	5.111	0.501
1198.500	686.576	80.005	19.995	103.845	20.018	5.248	0.474
1199.001	686.885	80.004	19.994	103.848	20.019	5.176	0.514
1199.501	687.103	80.003	19.995	103.850	20.019	5.175	0.540
1200.000	687.373	80.005	19.995	103.851	20.021	5.013	0.507
1200.500	687.577	80.004	19.996	103.853	20.020	5.087	0.481
1201.000	687.841	80.004	19.996	103.855	20.019	5.146	0.471
1201.501	688.150	80.004	19.996	103.854	20.018	5.239	0.520
1202.001	688.344	80.001	19.996	103.851	20.022	4.977	0.538
1202.501	688.626	80.003	19.997	103.850	20.020	5.115	0.490
1203.000	688.840	80.002	19.995	103.852	20.016	5.348	0.486
1203.500	689.111	80.004	19.996	103.850	20.021	5.016	0.490
1204.000	689.386	80.003	19.996	103.849	20.022	4.944	0.515
1204.500	689.613	80.002	19.995	103.852	20.021	5.052	0.524
1205.000	689.843	80.003	19.995	103.853	20.022	4.976	0.479
1205.500	690.112	80.004	19.995	103.852	20.018	5.206	0.478
1206.000	690.385	80.004	19.995	103.856	20.020	5.085	0.521
1206.500	690.629	80.004	19.994	103.856	20.019	5.136	0.530
1207.000	690.897	80.004	19.997	103.855	20.020	5.081	0.514
1207.501	691.150	80.002	19.996	103.856	20.020	5.100	0.516
1208.001	691.342	80.003	19.996	103.859	20.022	4.958	0.483
1208.501	691.566	80.003	19.996	103.856	20.020	5.097	0.430
1209.001	691.849	80.004	19.995	103.858	20.024	4.818	0.461
1209.500	692.097	80.004	19.994	103.865	20.020	5.083	0.519
1210.000	692.342	80.005	19.994	103.866	20.020	5.102	0.512
1210.500	692.615	80.004	19.995	103.867	20.021	5.053	0.506
1211.000	692.835	80.005	19.994	103.868	20.019	5.163	0.506
1211.500	693.073	80.004	19.995	103.869	20.020	5.083	0.475
1212.000	693.349	80.004	19.995	103.861	20.019	5.180	0.486
1212.500	693.576	80.003	19.994	103.860	20.020	5.098	0.509
1213.000	693.792	80.003	19.995	103.855	20.020	5.108	0.473
1213.500	694.055	80.001	19.995	103.851	20.022	4.943	0.461
1214.000	694.335	80.004	19.995	103.848	20.019	5.151	0.511
1214.500	694.572	80.006	19.994	103.849	20.020	5.134	0.530
1215.000	694.838	80.006	19.995	103.849	20.020	5.068	0.510
1215.500	695.090	80.004	19.995	103.852	20.018	5.227	0.510
1216.000	695.324	80.003	19.995	103.852	20.019	5.191	0.502
1216.500	695.602	80.005	19.995	103.852	20.019	5.182	0.499
1217.000	695.864	80.002	19.994	103.851	20.025	4.781	0.526
1217.500	696.080	80.004	19.996	103.851	20.023	4.887	0.509
1218.000	696.346	80.005	19.994	103.853	20.023	4.921	0.480
1218.500	696.611	80.005	19.995	103.858	20.021	4.999	0.506
1219.000	696.820	80.004	19.993	103.862	20.018	5.236	0.503
1219.500	697.091	80.004	19.994	103.868	20.021	4.997	0.477
1220.000	697.301	80.005	19.995	103.869	20.022	4.982	0.480
1220.500	697.618	80.004	19.995	103.867	20.019	5.136	0.504
1221.000	697.863	80.005	19.996	103.866	20.024	4.804	0.545
1221.500	698.110	80.005	19.995	103.864	20.022	4.946	0.527
1222.000	698.365	80.006	19.996	103.861	20.024	4.823	0.497
1222.500	698.583	80.006	19.996	103.865	20.022	4.973	0.487
1223.000	698.861	80.006	19.995	103.861	20.022	4.975	0.484
1223.500	699.114	80.005	19.996	103.861	20.017	5.295	0.514
1224.000	699.334	80.005	19.994	103.863	20.021	5.003	0.502
1224.500	699.588	80.004	19.994	103.865	20.018	5.229	0.474
1225.001	699.813	80.005	19.995	103.861	20.018	5.208	0.476
1225.501	700.094	80.005	19.995	103.863	20.020	5.079	0.492
1226.001	700.358	80.003	19.992	103.862	20.024	4.844	0.526
1226.500	700.611	80.005	19.995	103.858	20.020	5.091	0.531
1227.000	700.864	80.004	19.996	103.855	20.017	5.276	0.511
1227.500	701.108	80.004	19.997	103.856	20.019	5.198	0.502
1228.000	701.373	80.005	19.995	103.851	20.020	5.067	0.503
1228.501	701.594	80.005	19.995	103.848	20.021	5.037	0.497
1229.001	701.829	80.004	19.995	103.848	20.019	5.136	0.471
1229.500	702.102	80.006	19.995	103.846	20.020	5.086	0.482
1230.000	702.323	80.005	19.994	103.844	20.021	5.035	0.501
1230.501	702.575	80.005	19.994	103.848	20.019	5.140	0.483
1231.001	702.846	80.004	19.996	103.852	20.021	5.060	0.498
1231.500	703.112	80.005	19.996	103.852	20.021	5.005	0.530
1232.000	703.351	80.004	19.997	103.853	20.018	5.258	0.521
1232.500	703.621	80.005	19.994	103.854	20.019	5.182	0.507
1233.000	703.873	80.004	19.996	103.855	20.021	5.014	0.516
1233.500	704.109	80.004	19.996	103.855	20.017	5.310	0.504
1234.000	704.371	80.002	19.995	103.855	20.019	5.179	0.493
1234.500	704.621	80.003	19.995	103.855	20.021	5.020	0.505
1235.000	704.896	80.003	19.995	103.855	20.021	5.039	0.519
1235.500	705.138	80.004	19.996	103.856	20.021	5.061	0.521
1236.001	705.392	80.003	19.997	103.859	20.021	5.025	0.506
1236.501	705.628	80.005	19.995	103.863	20.020	5.130	0.493
1237.000	705.849	80.003	19.996	103.862	20.022	4.942	0.474
1237.500	706.107	80.005	19.996	103.860	20.023	4.866	0.468
1238.001	706.416	80.002	19.995	103.855	20.024	4.855	0.523
1238.501	706.616	80.003	19.994	103.850	20.019	5.172	0.538
1239.000	706.906	80.006	19.996	103.846	20.020	5.128	0.500
1239.500	707.175	80.005	19.996	103.846	20.020	5.068	0.525
1240.000	707.399	80.005	19.996	103.846	20.022	4.931	0.526
1240.500	707.632	80.004	19.996	103.846	20.021	5.001	0.475
1241.000	707.908	80.007	19.995	103.849	20.018	5.223	0.484
1241.500	708.124	80.004	19.993	103.855	20.018	5.255	0.501
1242.000	708.404	80.005	19.993	103.857	20.016	5.384	0.493
1242.500	708.653	80.005	19.994	103.859	20.013	5.565	0.512
1243.000	708.903	80.005	19.995	103.859	20.016	5.371	0.515
1243.500	709.146	80.004	19.995	103.855	20.021	5.043	0.496
1244.000	709.414	80.006	19.994	103.848	20.017	5.293	0.502
1244.500	709.661	80.006	19.996	103.846	20.019	5.155	0.513
1245.000	709.914	80.006	19.993	103.843	20.018	5.249	0.508
1245.500	710.164	80.006	19.993	103.842	20.021	5.029	0.501
1246.000	710.410	80.007	19.994	103.842	20.019	5.168	0.499
1246.500	710.658	80.006	19.993	103.843	20.020	5.128	0.495
1247.000	710.953	80.006	19.994	103.843	20.023	4.912	0.518
1247.500	711.207	80.005	19.995	103.843	20.019	5.202	0.546
1248.000	711.437	80.005	19.995	103.844	20.024	4.845	0.517
1248.500	711.705	80.007	19.995	103.848	20.023	4.882	0.491
1249.000	711.947	80.006	19.995	103.849	20.022	4.944	0.504
1249.500	712.221	80.007	19.995	103.853	20.022	4.935	0.513
1250.000	712.432	80.005	19.995	103.853	20.020	5.109	0.500
1250.501	712.709	80.003	19.993	103.851	20.021	5.049	0.486
1251.001	712.982	80.005	19.994	103.849	20.024	4.834	0.519
1251.501	713.224	80.004	19.994	103.852	20.020	5.086	0.533
1252.001	713.486	80.005	19.993	103.851	20.020	5.126	0.509
1252.500	713.717	80.005	19.993	103.852	20.022	4.931	0.498
1253.000	713.968	80.004	19.995	103.854	20.022	4.946	0.487
1253.500	714.208	80.005	19.994	103.855	20.022	4.959	0.486
1254.001	714.452	80.004	19.993	103.853	20.025	4.766	0.487
1254.501	714.687	80.004	19.995	103.850	20.024	4.813	0.481
1255.000	714.980	80.005	19.996	103.849	20.024	4.815	0.504
1255.501	715.241	80.006	19.995	103.847	20.020	5.115	0.542
1256.001	715.459	80.003	19.997	103.847	20.023	4.925	0.517
1256.500	715.713	80.003	19.991	103.848	20.023	4.919	0.475
1257.000	715.988	80.004	19.993	103.850	20.022	4.982	0.500
1257.500	716.257	80.004	19.994	103.852	20.021	5.005	0.536
1258.001	716.492	80.005	19.995	103.852	20.022	4.970	0.524
1258.501	716.753	80.005	19.994	103.849	20.022	4.993	0.500
1259.000	716.988	80.005	19.995	103.849	20.023	4.893	0.496
1259.500	717.264	80.004	19.995	103.853	20.021	5.054	0.503
1260.000	717.518	80.005	19.997	103.854	20.021	5.030	0.520
1260.500	717.755	80.004	19.997	103.855	20.017	5.318	0.511
1261.001	718.037	80.004	19.996	103.855	20.021	5.024	0.505
1261.501	718.257	80.004	19.995	103.853	20.020	5.126	0.510
1262.000	718.529	80.002	19.995	103.849	20.018	5.249	0.497
1262.500	718.799	80.005	19.996	103.848	20.021	5.010	0.517
1263.000	719.010	80.004	19.995	103.847	20.023	4.908	0.511
1263.500	719.283	80.006	19.996	103.847	20.022	4.984	0.483
1264.000	719.561	80.004	19.996	103.848	20.022	4.991	0.518
1264.500	719.827	80.006	19.996	103.850	20.022	4.970	0.547
1265.000	720.032	80.005	19.995	103.849	20.022	4.965	0.507
1265.500	720.281	80.004	19.994	103.849	20.020	5.096	0.462
1266.000	720.526	80.005	19.996	103.850	20.022	4.978	0.474
1266.500	720.755	80.005	19.997	103.849	20.025	4.728	0.485
1267.000	721.028	80.004	19.995	103.845	20.024	4.833	0.488
1267.500	721.265	80.006	19.997	103.844	20.027	4.649	0.506
1268.000	721.519	80.005	19.994	103.844	20.023	4.924	0.500
1268.501	721.795	80.006	19.995	103.844	20.022	4.996	0.510
1269.001	722.019	80.005	19.996	103.844	20.022	4.992	0.515
1269.500	722.275	80.005	19.996	103.845	20.022	4.932	0.490
1270.001	722.505	80.007	19.995	103.848	20.022	4.934	0.483
1270.501	722.748	80.006	19.994	103.849	20.022	4.994	0.480
1271.000	722.987	80.006	19.996	103.852	20.024	4.835	0.478
1271.500	723.264	80.006	19.995	103.852	20.025	4.768	0.499
1272.000	723.487	80.006	19.996	103.852	20.023	4.866	0.508
1272.500	723.735	80.006	19.995	103.849	20.022	4.978	0.486
1273.000	724.003	80.007	19.995	103.848	20.018	5.248	0.493
1273.500	724.239	80.006	19.994	103.844	20.021	5.001	0.510
1274.000	724.472	80.006	19.993	103.845	20.021	5.003	0.487
1274.500	724.728	80.006	19.994	103.845	20.022	4.957	0.479
1275.000	724.955	80.005	19.995	103.846	20.018	5.265	0.486
1275.500	725.182	80.006	19.994	103.846	20.019	5.156	0.469
1276.000	725.462	80.004	19.994	103.846	20.017	5.329	0.480
1276.500	725.715	80.005	19.994	103.849	20.020	5.073	0.519
1277.000	725.955	80.005	19.994	103.853	20.019	5.152	0.513
1277.501	726.240	80.007	19.996	103.857	20.023	4.892	0.509
1278.001	726.461	80.005	19.995	103.862	20.023	4.893	0.516
1278.500	726.740	80.007	19.993	103.865	20.020	5.083	0.503
1279.000	726.942	80.004	19.995	103.869	20.019	5.181	0.490
1279.500	727.209	80.005	19.996	103.870	20.018	5.259	0.475
1280.000	727.456	80.007	19.997	103.869	20.019	5.185	0.492
1280.500	727.719	80.007	19.997	103.870	20.017	5.322	0.512
1281.000	728.002	80.006	19.995	103.873	20.018	5.238	0.528
1281.500	728.208	80.003	19.996	103.868	20.018	5.244	0.517
1282.000	728.501	80.004	19.994	103.865	20.020	5.103	0.494
1282.500	728.710	80.005	19.996	103.860	20.019	5.157	0.500
1283.000	728.962	80.002	19.996	103.853	20.019	5.166	0.482
1283.500	729.230	80.006	19.995	103.848	20.018	5.229	0.490
1284.000	729.472	80.004	19.995	103.847	20.019	5.183	0.515
1284.500	729.729	80.001	19.995	103.846	20.018	5.228	0.505
1285.000	729.979	80.003	19.997	103.848	20.018	5.247	0.503
1285.500	730.270	80.003	19.996	103.848	20.018	5.270	0.524
1286.000	730.467	80.003	19.996	103.848	20.018	5.238	0.514
1286.500	730.732	80.004	19.995	103.847	20.018	5.245	0.475
1287.000	730.961	80.002	19.999	103.844	20.018	5.270	0.478
1287.500	731.218	80.003	19.997	103.842	20.020	5.097	0.490
1288.000	731.486	80.002	19.997	103.843	20.018	5.221	0.506
1288.500	731.749	80.003	19.997	103.841	20.018	5.245	0.528
1289.000	732.011	80.004	19.997	103.843	20.020	5.084	0.528
1289.500	732.231	80.005	19.996	103.849	20.018	5.238	0.503
1290.000	732.466	80.002	19.997	103.850	20.021	5.059	0.468
1290.500	732.724	80.002	19.998	103.849	20.021	4.997	0.474
1291.000	732.958	80.002	19.996	103.848	20.021	5.029	0.493
1291.500	733.269	80.002	19.997	103.850	20.019	5.139	0.518
1292.001	733.498	80.003	19.997	103.845	20.017	5.287	0.542
1292.501	733.750	80.000	19.997	103.846	20.017	5.287	0.511
1293.000	734.004	80.004	19.997	103.847	20.022	4.954	0.493
1293.500	734.266	80.005	19.996	103.849	20.016	5.362	0.511
1294.001	734.526	80.005	19.997	103.848	20.020	5.132	0.520
1294.501	734.752	80.002	19.996	103.849	20.020	5.122	0.504
1295.000	735.005	80.002	19.997	103.847	20.019	5.156	0.482
1295.500	735.264	80.006	19.996	103.846	20.020	5.105	0.496
1296.000	735.501	80.003	19.996	103.844	20.019	5.196	0.504
1296.500	735.779	80.004	19.995	103.842	20.020	5.104	0.505
1297.000	736.034	80.005	19.995	103.840	20.020	5.104	0.524
1297.500	736.287	80.004	19.996	103.841	20.017	5.299	0.521
1298.000	736.567	80.003	19.996	103.842	20.022	4.956	0.520
1298.500	736.821	80.002	19.994	103.842	20.017	5.296	0.533
1299.000	737.051	80.005	19.994	103.843	20.016	5.371	0.509
1299.500	737.336	80.003	19.995	103.843	20.019	5.159	0.500
1300.001	737.533	80.004	19.994	103.842	20.018	5.234	0.499
1300.501	737.820	80.006	19.996	103.840	20.016	5.363	0.483
1301.000	738.100	80.004	19.996	103.840	20.015	5.432	0.526
1301.500	738.369	80.006	19.997	103.839	20.017	5.289	0.558
1302.000	738.611	80.006	19.994	103.839	20.018	5.246	0.530
1302.500	738.858	80.004	19.995	103.840	20.018	5.248	0.500
1303.000	739.124	80.005	19.996	103.843	20.017	5.320	0.501
1303.500	739.429	80.006	19.995	103.846	20.018	5.271	0.542
1304.001	739.657	80.004	19.994	103.848	20.019	5.163	0.552
1304.501	739.904	80.003	19.993	103.850	20.014	5.493	0.504
1305.001	740.226	80.006	19.995	103.850	20.015	5.461	0.522
1305.501	740.425	80.006	19.995	103.848	20.016	5.351	0.545
1306.001	740.694	80.005	19.997	103.848	20.020	5.125	0.495
1306.501	740.976	80.005	19.995	103.847	20.016	5.363	0.510
1307.001	741.211	80.006	19.995	103.849	20.018	5.238	0.534
1307.501	741.498	80.004	19.994	103.851	20.019	5.141	0.519
1308.001	741.740	80.006	19.995	103.854	20.021	5.026	0.525
1308.500	742.000	80.005	19.995	103.860	20.020	5.107	0.516
1309.000	742.279	80.007	19.997	103.863	20.019	5.143	0.521
1309.500	742.540	80.006	19.995	103.862	20.020	5.113	0.539
1310.000	742.784	80.007	19.995	103.859	20.017	5.278	0.522
1310.500	743.067	80.008	19.995	103.858	20.017	5.299	0.516
1311.000	743.306	80.004	19.995	103.851	20.017	5.288	0.525
