Sample ID:	C:\MCC\MCC Cal\Test\Scott_HT_SCBA_MCC_30K_min_220204_R3.txt
Sample Weight (mg):	4.38
Heating Rate (C/s):	0.5
Combustor Temp (C):	900
N2 Flow Rate (cc/min):	80
O2 Flow Rate (cc/min):	20
Calibration File:	C:\MCC\MCC Cal\Coeff1 JN10440_30_210304.txt.txt
T Correction Coefficients:	0	1.024463	0
Time Shift (s):	14
*
Time (s)	Temperature (C)	N2 flow rate (cc/min)	O2 flow rate (cc/min)	Flow Rate (cc/min)	Oxygen (%)	HRR (W/g)	Heating rate (C/s)
0.000	112.764	80.004	19.995	103.780	20.052	-0.242	-0.007
0.500	112.803	80.002	19.994	103.783	20.049	0.035	-0.025
1.000	112.762	79.998	19.995	103.784	20.046	0.242	-0.003
1.500	112.771	79.987	19.995	103.787	20.049	-0.004	-0.017
2.000	112.790	80.002	19.994	103.785	20.052	-0.193	-0.002
2.500	112.796	80.003	19.995	103.789	20.050	-0.081	0.027
3.000	112.844	80.004	19.996	103.787	20.055	-0.427	0.040
3.500	112.819	80.000	19.996	103.790	20.051	-0.114	0.039
4.000	112.808	80.002	19.995	103.791	20.053	-0.287	-0.007
4.500	112.804	80.022	19.991	103.791	20.052	-0.220	-0.025
5.000	112.778	80.012	19.993	103.790	20.052	-0.208	-0.023
5.500	112.778	80.003	19.996	103.788	20.050	-0.081	-0.028
6.000	112.778	80.003	19.994	103.785	20.053	-0.279	-0.013
6.500	112.746	79.996	19.997	103.785	20.053	-0.305	-0.016
7.000	112.765	80.004	19.993	103.780	20.053	-0.301	-0.022
7.500	112.777	80.000	19.994	103.777	20.049	0.028	0.009
8.000	112.760	79.990	19.995	103.772	20.053	-0.305	0.013
8.500	112.757	79.996	19.996	103.765	20.052	-0.210	-0.012
9.000	112.756	80.008	19.993	103.758	20.049	-0.016	-0.012
9.500	112.756	79.997	19.995	103.763	20.052	-0.199	-0.003
10.000	112.750	80.008	19.996	103.766	20.049	-0.026	-0.004
10.500	112.752	80.017	19.993	103.771	20.050	-0.049	-0.005
11.000	112.783	80.011	19.994	103.782	20.050	-0.067	0.014
11.500	112.794	79.995	19.994	103.793	20.052	-0.230	0.037
12.000	112.738	80.002	19.996	103.798	20.050	-0.086	-0.002
12.500	112.724	79.989	19.996	103.801	20.047	0.147	-0.057
13.000	112.709	79.976	19.999	103.799	20.051	-0.157	-0.049
13.500	112.782	80.004	19.996	103.794	20.049	0.024	0.015
14.000	112.790	80.002	19.993	103.797	20.044	0.354	0.069
14.500	112.761	79.995	19.994	103.802	20.050	-0.073	0.030
15.001	112.761	79.992	19.996	103.805	20.048	0.063	-0.025
15.501	112.759	79.999	19.996	103.806	20.050	-0.031	-0.015
16.001	112.729	79.994	19.995	103.808	20.046	0.257	-0.017
16.501	112.776	80.006	19.996	103.810	20.044	0.397	-0.008
17.000	112.789	80.006	19.995	103.811	20.044	0.350	0.038
17.500	112.746	80.005	19.996	103.814	20.044	0.391	0.015
18.000	112.774	80.000	19.996	103.821	20.043	0.473	-0.022
18.500	112.759	80.001	19.995	103.828	20.044	0.350	-0.001
19.001	112.822	80.001	19.994	103.826	20.040	0.679	0.031
19.501	112.782	79.991	19.996	103.828	20.039	0.729	0.036
20.000	112.800	79.997	19.995	103.829	20.039	0.723	0.001
20.500	112.802	80.012	19.996	103.832	20.037	0.880	-0.001
21.000	112.819	80.004	19.995	103.835	20.039	0.778	0.019
21.500	112.844	79.998	19.996	103.841	20.037	0.909	0.030
22.000	112.853	80.017	19.993	103.839	20.036	0.948	0.038
22.500	112.870	79.994	19.994	103.843	20.034	1.094	0.030
23.000	112.848	80.003	19.995	103.849	20.035	1.021	0.010
23.500	112.868	79.997	19.995	103.854	20.036	0.972	-0.003
24.000	112.861	80.007	19.993	103.862	20.033	1.202	0.006
24.500	112.890	80.009	19.997	103.873	20.033	1.225	0.018
25.000	112.927	80.014	19.995	103.876	20.031	1.313	0.044
25.501	112.910	80.004	19.995	103.883	20.032	1.235	0.043
26.001	112.951	79.994	19.996	103.884	20.028	1.598	0.022
26.500	112.961	79.990	19.998	103.881	20.028	1.567	0.038
27.000	112.993	80.006	19.994	103.878	20.025	1.769	0.047
27.500	112.985	80.001	19.995	103.889	20.027	1.659	0.033
28.000	112.994	79.992	19.995	103.897	20.029	1.490	0.012
28.500	113.019	80.008	19.994	103.911	20.024	1.891	0.017
29.000	113.072	80.014	19.993	103.923	20.024	1.873	0.056
29.500	113.094	80.006	19.995	103.938	20.023	1.924	0.077
30.000	113.088	79.992	19.996	103.943	20.018	2.305	0.046
30.500	113.137	80.007	19.993	103.945	20.023	1.926	0.030
31.000	113.169	80.000	19.996	103.951	20.019	2.205	0.062
31.500	113.194	80.008	19.993	103.955	20.023	1.899	0.069
32.000	113.233	80.009	19.995	103.958	20.020	2.142	0.061
32.500	113.268	80.009	19.998	103.960	20.019	2.209	0.069
33.001	113.297	80.002	19.998	103.960	20.018	2.297	0.069
33.501	113.349	80.007	19.994	103.951	20.016	2.472	0.073
34.000	113.387	80.002	19.995	103.950	20.014	2.578	0.086
34.500	113.427	80.012	19.993	103.948	20.017	2.368	0.084
35.001	113.486	80.008	19.994	103.952	20.016	2.480	0.088
35.501	113.548	80.001	19.996	103.957	20.014	2.627	0.110
36.001	113.557	80.001	19.995	103.970	20.013	2.674	0.096
36.500	113.601	80.011	19.994	103.969	20.016	2.425	0.062
37.000	113.677	80.004	19.994	103.972	20.014	2.588	0.086
37.500	113.754	80.013	19.991	103.969	20.017	2.356	0.136
38.000	113.834	80.012	19.993	103.969	20.013	2.708	0.155
38.500	113.864	80.015	19.993	103.965	20.013	2.678	0.134
39.001	113.934	79.996	19.995	103.969	20.011	2.822	0.105
39.501	113.996	80.014	19.994	103.965	20.014	2.600	0.116
40.000	114.042	79.998	19.996	103.965	20.016	2.474	0.120
40.500	114.124	80.001	19.994	103.963	20.015	2.547	0.118
41.000	114.198	79.989	19.996	103.964	20.015	2.517	0.142
41.500	114.262	80.000	19.995	103.962	20.015	2.554	0.147
42.000	114.395	80.012	19.994	103.960	20.013	2.705	0.168
42.500	114.422	80.013	19.994	103.960	20.011	2.837	0.178
43.000	114.506	80.006	19.993	103.960	20.014	2.576	0.135
43.500	114.589	79.997	19.994	103.962	20.012	2.774	0.139
44.000	114.633	79.988	19.995	103.965	20.018	2.299	0.147
44.500	114.748	80.012	19.996	103.971	20.017	2.377	0.143
45.000	114.821	80.010	19.995	103.969	20.022	2.028	0.173
45.500	114.903	80.006	19.994	103.966	20.017	2.400	0.171
46.000	115.066	80.019	19.991	103.962	20.017	2.340	0.200
46.500	115.059	80.006	19.995	103.966	20.015	2.552	0.201
47.000	115.239	80.006	19.995	103.960	20.014	2.591	0.165
47.500	115.332	79.998	19.996	103.963	20.012	2.746	0.223
48.000	115.336	80.002	19.995	103.963	20.008	3.046	0.185
48.500	115.414	80.003	19.996	103.960	20.012	2.766	0.089
49.000	115.553	79.995	19.995	103.950	20.011	2.801	0.150
49.500	115.647	80.020	19.993	103.951	20.011	2.848	0.225
50.000	115.750	80.002	19.994	103.949	20.012	2.730	0.215
50.501	115.833	80.005	19.993	103.952	20.012	2.717	0.192
51.001	115.922	79.990	19.995	103.954	20.011	2.850	0.179
51.500	116.019	80.006	19.994	103.954	20.011	2.791	0.179
52.000	116.141	80.004	19.994	103.960	20.013	2.662	0.202
52.500	116.247	80.001	19.994	103.964	20.012	2.742	0.223
53.000	116.335	80.002	19.993	103.969	20.014	2.587	0.211
53.501	116.425	80.000	19.995	103.973	20.012	2.782	0.187
54.001	116.583	80.005	19.994	103.974	20.009	2.990	0.213
54.500	116.670	80.022	19.993	103.977	20.008	3.015	0.246
55.000	116.754	80.016	19.992	103.980	20.008	3.049	0.208
55.500	116.829	80.006	19.994	103.983	20.008	3.060	0.165
56.000	116.961	80.010	19.993	103.985	20.009	2.946	0.183
56.500	117.063	79.990	19.997	103.996	20.011	2.825	0.220
57.000	117.176	80.003	19.996	103.991	20.005	3.248	0.225
57.500	117.345	80.012	19.994	103.986	20.009	2.985	0.249
58.001	117.483	80.013	19.993	103.987	20.010	2.919	0.294
58.501	117.620	80.002	19.991	103.991	20.008	3.013	0.290
59.000	117.664	80.000	19.999	103.991	20.009	2.987	0.228
59.500	117.860	80.003	19.995	103.992	20.009	2.987	0.211
60.000	117.964	80.011	19.992	103.994	20.010	2.905	0.270
60.500	118.041	80.017	19.991	103.993	20.010	2.881	0.240
61.000	118.138	80.006	19.993	103.993	20.010	2.911	0.177
61.500	118.286	80.008	19.990	103.991	20.010	2.921	0.209
62.000	118.410	79.999	19.995	103.994	20.010	2.872	0.259
62.500	118.536	80.011	19.994	103.993	20.009	2.950	0.261
63.001	118.606	79.996	19.996	103.993	20.010	2.899	0.223
63.501	118.753	80.004	19.998	103.989	20.005	3.270	0.206
64.001	118.866	79.995	19.997	103.986	20.010	2.879	0.239
64.501	119.022	80.018	19.994	103.981	20.009	3.005	0.264
65.000	119.152	79.992	19.995	103.983	20.007	3.140	0.277
65.500	119.309	80.005	19.995	103.981	20.008	3.079	0.287
66.000	119.418	80.014	19.993	103.980	20.006	3.175	0.276
66.500	119.583	80.002	19.992	103.985	20.008	3.022	0.270
67.000	119.681	80.008	19.994	103.992	20.009	2.981	0.269
67.501	119.797	80.010	19.991	103.992	20.005	3.268	0.238
68.001	119.932	80.014	19.993	103.996	20.005	3.240	0.232
68.501	120.074	79.996	19.996	103.997	20.006	3.218	0.264
69.001	120.215	80.003	19.994	103.993	20.006	3.228	0.280
69.500	120.363	80.005	19.994	103.990	20.006	3.181	0.286
70.000	120.488	80.013	19.993	103.991	20.008	3.053	0.281
70.500	120.636	80.017	19.994	103.993	20.007	3.149	0.273
71.000	120.785	80.006	19.995	103.993	20.006	3.218	0.285
71.500	120.905	80.012	19.993	103.995	20.005	3.245	0.284
72.000	121.065	80.006	19.994	103.997	20.005	3.233	0.275
72.500	121.193	79.990	19.996	103.998	20.005	3.249	0.284
73.000	121.355	80.000	19.993	103.991	20.003	3.393	0.289
73.500	121.482	80.004	19.994	103.991	20.007	3.108	0.290
74.000	121.600	80.005	19.994	103.992	20.007	3.090	0.267
74.500	121.774	80.010	19.994	103.992	20.008	3.016	0.268
75.001	121.914	80.005	19.995	103.994	20.005	3.271	0.303
75.501	122.068	80.022	19.992	104.002	20.003	3.393	0.304
76.000	122.212	80.015	19.992	104.012	20.003	3.415	0.296
76.500	122.367	80.007	19.995	104.016	20.006	3.181	0.298
77.000	122.541	80.009	19.993	104.018	20.003	3.423	0.314
77.500	122.686	80.005	19.995	104.017	20.006	3.164	0.324
78.000	122.834	80.008	19.996	104.011	20.005	3.238	0.306
78.500	123.000	80.010	19.990	104.004	20.004	3.307	0.303
79.000	123.127	80.008	19.994	104.010	20.003	3.381	0.303
79.500	123.285	79.996	19.994	104.016	20.004	3.316	0.289
80.000	123.423	80.013	19.994	104.020	20.003	3.387	0.291
80.500	123.572	80.011	19.991	104.029	20.004	3.365	0.291
81.000	123.758	80.024	19.990	104.037	20.002	3.491	0.311
81.500	123.871	79.997	19.996	104.040	20.001	3.532	0.317
82.000	124.062	79.998	19.993	104.037	20.000	3.608	0.302
82.500	124.202	80.006	19.993	104.039	20.000	3.650	0.318
83.000	124.382	80.006	19.992	104.041	20.001	3.595	0.326
83.500	124.552	79.996	19.996	104.040	19.999	3.703	0.335
84.000	124.726	80.001	19.994	104.030	20.000	3.632	0.347
84.500	124.875	80.004	19.996	104.032	19.997	3.878	0.334
85.000	125.042	80.000	19.995	104.028	19.998	3.766	0.319
85.500	125.209	80.004	19.996	104.023	20.001	3.568	0.325
86.000	125.417	79.998	19.994	104.018	19.999	3.685	0.354
86.500	125.532	80.008	19.993	104.015	20.002	3.522	0.349
87.000	125.709	79.996	19.992	104.011	20.001	3.583	0.308
87.500	125.845	80.004	19.996	104.008	20.000	3.608	0.303
88.000	126.029	80.004	19.996	104.008	20.002	3.526	0.317
88.500	126.240	80.008	19.996	104.007	19.997	3.844	0.357
89.000	126.406	80.003	19.992	104.009	19.998	3.772	0.385
89.501	126.579	80.002	19.995	104.013	20.003	3.414	0.358
90.001	126.739	80.008	19.994	104.019	19.999	3.713	0.336
90.500	126.927	80.003	19.994	104.021	20.000	3.665	0.341
91.001	127.108	79.999	19.997	104.027	20.001	3.593	0.358
91.501	127.298	80.002	19.994	104.029	20.001	3.595	0.370
92.001	127.460	80.003	19.995	104.030	20.004	3.328	0.362
92.501	127.608	80.003	19.994	104.030	20.003	3.450	0.331
93.000	127.822	80.003	19.994	104.033	20.000	3.661	0.336
93.500	127.975	80.005	19.995	104.029	20.001	3.595	0.365
94.000	128.205	80.005	19.995	104.028	20.001	3.577	0.375
94.500	128.350	80.000	19.995	104.021	20.000	3.642	0.379
95.000	128.541	80.014	19.995	104.015	20.003	3.420	0.356
95.500	128.742	80.003	19.995	104.008	19.999	3.689	0.364
96.001	128.916	80.005	19.994	104.010	20.000	3.654	0.383
96.501	129.080	80.008	19.993	104.013	19.999	3.697	0.356
97.000	129.282	80.005	19.996	104.022	19.997	3.832	0.353
97.500	129.465	80.003	19.997	104.025	19.998	3.799	0.376
98.001	129.660	79.998	19.996	104.029	19.999	3.703	0.381
98.501	129.832	80.005	19.994	104.029	19.997	3.858	0.372
99.000	130.063	79.994	19.998	104.029	19.996	3.912	0.385
99.500	130.234	80.008	19.995	104.021	19.997	3.871	0.403
100.000	130.439	80.004	19.988	104.020	19.998	3.781	0.390
100.500	130.590	80.003	19.993	104.024	19.998	3.810	0.366
101.000	130.831	80.004	19.995	104.025	19.997	3.894	0.373
101.500	131.033	80.002	19.994	104.026	20.000	3.612	0.418
102.000	131.202	80.003	19.996	104.032	19.998	3.796	0.408
102.500	131.395	80.003	19.996	104.032	19.997	3.824	0.366
103.000	131.595	79.999	19.995	104.029	19.998	3.794	0.377
103.500	131.796	80.004	19.994	104.028	19.996	3.963	0.397
104.000	131.974	80.001	19.997	104.027	19.997	3.873	0.390
104.500	132.171	80.005	19.996	104.026	19.995	4.007	0.377
105.000	132.378	80.005	19.992	104.026	19.996	3.940	0.390
105.500	132.583	80.005	19.995	104.027	19.998	3.820	0.408
106.000	132.789	80.002	19.995	104.027	20.000	3.602	0.411
106.501	133.003	80.001	19.995	104.025	19.997	3.879	0.416
107.001	133.208	80.000	19.992	104.026	19.999	3.742	0.420
107.501	133.417	80.005	19.994	104.028	19.998	3.758	0.417
108.000	133.590	80.003	19.994	104.028	19.999	3.713	0.398
108.500	133.788	80.001	19.994	104.028	19.999	3.695	0.376
109.000	133.981	80.005	19.991	104.030	19.997	3.890	0.381
109.500	134.212	79.999	19.993	104.031	19.999	3.733	0.408
110.000	134.415	80.000	19.992	104.034	20.000	3.650	0.429
110.501	134.589	79.997	19.997	104.040	19.996	3.941	0.405
111.001	134.811	80.001	19.995	104.044	19.996	3.968	0.386
111.501	134.984	80.006	19.995	104.045	19.995	3.976	0.395
112.001	135.190	80.008	19.995	104.051	19.999	3.711	0.387
112.500	135.448	80.001	19.997	104.053	20.000	3.630	0.422
113.000	135.583	79.993	20.003	104.049	19.999	3.705	0.429
113.500	135.804	80.003	19.992	104.045	19.998	3.793	0.375
114.001	136.028	80.004	19.993	104.046	19.997	3.866	0.401
114.502	136.220	80.002	19.993	104.040	20.000	3.666	0.431
115.002	136.451	80.003	19.996	104.036	19.997	3.852	0.420
115.501	136.648	79.998	19.996	104.034	19.999	3.742	0.425
116.000	136.903	79.999	19.993	104.035	19.996	3.917	0.440
116.500	137.109	80.005	19.993	104.035	20.000	3.654	0.456
117.000	137.282	79.999	19.999	104.035	19.999	3.707	0.420
117.500	137.493	80.002	19.992	104.034	20.000	3.617	0.382
118.000	137.707	80.001	19.995	104.034	20.000	3.617	0.404
118.500	137.901	80.007	19.997	104.029	19.999	3.729	0.417
119.001	138.132	80.001	19.997	104.022	19.996	3.919	0.417
119.501	138.360	80.004	19.994	104.014	19.997	3.868	0.442
120.001	138.607	80.011	19.994	104.012	19.999	3.688	0.467
120.500	138.802	80.003	19.996	104.009	19.998	3.786	0.458
121.001	139.013	79.999	19.998	104.010	19.998	3.758	0.424
121.501	139.199	79.996	19.999	104.011	19.999	3.688	0.402
122.000	139.443	80.001	19.999	104.013	19.999	3.707	0.413
122.500	139.635	80.003	19.998	104.016	19.995	4.023	0.433
123.000	139.850	79.995	19.999	104.017	20.000	3.666	0.422
123.500	140.092	80.001	19.997	104.016	19.998	3.821	0.432
124.000	140.288	80.008	19.998	104.019	19.999	3.725	0.447
124.500	140.488	80.005	19.995	104.023	19.998	3.762	0.417
125.000	140.728	80.002	19.995	104.022	19.998	3.790	0.418
125.500	140.942	80.000	19.997	104.023	19.999	3.704	0.447
126.000	141.176	80.007	19.995	104.025	19.999	3.680	0.451
126.500	141.397	80.006	19.995	104.025	20.000	3.658	0.452
127.000	141.598	80.006	19.995	104.024	20.000	3.644	0.439
127.501	141.822	80.004	19.988	104.019	20.000	3.611	0.424
128.000	142.007	80.006	19.994	104.016	20.001	3.585	0.418
128.500	142.259	80.005	19.993	104.011	20.000	3.617	0.423
129.000	142.457	80.001	19.993	104.007	20.000	3.642	0.443
129.500	142.712	80.002	19.997	104.002	19.999	3.707	0.452
130.000	142.943	80.001	19.994	104.003	19.999	3.726	0.469
130.501	143.158	80.007	19.993	104.004	20.001	3.589	0.466
131.001	143.376	80.009	19.992	104.006	20.004	3.363	0.440
131.500	143.657	80.008	19.995	104.011	19.997	3.858	0.466
132.000	143.834	80.005	19.993	104.012	19.998	3.795	0.478
132.500	144.063	80.000	19.996	104.011	19.996	3.952	0.432
133.000	144.270	80.003	19.993	104.006	19.994	4.058	0.421
133.500	144.505	79.992	19.996	104.008	19.995	3.986	0.439
134.000	144.729	80.007	19.996	104.007	19.998	3.766	0.450
134.500	144.947	80.007	19.991	104.005	19.999	3.685	0.450
135.000	145.214	80.001	19.994	104.006	19.998	3.822	0.464
135.500	145.383	80.000	19.996	104.007	20.001	3.597	0.461
136.000	145.636	80.002	19.993	104.002	19.998	3.789	0.429
136.500	145.835	80.007	19.993	104.001	19.996	3.942	0.437
137.000	146.071	80.010	19.990	104.002	19.999	3.726	0.443
137.500	146.305	80.005	19.996	104.007	20.001	3.593	0.453
138.000	146.544	80.002	19.993	104.013	20.000	3.614	0.472
138.500	146.769	80.002	19.994	104.016	19.996	3.913	0.469
139.000	146.980	80.001	19.997	104.013	20.000	3.660	0.450
139.500	147.212	80.006	19.994	104.018	19.999	3.724	0.439
140.000	147.424	80.006	19.995	104.019	19.999	3.720	0.443
140.500	147.647	80.001	19.994	104.021	20.002	3.477	0.440
141.000	147.865	80.002	19.992	104.026	20.002	3.475	0.438
141.500	148.081	80.003	19.994	104.034	20.003	3.434	0.438
142.000	148.349	80.004	19.990	104.031	20.001	3.599	0.459
142.500	148.554	80.003	19.999	104.023	20.001	3.595	0.478
143.000	148.786	80.000	19.995	104.017	20.000	3.656	0.455
143.500	149.033	79.998	19.993	104.012	20.002	3.497	0.458
144.000	149.246	80.007	19.994	104.010	19.999	3.685	0.469
144.500	149.491	80.001	19.995	104.015	20.006	3.177	0.459
145.000	149.731	80.007	19.992	104.020	19.999	3.736	0.471
145.500	149.969	80.005	19.994	104.025	20.001	3.599	0.481
146.000	150.173	80.004	19.994	104.031	19.999	3.701	0.460
146.500	150.384	80.004	19.994	104.029	20.002	3.515	0.429
147.000	150.588	80.005	19.993	104.028	20.003	3.413	0.415
147.500	150.831	80.008	19.995	104.029	20.000	3.627	0.432
148.000	151.035	80.001	19.995	104.025	19.996	3.897	0.447
148.500	151.295	80.003	19.993	104.023	20.004	3.344	0.455
149.000	151.522	79.994	19.994	104.025	20.004	3.350	0.475
149.500	151.751	80.006	19.993	104.023	20.003	3.407	0.472
150.000	152.004	80.001	19.993	104.025	20.000	3.664	0.469
150.500	152.200	79.991	19.993	104.026	20.003	3.405	0.465
151.000	152.453	80.004	19.994	104.024	20.005	3.287	0.449
151.500	152.694	80.008	19.993	104.025	20.003	3.389	0.472
152.000	152.924	80.008	19.991	104.028	20.002	3.475	0.482
152.500	153.112	80.005	19.994	104.027	20.001	3.554	0.444
153.000	153.376	80.007	19.993	104.029	20.001	3.593	0.435
153.500	153.615	80.003	19.986	104.027	19.999	3.732	0.477
154.000	153.830	80.003	19.997	104.026	19.998	3.750	0.478
154.500	154.082	80.004	19.995	104.020	20.000	3.642	0.461
155.000	154.321	80.014	19.993	104.016	20.000	3.625	0.479
155.500	154.538	80.006	19.986	104.017	20.000	3.658	0.474
156.000	154.722	80.011	19.995	104.021	20.000	3.613	0.429
156.501	154.993	80.002	19.992	104.020	19.998	3.750	0.428
157.000	155.199	80.001	19.996	104.021	20.000	3.601	0.466
157.500	155.443	80.004	19.993	104.020	20.001	3.542	0.463
158.000	155.664	80.003	19.994	104.014	20.002	3.509	0.457
158.500	155.910	80.004	19.994	104.012	20.001	3.578	0.466
159.000	156.127	79.999	19.993	104.012	20.002	3.472	0.465
159.500	156.326	80.007	19.995	104.015	20.003	3.429	0.439
160.000	156.567	79.999	19.993	104.018	20.002	3.456	0.428
160.500	156.829	80.001	19.997	104.021	20.004	3.364	0.472
161.000	157.071	80.005	19.994	104.020	20.002	3.517	0.504
161.500	157.297	80.005	19.995	104.019	20.000	3.668	0.486
162.000	157.518	79.999	19.993	104.020	20.000	3.668	0.457
162.500	157.774	79.999	20.005	104.021	20.001	3.535	0.462
163.000	158.003	79.997	19.998	104.018	20.004	3.356	0.481
163.500	158.259	80.002	19.994	104.022	20.004	3.318	0.485
164.000	158.513	80.003	19.994	104.020	20.002	3.471	0.497
164.500	158.719	79.997	19.997	104.017	20.004	3.367	0.485
165.000	158.972	80.000	20.001	104.015	20.004	3.351	0.460
165.501	159.191	80.004	19.993	104.016	20.003	3.440	0.466
166.001	159.400	80.003	19.994	104.017	20.002	3.524	0.450
166.500	159.648	80.003	19.994	104.020	20.002	3.503	0.442
167.000	159.867	80.003	19.994	104.022	20.003	3.387	0.463
167.500	160.072	80.001	19.996	104.020	20.001	3.558	0.446
168.000	160.306	80.004	19.993	104.017	20.001	3.552	0.431
168.500	160.573	80.008	19.995	104.011	19.997	3.829	0.470
169.000	160.804	80.003	19.996	104.008	20.000	3.607	0.500
169.500	161.043	80.006	19.995	104.009	19.998	3.796	0.484
170.000	161.284	80.005	19.995	104.009	20.000	3.658	0.475
170.500	161.510	79.999	19.995	104.009	19.997	3.829	0.473
171.000	161.771	80.005	19.994	104.007	19.999	3.676	0.477
171.500	162.027	80.004	19.993	104.004	19.998	3.774	0.502
172.000	162.238	80.002	19.995	104.000	20.001	3.563	0.492
172.500	162.492	80.004	19.997	103.996	20.000	3.661	0.466
173.000	162.725	80.007	19.992	103.997	20.000	3.632	0.476
173.500	162.960	80.005	19.995	104.006	20.001	3.554	0.478
174.000	163.195	80.003	19.996	104.013	20.004	3.369	0.469
174.500	163.430	80.000	19.996	104.020	20.000	3.654	0.470
175.000	163.666	80.004	19.994	104.028	20.001	3.597	0.471
175.500	163.885	79.998	19.995	104.033	20.003	3.393	0.463
176.000	164.150	80.006	19.995	104.032	20.002	3.484	0.469
176.500	164.357	80.006	19.994	104.029	20.002	3.525	0.478
177.000	164.646	80.006	19.996	104.023	20.000	3.631	0.484
177.500	164.899	80.000	19.997	104.019	20.000	3.637	0.519
178.000	165.118	80.000	19.999	104.012	20.004	3.370	0.507
178.500	165.349	79.999	19.998	104.008	19.999	3.682	0.461
179.000	165.624	80.003	19.996	104.005	19.999	3.692	0.478
179.500	165.835	80.006	19.996	104.008	20.000	3.655	0.497
180.000	166.102	80.001	19.997	104.003	20.002	3.496	0.482
180.500	166.345	80.005	19.996	104.003	19.997	3.829	0.493
181.000	166.598	80.002	19.998	104.006	19.999	3.735	0.503
181.500	166.860	80.004	19.993	104.010	19.999	3.737	0.506
182.000	167.098	80.002	19.993	104.014	20.000	3.606	0.507
182.500	167.281	80.003	19.997	104.020	19.998	3.808	0.461
183.000	167.530	79.999	19.995	104.026	20.002	3.476	0.427
183.500	167.789	80.006	19.995	104.027	20.001	3.572	0.470
184.000	167.996	80.002	19.998	104.028	20.001	3.531	0.487
184.500	168.264	80.004	19.991	104.025	20.003	3.423	0.470
185.000	168.500	80.003	19.996	104.027	20.002	3.505	0.489
185.500	168.732	80.001	19.993	104.021	20.003	3.429	0.486
186.000	168.981	80.007	19.995	104.014	20.002	3.490	0.475
186.500	169.194	80.002	19.996	104.008	20.001	3.562	0.472
187.000	169.472	80.005	19.996	104.002	19.999	3.702	0.476
187.500	169.742	80.004	19.996	103.996	20.001	3.537	0.519
188.000	169.965	80.000	19.998	103.994	19.998	3.792	0.521
188.500	170.203	80.004	19.995	103.994	20.000	3.631	0.477
189.000	170.481	80.001	19.994	103.996	20.001	3.562	0.489
189.500	170.675	80.002	19.995	103.996	20.001	3.596	0.494
190.000	170.906	80.003	19.994	103.997	19.998	3.810	0.448
190.500	171.147	80.003	19.995	104.000	20.001	3.598	0.448
191.000	171.422	80.005	19.995	104.001	19.999	3.715	0.494
191.500	171.656	80.004	19.992	104.000	20.002	3.494	0.512
192.000	171.895	80.006	19.996	104.000	20.001	3.556	0.491
192.500	172.108	79.994	20.001	103.998	19.998	3.760	0.463
193.000	172.385	80.005	19.994	103.996	19.999	3.711	0.471
193.500	172.628	80.006	19.997	103.997	19.998	3.768	0.505
194.000	172.863	80.003	19.995	103.997	19.998	3.785	0.499
194.500	173.129	80.006	19.988	104.001	20.001	3.556	0.489
195.000	173.338	80.002	19.996	104.004	20.000	3.646	0.488
195.500	173.579	80.003	19.994	104.007	19.999	3.728	0.463
196.000	173.827	80.006	19.995	104.006	20.000	3.616	0.469
196.500	174.092	80.008	19.996	104.006	19.999	3.697	0.501
197.000	174.345	80.007	19.990	104.002	19.998	3.784	0.516
197.500	174.595	80.003	19.993	104.003	20.001	3.574	0.510
198.000	174.857	80.010	19.991	104.001	20.003	3.449	0.507
198.500	175.076	79.996	20.000	104.003	19.999	3.747	0.497
199.000	175.329	79.998	19.999	104.000	20.001	3.531	0.477
199.500	175.582	80.002	19.992	103.998	19.998	3.792	0.489
200.000	175.823	80.005	19.994	103.997	19.999	3.733	0.500
200.500	176.059	80.010	19.992	103.997	20.002	3.478	0.485
201.000	176.287	79.999	20.002	103.996	20.002	3.498	0.470
201.500	176.503	80.006	19.992	103.996	20.003	3.402	0.454
202.000	176.792	80.000	19.996	103.997	20.001	3.553	0.475
202.500	177.003	80.004	19.994	103.998	20.005	3.282	0.503
203.000	177.258	80.004	19.993	104.004	20.002	3.494	0.482
203.500	177.511	80.008	19.992	104.004	20.004	3.323	0.487
204.000	177.722	80.005	19.998	104.009	20.003	3.388	0.486
204.500	177.966	80.002	19.999	104.014	20.004	3.376	0.459
205.000	178.209	80.003	19.996	104.020	20.005	3.262	0.471
205.501	178.501	80.002	20.000	104.024	20.005	3.242	0.511
206.001	178.764	80.005	19.996	104.030	20.006	3.207	0.545
206.500	179.022	80.007	19.987	104.034	20.007	3.126	0.538
207.000	179.232	79.999	20.000	104.031	20.005	3.284	0.494
207.500	179.456	80.004	19.996	104.023	20.005	3.231	0.451
208.000	179.737	80.004	19.991	104.012	20.004	3.366	0.470
208.500	179.979	80.004	20.000	104.004	20.004	3.305	0.514
209.000	180.245	80.002	19.995	103.994	20.005	3.293	0.515
209.500	180.470	80.004	19.994	103.990	20.003	3.437	0.499
210.001	180.714	80.004	19.995	103.991	20.005	3.244	0.480
210.501	180.932	79.999	19.999	103.990	20.002	3.466	0.466
211.001	181.172	80.003	19.991	103.988	20.001	3.548	0.460
211.500	181.469	80.004	19.995	103.993	20.002	3.507	0.497
212.000	181.701	80.003	19.996	103.993	20.006	3.183	0.533
212.500	181.939	80.004	19.996	103.993	20.004	3.360	0.499
213.000	182.175	80.003	19.997	103.995	20.004	3.315	0.472
213.500	182.412	80.003	19.995	103.995	20.006	3.174	0.473
214.000	182.698	80.002	19.998	103.992	20.002	3.456	0.498
214.500	182.939	80.002	19.995	103.992	20.001	3.596	0.525
215.000	183.188	80.004	19.994	103.996	20.005	3.256	0.508
215.500	183.409	80.002	19.997	104.003	20.004	3.358	0.480
216.000	183.678	80.003	19.998	104.007	20.004	3.317	0.480
216.500	183.927	79.999	20.001	104.010	20.004	3.321	0.504
217.000	184.187	80.000	19.997	104.009	20.003	3.427	0.513
217.500	184.424	80.004	19.996	104.004	20.002	3.506	0.503
218.000	184.688	80.001	19.998	103.997	20.005	3.262	0.499
218.500	184.941	80.003	19.996	103.994	20.004	3.351	0.509
219.000	185.191	80.004	19.995	103.994	20.000	3.631	0.510
219.500	185.437	80.003	19.993	103.997	20.000	3.629	0.499
220.000	185.695	80.007	19.991	103.997	20.001	3.543	0.500
220.500	185.994	80.006	19.993	104.000	20.005	3.276	0.530
221.000	186.209	80.005	19.994	104.002	20.004	3.368	0.536
221.500	186.476	80.009	19.990	104.001	20.003	3.378	0.498
222.000	186.697	80.005	19.991	104.003	20.004	3.323	0.485
222.500	186.952	80.002	19.991	104.004	20.005	3.278	0.482
223.000	187.165	80.001	20.000	104.003	20.006	3.199	0.472
223.500	187.455	80.004	19.995	104.001	20.004	3.323	0.486
224.000	187.666	80.003	19.989	104.001	20.005	3.239	0.502
224.500	187.908	80.009	19.986	104.002	20.005	3.282	0.477
225.000	188.167	80.008	19.988	104.003	20.004	3.317	0.477
225.500	188.399	80.002	19.995	104.003	20.005	3.264	0.496
226.000	188.642	80.005	19.997	104.003	20.006	3.227	0.483
226.500	188.921	80.006	19.993	104.002	20.006	3.201	0.499
227.000	189.125	80.009	19.995	103.998	20.007	3.095	0.502
227.500	189.414	80.012	19.993	103.995	20.005	3.245	0.488
228.000	189.625	80.007	19.995	103.993	20.004	3.313	0.497
228.500	189.876	80.007	19.991	103.992	20.004	3.353	0.481
229.000	190.130	80.002	19.995	103.992	20.003	3.388	0.483
229.500	190.394	80.004	19.995	103.992	20.003	3.421	0.511
230.000	190.617	80.006	19.995	103.990	20.004	3.315	0.503
230.500	190.866	80.006	19.993	103.991	20.007	3.090	0.480
231.000	191.117	80.004	19.992	103.987	20.003	3.382	0.486
231.500	191.323	80.006	19.993	103.987	20.005	3.241	0.478
232.000	191.581	80.006	19.996	103.988	20.004	3.362	0.460
232.500	191.836	80.005	19.993	103.990	20.007	3.125	0.489
233.000	192.053	80.005	19.999	103.993	20.003	3.396	0.493
233.500	192.307	80.003	19.995	103.997	20.006	3.196	0.472
234.000	192.560	80.004	19.994	103.996	20.006	3.202	0.489
234.500	192.778	80.009	19.998	103.995	20.008	3.011	0.489
235.000	193.052	80.014	19.986	103.994	20.008	3.027	0.481
235.500	193.284	80.009	19.993	103.993	20.008	3.017	0.499
236.000	193.597	80.003	19.995	103.995	20.009	2.999	0.526
236.500	193.815	80.008	19.998	103.995	20.011	2.785	0.538
237.000	194.045	80.010	19.993	103.994	20.011	2.811	0.489
237.501	194.292	80.004	19.994	103.996	20.007	3.115	0.462
238.000	194.537	80.004	19.995	103.993	20.008	3.068	0.484
238.500	194.784	80.006	19.995	103.990	20.008	3.037	0.492
239.000	195.032	80.006	19.993	103.990	20.008	3.029	0.494
239.500	195.255	80.005	19.996	103.992	20.004	3.306	0.483
240.000	195.519	80.004	19.995	103.991	20.003	3.447	0.479
240.500	195.769	80.007	19.993	103.992	20.004	3.343	0.500
241.000	195.983	80.003	19.995	103.993	20.007	3.084	0.489
241.500	196.237	80.003	19.994	103.991	20.005	3.276	0.466
242.000	196.443	80.004	19.996	103.990	20.005	3.243	0.464
242.500	196.731	80.003	19.996	103.988	20.003	3.388	0.478
243.000	196.962	80.003	19.997	103.989	20.005	3.292	0.507
243.500	197.212	80.004	19.994	103.988	20.005	3.256	0.499
244.000	197.444	80.003	19.997	103.991	20.004	3.307	0.481
244.500	197.722	80.001	19.996	103.990	20.004	3.313	0.496
245.000	197.943	80.003	19.995	103.986	20.005	3.247	0.504
245.500	198.175	80.004	19.995	103.984	20.001	3.568	0.476
246.000	198.457	80.003	19.995	103.983	20.004	3.376	0.483
246.500	198.715	80.004	19.996	103.982	20.006	3.209	0.527
247.000	198.953	80.003	19.994	103.983	20.006	3.176	0.518
247.500	199.199	80.004	19.995	103.989	20.006	3.205	0.490
248.000	199.450	80.003	19.994	103.986	20.004	3.323	0.490
248.500	199.667	80.003	19.994	103.983	20.001	3.551	0.483
249.000	199.954	80.004	19.995	103.980	20.006	3.160	0.487
249.500	200.158	80.004	19.995	103.975	20.004	3.370	0.498
250.000	200.417	80.004	19.994	103.975	20.008	3.044	0.477
250.500	200.701	80.003	19.994	103.977	20.007	3.090	0.503
251.000	200.915	80.001	19.996	103.980	20.008	3.078	0.521
251.500	201.194	80.005	19.994	103.984	20.009	2.976	0.495
252.000	201.416	80.003	19.995	103.989	20.011	2.854	0.497
252.500	201.625	80.002	19.995	103.988	20.007	3.143	0.466
253.000	201.847	80.002	19.995	103.989	20.007	3.117	0.432
253.500	202.100	79.999	19.997	103.991	20.010	2.913	0.453
254.000	202.349	80.004	19.997	103.990	20.007	3.096	0.488
254.500	202.579	80.006	19.991	103.989	20.008	3.027	0.490
255.000	202.808	80.009	19.996	103.991	20.010	2.919	0.469
255.500	203.036	79.996	20.001	103.992	20.007	3.135	0.458
256.000	203.325	80.005	19.996	103.991	20.010	2.931	0.487
256.500	203.531	80.006	19.991	103.993	20.008	3.033	0.507
257.000	203.825	80.008	19.989	103.994	20.011	2.823	0.497
257.500	204.061	80.002	19.991	103.995	20.008	3.011	0.514
258.000	204.293	80.005	19.994	103.996	20.011	2.831	0.499
258.500	204.536	80.004	19.995	103.996	20.008	3.069	0.472
259.000	204.817	80.005	19.994	103.995	20.009	2.949	0.500
259.500	204.987	80.008	19.989	103.992	20.008	3.031	0.488
260.000	205.269	80.006	19.994	103.989	20.010	2.921	0.452
260.501	205.538	80.003	19.995	103.989	20.009	2.978	0.501
261.000	205.778	80.003	19.993	103.989	20.007	3.126	0.530
261.500	206.017	80.002	19.994	103.991	20.007	3.128	0.494
262.000	206.269	80.002	20.000	103.993	20.009	2.955	0.485
262.500	206.511	80.001	19.992	103.991	20.008	3.063	0.492
263.001	206.772	80.004	19.992	103.989	20.007	3.136	0.498
263.500	207.038	80.005	19.996	103.988	20.008	3.061	0.515
264.000	207.292	80.002	19.994	103.985	20.009	2.994	0.524
264.500	207.558	80.006	19.994	103.984	20.007	3.116	0.520
265.000	207.781	80.007	19.992	103.987	20.007	3.098	0.504
265.500	208.042	80.003	19.995	103.987	20.009	2.990	0.486
266.000	208.305	80.005	19.996	103.987	20.009	2.992	0.504
266.500	208.556	80.008	19.990	103.986	20.008	3.010	0.519
267.000	208.774	80.003	19.994	103.987	20.008	3.047	0.492
267.500	209.019	80.002	19.997	103.984	20.010	2.874	0.466
268.000	209.269	80.000	19.993	103.980	20.008	3.061	0.479
268.500	209.507	80.006	19.991	103.975	20.011	2.839	0.491
269.000	209.753	80.005	19.994	103.972	20.011	2.837	0.486
269.500	210.063	80.000	19.996	103.967	20.011	2.788	0.520
270.000	210.287	80.005	19.994	103.961	20.010	2.902	0.545
270.500	210.548	80.000	19.994	103.963	20.010	2.915	0.510
271.000	210.771	80.003	19.998	103.965	20.012	2.776	0.485
271.500	211.038	79.999	19.995	103.964	20.009	3.004	0.487
272.000	211.288	80.004	19.994	103.964	20.010	2.874	0.503
272.500	211.518	80.001	19.995	103.966	20.008	3.033	0.499
273.001	211.762	80.004	19.994	103.962	20.004	3.306	0.477
273.500	212.021	80.004	19.995	103.961	20.008	3.059	0.488
274.000	212.260	80.003	19.995	103.962	20.007	3.100	0.500
274.500	212.507	80.000	19.998	103.960	20.005	3.286	0.492
275.000	212.769	80.001	19.996	103.960	20.012	2.770	0.498
275.500	213.001	80.002	19.997	103.962	20.009	2.955	0.501
276.000	213.239	80.003	19.996	103.967	20.007	3.114	0.482
276.500	213.520	80.001	19.995	103.968	20.009	2.945	0.495
277.000	213.752	80.002	19.995	103.969	20.007	3.114	0.516
277.500	214.010	80.004	19.995	103.968	20.010	2.863	0.501
278.000	214.257	80.002	19.994	103.966	20.013	2.637	0.497
278.500	214.510	80.003	19.994	103.962	20.012	2.749	0.503
279.000	214.755	80.004	19.995	103.962	20.010	2.908	0.499
279.500	214.989	80.003	19.995	103.962	20.014	2.562	0.488
280.000	215.254	80.001	19.997	103.966	20.010	2.918	0.489
280.500	215.519	80.004	19.995	103.969	20.011	2.839	0.515
281.000	215.774	80.004	19.991	103.968	20.010	2.878	0.525
281.500	216.004	80.010	19.995	103.969	20.009	2.990	0.502
282.000	216.258	80.003	19.997	103.971	20.005	3.283	0.485
282.500	216.510	80.004	19.996	103.967	20.008	3.055	0.495
283.000	216.767	80.005	19.993	103.964	20.009	2.953	0.507
283.500	217.051	80.001	19.996	103.963	20.010	2.927	0.525
284.000	217.252	80.003	19.989	103.964	20.008	3.006	0.513
284.500	217.525	80.004	19.993	103.968	20.007	3.092	0.480
285.000	217.773	80.007	19.994	103.972	20.007	3.110	0.497
285.500	218.013	80.004	19.998	103.974	20.008	3.027	0.504
286.000	218.214	80.003	19.997	103.972	20.010	2.896	0.465
286.500	218.485	80.004	19.995	103.969	20.007	3.153	0.456
287.000	218.733	80.002	19.987	103.963	20.010	2.906	0.496
287.500	218.936	79.999	20.001	103.960	20.009	2.947	0.486
288.000	219.211	80.003	19.994	103.958	20.009	2.965	0.465
288.500	219.480	80.004	19.990	103.958	20.010	2.896	0.511
289.000	219.720	80.005	19.995	103.960	20.009	2.937	0.526
289.500	219.979	80.005	19.993	103.959	20.009	2.998	0.504
290.000	220.225	80.004	19.995	103.959	20.008	3.010	0.502
290.500	220.472	80.006	19.992	103.959	20.011	2.845	0.499
291.000	220.706	80.006	19.991	103.960	20.006	3.181	0.487
291.500	220.962	80.003	19.994	103.959	20.007	3.091	0.485
292.000	221.179	80.004	19.992	103.959	20.006	3.226	0.481
292.500	221.442	80.006	19.996	103.958	20.008	3.014	0.476
293.000	221.705	80.004	19.995	103.959	20.006	3.226	0.503
293.500	221.945	80.006	19.995	103.962	20.008	3.073	0.515
294.000	222.201	80.006	19.995	103.966	20.006	3.224	0.500
294.500	222.437	80.006	19.995	103.971	20.010	2.892	0.494
295.000	222.676	80.006	19.996	103.971	20.006	3.195	0.483
295.500	222.910	80.004	19.995	103.973	20.007	3.085	0.474
296.000	223.176	80.003	19.994	103.976	20.010	2.877	0.487
296.500	223.421	80.002	19.996	103.970	20.010	2.898	0.506
297.000	223.692	80.004	19.994	103.965	20.009	2.996	0.514
297.500	223.930	80.003	19.994	103.964	20.011	2.826	0.512
298.000	224.161	80.003	19.995	103.964	20.009	2.938	0.489
298.500	224.393	80.002	19.995	103.957	20.008	3.012	0.466
299.000	224.633	80.000	19.996	103.957	20.008	3.042	0.467
299.500	224.866	80.004	19.994	103.957	20.008	3.042	0.472
300.000	225.126	80.003	19.995	103.956	20.007	3.085	0.483
300.500	225.365	80.003	19.994	103.954	20.008	3.040	0.496
301.000	225.624	80.005	19.996	103.954	20.006	3.187	0.499
301.500	225.889	80.003	19.993	103.954	20.008	3.040	0.511
302.000	226.144	80.001	19.999	103.952	20.006	3.173	0.522
302.500	226.409	80.002	20.001	103.951	20.006	3.177	0.520
303.000	226.599	80.002	19.999	103.951	20.006	3.169	0.487
303.500	226.894	79.997	20.001	103.951	20.004	3.364	0.470
304.000	227.138	80.004	19.996	103.948	20.005	3.248	0.512
304.500	227.385	80.004	19.997	103.951	20.007	3.097	0.515
305.000	227.598	80.005	19.995	103.951	20.007	3.091	0.475
305.500	227.865	80.000	19.997	103.952	20.006	3.214	0.470
306.000	228.101	80.005	19.991	103.952	20.005	3.283	0.492
306.500	228.359	80.001	19.996	103.955	20.007	3.118	0.499
307.000	228.603	80.002	19.995	103.954	20.006	3.179	0.498
307.500	228.877	80.005	19.995	103.954	20.005	3.232	0.510
308.000	229.119	80.002	20.000	103.953	20.006	3.218	0.517
308.500	229.409	80.006	19.997	103.951	20.005	3.275	0.524
309.000	229.645	80.003	19.995	103.946	20.005	3.248	0.529
309.501	229.893	80.006	19.993	103.946	20.007	3.132	0.505
310.001	230.169	80.004	19.995	103.947	20.005	3.293	0.504
310.500	230.408	80.005	19.995	103.948	20.004	3.354	0.519
311.000	230.638	80.002	19.996	103.947	20.007	3.138	0.491
311.500	230.905	80.007	19.990	103.947	20.008	3.022	0.483
312.000	231.160	80.005	19.995	103.949	20.007	3.130	0.510
312.500	231.343	80.000	19.997	103.949	20.004	3.371	0.480
313.000	231.640	80.004	19.996	103.947	20.005	3.289	0.459
313.500	231.895	80.007	19.996	103.949	20.006	3.171	0.516
314.000	232.125	80.005	19.996	103.951	20.008	3.022	0.519
314.500	232.325	80.004	19.996	103.950	20.009	2.969	0.457
315.000	232.579	80.003	19.999	103.949	20.007	3.116	0.442
315.500	232.828	80.008	19.995	103.950	20.006	3.161	0.478
316.000	233.076	80.004	19.997	103.951	20.010	2.886	0.500
316.500	233.326	80.004	19.997	103.950	20.008	3.079	0.498
317.000	233.565	80.006	19.995	103.949	20.005	3.230	0.494
317.500	233.841	80.003	19.995	103.949	20.006	3.204	0.501
318.000	234.076	80.001	19.996	103.950	20.006	3.163	0.513
318.500	234.348	79.997	20.000	103.950	20.006	3.204	0.509
319.000	234.574	80.005	20.000	103.949	20.008	3.073	0.502
319.500	234.847	80.002	19.992	103.949	20.008	3.014	0.498
320.000	235.044	80.005	19.992	103.949	20.007	3.083	0.485
320.500	235.315	80.002	19.995	103.950	20.007	3.083	0.469
321.000	235.547	80.008	19.994	103.950	20.006	3.224	0.486
321.500	235.792	80.005	19.995	103.952	20.009	2.949	0.490
322.000	236.038	80.004	19.994	103.954	20.010	2.902	0.484
322.500	236.296	80.003	19.994	103.954	20.009	3.002	0.497
323.000	236.562	80.004	19.995	103.955	20.011	2.829	0.514
323.500	236.805	80.003	19.994	103.956	20.009	2.961	0.517
324.000	237.040	80.004	19.994	103.955	20.011	2.804	0.494
324.500	237.305	80.003	19.994	103.955	20.013	2.708	0.489
325.000	237.544	80.004	19.994	103.955	20.012	2.757	0.502
325.500	237.768	80.004	19.994	103.954	20.012	2.757	0.483
326.000	238.012	80.002	19.995	103.955	20.013	2.696	0.465
326.500	238.239	80.003	19.994	103.955	20.010	2.882	0.470
327.000	238.511	80.004	19.993	103.956	20.013	2.639	0.485
327.500	238.762	80.002	19.994	103.956	20.012	2.751	0.511
328.000	238.984	80.004	19.994	103.956	20.011	2.857	0.499
328.500	239.232	80.000	19.998	103.957	20.011	2.806	0.472
329.000	239.495	80.004	19.994	103.956	20.011	2.853	0.490
329.500	239.728	80.000	19.994	103.957	20.010	2.918	0.503
330.000	239.990	80.001	19.995	103.957	20.011	2.802	0.496
330.500	240.240	80.000	19.996	103.957	20.009	2.963	0.504
331.000	240.466	80.004	19.993	103.957	20.012	2.721	0.494
331.500	240.722	80.003	19.994	103.958	20.009	2.967	0.479
332.000	240.983	80.002	19.994	103.959	20.013	2.661	0.500
332.500	241.209	80.002	19.995	103.958	20.008	3.049	0.502
333.000	241.458	80.004	19.994	103.958	20.008	3.042	0.481
333.500	241.713	80.004	19.993	103.958	20.008	3.012	0.489
334.000	241.942	80.003	19.995	103.958	20.010	2.926	0.494
334.500	242.181	80.003	19.995	103.957	20.010	2.861	0.476
335.000	242.408	80.003	19.994	103.957	20.007	3.101	0.467
335.500	242.678	80.005	19.994	103.957	20.008	3.042	0.481
336.000	242.915	80.002	19.995	103.957	20.009	2.973	0.502
336.500	243.191	80.001	19.996	103.957	20.010	2.871	0.510
337.000	243.457	80.004	19.994	103.957	20.009	2.958	0.527
337.500	243.716	80.004	19.995	103.958	20.009	2.971	0.533
338.000	243.953	80.002	19.995	103.958	20.007	3.150	0.510
338.500	244.197	80.004	19.994	103.957	20.008	3.007	0.489
339.000	244.472	80.003	19.993	103.957	20.012	2.743	0.500
339.500	244.717	80.002	19.995	103.957	20.008	3.026	0.520
340.000	244.929	80.004	19.995	103.957	20.011	2.846	0.488
340.500	245.176	80.003	19.995	103.956	20.009	2.940	0.458
341.000	245.437	80.003	19.994	103.957	20.009	2.950	0.484
341.500	245.677	80.003	19.995	103.956	20.010	2.875	0.504
342.000	245.928	80.003	19.994	103.955	20.008	3.056	0.496
342.501	246.204	80.003	19.994	103.952	20.011	2.857	0.509
343.000	246.429	80.002	19.993	103.951	20.007	3.105	0.514
343.500	246.664	80.004	19.994	103.950	20.009	2.953	0.481
344.000	246.914	80.001	19.995	103.949	20.009	2.963	0.472
344.500	247.159	80.004	19.993	103.948	20.013	2.661	0.490
345.000	247.366	80.001	19.993	103.948	20.007	3.130	0.474
345.500	247.628	80.002	19.994	103.947	20.012	2.714	0.461
346.000	247.881	80.005	19.995	103.947	20.010	2.901	0.492
346.500	248.135	80.003	19.994	103.945	20.009	2.932	0.511
347.000	248.358	80.004	19.994	103.940	20.011	2.834	0.492
347.500	248.597	80.001	19.994	103.938	20.009	2.934	0.469
348.000	248.838	80.004	19.993	103.937	20.010	2.867	0.471
348.500	249.104	80.003	19.994	103.936	20.009	2.983	0.494
349.000	249.330	80.003	19.993	103.937	20.010	2.869	0.499
349.500	249.579	80.003	19.994	103.939	20.009	2.969	0.483
350.000	249.845	80.004	19.994	103.941	20.012	2.730	0.495
350.500	250.098	80.002	19.994	103.939	20.010	2.930	0.517
351.000	250.346	80.003	19.993	103.938	20.010	2.858	0.510
351.500	250.589	80.004	19.994	103.939	20.010	2.877	0.496
352.000	250.791	80.003	19.993	103.942	20.012	2.744	0.468
352.500	251.059	80.003	19.994	103.939	20.011	2.828	0.458
353.000	251.347	80.002	19.994	103.941	20.011	2.822	0.513
353.500	251.583	80.002	19.994	103.944	20.011	2.798	0.539
354.000	251.821	80.003	19.995	103.946	20.008	3.018	0.499
354.500	252.039	80.003	19.995	103.947	20.008	3.061	0.465
355.000	252.253	80.002	19.993	103.949	20.008	3.022	0.444
355.500	252.511	80.002	19.996	103.947	20.013	2.690	0.452
356.000	252.772	80.003	19.993	103.944	20.012	2.741	0.496
356.500	253.008	80.004	19.997	103.943	20.013	2.696	0.508
357.000	253.225	80.003	19.994	103.938	20.008	3.008	0.475
357.500	253.466	80.004	19.994	103.934	20.012	2.763	0.456
358.000	253.758	80.004	19.994	103.935	20.014	2.604	0.496
358.500	253.968	80.003	19.994	103.937	20.011	2.792	0.518
359.000	254.223	80.003	19.994	103.937	20.014	2.629	0.484
359.500	254.455	80.004	19.994	103.942	20.009	3.000	0.476
360.000	254.686	80.003	19.994	103.943	20.012	2.747	0.474
360.500	254.937	80.003	19.994	103.940	20.011	2.833	0.472
361.000	255.178	80.002	19.994	103.934	20.011	2.818	0.487
361.500	255.443	80.003	19.994	103.927	20.009	2.977	0.499
362.000	255.699	80.003	19.995	103.923	20.010	2.922	0.514
362.500	255.909	80.004	19.996	103.927	20.012	2.765	0.494
363.000	256.139	80.002	19.996	103.935	20.012	2.776	0.453
363.500	256.353	80.004	19.995	103.941	20.012	2.771	0.442
364.000	256.621	80.003	19.996	103.948	20.013	2.670	0.463
364.500	256.880	80.002	19.994	103.952	20.016	2.441	0.505
365.000	257.115	80.002	19.995	103.953	20.011	2.857	0.510
365.500	257.357	80.003	19.994	103.953	20.012	2.755	0.485
366.000	257.609	80.001	19.995	103.951	20.013	2.670	0.485
366.500	257.810	80.003	19.995	103.944	20.012	2.725	0.474
367.000	258.096	80.004	19.994	103.942	20.014	2.578	0.470
367.500	258.308	80.002	19.994	103.943	20.016	2.472	0.492
368.000	258.556	80.003	19.994	103.943	20.015	2.502	0.479
368.500	258.844	80.003	19.995	103.944	20.013	2.696	0.498
369.000	259.089	80.004	19.993	103.951	20.016	2.456	0.534
369.500	259.326	80.004	19.995	103.952	20.013	2.639	0.507
370.001	259.532	80.002	19.997	103.951	20.010	2.883	0.463
370.501	259.798	80.003	19.995	103.951	20.014	2.594	0.458
371.000	260.019	80.004	19.995	103.951	20.013	2.661	0.479
371.500	260.282	80.004	19.994	103.952	20.016	2.484	0.485
372.000	260.528	80.005	19.996	103.953	20.014	2.635	0.497
372.500	260.742	80.004	19.995	103.953	20.015	2.523	0.485
373.000	260.991	80.003	19.996	103.954	20.013	2.702	0.462
373.500	261.225	80.004	19.996	103.953	20.015	2.505	0.473
374.000	261.504	80.003	19.995	103.953	20.014	2.584	0.498
374.500	261.692	80.005	19.995	103.953	20.014	2.629	0.490
375.000	261.964	80.003	19.994	103.954	20.012	2.767	0.463
375.500	262.213	80.004	19.994	103.954	20.010	2.863	0.490
376.000	262.413	80.004	19.996	103.954	20.010	2.920	0.485
376.500	262.661	80.003	19.996	103.955	20.013	2.664	0.448
377.001	262.930	80.004	19.996	103.955	20.012	2.749	0.482
377.500	263.164	80.003	19.996	103.954	20.011	2.816	0.510
378.000	263.432	80.003	19.996	103.954	20.011	2.841	0.503
378.500	263.699	80.004	19.996	103.953	20.011	2.800	0.519
379.000	263.952	80.002	19.996	103.953	20.012	2.718	0.527
379.500	264.172	80.003	19.994	103.951	20.012	2.716	0.496
380.000	264.450	80.003	19.994	103.951	20.012	2.759	0.485
380.500	264.727	80.004	19.996	103.952	20.010	2.916	0.527
381.000	264.982	80.003	19.996	103.952	20.013	2.686	0.544
381.500	265.230	80.003	19.995	103.951	20.012	2.751	0.518
382.001	265.465	80.003	19.994	103.953	20.013	2.708	0.493
382.500	265.686	80.004	19.994	103.953	20.013	2.708	0.470
383.000	265.967	80.003	19.994	103.954	20.014	2.566	0.479
383.500	266.184	80.003	19.995	103.956	20.015	2.494	0.500
384.000	266.432	80.004	19.994	103.956	20.013	2.698	0.481
384.500	266.668	80.003	19.994	103.956	20.011	2.814	0.474
385.000	266.924	80.004	19.995	103.956	20.011	2.806	0.488
385.500	267.239	80.002	19.995	103.956	20.011	2.802	0.531
386.000	267.458	80.003	19.995	103.954	20.014	2.627	0.552
386.500	267.731	80.003	19.994	103.955	20.013	2.645	0.513
387.000	267.939	80.004	19.994	103.955	20.013	2.651	0.486
387.500	268.199	80.005	19.994	103.955	20.014	2.596	0.475
388.000	268.434	80.003	19.994	103.955	20.010	2.904	0.482
388.500	268.709	80.004	19.995	103.954	20.009	2.943	0.502
389.000	268.967	80.003	19.995	103.954	20.011	2.790	0.521
389.500	269.194	80.003	19.994	103.954	20.010	2.928	0.509
390.000	269.466	80.004	19.994	103.954	20.009	2.943	0.492
390.500	269.696	80.003	19.994	103.954	20.011	2.808	0.501
391.000	269.964	80.005	19.996	103.954	20.011	2.837	0.500
391.500	270.222	80.005	19.994	103.954	20.012	2.751	0.512
392.001	270.504	80.004	19.995	103.954	20.009	2.939	0.533
392.501	270.762	80.004	19.996	103.954	20.010	2.896	0.540
393.001	271.025	80.005	19.995	103.954	20.012	2.771	0.531
393.500	271.252	80.004	19.994	103.953	20.011	2.847	0.506
394.000	271.537	80.003	19.994	103.954	20.010	2.890	0.501
394.500	271.818	80.004	19.995	103.954	20.006	3.187	0.539
395.000	272.050	80.004	19.996	103.954	20.009	2.961	0.540
395.500	272.340	80.005	19.995	103.950	20.013	2.665	0.518
396.000	272.569	80.004	19.995	103.950	20.012	2.731	0.520
396.500	272.839	80.005	19.995	103.950	20.010	2.930	0.509
397.000	273.097	80.005	19.995	103.949	20.009	2.963	0.514
397.500	273.349	80.005	19.994	103.949	20.007	3.093	0.519
398.000	273.586	80.006	19.994	103.953	20.009	2.957	0.499
398.500	273.861	80.006	19.995	103.954	20.010	2.926	0.500
399.000	274.124	80.005	19.994	103.954	20.007	3.081	0.525
399.500	274.381	80.004	19.995	103.954	20.009	2.941	0.529
400.000	274.631	80.006	19.994	103.953	20.009	2.937	0.514
400.500	274.915	80.007	19.994	103.949	20.011	2.824	0.520
401.000	275.171	80.005	19.992	103.949	20.011	2.784	0.537
401.500	275.436	80.004	19.996	103.949	20.013	2.655	0.530
402.000	275.654	80.004	19.995	103.949	20.013	2.704	0.502
402.500	275.935	80.004	19.995	103.950	20.012	2.753	0.491
403.000	276.193	80.003	19.995	103.954	20.015	2.529	0.519
403.500	276.452	80.003	19.995	103.952	20.015	2.553	0.528
404.000	276.725	80.004	19.994	103.952	20.014	2.582	0.524
404.500	276.945	80.002	19.995	103.951	20.016	2.466	0.513
405.000	277.230	80.002	19.995	103.951	20.012	2.716	0.499
405.500	277.510	80.003	19.995	103.951	20.012	2.769	0.535
406.000	277.744	80.003	19.995	103.952	20.014	2.584	0.539
406.500	277.981	80.004	19.995	103.949	20.014	2.573	0.493
407.000	278.247	80.004	19.995	103.948	20.014	2.563	0.487
407.500	278.502	80.003	19.995	103.945	20.014	2.627	0.512
408.000	278.753	80.003	19.995	103.945	20.014	2.572	0.514
408.500	279.020	80.003	19.994	103.947	20.014	2.619	0.512
409.000	279.281	80.003	19.994	103.950	20.013	2.682	0.523
409.500	279.538	80.004	19.994	103.951	20.013	2.639	0.523
410.000	279.809	80.004	19.995	103.955	20.015	2.537	0.523
410.500	280.081	80.002	19.995	103.955	20.013	2.682	0.536
411.000	280.287	80.002	19.994	103.955	20.014	2.586	0.510
411.500	280.548	80.002	19.993	103.954	20.015	2.545	0.472
412.000	280.802	80.004	19.994	103.955	20.013	2.643	0.491
412.500	281.063	80.003	19.993	103.955	20.013	2.672	0.515
413.000	281.328	80.002	19.994	103.955	20.015	2.539	0.521
413.500	281.588	80.003	19.993	103.953	20.010	2.922	0.525
414.000	281.855	80.001	19.995	103.949	20.014	2.608	0.526
414.500	282.132	80.003	19.993	103.946	20.014	2.586	0.536
415.000	282.387	80.002	19.994	103.944	20.014	2.602	0.537
415.500	282.672	80.002	19.993	103.942	20.013	2.657	0.536
416.000	282.905	80.004	19.994	103.937	20.013	2.688	0.529
416.500	283.180	80.003	19.995	103.936	20.014	2.610	0.513
417.000	283.455	80.003	19.993	103.935	20.015	2.508	0.529
417.500	283.721	80.004	19.993	103.935	20.017	2.347	0.546
418.000	283.994	80.004	19.993	103.938	20.015	2.551	0.540
418.500	284.246	80.003	19.994	103.944	20.014	2.589	0.532
419.000	284.466	80.003	19.992	103.948	20.015	2.508	0.499
419.500	284.745	80.003	19.993	103.951	20.015	2.526	0.486
420.000	284.999	80.002	19.994	103.953	20.013	2.663	0.516
420.500	285.232	80.004	19.994	103.952	20.014	2.561	0.509
421.000	285.520	80.003	19.994	103.952	20.015	2.490	0.504
421.500	285.768	80.004	19.994	103.954	20.013	2.684	0.529
422.000	286.043	80.003	19.994	103.955	20.015	2.555	0.530
422.500	286.300	80.005	19.995	103.955	20.015	2.551	0.528
423.000	286.533	80.004	19.995	103.956	20.014	2.565	0.511
423.500	286.799	80.003	19.995	103.954	20.012	2.722	0.495
424.000	287.075	80.004	19.995	103.951	20.015	2.547	0.520
424.500	287.310	80.004	19.995	103.948	20.016	2.445	0.526
425.000	287.600	80.003	19.994	103.944	20.015	2.529	0.518
425.500	287.846	80.003	19.996	103.939	20.014	2.633	0.530
426.000	288.149	80.005	19.994	103.938	20.015	2.527	0.542
426.500	288.363	80.004	19.995	103.938	20.015	2.514	0.533
427.000	288.619	80.005	19.995	103.939	20.015	2.539	0.494
427.500	288.850	80.003	19.993	103.935	20.016	2.417	0.479
428.000	289.142	80.004	19.995	103.933	20.014	2.567	0.505
428.501	289.387	80.005	19.994	103.927	20.013	2.673	0.530
429.000	289.631	80.004	19.994	103.922	20.014	2.573	0.513
429.500	289.900	80.003	19.995	103.917	20.018	2.267	0.501
430.001	290.164	80.003	19.994	103.917	20.015	2.510	0.523
430.501	290.429	80.003	19.994	103.923	20.013	2.646	0.531
431.001	290.696	80.004	19.995	103.930	20.016	2.451	0.531
431.500	290.928	80.004	19.995	103.936	20.018	2.335	0.516
432.000	291.251	80.003	19.994	103.943	20.016	2.436	0.527
432.500	291.481	80.002	19.995	103.948	20.015	2.502	0.554
433.000	291.749	80.003	19.995	103.945	20.015	2.548	0.525
433.500	291.971	80.004	19.994	103.944	20.014	2.604	0.494
434.000	292.247	80.003	19.995	103.945	20.014	2.599	0.494
434.500	292.546	80.003	19.995	103.945	20.014	2.630	0.536
435.000	292.757	80.004	19.995	103.946	20.014	2.610	0.542
435.500	293.017	80.004	19.994	103.951	20.013	2.651	0.491
436.000	293.269	80.003	19.995	103.948	20.015	2.514	0.492
436.500	293.523	80.003	19.994	103.946	20.016	2.484	0.509
437.000	293.790	80.003	19.995	103.945	20.015	2.534	0.513
437.500	294.016	80.003	19.994	103.945	20.015	2.496	0.507
438.000	294.305	80.003	19.996	103.944	20.015	2.512	0.504
438.500	294.529	80.003	19.995	103.944	20.015	2.504	0.514
439.000	294.810	80.002	19.996	103.941	20.015	2.512	0.510
439.500	295.069	80.003	19.994	103.935	20.015	2.508	0.523
440.000	295.297	80.003	19.995	103.928	20.014	2.575	0.513
440.500	295.588	80.002	19.994	103.922	20.013	2.664	0.503
441.000	295.824	80.003	19.995	103.922	20.019	2.255	0.523
441.500	296.064	80.003	19.994	103.922	20.017	2.406	0.501
442.000	296.334	80.003	19.994	103.921	20.018	2.272	0.492
442.500	296.577	80.002	19.995	103.921	20.016	2.475	0.511
443.000	296.845	80.003	19.994	103.920	20.016	2.467	0.512
443.500	297.113	80.001	19.994	103.916	20.016	2.441	0.524
444.000	297.344	80.003	19.994	103.917	20.016	2.447	0.518
444.500	297.619	80.003	19.994	103.920	20.015	2.518	0.503
445.000	297.858	80.002	19.995	103.919	20.015	2.489	0.510
445.500	298.102	80.003	19.994	103.920	20.015	2.490	0.498
446.000	298.379	80.003	19.993	103.921	20.014	2.569	0.502
446.500	298.635	80.003	19.994	103.926	20.012	2.724	0.527
447.000	298.882	80.003	19.994	103.928	20.015	2.510	0.518
447.500	299.148	80.003	19.995	103.930	20.014	2.610	0.508
448.000	299.358	80.004	19.994	103.930	20.015	2.539	0.494
448.500	299.613	80.004	19.993	103.928	20.016	2.416	0.471
449.000	299.882	80.003	19.994	103.922	20.015	2.545	0.494
449.500	300.096	80.005	19.994	103.917	20.015	2.516	0.504
450.000	300.342	80.004	19.994	103.915	20.016	2.416	0.472
450.500	300.594	80.006	19.994	103.914	20.014	2.595	0.479
451.000	300.857	80.004	19.993	103.914	20.016	2.439	0.507
451.500	301.101	80.005	19.994	103.914	20.016	2.414	0.511
452.000	301.352	80.005	19.994	103.917	20.015	2.492	0.500
452.500	301.584	80.005	19.994	103.923	20.017	2.379	0.489
453.000	301.830	80.004	19.994	103.930	20.016	2.459	0.481
453.500	302.113	80.006	19.994	103.933	20.020	2.161	0.504
454.000	302.350	80.005	19.996	103.934	20.019	2.245	0.525
454.500	302.580	80.005	19.994	103.934	20.018	2.328	0.493
455.000	302.847	80.005	19.995	103.928	20.017	2.412	0.482
455.500	303.080	80.003	19.995	103.924	20.018	2.284	0.499
456.000	303.361	80.006	19.994	103.922	20.019	2.257	0.507
456.500	303.587	80.005	19.994	103.924	20.020	2.117	0.511
457.000	303.820	80.003	19.993	103.926	20.018	2.330	0.483
457.500	304.081	80.005	19.994	103.927	20.019	2.216	0.476
458.000	304.301	80.004	19.994	103.929	20.019	2.251	0.487
458.500	304.542	80.003	19.995	103.932	20.021	2.064	0.471
459.000	304.804	80.005	19.993	103.930	20.017	2.363	0.483
459.500	305.030	80.004	19.993	103.927	20.019	2.198	0.496
460.000	305.296	80.004	19.994	103.925	20.015	2.498	0.490
460.500	305.537	80.002	19.995	103.923	20.017	2.347	0.499
461.000	305.796	80.003	19.994	103.919	20.018	2.284	0.503
461.500	306.008	80.004	19.995	103.920	20.018	2.278	0.486
462.000	306.246	80.004	19.993	103.921	20.015	2.528	0.461
462.500	306.499	80.004	19.995	103.922	20.016	2.453	0.470
463.000	306.771	80.004	19.995	103.921	20.018	2.296	0.508
463.500	307.044	80.004	19.994	103.922	20.016	2.481	0.535
464.000	307.265	80.004	19.994	103.922	20.015	2.536	0.519
464.500	307.526	80.004	19.994	103.920	20.017	2.375	0.488
465.000	307.748	80.003	19.995	103.919	20.017	2.381	0.482
465.500	307.999	80.003	19.994	103.918	20.017	2.402	0.478
466.000	308.255	80.005	19.994	103.917	20.017	2.379	0.490
466.500	308.511	80.005	19.995	103.917	20.017	2.400	0.509
467.000	308.747	80.006	19.995	103.917	20.015	2.530	0.502
467.500	309.012	80.004	19.995	103.917	20.015	2.526	0.496
468.000	309.276	80.005	19.994	103.918	20.014	2.634	0.515
468.500	309.513	80.004	19.995	103.920	20.015	2.538	0.516
469.000	309.762	80.005	19.995	103.922	20.019	2.261	0.493
469.500	310.016	80.004	19.995	103.922	20.011	2.789	0.494
470.000	310.275	80.004	19.994	103.922	20.012	2.730	0.509
470.500	310.522	80.005	19.994	103.922	20.015	2.544	0.510
471.000	310.764	80.004	19.994	103.919	20.015	2.534	0.497
471.500	311.003	80.006	19.994	103.917	20.016	2.440	0.485
472.000	311.247	80.005	19.995	103.917	20.016	2.426	0.482
472.500	311.509	80.006	19.994	103.919	20.013	2.675	0.494
473.000	311.735	80.004	19.994	103.919	20.013	2.644	0.497
473.500	312.001	80.004	19.995	103.919	20.015	2.514	0.490
474.000	312.279	80.005	19.993	103.919	20.015	2.532	0.518
474.500	312.509	80.005	19.994	103.919	20.015	2.534	0.526
475.000	312.758	80.006	19.995	103.918	20.016	2.416	0.494
475.500	313.025	80.005	19.995	103.918	20.020	2.186	0.497
476.000	313.241	80.005	19.994	103.918	20.016	2.434	0.499
476.500	313.490	80.004	19.995	103.918	20.018	2.312	0.474
477.000	313.723	80.006	19.995	103.917	20.019	2.194	0.474
477.500	313.996	80.005	19.993	103.918	20.017	2.396	0.494
478.000	314.254	80.005	19.994	103.918	20.016	2.465	0.518
478.500	314.448	80.005	19.995	103.918	20.019	2.222	0.492
479.000	314.698	80.006	19.994	103.921	20.017	2.373	0.448
479.500	314.966	80.006	19.993	103.923	20.017	2.400	0.481
480.000	315.168	80.007	19.994	103.922	20.014	2.614	0.494
480.500	315.442	80.006	19.994	103.921	20.015	2.499	0.473
481.000	315.699	80.005	19.995	103.921	20.016	2.479	0.503
481.500	315.904	80.005	19.993	103.918	20.012	2.779	0.496
482.000	316.136	80.005	19.994	103.916	20.015	2.506	0.450
482.500	316.394	80.004	19.995	103.917	20.012	2.736	0.464
483.000	316.609	80.005	19.995	103.921	20.015	2.514	0.481
483.500	316.860	80.005	19.995	103.922	20.014	2.622	0.469
484.000	317.109	80.003	19.996	103.922	20.014	2.579	0.483
484.500	317.369	80.005	19.995	103.922	20.016	2.434	0.505
485.000	317.620	80.006	19.995	103.922	20.016	2.444	0.510
485.500	317.850	80.005	19.994	103.917	20.017	2.353	0.496
486.000	318.088	80.003	19.994	103.916	20.014	2.561	0.474
486.500	318.331	80.003	19.995	103.916	20.017	2.412	0.475
487.000	318.520	80.004	19.994	103.918	20.012	2.779	0.457
487.500	318.796	80.004	19.995	103.918	20.013	2.640	0.449
488.000	319.045	80.004	19.995	103.918	20.016	2.461	0.495
488.500	319.308	80.004	19.995	103.917	20.013	2.681	0.519
489.000	319.532	80.003	19.995	103.916	20.018	2.337	0.499
489.500	319.785	80.002	19.995	103.914	20.016	2.471	0.482
490.000	320.035	80.004	19.995	103.914	20.013	2.665	0.490
490.500	320.281	80.003	19.996	103.914	20.015	2.534	0.499
491.000	320.547	80.002	19.995	103.914	20.014	2.616	0.504
491.500	320.786	80.003	19.995	103.914	20.016	2.430	0.509
492.000	321.010	80.004	19.995	103.914	20.017	2.343	0.484
492.500	321.247	80.003	19.995	103.914	20.014	2.577	0.462
493.000	321.518	80.002	19.995	103.913	20.019	2.259	0.484
493.500	321.707	80.003	19.996	103.913	20.015	2.542	0.484
494.000	321.962	80.003	19.995	103.913	20.016	2.414	0.452
494.500	322.175	80.002	19.996	103.914	20.016	2.424	0.456
495.000	322.457	80.003	19.995	103.914	20.015	2.508	0.481
495.500	322.644	80.003	19.996	103.915	20.016	2.455	0.482
496.000	322.887	80.004	19.994	103.914	20.014	2.593	0.450
496.500	323.149	80.001	19.995	103.914	20.013	2.640	0.468
497.000	323.420	80.004	19.995	103.914	20.013	2.638	0.519
497.500	323.631	80.000	19.996	103.914	20.014	2.620	0.507
498.000	323.899	80.003	19.995	103.917	20.015	2.532	0.481
498.500	324.137	80.003	19.996	103.917	20.016	2.481	0.492
499.000	324.354	80.002	19.995	103.917	20.015	2.528	0.481
499.500	324.610	80.003	19.995	103.918	20.013	2.671	0.464
500.000	324.845	80.003	19.995	103.920	20.012	2.752	0.482
500.500	325.087	80.004	19.996	103.917	20.014	2.591	0.484
501.000	325.314	80.003	19.996	103.918	20.012	2.722	0.473
501.500	325.632	80.004	19.995	103.918	20.013	2.687	0.507
502.000	325.844	80.003	19.995	103.918	20.013	2.666	0.538
502.500	326.094	80.003	19.995	103.916	20.014	2.616	0.496
503.000	326.350	80.003	19.996	103.915	20.011	2.805	0.484
503.500	326.552	80.003	19.995	103.917	20.014	2.573	0.482
504.000	326.809	80.003	19.995	103.917	20.011	2.787	0.458
504.500	327.053	80.004	19.995	103.917	20.013	2.642	0.480
505.000	327.308	80.003	19.994	103.917	20.013	2.638	0.501
505.500	327.550	80.006	19.994	103.917	20.014	2.595	0.498
506.000	327.819	80.003	19.995	103.916	20.012	2.713	0.503
506.500	328.082	80.003	19.995	103.915	20.010	2.909	0.521
507.000	328.319	80.003	19.994	103.915	20.012	2.758	0.516
507.500	328.557	80.005	19.994	103.915	20.012	2.720	0.488
508.000	328.774	80.004	19.994	103.916	20.009	2.940	0.465
508.500	329.033	80.005	19.993	103.919	20.014	2.595	0.466
509.000	329.278	80.004	19.994	103.919	20.013	2.677	0.490
509.500	329.501	80.004	19.993	103.919	20.009	2.977	0.486
510.000	329.753	80.004	19.994	103.918	20.010	2.909	0.472
510.500	329.989	80.003	19.994	103.919	20.011	2.850	0.481
511.000	330.236	80.004	19.994	103.915	20.010	2.897	0.485
511.500	330.491	80.005	19.995	103.915	20.015	2.520	0.493
512.000	330.762	80.005	19.994	103.915	20.012	2.730	0.514
512.500	331.005	80.005	19.995	103.915	20.011	2.842	0.519
513.000	331.246	80.002	19.994	103.913	20.015	2.500	0.499
513.500	331.490	80.005	19.995	103.913	20.013	2.699	0.485
514.000	331.722	80.002	19.995	103.914	20.010	2.909	0.480
514.500	331.963	80.004	19.995	103.914	20.011	2.803	0.474
515.000	332.226	80.002	19.995	103.914	20.009	2.950	0.488
515.500	332.460	80.002	19.995	103.917	20.010	2.897	0.501
516.000	332.722	80.003	19.995	103.918	20.007	3.131	0.497
516.500	332.957	80.004	19.995	103.918	20.009	2.968	0.497
517.000	333.232	80.004	19.996	103.918	20.008	3.035	0.503
517.500	333.509	80.003	19.995	103.918	20.011	2.783	0.531
518.000	333.742	80.003	19.994	103.917	20.011	2.783	0.531
518.500	333.989	80.002	19.994	103.921	20.011	2.852	0.495
519.000	334.248	80.002	19.993	103.924	20.011	2.810	0.493
519.500	334.501	80.003	19.995	103.924	20.012	2.747	0.509
520.000	334.760	80.002	19.994	103.926	20.007	3.134	0.512
520.500	334.999	80.002	19.995	103.927	20.006	3.187	0.505
521.000	335.213	80.001	19.995	103.926	20.008	3.044	0.475
521.500	335.491	80.001	19.996	103.924	20.012	2.716	0.472
522.000	335.755	80.002	19.995	103.925	20.012	2.773	0.517
522.500	335.993	80.002	19.994	103.923	20.012	2.736	0.522
523.000	336.254	80.003	19.994	103.922	20.014	2.583	0.501
523.500	336.511	80.002	19.995	103.919	20.008	3.076	0.509
524.001	336.713	80.004	19.993	103.919	20.010	2.885	0.488
524.501	336.998	80.002	19.994	103.919	20.010	2.870	0.473
525.000	337.282	80.003	19.993	103.917	20.013	2.695	0.528
525.500	337.496	80.003	19.994	103.915	20.010	2.862	0.533
526.000	337.783	80.004	19.994	103.915	20.010	2.909	0.499
526.500	338.023	80.001	19.995	103.914	20.005	3.229	0.514
527.000	338.261	80.004	19.995	103.913	20.010	2.876	0.503
527.500	338.538	80.002	19.994	103.915	20.009	2.933	0.497
528.000	338.741	80.003	19.995	103.916	20.014	2.626	0.498
528.500	339.038	80.002	19.995	103.917	20.010	2.876	0.490
529.000	339.272	80.003	19.996	103.919	20.014	2.634	0.515
529.500	339.528	80.002	19.995	103.921	20.012	2.770	0.511
530.000	339.792	80.003	19.994	103.928	20.010	2.889	0.505
530.500	340.024	80.003	19.994	103.935	20.010	2.913	0.508
531.000	340.283	80.003	19.994	103.939	20.010	2.875	0.493
531.500	340.552	80.005	19.994	103.941	20.013	2.683	0.510
532.000	340.826	80.004	19.994	103.941	20.009	2.946	0.536
532.500	341.106	80.003	19.994	103.939	20.009	2.954	0.549
533.000	341.328	80.004	19.995	103.934	20.009	2.979	0.528
533.500	341.572	80.004	19.995	103.931	20.007	3.148	0.484
534.000	341.848	80.004	19.995	103.927	20.009	2.960	0.493
534.500	342.020	80.005	19.993	103.929	20.010	2.893	0.484
535.000	342.342	80.004	19.993	103.925	20.007	3.084	0.471
535.500	342.598	80.004	19.994	103.924	20.012	2.779	0.536
536.000	342.870	80.006	19.994	103.922	20.014	2.565	0.553
536.500	343.138	80.005	19.995	103.923	20.012	2.754	0.534
537.000	343.414	80.006	19.994	103.922	20.013	2.652	0.542
537.500	343.622	80.003	19.994	103.920	20.008	3.013	0.514
538.000	343.853	80.005	19.994	103.917	20.010	2.873	0.462
538.500	344.132	80.005	19.996	103.915	20.012	2.732	0.474
539.000	344.381	80.004	19.993	103.914	20.012	2.777	0.519
539.500	344.626	80.005	19.994	103.912	20.012	2.714	0.511
540.000	344.884	80.004	19.994	103.911	20.011	2.811	0.498
540.500	345.146	80.004	19.994	103.914	20.010	2.862	0.512
541.000	345.424	80.005	19.994	103.919	20.010	2.863	0.530
541.500	345.684	80.005	19.991	103.919	20.010	2.879	0.539
542.000	345.931	80.004	19.993	103.922	20.012	2.777	0.523
542.500	346.183	80.004	19.994	103.923	20.011	2.830	0.503
543.000	346.444	80.003	19.995	103.925	20.010	2.869	0.506
543.500	346.716	80.005	19.995	103.923	20.013	2.687	0.523
544.000	346.973	80.004	19.993	103.925	20.011	2.845	0.531
544.500	347.244	80.003	19.993	103.923	20.012	2.727	0.529
545.000	347.462	80.004	19.995	103.924	20.011	2.797	0.509
545.500	347.735	80.004	19.994	103.923	20.012	2.733	0.490
546.000	347.993	80.005	19.994	103.924	20.012	2.716	0.511
546.500	348.268	80.004	19.994	103.922	20.010	2.862	0.532
547.001	348.500	80.003	19.993	103.922	20.010	2.901	0.520
547.500	348.778	80.002	19.993	103.923	20.012	2.744	0.509
548.000	349.007	80.004	19.994	103.923	20.011	2.801	0.509
548.500	349.301	80.004	19.993	103.924	20.015	2.493	0.515
549.000	349.537	80.004	19.994	103.923	20.012	2.738	0.526
549.500	349.833	80.005	19.994	103.922	20.008	3.031	0.530
550.000	350.101	80.004	19.994	103.922	20.010	2.891	0.548
550.500	350.392	80.006	19.994	103.919	20.012	2.719	0.561
551.000	350.643	80.003	19.994	103.921	20.011	2.832	0.551
551.500	350.904	80.003	19.995	103.899	20.011	2.840	0.527
552.001	351.134	80.004	19.995	103.876	20.011	2.803	0.501
552.500	351.411	80.004	19.996	103.861	20.012	2.720	0.499
553.000	351.625	80.004	19.995	103.853	20.008	3.043	0.500
553.500	351.918	80.006	19.994	103.844	20.008	3.062	0.499
554.000	352.163	80.005	19.995	103.879	20.010	2.917	0.522
554.500	352.436	80.006	19.993	103.936	20.009	2.995	0.528
555.000	352.695	80.006	19.994	103.962	20.010	2.876	0.525
555.500	352.965	80.004	19.995	103.974	20.009	2.950	0.530
556.000	353.224	80.005	19.994	103.977	20.010	2.860	0.529
556.500	353.523	80.006	19.996	103.963	20.010	2.882	0.544
557.000	353.800	80.005	19.993	103.930	20.010	2.872	0.567
557.500	354.078	80.006	19.994	103.914	20.013	2.662	0.566
558.000	354.336	80.006	19.994	103.908	20.013	2.664	0.546
558.500	354.598	80.005	19.995	103.907	20.015	2.556	0.528
559.000	354.851	80.005	19.994	103.908	20.013	2.699	0.517
559.500	355.117	80.006	19.994	103.907	20.012	2.722	0.517
560.000	355.404	80.006	19.994	103.911	20.017	2.349	0.536
560.500	355.624	80.005	19.995	103.913	20.013	2.660	0.530
561.000	355.880	80.005	19.995	103.914	20.012	2.728	0.492
561.500	356.144	80.004	19.994	103.914	20.014	2.630	0.498
562.000	356.387	80.005	19.995	103.914	20.012	2.752	0.514
562.500	356.695	80.005	19.995	103.913	20.013	2.677	0.529
563.000	356.974	80.006	19.995	103.913	20.013	2.675	0.569
563.500	357.224	80.004	19.994	103.915	20.014	2.634	0.558
564.000	357.492	80.004	19.995	103.917	20.012	2.720	0.524
564.500	357.747	80.005	19.994	103.918	20.014	2.630	0.520
565.000	358.022	80.005	19.995	103.918	20.010	2.889	0.526
565.500	358.266	80.005	19.994	103.918	20.011	2.787	0.524
566.000	358.484	80.005	19.994	103.917	20.011	2.819	0.490
566.500	358.784	80.005	19.994	103.914	20.011	2.809	0.490
567.000	359.008	80.005	19.994	103.914	20.014	2.622	0.522
567.501	359.294	80.005	19.994	103.914	20.011	2.844	0.517
568.001	359.555	80.006	19.994	103.913	20.010	2.889	0.528
568.500	359.779	80.003	19.994	103.913	20.011	2.834	0.516
569.000	360.032	80.004	19.994	103.913	20.010	2.880	0.481
569.500	360.298	80.003	19.994	103.913	20.010	2.925	0.498
570.000	360.575	80.004	19.994	103.914	20.011	2.805	0.531
570.500	360.837	80.003	19.995	103.914	20.013	2.701	0.541
571.000	361.103	80.002	19.995	103.914	20.012	2.777	0.533
571.500	361.397	80.004	19.995	103.914	20.012	2.734	0.545
572.000	361.649	80.004	19.996	103.915	20.012	2.748	0.553
572.500	361.927	80.005	19.995	103.915	20.011	2.793	0.537
573.000	362.188	80.002	19.995	103.915	20.013	2.652	0.534
573.500	362.443	80.003	19.994	103.916	20.009	2.970	0.527
574.000	362.699	80.003	19.995	103.915	20.011	2.838	0.514
574.500	362.956	80.002	19.995	103.916	20.009	2.992	0.512
575.000	363.225	80.003	19.994	103.915	20.011	2.799	0.520
575.500	363.492	80.003	19.995	103.916	20.012	2.766	0.531
576.000	363.710	80.004	19.995	103.916	20.010	2.907	0.510
576.500	363.950	80.003	19.994	103.916	20.009	2.986	0.471
577.000	364.240	80.005	19.995	103.915	20.011	2.791	0.494
577.500	364.506	80.004	19.995	103.915	20.009	2.968	0.543
578.000	364.760	80.001	19.995	103.914	20.011	2.795	0.538
578.500	365.026	80.004	19.995	103.915	20.007	3.105	0.520
579.000	365.289	80.003	19.996	103.915	20.011	2.844	0.524
579.500	365.518	80.002	19.995	103.915	20.009	3.001	0.511
580.000	365.784	80.002	19.996	103.915	20.010	2.887	0.493
580.500	366.062	80.005	19.995	103.916	20.011	2.791	0.519
581.000	366.343	80.003	19.995	103.915	20.011	2.783	0.552
581.500	366.552	80.002	19.995	103.915	20.007	3.117	0.524
582.000	366.847	80.003	19.995	103.914	20.007	3.098	0.497
582.500	367.077	80.004	19.995	103.914	20.008	3.007	0.514
583.000	367.388	80.002	19.994	103.914	20.009	2.970	0.533
583.500	367.620	80.002	19.994	103.914	20.008	3.031	0.543
584.000	367.881	80.001	19.996	103.915	20.010	2.899	0.518
584.500	368.154	80.003	19.995	103.915	20.007	3.151	0.513
585.000	368.415	80.003	19.995	103.915	20.013	2.701	0.534
585.500	368.689	80.003	19.995	103.915	20.009	2.980	0.535
586.000	368.966	80.003	19.995	103.916	20.010	2.905	0.543
586.500	369.191	80.003	19.996	103.915	20.010	2.891	0.526
587.000	369.453	80.003	19.994	103.916	20.009	2.978	0.494
587.500	369.719	80.004	19.995	103.917	20.011	2.807	0.508
588.001	370.003	80.004	19.996	103.916	20.010	2.899	0.539
588.500	370.226	80.002	19.995	103.916	20.009	2.941	0.529
589.000	370.452	80.003	19.996	103.918	20.012	2.750	0.478
589.500	370.739	80.003	19.994	103.918	20.011	2.788	0.481
590.000	371.016	80.004	19.996	103.918	20.010	2.878	0.538
590.500	371.257	80.003	19.994	103.921	20.011	2.829	0.541
591.000	371.539	80.004	19.995	103.922	20.012	2.737	0.520
591.500	371.794	80.003	19.995	103.921	20.012	2.735	0.530
592.000	372.065	80.003	19.995	103.920	20.010	2.925	0.532
592.500	372.335	80.003	19.995	103.919	20.013	2.703	0.534
593.000	372.586	80.002	19.997	103.918	20.011	2.813	0.531
593.500	372.880	80.003	19.996	103.916	20.011	2.805	0.533
594.000	373.135	80.002	19.995	103.915	20.009	3.002	0.548
594.500	373.400	80.002	19.995	103.915	20.010	2.858	0.534
595.000	373.671	80.002	19.996	103.915	20.011	2.852	0.528
595.500	373.894	80.001	19.994	103.912	20.012	2.760	0.515
596.000	374.206	80.002	19.995	103.913	20.010	2.903	0.514
596.500	374.423	80.000	19.996	103.913	20.011	2.844	0.532
597.000	374.659	80.001	19.996	103.913	20.010	2.872	0.491
597.500	374.944	80.002	19.994	103.913	20.009	2.992	0.487
598.000	375.217	80.003	19.994	103.915	20.012	2.766	0.540
598.500	375.464	80.001	19.994	103.912	20.013	2.685	0.538
599.000	375.707	80.003	19.994	103.911	20.012	2.778	0.505
599.500	375.967	80.003	19.995	103.910	20.012	2.711	0.497
600.001	376.277	80.002	19.994	103.909	20.014	2.615	0.536
600.501	376.540	80.002	19.995	103.902	20.013	2.674	0.572
601.000	376.768	80.001	19.994	103.902	20.012	2.752	0.532
601.500	377.028	80.002	19.995	103.903	20.013	2.693	0.489
602.000	377.271	80.003	19.994	103.902	20.009	2.933	0.496
602.500	377.543	80.002	19.997	103.902	20.011	2.797	0.509
603.000	377.828	80.004	19.995	103.910	20.008	3.004	0.536
603.500	378.079	80.002	19.996	103.911	20.011	2.849	0.547
604.000	378.325	80.002	19.995	103.908	20.009	2.975	0.517
604.500	378.593	80.002	19.995	103.908	20.007	3.089	0.505
605.000	378.865	80.002	19.995	103.906	20.010	2.909	0.527
605.500	379.137	80.002	19.994	103.903	20.007	3.085	0.542
606.000	379.365	80.003	19.994	103.901	20.007	3.105	0.522
606.500	379.646	80.002	19.994	103.904	20.009	2.957	0.505
607.000	379.929	80.002	19.994	103.907	20.010	2.892	0.536
607.500	380.145	80.001	19.995	103.909	20.008	3.028	0.531
608.000	380.407	80.001	19.994	103.912	20.007	3.136	0.489
608.500	380.662	80.003	19.994	103.914	20.006	3.210	0.497
609.000	380.908	80.002	19.993	103.915	20.009	3.000	0.509
609.500	381.172	80.001	19.994	103.912	20.010	2.872	0.506
610.000	381.421	80.002	19.995	103.911	20.007	3.133	0.512
610.500	381.655	80.001	19.994	103.912	20.008	3.055	0.498
611.000	381.944	80.003	19.995	103.910	20.009	2.956	0.503
611.500	382.205	80.003	19.995	103.907	20.008	3.064	0.536
612.000	382.445	80.003	19.994	103.907	20.012	2.756	0.525
612.500	382.736	80.003	19.993	103.908	20.009	2.958	0.516
613.000	382.980	80.003	19.994	103.910	20.011	2.849	0.533
613.500	383.209	80.004	19.996	103.914	20.009	2.970	0.504
614.000	383.504	80.003	19.993	103.895	20.010	2.911	0.499
614.500	383.769	80.003	19.994	103.879	20.008	3.010	0.542
615.000	383.986	80.005	19.994	103.868	20.011	2.848	0.521
615.500	384.259	80.004	19.994	103.859	20.010	2.903	0.486
616.000	384.474	80.004	19.995	103.851	20.010	2.907	0.488
616.500	384.738	80.004	19.994	103.890	20.009	2.980	0.483
617.000	384.997	80.004	19.994	103.931	20.010	2.921	0.501
617.500	385.254	80.004	19.995	103.947	20.011	2.856	0.519
618.000	385.508	80.004	19.995	103.955	20.012	2.764	0.513
618.500	385.753	80.004	19.995	103.960	20.009	2.950	0.505
619.000	386.036	80.005	19.995	103.939	20.009	2.956	0.514
619.500	386.248	80.006	19.995	103.912	20.010	2.870	0.511
620.000	386.511	80.005	19.995	103.902	20.009	2.978	0.485
620.500	386.762	80.005	19.995	103.900	20.010	2.878	0.494
621.000	387.048	80.004	19.995	103.900	20.009	2.937	0.525
621.500	387.257	80.004	19.995	103.902	20.012	2.778	0.516
622.000	387.522	80.004	19.994	103.905	20.008	3.029	0.485
622.500	387.773	80.005	19.994	103.908	20.009	2.966	0.495
623.000	388.022	80.005	19.995	103.907	20.008	3.031	0.508
623.500	388.266	80.003	19.994	103.903	20.005	3.233	0.497
624.000	388.510	80.004	19.994	103.900	20.006	3.208	0.490
624.501	388.772	80.003	19.996	103.900	20.008	3.076	0.497
625.000	389.038	80.004	19.994	103.901	20.009	2.964	0.517
625.500	389.296	80.004	19.994	103.903	20.010	2.915	0.526
626.001	389.547	80.003	19.994	103.906	20.006	3.190	0.516
626.500	389.829	80.005	19.994	103.906	20.006	3.178	0.521
627.000	390.078	80.003	19.995	103.904	20.008	3.035	0.532
627.500	390.317	80.003	19.996	103.905	20.008	3.072	0.510
628.000	390.572	80.004	19.994	103.907	20.006	3.212	0.490
628.500	390.792	80.004	19.994	103.908	20.008	3.033	0.484
629.001	391.099	80.004	19.994	103.911	20.008	3.072	0.502
629.501	391.316	80.004	19.994	103.913	20.009	3.001	0.526
630.001	391.579	80.004	19.995	103.911	20.008	3.066	0.502
630.501	391.862	80.004	19.994	103.911	20.008	3.015	0.513
631.000	392.065	80.005	19.994	103.909	20.007	3.106	0.516
631.500	392.334	80.005	19.994	103.909	20.011	2.839	0.479
632.000	392.599	80.005	19.994	103.911	20.007	3.084	0.503
632.500	392.815	80.004	19.994	103.911	20.005	3.257	0.507
633.000	393.103	80.005	19.994	103.910	20.003	3.377	0.492
633.500	393.345	80.004	19.994	103.907	20.002	3.467	0.517
634.000	393.607	80.004	19.994	103.906	20.007	3.115	0.517
634.500	393.882	80.005	19.994	103.907	20.004	3.312	0.521
635.000	394.124	80.005	19.993	103.907	20.002	3.516	0.528
635.500	394.358	80.005	19.995	103.909	20.005	3.251	0.497
636.000	394.591	80.005	19.996	103.913	20.005	3.265	0.471
636.500	394.885	80.006	19.994	103.915	20.004	3.371	0.496
637.000	395.118	80.004	19.995	103.914	20.007	3.096	0.526
637.500	395.365	80.006	19.994	103.914	20.008	3.058	0.504
638.000	395.614	80.005	19.994	103.913	20.002	3.459	0.489
638.500	395.886	80.005	19.993	103.913	20.008	3.054	0.509
639.000	396.114	80.005	19.994	103.913	20.006	3.210	0.510
639.500	396.396	80.004	19.994	103.914	20.006	3.198	0.505
640.000	396.659	80.006	19.994	103.915	20.003	3.378	0.528
640.500	396.909	80.006	19.994	103.914	20.001	3.561	0.529
641.000	397.153	80.005	19.995	103.912	20.004	3.353	0.503
641.500	397.405	80.006	19.994	103.909	20.005	3.280	0.496
642.000	397.672	80.007	19.994	103.905	20.003	3.426	0.508
642.500	397.931	80.006	19.993	103.905	20.005	3.251	0.522
643.000	398.207	80.005	19.995	103.906	20.003	3.404	0.530
643.500	398.439	80.006	19.993	103.907	20.003	3.389	0.521
644.000	398.685	80.005	19.993	103.910	20.003	3.396	0.493
644.500	398.962	80.006	19.994	103.914	20.005	3.259	0.501
645.000	399.263	80.007	19.994	103.913	20.004	3.355	0.551
645.500	399.494	80.006	19.993	103.912	20.003	3.394	0.555
646.000	399.765	80.006	19.994	103.912	20.002	3.461	0.517
646.500	400.019	80.006	19.993	103.912	20.003	3.445	0.513
647.000	400.261	80.006	19.994	103.911	20.005	3.253	0.511
647.500	400.508	80.006	19.994	103.912	19.999	3.726	0.493
648.000	400.758	80.005	19.994	103.912	20.003	3.439	0.493
648.500	401.015	80.005	19.994	103.913	20.002	3.471	0.502
649.000	401.269	80.005	19.993	103.914	20.002	3.504	0.509
649.500	401.551	80.004	19.994	103.914	20.002	3.475	0.523
650.000	401.767	80.003	19.994	103.916	20.002	3.469	0.517
650.500	402.070	80.003	19.994	103.919	20.001	3.586	0.508
651.000	402.342	80.004	19.994	103.922	19.999	3.683	0.547
651.500	402.614	80.003	19.994	103.924	20.000	3.669	0.560
652.000	402.904	80.003	19.994	103.924	19.998	3.775	0.553
652.500	403.140	80.003	19.994	103.920	20.001	3.568	0.544
653.000	403.415	80.004	19.994	103.914	20.002	3.455	0.519
653.500	403.661	80.004	19.994	103.908	20.000	3.606	0.516
654.000	403.911	80.003	19.994	103.906	19.999	3.734	0.508
654.500	404.147	80.003	19.994	103.906	19.997	3.826	0.491
655.000	404.424	80.003	19.995	103.909	19.998	3.783	0.500
655.500	404.680	80.003	19.995	103.912	19.999	3.689	0.523
656.000	404.943	80.003	19.994	103.912	20.001	3.553	0.526
656.500	405.200	80.003	19.995	103.910	19.998	3.775	0.519
657.000	405.484	80.002	19.994	103.911	19.998	3.766	0.530
657.500	405.727	80.001	19.994	103.912	20.001	3.577	0.534
658.000	405.953	80.002	19.994	103.919	20.002	3.493	0.498
658.500	406.242	80.004	19.994	103.922	19.998	3.793	0.492
659.000	406.501	80.003	19.995	103.922	19.996	3.925	0.532
659.500	406.789	80.003	19.994	103.922	20.000	3.650	0.547
660.000	407.060	80.003	19.994	103.920	19.997	3.832	0.553
660.500	407.320	80.003	19.995	103.917	20.000	3.624	0.545
661.000	407.559	80.004	19.994	103.919	19.997	3.850	0.515
661.500	407.833	80.003	19.993	103.923	19.999	3.740	0.505
662.000	408.063	80.003	19.995	103.923	20.000	3.618	0.508
662.500	408.333	80.003	19.995	103.928	19.997	3.848	0.503
663.000	408.602	80.002	19.994	103.933	19.997	3.858	0.520
663.500	408.885	80.003	19.994	103.934	19.997	3.832	0.546
664.000	409.112	80.004	19.995	103.931	20.001	3.577	0.531
664.500	409.369	80.003	19.994	103.931	20.001	3.532	0.497
665.000	409.618	80.002	19.994	103.927	20.001	3.575	0.494
665.500	409.894	80.002	19.996	103.920	20.000	3.617	0.515
666.000	410.169	80.003	19.995	103.918	20.002	3.485	0.538
666.500	410.438	80.003	19.994	103.918	19.999	3.687	0.548
667.000	410.736	80.003	19.994	103.917	20.001	3.583	0.556
667.500	410.964	80.002	19.995	103.917	19.997	3.831	0.547
668.000	411.227	80.004	19.994	103.913	19.998	3.817	0.508
668.500	411.463	80.004	19.994	103.907	19.995	3.969	0.495
669.000	411.686	80.003	19.994	103.905	19.996	3.953	0.479
669.500	411.994	80.003	19.994	103.905	19.998	3.802	0.495
670.000	412.287	80.003	19.993	103.903	19.998	3.807	0.566
670.500	412.514	80.003	19.996	103.903	19.995	4.011	0.561
671.000	412.763	80.003	19.994	103.909	19.999	3.675	0.498
671.500	413.054	80.002	19.994	103.911	20.001	3.579	0.508
672.000	413.323	80.003	19.994	103.910	20.001	3.571	0.549
672.500	413.589	80.002	19.995	103.908	19.996	3.933	0.547
673.000	413.797	80.002	19.995	103.912	19.994	4.098	0.505
673.500	414.045	80.002	19.995	103.912	19.993	4.145	0.466
674.000	414.305	80.002	19.994	103.912	19.996	3.911	0.482
674.500	414.545	80.003	19.995	103.908	20.002	3.503	0.504
675.000	414.815	80.002	19.995	103.911	19.995	4.005	0.505
675.500	415.092	80.002	19.995	103.909	19.993	4.174	0.528
676.000	415.339	80.001	19.996	103.905	19.997	3.825	0.535
676.500	415.593	80.003	19.995	103.903	20.001	3.577	0.513
677.000	415.864	80.003	19.994	103.906	19.995	4.015	0.513
677.501	416.118	80.003	19.994	103.904	19.994	4.045	0.525
678.000	416.372	80.002	19.995	103.904	19.995	4.006	0.516
678.500	416.621	80.002	19.995	103.900	19.999	3.687	0.506
679.000	416.917	80.004	19.995	103.895	19.993	4.123	0.524
679.500	417.170	80.002	19.994	103.891	19.994	4.106	0.547
680.000	417.406	80.004	19.996	103.892	19.995	4.004	0.519
680.500	417.653	80.003	19.997	103.891	19.995	4.010	0.486
681.000	417.944	80.003	19.996	103.898	19.995	4.035	0.511
681.500	418.192	80.002	19.996	103.905	19.992	4.218	0.539
682.000	418.430	80.002	19.995	103.911	19.996	3.945	0.512
682.500	418.709	80.003	19.995	103.912	19.994	4.060	0.501
683.000	418.937	80.002	19.995	103.910	19.993	4.178	0.512
683.500	419.200	80.002	19.997	103.904	19.992	4.227	0.499
684.000	419.483	80.002	19.995	103.903	19.992	4.243	0.519
684.500	419.741	80.002	19.996	103.900	19.990	4.359	0.544
685.000	419.987	80.001	19.995	103.899	19.988	4.508	0.523
685.500	420.241	80.003	19.995	103.902	19.990	4.396	0.502
686.000	420.543	80.002	19.995	103.905	19.988	4.512	0.528
686.500	420.792	80.003	19.996	103.903	19.989	4.418	0.554
687.000	421.037	80.003	19.995	103.902	19.990	4.404	0.523
687.500	421.265	80.002	19.996	103.902	19.988	4.522	0.483
688.000	421.519	80.001	19.995	103.901	19.988	4.504	0.477
688.500	421.766	80.003	19.996	103.900	19.987	4.561	0.492
689.000	422.010	80.002	19.995	103.902	19.987	4.588	0.496
689.500	422.265	80.003	19.996	103.904	19.987	4.579	0.495
690.000	422.543	80.002	19.994	103.905	19.988	4.494	0.516
690.500	422.811	80.002	19.995	103.901	19.985	4.767	0.539
691.000	423.055	80.002	19.995	103.900	19.986	4.673	0.529
691.500	423.257	80.003	19.994	103.899	19.988	4.543	0.479
692.000	423.559	80.002	19.994	103.898	19.988	4.500	0.475
692.500	423.811	80.003	19.995	103.897	19.982	4.983	0.529
693.000	424.057	80.004	19.994	103.902	19.985	4.720	0.526
693.500	424.312	80.003	19.995	103.907	19.985	4.758	0.500
694.000	424.525	80.003	19.995	103.904	19.983	4.903	0.485
694.500	424.835	80.002	19.994	103.904	19.983	4.895	0.495
695.000	425.103	80.003	19.994	103.906	19.985	4.717	0.550
695.500	425.315	80.005	19.995	103.905	19.978	5.267	0.529
696.000	425.562	80.004	19.994	103.906	19.984	4.844	0.469
696.500	425.838	80.003	19.995	103.910	19.980	5.082	0.491
697.000	426.075	80.004	19.994	103.912	19.980	5.108	0.518
697.500	426.292	80.004	19.994	103.914	19.982	4.938	0.484
698.000	426.559	80.005	19.995	103.916	19.980	5.086	0.469
698.500	426.794	80.005	19.996	103.916	19.978	5.227	0.493
699.000	427.051	80.006	19.993	103.916	19.980	5.145	0.497
699.500	427.276	80.006	19.994	103.916	19.977	5.335	0.488
700.000	427.534	80.006	19.994	103.916	19.974	5.536	0.482
700.500	427.814	80.006	19.996	103.915	19.977	5.353	0.510
701.000	428.060	80.006	19.995	103.915	19.975	5.491	0.532
701.500	428.286	80.005	19.993	103.915	19.973	5.622	0.499
702.000	428.558	80.006	19.994	103.916	19.973	5.620	0.485
702.500	428.786	80.004	19.993	103.915	19.975	5.481	0.499
703.000	429.074	80.004	19.994	103.915	19.970	5.842	0.508
703.500	429.306	80.006	19.995	103.913	19.969	5.919	0.518
704.000	429.564	80.005	19.994	103.912	19.965	6.200	0.505
704.500	429.799	80.005	19.995	103.911	19.969	5.926	0.491
705.000	430.048	80.005	19.994	103.908	19.965	6.188	0.488
705.500	430.316	80.004	19.995	103.907	19.965	6.227	0.501
706.000	430.540	80.006	19.995	103.906	19.964	6.333	0.505
706.500	430.810	80.004	19.994	103.906	19.963	6.378	0.493
707.000	431.053	80.005	19.994	103.902	19.962	6.431	0.503
707.500	431.328	80.005	19.994	103.903	19.961	6.496	0.516
708.000	431.556	80.004	19.995	103.904	19.960	6.574	0.511
708.500	431.816	80.004	19.996	103.907	19.959	6.690	0.496
709.000	432.060	80.003	19.995	103.906	19.958	6.757	0.496
709.500	432.283	80.004	19.994	103.910	19.956	6.863	0.485
710.000	432.537	80.005	19.993	103.910	19.955	6.950	0.472
710.500	432.796	80.003	19.995	103.907	19.954	7.027	0.495
711.000	433.021	80.005	19.995	103.907	19.955	6.990	0.498
711.500	433.326	80.004	19.994	103.904	19.951	7.232	0.507
712.000	433.558	80.004	19.994	103.899	19.950	7.326	0.534
712.500	433.829	80.003	19.994	103.901	19.952	7.180	0.520
713.000	434.065	80.004	19.994	103.902	19.949	7.437	0.505
713.500	434.323	80.003	19.995	103.901	19.948	7.472	0.501
714.000	434.575	80.005	19.994	103.903	19.945	7.692	0.502
714.500	434.852	80.003	19.994	103.907	19.945	7.716	0.519
715.000	435.066	80.004	19.994	103.908	19.942	7.893	0.510
715.500	435.328	80.005	19.994	103.909	19.942	7.952	0.483
716.000	435.596	80.004	19.994	103.909	19.937	8.317	0.503
716.500	435.833	80.006	19.993	103.911	19.936	8.392	0.518
717.000	436.096	80.004	19.994	103.912	19.939	8.168	0.503
717.500	436.354	80.004	19.995	103.911	19.933	8.612	0.511
718.000	436.568	80.005	19.994	103.913	19.932	8.702	0.497
718.500	436.789	80.006	19.994	103.915	19.934	8.547	0.453
719.000	437.065	80.006	19.995	103.915	19.928	8.949	0.465
719.500	437.349	80.004	19.995	103.914	19.926	9.120	0.528
720.000	437.540	80.006	19.994	103.914	19.924	9.232	0.518
720.500	437.825	80.006	19.994	103.909	19.922	9.418	0.476
721.000	438.068	80.006	19.995	103.902	19.918	9.693	0.502
721.500	438.283	80.005	19.992	103.895	19.917	9.778	0.493
722.000	438.572	80.005	19.994	103.889	19.915	9.949	0.481
722.500	438.829	80.006	19.995	103.887	19.912	10.137	0.525
723.000	439.079	80.006	19.995	103.891	19.913	10.084	0.526
723.500	439.326	80.006	19.994	103.898	19.910	10.328	0.502
724.000	439.560	80.006	19.994	103.905	19.904	10.737	0.489
724.500	439.804	80.006	19.994	103.913	19.904	10.705	0.480
725.000	440.071	80.006	19.995	103.911	19.898	11.149	0.494
725.500	440.363	80.007	19.993	103.907	19.896	11.306	0.535
726.000	440.558	80.006	19.995	103.907	19.894	11.483	0.523
726.500	440.838	80.006	19.995	103.906	19.891	11.693	0.481
727.000	441.061	80.006	19.994	103.904	19.889	11.849	0.489
727.500	441.324	80.006	19.994	103.905	19.889	11.861	0.495
728.000	441.593	80.008	19.995	103.906	19.882	12.391	0.509
728.500	441.846	80.006	19.994	103.906	19.882	12.377	0.526
729.000	442.063	80.006	19.993	103.906	19.881	12.458	0.496
729.500	442.349	80.007	19.993	103.907	19.873	13.004	0.487
730.000	442.547	80.006	19.995	103.912	19.873	13.043	0.494
730.500	442.819	80.006	19.994	103.914	19.868	13.395	0.477
731.000	443.081	80.006	19.993	103.916	19.863	13.785	0.502
731.500	443.342	80.006	19.994	103.916	19.863	13.779	0.528
732.000	443.596	80.005	19.994	103.916	19.860	14.031	0.519
732.500	443.837	80.006	19.994	103.916	19.855	14.374	0.505
733.000	444.123	80.004	19.993	103.916	19.851	14.681	0.511
733.500	444.335	80.004	19.994	103.916	19.849	14.783	0.513
734.000	444.599	80.003	19.994	103.917	19.846	15.005	0.487
734.500	444.851	80.002	19.994	103.917	19.843	15.266	0.496
735.000	445.089	80.003	19.994	103.913	19.837	15.708	0.503
735.500	445.336	80.004	19.994	103.915	19.835	15.846	0.487
736.000	445.592	80.004	19.995	103.915	19.830	16.250	0.494
736.500	445.862	80.005	19.994	103.915	19.830	16.221	0.514
737.000	446.106	80.004	19.994	103.911	19.824	16.683	0.520
737.500	446.361	80.004	19.995	103.913	19.820	16.958	0.507
738.000	446.618	80.003	19.994	103.911	19.812	17.547	0.505
738.500	446.878	80.004	19.995	103.911	19.810	17.663	0.514
739.000	447.144	80.003	19.994	103.911	19.808	17.843	0.522
739.500	447.357	80.002	19.994	103.913	19.805	18.104	0.502
740.000	447.624	80.003	19.994	103.911	19.799	18.513	0.479
740.500	447.889	80.004	19.994	103.913	19.797	18.695	0.506
741.000	448.109	80.005	19.994	103.912	19.797	18.654	0.509
741.500	448.400	80.003	19.994	103.911	19.791	19.095	0.499
742.000	448.615	80.003	19.995	103.913	19.787	19.433	0.509
742.500	448.855	80.004	19.994	103.916	19.782	19.739	0.480
743.000	449.146	80.004	19.995	103.915	19.781	19.865	0.493
743.500	449.394	80.004	19.994	103.916	19.777	20.137	0.535
744.000	449.642	80.004	19.994	103.915	19.777	20.111	0.517
744.500	449.879	80.004	19.994	103.912	19.773	20.425	0.490
745.000	450.161	80.004	19.995	103.913	19.770	20.686	0.502
745.500	450.387	80.004	19.995	103.913	19.765	21.042	0.514
746.000	450.658	80.004	19.995	103.912	19.762	21.275	0.503
746.500	450.924	80.005	19.995	103.911	19.757	21.590	0.517
747.000	451.168	80.004	19.995	103.914	19.755	21.739	0.523
747.500	451.394	80.005	19.994	103.913	19.750	22.108	0.490
748.000	451.699	80.004	19.995	103.912	19.748	22.267	0.501
748.500	451.890	80.004	19.995	103.912	19.746	22.461	0.514
749.000	452.223	80.004	19.994	103.912	19.743	22.641	0.510
749.500	452.426	80.003	19.995	103.913	19.741	22.770	0.530
750.000	452.670	80.003	19.995	103.915	19.737	23.118	0.492
750.500	452.942	80.004	19.995	103.916	19.734	23.311	0.482
751.000	453.208	80.003	19.996	103.916	19.733	23.375	0.527
751.500	453.443	80.003	19.995	103.917	19.733	23.384	0.519
752.000	453.700	80.004	19.995	103.916	19.731	23.542	0.497
752.500	453.972	80.004	19.995	103.914	19.731	23.571	0.510
753.000	454.206	80.004	19.996	103.913	19.733	23.384	0.517
753.500	454.484	80.003	19.996	103.911	19.733	23.404	0.509
754.000	454.732	80.004	19.996	103.909	19.734	23.355	0.519
754.500	454.974	80.003	19.995	103.908	19.730	23.596	0.508
755.000	455.268	80.005	19.996	103.908	19.732	23.495	0.513
755.500	455.526	80.004	19.995	103.909	19.731	23.507	0.545
756.000	455.780	80.004	19.995	103.910	19.727	23.809	0.532
756.500	456.052	80.004	19.995	103.911	19.727	23.836	0.519
757.000	456.305	80.005	19.995	103.912	19.728	23.772	0.525
757.500	456.533	80.004	19.995	103.912	19.724	24.092	0.503
758.000	456.788	80.003	19.995	103.912	19.719	24.445	0.482
758.500	457.069	80.005	19.995	103.912	19.719	24.450	0.509
759.000	457.318	80.004	19.995	103.915	19.716	24.658	0.533
759.500	457.547	80.005	19.995	103.917	19.717	24.620	0.504
760.000	457.836	80.005	19.996	103.919	19.712	24.929	0.498
760.500	458.058	80.005	19.995	103.921	19.708	25.270	0.514
761.000	458.302	80.004	19.995	103.928	19.707	25.372	0.489
761.500	458.578	80.004	19.994	103.934	19.707	25.369	0.493
762.000	458.860	80.005	19.995	103.940	19.707	25.354	0.539
762.500	459.116	80.003	19.995	103.945	19.708	25.290	0.548
763.000	459.395	80.005	19.995	103.949	19.711	25.039	0.536
763.500	459.653	80.004	19.995	103.948	19.717	24.615	0.535
764.000	459.904	80.004	19.996	103.942	19.716	24.649	0.523
764.500	460.130	80.004	19.996	103.934	19.720	24.360	0.493
765.000	460.425	80.004	19.995	103.922	19.723	24.174	0.499
765.500	460.675	80.004	19.995	103.909	19.728	23.767	0.533
766.000	460.928	80.004	19.996	103.895	19.728	23.753	0.524
766.500	461.202	80.005	19.994	103.885	19.732	23.450	0.515
767.000	461.471	80.003	19.995	103.879	19.732	23.497	0.535
767.500	461.729	80.004	19.995	103.879	19.731	23.557	0.535
768.000	462.016	80.004	19.995	103.887	19.730	23.608	0.537
768.500	462.214	80.004	19.996	103.894	19.731	23.533	0.515
769.000	462.486	80.004	19.995	103.906	19.729	23.689	0.477
769.500	462.713	80.004	19.994	103.918	19.724	24.028	0.485
770.000	463.007	80.003	19.995	103.930	19.721	24.280	0.510
770.500	463.240	80.003	19.995	103.939	19.720	24.344	0.524
771.000	463.532	80.002	19.996	103.954	19.713	24.880	0.526
771.500	463.759	80.004	19.996	103.964	19.711	25.053	0.523
772.000	463.982	80.003	19.995	103.973	19.705	25.475	0.485
772.500	464.221	80.004	19.996	103.978	19.700	25.875	0.456
773.000	464.496	80.002	19.996	103.977	19.694	26.289	0.488
773.500	464.753	80.003	19.996	103.970	19.687	26.795	0.523
774.000	465.031	80.004	19.994	103.964	19.683	27.096	0.534
774.500	465.252	80.004	19.996	103.953	19.673	27.881	0.517
775.000	465.495	80.004	19.996	103.942	19.665	28.423	0.481
775.500	465.800	80.004	19.995	103.934	19.662	28.657	0.506
776.000	466.044	80.004	19.996	103.925	19.656	29.069	0.548
776.500	466.318	80.003	19.996	103.917	19.652	29.399	0.534
777.000	466.542	80.005	19.996	103.909	19.641	30.239	0.508
777.500	466.827	80.004	19.995	103.904	19.635	30.665	0.503
778.001	467.096	80.005	19.996	103.904	19.622	31.594	0.531
778.500	467.327	80.005	19.995	103.905	19.617	31.991	0.527
779.000	467.603	80.005	19.996	103.905	19.609	32.551	0.504
779.500	467.806	80.004	19.995	103.910	19.602	33.102	0.493
780.000	468.068	80.005	19.996	103.915	19.592	33.843	0.471
780.500	468.314	80.005	19.994	103.917	19.580	34.762	0.486
781.000	468.579	80.006	19.995	103.922	19.576	35.003	0.510
781.500	468.832	80.004	19.995	103.928	19.559	36.284	0.515
782.000	469.084	80.005	19.997	103.936	19.552	36.801	0.512
782.500	469.338	80.005	19.996	103.946	19.542	37.542	0.506
783.000	469.614	80.006	19.995	103.953	19.536	37.967	0.518
783.500	469.839	80.004	19.996	103.955	19.519	39.214	0.515
784.000	470.120	80.005	19.995	103.958	19.502	40.463	0.503
784.500	470.395	80.004	19.995	103.958	19.495	41.032	0.531
785.000	470.677	80.005	19.995	103.955	19.483	41.927	0.557
785.500	470.881	80.004	19.995	103.950	19.472	42.704	0.521
786.000	471.155	80.005	19.994	103.943	19.462	43.438	0.482
786.500	471.444	80.004	19.995	103.934	19.455	43.997	0.520
787.000	471.676	80.005	19.994	103.928	19.453	44.121	0.542
787.500	471.956	80.005	19.995	103.923	19.440	45.145	0.517
788.000	472.252	80.006	19.994	103.924	19.442	44.958	0.544
788.500	472.410	80.005	19.995	103.924	19.429	45.973	0.515
789.000	472.714	80.005	19.994	103.923	19.428	46.013	0.458
789.500	472.973	80.004	19.994	103.919	19.426	46.192	0.512
790.000	473.246	80.006	19.994	103.916	19.427	46.107	0.547
790.500	473.565	80.005	19.995	103.913	19.430	45.881	0.562
791.000	473.850	80.005	19.994	103.917	19.440	45.169	0.598
791.500	473.983	80.004	19.995	103.924	19.448	44.539	0.511
792.000	474.275	80.006	19.994	103.926	19.461	43.589	0.422
792.500	474.553	80.005	19.994	103.920	19.476	42.509	0.498
793.000	474.874	80.005	19.993	103.913	19.483	41.959	0.584
793.500	475.125	80.005	19.994	103.901	19.496	40.985	0.585
794.000	475.393	80.006	19.996	103.885	19.507	40.146	0.545
794.500	475.571	80.005	19.995	103.878	19.519	39.270	0.483
795.000	475.973	80.004	19.994	103.879	19.526	38.743	0.513
795.500	476.093	80.005	19.993	103.886	19.532	38.329	0.551
796.000	476.192	80.004	19.993	103.899	19.535	38.056	0.371
796.500	476.966	80.005	19.995	103.917	19.539	37.763	0.546
797.000	477.299	80.006	19.994	103.938	19.533	38.214	0.990
797.500	476.935	80.003	19.994	103.963	19.529	38.488	0.539
798.000	476.964	80.005	19.993	103.990	19.522	38.995	-0.183
798.500	477.278	80.003	19.993	104.017	19.515	39.505	0.004
799.000	477.560	80.004	19.994	104.040	19.500	40.663	0.470
799.500	477.930	80.005	19.992	104.063	19.485	41.707	0.624
800.000	478.356	80.005	19.993	104.084	19.467	43.076	0.724
800.500	478.437	80.006	19.994	104.102	19.444	44.745	0.652
801.000	478.745	80.003	19.995	104.112	19.419	46.610	0.448
801.500	479.245	80.004	19.994	104.118	19.400	48.078	0.598
802.000	479.480	80.004	19.995	104.115	19.371	50.234	0.771
802.500	479.735	80.005	19.994	104.105	19.348	51.899	0.613
803.000	480.072	80.005	19.993	104.089	19.319	54.032	0.542
803.500	480.293	80.005	19.994	104.072	19.292	56.057	0.575
804.000	480.465	80.006	19.993	104.059	19.264	58.109	0.475
804.500	480.703	80.005	19.995	104.046	19.237	60.108	0.402
805.000	480.986	80.006	19.993	104.029	19.212	61.960	0.465
805.500	481.364	80.006	19.993	104.010	19.187	63.855	0.591
806.000	481.539	80.007	19.995	103.991	19.161	65.712	0.607
806.500	481.870	80.006	19.994	103.967	19.134	67.706	0.530
807.000	482.119	80.007	19.993	103.945	19.114	69.197	0.544
807.500	482.255	80.007	19.994	103.925	19.094	70.724	0.483
808.000	482.646	80.006	19.996	103.910	19.073	72.218	0.456
808.500	482.782	80.006	19.994	103.897	19.053	73.699	0.527
809.000	483.042	80.006	19.994	103.892	19.034	75.114	0.461
809.500	483.357	80.007	19.994	103.889	19.013	76.722	0.486
810.000	483.607	80.007	19.994	103.886	18.995	78.057	0.570
810.500	483.901	80.007	19.993	103.885	18.976	79.440	0.554
811.000	484.060	80.007	19.994	103.890	18.957	80.900	0.498
811.500	484.284	80.007	19.994	103.897	18.940	82.206	0.418
812.001	484.597	80.006	19.994	103.904	18.924	83.357	0.460
812.500	484.931	80.006	19.994	103.920	18.909	84.496	0.592
813.000	485.126	80.006	19.994	103.934	18.903	84.973	0.588
813.500	485.347	80.005	19.993	103.944	18.888	86.091	0.473
814.000	485.599	80.005	19.994	103.955	18.883	86.422	0.444
814.500	485.906	80.006	19.994	103.966	18.881	86.623	0.516
815.000	486.124	80.005	19.993	103.961	18.880	86.662	0.542
815.500	486.421	80.005	19.995	103.953	18.877	86.909	0.520
816.000	486.608	80.004	19.994	103.947	18.878	86.858	0.500
816.500	486.878	80.005	19.995	103.935	18.877	86.894	0.471
817.000	487.081	80.004	19.994	103.923	18.880	86.692	0.465
817.500	487.382	80.005	19.995	103.921	18.883	86.447	0.488
818.000	487.703	80.005	19.995	103.920	18.887	86.123	0.563
818.500	487.803	80.005	19.995	103.919	18.892	85.696	0.522
819.000	488.115	80.005	19.995	103.913	18.890	85.850	0.417
819.500	488.377	80.005	19.995	103.914	18.895	85.452	0.493
820.000	488.664	80.005	19.994	103.919	18.894	85.524	0.562
820.500	488.893	80.005	19.993	103.927	18.892	85.665	0.533
821.000	489.086	80.006	19.993	103.942	18.893	85.647	0.469
821.500	489.436	80.005	19.994	103.963	18.888	85.993	0.482
822.000	489.618	80.005	19.993	103.987	18.881	86.511	0.538
822.500	489.927	80.005	19.995	104.012	18.867	87.571	0.512
823.000	490.191	80.005	19.995	104.033	18.852	88.692	0.532
823.500	490.398	80.004	19.994	104.045	18.838	89.718	0.522
824.000	490.672	80.005	19.994	104.052	18.821	90.968	0.477
824.500	490.948	80.003	19.995	104.064	18.807	92.098	0.516
825.000	491.213	80.004	19.994	104.082	18.793	93.177	0.545
825.500	491.472	80.004	19.993	104.096	18.781	94.091	0.532
826.000	491.682	80.005	19.995	104.104	18.768	95.054	0.496
826.500	491.939	80.005	19.994	104.109	18.756	95.957	0.468
827.000	492.212	80.005	19.994	104.104	18.744	96.814	0.498
827.500	492.451	80.004	19.993	104.083	18.734	97.605	0.521
828.000	492.686	80.005	19.994	104.064	18.723	98.393	0.493
828.500	492.972	80.004	19.995	104.047	18.714	98.980	0.497
829.000	493.226	80.005	19.994	104.027	18.702	99.914	0.530
829.500	493.455	80.005	19.993	104.003	18.696	100.293	0.512
830.000	493.720	80.006	19.993	103.983	18.689	100.810	0.489
830.500	493.948	80.006	19.994	103.967	18.684	101.132	0.493
831.000	494.202	80.005	19.994	103.963	18.676	101.749	0.487
831.500	494.468	80.005	19.994	103.964	18.667	102.415	0.501
832.000	494.732	80.005	19.993	103.967	18.655	103.302	0.525
832.500	494.967	80.004	19.994	103.971	18.639	104.459	0.515
833.000	495.224	80.005	19.994	103.976	18.621	105.811	0.496
833.500	495.506	80.004	19.994	103.979	18.597	107.610	0.516
834.000	495.702	80.005	19.994	103.985	18.567	109.865	0.508
834.500	495.971	80.005	19.994	104.001	18.535	112.201	0.471
835.000	496.211	80.006	19.994	104.022	18.506	114.366	0.487
835.500	496.462	80.005	19.994	104.059	18.474	116.706	0.500
836.000	496.712	80.004	19.994	104.100	18.446	118.818	0.497
836.500	496.972	80.005	19.993	104.136	18.419	120.841	0.506
837.000	497.201	80.005	19.993	104.165	18.392	122.852	0.499
837.500	497.455	80.006	19.995	104.181	18.366	124.789	0.486
838.000	497.710	80.005	19.994	104.179	18.342	126.522	0.496
838.500	497.948	80.006	19.996	104.165	18.317	128.440	0.501
839.000	498.210	80.006	19.995	104.145	18.292	130.249	0.497
839.500	498.478	80.004	19.994	104.117	18.267	132.112	0.515
840.000	498.767	80.006	19.995	104.086	18.243	133.934	0.544
840.500	498.954	80.004	19.994	104.053	18.216	135.911	0.517
841.000	499.244	80.005	19.996	104.021	18.188	138.022	0.476
841.500	499.447	80.004	19.993	104.000	18.166	139.644	0.485
842.000	499.720	80.003	19.996	103.995	18.141	141.580	0.484
842.500	499.965	80.004	19.996	103.999	18.121	143.002	0.497
843.000	500.209	80.004	19.996	104.007	18.100	144.550	0.503
843.500	500.465	80.003	19.995	104.020	18.082	145.926	0.494
844.000	500.732	80.003	19.994	104.030	18.062	147.338	0.512
844.500	500.991	80.003	19.995	104.032	18.046	148.571	0.525
845.000	501.203	80.003	19.996	104.032	18.030	149.719	0.498
845.500	501.473	80.004	19.995	104.034	18.012	151.088	0.476
846.000	501.739	80.003	19.994	104.039	17.996	152.282	0.510
846.500	501.986	80.004	19.995	104.040	17.974	153.872	0.525
847.000	502.239	80.004	19.996	104.042	17.959	155.066	0.506
847.500	502.509	80.004	19.994	104.049	17.944	156.201	0.511
848.000	502.752	80.003	19.994	104.055	17.920	157.989	0.518
848.500	503.012	80.005	19.995	104.058	17.904	159.159	0.508
849.000	503.292	80.003	19.995	104.070	17.883	160.739	0.522
849.500	503.517	80.004	19.993	104.078	17.864	162.138	0.522
850.000	503.803	80.004	19.995	104.080	17.845	163.507	0.508
850.500	504.011	80.003	19.995	104.081	17.828	164.760	0.503
851.000	504.259	80.003	19.995	104.090	17.811	166.008	0.475
851.500	504.498	80.004	19.994	104.102	17.788	167.728	0.471
852.000	504.769	80.003	19.995	104.116	17.774	168.816	0.499
852.500	505.007	80.003	19.994	104.130	17.758	169.967	0.509
853.000	505.291	80.004	19.994	104.140	17.742	171.176	0.515
853.500	505.543	80.003	19.996	104.142	17.729	172.111	0.529
854.000	505.835	80.005	19.995	104.137	17.707	173.725	0.541
854.500	506.106	80.004	19.993	104.127	17.690	175.008	0.554
855.000	506.317	80.005	19.995	104.112	17.667	176.727	0.522
855.500	506.584	80.006	19.995	104.102	17.644	178.450	0.480
856.000	506.843	80.005	19.994	104.099	17.623	180.009	0.502
856.500	507.093	80.005	19.995	104.099	17.604	181.483	0.517
857.000	507.312	80.005	19.994	104.107	17.577	183.454	0.489
857.500	507.590	80.005	19.994	104.122	17.557	184.999	0.483
858.001	507.853	80.004	19.994	104.138	17.540	186.288	0.519
858.501	508.132	80.005	19.994	104.153	17.518	187.918	0.542
859.000	508.358	80.006	19.995	104.164	17.497	189.482	0.523
859.500	508.620	80.004	19.995	104.169	17.476	191.048	0.496
860.000	508.910	80.005	19.994	104.171	17.461	192.186	0.521
860.500	509.153	80.005	19.994	104.169	17.438	193.891	0.543
861.000	509.427	80.005	19.994	104.162	17.416	195.527	0.525
861.500	509.677	80.005	19.995	104.156	17.399	196.791	0.520
862.000	509.922	80.006	19.995	104.152	17.377	198.398	0.509
862.500	510.182	80.006	19.994	104.150	17.357	199.941	0.500
863.000	510.451	80.005	19.995	104.150	17.339	201.241	0.517
863.500	510.689	80.004	19.993	104.150	17.317	202.849	0.518
864.000	510.938	80.006	19.994	104.146	17.301	204.095	0.497
864.500	511.216	80.005	19.994	104.146	17.280	205.590	0.507
865.000	511.434	80.005	19.994	104.143	17.263	206.902	0.512
865.500	511.669	80.005	19.995	104.144	17.244	208.282	0.474
866.000	511.945	80.005	19.994	104.150	17.223	209.853	0.481
866.500	512.199	80.006	19.995	104.161	17.202	211.423	0.520
867.000	512.414	80.005	19.994	104.170	17.180	213.011	0.500
867.500	512.703	80.005	19.994	104.180	17.158	214.691	0.487
868.000	512.940	80.004	19.995	104.192	17.135	216.425	0.515
868.500	513.208	80.005	19.995	104.203	17.110	218.249	0.516
869.000	513.473	80.004	19.995	104.211	17.088	219.929	0.519
869.500	513.733	80.004	19.994	104.219	17.063	221.738	0.529
870.000	513.987	80.005	19.995	104.228	17.035	223.862	0.519
870.500	514.268	80.005	19.995	104.232	17.010	225.692	0.525
871.000	514.530	80.003	19.996	104.235	16.988	227.364	0.539
871.500	514.795	80.004	19.994	104.243	16.959	229.474	0.535
872.000	515.071	80.004	19.995	104.247	16.934	231.383	0.534
872.500	515.315	80.006	19.996	104.248	16.906	233.494	0.531
873.000	515.589	80.004	19.997	104.251	16.881	235.286	0.519
873.500	515.805	80.005	19.995	104.251	16.856	237.149	0.504
874.000	516.039	80.005	19.995	104.247	16.828	239.269	0.470
874.500	516.332	80.005	19.996	104.244	16.800	241.353	0.488
875.000	516.609	80.005	19.996	104.244	16.771	243.479	0.548
875.500	516.869	80.004	19.995	104.244	16.745	245.447	0.554
876.000	517.152	80.005	19.996	104.242	16.718	247.451	0.540
876.500	517.340	80.005	19.995	104.238	16.686	249.852	0.507
877.000	517.637	80.005	19.996	104.238	16.659	251.851	0.477
877.500	517.904	80.006	19.995	104.237	16.631	253.921	0.525
878.000	518.138	80.004	19.995	104.242	16.602	256.087	0.533
878.500	518.385	80.004	19.994	104.247	16.577	257.939	0.491
879.000	518.686	80.003	19.994	104.253	16.553	259.750	0.514
879.500	518.893	80.006	19.995	104.258	16.521	262.110	0.528
880.000	519.188	80.005	19.995	104.260	16.494	264.174	0.505
880.500	519.451	80.005	19.996	104.257	16.470	265.904	0.531
881.000	519.694	80.006	19.994	104.257	16.441	268.052	0.532
881.500	519.954	80.004	19.994	104.260	16.417	269.869	0.504
882.000	520.153	80.007	19.995	104.262	16.390	271.860	0.481
882.500	520.430	80.006	19.995	104.267	16.368	273.527	0.468
883.000	520.711	80.007	19.993	104.271	16.344	275.325	0.517
883.500	520.937	80.007	19.994	104.274	16.320	277.145	0.532
884.000	521.221	80.007	19.993	104.275	16.299	278.663	0.508
884.500	521.479	80.007	19.993	104.278	16.276	280.384	0.526
885.000	521.699	80.006	19.995	104.279	16.258	281.687	0.510
885.500	521.935	80.006	19.993	104.282	16.238	283.154	0.467
886.000	522.213	80.006	19.994	104.282	16.220	284.437	0.485
886.500	522.463	80.008	19.995	104.284	16.202	285.830	0.521
887.000	522.762	80.007	19.995	104.287	16.185	287.075	0.539
887.500	522.992	80.006	19.994	104.289	16.168	288.311	0.539
888.000	523.248	80.008	19.993	104.289	16.155	289.223	0.507
888.500	523.503	80.007	19.994	104.293	16.139	290.449	0.498
889.000	523.753	80.007	19.995	104.298	16.128	291.270	0.508
889.500	524.028	80.007	19.993	104.302	16.114	292.278	0.516
890.000	524.283	80.008	19.994	104.305	16.102	293.140	0.528
890.500	524.531	80.007	19.995	104.310	16.089	294.136	0.516
891.000	524.760	80.005	19.993	104.311	16.077	295.079	0.490
891.500	525.035	80.008	19.994	104.309	16.069	295.643	0.490
892.000	525.259	80.008	19.994	104.307	16.060	296.359	0.502
892.500	525.573	80.007	19.994	104.309	16.056	296.610	0.518
893.001	525.789	80.007	19.995	104.314	16.050	297.066	0.534
893.500	526.006	80.006	19.994	104.323	16.047	297.269	0.482
894.000	526.323	80.005	19.994	104.330	16.050	297.095	0.484
894.500	526.568	80.006	19.993	104.333	16.046	297.356	0.548
895.000	526.836	80.006	19.993	104.330	16.048	297.193	0.537
895.501	527.046	80.005	19.996	104.323	16.054	296.771	0.495
896.000	527.292	80.007	19.993	104.312	16.059	296.339	0.467
896.500	527.552	80.004	19.994	104.302	16.064	295.992	0.481
897.000	527.856	80.004	19.995	104.295	16.071	295.448	0.535
897.500	528.106	80.005	19.995	104.290	16.083	294.603	0.559
898.000	528.349	80.003	19.994	104.287	16.096	293.571	0.523
898.500	528.609	80.004	19.995	104.283	16.113	292.333	0.498
899.000	528.858	80.004	19.994	104.280	16.126	291.342	0.506
899.500	529.097	80.005	19.995	104.275	16.143	290.037	0.498
900.000	529.341	80.005	19.995	104.272	16.164	288.498	0.485
900.500	529.592	80.004	19.994	104.271	16.182	287.105	0.489
901.000	529.867	80.005	19.994	104.271	16.208	285.201	0.511
901.500	530.165	80.005	19.993	104.271	16.231	283.437	0.550
902.000	530.421	80.005	19.995	104.277	16.263	281.080	0.564
902.500	530.632	80.004	19.996	104.284	16.292	278.917	0.511
903.000	530.912	80.004	19.996	104.288	16.321	276.752	0.479
903.500	531.172	80.005	19.995	104.290	16.354	274.244	0.515
904.000	531.437	80.004	19.994	104.288	16.390	271.557	0.533
904.500	531.663	80.004	19.995	104.284	16.425	268.986	0.508
905.000	531.916	80.005	19.995	104.281	16.465	266.017	0.485
905.500	532.223	80.004	19.994	104.279	16.508	262.833	0.519
906.000	532.435	80.005	19.994	104.274	16.545	260.082	0.539
906.500	532.683	80.005	19.995	104.274	16.592	256.614	0.490
907.000	532.924	80.004	19.995	104.275	16.636	253.320	0.475
907.500	533.215	80.003	19.995	104.269	16.682	249.896	0.510
908.001	533.474	80.003	19.996	104.266	16.733	246.066	0.541
908.501	533.700	80.004	19.994	104.267	16.785	242.230	0.517
909.000	533.965	80.005	19.994	104.264	16.838	238.271	0.488
909.500	534.226	80.005	19.993	104.258	16.897	233.941	0.509
910.000	534.510	80.006	19.994	104.253	16.951	229.868	0.536
910.500	534.738	80.004	19.994	104.245	17.009	225.586	0.528
911.000	535.046	80.005	19.994	104.235	17.066	221.320	0.524
911.500	535.269	80.005	19.993	104.229	17.127	216.783	0.533
912.000	535.530	80.006	19.994	104.224	17.187	212.294	0.508
912.500	535.770	80.004	19.994	104.217	17.246	207.914	0.493
913.000	536.009	80.005	19.995	104.212	17.311	203.100	0.490
913.500	536.280	80.004	19.995	104.207	17.374	198.433	0.494
914.000	536.480	80.006	19.995	104.201	17.432	194.085	0.490
914.500	536.752	80.004	19.993	104.196	17.498	189.218	0.471
915.000	537.017	80.005	19.993	104.196	17.563	184.348	0.505
915.500	537.254	80.005	19.995	104.195	17.626	179.718	0.520
916.000	537.531	80.005	19.993	104.194	17.690	174.955	0.508
916.500	537.773	80.004	19.994	104.194	17.757	169.980	0.516
917.000	538.022	80.005	19.995	104.192	17.822	165.124	0.504
917.500	538.274	80.005	19.993	104.191	17.882	160.684	0.496
918.000	538.556	80.004	19.994	104.190	17.945	156.004	0.518
918.500	538.794	80.005	19.993	104.190	18.010	151.152	0.528
919.000	539.045	80.005	19.995	104.187	18.069	146.814	0.505
919.501	539.320	80.005	19.993	104.184	18.132	142.125	0.507
920.001	539.535	80.005	19.993	104.184	18.190	137.798	0.508
920.500	539.795	80.005	19.993	104.182	18.251	133.290	0.482
921.000	540.030	80.005	19.993	104.176	18.309	128.927	0.484
921.500	540.298	80.005	19.995	104.170	18.365	124.824	0.499
922.000	540.565	80.004	19.995	104.162	18.418	120.843	0.519
922.500	540.810	80.006	19.994	104.152	18.475	116.641	0.524
923.000	541.083	80.005	19.993	104.142	18.531	112.502	0.516
923.500	541.324	80.004	19.994	104.133	18.579	108.949	0.516
924.000	541.561	80.006	19.994	104.127	18.628	105.262	0.495
924.500	541.810	80.006	19.993	104.124	18.684	101.146	0.481
925.000	542.081	80.004	19.994	104.120	18.736	97.241	0.503
925.500	542.315	80.006	19.995	104.118	18.785	93.606	0.513
926.000	542.585	80.004	19.994	104.119	18.831	90.246	0.505
926.500	542.815	80.005	19.994	104.117	18.870	87.313	0.502
927.000	543.099	80.004	19.994	104.115	18.911	84.272	0.507
927.500	543.329	80.006	19.994	104.110	18.956	80.926	0.514
928.000	543.580	80.004	19.994	104.106	18.991	78.368	0.497
928.500	543.835	80.004	19.995	104.099	19.033	75.284	0.494
929.000	544.086	80.004	19.995	104.093	19.066	72.770	0.506
929.501	544.330	80.005	19.994	104.086	19.101	70.167	0.500
930.000	544.574	80.003	19.995	104.079	19.133	67.836	0.491
930.500	544.835	80.003	19.995	104.067	19.167	65.308	0.496
931.000	545.088	80.004	19.994	104.057	19.199	62.968	0.510
931.500	545.336	80.004	19.993	104.048	19.226	60.926	0.507
932.000	545.545	80.004	19.994	104.040	19.257	58.652	0.479
932.500	545.834	80.004	19.995	104.034	19.284	56.671	0.478
933.000	546.079	80.003	19.995	104.032	19.305	55.080	0.516
933.500	546.336	80.003	19.995	104.026	19.331	53.159	0.518
934.000	546.601	80.002	19.996	104.019	19.356	51.330	0.512
934.500	546.813	80.003	19.995	104.010	19.376	49.847	0.499
935.000	547.102	80.003	19.996	104.003	19.398	48.204	0.489
935.500	547.329	80.002	19.997	103.998	19.421	46.491	0.509
936.000	547.622	80.004	19.996	103.994	19.442	44.958	0.518
936.500	547.859	80.003	19.994	103.989	19.460	43.573	0.525
937.000	548.114	80.004	19.995	103.987	19.476	42.413	0.511
937.500	548.343	80.003	19.998	103.984	19.495	41.042	0.488
938.000	548.592	80.004	19.995	103.982	19.512	39.757	0.481
938.500	548.862	80.004	19.994	103.976	19.527	38.637	0.498
939.000	549.160	80.003	19.996	103.973	19.545	37.275	0.543
939.500	549.409	80.004	19.995	103.967	19.556	36.487	0.558
940.000	549.643	80.005	19.995	103.960	19.575	35.122	0.515
940.500	549.893	80.004	19.994	103.950	19.586	34.280	0.483
941.000	550.175	80.003	19.996	103.949	19.598	33.363	0.508
941.500	550.410	80.005	19.994	103.942	19.610	32.479	0.525
942.000	550.677	80.004	19.995	103.939	19.620	31.731	0.510
942.500	550.926	80.004	19.995	103.937	19.628	31.136	0.509
943.000	551.163	80.006	19.995	103.933	19.641	30.222	0.501
943.500	551.412	80.005	19.996	103.928	19.650	29.565	0.485
944.000	551.660	80.006	19.994	103.929	19.662	28.659	0.491
944.500	551.928	80.005	19.994	103.926	19.670	28.048	0.507
945.000	552.175	80.006	19.994	103.926	19.678	27.453	0.516
945.500	552.448	80.006	19.994	103.926	19.686	26.888	0.518
946.000	552.698	80.005	19.995	103.924	19.697	26.036	0.521
946.500	552.932	80.005	19.996	103.921	19.703	25.584	0.503
947.000	553.171	80.005	19.995	103.920	19.709	25.139	0.478
947.500	553.407	80.007	19.995	103.913	19.715	24.688	0.474
948.000	553.728	80.007	19.993	103.913	19.721	24.296	0.516
948.500	553.937	80.006	19.994	103.912	19.726	23.899	0.543
949.000	554.234	80.007	19.993	103.908	19.734	23.323	0.518
949.500	554.493	80.006	19.994	103.908	19.740	22.882	0.532
950.000	554.737	80.006	19.995	103.910	19.745	22.508	0.530
950.500	554.999	80.006	19.995	103.911	19.747	22.392	0.504
951.000	555.251	80.006	19.995	103.911	19.755	21.795	0.509
951.500	555.469	80.006	19.995	103.908	19.761	21.315	0.492
952.000	555.749	80.005	19.994	103.901	19.766	20.936	0.484
952.500	556.003	80.005	19.994	103.900	19.770	20.683	0.516
953.000	556.209	80.006	19.994	103.898	19.778	20.055	0.497
953.501	556.502	80.005	19.995	103.898	19.779	19.973	0.480
954.000	556.776	80.006	19.994	103.901	19.782	19.731	0.533
954.500	557.057	80.007	19.994	103.905	19.787	19.402	0.561
955.000	557.295	80.006	19.996	103.906	19.790	19.154	0.537
955.500	557.517	80.006	19.994	103.905	19.794	18.914	0.489
956.000	557.774	80.006	19.994	103.905	19.793	18.968	0.470
956.500	558.022	80.006	19.996	103.907	19.800	18.438	0.492
957.000	558.280	80.006	19.994	103.906	19.806	18.020	0.506
957.500	558.565	80.006	19.995	103.901	19.808	17.814	0.525
958.000	558.830	80.005	19.995	103.896	19.812	17.512	0.547
958.500	559.065	80.004	19.995	103.893	19.814	17.399	0.525
959.000	559.316	80.005	19.995	103.887	19.816	17.254	0.492
959.500	559.564	80.005	19.994	103.887	19.819	17.022	0.493
960.000	559.839	80.006	19.995	103.890	19.821	16.880	0.511
960.500	560.122	80.005	19.995	103.895	19.825	16.575	0.540
961.000	560.372	80.005	19.994	103.899	19.828	16.347	0.545
961.500	560.600	80.005	19.994	103.906	19.828	16.326	0.505
962.000	560.850	80.005	19.996	103.907	19.833	15.966	0.478
962.500	561.090	80.005	19.997	103.909	19.834	15.903	0.484
963.000	561.367	80.006	19.995	103.910	19.838	15.634	0.504
963.500	561.641	80.005	19.996	103.907	19.842	15.336	0.534
964.000	561.866	80.006	19.996	103.902	19.840	15.453	0.525
964.500	562.114	80.005	19.996	103.903	19.844	15.182	0.486
965.000	562.387	80.007	19.996	103.901	19.845	15.065	0.496
965.500	562.618	80.007	19.996	103.899	19.845	15.139	0.512
966.000	562.917	80.005	19.996	103.899	19.850	14.699	0.517
966.500	563.141	80.006	19.994	103.901	19.853	14.527	0.527
967.000	563.390	80.007	19.994	103.899	19.852	14.599	0.499
967.500	563.662	80.006	19.995	103.896	19.852	14.587	0.497
968.000	563.931	80.006	19.995	103.891	19.855	14.328	0.531
968.500	564.185	80.006	19.995	103.887	19.858	14.110	0.532
969.000	564.422	80.005	19.995	103.886	19.861	13.898	0.507
969.500	564.656	80.006	19.995	103.881	19.861	13.921	0.481
970.000	564.921	80.007	19.997	103.879	19.863	13.751	0.485
970.500	565.186	80.008	19.995	103.880	19.864	13.718	0.514
971.000	565.445	80.007	19.995	103.880	19.863	13.738	0.528
971.500	565.699	80.006	19.995	103.882	19.867	13.500	0.519
972.000	565.953	80.007	19.994	103.887	19.868	13.424	0.510
972.501	566.231	80.006	19.994	103.894	19.868	13.392	0.520
973.001	566.475	80.007	19.995	103.895	19.868	13.397	0.527
973.500	566.732	80.006	19.994	103.898	19.866	13.568	0.511
974.000	566.997	80.007	19.995	103.895	19.871	13.200	0.511
974.500	567.276	80.007	19.994	103.890	19.871	13.215	0.533
975.000	567.491	80.005	19.996	103.884	19.874	12.927	0.519
975.500	567.779	80.007	19.994	103.882	19.871	13.171	0.499
976.000	567.980	80.005	19.995	103.878	19.876	12.816	0.496
976.500	568.225	80.006	19.995	103.881	19.874	12.930	0.467
977.000	568.529	80.005	19.995	103.885	19.873	13.055	0.498
977.500	568.784	80.005	19.994	103.889	19.872	13.086	0.554
978.000	569.055	80.006	19.993	103.893	19.876	12.787	0.542
978.500	569.336	80.005	19.994	103.897	19.876	12.779	0.539
979.000	569.587	80.004	19.993	103.896	19.874	12.930	0.542
979.500	569.809	80.005	19.993	103.895	19.875	12.855	0.502
980.000	570.110	80.005	19.993	103.894	19.876	12.800	0.498
980.500	570.345	80.005	19.993	103.893	19.879	12.578	0.530
981.000	570.618	80.005	19.994	103.891	19.879	12.577	0.522
981.500	570.879	80.005	19.993	103.888	19.879	12.604	0.521
982.000	571.116	80.003	19.994	103.885	19.883	12.313	0.516
982.500	571.386	80.004	19.993	103.883	19.882	12.331	0.503
983.000	571.630	80.004	19.994	103.882	19.883	12.300	0.511
983.500	571.920	80.004	19.993	103.884	19.885	12.170	0.524
984.000	572.190	80.003	19.994	103.890	19.886	12.101	0.547
984.500	572.441	80.003	19.994	103.892	19.889	11.868	0.540
985.000	572.649	80.004	19.993	103.897	19.886	12.100	0.490
985.500	572.963	80.003	19.994	103.901	19.889	11.878	0.491
986.000	573.227	80.002	19.995	103.899	19.888	11.925	0.550
986.500	573.456	80.004	19.994	103.893	19.889	11.865	0.535
987.000	573.705	80.003	19.994	103.890	19.891	11.677	0.486
987.500	573.969	80.004	19.993	103.885	19.892	11.626	0.496
988.000	574.258	80.004	19.993	103.880	19.892	11.652	0.533
988.500	574.518	80.004	19.993	103.880	19.891	11.673	0.551
989.000	574.765	80.003	19.993	103.881	19.896	11.331	0.528
989.500	575.046	80.004	19.994	103.884	19.897	11.230	0.517
990.000	575.304	80.004	19.994	103.885	19.893	11.560	0.534
990.500	575.528	80.004	19.994	103.886	19.892	11.643	0.511
991.000	575.776	80.003	19.992	103.887	19.892	11.662	0.477
991.500	576.027	80.004	19.994	103.886	19.897	11.252	0.486
992.000	576.290	80.003	19.994	103.885	19.895	11.412	0.507
992.500	576.554	80.002	19.995	103.887	19.898	11.149	0.520
993.000	576.803	80.002	19.994	103.886	19.898	11.160	0.520
993.500	577.039	80.002	19.994	103.885	19.898	11.201	0.499
994.000	577.334	80.005	19.993	103.884	19.897	11.255	0.508
994.500	577.562	80.003	19.993	103.885	19.898	11.183	0.527
995.000	577.854	80.003	19.994	103.890	19.897	11.258	0.521
995.500	578.144	80.003	19.993	103.895	19.895	11.411	0.551
996.000	578.374	80.003	19.994	103.898	19.896	11.345	0.551
996.500	578.625	80.006	19.994	103.898	19.896	11.302	0.501
997.000	578.901	80.005	19.993	103.895	19.898	11.184	0.504
997.500	579.132	80.004	19.994	103.889	19.898	11.179	0.517
998.000	579.430	80.004	19.994	103.882	19.898	11.184	0.518
998.500	579.679	80.003	19.993	103.879	19.898	11.149	0.538
999.000	579.974	80.004	19.994	103.880	19.901	10.947	0.545
999.500	580.210	80.003	19.995	103.881	19.901	10.968	0.538
1000.000	580.485	80.005	19.995	103.886	19.899	11.072	0.522
1000.500	580.744	80.004	19.995	103.889	19.903	10.793	0.523
1001.000	580.972	80.004	19.995	103.891	19.906	10.624	0.510
1001.500	581.237	80.004	19.995	103.892	19.903	10.811	0.490
1002.000	581.510	80.004	19.994	103.892	19.904	10.711	0.515
1002.500	581.724	80.003	19.994	103.891	19.903	10.825	0.513
1003.000	582.043	80.005	19.995	103.895	19.905	10.697	0.510
1003.500	582.261	80.004	19.993	103.898	19.905	10.650	0.535
1004.000	582.523	80.004	19.994	103.899	19.906	10.606	0.509
1004.500	582.793	80.005	19.994	103.902	19.907	10.529	0.506
1005.000	583.017	80.005	19.995	103.902	19.908	10.445	0.513
1005.500	583.282	80.006	19.995	103.895	19.905	10.639	0.491
1006.000	583.560	80.005	19.994	103.889	19.902	10.857	0.516
1006.500	583.819	80.005	19.994	103.886	19.903	10.792	0.540
1007.000	584.067	80.005	19.995	103.881	19.907	10.533	0.522
1007.500	584.311	80.004	19.994	103.877	19.904	10.738	0.500
1008.000	584.526	80.004	19.993	103.876	19.905	10.634	0.476
1008.500	584.801	80.004	19.994	103.876	19.907	10.507	0.475
1009.000	585.057	80.005	19.994	103.877	19.904	10.747	0.510
1009.500	585.295	80.004	19.994	103.877	19.905	10.664	0.513
1010.000	585.552	80.004	19.993	103.877	19.906	10.560	0.494
1010.500	585.784	80.004	19.994	103.877	19.906	10.615	0.492
1011.000	586.065	80.004	19.994	103.878	19.907	10.539	0.501
1011.500	586.335	80.005	19.994	103.878	19.903	10.790	0.532
1012.000	586.597	80.003	19.994	103.879	19.905	10.664	0.542
1012.500	586.832	80.003	19.994	103.879	19.908	10.448	0.515
1013.000	587.100	80.004	19.995	103.879	19.907	10.550	0.500
1013.500	587.353	80.004	19.995	103.879	19.906	10.572	0.512
1014.000	587.623	80.004	19.994	103.881	19.908	10.470	0.522
1014.500	587.878	80.003	19.994	103.881	19.907	10.490	0.524
1015.000	588.150	80.005	19.995	103.883	19.907	10.507	0.526
1015.500	588.418	80.003	19.994	103.886	19.906	10.560	0.533
1016.000	588.672	80.004	19.994	103.887	19.907	10.515	0.531
1016.500	588.932	80.004	19.994	103.890	19.909	10.358	0.518
1017.000	589.151	80.004	19.994	103.891	19.911	10.223	0.497
1017.500	589.417	80.004	19.994	103.889	19.906	10.570	0.482
1018.000	589.685	80.004	19.994	103.887	19.909	10.395	0.509
1018.500	589.939	80.003	19.994	103.885	19.909	10.359	0.528
1019.000	590.173	80.004	19.994	103.883	19.908	10.404	0.505
1019.500	590.448	80.005	19.994	103.888	19.909	10.388	0.498
1020.000	590.691	80.004	19.994	103.891	19.907	10.492	0.513
1020.500	590.918	80.004	19.995	103.889	19.910	10.295	0.494
1021.000	591.181	80.005	19.994	103.890	19.910	10.286	0.480
1021.500	591.414	80.003	19.993	103.888	19.909	10.398	0.493
1022.000	591.673	80.004	19.994	103.884	19.911	10.182	0.494
1022.500	591.937	80.005	19.994	103.886	19.910	10.329	0.508
1023.000	592.175	80.006	19.996	103.892	19.915	9.927	0.512
1023.500	592.438	80.005	19.995	103.894	19.914	9.961	0.501
1024.001	592.750	80.006	19.995	103.895	19.913	10.106	0.538
1024.500	592.950	80.005	19.995	103.893	19.913	10.075	0.544
1025.000	593.205	80.005	19.995	103.889	19.912	10.149	0.484
1025.500	593.456	80.006	19.995	103.887	19.908	10.403	0.480
1026.000	593.741	80.006	19.995	103.889	19.911	10.210	0.521
1026.500	593.980	80.007	19.994	103.889	19.913	10.086	0.530
1027.000	594.253	80.006	19.994	103.888	19.913	10.082	0.518
1027.501	594.464	80.006	19.995	103.886	19.914	10.011	0.498
1028.001	594.732	80.006	19.994	103.882	19.911	10.192	0.481
1028.500	595.022	80.005	19.996	103.876	19.913	10.058	0.518
1029.000	595.294	80.005	19.995	103.875	19.914	9.972	0.560
1029.500	595.498	80.006	19.995	103.876	19.913	10.064	0.519
1030.000	595.779	80.005	19.995	103.877	19.914	10.028	0.480
1030.500	596.006	80.006	19.995	103.880	19.913	10.097	0.497
1031.000	596.269	80.006	19.995	103.883	19.913	10.095	0.499
1031.500	596.532	80.006	19.995	103.886	19.914	10.009	0.508
1032.000	596.773	80.006	19.995	103.886	19.911	10.186	0.515
1032.500	597.064	80.007	19.995	103.884	19.915	9.932	0.518
1033.001	597.296	80.006	19.996	103.882	19.915	9.919	0.527
1033.501	597.565	80.006	19.994	103.879	19.917	9.769	0.512
1034.000	597.820	80.005	19.996	103.875	19.912	10.143	0.512
1034.500	598.066	80.006	19.995	103.874	19.916	9.832	0.513
1035.000	598.325	80.004	19.994	103.873	19.916	9.840	0.503
1035.500	598.564	80.006	19.995	103.874	19.917	9.762	0.501
1036.000	598.800	80.006	19.995	103.874	19.912	10.119	0.487
1036.500	599.086	80.006	19.995	103.875	19.915	9.951	0.499
1037.000	599.331	80.006	19.995	103.876	19.913	10.093	0.527
1037.500	599.614	80.005	19.995	103.877	19.914	9.998	0.529
1038.001	599.841	80.004	19.995	103.879	19.916	9.873	0.519
1038.501	600.090	80.005	19.995	103.878	19.915	9.914	0.493
1039.000	600.295	80.004	19.994	103.879	19.914	9.991	0.465
1039.500	600.584	80.005	19.995	103.879	19.918	9.669	0.474
1040.000	600.857	80.005	19.993	103.878	19.916	9.827	0.528
1040.500	601.105	80.006	19.995	103.881	19.915	9.893	0.541
1041.000	601.334	80.005	19.996	103.885	19.914	9.962	0.499
1041.500	601.608	80.006	19.994	103.884	19.920	9.561	0.490
1042.000	601.823	80.005	19.994	103.885	19.917	9.738	0.496
1042.500	602.072	80.005	19.995	103.884	19.919	9.594	0.477
1043.000	602.347	80.005	19.994	103.882	19.921	9.449	0.494
1043.500	602.607	80.005	19.994	103.880	19.920	9.548	0.529
1044.000	602.828	80.005	19.994	103.882	19.918	9.695	0.508
1044.501	603.108	80.006	19.995	103.882	19.920	9.534	0.491
1045.001	603.363	80.005	19.994	103.881	19.920	9.516	0.518
1045.501	603.615	80.006	19.995	103.880	19.921	9.446	0.521
1046.001	603.866	80.006	19.994	103.879	19.921	9.453	0.505
1046.500	604.111	80.005	19.994	103.880	19.922	9.420	0.500
1047.000	604.379	80.007	19.995	103.885	19.923	9.324	0.505
1047.500	604.626	80.005	19.995	103.888	19.924	9.284	0.514
1048.000	604.903	80.006	19.994	103.891	19.924	9.257	0.520
1048.501	605.166	80.007	19.995	103.891	19.927	9.027	0.532
1049.001	605.394	80.007	19.994	103.889	19.925	9.196	0.515
1049.501	605.624	80.006	19.995	103.884	19.928	8.954	0.475
1050.001	605.882	80.005	19.995	103.882	19.925	9.184	0.473
1050.500	606.169	80.006	19.994	103.879	19.924	9.253	0.516
1051.000	606.383	80.006	19.994	103.878	19.927	9.017	0.523
1051.500	606.657	80.007	19.994	103.877	19.924	9.266	0.495
1052.000	606.890	80.006	19.994	103.879	19.924	9.268	0.498
1052.500	607.156	80.007	19.996	103.881	19.927	9.050	0.503
1053.001	607.423	80.008	19.994	103.880	19.925	9.186	0.516
1053.501	607.667	80.007	19.994	103.881	19.927	9.056	0.522
1054.000	607.932	80.006	19.995	103.881	19.924	9.245	0.510
1054.500	608.186	80.007	19.995	103.878	19.928	8.940	0.514
1055.001	608.407	80.006	19.995	103.876	19.929	8.891	0.497
1055.501	608.673	80.007	19.994	103.876	19.930	8.846	0.481
1056.000	608.920	80.007	19.995	103.876	19.930	8.801	0.501
1056.500	609.244	80.006	19.995	103.876	19.930	8.779	0.542
1057.000	609.451	80.006	19.996	103.876	19.931	8.767	0.551
1057.500	609.705	80.005	19.994	103.876	19.934	8.500	0.496
1058.000	609.948	80.004	19.995	103.877	19.936	8.390	0.479
1058.500	610.242	80.004	19.996	103.877	19.934	8.511	0.517
1059.000	610.463	80.005	19.995	103.878	19.933	8.597	0.526
1059.500	610.722	80.004	19.994	103.878	19.934	8.513	0.497
1060.000	610.980	80.004	19.996	103.878	19.929	8.882	0.499
1060.500	611.260	80.004	19.995	103.877	19.929	8.904	0.528
1061.000	611.460	80.003	19.996	103.877	19.932	8.653	0.509
1061.500	611.795	80.003	19.994	103.878	19.933	8.594	0.508
1062.001	612.028	80.004	19.994	103.879	19.933	8.606	0.552
1062.501	612.264	80.003	19.994	103.879	19.934	8.540	0.518
1063.000	612.535	80.004	19.994	103.879	19.931	8.742	0.488
1063.500	612.734	80.003	19.996	103.879	19.932	8.666	0.488
1064.001	613.016	80.004	19.995	103.878	19.933	8.564	0.476
1064.501	613.265	80.003	19.995	103.878	19.936	8.370	0.506
1065.000	613.523	80.004	19.995	103.877	19.936	8.374	0.519
1065.500	613.777	80.003	19.994	103.878	19.934	8.533	0.509
1066.000	614.050	80.003	19.994	103.878	19.934	8.532	0.519
1066.500	614.303	80.004	19.995	103.878	19.933	8.581	0.527
1067.000	614.549	80.004	19.994	103.878	19.933	8.611	0.513
1067.500	614.798	80.004	19.994	103.878	19.934	8.525	0.497
1068.000	615.084	80.005	19.994	103.879	19.939	8.148	0.515
1068.500	615.306	80.004	19.995	103.878	19.934	8.488	0.521
1069.001	615.586	80.005	19.995	103.881	19.939	8.109	0.505
1069.501	615.813	80.003	19.994	103.886	19.937	8.315	0.505
1070.000	616.118	80.005	19.994	103.876	19.938	8.207	0.520
1070.500	616.336	80.005	19.994	103.860	19.937	8.318	0.528
1071.000	616.632	80.004	19.994	103.851	19.936	8.336	0.519
1071.500	616.899	80.005	19.995	103.840	19.939	8.163	0.538
1072.000	617.155	80.006	19.995	103.831	19.938	8.208	0.543
1072.500	617.416	80.006	19.995	103.840	19.940	8.051	0.520
1073.000	617.637	80.006	19.994	103.856	19.940	8.108	0.500
1073.500	617.929	80.006	19.995	103.877	19.938	8.229	0.497
1074.000	618.170	80.005	19.994	103.922	19.941	7.982	0.522
1074.500	618.380	80.005	19.994	103.938	19.941	7.990	0.492
1075.000	618.650	80.006	19.994	103.940	19.941	8.018	0.466
1075.500	618.920	80.004	19.994	103.940	19.940	8.059	0.510
1076.000	619.139	80.005	19.994	103.928	19.939	8.161	0.515
1076.500	619.377	80.006	19.995	103.892	19.943	7.817	0.473
1077.000	619.653	80.005	19.994	103.877	19.941	7.970	0.485
1077.501	619.904	80.004	19.994	103.873	19.940	8.065	0.520
1078.001	620.183	80.006	19.993	103.871	19.940	8.034	0.529
1078.501	620.454	80.004	19.993	103.869	19.940	8.105	0.540
1079.001	620.657	80.005	19.994	103.862	19.945	7.716	0.512
1079.501	620.957	80.006	19.993	103.857	19.940	8.089	0.488
1080.001	621.165	80.004	19.995	103.858	19.944	7.776	0.506
1080.501	621.438	80.006	19.994	103.858	19.945	7.680	0.495
1081.001	621.644	80.005	19.994	103.859	19.944	7.749	0.480
1081.500	621.910	80.004	19.993	103.865	19.945	7.700	0.476
1082.000	622.193	80.004	19.995	103.869	19.945	7.726	0.511
1082.500	622.453	80.004	19.995	103.870	19.946	7.655	0.546
1083.000	622.709	80.005	19.995	103.872	19.943	7.853	0.530
1083.501	622.924	80.004	19.995	103.872	19.946	7.642	0.493
1084.001	623.196	80.005	19.995	103.872	19.947	7.570	0.479
1084.501	623.457	80.005	19.993	103.874	19.947	7.579	0.510
1085.001	623.680	80.004	19.995	103.872	19.946	7.614	0.509
1085.500	623.950	80.005	19.995	103.868	19.947	7.538	0.489
1086.000	624.201	80.005	19.995	103.868	19.945	7.734	0.506
1086.500	624.441	80.005	19.995	103.868	19.948	7.514	0.506
1087.000	624.701	80.005	19.995	103.868	19.947	7.563	0.496
1087.500	624.929	80.005	19.995	103.869	19.948	7.493	0.494
1088.000	625.197	80.004	19.995	103.871	19.949	7.410	0.492
1088.500	625.424	80.003	19.995	103.870	19.951	7.241	0.495
1089.000	625.688	80.005	19.995	103.865	19.950	7.359	0.493
1089.500	625.944	80.004	19.995	103.859	19.952	7.221	0.506
1090.000	626.210	80.005	19.994	103.857	19.951	7.282	0.521
1090.500	626.452	80.005	19.994	103.860	19.952	7.202	0.515
1091.000	626.715	80.004	19.994	103.861	19.950	7.296	0.506
1091.501	626.958	80.004	19.995	103.860	19.948	7.484	0.506
1092.001	627.223	80.004	19.994	103.863	19.949	7.408	0.507
1092.500	627.500	80.005	19.995	103.862	19.950	7.317	0.525
1093.001	627.733	80.003	19.995	103.858	19.948	7.457	0.526
1093.501	628.011	80.004	19.994	103.857	19.948	7.453	0.511
1094.000	628.273	80.003	19.994	103.863	19.948	7.475	0.526
1094.500	628.506	80.004	19.996	103.865	19.949	7.429	0.517
1095.000	628.755	80.004	19.994	103.869	19.950	7.361	0.488
1095.500	629.050	80.004	19.995	103.873	19.951	7.254	0.513
1096.000	629.328	80.004	19.996	103.874	19.952	7.199	0.558
1096.500	629.508	80.004	19.995	103.874	19.951	7.272	0.515
1097.000	629.786	80.003	19.994	103.874	19.954	7.019	0.458
1097.500	630.052	80.004	19.996	103.874	19.951	7.268	0.501
1098.000	630.273	80.003	19.996	103.873	19.952	7.160	0.515
1098.500	630.578	80.004	19.995	103.873	19.954	7.029	0.507
1099.000	630.800	80.005	19.995	103.875	19.952	7.170	0.527
1099.500	631.053	80.003	19.995	103.875	19.951	7.263	0.501
1100.000	631.344	80.004	19.994	103.875	19.952	7.182	0.509
1100.500	631.576	80.005	19.995	103.875	19.954	7.001	0.534
1101.001	631.837	80.004	19.995	103.875	19.955	6.954	0.508
1101.501	632.094	80.005	19.995	103.874	19.955	6.954	0.506
1102.001	632.347	80.004	19.994	103.875	19.955	6.938	0.513
1102.501	632.643	80.003	19.995	103.877	19.954	7.005	0.529
1103.001	632.876	80.004	19.994	103.878	19.955	6.968	0.540
1103.500	633.130	80.005	19.995	103.879	19.956	6.871	0.509
1104.001	633.383	80.006	19.994	103.879	19.957	6.810	0.497
1104.501	633.677	80.006	19.994	103.880	19.958	6.755	0.527
1105.000	633.917	80.005	19.995	103.878	19.955	6.962	0.540
1105.500	634.179	80.005	19.994	103.878	19.956	6.920	0.517
1106.000	634.411	80.005	19.994	103.877	19.961	6.508	0.498
1106.500	634.684	80.006	19.994	103.878	19.960	6.602	0.499
1107.000	634.913	80.004	19.993	103.879	19.959	6.651	0.504
1107.501	635.164	80.005	19.995	103.879	19.962	6.453	0.491
1108.001	635.422	80.005	19.995	103.880	19.959	6.653	0.495
1108.500	635.697	80.006	19.995	103.877	19.959	6.651	0.521
1109.000	635.963	80.007	19.994	103.876	19.960	6.600	0.537
1109.500	636.212	80.006	19.994	103.875	19.960	6.559	0.528
1110.000	636.510	80.005	19.994	103.874	19.958	6.703	0.531
1110.500	636.740	80.006	19.993	103.875	19.960	6.595	0.538
1111.000	637.009	80.007	19.994	103.878	19.963	6.351	0.513
1111.500	637.258	80.006	19.993	103.878	19.961	6.528	0.509
1112.000	637.513	80.007	19.993	103.878	19.959	6.630	0.512
1112.500	637.756	80.006	19.993	103.877	19.959	6.643	0.501
1113.000	638.025	80.006	19.994	103.877	19.964	6.301	0.505
1113.500	638.282	80.006	19.994	103.877	19.963	6.374	0.519
1114.001	638.535	80.006	19.995	103.877	19.962	6.476	0.518
1114.501	638.818	80.006	19.994	103.877	19.963	6.360	0.523
1115.000	639.045	80.004	19.993	103.880	19.961	6.496	0.523
1115.500	639.298	80.004	19.995	103.880	19.965	6.252	0.495
1116.000	639.540	80.006	19.994	103.880	19.963	6.394	0.487
1116.501	639.808	80.004	19.994	103.880	19.962	6.467	0.502
1117.001	640.062	80.005	19.994	103.880	19.959	6.654	0.516
1117.500	640.341	80.005	19.994	103.877	19.961	6.508	0.528
1118.000	640.591	80.006	19.995	103.877	19.962	6.447	0.531
1118.500	640.844	80.004	19.993	103.876	19.960	6.603	0.516
1119.000	641.096	80.006	19.994	103.876	19.962	6.473	0.504
1119.500	641.362	80.006	19.994	103.876	19.962	6.424	0.512
1120.000	641.610	80.004	19.994	103.876	19.959	6.673	0.516
1120.500	641.885	80.004	19.994	103.873	19.958	6.760	0.518
1121.000	642.133	80.004	19.994	103.873	19.959	6.630	0.523
1121.500	642.407	80.004	19.994	103.873	19.961	6.501	0.523
1122.000	642.639	80.004	19.994	103.873	19.962	6.463	0.514
1122.500	642.889	80.004	19.994	103.874	19.960	6.605	0.494
1123.000	643.148	80.005	19.994	103.876	19.963	6.367	0.495
1123.500	643.411	80.006	19.995	103.877	19.963	6.337	0.516
1124.001	643.664	80.005	19.995	103.878	19.963	6.374	0.519
1124.501	643.933	80.004	19.995	103.878	19.965	6.186	0.519
1125.000	644.197	80.005	19.994	103.879	19.964	6.308	0.528
1125.500	644.419	80.005	19.994	103.879	19.964	6.302	0.510
1126.000	644.648	80.005	19.994	103.879	19.963	6.334	0.469
1126.500	644.948	80.003	19.995	103.878	19.965	6.251	0.490
1127.001	645.217	80.004	19.995	103.877	19.964	6.263	0.549
1127.501	645.463	80.005	19.994	103.873	19.966	6.184	0.542
1128.000	645.713	80.005	19.995	103.872	19.963	6.379	0.506
1128.500	645.949	80.004	19.995	103.871	19.962	6.408	0.491
1129.000	646.174	80.004	19.994	103.872	19.965	6.190	0.473
1129.500	646.421	80.005	19.994	103.871	19.963	6.399	0.467
1130.001	646.689	80.006	19.994	103.873	19.963	6.362	0.494
1130.501	646.945	80.005	19.995	103.872	19.968	6.032	0.520
1131.000	647.159	80.005	19.994	103.872	19.962	6.423	0.496
1131.500	647.443	80.005	19.994	103.867	19.966	6.134	0.484
1132.000	647.714	80.006	19.995	103.864	19.965	6.210	0.527
1132.500	647.924	80.006	19.995	103.864	19.966	6.131	0.518
1133.000	648.202	80.005	19.995	103.865	19.969	5.903	0.484
1133.500	648.498	80.007	19.993	103.866	19.965	6.204	0.531
1134.000	648.725	80.007	19.995	103.869	19.969	5.953	0.548
1134.500	648.958	80.007	19.994	103.874	19.971	5.809	0.491
1135.000	649.203	80.006	19.994	103.874	19.970	5.880	0.469
1135.500	649.488	80.006	19.994	103.874	19.967	6.061	0.504
1136.000	649.742	80.007	19.994	103.869	19.967	6.051	0.535
1136.500	649.973	80.006	19.994	103.869	19.968	5.986	0.512
1137.000	650.232	80.006	19.994	103.868	19.968	6.033	0.488
1137.500	650.508	80.007	19.995	103.867	19.969	5.921	0.513
1138.000	650.742	80.007	19.994	103.865	19.970	5.828	0.522
1138.500	650.998	80.006	19.994	103.869	19.968	5.984	0.499
1139.000	651.261	80.006	19.994	103.868	19.969	5.938	0.504
1139.500	651.490	80.006	19.994	103.864	19.970	5.816	0.506
1140.000	651.771	80.004	19.994	103.861	19.967	6.046	0.501
1140.500	651.984	80.006	19.995	103.859	19.966	6.168	0.502
1141.000	652.304	80.005	19.995	103.856	19.969	5.950	0.513
1141.500	652.508	80.004	19.993	103.853	19.966	6.115	0.528
1142.000	652.787	80.003	19.994	103.856	19.968	5.974	0.504
1142.500	653.022	80.005	19.996	103.859	19.968	5.989	0.499
1143.000	653.270	80.004	19.995	103.861	19.968	5.995	0.499
1143.500	653.495	80.003	19.994	103.862	19.968	5.981	0.478
1144.000	653.762	80.003	19.995	103.866	19.967	6.066	0.482
1144.500	654.044	80.003	19.995	103.864	19.969	5.911	0.520
1145.000	654.256	80.003	19.995	103.861	19.965	6.225	0.522
1145.500	654.546	80.003	19.995	103.861	19.969	5.924	0.498
1146.000	654.797	80.003	19.995	103.863	19.968	6.036	0.522
1146.500	655.065	80.004	19.995	103.862	19.964	6.280	0.530
1147.000	655.345	80.002	19.995	103.866	19.968	6.033	0.534
1147.500	655.591	80.004	19.995	103.869	19.971	5.793	0.537
1148.000	655.860	80.003	19.996	103.870	19.970	5.816	0.520
1148.500	656.080	80.004	19.994	103.870	19.967	6.039	0.502
1149.001	656.332	80.003	19.996	103.871	19.970	5.823	0.480
1149.501	656.591	80.002	19.994	103.871	19.966	6.127	0.492
1150.000	656.848	80.002	19.996	103.872	19.971	5.744	0.514
1150.501	657.072	80.003	19.995	103.876	19.971	5.795	0.499
1151.001	657.367	80.003	19.995	103.878	19.969	5.942	0.500
1151.500	657.599	80.003	19.995	103.879	19.967	6.105	0.523
1152.000	657.847	80.002	19.995	103.879	19.971	5.783	0.503
1152.500	658.081	80.004	19.996	103.879	19.969	5.909	0.481
1153.000	658.313	80.002	19.995	103.875	19.970	5.868	0.474
1153.500	658.600	80.003	19.995	103.874	19.968	5.999	0.493
1154.000	658.834	80.001	19.995	103.874	19.969	5.893	0.520
1154.500	659.116	80.003	19.995	103.873	19.967	6.082	0.518
1155.000	659.334	80.002	19.995	103.874	19.968	5.984	0.508
1155.500	659.599	80.003	19.996	103.874	19.969	5.945	0.492
1156.000	659.884	80.003	19.995	103.874	19.969	5.910	0.517
1156.500	660.112	80.002	19.995	103.873	19.967	6.065	0.531
1157.000	660.346	80.003	19.995	103.874	19.968	6.006	0.487
1157.500	660.610	80.002	19.996	103.873	19.971	5.745	0.480
1158.000	660.868	80.004	19.996	103.873	19.971	5.796	0.510
1158.500	661.127	80.002	19.995	103.873	19.969	5.945	0.520
1159.000	661.317	80.004	19.995	103.873	19.973	5.636	0.483
1159.500	661.653	80.005	19.995	103.869	19.972	5.718	0.487
1160.000	661.834	80.004	19.995	103.869	19.972	5.704	0.522
1160.500	662.139	80.004	19.996	103.867	19.969	5.918	0.502
1161.000	662.399	80.004	19.996	103.867	19.969	5.901	0.525
1161.500	662.644	80.006	19.995	103.867	19.972	5.698	0.535
1162.000	662.948	80.004	19.995	103.872	19.970	5.864	0.527
1162.500	663.171	80.004	19.996	103.870	19.972	5.715	0.538
1163.000	663.368	80.005	19.996	103.872	19.971	5.777	0.474
1163.500	663.666	80.005	19.995	103.871	19.972	5.697	0.458
1164.000	663.915	80.005	19.995	103.870	19.971	5.793	0.521
1164.501	664.121	80.005	19.995	103.870	19.971	5.802	0.501
1165.001	664.354	80.004	19.995	103.867	19.972	5.739	0.447
1165.500	664.649	80.003	19.994	103.868	19.971	5.806	0.484
1166.000	664.909	80.004	19.994	103.864	19.967	6.063	0.542
1166.500	665.182	80.006	19.994	103.858	19.969	5.904	0.544
1167.000	665.389	80.004	19.994	103.856	19.969	5.896	0.506
1167.500	665.663	80.005	19.995	103.856	19.969	5.908	0.480
1168.000	665.924	80.002	19.995	103.848	19.967	6.071	0.508
1168.500	666.187	80.004	19.994	103.849	19.969	5.953	0.530
1169.000	666.428	80.005	19.994	103.852	19.967	6.089	0.514
1169.501	666.682	80.004	19.995	103.855	19.967	6.055	0.499
1170.001	666.942	80.005	19.994	103.860	19.968	5.983	0.504
1170.501	667.162	80.003	19.994	103.868	19.972	5.696	0.497
1171.001	667.433	80.005	19.995	103.873	19.971	5.765	0.486
1171.500	667.707	80.004	19.994	103.877	19.972	5.728	0.518
1172.000	667.924	80.004	19.994	103.878	19.972	5.725	0.518
1172.500	668.182	80.004	19.993	103.874	19.972	5.701	0.483
1173.000	668.485	80.004	19.995	103.867	19.973	5.648	0.518
1173.500	668.723	80.003	19.994	103.867	19.971	5.750	0.551
1174.000	668.961	80.004	19.994	103.868	19.973	5.630	0.509
1174.500	669.209	80.004	19.994	103.868	19.970	5.864	0.481
1175.000	669.496	80.003	19.994	103.873	19.974	5.579	0.510
1175.500	669.719	80.005	19.995	103.879	19.971	5.767	0.522
1176.000	670.001	80.003	19.994	103.880	19.971	5.793	0.508
1176.500	670.252	80.003	19.996	103.880	19.972	5.688	0.519
1177.000	670.484	80.004	19.995	103.883	19.971	5.781	0.508
1177.500	670.774	80.003	19.995	103.886	19.972	5.684	0.502
1178.000	671.010	80.004	19.994	103.890	19.972	5.710	0.524
1178.500	671.248	80.003	19.994	103.890	19.970	5.818	0.500
1179.000	671.532	80.004	19.994	103.891	19.972	5.712	0.498
1179.500	671.743	80.004	19.995	103.890	19.970	5.820	0.509
1180.000	672.018	80.003	19.993	103.891	19.972	5.722	0.490
1180.500	672.236	80.005	19.994	103.886	19.974	5.520	0.489
1181.000	672.504	80.004	19.994	103.885	19.972	5.710	0.490
1181.500	672.756	80.003	19.994	103.884	19.972	5.726	0.503
1182.001	672.983	80.004	19.994	103.876	19.972	5.727	0.499
1182.501	673.275	80.003	19.994	103.866	19.970	5.884	0.499
1183.000	673.497	80.003	19.995	103.863	19.970	5.835	0.516
1183.500	673.751	80.003	19.994	103.858	19.969	5.888	0.495
1184.000	674.028	80.004	19.994	103.854	19.968	5.970	0.504
1184.500	674.293	80.005	19.996	103.857	19.971	5.777	0.536
1185.000	674.572	80.004	19.994	103.860	19.970	5.885	0.543
1185.500	674.838	80.005	19.994	103.862	19.969	5.942	0.544
1186.000	675.110	80.004	19.994	103.867	19.968	6.003	0.542
1186.500	675.315	80.004	19.994	103.872	19.967	6.040	0.508
1187.000	675.595	80.004	19.995	103.875	19.965	6.254	0.481
1187.500	675.873	80.004	19.995	103.879	19.967	6.074	0.521
1188.001	676.140	80.005	19.994	103.880	19.967	6.099	0.551
1188.501	676.368	80.004	19.995	103.879	19.965	6.190	0.520
1189.001	676.616	80.005	19.994	103.876	19.965	6.192	0.486
1189.500	676.812	80.005	19.995	103.873	19.968	6.007	0.460
1190.000	677.109	80.006	19.994	103.872	19.970	5.885	0.468
1190.500	677.401	80.005	19.994	103.872	19.967	6.085	0.541
1191.000	677.612	80.006	19.994	103.872	19.971	5.812	0.546
1191.500	677.847	80.005	19.994	103.873	19.971	5.783	0.474
1192.000	677.969	80.006	19.995	103.870	19.971	5.798	0.401
1192.501	678.367	80.006	19.993	103.866	19.971	5.753	0.439
1193.001	678.605	80.005	19.994	103.861	19.972	5.696	0.578
1193.500	678.858	80.004	19.993	103.855	19.970	5.848	0.564
1194.000	679.111	80.005	19.994	103.855	19.970	5.848	0.498
1194.500	679.371	80.005	19.994	103.859	19.968	5.981	0.510
1195.000	679.621	80.005	19.994	103.864	19.973	5.657	0.512
1195.500	679.878	80.005	19.994	103.869	19.971	5.750	0.508
1196.000	680.115	80.005	19.993	103.875	19.970	5.818	0.500
1196.500	680.339	80.005	19.993	103.877	19.969	5.958	0.477
1197.000	680.646	80.006	19.995	103.878	19.969	5.897	0.496
1197.500	680.887	80.006	19.994	103.879	19.967	6.044	0.540
1198.000	681.104	80.005	19.994	103.879	19.969	5.891	0.503
1198.500	681.381	80.006	19.994	103.878	19.972	5.689	0.476
1199.000	681.591	80.005	19.994	103.877	19.972	5.736	0.491
1199.500	681.861	80.006	19.994	103.876	19.968	5.964	0.483
1200.000	682.102	80.004	19.995	103.876	19.971	5.810	0.495
1200.500	682.356	80.005	19.994	103.875	19.969	5.891	0.503
1201.000	682.616	80.005	19.993	103.876	19.971	5.792	0.505
1201.500	682.857	80.005	19.992	103.876	19.971	5.745	0.508
1202.000	683.103	80.006	19.994	103.877	19.971	5.743	0.494
1202.500	683.353	80.006	19.995	103.878	19.970	5.851	0.491
1203.000	683.607	80.005	19.995	103.880	19.972	5.731	0.500
1203.501	683.891	80.004	19.995	103.880	19.972	5.716	0.521
1204.001	684.121	80.004	19.994	103.880	19.971	5.791	0.526
1204.501	684.369	80.005	19.994	103.879	19.971	5.793	0.496
1205.001	684.652	80.007	19.995	103.877	19.968	6.013	0.505
1205.500	684.909	80.005	19.995	103.874	19.971	5.799	0.536
1206.000	685.195	80.005	19.994	103.873	19.971	5.781	0.541
1206.500	685.427	80.004	19.994	103.873	19.973	5.655	0.530
1207.000	685.689	80.006	19.994	103.874	19.972	5.691	0.506
1207.500	685.914	80.007	19.994	103.874	19.971	5.795	0.491
1208.001	686.163	80.004	19.994	103.874	19.973	5.653	0.481
1208.501	686.433	80.005	19.994	103.875	19.972	5.716	0.497
1209.001	686.663	80.004	19.994	103.875	19.969	5.919	0.509
1209.500	686.914	80.006	19.994	103.874	19.972	5.732	0.490
1210.000	687.161	80.004	19.992	103.875	19.974	5.544	0.490
1210.500	687.387	80.013	19.996	103.875	19.970	5.844	0.485
1211.000	687.610	80.024	19.998	103.876	19.971	5.752	0.461
1211.500	687.860	80.023	20.001	103.882	19.972	5.736	0.462
1212.000	688.164	80.025	20.001	103.890	19.970	5.815	0.514
1212.500	688.413	80.015	19.998	103.893	19.973	5.597	0.553
1213.000	688.634	80.006	19.997	103.893	19.972	5.715	0.511
1213.500	688.893	80.006	19.996	103.893	19.969	5.956	0.475
1214.000	689.176	80.006	19.996	103.886	19.970	5.829	0.511
1214.500	689.422	80.008	19.996	103.878	19.969	5.955	0.536
1215.000	689.652	80.005	19.995	103.875	19.968	6.010	0.503
1215.500	689.916	80.008	19.995	103.874	19.969	5.939	0.485
1216.000	690.190	80.007	19.995	103.872	19.970	5.835	0.516
1216.500	690.387	80.007	19.994	103.873	19.968	5.964	0.504
1217.000	690.657	80.007	19.994	103.873	19.970	5.836	0.469
1217.500	690.898	80.006	19.995	103.873	19.967	6.101	0.489
1218.001	691.134	80.007	19.994	103.873	19.965	6.207	0.494
1218.501	691.386	80.007	19.995	103.874	19.971	5.797	0.483
1219.000	691.649	80.007	19.995	103.873	19.973	5.606	0.502
1219.500	691.922	80.007	19.994	103.872	19.971	5.759	0.526
1220.000	692.127	80.006	19.994	103.872	19.971	5.789	0.507
1220.500	692.365	80.006	19.995	103.869	19.971	5.814	0.461
1221.000	692.639	80.006	19.994	103.867	19.969	5.944	0.477
1221.500	692.887	80.006	19.995	103.866	19.972	5.708	0.517
1222.000	693.133	80.004	19.994	103.866	19.969	5.936	0.508
1222.500	693.367	80.006	19.994	103.866	19.967	6.076	0.487
1223.000	693.614	80.006	19.995	103.868	19.971	5.808	0.481
1223.500	693.821	80.006	19.996	103.868	19.966	6.174	0.468
1224.000	694.089	80.005	19.994	103.867	19.968	5.999	0.464
1224.500	694.310	80.003	19.994	103.864	19.965	6.221	0.481
1225.000	694.532	80.005	19.995	103.860	19.966	6.180	0.466
1225.500	694.764	80.004	19.995	103.857	19.967	6.072	0.449
1226.000	695.040	80.004	19.995	103.859	19.968	5.973	0.481
1226.500	695.292	80.004	19.995	103.861	19.964	6.300	0.518
1227.000	695.531	80.005	19.995	103.865	19.969	5.914	0.510
1227.500	695.737	80.005	19.996	103.870	19.967	6.093	0.468
1228.000	695.969	80.004	19.995	103.875	19.966	6.164	0.441
1228.500	696.214	80.004	19.994	103.875	19.969	5.956	0.458
1229.000	696.468	80.005	19.994	103.875	19.968	5.987	0.488
1229.500	696.701	80.005	19.995	103.875	19.972	5.736	0.493
1230.000	696.903	80.004	19.995	103.874	19.969	5.912	0.461
1230.500	697.168	80.004	19.995	103.874	19.972	5.712	0.451
1231.000	697.393	80.005	19.995	103.874	19.970	5.824	0.479
1231.500	697.636	80.004	19.994	103.874	19.969	5.932	0.479
1232.000	697.872	80.005	19.995	103.874	19.967	6.085	0.473
1232.501	698.131	80.004	19.994	103.874	19.964	6.262	0.487
1233.001	698.372	80.005	19.995	103.874	19.966	6.148	0.497
1233.501	698.611	80.005	19.995	103.873	19.966	6.154	0.490
1234.000	698.830	80.004	19.995	103.874	19.969	5.938	0.469
1234.500	699.052	80.004	19.994	103.875	19.967	6.072	0.449
1235.000	699.318	80.003	19.994	103.875	19.972	5.732	0.464
1235.501	699.521	80.004	19.994	103.875	19.972	5.736	0.478
1236.001	699.776	80.004	19.994	103.876	19.967	6.103	0.464
1236.500	700.025	80.002	19.995	103.876	19.967	6.042	0.481
1237.000	700.260	80.004	19.994	103.877	19.965	6.256	0.494
1237.500	700.494	80.002	19.994	103.878	19.968	6.005	0.477
1238.000	700.720	80.004	19.995	103.878	19.966	6.135	0.464
1238.500	700.959	80.003	19.995	103.878	19.966	6.121	0.462
1239.000	701.193	80.004	19.995	103.878	19.969	5.926	0.469
1239.500	701.424	80.003	19.993	103.878	19.967	6.109	0.469
1240.000	701.666	80.002	19.995	103.878	19.965	6.193	0.469
1240.500	701.899	80.004	19.994	103.879	19.966	6.152	0.474
1241.000	702.175	80.002	19.995	103.879	19.970	5.859	0.492
1241.501	702.350	80.004	19.994	103.879	19.966	6.128	0.480
1242.001	702.676	80.004	19.995	103.879	19.967	6.056	0.476
1242.500	702.855	80.003	19.996	103.877	19.968	5.971	0.503
1243.000	703.123	80.003	19.995	103.876	19.966	6.113	0.476
1243.500	703.384	80.003	19.995	103.875	19.966	6.127	0.488
1244.000	703.633	80.004	19.995	103.875	19.964	6.290	0.519
1244.500	703.884	80.003	19.995	103.875	19.966	6.119	0.505
1245.000	704.117	80.004	19.994	103.876	19.967	6.046	0.492
1245.500	704.331	80.004	19.995	103.877	19.965	6.243	0.466
1246.000	704.574	80.004	19.995	103.877	19.966	6.164	0.452
1246.500	704.828	80.003	19.995	103.877	19.964	6.260	0.477
1247.000	705.040	80.003	19.995	103.877	19.967	6.107	0.481
1247.500	705.325	80.003	19.995	103.876	19.966	6.156	0.481
1248.000	705.557	80.003	19.995	103.875	19.967	6.046	0.507
1248.500	705.808	80.004	19.995	103.874	19.968	6.020	0.500
1249.000	706.082	80.003	19.995	103.874	19.968	6.013	0.505
1249.500	706.306	80.004	19.996	103.874	19.964	6.294	0.512
1250.000	706.511	80.004	19.996	103.875	19.964	6.264	0.463
1250.500	706.779	80.004	19.995	103.876	19.963	6.359	0.451
1251.000	707.002	80.003	19.996	103.877	19.967	6.068	0.482
1251.500	707.267	80.003	19.995	103.879	19.970	5.875	0.489
1252.000	707.488	80.002	19.995	103.880	19.967	6.099	0.487
1252.500	707.781	80.005	19.995	103.880	19.967	6.042	0.500
1253.001	708.006	80.003	19.996	103.879	19.964	6.268	0.516
1253.501	708.251	80.004	19.995	103.879	19.962	6.468	0.494
1254.000	708.492	80.003	19.994	103.878	19.966	6.138	0.478
1254.500	708.731	80.004	19.994	103.877	19.965	6.217	0.483
1255.000	708.977	80.003	19.995	103.877	19.967	6.080	0.483
1255.500	709.236	80.004	19.995	103.878	19.966	6.127	0.495
1256.000	709.473	80.003	19.995	103.877	19.963	6.335	0.500
1256.501	709.735	80.002	19.995	103.877	19.964	6.265	0.497
1257.001	709.924	80.003	19.995	103.879	19.967	6.058	0.475
1257.500	710.204	80.002	19.995	103.880	19.966	6.166	0.460
1258.000	710.442	80.002	19.995	103.880	19.967	6.040	0.493
1258.500	710.712	80.004	19.995	103.880	19.969	5.948	0.513
1259.000	710.990	80.002	19.995	103.881	19.967	6.107	0.528
1259.500	711.177	80.004	19.993	103.880	19.968	5.995	0.506
1260.000	711.455	80.003	19.994	103.877	19.969	5.956	0.465
1260.500	711.702	80.002	19.993	103.875	19.971	5.785	0.495
1261.000	711.939	80.004	19.994	103.873	19.970	5.877	0.505
1261.500	712.235	80.004	19.994	103.872	19.971	5.797	0.508
1262.001	712.466	80.003	19.995	103.870	19.970	5.883	0.530
1262.501	712.705	80.004	19.996	103.872	19.969	5.893	0.499
1263.000	712.972	80.005	19.995	103.874	19.969	5.956	0.488
1263.500	713.239	80.002	19.995	103.877	19.969	5.962	0.520
1264.001	713.466	80.005	19.995	103.879	19.967	6.078	0.514
1264.501	713.742	80.004	19.995	103.881	19.970	5.823	0.499
1265.000	713.993	80.004	19.996	103.881	19.969	5.942	0.515
1265.501	714.241	80.004	19.995	103.880	19.972	5.732	0.513
1266.001	714.486	80.004	19.994	103.875	19.972	5.740	0.495
1266.500	714.755	80.006	19.995	103.872	19.969	5.890	0.503
1267.000	715.009	80.005	19.995	103.871	19.972	5.668	0.519
1267.501	715.214	80.004	19.995	103.871	19.968	6.001	0.491
1268.001	715.510	80.005	19.995	103.871	19.972	5.739	0.480
1268.500	715.756	80.005	19.994	103.874	19.970	5.884	0.521
1269.000	716.032	80.004	19.995	103.874	19.970	5.880	0.532
1269.500	716.299	80.005	19.993	103.873	19.969	5.917	0.533
1270.000	716.565	80.005	19.993	103.873	19.969	5.952	0.538
1270.500	716.803	80.005	19.993	103.873	19.967	6.052	0.519
1271.000	717.063	80.005	19.995	103.874	19.971	5.812	0.501
1271.500	717.318	80.005	19.993	103.876	19.970	5.860	0.506
1272.000	717.566	80.006	19.994	103.874	19.971	5.797	0.509
1272.500	717.863	80.005	19.995	103.873	19.968	5.981	0.524
1273.000	718.081	80.006	19.995	103.872	19.971	5.793	0.530
1273.501	718.368	80.006	19.994	103.866	19.970	5.885	0.510
1274.001	718.619	80.006	19.994	103.865	19.970	5.877	0.522
1274.500	718.864	80.007	19.994	103.867	19.972	5.691	0.517
1275.000	719.164	80.005	19.994	103.868	19.968	5.976	0.521
1275.500	719.401	80.006	19.995	103.867	19.968	5.985	0.541
1276.000	719.658	80.005	19.994	103.872	19.971	5.795	0.515
1276.500	719.904	80.006	19.994	103.868	19.971	5.742	0.498
1277.000	720.147	80.006	19.993	103.861	19.968	6.031	0.496
1277.500	720.414	80.005	19.994	103.853	19.969	5.952	0.499
1278.000	720.662	80.006	19.994	103.850	19.968	5.980	0.512
1278.501	720.929	80.004	19.995	103.848	19.967	6.073	0.515
1279.001	721.202	80.006	19.994	103.848	19.966	6.167	0.528
1279.500	721.401	80.005	19.994	103.852	19.969	5.914	0.506
1280.000	721.699	80.004	19.993	103.859	19.966	6.157	0.484
1280.501	721.952	80.005	19.995	103.863	19.968	6.035	0.523
1281.001	722.242	80.005	19.994	103.864	19.966	6.117	0.547
1281.501	722.466	80.006	19.994	103.869	19.968	5.976	0.529
1282.000	722.685	80.005	19.995	103.874	19.967	6.078	0.479
1282.500	722.968	80.006	19.994	103.874	19.968	6.011	0.473
1283.000	723.204	80.004	19.995	103.875	19.969	5.907	0.510
1283.500	723.462	80.005	19.994	103.875	19.970	5.873	0.507
1284.000	723.711	80.006	19.994	103.876	19.970	5.864	0.500
1284.500	724.006	80.004	19.994	103.876	19.971	5.799	0.525
1285.000	724.250	80.006	19.994	103.876	19.968	6.027	0.541
1285.500	724.492	80.005	19.995	103.875	19.969	5.905	0.512
1286.000	724.749	80.005	19.996	103.874	19.968	5.991	0.493
1286.500	724.978	80.004	19.995	103.873	19.967	6.074	0.492
1287.000	725.242	80.006	19.995	103.872	19.967	6.052	0.490
1287.501	725.480	80.006	19.995	103.871	19.965	6.188	0.498
1288.001	725.792	80.005	19.994	103.872	19.967	6.048	0.526
1288.501	726.022	80.005	19.995	103.867	19.972	5.734	0.546
1289.001	726.262	80.005	19.995	103.859	19.970	5.881	0.506
1289.500	726.544	80.007	19.994	103.856	19.972	5.699	0.496
1290.001	726.814	80.006	19.994	103.855	19.973	5.616	0.537
1290.501	727.084	80.006	19.994	103.857	19.970	5.860	0.546
1291.001	727.299	80.005	19.995	103.859	19.969	5.928	0.512
1291.500	727.609	80.007	19.995	103.866	19.969	5.948	0.505
1292.000	727.817	80.006	19.995	103.870	19.969	5.891	0.522
1292.500	728.087	80.006	19.994	103.871	19.969	5.905	0.497
1293.000	728.330	80.006	19.994	103.870	19.972	5.720	0.495
1293.500	728.606	80.007	19.994	103.873	19.971	5.742	0.516
1294.000	728.847	80.006	19.994	103.873	19.972	5.694	0.518
1294.500	729.119	80.008	19.994	103.874	19.971	5.791	0.516
1295.000	729.353	80.008	19.994	103.873	19.970	5.875	0.509
1295.500	729.627	80.007	19.994	103.872	19.972	5.730	0.507
1296.000	729.871	80.008	19.994	103.873	19.970	5.822	0.513
1296.500	730.132	80.006	19.994	103.873	19.973	5.620	0.512
1297.000	730.404	80.007	19.993	103.873	19.971	5.751	0.519
1297.500	730.663	80.006	19.994	103.874	19.972	5.694	0.532
1298.000	730.920	80.008	19.994	103.871	19.969	5.922	0.523
1298.500	731.180	80.007	19.993	103.870	19.968	5.979	0.516
1299.001	731.400	80.007	19.995	103.870	19.970	5.862	0.498
1299.501	731.671	80.006	19.993	103.870	19.969	5.891	0.486
1300.000	731.957	80.007	19.994	103.870	19.968	5.968	0.524
1300.500	732.199	80.007	19.995	103.872	19.968	5.997	0.543
1301.000	732.459	80.007	19.993	103.874	19.970	5.881	0.515
1301.500	732.701	80.007	19.993	103.873	19.968	6.005	0.502
1302.000	732.932	80.007	19.994	103.873	19.969	5.891	0.487
1302.501	733.232	80.006	19.994	103.871	19.969	5.916	0.502
1303.001	733.496	80.005	19.994	103.873	19.967	6.107	0.547
1303.500	733.786	80.005	19.994	103.874	19.968	5.989	0.558
1304.000	734.078	80.005	19.994	103.874	19.972	5.716	0.568
1304.500	734.289	80.006	19.993	103.875	19.968	6.030	0.543
1305.000	734.529	80.005	19.994	103.876	19.968	5.995	0.478
1305.500	734.784	80.007	19.994	103.877	19.972	5.667	0.473
1306.000	735.054	80.005	19.994	103.876	19.970	5.876	0.510
1306.500	735.308	80.004	19.993	103.877	19.970	5.832	0.525
1307.000	735.580	80.004	19.995	103.877	19.969	5.931	0.525
1307.500	735.852	80.005	19.994	103.877	19.971	5.763	0.534
1308.000	736.114	80.005	19.994	103.876	19.968	5.970	0.539
1308.500	736.362	80.005	19.994	103.875	19.968	6.003	0.523
1309.000	736.604	80.004	19.995	103.875	19.969	5.931	0.500
1309.500	736.880	80.003	19.994	103.874	19.969	5.901	0.504
1310.000	737.102	80.003	19.995	103.875	19.971	5.799	0.508
1310.500	737.392	80.004	19.996	103.875	19.969	5.936	0.505
1311.000	737.629	80.004	19.995	103.876	19.969	5.952	0.520
1311.500	737.897	80.005	19.995	103.877	19.971	5.791	0.516
1312.001	738.143	80.004	19.997	103.877	19.969	5.936	0.509
1312.501	738.409	80.003	19.995	103.876	19.972	5.704	0.513
1313.000	738.635	80.003	19.995	103.877	19.971	5.753	0.503
1313.500	738.888	80.004	19.995	103.877	19.970	5.830	0.486
1314.000	739.164	80.004	19.995	103.878	19.973	5.626	0.503
1314.500	739.449	80.005	19.995	103.877	19.972	5.730	0.545
1315.000	739.685	80.005	19.995	103.878	19.971	5.744	0.541
1315.500	739.919	80.003	19.994	103.878	19.970	5.821	0.495
1316.000	740.194	80.004	19.995	103.872	19.971	5.750	0.490
1316.501	740.467	80.004	19.994	103.869	19.970	5.862	0.529
1317.001	740.711	80.004	19.996	103.869	19.970	5.820	0.533
1317.500	740.985	80.005	19.994	103.868	19.968	5.977	0.517
1318.000	741.225	80.003	19.995	103.868	19.970	5.854	0.516
1318.500	741.513	80.004	19.994	103.871	19.970	5.826	0.521
1319.000	741.750	80.004	19.996	103.869	19.968	6.003	0.527
1319.500	742.039	80.005	19.995	103.869	19.968	5.966	0.525
1320.000	742.259	80.004	19.994	103.870	19.968	6.004	0.518
1320.500	742.539	80.003	19.995	103.870	19.968	6.000	0.505
1321.000	742.769	80.004	19.995	103.874	19.972	5.707	0.505
1321.500	743.038	80.003	19.993	103.878	19.968	6.027	0.504
1322.001	743.288	80.004	19.995	103.879	19.966	6.127	0.509
1322.501	743.555	80.004	19.994	103.879	19.967	6.107	0.518
