Sample ID:	C:\MCC\MCC Cal\Countertop_Plastic_LaminateA_MCC_30K_min_211103_R1.txt
Sample Weight (mg):	5
Heating Rate (C/s):	0.5
Combustor Temp (C):	900
N2 Flow Rate (cc/min):	80
O2 Flow Rate (cc/min):	20
Calibration File:	C:\MCC\MCC Cal\Coeff1 JN10440_30_210304.txt.txt
T Correction Coefficients:	0	1.024463	0
Time Shift (s):	14
*
Time (s)	Temperature (C)	N2 flow rate (cc/min)	O2 flow rate (cc/min)	Flow Rate (cc/min)	Oxygen (%)	HRR (W/g)	Heating rate (C/s)
-0.001	110.875	80.007	19.994	103.026	20.057	-0.026	0.000
0.499	110.902	80.007	19.995	103.025	20.057	-0.042	-0.001
1.000	110.918	80.007	19.994	103.025	20.061	-0.246	0.023
1.500	110.891	80.008	19.994	103.024	20.057	-0.030	0.016
2.000	110.870	80.006	19.993	103.024	20.058	-0.106	-0.030
2.500	110.874	80.008	19.994	103.023	20.055	0.087	-0.032
3.000	110.885	80.007	19.994	103.023	20.057	-0.005	-0.001
3.500	110.879	80.009	19.994	103.024	20.058	-0.068	0.010
4.000	110.861	80.008	19.994	103.024	20.058	-0.058	-0.010
4.500	110.874	80.008	19.995	103.025	20.055	0.103	-0.015
5.000	110.852	80.007	19.995	103.030	20.056	0.084	-0.007
5.500	110.854	80.007	19.995	103.035	20.055	0.148	-0.014
6.000	110.819	80.009	19.994	103.038	20.055	0.110	-0.027
6.500	110.873	80.006	19.995	103.043	20.054	0.174	-0.007
7.000	110.833	80.006	19.995	103.050	20.055	0.110	0.017
7.500	110.868	80.006	19.994	103.055	20.056	0.082	0.005
8.000	110.861	80.006	19.995	103.066	20.052	0.328	0.011
8.500	110.821	80.006	19.995	103.078	20.055	0.091	-0.010
9.000	110.827	80.006	19.995	103.088	20.055	0.134	-0.041
9.500	110.844	80.007	19.994	103.095	20.053	0.236	-0.005
10.000	110.888	80.006	19.995	103.101	20.051	0.367	0.042
10.500	110.849	80.006	19.995	103.103	20.053	0.234	0.033
11.000	110.855	80.004	19.996	103.102	20.053	0.236	-0.014
11.500	110.860	80.005	19.995	103.103	20.050	0.444	-0.011
12.000	110.845	80.004	19.995	103.103	20.050	0.409	0.000
12.500	110.888	80.003	19.995	103.107	20.047	0.625	0.009
13.000	110.864	80.004	19.996	103.110	20.047	0.644	0.024
13.500	110.903	80.004	19.995	103.114	20.045	0.774	0.017
14.000	110.881	80.005	19.994	103.120	20.044	0.854	0.016
14.500	110.873	80.005	19.995	103.122	20.046	0.699	-0.007
15.000	110.920	80.005	19.995	103.121	20.044	0.850	0.005
15.500	110.903	80.005	19.995	103.122	20.043	0.905	0.035
16.000	110.955	80.005	19.995	103.127	20.045	0.779	0.032
16.500	110.942	80.004	19.995	103.116	20.041	0.987	0.037
17.000	110.926	80.005	19.995	103.106	20.038	1.187	0.005
17.500	110.978	80.004	19.995	103.102	20.041	1.049	0.004
18.000	110.966	80.005	19.995	103.100	20.038	1.191	0.038
18.500	111.001	80.004	19.995	103.099	20.037	1.292	0.031
19.000	110.999	80.005	19.995	103.117	20.038	1.182	0.028
19.500	111.048	80.003	19.995	103.169	20.035	1.374	0.040
20.000	111.101	80.004	19.995	103.208	20.035	1.416	0.075
20.500	111.104	80.005	19.995	103.230	20.038	1.229	0.079
21.000	111.143	80.004	19.996	103.246	20.033	1.519	0.049
21.500	111.179	80.005	19.995	103.257	20.031	1.631	0.059
22.000	111.189	80.005	19.996	103.234	20.032	1.581	0.061
22.500	111.276	80.005	19.996	103.215	20.031	1.686	0.071
23.000	111.257	80.004	19.996	103.212	20.033	1.556	0.082
23.500	111.344	80.006	19.994	103.210	20.033	1.523	0.068
24.000	111.384	80.004	19.995	103.210	20.027	1.895	0.097
24.500	111.390	80.005	19.995	103.213	20.028	1.838	0.086
25.000	111.455	80.004	19.995	103.218	20.029	1.803	0.059
25.500	111.507	80.004	19.995	103.220	20.022	2.220	0.094
26.000	111.566	80.005	19.995	103.220	20.026	2.000	0.114
26.500	111.613	80.005	19.994	103.221	20.025	2.057	0.108
27.000	111.641	80.004	19.995	103.221	20.023	2.204	0.090
27.500	111.726	80.004	19.995	103.220	20.025	2.035	0.094
28.000	111.765	80.004	19.995	103.216	20.022	2.265	0.118
28.500	111.838	80.003	19.995	103.216	20.026	1.967	0.118
29.000	111.871	80.003	19.994	103.216	20.019	2.412	0.109
29.500	111.974	80.004	19.995	103.216	20.019	2.430	0.121
30.000	112.038	80.004	19.993	103.218	20.019	2.407	0.151
30.500	112.122	80.004	19.994	103.221	20.019	2.430	0.157
31.000	112.151	80.004	19.994	103.225	20.018	2.484	0.131
31.500	112.246	80.004	19.994	103.229	20.017	2.570	0.119
32.000	112.273	80.005	19.995	103.231	20.015	2.708	0.123
32.499	112.373	80.004	19.995	103.236	20.015	2.680	0.125
32.999	112.473	80.003	19.995	103.242	20.013	2.814	0.164
33.499	112.533	80.003	19.995	103.244	20.016	2.640	0.180
33.999	112.636	80.004	19.995	103.246	20.016	2.638	0.161
34.499	112.712	80.004	19.995	103.251	20.018	2.495	0.170
34.999	112.832	80.003	19.995	103.249	20.013	2.829	0.187
35.499	112.869	80.004	19.994	103.250	20.014	2.773	0.177
36.000	112.981	80.003	19.995	103.246	20.015	2.675	0.153
36.500	113.086	80.004	19.994	103.241	20.015	2.720	0.183
37.000	113.124	80.002	19.995	103.236	20.015	2.698	0.180
37.500	113.240	80.005	19.995	103.238	20.011	2.982	0.149
37.999	113.291	80.003	19.996	103.234	20.014	2.790	0.161
38.499	113.406	80.004	19.996	103.237	20.014	2.771	0.166
38.999	113.513	80.002	19.996	103.239	20.014	2.773	0.194
39.499	113.610	80.003	19.995	103.245	20.016	2.654	0.213
40.000	113.738	80.002	19.996	103.252	20.014	2.767	0.215
40.500	113.821	80.002	19.996	103.262	20.015	2.675	0.218
40.999	113.917	80.004	19.996	103.268	20.014	2.731	0.195
41.499	114.037	80.002	19.996	103.273	20.012	2.879	0.198
41.999	114.128	80.003	19.996	103.273	20.010	3.024	0.214
42.499	114.242	80.003	19.996	103.268	20.014	2.759	0.208
42.999	114.316	80.004	19.995	103.262	20.012	2.916	0.196
43.499	114.449	80.001	19.996	103.260	20.006	3.248	0.198
43.999	114.506	80.002	19.995	103.260	20.013	2.832	0.199
44.499	114.662	80.004	19.996	103.261	20.013	2.839	0.201
44.999	114.763	80.003	19.996	103.265	20.010	3.041	0.235
45.499	114.913	80.001	19.995	103.272	20.011	2.936	0.254
45.999	115.010	80.002	19.995	103.279	20.012	2.900	0.249
46.499	115.123	80.002	19.995	103.281	20.011	2.945	0.228
46.999	115.286	80.002	19.995	103.281	20.012	2.903	0.243
47.499	115.372	80.002	19.995	103.278	20.013	2.800	0.263
47.999	115.501	80.003	19.995	103.272	20.010	3.004	0.232
48.499	115.594	80.003	19.995	103.265	20.013	2.828	0.219
48.999	115.721	80.003	19.994	103.263	20.010	3.036	0.221
49.499	115.878	80.002	19.995	103.263	20.010	3.017	0.252
49.999	116.006	80.002	19.994	103.263	20.011	2.928	0.284
50.499	116.078	80.003	19.996	103.263	20.012	2.856	0.243
50.999	116.207	80.004	19.995	103.263	20.011	2.936	0.200
51.500	116.338	80.004	19.994	103.262	20.017	2.573	0.230
52.000	116.447	80.003	19.995	103.263	20.012	2.877	0.250
52.499	116.644	80.004	19.995	103.263	20.016	2.644	0.274
52.999	116.760	80.003	19.993	103.263	20.014	2.774	0.310
53.499	116.914	80.004	19.994	103.263	20.013	2.833	0.291
54.000	117.026	80.005	19.995	103.262	20.015	2.711	0.268
54.500	117.159	80.004	19.994	103.260	20.013	2.831	0.255
54.999	117.269	80.005	19.995	103.254	20.013	2.828	0.244
55.499	117.406	80.005	19.995	103.250	20.012	2.893	0.245
55.999	117.587	80.005	19.994	103.249	20.012	2.858	0.282
56.499	117.695	80.004	19.995	103.247	20.010	3.020	0.303
57.000	117.844	80.005	19.994	103.244	20.013	2.821	0.273
57.500	117.960	80.006	19.994	103.246	20.012	2.858	0.261
57.999	118.132	80.006	19.994	103.249	20.017	2.591	0.277
58.499	118.251	80.007	19.994	103.249	20.013	2.807	0.289
58.999	118.385	80.005	19.994	103.251	20.016	2.613	0.271
59.499	118.531	80.005	19.994	103.254	20.014	2.764	0.267
59.999	118.660	80.005	19.995	103.256	20.012	2.858	0.278
60.499	118.773	80.006	19.995	103.257	20.015	2.667	0.258
60.999	118.995	80.006	19.994	103.255	20.013	2.795	0.288
61.500	119.085	80.007	19.994	103.254	20.011	2.973	0.324
62.000	119.252	80.006	19.995	103.252	20.015	2.714	0.285
62.499	119.385	80.006	19.995	103.249	20.014	2.742	0.278
62.999	119.516	80.006	19.994	103.247	20.012	2.870	0.282
63.499	119.671	80.006	19.994	103.243	20.014	2.763	0.275
63.999	119.810	80.007	19.995	103.237	20.013	2.847	0.290
64.499	119.960	80.006	19.995	103.235	20.011	2.948	0.292
64.999	120.134	80.007	19.994	103.239	20.018	2.510	0.307
65.500	120.274	80.006	19.994	103.242	20.017	2.589	0.319
66.000	120.441	80.006	19.993	103.247	20.014	2.769	0.310
66.499	120.592	80.006	19.994	103.255	20.013	2.828	0.312
67.000	120.757	80.007	19.995	103.258	20.014	2.769	0.317
67.500	120.874	80.007	19.994	103.258	20.013	2.811	0.299
67.999	121.048	80.006	19.995	103.257	20.013	2.804	0.287
68.499	121.202	80.006	19.995	103.257	20.015	2.673	0.310
69.000	121.356	80.005	19.995	103.257	20.013	2.807	0.318
69.500	121.537	80.006	19.994	103.258	20.015	2.666	0.321
69.999	121.698	80.006	19.995	103.257	20.017	2.596	0.339
70.500	121.837	80.006	19.994	103.253	20.016	2.643	0.321
71.000	121.991	80.005	19.995	103.251	20.014	2.746	0.296
71.499	122.152	80.007	19.995	103.246	20.017	2.545	0.304
71.999	122.322	80.004	19.995	103.238	20.015	2.674	0.323
72.499	122.502	80.005	19.995	103.235	20.014	2.763	0.341
72.999	122.638	80.005	19.995	103.236	20.017	2.587	0.333
73.499	122.790	80.006	19.994	103.235	20.013	2.797	0.302
73.999	123.003	80.006	19.994	103.233	20.013	2.807	0.327
74.499	123.122	80.006	19.995	103.234	20.013	2.793	0.349
74.999	123.303	80.005	19.994	103.237	20.014	2.765	0.316
75.499	123.478	80.006	19.994	103.237	20.014	2.734	0.328
76.000	123.650	80.005	19.994	103.238	20.016	2.636	0.352
76.500	123.818	80.005	19.994	103.244	20.016	2.653	0.343
76.999	123.956	80.005	19.993	103.250	20.016	2.605	0.323
77.499	124.143	80.006	19.994	103.252	20.017	2.542	0.316
77.999	124.284	80.004	19.995	103.255	20.013	2.842	0.327
78.499	124.471	80.005	19.993	103.256	20.016	2.648	0.328
78.999	124.645	80.005	19.995	103.255	20.014	2.771	0.344
79.499	124.859	80.006	19.996	103.251	20.017	2.584	0.375
79.999	125.002	80.006	19.996	103.251	20.013	2.827	0.373
80.499	125.157	80.006	19.995	103.251	20.015	2.671	0.327
80.999	125.345	80.007	19.995	103.251	20.016	2.645	0.320
81.499	125.513	80.006	19.994	103.253	20.014	2.750	0.350
81.999	125.689	80.006	19.994	103.257	20.013	2.849	0.351
82.500	125.834	80.006	19.996	103.255	20.014	2.774	0.332
83.000	126.046	80.008	19.994	103.252	20.014	2.769	0.339
83.499	126.201	80.007	19.995	103.250	20.013	2.848	0.362
83.999	126.341	80.008	19.994	103.250	20.014	2.781	0.330
84.499	126.598	80.007	19.994	103.250	20.014	2.783	0.346
84.999	126.724	80.007	19.993	103.251	20.014	2.729	0.390
85.499	126.927	80.008	19.994	103.251	20.015	2.715	0.356
85.999	127.096	80.009	19.994	103.250	20.014	2.734	0.351
86.500	127.279	80.008	19.995	103.250	20.013	2.814	0.362
87.001	127.412	80.007	19.995	103.249	20.015	2.701	0.334
87.500	127.592	80.008	19.994	103.249	20.016	2.661	0.314
88.000	127.773	80.007	19.994	103.252	20.015	2.682	0.336
88.500	127.965	80.007	19.993	103.256	20.012	2.893	0.367
88.999	128.119	80.007	19.994	103.257	20.017	2.596	0.360
89.499	128.308	80.008	19.994	103.258	20.014	2.727	0.344
90.000	128.505	80.008	19.995	103.259	20.015	2.663	0.364
90.501	128.663	80.007	19.994	103.262	20.016	2.635	0.371
91.000	128.841	80.007	19.995	103.264	20.014	2.754	0.346
91.499	129.033	80.005	19.994	103.265	20.015	2.691	0.353
91.999	129.217	80.006	19.994	103.266	20.015	2.726	0.373
92.499	129.375	80.006	19.993	103.267	20.013	2.842	0.359
92.999	129.553	80.005	19.994	103.264	20.014	2.788	0.339
93.499	129.746	80.006	19.993	103.262	20.015	2.722	0.354
93.999	129.938	80.005	19.994	103.262	20.013	2.820	0.378
94.499	130.131	80.006	19.994	103.261	20.013	2.813	0.385
95.000	130.313	80.005	19.993	103.261	20.017	2.594	0.380
95.500	130.450	80.005	19.994	103.259	20.014	2.758	0.347
95.999	130.660	80.004	19.994	103.252	20.013	2.792	0.333
96.499	130.847	80.005	19.994	103.250	20.013	2.832	0.372
96.999	131.040	80.004	19.994	103.250	20.016	2.652	0.388
97.499	131.202	80.004	19.994	103.250	20.014	2.783	0.368
97.999	131.432	80.004	19.994	103.252	20.015	2.687	0.374
98.500	131.584	80.005	19.994	103.259	20.015	2.704	0.387
99.000	131.747	80.006	19.995	103.263	20.018	2.470	0.348
99.499	131.939	80.005	19.994	103.265	20.017	2.570	0.335
99.999	132.190	80.005	19.995	103.270	20.013	2.816	0.399
100.499	132.351	80.004	19.995	103.274	20.017	2.575	0.428
100.999	132.516	80.004	19.994	103.281	20.013	2.807	0.369
101.500	132.718	80.005	19.995	103.285	20.016	2.642	0.347
102.000	132.900	80.005	19.994	103.283	20.014	2.760	0.375
102.499	133.104	80.004	19.994	103.278	20.015	2.689	0.385
102.999	133.302	80.004	19.995	103.275	20.014	2.752	0.394
103.499	133.461	80.004	19.995	103.267	20.012	2.884	0.379
103.999	133.669	80.005	19.995	103.262	20.015	2.706	0.362
104.499	133.837	80.005	19.995	103.260	20.012	2.907	0.372
104.999	134.057	80.005	19.995	103.258	20.011	2.984	0.382
105.499	134.272	80.005	19.995	103.257	20.014	2.755	0.411
105.999	134.424	80.006	19.995	103.257	20.010	3.036	0.401
106.499	134.647	80.005	19.995	103.256	20.013	2.806	0.371
106.999	134.808	80.004	19.995	103.258	20.012	2.879	0.379
107.499	135.060	80.005	19.996	103.259	20.010	3.029	0.399
107.999	135.176	80.004	19.996	103.257	20.010	3.038	0.391
108.500	135.370	80.005	19.995	103.255	20.009	3.049	0.339
109.000	135.621	80.005	19.995	103.256	20.010	3.026	0.377
109.499	135.780	80.005	19.995	103.256	20.010	3.038	0.427
109.999	136.001	80.004	19.995	103.257	20.010	3.033	0.395
110.499	136.202	80.004	19.995	103.260	20.010	3.047	0.401
110.999	136.401	80.005	19.995	103.261	20.008	3.143	0.411
111.499	136.594	80.005	19.995	103.262	20.008	3.122	0.396
111.999	136.793	80.005	19.995	103.263	20.010	3.045	0.392
112.500	137.004	80.005	19.994	103.267	20.012	2.905	0.401
113.001	137.179	80.004	19.995	103.268	20.011	2.984	0.398
113.501	137.378	80.005	19.994	103.268	20.012	2.892	0.380
114.000	137.569	80.005	19.995	103.268	20.014	2.752	0.382
114.499	137.795	80.005	19.995	103.267	20.009	3.098	0.404
114.999	137.972	80.005	19.995	103.265	20.012	2.904	0.410
115.499	138.168	80.005	19.994	103.264	20.010	3.033	0.388
116.000	138.375	80.003	19.995	103.264	20.011	2.946	0.388
116.500	138.602	80.006	19.994	103.263	20.009	3.108	0.419
116.999	138.750	80.006	19.995	103.263	20.009	3.087	0.404
117.501	138.962	80.005	19.994	103.264	20.008	3.171	0.367
118.001	139.176	80.005	19.994	103.267	20.008	3.145	0.393
118.499	139.355	80.006	19.995	103.267	20.009	3.081	0.410
118.999	139.581	80.006	19.995	103.267	20.010	3.026	0.398
119.499	139.744	80.007	19.995	103.270	20.005	3.370	0.397
119.999	139.999	80.004	19.995	103.273	20.006	3.281	0.404
120.499	140.173	80.006	19.995	103.271	20.007	3.212	0.424
120.999	140.382	80.006	19.995	103.271	20.008	3.128	0.406
121.500	140.602	80.005	19.995	103.269	20.006	3.254	0.406
122.000	140.785	80.004	19.995	103.266	20.010	3.011	0.416
122.499	141.001	80.006	19.995	103.263	20.010	3.018	0.401
122.999	141.200	80.005	19.995	103.266	20.007	3.188	0.407
123.499	141.422	80.005	19.996	103.269	20.005	3.324	0.418
123.999	141.583	80.006	19.995	103.272	20.006	3.268	0.402
124.500	141.837	80.005	19.996	103.276	20.008	3.147	0.399
125.001	141.988	80.004	19.995	103.282	20.006	3.247	0.410
125.500	142.216	80.004	19.995	103.276	20.010	3.039	0.392
125.999	142.436	80.005	19.995	103.274	20.007	3.236	0.414
126.499	142.642	80.006	19.995	103.273	20.009	3.086	0.437
127.000	142.837	80.005	19.994	103.269	20.004	3.411	0.413
127.500	143.054	80.005	19.996	103.267	20.008	3.172	0.407
127.999	143.288	80.005	19.996	103.275	20.001	3.589	0.432
128.500	143.474	80.004	19.995	103.279	20.006	3.271	0.436
129.000	143.669	80.005	19.995	103.282	20.004	3.376	0.401
129.500	143.891	80.003	19.996	103.284	20.004	3.387	0.399
130.000	144.095	80.004	19.996	103.280	20.008	3.142	0.422
130.500	144.298	80.005	19.996	103.277	20.007	3.203	0.417
131.000	144.551	80.004	19.996	103.278	20.006	3.283	0.431
131.500	144.739	80.003	19.995	103.280	20.004	3.392	0.448
132.000	144.957	80.004	19.995	103.284	20.003	3.437	0.423
132.500	145.200	80.004	19.996	103.292	20.008	3.149	0.433
133.000	145.378	80.004	19.995	103.296	20.004	3.381	0.441
133.500	145.564	80.003	19.996	103.297	20.005	3.360	0.392
134.000	145.817	80.003	19.995	103.295	20.002	3.501	0.401
134.500	146.018	80.004	19.996	103.293	20.003	3.482	0.446
135.000	146.240	80.003	19.995	103.289	20.008	3.172	0.439
135.500	146.441	80.002	19.996	103.284	20.007	3.211	0.423
136.000	146.669	80.004	19.996	103.281	19.999	3.725	0.426
136.500	146.882	80.004	19.996	103.282	20.004	3.382	0.435
137.000	147.089	80.004	19.995	103.281	20.005	3.347	0.430
137.500	147.319	80.004	19.997	103.285	20.004	3.426	0.429
138.000	147.529	80.004	19.997	103.288	20.005	3.330	0.438
138.500	147.728	80.004	19.996	103.289	20.003	3.484	0.424
139.000	147.937	80.005	19.996	103.288	20.001	3.615	0.409
139.500	148.184	80.006	19.996	103.288	20.003	3.496	0.432
140.000	148.423	80.006	19.996	103.289	20.004	3.376	0.471
140.500	148.641	80.005	19.996	103.289	20.006	3.297	0.472
141.000	148.843	80.004	19.998	103.285	20.004	3.397	0.439
141.500	149.084	80.006	19.996	103.283	20.005	3.327	0.432
142.000	149.269	80.005	19.995	103.282	20.005	3.327	0.435
142.500	149.510	80.005	19.996	103.280	20.005	3.325	0.426
143.000	149.732	80.006	19.995	103.278	20.001	3.591	0.444
143.500	149.978	80.005	19.995	103.277	20.002	3.556	0.465
144.000	150.184	80.006	19.996	103.275	20.005	3.362	0.460
144.500	150.418	80.007	19.996	103.271	20.005	3.351	0.446
145.000	150.613	80.005	19.995	103.265	20.004	3.402	0.434
145.500	150.826	80.006	19.995	103.260	20.005	3.323	0.418
146.000	151.051	80.008	19.995	103.259	20.007	3.238	0.423
146.500	151.254	80.006	19.995	103.259	20.006	3.292	0.433
147.000	151.477	80.006	19.994	103.263	20.003	3.484	0.427
147.500	151.711	80.006	19.994	103.266	20.002	3.561	0.442
148.000	151.922	80.006	19.995	103.269	20.002	3.542	0.451
148.500	152.176	80.006	19.995	103.276	20.006	3.259	0.455
149.000	152.413	80.008	19.994	103.278	20.002	3.559	0.478
149.500	152.619	80.003	19.994	103.276	20.003	3.449	0.467
150.000	152.853	80.005	19.995	103.279	20.001	3.587	0.441
150.500	153.059	80.005	19.995	103.278	20.002	3.536	0.440
151.000	153.296	80.006	19.994	103.279	20.002	3.561	0.441
151.500	153.534	80.004	19.994	103.278	20.002	3.554	0.459
152.000	153.722	80.004	19.993	103.280	20.002	3.552	0.451
152.500	153.977	80.005	19.994	103.282	20.001	3.574	0.434
153.000	154.201	80.005	19.995	103.287	20.001	3.574	0.461
153.500	154.427	80.005	19.995	103.285	20.002	3.508	0.465
154.000	154.656	80.005	19.994	103.287	20.001	3.587	0.453
154.500	154.895	80.006	19.994	103.285	20.005	3.332	0.461
155.000	155.117	80.004	19.995	103.279	20.001	3.592	0.464
155.500	155.332	80.005	19.995	103.275	20.004	3.398	0.449
156.000	155.588	80.005	19.993	103.273	20.003	3.444	0.454
156.500	155.851	80.005	19.996	103.269	20.002	3.548	0.495
157.000	156.054	80.005	19.994	103.274	20.000	3.676	0.492
157.500	156.279	80.005	19.994	103.279	20.002	3.553	0.447
158.000	156.556	80.006	19.994	103.279	20.003	3.450	0.465
158.500	156.779	80.006	19.995	103.278	20.003	3.445	0.501
159.000	157.033	80.006	19.995	103.280	20.002	3.540	0.488
159.500	157.260	80.005	19.995	103.279	20.002	3.515	0.479
160.000	157.491	80.005	19.994	103.277	20.002	3.510	0.469
160.500	157.707	80.005	19.994	103.275	20.007	3.192	0.452
161.000	157.928	80.005	19.994	103.276	20.006	3.288	0.442
161.500	158.151	80.005	19.994	103.274	20.000	3.673	0.441
162.000	158.427	80.005	19.994	103.269	20.003	3.500	0.471
162.500	158.621	80.006	19.994	103.267	20.003	3.496	0.484
163.000	158.904	80.006	19.994	103.266	20.005	3.341	0.474
163.500	159.111	80.005	19.994	103.264	20.003	3.500	0.484
164.000	159.313	80.006	19.994	103.262	20.000	3.652	0.449
164.500	159.558	80.006	19.995	103.263	20.002	3.552	0.428
165.000	159.758	80.006	19.994	103.264	20.003	3.456	0.446
165.500	160.041	80.007	19.994	103.266	20.000	3.649	0.464
166.000	160.247	80.006	19.995	103.269	20.000	3.636	0.486
166.500	160.516	80.006	19.994	103.269	20.002	3.528	0.482
167.000	160.730	80.006	19.995	103.269	20.000	3.654	0.479
167.500	161.005	80.008	19.994	103.267	20.001	3.584	0.486
168.000	161.240	80.007	19.994	103.265	20.006	3.299	0.499
168.500	161.473	80.008	19.994	103.264	20.005	3.312	0.489
169.000	161.719	80.007	19.995	103.266	20.004	3.380	0.474
169.500	161.955	80.007	19.994	103.268	20.002	3.512	0.480
170.000	162.173	80.007	19.994	103.269	20.003	3.495	0.468
170.500	162.417	80.008	19.994	103.271	20.005	3.311	0.458
171.000	162.653	80.008	19.995	103.272	20.002	3.538	0.471
171.500	162.889	80.007	19.993	103.275	20.003	3.468	0.476
172.000	163.163	80.007	19.993	103.279	20.002	3.557	0.491
172.500	163.378	80.007	19.994	103.283	20.004	3.428	0.499
173.000	163.636	80.007	19.994	103.282	20.003	3.468	0.480
173.500	163.872	80.007	19.994	103.282	20.002	3.519	0.483
174.000	164.126	80.006	19.995	103.283	20.002	3.526	0.492
174.500	164.385	80.006	19.994	103.283	20.002	3.557	0.502
175.000	164.591	80.006	19.994	103.285	20.003	3.480	0.489
175.500	164.876	80.006	19.994	103.287	19.999	3.726	0.478
176.000	165.097	80.005	19.995	103.288	20.002	3.526	0.499
176.500	165.320	80.005	19.994	103.285	20.001	3.616	0.475
177.000	165.597	80.004	19.995	103.283	20.003	3.499	0.472
177.500	165.831	80.005	19.994	103.282	19.999	3.713	0.505
178.000	166.051	80.003	19.994	103.287	20.001	3.595	0.482
178.500	166.303	80.003	19.994	103.291	20.001	3.623	0.463
179.000	166.533	80.003	19.994	103.296	19.998	3.794	0.477
179.500	166.796	80.004	19.993	103.296	20.000	3.691	0.487
180.000	167.013	80.005	19.994	103.292	20.002	3.560	0.486
180.500	167.221	80.004	19.994	103.285	20.001	3.588	0.453
181.000	167.516	80.005	19.994	103.283	20.002	3.561	0.464
181.500	167.741	80.004	19.994	103.283	20.001	3.589	0.511
182.000	167.969	80.004	19.994	103.281	20.001	3.572	0.487
182.500	168.207	80.005	19.994	103.280	20.002	3.509	0.460
183.000	168.448	80.005	19.994	103.279	20.003	3.475	0.472
183.500	168.727	80.003	19.993	103.274	20.001	3.598	0.499
184.000	168.975	80.005	19.994	103.267	19.995	3.977	0.524
184.500	169.187	80.004	19.994	103.266	20.000	3.674	0.494
185.000	169.449	80.004	19.994	103.265	19.999	3.704	0.467
185.500	169.668	80.005	19.994	103.264	19.999	3.748	0.477
186.000	169.943	80.005	19.993	103.266	20.001	3.604	0.487
186.500	170.155	80.004	19.995	103.265	19.999	3.721	0.490
187.000	170.374	80.004	19.995	103.265	20.000	3.692	0.459
187.500	170.669	80.005	19.995	103.267	19.998	3.775	0.473
188.000	170.872	80.004	19.995	103.270	20.000	3.630	0.506
188.500	171.088	80.006	19.994	103.267	20.001	3.567	0.459
189.000	171.355	80.005	19.994	103.267	19.999	3.702	0.451
189.500	171.591	80.005	19.994	103.265	19.996	3.935	0.493
190.000	171.837	80.004	19.995	103.262	19.997	3.845	0.493
190.500	172.112	80.003	19.993	103.259	20.001	3.620	0.502
191.000	172.349	80.005	19.995	103.259	19.998	3.821	0.516
191.500	172.573	80.005	19.995	103.265	19.995	4.009	0.486
192.000	172.816	80.004	19.995	103.271	19.999	3.704	0.464
192.500	173.091	80.004	19.994	103.277	19.997	3.854	0.493
193.000	173.285	80.004	19.995	103.282	19.998	3.789	0.493
193.500	173.564	80.004	19.995	103.286	19.997	3.871	0.471
194.000	173.802	80.005	19.995	103.283	19.997	3.831	0.495
194.500	174.040	80.005	19.995	103.282	20.001	3.599	0.496
195.000	174.317	80.004	19.995	103.277	19.997	3.852	0.495
195.500	174.579	80.003	19.996	103.272	19.998	3.773	0.527
196.000	174.789	80.004	19.995	103.268	20.000	3.658	0.506
196.500	175.060	80.004	19.994	103.268	20.000	3.641	0.476
197.000	175.281	80.004	19.994	103.268	19.999	3.693	0.487
197.500	175.545	80.005	19.996	103.268	20.000	3.630	0.489
198.000	175.745	80.004	19.995	103.268	19.996	3.903	0.475
198.500	176.016	80.006	19.995	103.268	20.002	3.552	0.467
199.000	176.309	80.006	19.996	103.265	19.999	3.730	0.517
199.500	176.528	80.004	19.996	103.266	20.000	3.639	0.538
200.000	176.774	80.005	19.995	103.267	19.999	3.695	0.489
200.500	177.026	80.005	19.995	103.271	19.998	3.777	0.482
201.000	177.277	80.005	19.994	103.271	20.001	3.566	0.500
201.500	177.501	80.005	19.995	103.269	19.996	3.927	0.489
202.000	177.766	80.005	19.994	103.265	19.995	4.008	0.482
202.500	178.024	80.005	19.995	103.263	19.994	4.056	0.506
203.000	178.250	80.006	19.995	103.259	19.999	3.739	0.503
203.500	178.501	80.003	19.994	103.259	19.999	3.732	0.481
204.000	178.753	80.005	19.996	103.261	19.997	3.884	0.490
204.500	179.020	80.004	19.995	103.262	19.995	4.001	0.511
205.000	179.263	80.005	19.995	103.261	19.997	3.882	0.515
205.500	179.490	80.005	19.995	103.260	19.994	4.029	0.490
206.000	179.751	80.004	19.997	103.260	19.994	4.055	0.479
206.500	180.013	80.004	19.994	103.260	19.997	3.859	0.506
207.000	180.281	80.005	19.995	103.259	19.996	3.887	0.526
207.500	180.475	80.005	19.996	103.259	19.994	4.027	0.496
208.000	180.742	80.004	19.996	103.259	19.994	4.025	0.462
208.500	181.011	80.005	19.995	103.261	19.996	3.913	0.498
209.000	181.284	80.005	19.995	103.260	19.996	3.945	0.538
209.500	181.488	80.005	19.995	103.260	19.994	4.016	0.509
210.000	181.756	80.005	19.995	103.260	19.997	3.833	0.475
210.500	182.010	80.007	19.996	103.260	19.996	3.920	0.498
211.000	182.267	80.005	19.995	103.259	19.998	3.758	0.517
211.500	182.477	80.004	19.997	103.259	19.996	3.904	0.489
212.000	182.770	80.004	19.996	103.260	19.995	3.976	0.484
212.500	182.968	80.005	19.995	103.260	19.998	3.814	0.497
213.000	183.257	80.005	19.995	103.261	19.997	3.849	0.490
213.500	183.542	80.004	19.994	103.261	19.997	3.877	0.531
214.000	183.740	80.005	19.994	103.261	19.993	4.112	0.528
214.500	183.986	80.004	19.996	103.261	19.998	3.784	0.463
215.000	184.281	80.004	19.996	103.262	19.998	3.758	0.493
215.500	184.502	80.004	19.996	103.263	19.998	3.794	0.528
216.000	184.760	80.005	19.996	103.265	20.000	3.667	0.497
216.500	185.014	80.005	19.995	103.267	20.001	3.578	0.496
217.000	185.297	80.005	19.996	103.268	19.997	3.885	0.525
217.500	185.525	80.005	19.995	103.267	19.998	3.780	0.524
218.000	185.771	80.006	19.995	103.265	19.996	3.943	0.492
218.500	186.057	80.005	19.995	103.263	19.999	3.749	0.503
219.000	186.289	80.004	19.996	103.262	19.995	3.980	0.525
219.500	186.564	80.005	19.996	103.261	19.996	3.906	0.513
220.000	186.799	80.005	19.996	103.262	20.001	3.586	0.509
220.500	187.060	80.004	19.995	103.261	19.994	4.051	0.503
221.000	187.335	80.005	19.995	103.262	19.998	3.814	0.516
221.500	187.592	80.006	19.995	103.260	20.000	3.635	0.534
222.000	187.829	80.005	19.996	103.259	19.999	3.723	0.513
222.500	188.075	80.005	19.995	103.260	19.997	3.873	0.488
223.000	188.343	80.006	19.996	103.262	19.994	4.030	0.498
223.500	188.567	80.005	19.996	103.263	19.994	4.025	0.503
224.000	188.836	80.005	19.995	103.263	19.998	3.817	0.492
224.500	189.088	80.005	19.995	103.264	19.991	4.221	0.507
225.000	189.342	80.005	19.995	103.263	19.994	4.023	0.513
225.500	189.572	80.006	19.995	103.262	19.997	3.868	0.495
226.000	189.824	80.006	19.995	103.260	19.995	3.999	0.483
226.500	190.128	80.006	19.996	103.261	19.996	3.918	0.519
227.000	190.368	80.006	19.995	103.261	19.993	4.093	0.550
227.500	190.609	80.006	19.996	103.261	19.996	3.939	0.513
228.000	190.839	80.006	19.996	103.261	19.995	3.960	0.476
228.500	191.134	80.006	19.995	103.260	19.993	4.142	0.498
229.000	191.387	80.005	19.996	103.259	19.995	3.978	0.537
229.500	191.653	80.007	19.995	103.258	19.995	3.988	0.533
230.000	191.875	80.005	19.996	103.259	19.991	4.231	0.504
230.500	192.154	80.006	19.996	103.259	19.992	4.171	0.495
231.000	192.429	80.004	19.995	103.259	19.996	3.920	0.527
231.500	192.623	80.006	19.996	103.260	19.995	4.004	0.512
232.000	192.887	80.005	19.995	103.258	19.993	4.100	0.464
232.500	193.130	80.005	19.996	103.257	19.993	4.137	0.482
233.000	193.423	80.004	19.996	103.255	19.994	4.074	0.521
233.500	193.653	80.006	19.995	103.255	19.992	4.172	0.529
234.000	193.932	80.004	19.996	103.255	19.996	3.922	0.516
234.500	194.193	80.005	19.995	103.256	19.993	4.088	0.525
235.000	194.405	80.005	19.996	103.255	19.991	4.212	0.507
235.500	194.687	80.007	19.996	103.256	19.993	4.109	0.483
236.000	194.924	80.005	19.995	103.257	19.997	3.862	0.507
236.500	195.170	80.006	19.996	103.256	19.997	3.857	0.502
237.000	195.407	80.004	19.995	103.257	19.995	3.969	0.483
237.500	195.651	80.004	19.996	103.257	19.994	4.031	0.482
238.000	195.897	80.004	19.996	103.256	19.997	3.885	0.486
238.500	196.145	80.005	19.995	103.254	19.996	3.929	0.492
239.000	196.387	80.004	19.995	103.255	19.993	4.084	0.492
239.500	196.636	80.005	19.996	103.255	19.996	3.896	0.491
240.000	196.928	80.005	19.995	103.256	20.001	3.621	0.516
240.500	197.116	80.004	19.995	103.257	19.996	3.902	0.511
241.000	197.375	80.006	19.995	103.256	19.996	3.927	0.464
241.500	197.650	80.007	19.996	103.254	19.992	4.166	0.490
242.000	197.912	80.005	19.995	103.253	19.992	4.161	0.535
242.500	198.156	80.005	19.994	103.252	19.996	3.920	0.521
243.000	198.408	80.006	19.995	103.253	19.996	3.908	0.501
243.500	198.676	80.007	19.995	103.255	19.998	3.817	0.508
244.000	198.882	80.006	19.994	103.258	19.997	3.871	0.497
244.500	199.127	80.005	19.994	103.260	19.996	3.890	0.463
245.000	199.447	80.005	19.994	103.258	19.998	3.774	0.508
245.500	199.659	80.005	19.994	103.258	19.998	3.787	0.549
246.000	199.932	80.007	19.994	103.257	19.996	3.907	0.508
246.500	200.154	80.007	19.994	103.254	19.996	3.918	0.490
247.000	200.379	80.006	19.993	103.248	19.998	3.762	0.471
247.500	200.677	80.006	19.994	103.247	19.998	3.766	0.486
248.000	200.905	80.005	19.995	103.246	19.994	4.040	0.524
248.500	201.156	80.008	19.994	103.246	19.993	4.100	0.502
249.000	201.417	80.006	19.995	103.247	19.995	4.007	0.496
249.500	201.637	80.008	19.995	103.251	19.995	3.986	0.497
250.000	201.963	80.007	19.995	103.255	19.995	3.979	0.513
250.500	202.161	80.008	19.994	103.256	19.996	3.895	0.535
251.000	202.386	80.006	19.994	103.254	19.995	3.987	0.474
251.500	202.651	80.006	19.994	103.250	19.995	3.959	0.457
252.000	202.924	80.008	19.995	103.250	19.994	4.052	0.514
252.500	203.231	80.009	19.995	103.250	19.994	4.070	0.559
253.000	203.356	80.007	19.995	103.248	19.999	3.722	0.506
253.500	203.868	80.007	19.995	103.247	19.996	3.937	0.534
254.000	203.935	80.007	19.993	103.252	19.998	3.782	0.608
254.500	204.208	80.007	19.993	103.252	19.998	3.797	0.459
255.000	204.394	80.007	19.994	103.246	19.997	3.869	0.400
255.500	204.645	80.006	19.994	103.242	19.996	3.938	0.449
256.000	204.905	80.006	19.994	103.239	19.998	3.809	0.475
256.500	205.173	80.007	19.996	103.237	19.998	3.816	0.520
257.000	205.406	80.007	19.994	103.238	19.996	3.926	0.514
257.500	205.616	80.006	19.995	103.242	20.000	3.657	0.472
258.000	205.976	80.007	19.996	103.247	19.999	3.696	0.506
258.500	206.132	80.006	19.995	103.250	19.996	3.937	0.543
259.000	206.452	80.005	19.995	103.251	19.998	3.776	0.496
259.500	206.668	80.005	19.995	103.247	19.998	3.820	0.506
260.000	206.933	80.006	19.994	103.243	19.998	3.814	0.508
260.500	207.189	80.005	19.995	103.237	19.996	3.901	0.501
261.000	207.382	80.005	19.995	103.235	19.999	3.725	0.486
261.500	207.716	80.005	19.995	103.234	19.996	3.922	0.488
262.000	207.882	80.005	19.995	103.232	19.998	3.802	0.513
262.500	208.163	80.004	19.994	103.234	19.997	3.835	0.473
263.000	208.382	80.004	19.995	103.241	19.991	4.237	0.473
263.500	208.637	80.004	19.995	103.245	19.995	3.957	0.488
264.000	208.864	80.006	19.994	103.246	19.998	3.792	0.478
264.500	209.138	80.005	19.994	103.246	19.992	4.174	0.491
265.000	209.341	80.004	19.994	103.243	19.997	3.865	0.489
265.500	209.620	80.005	19.994	103.241	19.994	4.061	0.480
266.000	209.844	80.004	19.995	103.236	19.997	3.865	0.493
266.500	210.103	80.005	19.996	103.230	19.998	3.760	0.493
267.000	210.337	80.004	19.994	103.229	19.997	3.830	0.488
267.500	210.602	80.005	19.995	103.228	19.994	4.057	0.496
268.000	210.876	80.005	19.994	103.226	19.994	4.057	0.519
268.500	211.077	80.005	19.995	103.231	19.994	4.066	0.507
269.000	211.350	80.005	19.994	103.234	19.997	3.830	0.474
269.500	211.550	80.006	19.996	103.235	19.995	3.971	0.473
270.000	211.774	80.005	19.995	103.233	19.995	3.957	0.449
270.500	212.107	80.004	19.995	103.231	19.993	4.132	0.491
271.000	212.329	80.004	19.995	103.224	19.996	3.926	0.556
271.500	212.551	80.005	19.995	103.221	19.996	3.898	0.500
272.000	212.777	80.005	19.995	103.224	19.995	3.964	0.446
272.500	212.994	80.004	19.995	103.225	19.997	3.866	0.446
273.000	213.276	80.006	19.995	103.225	19.993	4.116	0.472
273.500	213.517	80.006	19.996	103.230	19.994	4.034	0.511
274.000	213.717	80.006	19.995	103.232	19.995	3.992	0.482
274.500	213.979	80.005	19.996	103.231	19.995	4.005	0.452
275.000	214.237	80.005	19.996	103.236	19.999	3.743	0.491
275.500	214.470	80.005	19.994	103.238	19.993	4.134	0.505
276.000	214.741	80.006	19.995	103.237	19.996	3.935	0.497
276.500	214.987	80.005	19.995	103.239	19.995	4.005	0.511
277.000	215.179	80.005	19.995	103.238	19.996	3.910	0.478
277.500	215.443	80.005	19.995	103.232	19.995	3.982	0.447
278.000	215.650	80.004	19.994	103.232	19.992	4.198	0.464
278.500	215.890	80.003	19.995	103.229	19.994	4.031	0.459
279.000	216.123	80.005	19.995	103.225	19.991	4.221	0.459
279.500	216.342	80.006	19.995	103.225	19.995	3.980	0.462
280.000	216.628	80.005	19.994	103.228	19.993	4.101	0.478
280.500	216.875	80.005	19.994	103.227	19.990	4.303	0.519
281.000	217.100	80.005	19.994	103.228	19.996	3.942	0.503
281.500	217.346	80.005	19.995	103.228	19.990	4.317	0.471
282.000	217.573	80.004	19.995	103.228	19.991	4.225	0.472
282.500	217.824	80.005	19.995	103.225	19.992	4.165	0.476
283.000	218.060	80.006	19.995	103.223	19.992	4.186	0.483
283.500	218.301	80.006	19.995	103.222	19.991	4.237	0.482
284.000	218.556	80.006	19.996	103.221	19.990	4.280	0.486
284.500	218.758	80.006	19.996	103.222	19.995	4.003	0.477
285.000	219.015	80.005	19.995	103.222	19.993	4.123	0.458
285.500	219.243	80.005	19.994	103.228	19.991	4.246	0.472
286.000	219.489	80.004	19.994	103.229	19.991	4.227	0.480
286.500	219.725	80.005	19.994	103.228	19.990	4.286	0.478
287.000	219.972	80.006	19.993	103.228	19.993	4.083	0.483
287.500	220.220	80.005	19.995	103.230	19.987	4.466	0.489
288.000	220.454	80.004	19.994	103.226	19.991	4.219	0.489
288.500	220.688	80.004	19.994	103.227	19.990	4.294	0.475
289.000	220.951	80.005	19.995	103.229	19.991	4.268	0.482
289.500	221.163	80.003	19.994	103.234	19.991	4.242	0.486
290.000	221.421	80.004	19.996	103.234	19.993	4.087	0.472
290.500	221.625	80.005	19.996	103.235	19.991	4.218	0.466
291.000	221.901	80.003	19.994	103.234	19.988	4.431	0.472
291.500	222.095	80.004	19.995	103.235	19.992	4.176	0.475
292.000	222.339	80.004	19.996	103.231	19.991	4.246	0.454
292.500	222.572	80.006	19.996	103.228	19.994	4.057	0.457
293.000	222.834	80.004	19.995	103.226	19.992	4.196	0.486
293.500	223.075	80.004	19.996	103.226	19.988	4.443	0.499
294.000	223.298	80.003	19.994	103.224	19.988	4.422	0.483
294.500	223.506	80.004	19.995	103.225	19.989	4.344	0.448
295.000	223.738	80.002	19.996	103.227	19.990	4.304	0.435
295.500	224.022	80.003	19.995	103.230	19.990	4.316	0.478
296.000	224.213	80.004	19.995	103.231	19.990	4.272	0.495
296.500	224.462	80.004	19.996	103.231	19.988	4.426	0.458
297.000	224.720	80.003	19.996	103.232	19.988	4.405	0.474
297.500	224.948	80.002	19.995	103.232	19.987	4.500	0.496
298.000	225.155	80.004	19.995	103.229	19.984	4.675	0.460
298.500	225.406	80.004	19.997	103.231	19.989	4.349	0.447
299.000	225.637	80.004	19.996	103.231	19.983	4.724	0.470
299.500	225.879	80.004	19.996	103.229	19.986	4.530	0.477
300.000	226.079	80.004	19.997	103.226	19.983	4.750	0.458
300.500	226.297	80.002	19.996	103.226	19.988	4.448	0.430
301.000	226.569	80.004	19.996	103.225	19.984	4.672	0.454
301.500	226.750	80.004	19.996	103.228	19.984	4.670	0.471
302.000	227.063	80.003	19.995	103.228	19.987	4.476	0.474
302.500	227.316	80.003	19.995	103.228	19.988	4.426	0.530
303.000	227.521	80.004	19.995	103.228	19.983	4.740	0.512
303.500	227.760	80.004	19.994	103.226	19.987	4.522	0.451
304.000	228.015	80.004	19.996	103.224	19.984	4.691	0.469
304.500	228.266	80.006	19.996	103.226	19.986	4.541	0.500
305.000	228.528	80.004	19.995	103.230	19.983	4.773	0.510
305.500	228.741	80.006	19.995	103.236	19.981	4.871	0.494
306.000	228.996	80.005	19.994	103.238	19.987	4.516	0.471
306.500	229.261	80.005	19.996	103.238	19.982	4.812	0.494
307.000	229.509	80.006	19.994	103.238	19.981	4.854	0.517
307.500	229.702	80.005	19.995	103.235	19.985	4.653	0.477
308.000	229.915	80.006	19.994	103.229	19.982	4.828	0.423
308.500	230.159	80.006	19.995	103.227	19.984	4.672	0.432
309.000	230.415	80.006	19.994	103.229	19.985	4.657	0.479
309.500	230.660	80.006	19.995	103.228	19.985	4.632	0.501
310.000	230.893	80.006	19.995	103.228	19.983	4.737	0.489
310.500	231.094	80.005	19.995	103.228	19.987	4.517	0.456
311.000	231.350	80.005	19.995	103.230	19.981	4.880	0.445
311.500	231.596	80.005	19.995	103.228	19.985	4.649	0.480
312.000	231.796	80.005	19.994	103.234	19.985	4.639	0.474
312.500	232.047	80.005	19.994	103.234	19.985	4.655	0.449
313.000	232.317	80.005	19.994	103.234	19.984	4.690	0.486
313.500	232.510	80.006	19.995	103.232	19.981	4.856	0.492
314.000	232.782	80.006	19.995	103.237	19.987	4.524	0.464
314.500	233.012	80.006	19.996	103.232	19.983	4.744	0.484
315.000	233.235	80.006	19.995	103.231	19.983	4.763	0.477
315.500	233.465	80.005	19.995	103.230	19.980	4.930	0.453
316.000	233.723	80.005	19.994	103.229	19.983	4.735	0.471
316.500	233.982	80.007	19.996	103.231	19.981	4.883	0.503
317.000	234.219	80.004	19.992	103.231	19.982	4.801	0.507
317.500	234.460	80.005	19.996	103.232	19.984	4.714	0.487
318.000	234.675	80.006	19.996	103.238	19.982	4.823	0.467
318.500	234.928	80.005	19.995	103.244	19.983	4.769	0.462
319.000	235.154	80.005	19.995	103.244	19.982	4.802	0.473
319.500	235.392	80.004	19.995	103.245	19.980	4.956	0.471
320.000	235.629	80.004	19.996	103.247	19.984	4.704	0.469
320.500	235.863	80.005	19.995	103.246	19.984	4.697	0.473
321.000	236.077	80.005	19.996	103.245	19.985	4.629	0.460
321.500	236.346	80.004	19.995	103.240	19.982	4.844	0.465
322.000	236.601	80.006	19.997	103.240	19.982	4.823	0.503
322.500	236.828	80.004	19.995	103.238	19.980	4.963	0.503
323.000	237.053	80.005	19.995	103.237	19.977	5.164	0.467
323.500	237.275	80.006	19.997	103.237	19.976	5.181	0.450
324.000	237.533	80.004	19.995	103.239	19.978	5.108	0.463
324.500	237.784	80.006	19.997	103.238	19.981	4.870	0.494
325.000	238.025	80.005	19.995	103.243	19.978	5.052	0.501
325.500	238.229	80.005	19.996	103.241	19.980	4.956	0.469
326.000	238.483	80.006	19.995	103.235	19.979	5.033	0.451
326.500	238.740	80.005	19.996	103.235	19.975	5.256	0.484
327.000	238.992	80.006	19.996	103.236	19.973	5.401	0.510
327.500	239.211	80.005	19.996	103.237	19.976	5.183	0.490
328.000	239.452	80.005	19.996	103.240	19.976	5.220	0.465
328.500	239.645	80.005	19.996	103.247	19.974	5.307	0.447
329.000	239.941	80.005	19.996	103.249	19.975	5.286	0.461
329.500	240.159	80.006	19.995	103.252	19.977	5.157	0.502
330.000	240.375	80.005	19.996	103.252	19.976	5.222	0.474
330.500	240.610	80.005	19.996	103.252	19.976	5.206	0.443
331.000	240.860	80.005	19.995	103.252	19.978	5.101	0.468
331.500	241.103	80.006	19.995	103.252	19.977	5.166	0.489
332.000	241.278	80.006	19.995	103.252	19.977	5.160	0.456
332.500	241.598	80.006	19.994	103.251	19.974	5.325	0.456
333.000	241.827	80.008	19.995	103.250	19.976	5.218	0.522
333.500	242.044	80.007	19.994	103.251	19.969	5.662	0.498
334.000	242.322	80.008	19.995	103.252	19.971	5.546	0.470
334.500	242.571	80.006	19.994	103.253	19.972	5.496	0.510
335.000	242.789	80.007	19.995	103.253	19.970	5.594	0.497
335.500	243.048	80.007	19.995	103.252	19.971	5.510	0.473
336.000	243.240	80.008	19.995	103.252	19.972	5.443	0.464
336.500	243.527	80.008	19.994	103.253	19.971	5.557	0.465
337.000	243.766	80.007	19.994	103.253	19.974	5.340	0.502
337.500	243.990	80.007	19.994	103.255	19.967	5.805	0.494
338.000	244.186	80.008	19.994	103.257	19.970	5.569	0.442
338.500	244.492	80.007	19.994	103.257	19.968	5.718	0.461
339.000	244.712	80.007	19.995	103.256	19.971	5.525	0.515
339.500	244.976	80.008	19.996	103.256	19.967	5.808	0.505
340.000	245.189	80.006	19.995	103.256	19.970	5.611	0.480
340.500	245.432	80.006	19.994	103.256	19.969	5.651	0.467
341.000	245.708	80.006	19.994	103.257	19.964	5.989	0.488
341.500	245.936	80.007	19.994	103.257	19.964	5.950	0.511
342.000	246.216	80.006	19.995	103.257	19.971	5.559	0.506
342.500	246.435	80.006	19.995	103.257	19.966	5.840	0.504
343.000	246.692	80.006	19.995	103.256	19.966	5.821	0.487
343.500	246.919	80.005	19.996	103.256	19.968	5.751	0.480
344.000	247.199	80.006	19.995	103.256	19.968	5.730	0.495
344.500	247.468	80.005	19.996	103.256	19.964	5.971	0.528
345.000	247.738	80.006	19.994	103.256	19.963	6.023	0.544
345.500	247.971	80.006	19.994	103.256	19.964	6.006	0.521
346.000	248.234	80.005	19.996	103.256	19.966	5.875	0.500
346.500	248.459	80.004	19.995	103.256	19.963	6.015	0.493
347.000	248.734	80.006	19.996	103.256	19.966	5.875	0.494
347.500	248.984	80.005	19.995	103.256	19.969	5.690	0.512
348.000	249.221	80.004	19.994	103.257	19.963	6.064	0.506
348.500	249.484	80.005	19.995	103.257	19.962	6.081	0.493
349.000	249.738	80.004	19.994	103.257	19.965	5.900	0.508
349.500	250.012	80.005	19.995	103.255	19.963	6.041	0.523
350.000	250.247	80.004	19.995	103.256	19.962	6.080	0.519
350.500	250.498	80.005	19.995	103.256	19.960	6.230	0.497
351.000	250.749	80.004	19.995	103.257	19.964	5.969	0.494
351.500	251.037	80.005	19.994	103.260	19.959	6.307	0.521
352.000	251.275	80.005	19.995	103.261	19.961	6.151	0.533
352.500	251.559	80.005	19.995	103.261	19.957	6.404	0.524
353.000	251.811	80.005	19.995	103.259	19.959	6.322	0.529
353.500	252.056	80.005	19.994	103.258	19.958	6.335	0.516
354.000	252.286	80.004	19.995	103.256	19.960	6.226	0.486
354.500	252.547	80.003	19.996	103.257	19.958	6.368	0.483
355.000	252.826	80.004	19.995	103.257	19.957	6.434	0.516
355.500	253.043	80.004	19.994	103.259	19.957	6.452	0.518
356.000	253.307	80.006	19.995	103.259	19.956	6.501	0.488
356.500	253.570	80.004	19.995	103.260	19.957	6.401	0.503
357.000	253.848	80.004	19.995	103.260	19.958	6.377	0.534
357.500	254.135	80.004	19.996	103.260	19.957	6.441	0.553
358.000	254.374	80.003	19.994	103.261	19.956	6.488	0.546
358.500	254.595	80.004	19.995	103.263	19.955	6.560	0.493
359.000	254.883	80.005	19.995	103.265	19.954	6.593	0.484
359.500	255.127	80.005	19.995	103.264	19.954	6.600	0.521
360.000	255.377	80.004	19.996	103.264	19.955	6.562	0.513
360.500	255.688	80.006	19.996	103.264	19.953	6.696	0.527
361.000	255.922	80.005	19.995	103.262	19.954	6.616	0.553
361.500	256.202	80.005	19.996	103.261	19.949	6.955	0.530
362.000	256.406	80.005	19.995	103.260	19.952	6.735	0.499
362.500	256.678	80.005	19.996	103.260	19.952	6.785	0.480
363.000	256.963	80.005	19.995	103.259	19.950	6.911	0.517
363.500	257.220	80.006	19.995	103.260	19.950	6.906	0.550
364.000	257.477	80.005	19.994	103.259	19.951	6.848	0.528
364.500	257.727	80.003	19.995	103.261	19.949	6.950	0.511
365.000	258.002	80.005	19.996	103.263	19.952	6.749	0.516
365.500	258.236	80.004	19.995	103.264	19.948	7.000	0.517
366.000	258.516	80.004	19.994	103.263	19.948	7.012	0.511
366.500	258.758	80.005	19.994	103.264	19.945	7.210	0.518
367.000	259.039	80.006	19.995	103.263	19.948	6.985	0.522
367.500	259.299	80.006	19.995	103.263	19.945	7.233	0.532
368.000	259.556	80.005	19.995	103.263	19.948	7.014	0.529
368.500	259.826	80.005	19.995	103.264	19.942	7.413	0.522
369.000	260.088	80.004	19.995	103.264	19.947	7.088	0.530
369.500	260.358	80.004	19.995	103.264	19.946	7.118	0.532
370.000	260.584	80.005	19.995	103.265	19.944	7.249	0.514
370.500	260.868	80.005	19.995	103.265	19.943	7.303	0.503
371.000	261.110	80.004	19.994	103.264	19.940	7.511	0.518
371.500	261.366	80.004	19.995	103.263	19.942	7.420	0.512
372.000	261.628	80.005	19.994	103.263	19.940	7.521	0.508
372.500	261.868	80.004	19.995	103.260	19.943	7.334	0.510
373.000	262.136	80.003	19.994	103.260	19.942	7.409	0.505
373.500	262.440	80.004	19.994	103.258	19.941	7.432	0.540
374.000	262.638	80.004	19.994	103.260	19.945	7.196	0.537
374.500	262.907	80.004	19.995	103.260	19.938	7.665	0.484
375.000	263.184	80.004	19.995	103.261	19.943	7.329	0.507
375.500	263.428	80.005	19.994	103.263	19.938	7.656	0.534
376.000	263.711	80.003	19.995	103.263	19.937	7.724	0.524
376.500	263.926	80.003	19.995	103.263	19.940	7.512	0.512
377.000	264.260	80.003	19.993	103.263	19.939	7.623	0.523
377.500	264.496	80.002	19.994	103.263	19.937	7.698	0.560
378.000	264.734	80.003	19.994	103.263	19.933	7.989	0.523
378.500	264.991	80.004	19.994	103.265	19.937	7.740	0.485
379.000	265.284	80.004	19.994	103.266	19.937	7.707	0.522
379.500	265.548	80.002	19.994	103.269	19.932	8.053	0.553
380.000	265.790	80.004	19.995	103.269	19.937	7.690	0.531
380.500	266.028	80.003	19.994	103.269	19.937	7.723	0.493
381.000	266.283	80.004	19.994	103.268	19.934	7.884	0.487
381.500	266.580	80.004	19.994	103.269	19.933	7.962	0.523
382.000	266.847	80.004	19.995	103.266	19.927	8.367	0.558
382.500	267.114	80.005	19.994	103.266	19.929	8.211	0.549
383.000	267.403	80.004	19.994	103.264	19.929	8.258	0.545
383.500	267.634	80.005	19.994	103.267	19.930	8.141	0.538
384.000	267.887	80.004	19.995	103.266	19.927	8.360	0.502
384.500	268.137	80.004	19.994	103.269	19.928	8.290	0.493
385.000	268.392	80.005	19.995	103.269	19.929	8.260	0.504
385.500	268.675	80.004	19.994	103.269	19.929	8.254	0.522
386.000	268.936	80.004	19.994	103.265	19.928	8.270	0.541
386.500	269.156	80.005	19.995	103.267	19.928	8.303	0.512
387.000	269.458	80.005	19.995	103.263	19.931	8.130	0.501
387.500	269.695	80.004	19.994	103.263	19.930	8.168	0.531
388.000	269.997	80.005	19.995	103.269	19.927	8.353	0.539
388.500	270.245	80.005	19.995	103.270	19.925	8.487	0.545
389.000	270.493	80.006	19.996	103.266	19.930	8.174	0.523
389.500	270.767	80.006	19.995	103.268	19.928	8.329	0.509
390.000	271.022	80.006	19.994	103.275	19.924	8.576	0.525
390.500	271.306	80.007	19.995	103.272	19.922	8.698	0.534
391.000	271.572	80.006	19.997	103.278	19.923	8.594	0.545
391.500	271.827	80.006	19.996	103.281	19.921	8.760	0.536
392.000	272.097	80.007	19.995	103.284	19.922	8.690	0.523
392.500	272.330	80.006	19.994	103.276	19.920	8.786	0.514
393.000	272.601	80.006	19.995	103.274	19.914	9.179	0.504
393.500	272.860	80.005	19.995	103.268	19.915	9.150	0.517
394.000	273.143	80.006	19.996	103.264	19.920	8.814	0.536
394.500	273.374	80.007	19.996	103.265	19.922	8.693	0.528
395.000	273.650	80.005	19.995	103.270	19.918	8.970	0.510
395.500	273.899	80.005	19.995	103.270	19.913	9.300	0.516
396.000	274.155	80.006	19.995	103.271	19.914	9.187	0.515
396.500	274.420	80.005	19.995	103.276	19.914	9.204	0.513
397.000	274.684	80.006	19.994	103.276	19.911	9.414	0.525
397.500	274.921	80.005	19.994	103.277	19.911	9.416	0.515
398.000	275.155	80.006	19.995	103.277	19.909	9.512	0.486
398.500	275.438	80.005	19.995	103.275	19.905	9.790	0.494
399.000	275.680	80.005	19.995	103.270	19.906	9.738	0.521
399.500	275.927	80.006	19.994	103.264	19.905	9.802	0.507
400.000	276.189	80.007	19.995	103.258	19.908	9.610	0.499
400.500	276.433	80.005	19.994	103.258	19.908	9.609	0.507
401.000	276.736	80.005	19.995	103.259	19.905	9.770	0.527
401.500	276.995	80.006	19.996	103.262	19.904	9.863	0.554
402.000	277.217	80.006	19.995	103.263	19.902	9.967	0.521
402.500	277.500	80.005	19.996	103.266	19.897	10.322	0.493
403.000	277.773	80.006	19.995	103.265	19.901	10.057	0.530
403.500	278.027	80.006	19.995	103.266	19.903	9.916	0.542
404.000	278.275	80.007	19.995	103.269	19.900	10.107	0.515
404.500	278.508	80.006	19.994	103.277	19.900	10.079	0.491
405.000	278.741	80.007	19.994	103.282	19.899	10.171	0.473
405.500	279.011	80.007	19.995	103.288	19.901	10.054	0.485
406.000	279.262	80.007	19.996	103.293	19.896	10.346	0.513
406.500	279.502	80.005	19.995	103.294	19.895	10.441	0.506
407.000	279.778	80.007	19.995	103.292	19.896	10.363	0.503
407.500	280.015	80.004	19.995	103.292	19.892	10.626	0.514
408.000	280.274	80.006	19.995	103.291	19.893	10.586	0.504
408.500	280.552	80.007	19.995	103.283	19.892	10.630	0.516
409.000	280.772	80.006	19.995	103.281	19.888	10.864	0.518
409.500	281.014	80.006	19.995	103.280	19.889	10.815	0.480
410.000	281.268	80.005	19.995	103.278	19.884	11.114	0.479
410.500	281.547	80.007	19.995	103.277	19.887	10.938	0.515
411.000	281.803	80.007	19.995	103.283	19.887	10.926	0.534
411.500	282.032	80.007	19.996	103.286	19.885	11.083	0.510
412.000	282.261	80.006	19.996	103.287	19.886	11.006	0.471
412.500	282.515	80.006	19.994	103.289	19.880	11.380	0.470
413.000	282.782	80.005	19.995	103.289	19.880	11.385	0.502
413.500	283.087	80.006	19.994	103.292	19.881	11.351	0.546
414.000	283.306	80.008	19.995	103.289	19.882	11.298	0.548
414.500	283.544	80.007	19.996	103.286	19.877	11.585	0.491
415.000	283.822	80.006	19.995	103.282	19.876	11.636	0.487
415.500	284.078	80.008	19.994	103.283	19.876	11.662	0.525
416.000	284.322	80.007	19.995	103.283	19.876	11.676	0.516
416.500	284.584	80.007	19.995	103.283	19.876	11.685	0.503
417.000	284.845	80.007	19.995	103.285	19.874	11.788	0.515
417.500	285.102	80.006	19.996	103.288	19.873	11.832	0.521
418.000	285.323	80.006	19.995	103.291	19.873	11.860	0.498
418.500	285.582	80.007	19.996	103.291	19.868	12.178	0.479
419.000	285.851	80.007	19.996	103.292	19.872	11.944	0.504
419.500	286.085	80.005	19.996	103.292	19.871	11.980	0.515
420.000	286.354	80.006	19.996	103.294	19.868	12.200	0.503
420.500	286.611	80.005	19.996	103.293	19.869	12.130	0.514
421.000	286.872	80.007	19.996	103.294	19.864	12.411	0.522
421.500	287.146	80.006	19.995	103.296	19.863	12.511	0.527
422.000	287.395	80.007	19.995	103.297	19.865	12.343	0.529
422.500	287.597	80.006	19.996	103.296	19.864	12.441	0.487
423.000	287.870	80.004	19.995	103.297	19.861	12.641	0.463
423.500	288.098	80.005	19.994	103.297	19.858	12.835	0.488
424.000	288.371	80.005	19.995	103.297	19.858	12.799	0.501
424.500	288.610	80.005	19.996	103.297	19.854	13.044	0.507
425.000	288.871	80.004	19.997	103.297	19.852	13.207	0.506
425.500	289.134	80.004	19.997	103.299	19.854	13.064	0.512
426.000	289.376	80.004	19.996	103.300	19.850	13.355	0.514
426.500	289.625	80.003	19.994	103.299	19.851	13.301	0.498
427.000	289.863	80.004	19.996	103.302	19.852	13.191	0.489
427.500	290.143	80.004	19.995	103.306	19.850	13.305	0.503
428.000	290.389	80.003	19.996	103.306	19.846	13.575	0.522
428.500	290.642	80.005	19.995	103.307	19.845	13.654	0.512
429.000	290.895	80.004	19.995	103.307	19.843	13.808	0.503
429.500	291.150	80.004	19.995	103.305	19.845	13.686	0.507
430.000	291.375	80.004	19.995	103.302	19.842	13.824	0.494
430.500	291.622	80.003	19.996	103.301	19.841	13.902	0.476
431.000	291.921	80.005	19.995	103.300	19.841	13.927	0.509
431.500	292.144	80.004	19.996	103.299	19.842	13.841	0.534
432.000	292.411	80.005	19.996	103.297	19.838	14.112	0.506
432.500	292.701	80.004	19.994	103.297	19.835	14.322	0.523
433.000	292.937	80.004	19.995	103.297	19.831	14.541	0.541
433.500	293.144	80.005	19.995	103.297	19.836	14.259	0.484
434.000	293.416	80.005	19.995	103.299	19.832	14.518	0.461
434.500	293.648	80.005	19.994	103.305	19.832	14.527	0.491
435.000	293.921	80.004	19.996	103.310	19.827	14.799	0.505
435.500	294.168	80.005	19.994	103.313	19.822	15.154	0.513
436.000	294.426	80.004	19.995	103.317	19.824	15.015	0.513
436.500	294.686	80.005	19.994	103.320	19.823	15.055	0.511
437.000	294.909	80.003	19.994	103.320	19.821	15.214	0.500
437.500	295.191	80.002	19.995	103.323	19.820	15.279	0.494
438.000	295.435	80.004	19.994	103.327	19.818	15.389	0.516
438.500	295.628	80.004	19.995	103.332	19.820	15.290	0.482
439.000	295.914	80.004	19.994	103.336	19.815	15.612	0.458
439.500	296.134	80.003	19.995	103.340	19.815	15.583	0.493
440.000	296.398	80.005	19.995	103.340	19.811	15.832	0.495
440.500	296.637	80.005	19.994	103.340	19.809	15.964	0.493
441.000	296.931	80.004	19.994	103.338	19.809	15.996	0.518
441.500	297.147	80.005	19.994	103.338	19.807	16.083	0.521
442.000	297.402	80.004	19.994	103.338	19.808	16.029	0.490
442.500	297.599	80.004	19.994	103.339	19.805	16.244	0.461
443.000	297.880	80.004	19.995	103.339	19.803	16.351	0.465
443.500	298.111	80.004	19.994	103.341	19.800	16.560	0.495
444.000	298.380	80.004	19.994	103.341	19.800	16.575	0.506
444.500	298.615	80.005	19.995	103.341	19.797	16.761	0.502
445.000	298.872	80.005	19.995	103.340	19.798	16.723	0.498
445.500	299.117	80.005	19.995	103.340	19.796	16.821	0.497
446.000	299.374	80.005	19.994	103.340	19.791	17.132	0.502
446.500	299.649	80.006	19.994	103.341	19.792	17.082	0.517
447.000	299.873	80.005	19.995	103.341	19.790	17.217	0.515
447.500	300.104	80.005	19.994	103.341	19.785	17.558	0.477
448.000	300.376	80.005	19.994	103.344	19.783	17.677	0.479
448.500	300.586	80.005	19.994	103.344	19.786	17.441	0.492
449.000	300.835	80.004	19.995	103.344	19.777	18.059	0.471
449.500	301.086	80.004	19.993	103.344	19.783	17.679	0.480
450.000	301.338	80.006	19.995	103.349	19.781	17.773	0.501
450.500	301.621	80.006	19.995	103.351	19.773	18.311	0.519
451.000	301.834	80.005	19.995	103.356	19.774	18.229	0.516
451.500	302.089	80.006	19.994	103.361	19.777	18.078	0.482
452.000	302.355	80.004	19.994	103.365	19.772	18.392	0.494
452.500	302.576	80.006	19.995	103.366	19.774	18.240	0.504
453.000	302.833	80.006	19.995	103.367	19.769	18.556	0.483
453.500	303.071	80.005	19.995	103.368	19.771	18.464	0.486
454.000	303.332	80.006	19.995	103.370	19.766	18.730	0.496
454.500	303.562	80.006	19.994	103.371	19.765	18.846	0.495
455.000	303.832	80.005	19.994	103.368	19.762	19.014	0.496
455.500	304.080	80.006	19.995	103.363	19.760	19.148	0.509
456.000	304.340	80.005	19.995	103.363	19.759	19.218	0.513
456.500	304.555	80.006	19.995	103.364	19.755	19.499	0.492
457.000	304.865	80.005	19.995	103.364	19.756	19.381	0.500
457.500	305.063	80.004	19.995	103.369	19.749	19.876	0.517
458.000	305.318	80.005	19.995	103.371	19.749	19.846	0.480
458.500	305.588	80.005	19.996	103.368	19.746	20.026	0.489
459.000	305.853	80.004	19.995	103.360	19.746	20.035	0.530
459.500	306.050	80.006	19.996	103.352	19.745	20.089	0.499
460.000	306.326	80.004	19.995	103.345	19.740	20.455	0.467
460.500	306.572	80.005	19.996	103.340	19.742	20.304	0.498
461.000	306.805	80.006	19.995	103.338	19.738	20.593	0.500
461.500	307.055	80.005	19.996	103.346	19.737	20.644	0.481
462.000	307.334	80.004	19.995	103.354	19.733	20.909	0.506
462.500	307.577	80.003	19.995	103.362	19.729	21.129	0.526
463.000	307.820	80.005	19.994	103.367	19.727	21.253	0.504
463.500	308.068	80.004	19.994	103.369	19.726	21.316	0.489
464.000	308.314	80.005	19.995	103.368	19.727	21.300	0.493
464.500	308.564	80.004	19.994	103.368	19.725	21.377	0.495
465.000	308.811	80.005	19.994	103.369	19.721	21.658	0.496
465.500	309.045	80.007	19.995	103.372	19.721	21.674	0.488
466.000	309.330	80.006	19.994	103.377	19.719	21.811	0.500
466.500	309.553	80.005	19.995	103.378	19.714	22.100	0.513
467.000	309.854	80.004	19.996	103.380	19.714	22.094	0.515
467.500	310.080	80.004	19.996	103.378	19.712	22.274	0.525
468.000	310.337	80.005	19.994	103.373	19.704	22.733	0.505
468.500	310.571	80.006	19.996	103.372	19.708	22.521	0.487
469.000	310.819	80.007	19.994	103.372	19.707	22.594	0.487
469.500	311.069	80.006	19.995	103.370	19.698	23.121	0.490
470.000	311.285	80.007	19.995	103.371	19.698	23.157	0.481
470.500	311.581	80.006	19.995	103.380	19.697	23.225	0.489
471.000	311.812	80.007	19.994	103.381	19.694	23.390	0.520
471.500	312.082	80.007	19.995	103.382	19.694	23.395	0.515
472.000	312.326	80.007	19.995	103.383	19.689	23.765	0.508
472.500	312.610	80.007	19.994	103.382	19.690	23.681	0.520
473.000	312.862	80.007	19.994	103.379	19.682	24.192	0.532
473.500	313.109	80.007	19.994	103.379	19.682	24.202	0.518
474.000	313.376	80.007	19.993	103.378	19.677	24.510	0.507
474.500	313.604	80.007	19.993	103.377	19.679	24.354	0.504
475.000	313.870	80.006	19.994	103.377	19.676	24.562	0.494
475.500	314.115	80.007	19.994	103.376	19.671	24.928	0.503
476.000	314.369	80.008	19.994	103.375	19.669	25.020	0.505
476.500	314.586	80.006	19.995	103.375	19.668	25.087	0.485
477.000	314.839	80.008	19.994	103.375	19.665	25.277	0.471
477.500	315.103	80.008	19.994	103.381	19.665	25.309	0.494
478.000	315.335	80.008	19.994	103.386	19.658	25.752	0.506
478.500	315.579	80.006	19.994	103.391	19.658	25.760	0.486
479.000	315.854	80.008	19.995	103.393	19.658	25.763	0.497
479.500	316.112	80.006	19.994	103.399	19.652	26.157	0.526
480.000	316.323	80.007	19.995	103.401	19.649	26.301	0.501
480.500	316.582	80.007	19.994	103.402	19.647	26.485	0.470
481.000	316.844	80.008	19.995	103.405	19.645	26.603	0.496
481.500	317.090	80.006	19.995	103.411	19.642	26.803	0.515
482.000	317.353	80.006	19.995	103.413	19.640	26.924	0.508
482.500	317.592	80.006	19.995	103.414	19.636	27.138	0.505
483.000	317.844	80.006	19.996	103.418	19.634	27.296	0.496
483.500	318.102	80.005	19.995	103.417	19.630	27.525	0.500
484.000	318.329	80.005	19.995	103.418	19.626	27.805	0.498
484.500	318.594	80.005	19.995	103.421	19.629	27.626	0.489
485.000	318.830	80.005	19.995	103.423	19.624	27.952	0.497
485.500	319.107	80.005	19.995	103.421	19.620	28.230	0.508
486.000	319.336	80.005	19.994	103.421	19.617	28.422	0.509
486.500	319.561	80.005	19.995	103.421	19.617	28.394	0.480
487.000	319.845	80.006	19.995	103.417	19.609	28.910	0.481
487.500	320.085	80.005	19.995	103.416	19.609	28.919	0.517
488.000	320.315	80.005	19.995	103.417	19.604	29.240	0.497
488.500	320.558	80.006	19.996	103.420	19.604	29.249	0.471
489.000	320.844	80.005	19.995	103.422	19.602	29.367	0.501
489.500	321.060	80.005	19.994	103.426	19.598	29.596	0.516
490.000	321.361	80.005	19.996	103.432	19.593	29.943	0.510
490.500	321.602	80.005	19.996	103.439	19.589	30.229	0.529
491.000	321.833	80.005	19.996	103.442	19.589	30.224	0.507
491.500	322.099	80.005	19.995	103.447	19.585	30.439	0.485
492.000	322.333	80.005	19.995	103.452	19.582	30.674	0.499
492.500	322.586	80.007	19.995	103.454	19.577	30.964	0.493
493.000	322.872	80.005	19.995	103.454	19.576	31.015	0.512
493.500	323.092	80.007	19.995	103.456	19.572	31.301	0.523
494.000	323.332	80.007	19.995	103.456	19.572	31.321	0.483
494.500	323.593	80.007	19.994	103.456	19.569	31.471	0.481
495.000	323.847	80.008	19.994	103.455	19.563	31.863	0.508
495.500	324.075	80.006	19.994	103.455	19.560	32.074	0.499
496.000	324.352	80.007	19.995	103.455	19.555	32.381	0.493
496.500	324.594	80.006	19.994	103.454	19.559	32.119	0.512
497.000	324.827	80.007	19.994	103.454	19.551	32.638	0.497
497.500	325.084	80.008	19.995	103.454	19.549	32.772	0.483
498.000	325.338	80.006	19.995	103.453	19.550	32.729	0.501
498.500	325.599	80.007	19.994	103.454	19.542	33.254	0.513
499.000	325.821	80.007	19.994	103.454	19.540	33.337	0.498
499.500	326.061	80.007	19.995	103.455	19.537	33.529	0.472
500.000	326.326	80.007	19.994	103.459	19.533	33.818	0.484
500.500	326.592	80.007	19.995	103.464	19.527	34.223	0.518
501.000	326.829	80.006	19.993	103.466	19.526	34.265	0.517
501.500	327.074	80.007	19.994	103.468	19.523	34.451	0.493
502.000	327.284	80.007	19.994	103.467	19.521	34.609	0.469
502.500	327.573	80.007	19.996	103.468	19.518	34.774	0.477
503.000	327.804	80.008	19.995	103.468	19.515	35.015	0.509
503.500	328.076	80.006	19.993	103.468	19.514	35.079	0.511
504.000	328.305	80.006	19.994	103.467	19.510	35.308	0.502
504.500	328.574	80.006	19.995	103.471	19.508	35.421	0.500
505.000	328.784	80.006	19.995	103.472	19.502	35.811	0.488
505.500	329.073	80.007	19.994	103.471	19.495	36.266	0.489
506.000	329.326	80.005	19.994	103.469	19.492	36.458	0.521
506.500	329.551	80.006	19.994	103.469	19.492	36.494	0.510
507.000	329.790	80.004	19.994	103.471	19.487	36.768	0.471
507.500	330.048	80.006	19.995	103.472	19.486	36.836	0.480
508.000	330.309	80.004	19.994	103.469	19.486	36.829	0.508
508.500	330.559	80.004	19.995	103.472	19.480	37.280	0.515
509.000	330.814	80.002	19.994	103.474	19.478	37.377	0.508
509.500	331.054	80.004	19.995	103.469	19.472	37.766	0.500
510.000	331.286	80.003	19.994	103.467	19.472	37.779	0.483
510.500	331.572	80.002	19.995	103.468	19.474	37.653	0.495
511.000	331.771	80.003	19.995	103.471	19.467	38.107	0.502
511.500	332.052	80.004	19.996	103.476	19.466	38.174	0.482
512.000	332.299	80.004	19.995	103.481	19.459	38.575	0.504
512.500	332.520	80.002	19.995	103.484	19.453	39.011	0.498
513.000	332.813	80.003	19.994	103.486	19.450	39.163	0.491
513.500	333.057	80.004	19.996	103.482	19.446	39.458	0.526
514.000	333.282	80.003	19.996	103.478	19.447	39.400	0.503
514.500	333.573	80.002	19.996	103.472	19.441	39.779	0.492
515.000	333.804	80.005	19.996	103.471	19.440	39.851	0.519
515.500	334.055	80.005	19.997	103.472	19.434	40.205	0.502
516.000	334.330	80.003	19.996	103.478	19.434	40.207	0.504
516.500	334.573	80.005	19.996	103.482	19.430	40.448	0.522
517.000	334.799	80.003	19.996	103.489	19.428	40.602	0.493
517.500	335.089	80.004	19.996	103.491	19.426	40.748	0.492
518.000	335.330	80.004	19.996	103.491	19.425	40.823	0.523
518.500	335.550	80.004	19.997	103.490	19.423	40.926	0.496
519.000	335.819	80.004	19.996	103.489	19.417	41.334	0.475
519.500	336.047	80.004	19.996	103.486	19.414	41.519	0.493
520.000	336.299	80.004	19.996	103.481	19.413	41.535	0.489
520.500	336.568	80.003	19.996	103.477	19.410	41.768	0.501
521.000	336.789	80.004	19.996	103.474	19.411	41.687	0.506
521.500	337.065	80.003	19.996	103.474	19.407	41.958	0.493
522.000	337.319	80.004	19.997	103.476	19.399	42.446	0.513
522.500	337.567	80.004	19.995	103.480	19.399	42.473	0.516
523.000	337.809	80.004	19.995	103.482	19.402	42.291	0.496
523.500	338.065	80.004	19.995	103.482	19.401	42.357	0.494
524.000	338.321	80.003	19.995	103.477	19.394	42.791	0.505
524.500	338.583	80.005	19.996	103.469	19.395	42.702	0.515
525.000	338.843	80.004	19.996	103.463	19.393	42.853	0.520
525.500	339.075	80.005	19.995	103.462	19.394	42.771	0.507
526.000	339.337	80.005	19.995	103.467	19.395	42.699	0.493
526.500	339.616	80.005	19.995	103.471	19.389	43.107	0.518
527.000	339.813	80.005	19.996	103.473	19.388	43.186	0.509
527.500	340.076	80.004	19.994	103.476	19.386	43.272	0.467
528.000	340.338	80.007	19.995	103.475	19.387	43.225	0.492
528.500	340.560	80.004	19.994	103.472	19.386	43.325	0.505
529.000	340.822	80.006	19.995	103.469	19.384	43.456	0.484
529.500	341.063	80.005	19.995	103.471	19.384	43.422	0.493
530.000	341.327	80.005	19.995	103.471	19.381	43.620	0.504
530.500	341.556	80.004	19.995	103.471	19.383	43.473	0.499
531.000	341.827	80.005	19.995	103.467	19.383	43.456	0.497
531.500	342.100	80.004	19.994	103.464	19.383	43.472	0.522
532.000	342.325	80.006	19.995	103.462	19.376	43.916	0.521
532.500	342.558	80.005	19.995	103.458	19.384	43.426	0.478
533.000	342.762	80.005	19.995	103.455	19.381	43.624	0.447
533.500	343.048	80.005	19.994	103.458	19.382	43.550	0.464
534.000	343.290	80.004	19.995	103.463	19.381	43.637	0.509
534.500	343.539	80.004	19.995	103.465	19.379	43.714	0.510
535.000	343.818	80.004	19.994	103.465	19.379	43.764	0.509
535.500	344.061	80.006	19.995	103.465	19.382	43.544	0.525
536.000	344.288	80.005	19.994	103.462	19.381	43.576	0.496
536.500	344.539	80.005	19.995	103.454	19.382	43.505	0.474
537.000	344.799	80.004	19.994	103.451	19.384	43.425	0.494
537.500	345.063	80.005	19.996	103.451	19.380	43.673	0.518
538.000	345.266	80.006	19.995	103.450	19.383	43.434	0.496
538.500	345.558	80.005	19.995	103.448	19.387	43.204	0.481
539.000	345.812	80.006	19.995	103.444	19.388	43.122	0.520
539.500	346.067	80.006	19.996	103.441	19.383	43.435	0.527
540.000	346.296	80.004	19.995	103.439	19.388	43.156	0.497
540.500	346.525	80.005	19.995	103.437	19.393	42.789	0.472
541.000	346.788	80.004	19.995	103.431	19.391	42.956	0.476
541.500	347.045	80.005	19.996	103.429	19.397	42.543	0.506
542.000	347.279	80.004	19.995	103.426	19.398	42.459	0.505
542.500	347.534	80.005	19.995	103.420	19.403	42.196	0.490
543.000	347.792	80.004	19.994	103.415	19.400	42.332	0.500
543.500	348.033	80.004	19.994	103.415	19.401	42.298	0.506
544.000	348.266	80.005	19.996	103.415	19.405	41.999	0.487
544.500	348.531	80.005	19.996	103.413	19.409	41.774	0.486
545.000	348.790	80.005	19.995	103.412	19.410	41.729	0.511
545.500	349.012	80.004	19.995	103.407	19.412	41.567	0.503
546.000	349.263	80.005	19.995	103.402	19.412	41.553	0.477
546.500	349.535	80.004	19.995	103.395	19.416	41.321	0.498
547.000	349.755	80.005	19.995	103.389	19.422	40.907	0.507
547.500	350.041	80.006	19.996	103.382	19.428	40.565	0.499
548.000	350.313	80.002	19.995	103.379	19.433	40.197	0.532
548.500	350.554	80.005	19.995	103.377	19.439	39.824	0.535
549.000	350.739	80.005	19.996	103.376	19.439	39.809	0.469
549.500	351.016	80.005	19.995	103.376	19.440	39.767	0.444
550.000	351.287	80.005	19.995	103.369	19.448	39.214	0.505
550.500	351.528	80.005	19.995	103.361	19.450	39.085	0.530
551.000	351.755	80.004	19.995	103.353	19.456	38.748	0.490
551.500	352.012	80.004	19.994	103.347	19.459	38.505	0.476
552.000	352.254	80.006	19.995	103.343	19.465	38.144	0.492
552.500	352.483	80.005	19.995	103.347	19.468	37.965	0.485
553.000	352.746	80.006	19.994	103.348	19.475	37.513	0.481
553.500	353.038	80.005	19.994	103.349	19.478	37.321	0.523
554.000	353.248	80.008	19.996	103.348	19.484	36.926	0.529
554.500	353.523	80.007	19.995	103.343	19.493	36.313	0.494
555.000	353.786	80.006	19.995	103.338	19.494	36.238	0.512
555.500	354.043	80.006	19.994	103.336	19.504	35.618	0.529
556.000	354.311	80.006	19.995	103.336	19.505	35.549	0.522
556.500	354.556	80.006	19.994	103.334	19.510	35.218	0.519
557.000	354.797	80.006	19.993	103.330	19.518	34.751	0.499
557.500	355.038	80.006	19.995	103.327	19.524	34.326	0.484
558.000	355.266	80.006	19.995	103.322	19.530	33.920	0.476
558.500	355.551	80.009	19.995	103.315	19.534	33.681	0.491
559.000	355.753	80.007	19.995	103.309	19.540	33.287	0.500
559.500	356.003	80.007	19.996	103.307	19.550	32.643	0.470
560.000	356.264	80.007	19.995	103.302	19.556	32.282	0.482
560.500	356.506	80.007	19.995	103.299	19.557	32.186	0.507
561.000	356.771	80.006	19.994	103.297	19.564	31.765	0.505
561.500	357.023	80.007	19.995	103.297	19.568	31.505	0.512
562.000	357.266	80.006	19.995	103.294	19.580	30.715	0.506
562.500	357.509	80.006	19.995	103.294	19.584	30.473	0.490
563.000	357.776	80.007	19.995	103.291	19.582	30.591	0.498
563.500	358.043	80.006	19.995	103.288	19.593	29.889	0.522
564.000	358.254	80.007	19.994	103.281	19.596	29.662	0.506
564.500	358.537	80.007	19.994	103.277	19.601	29.378	0.486
565.000	358.746	80.007	19.993	103.270	19.611	28.756	0.493
565.500	359.007	80.006	19.994	103.266	19.619	28.230	0.481
566.000	359.253	80.007	19.995	103.264	19.621	28.052	0.489
566.500	359.519	80.006	19.994	103.268	19.626	27.789	0.509
567.000	359.786	80.007	19.994	103.271	19.632	27.379	0.522
567.500	360.004	80.007	19.994	103.272	19.636	27.125	0.509
568.000	360.271	80.006	19.995	103.272	19.643	26.635	0.486
568.500	360.513	80.005	19.995	103.272	19.646	26.458	0.497
569.000	360.747	80.005	19.993	103.267	19.654	25.973	0.492
569.500	361.035	80.006	19.995	103.264	19.656	25.791	0.499
570.000	361.289	80.006	19.995	103.260	19.664	25.335	0.532
570.500	361.550	80.005	19.995	103.256	19.664	25.286	0.529
571.000	361.808	80.007	19.995	103.255	19.675	24.565	0.517
571.500	362.036	80.006	19.995	103.255	19.677	24.456	0.502
572.000	362.291	80.006	19.994	103.255	19.688	23.761	0.485
572.500	362.558	80.007	19.995	103.257	19.688	23.773	0.502
573.000	362.852	80.006	19.993	103.260	19.692	23.478	0.541
573.500	363.100	80.007	19.996	103.261	19.694	23.380	0.552
574.000	363.341	80.006	19.995	103.261	19.700	22.954	0.516
574.500	363.591	80.005	19.994	103.262	19.706	22.572	0.490
575.000	363.855	80.004	19.994	103.260	19.709	22.402	0.503
575.500	364.093	80.006	19.994	103.258	19.711	22.257	0.508
576.000	364.332	80.006	19.995	103.257	19.717	21.898	0.490
576.500	364.616	80.006	19.995	103.257	19.723	21.510	0.500
577.000	364.865	80.006	19.994	103.257	19.727	21.232	0.528
577.500	365.121	80.006	19.996	103.255	19.733	20.825	0.519
578.000	365.346	80.008	19.995	103.249	19.737	20.621	0.492
578.500	365.613	80.006	19.994	103.246	19.740	20.407	0.486
579.000	365.892	80.007	19.994	103.244	19.745	20.108	0.519
579.500	366.153	80.007	19.995	103.242	19.745	20.089	0.543
580.000	366.422	80.007	19.995	103.244	19.749	19.806	0.535
580.500	366.660	80.007	19.995	103.243	19.755	19.458	0.518
581.000	366.908	80.008	19.995	103.239	19.759	19.187	0.496
581.500	367.129	80.008	19.994	103.235	19.761	19.058	0.477
582.000	367.353	80.007	19.996	103.228	19.764	18.828	0.458
582.500	367.636	80.008	19.995	103.222	19.767	18.658	0.476
583.000	367.913	80.006	19.994	103.223	19.773	18.272	0.534
583.500	368.133	80.007	19.994	103.224	19.772	18.337	0.528
584.000	368.412	80.007	19.995	103.223	19.778	17.969	0.498
584.500	368.696	80.008	19.994	103.223	19.781	17.786	0.531
585.000	368.931	80.007	19.995	103.226	19.778	17.971	0.541
585.500	369.178	80.008	19.995	103.225	19.787	17.402	0.501
586.000	369.455	80.007	19.995	103.222	19.785	17.507	0.504
586.500	369.710	80.007	19.995	103.224	19.790	17.179	0.528
587.000	369.935	80.007	19.996	103.226	19.790	17.172	0.506
587.500	370.197	80.006	19.994	103.223	19.795	16.886	0.484
588.000	370.442	80.007	19.995	103.222	19.796	16.797	0.497
588.500	370.687	80.006	19.995	103.222	19.799	16.589	0.499
589.000	370.957	80.007	19.995	103.214	19.806	16.168	0.503
589.500	371.224	80.005	19.995	103.209	19.806	16.161	0.526
590.000	371.489	80.006	19.995	103.208	19.804	16.290	0.534
590.500	371.713	80.005	19.994	103.208	19.811	15.862	0.510
591.000	371.982	80.005	19.995	103.209	19.807	16.082	0.491
591.500	372.221	80.006	19.996	103.214	19.813	15.698	0.501
592.000	372.504	80.005	19.995	103.216	19.816	15.518	0.515
592.500	372.749	80.007	19.996	103.215	19.820	15.228	0.525
593.000	373.018	80.006	19.996	103.216	19.819	15.297	0.521
593.500	373.265	80.005	19.996	103.216	19.821	15.168	0.515
594.000	373.518	80.006	19.995	103.216	19.822	15.107	0.508
594.500	373.794	80.004	19.995	103.217	19.829	14.677	0.515
595.000	374.054	80.006	19.994	103.219	19.829	14.659	0.533
595.500	374.319	80.005	19.995	103.222	19.832	14.477	0.531
596.000	374.559	80.006	19.995	103.222	19.833	14.385	0.515
596.500	374.817	80.007	19.997	103.222	19.840	13.945	0.501
597.000	375.046	80.006	19.995	103.223	19.843	13.783	0.492
597.500	375.327	80.005	19.994	103.223	19.839	14.011	0.499
598.000	375.526	80.005	19.994	103.222	19.837	14.147	0.495
598.500	375.802	80.004	19.995	103.224	19.842	13.820	0.477
599.000	376.036	80.003	19.994	103.226	19.847	13.497	0.493
599.500	376.286	80.005	19.994	103.225	19.843	13.771	0.497
600.000	376.564	80.004	19.994	103.225	19.843	13.764	0.506
600.500	376.835	80.005	19.994	103.225	19.852	13.210	0.539
601.000	377.069	80.004	19.995	103.226	19.851	13.232	0.528
601.500	377.347	80.005	19.995	103.225	19.849	13.390	0.509
602.000	377.615	80.004	19.995	103.226	19.849	13.397	0.529
602.500	377.861	80.006	19.995	103.226	19.858	12.803	0.530
603.000	378.065	80.006	19.995	103.224	19.853	13.147	0.482
603.500	378.309	80.004	19.995	103.221	19.858	12.798	0.449
604.000	378.594	80.005	19.994	103.220	19.859	12.724	0.489
604.500	378.824	80.004	19.995	103.220	19.856	12.928	0.522
605.000	379.078	80.004	19.994	103.218	19.860	12.679	0.499
605.500	379.319	80.004	19.995	103.217	19.865	12.352	0.489
606.000	379.598	80.005	19.995	103.213	19.855	13.013	0.508
606.500	379.835	80.005	19.995	103.211	19.859	12.730	0.518
607.000	380.111	80.004	19.995	103.204	19.864	12.424	0.515
607.500	380.364	80.004	19.994	103.203	19.866	12.277	0.521
608.000	380.640	80.004	19.995	103.203	19.863	12.513	0.529
608.500	380.873	80.005	19.995	103.202	19.865	12.381	0.519
609.000	381.113	80.004	19.995	103.199	19.862	12.524	0.491
609.500	381.342	80.005	19.994	103.206	19.862	12.556	0.471
610.000	381.616	80.006	19.995	103.195	19.863	12.483	0.486
610.500	381.869	80.005	19.995	103.164	19.863	12.479	0.515
611.000	382.117	80.005	19.995	103.149	19.864	12.402	0.514
611.500	382.363	80.005	19.996	103.144	19.866	12.289	0.497
612.000	382.597	80.004	19.996	103.142	19.864	12.387	0.487
612.500	382.856	80.004	19.995	103.179	19.866	12.283	0.487
613.000	383.084	80.005	19.996	103.231	19.867	12.191	0.490
613.500	383.345	80.006	19.995	103.259	19.872	11.892	0.488
614.000	383.589	80.005	19.995	103.272	19.869	12.064	0.496
614.500	383.848	80.004	19.995	103.274	19.879	11.450	0.504
615.000	384.102	80.004	19.995	103.250	19.875	11.686	0.508
615.500	384.409	80.004	19.995	103.223	19.878	11.545	0.537
616.000	384.652	80.005	19.995	103.211	19.876	11.631	0.555
616.500	384.907	80.005	19.997	103.207	19.874	11.762	0.524
617.000	385.123	80.003	19.994	103.205	19.875	11.720	0.485
617.500	385.378	80.005	19.996	103.206	19.881	11.323	0.471
618.000	385.644	80.005	19.996	103.216	19.876	11.634	0.496
618.500	385.881	80.005	19.995	103.228	19.877	11.594	0.512
619.000	386.133	80.006	19.997	103.231	19.875	11.707	0.496
619.500	386.363	80.006	19.995	103.233	19.876	11.639	0.485
620.000	386.617	80.003	19.993	103.232	19.872	11.923	0.483
620.500	386.829	80.004	19.995	103.220	19.878	11.504	0.475
621.000	387.120	80.005	19.996	103.206	19.876	11.647	0.485
621.500	387.393	80.005	19.995	103.204	19.879	11.443	0.534
622.000	387.631	80.005	19.994	103.204	19.880	11.380	0.537
622.500	387.903	80.005	19.996	103.198	19.878	11.538	0.510
623.000	388.136	80.006	19.995	103.199	19.878	11.485	0.508
623.500	388.348	80.006	19.995	103.199	19.881	11.314	0.475
624.000	388.625	80.006	19.994	103.194	19.876	11.662	0.467
624.500	388.847	80.004	19.994	103.191	19.878	11.517	0.494
625.000	389.116	80.005	19.994	103.194	19.871	11.942	0.495
625.500	389.389	80.004	19.994	103.197	19.880	11.363	0.516
626.000	389.611	80.005	19.994	103.203	19.879	11.473	0.519
626.500	389.877	80.006	19.995	103.208	19.877	11.560	0.492
627.000	390.135	80.004	19.993	103.211	19.882	11.279	0.506
627.500	390.419	80.004	19.994	103.214	19.879	11.435	0.533
628.000	390.645	80.004	19.994	103.214	19.885	11.061	0.526
628.500	390.876	80.005	19.996	103.209	19.877	11.562	0.483
629.000	391.111	80.005	19.995	103.206	19.880	11.369	0.461
629.500	391.368	80.003	19.994	103.206	19.886	11.005	0.478
630.000	391.653	80.005	19.994	103.207	19.879	11.426	0.517
630.500	391.887	80.005	19.995	103.208	19.882	11.280	0.531
631.000	392.151	80.005	19.994	103.214	19.883	11.161	0.509
631.500	392.393	80.005	19.994	103.217	19.878	11.506	0.501
632.000	392.638	80.005	19.994	103.216	19.881	11.327	0.496
632.500	392.913	80.006	19.994	103.214	19.882	11.277	0.504
633.000	393.135	80.005	19.995	103.218	19.877	11.582	0.509
633.500	393.407	80.005	19.996	103.218	19.881	11.302	0.495
634.000	393.622	80.004	19.994	103.219	19.882	11.240	0.491
634.500	393.907	80.006	19.995	103.216	19.879	11.441	0.493
635.000	394.138	80.004	19.994	103.211	19.876	11.627	0.508
635.500	394.437	80.005	19.995	103.205	19.882	11.285	0.523
636.000	394.678	80.006	19.994	103.198	19.879	11.483	0.535
636.500	394.938	80.006	19.994	103.191	19.877	11.590	0.521
637.000	395.189	80.005	19.994	103.188	19.877	11.563	0.506
637.500	395.429	80.005	19.995	103.187	19.879	11.466	0.501
638.000	395.698	80.005	19.993	103.186	19.880	11.382	0.500
638.500	395.922	80.005	19.994	103.189	19.877	11.574	0.501
639.000	396.148	80.006	19.993	103.188	19.875	11.715	0.471
639.500	396.442	80.007	19.994	103.189	19.876	11.636	0.485
640.000	396.692	80.005	19.994	103.191	19.877	11.567	0.532
640.500	396.956	80.006	19.993	103.190	19.879	11.446	0.529
641.000	397.210	80.007	19.996	103.187	19.876	11.663	0.516
641.500	397.438	80.006	19.994	103.192	19.874	11.746	0.500
642.000	397.688	80.005	19.994	103.193	19.876	11.659	0.480
642.500	397.960	80.007	19.994	103.190	19.873	11.846	0.500
643.000	398.188	80.007	19.995	103.192	19.876	11.658	0.511
643.500	398.424	80.005	19.994	103.195	19.877	11.549	0.482
644.000	398.674	80.008	19.994	103.193	19.871	11.963	0.475
644.500	398.902	80.007	19.995	103.191	19.874	11.775	0.482
645.000	399.178	80.007	19.994	103.196	19.873	11.822	0.491
645.500	399.426	80.007	19.995	103.200	19.874	11.784	0.514
646.000	399.682	80.007	19.995	103.205	19.872	11.927	0.514
646.500	399.894	80.006	19.995	103.210	19.871	11.949	0.486
647.000	400.138	80.006	19.994	103.217	19.873	11.856	0.462
647.500	400.389	80.006	19.994	103.218	19.869	12.072	0.475
648.000	400.652	80.006	19.994	103.213	19.871	11.994	0.505
648.500	400.891	80.006	19.995	103.206	19.868	12.185	0.509
649.000	401.158	80.005	19.995	103.205	19.868	12.164	0.504
649.500	401.377	80.007	19.994	103.201	19.873	11.861	0.496
650.000	401.646	80.007	19.995	103.195	19.871	11.962	0.487
650.500	401.930	80.005	19.993	103.194	19.868	12.136	0.521
651.000	402.148	80.007	19.995	103.198	19.870	12.012	0.528
651.500	402.389	80.007	19.995	103.194	19.872	11.917	0.481
652.000	402.672	80.005	19.995	103.199	19.866	12.297	0.491
652.500	402.910	80.007	19.995	103.206	19.866	12.257	0.522
653.000	403.114	80.007	19.993	103.211	19.870	12.042	0.481
653.500	403.386	80.006	19.994	103.213	19.864	12.384	0.459
654.000	403.637	80.007	19.994	103.216	19.865	12.330	0.500
654.500	403.903	80.005	19.994	103.215	19.865	12.355	0.520
655.000	404.130	80.007	19.994	103.212	19.866	12.298	0.505
655.500	404.405	80.007	19.993	103.215	19.863	12.465	0.497
656.000	404.659	80.008	19.994	103.215	19.862	12.555	0.515
656.500	404.859	80.007	19.994	103.218	19.871	11.986	0.492
657.000	405.121	80.008	19.996	103.221	19.864	12.391	0.458
657.500	405.377	80.007	19.996	103.224	19.871	11.995	0.490
658.000	405.645	80.008	19.995	103.224	19.865	12.377	0.521
658.500	405.895	80.007	19.994	103.223	19.865	12.361	0.521
659.000	406.132	80.007	19.995	103.221	19.863	12.455	0.503
659.500	406.369	80.007	19.996	103.212	19.860	12.654	0.481
660.000	406.629	80.007	19.994	103.204	19.861	12.589	0.486
660.500	406.885	80.008	19.994	103.196	19.859	12.767	0.506
661.000	407.118	80.007	19.994	103.191	19.857	12.883	0.502
661.500	407.370	80.009	19.994	103.184	19.862	12.569	0.487
662.000	407.597	80.007	19.993	103.186	19.855	13.011	0.482
662.500	407.876	80.008	19.993	103.189	19.856	12.957	0.492
663.000	408.114	80.008	19.994	103.188	19.853	13.130	0.511
663.500	408.359	80.008	19.995	103.187	19.853	13.158	0.500
664.000	408.618	80.008	19.994	103.189	19.853	13.129	0.494
664.500	408.847	80.010	19.994	103.186	19.851	13.262	0.496
665.000	409.134	80.009	19.994	103.184	19.850	13.328	0.502
665.500	409.401	80.008	19.994	103.189	19.851	13.232	0.535
666.000	409.653	80.009	19.994	103.197	19.857	12.900	0.536
666.500	409.878	80.009	19.994	103.203	19.849	13.402	0.498
667.000	410.116	80.008	19.994	103.210	19.850	13.314	0.470
667.500	410.402	80.007	19.993	103.215	19.853	13.093	0.494
668.000	410.623	80.007	19.994	103.211	19.856	12.955	0.515
668.500	410.900	80.009	19.994	103.205	19.851	13.260	0.503
669.000	411.157	80.008	19.995	103.200	19.853	13.156	0.516
669.500	411.415	80.007	19.994	103.198	19.848	13.481	0.525
670.000	411.670	80.008	19.995	103.197	19.853	13.102	0.514
670.500	411.908	80.008	19.995	103.196	19.844	13.721	0.502
671.000	412.177	80.008	19.995	103.196	19.847	13.544	0.500
671.500	412.461	80.008	19.996	103.195	19.846	13.580	0.530
672.000	412.692	80.008	19.995	103.197	19.849	13.370	0.534
672.500	412.977	80.007	19.996	103.199	19.847	13.492	0.515
673.000	413.221	80.007	19.995	103.205	19.849	13.353	0.522
673.500	413.459	80.006	19.995	103.213	19.844	13.690	0.506
674.000	413.714	80.005	19.994	103.218	19.843	13.740	0.488
674.500	413.971	80.005	19.995	103.221	19.840	13.932	0.503
675.000	414.219	80.004	19.994	103.226	19.845	13.650	0.509
675.500	414.475	80.005	19.996	103.227	19.847	13.523	0.504
676.000	414.717	80.005	19.995	103.224	19.846	13.596	0.501
676.500	414.955	80.006	19.994	103.220	19.848	13.443	0.489
677.000	415.227	80.004	19.994	103.209	19.845	13.618	0.495
677.500	415.474	80.005	19.995	103.198	19.841	13.878	0.515
678.000	415.699	80.005	19.995	103.197	19.850	13.293	0.496
678.500	415.971	80.003	19.994	103.198	19.844	13.733	0.485
679.000	416.251	80.004	19.995	103.202	19.847	13.517	0.525
679.500	416.468	80.005	19.996	103.210	19.845	13.669	0.524
680.000	416.800	80.003	19.996	103.216	19.840	13.955	0.523
680.500	417.029	80.005	19.994	103.217	19.843	13.774	0.556
681.000	417.296	80.003	19.995	103.219	19.843	13.769	0.529
681.500	417.516	80.005	19.996	103.222	19.839	14.011	0.491
682.000	417.789	80.006	19.997	103.222	19.842	13.818	0.489
682.500	418.052	80.004	19.995	103.223	19.840	13.962	0.514
683.000	418.325	80.005	19.995	103.222	19.847	13.545	0.536
683.500	418.552	80.005	19.996	103.221	19.838	14.100	0.518
684.000	418.821	80.005	19.995	103.217	19.839	14.014	0.498
684.500	419.090	80.005	19.994	103.212	19.836	14.206	0.517
685.000	419.330	80.004	19.995	103.210	19.840	13.934	0.524
685.500	419.609	80.003	19.994	103.208	19.841	13.880	0.514
686.000	419.862	80.005	19.995	103.204	19.840	13.966	0.525
686.500	420.086	80.004	19.994	103.204	19.840	13.936	0.504
687.000	420.355	80.004	19.995	103.206	19.843	13.754	0.485
687.500	420.572	80.007	19.994	103.208	19.838	14.102	0.490
688.000	420.830	80.006	19.994	103.207	19.841	13.890	0.481
688.500	421.130	80.005	19.994	103.212	19.837	14.161	0.516
689.000	421.390	80.005	19.995	103.212	19.838	14.109	0.559
689.500	421.645	80.006	19.996	103.209	19.835	14.254	0.537
690.000	421.904	80.005	19.994	103.203	19.839	14.027	0.514
690.500	422.155	80.006	19.995	103.203	19.836	14.248	0.512
691.000	422.434	80.006	19.994	103.200	19.843	13.788	0.520
691.500	422.673	80.005	19.994	103.200	19.838	14.092	0.524
692.000	422.931	80.005	19.996	103.207	19.839	14.021	0.508
692.500	423.184	80.005	19.995	103.214	19.843	13.798	0.504
693.000	423.445	80.004	19.995	103.218	19.834	14.347	0.513
693.500	423.706	80.003	19.995	103.222	19.835	14.266	0.518
694.000	423.965	80.006	19.995	103.223	19.835	14.295	0.521
694.500	424.185	80.004	19.995	103.222	19.832	14.482	0.500
695.000	424.462	80.005	19.994	103.222	19.842	13.856	0.488
695.500	424.722	80.005	19.994	103.222	19.834	14.353	0.517
696.000	424.948	80.005	19.996	103.222	19.836	14.231	0.511
696.500	425.215	80.005	19.995	103.222	19.832	14.473	0.489
697.000	425.484	80.006	19.996	103.215	19.841	13.928	0.515
697.500	425.738	80.005	19.995	103.209	19.837	14.175	0.530
698.000	425.991	80.004	19.996	103.207	19.834	14.352	0.515
698.500	426.211	80.005	19.995	103.202	19.832	14.454	0.490
699.000	426.494	80.006	19.995	103.196	19.840	13.993	0.488
699.500	426.746	80.005	19.996	103.201	19.833	14.419	0.519
700.000	427.010	80.005	19.995	103.204	19.833	14.398	0.526
700.500	427.276	80.005	19.995	103.200	19.832	14.508	0.523
701.000	427.555	80.004	19.997	103.197	19.837	14.143	0.537
701.500	427.774	80.005	19.996	103.197	19.834	14.375	0.522
702.000	428.044	80.004	19.996	103.200	19.833	14.386	0.494
702.500	428.322	80.003	19.995	103.202	19.838	14.103	0.518
703.000	428.553	80.005	19.995	103.206	19.834	14.370	0.528
703.500	428.806	80.004	19.996	103.211	19.839	14.004	0.496
704.000	429.100	80.003	19.996	103.217	19.838	14.121	0.516
704.500	429.342	80.004	19.996	103.213	19.834	14.351	0.542
705.000	429.586	80.004	19.997	103.208	19.835	14.282	0.511
705.500	429.853	80.004	19.995	103.205	19.833	14.420	0.499
706.000	430.121	80.002	19.995	103.203	19.834	14.334	0.523
706.500	430.358	80.004	19.996	103.197	19.835	14.301	0.520
707.000	430.595	80.003	19.995	103.200	19.838	14.084	0.489
707.500	430.848	80.004	19.996	103.203	19.834	14.333	0.481
708.000	431.120	80.003	19.995	103.206	19.836	14.244	0.507
708.500	431.388	80.003	19.995	103.210	19.838	14.059	0.533
709.000	431.646	80.002	19.996	103.212	19.836	14.229	0.533
709.500	431.871	80.003	19.995	103.209	19.838	14.080	0.504
710.000	432.147	80.004	19.995	103.209	19.834	14.372	0.492
710.500	432.335	80.004	19.996	103.209	19.838	14.076	0.483
711.000	432.663	80.004	19.996	103.207	19.839	14.028	0.490
711.500	432.904	80.003	19.995	103.206	19.834	14.368	0.542
712.000	433.192	80.005	19.996	103.208	19.837	14.148	0.549
712.500	433.426	80.004	19.996	103.206	19.836	14.219	0.526
713.000	433.708	80.005	19.996	103.199	19.833	14.440	0.519
713.500	433.953	80.006	19.995	103.195	19.837	14.130	0.521
714.000	434.212	80.005	19.995	103.196	19.836	14.203	0.516
714.500	434.496	80.003	19.995	103.195	19.839	14.054	0.524
715.000	434.748	80.003	19.995	103.197	19.836	14.245	0.539
715.500	434.995	80.005	19.994	103.205	19.835	14.304	0.517
716.000	435.277	80.004	19.995	103.211	19.834	14.339	0.514
716.500	435.519	80.006	19.996	103.212	19.834	14.362	0.527
717.000	435.737	80.006	19.994	103.213	19.838	14.078	0.492
717.500	436.059	80.006	19.995	103.210	19.837	14.174	0.500
718.000	436.287	80.006	19.995	103.209	19.841	13.916	0.545
718.500	436.541	80.007	19.994	103.206	19.838	14.090	0.516
719.000	436.781	80.008	19.995	103.201	19.838	14.103	0.488
719.500	437.046	80.006	19.994	103.196	19.833	14.418	0.500
720.000	437.345	80.007	19.994	103.198	19.838	14.120	0.534
720.500	437.564	80.007	19.994	103.196	19.837	14.125	0.541
721.000	437.823	80.005	19.995	103.197	19.834	14.376	0.498
721.500	438.075	80.005	19.994	103.202	19.835	14.269	0.494
722.000	438.350	80.005	19.994	103.209	19.833	14.403	0.518
722.500	438.615	80.007	19.995	103.207	19.836	14.234	0.533
723.000	438.827	80.006	19.994	103.204	19.834	14.371	0.509
723.500	439.099	80.007	19.995	103.200	19.831	14.551	0.481
724.000	439.365	80.006	19.994	103.193	19.834	14.336	0.511
724.500	439.645	80.007	19.995	103.188	19.836	14.205	0.542
725.000	439.870	80.006	19.994	103.188	19.834	14.347	0.526
725.500	440.152	80.007	19.994	103.192	19.837	14.142	0.506
726.000	440.396	80.005	19.995	103.197	19.829	14.678	0.516
726.500	440.650	80.007	19.994	103.199	19.834	14.339	0.512
727.000	440.911	80.005	19.993	103.199	19.837	14.140	0.507
727.500	441.125	80.007	19.994	103.197	19.838	14.078	0.495
728.000	441.401	80.008	19.995	103.190	19.838	14.088	0.483
728.500	441.660	80.006	19.994	103.190	19.839	14.050	0.512
729.000	441.886	80.008	19.995	103.190	19.837	14.164	0.510
729.500	442.187	80.005	19.994	103.190	19.833	14.428	0.506
730.000	442.420	80.007	19.994	103.195	19.838	14.075	0.530
730.500	442.678	80.006	19.995	103.197	19.837	14.185	0.513
731.000	442.932	80.006	19.995	103.194	19.840	13.956	0.501
731.500	443.182	80.006	19.996	103.192	19.836	14.195	0.508
732.000	443.428	80.006	19.994	103.190	19.839	14.029	0.500
732.500	443.639	80.005	19.994	103.184	19.836	14.186	0.477
733.000	443.933	80.005	19.994	103.182	19.836	14.225	0.481
733.500	444.185	80.005	19.994	103.183	19.835	14.288	0.525
734.000	444.458	80.007	19.995	103.187	19.836	14.213	0.536
734.500	444.670	80.006	19.995	103.190	19.841	13.896	0.506
735.000	444.944	80.007	19.996	103.190	19.839	14.003	0.485
735.500	445.205	80.005	19.994	103.190	19.839	13.998	0.510
736.000	445.447	80.005	19.994	103.188	19.837	14.139	0.519
736.500	445.684	80.006	19.994	103.185	19.838	14.107	0.491
737.000	445.936	80.005	19.994	103.185	19.839	14.041	0.484
737.500	446.184	80.006	19.994	103.186	19.844	13.707	0.494
738.000	446.410	80.006	19.994	103.187	19.843	13.783	0.488
738.500	446.661	80.006	19.995	103.189	19.840	13.967	0.476
739.000	446.886	80.006	19.995	103.188	19.838	14.077	0.476
739.500	447.145	80.007	19.995	103.191	19.842	13.819	0.480
740.000	447.423	80.006	19.994	103.194	19.839	14.020	0.511
740.500	447.676	80.005	19.994	103.194	19.842	13.847	0.534
741.000	447.967	80.007	19.995	103.195	19.841	13.920	0.538
741.500	448.204	80.007	19.994	103.196	19.844	13.699	0.536
742.000	448.472	80.007	19.994	103.194	19.841	13.887	0.516
742.500	448.707	80.006	19.994	103.190	19.842	13.857	0.504
743.000	448.974	80.006	19.995	103.188	19.845	13.613	0.503
743.500	449.211	80.007	19.994	103.185	19.840	13.930	0.503
744.000	449.456	80.007	19.994	103.184	19.839	14.028	0.493
744.500	449.660	80.008	19.995	103.181	19.842	13.810	0.466
745.000	449.980	80.008	19.995	103.183	19.848	13.455	0.487
745.500	450.211	80.006	19.994	103.186	19.844	13.714	0.537
746.000	450.454	80.008	19.994	103.187	19.843	13.752	0.512
746.500	450.697	80.008	19.994	103.190	19.847	13.506	0.480
747.000	450.972	80.008	19.995	103.191	19.845	13.611	0.502
747.500	451.225	80.007	19.995	103.189	19.847	13.529	0.523
748.000	451.465	80.008	19.994	103.187	19.846	13.583	0.511
748.500	451.746	80.006	19.993	103.185	19.844	13.700	0.507
749.000	451.975	80.009	19.994	103.187	19.846	13.576	0.516
749.500	452.234	80.006	19.994	103.186	19.846	13.569	0.499
750.000	452.468	80.007	19.994	103.184	19.847	13.491	0.490
750.500	452.748	80.005	19.994	103.187	19.846	13.552	0.504
751.000	452.989	80.007	19.994	103.188	19.849	13.397	0.518
751.500	453.269	80.006	19.994	103.184	19.852	13.206	0.521
752.000	453.465	80.008	19.994	103.185	19.857	12.894	0.498
752.500	453.713	80.008	19.993	103.187	19.854	13.040	0.460
753.000	453.974	80.007	19.993	103.184	19.849	13.398	0.477
753.500	454.245	80.008	19.994	103.184	19.854	13.089	0.520
754.000	454.489	80.007	19.995	103.184	19.852	13.204	0.523
754.500	454.755	80.007	19.993	103.183	19.852	13.192	0.513
755.000	454.985	80.006	19.994	103.183	19.855	12.981	0.504
755.500	455.261	80.007	19.993	103.182	19.854	13.089	0.501
756.000	455.475	80.006	19.994	103.181	19.851	13.264	0.497
756.500	455.721	80.005	19.995	103.180	19.854	13.070	0.475
757.000	455.987	80.005	19.994	103.181	19.852	13.209	0.486
757.500	456.236	80.005	19.995	103.182	19.852	13.214	0.513
758.000	456.499	80.007	19.994	103.182	19.859	12.738	0.513
758.500	456.748	80.004	19.995	103.184	19.852	13.171	0.512
759.000	456.985	80.005	19.994	103.184	19.854	13.072	0.499
759.500	457.235	80.006	19.994	103.184	19.854	13.082	0.486
760.000	457.517	80.006	19.994	103.184	19.855	12.994	0.510
760.500	457.727	80.006	19.995	103.184	19.854	13.042	0.513
761.000	458.023	80.005	19.994	103.184	19.851	13.241	0.499
761.500	458.246	80.006	19.994	103.185	19.858	12.806	0.512
762.000	458.474	80.006	19.995	103.186	19.857	12.866	0.485
762.500	458.735	80.005	19.995	103.187	19.860	12.703	0.470
763.000	459.001	80.005	19.994	103.186	19.857	12.879	0.508
763.500	459.271	80.005	19.995	103.186	19.859	12.737	0.532
764.000	459.502	80.005	19.994	103.185	19.859	12.712	0.519
764.500	459.732	80.006	19.994	103.183	19.859	12.719	0.481
765.000	459.988	80.005	19.996	103.183	19.860	12.667	0.473
765.500	460.265	80.005	19.995	103.184	19.860	12.662	0.509
766.000	460.518	80.004	19.994	103.184	19.854	13.053	0.532
766.500	460.774	80.005	19.995	103.184	19.852	13.160	0.520
767.000	460.969	80.005	19.995	103.185	19.856	12.917	0.480
767.500	461.259	80.005	19.995	103.185	19.858	12.775	0.468
768.000	461.510	80.004	19.996	103.184	19.860	12.651	0.513
768.500	461.772	80.005	19.995	103.178	19.861	12.619	0.527
769.000	462.022	80.005	19.995	103.172	19.862	12.575	0.513
769.500	462.259	80.005	19.995	103.172	19.860	12.685	0.499
770.000	462.517	80.006	19.995	103.172	19.860	12.666	0.491
770.500	462.729	80.005	19.996	103.172	19.860	12.661	0.482
771.000	463.016	80.005	19.995	103.177	19.860	12.657	0.484
771.500	463.255	80.005	19.996	103.183	19.863	12.470	0.512
772.000	463.498	80.005	19.995	103.185	19.866	12.257	0.504
772.500	463.760	80.004	19.995	103.186	19.863	12.485	0.493
773.000	463.999	80.005	19.995	103.185	19.869	12.101	0.503
773.500	464.222	80.005	19.995	103.186	19.866	12.291	0.482
774.000	464.487	80.006	19.994	103.192	19.862	12.571	0.475
774.500	464.685	80.006	19.995	103.186	19.863	12.473	0.475
775.000	465.000	80.004	19.994	103.167	19.861	12.600	0.488
775.500	465.256	80.005	19.995	103.153	19.863	12.495	0.542
776.000	465.502	80.006	19.994	103.146	19.865	12.333	0.536
776.500	465.721	80.005	19.994	103.136	19.865	12.345	0.484
777.000	465.992	80.005	19.994	103.157	19.871	11.972	0.478
777.500	466.244	80.007	19.995	103.196	19.864	12.411	0.507
778.000	466.500	80.005	19.996	103.218	19.867	12.244	0.515
778.500	466.760	80.005	19.995	103.225	19.866	12.258	0.512
779.000	467.016	80.005	19.995	103.229	19.865	12.324	0.516
779.500	467.274	80.005	19.995	103.212	19.868	12.146	0.515
780.000	467.505	80.006	19.995	103.188	19.862	12.534	0.501
780.500	467.755	80.006	19.995	103.180	19.868	12.169	0.485
781.000	467.986	80.006	19.994	103.178	19.866	12.267	0.481
781.500	468.237	80.006	19.995	103.177	19.865	12.347	0.482
782.000	468.514	80.006	19.994	103.177	19.870	12.036	0.505
782.500	468.765	80.005	19.995	103.179	19.868	12.134	0.528
783.000	469.056	80.005	19.995	103.179	19.865	12.352	0.535
783.500	469.298	80.005	19.994	103.179	19.868	12.162	0.538
784.000	469.530	80.006	19.994	103.184	19.871	11.949	0.504
784.500	469.785	80.005	19.996	103.185	19.870	12.044	0.481
785.000	470.042	80.005	19.995	103.185	19.872	11.924	0.500
785.500	470.307	80.006	19.995	103.185	19.868	12.163	0.517
786.000	470.573	80.006	19.996	103.186	19.872	11.917	0.527
786.500	470.812	80.005	19.995	103.182	19.869	12.097	0.518
787.000	471.083	80.005	19.995	103.182	19.873	11.841	0.508
787.500	471.353	80.005	19.995	103.181	19.869	12.060	0.526
788.000	471.593	80.005	19.994	103.181	19.871	11.942	0.526
788.500	471.859	80.004	19.995	103.181	19.868	12.125	0.508
789.000	472.084	80.004	19.995	103.180	19.867	12.195	0.498
789.500	472.339	80.004	19.994	103.180	19.869	12.114	0.486
790.000	472.632	80.006	19.995	103.181	19.872	11.879	0.514
790.500	472.931	80.004	19.996	103.182	19.871	11.958	0.570
791.000	473.166	80.006	19.996	103.184	19.875	11.689	0.563
791.500	473.410	80.004	19.996	103.185	19.871	11.935	0.506
792.000	473.673	80.004	19.996	103.184	19.874	11.746	0.492
792.500	473.927	80.005	19.995	103.182	19.875	11.713	0.512
793.000	474.212	80.005	19.996	103.181	19.877	11.554	0.528
793.500	474.440	80.006	19.995	103.182	19.876	11.662	0.526
794.000	474.706	80.005	19.995	103.184	19.877	11.572	0.503
794.500	474.965	80.006	19.995	103.185	19.878	11.511	0.510
795.000	475.262	80.005	19.995	103.185	19.879	11.458	0.541
795.500	475.504	80.005	19.995	103.185	19.876	11.615	0.548
796.000	475.764	80.005	19.996	103.182	19.878	11.528	0.521
796.500	476.004	80.005	19.996	103.179	19.878	11.524	0.501
797.000	476.249	80.005	19.995	103.179	19.880	11.363	0.493
797.500	476.562	80.005	19.996	103.179	19.878	11.491	0.521
798.000	476.803	80.005	19.996	103.181	19.879	11.438	0.556
798.500	477.074	80.006	19.996	103.181	19.879	11.478	0.533
799.000	477.341	80.005	19.996	103.181	19.885	11.073	0.525
799.500	477.584	80.004	19.995	103.181	19.881	11.338	0.524
800.000	477.863	80.005	19.995	103.180	19.885	11.088	0.516
800.500	478.113	80.007	19.997	103.179	19.883	11.201	0.525
801.000	478.414	80.006	19.996	103.180	19.881	11.311	0.540
801.500	478.656	80.006	19.995	103.182	19.884	11.156	0.547
802.000	478.950	80.007	19.996	103.182	19.884	11.123	0.539
802.500	479.178	80.006	19.995	103.182	19.883	11.186	0.529
803.000	479.411	80.006	19.995	103.181	19.886	10.980	0.492
803.500	479.713	80.006	19.996	103.180	19.884	11.154	0.499
804.000	479.944	80.006	19.995	103.176	19.887	10.956	0.535
804.500	480.216	80.006	19.996	103.173	19.885	11.062	0.518
805.000	480.478	80.007	19.996	103.171	19.886	10.990	0.518
805.500	480.733	80.007	19.996	103.171	19.883	11.184	0.526
806.000	481.035	80.006	19.996	103.175	19.882	11.246	0.537
806.500	481.295	80.007	19.996	103.176	19.887	10.914	0.559
807.000	481.558	80.006	19.996	103.183	19.888	10.877	0.542
807.500	481.818	80.005	19.995	103.188	19.888	10.891	0.523
808.000	482.101	80.006	19.995	103.190	19.888	10.898	0.533
808.500	482.346	80.007	19.996	103.191	19.891	10.666	0.535
809.000	482.589	80.006	19.996	103.189	19.888	10.840	0.508
809.500	482.852	80.006	19.996	103.187	19.887	10.921	0.497
810.000	483.113	80.006	19.996	103.183	19.889	10.798	0.515
810.500	483.367	80.006	19.996	103.181	19.889	10.781	0.520
811.000	483.634	80.007	19.996	103.178	19.889	10.788	0.518
811.500	483.879	80.006	19.995	103.178	19.890	10.751	0.516
812.000	484.142	80.005	19.996	103.178	19.891	10.704	0.510
812.500	484.415	80.006	19.994	103.180	19.884	11.118	0.522
813.000	484.631	80.006	19.995	103.180	19.887	10.921	0.512
813.500	484.930	80.006	19.994	103.181	19.884	11.155	0.502
814.000	485.192	80.005	19.995	103.181	19.892	10.633	0.538
814.500	485.469	80.006	19.995	103.180	19.889	10.812	0.550
815.000	485.755	80.006	19.995	103.181	19.891	10.676	0.551
815.500	486.010	80.007	19.995	103.182	19.889	10.799	0.552
816.000	486.249	80.006	19.994	103.181	19.890	10.762	0.517
816.500	486.534	80.004	19.995	103.182	19.887	10.948	0.509
817.000	486.783	80.007	19.996	103.183	19.895	10.435	0.529
817.500	487.066	80.007	19.995	103.185	19.897	10.304	0.533
818.000	487.308	80.006	19.995	103.184	19.887	10.934	0.529
818.500	487.512	80.005	19.995	103.185	19.890	10.744	0.486
819.000	487.814	80.006	19.995	103.185	19.893	10.560	0.476
819.500	488.069	80.006	19.994	103.184	19.892	10.585	0.532
820.000	488.339	80.006	19.995	103.180	19.891	10.701	0.541
820.500	488.613	80.005	19.996	103.180	19.891	10.699	0.534
821.000	488.885	80.006	19.995	103.180	19.891	10.668	0.545
821.500	489.114	80.005	19.995	103.180	19.894	10.511	0.524
822.000	489.397	80.006	19.994	103.180	19.891	10.673	0.507
822.500	489.652	80.006	19.995	103.181	19.895	10.437	0.525
823.000	489.932	80.006	19.994	103.181	19.898	10.233	0.536
823.500	490.150	80.007	19.994	103.182	19.894	10.462	0.516
824.000	490.421	80.007	19.994	103.181	19.897	10.318	0.493
824.500	490.694	80.008	19.995	103.182	19.894	10.493	0.516
825.000	490.946	80.007	19.994	103.182	19.900	10.104	0.535
825.500	491.208	80.007	19.994	103.182	19.893	10.521	0.520
826.000	491.434	80.007	19.995	103.182	19.895	10.418	0.500
826.500	491.721	80.008	19.995	103.182	19.897	10.304	0.500
827.000	491.969	80.009	19.995	103.181	19.895	10.397	0.524
827.500	492.225	80.009	19.995	103.179	19.899	10.175	0.520
828.000	492.473	80.009	19.995	103.178	19.900	10.074	0.504
828.500	492.794	80.006	19.994	103.174	19.895	10.437	0.536
829.000	493.033	80.008	19.995	103.173	19.896	10.331	0.564
829.500	493.276	80.007	19.993	103.174	19.895	10.425	0.521
830.000	493.569	80.008	19.994	103.175	19.898	10.245	0.509
830.500	493.816	80.007	19.995	103.176	19.898	10.240	0.538
831.000	494.081	80.007	19.994	103.180	19.900	10.124	0.526
831.500	494.350	80.007	19.994	103.181	19.898	10.194	0.523
832.000	494.617	80.008	19.993	103.182	19.897	10.292	0.534
832.500	494.895	80.007	19.994	103.182	19.900	10.081	0.541
833.000	495.143	80.007	19.995	103.182	19.899	10.163	0.536
833.500	495.402	80.008	19.994	103.182	19.900	10.110	0.516
834.000	495.630	80.008	19.995	103.181	19.900	10.098	0.497
834.500	495.912	80.007	19.994	103.181	19.899	10.154	0.499
835.000	496.154	80.007	19.994	103.182	19.900	10.103	0.517
835.500	496.437	80.006	19.995	103.181	19.899	10.142	0.524
836.000	496.694	80.007	19.994	103.181	19.899	10.162	0.533
836.500	496.913	80.007	19.994	103.181	19.898	10.236	0.508
837.000	497.212	80.006	19.995	103.181	19.902	9.970	0.497
837.500	497.472	80.006	19.995	103.181	19.902	9.955	0.538
838.000	497.736	80.005	19.995	103.181	19.901	10.028	0.542
838.500	497.987	80.006	19.994	103.181	19.902	9.990	0.519
839.000	498.263	80.006	19.995	103.181	19.901	10.038	0.521
839.500	498.493	80.005	19.993	103.182	19.904	9.839	0.516
840.000	498.800	80.005	19.993	103.181	19.909	9.505	0.521
840.500	499.042	80.005	19.995	103.180	19.905	9.767	0.543
841.000	499.275	80.006	19.994	103.180	19.903	9.928	0.513
841.500	499.531	80.005	19.995	103.178	19.903	9.914	0.482
842.000	499.770	80.004	19.994	103.178	19.901	10.033	0.492
842.500	500.061	80.006	19.994	103.178	19.897	10.258	0.512
843.000	500.306	80.006	19.994	103.180	19.900	10.066	0.533
843.500	500.577	80.006	19.994	103.180	19.900	10.078	0.526
844.000	500.805	80.006	19.995	103.178	19.904	9.838	0.507
844.500	501.085	80.006	19.995	103.178	19.906	9.678	0.504
845.000	501.366	80.006	19.994	103.178	19.905	9.793	0.534
845.500	501.599	80.006	19.994	103.177	19.904	9.854	0.537
846.000	501.855	80.006	19.994	103.178	19.902	9.936	0.502
846.500	502.134	80.006	19.994	103.177	19.905	9.771	0.512
847.000	502.369	80.007	19.994	103.174	19.902	9.984	0.524
847.500	502.631	80.006	19.994	103.174	19.907	9.670	0.505
848.000	502.880	80.007	19.994	103.174	19.909	9.546	0.504
848.500	503.151	80.007	19.994	103.174	19.902	9.965	0.516
849.000	503.413	80.007	19.995	103.175	19.909	9.545	0.527
849.500	503.661	80.007	19.994	103.176	19.910	9.439	0.522
850.000	503.912	80.006	19.993	103.171	19.906	9.707	0.504
850.500	504.154	80.007	19.994	103.166	19.904	9.817	0.496
851.000	504.411	80.006	19.994	103.166	19.909	9.519	0.496
851.500	504.650	80.007	19.994	103.167	19.904	9.864	0.498
852.000	504.920	80.006	19.995	103.168	19.911	9.364	0.503
852.500	505.158	80.007	19.994	103.168	19.910	9.439	0.508
853.000	505.429	80.007	19.995	103.170	19.908	9.608	0.508
853.500	505.689	80.006	19.994	103.170	19.910	9.478	0.520
854.000	505.945	80.007	19.995	103.172	19.909	9.508	0.523
854.500	506.186	80.006	19.994	103.172	19.910	9.444	0.507
855.000	506.435	80.007	19.994	103.176	19.907	9.646	0.494
855.500	506.663	80.005	19.994	103.179	19.907	9.644	0.483
856.000	506.963	80.005	19.995	103.179	19.911	9.395	0.502
856.500	507.186	80.007	19.994	103.179	19.912	9.351	0.525
857.000	507.437	80.006	19.994	103.178	19.913	9.255	0.499
857.500	507.678	80.005	19.994	103.175	19.913	9.275	0.483
858.000	507.949	80.007	19.995	103.175	19.911	9.401	0.502
858.500	508.226	80.006	19.995	103.176	19.906	9.696	0.530
859.000	508.480	80.006	19.995	103.176	19.909	9.502	0.540
859.500	508.722	80.006	19.996	103.178	19.911	9.371	0.513
860.000	508.973	80.007	19.995	103.181	19.911	9.397	0.494
860.500	509.231	80.006	19.995	103.180	19.911	9.414	0.501
861.000	509.482	80.007	19.995	103.178	19.909	9.492	0.509
861.500	509.738	80.007	19.995	103.174	19.913	9.239	0.508
862.000	510.018	80.006	19.994	103.167	19.913	9.247	0.522
862.500	510.269	80.007	19.994	103.159	19.910	9.469	0.534
863.000	510.498	80.006	19.996	103.152	19.915	9.117	0.505
863.500	510.761	80.006	19.995	103.147	19.912	9.330	0.486
864.000	510.985	80.006	19.996	103.149	19.915	9.145	0.490
864.500	511.271	80.007	19.995	103.156	19.916	9.071	0.499
865.000	511.513	80.006	19.996	103.162	19.915	9.132	0.519
865.500	511.771	80.007	19.995	103.167	19.916	9.038	0.514
866.000	512.034	80.005	19.996	103.173	19.914	9.197	0.510
866.500	512.263	80.006	19.995	103.171	19.915	9.110	0.506
867.000	512.514	80.006	19.996	103.164	19.918	8.951	0.485
867.500	512.769	80.005	19.995	103.160	19.915	9.108	0.493
868.000	513.005	80.006	19.995	103.157	19.918	8.958	0.499
868.500	513.282	80.005	19.996	103.153	19.914	9.189	0.502
869.000	513.547	80.007	19.996	103.151	19.917	9.026	0.528
869.500	513.796	80.005	19.995	103.157	19.917	9.018	0.528
870.000	514.050	80.005	19.996	103.164	19.919	8.848	0.508
870.500	514.324	80.007	19.996	103.166	19.916	9.083	0.516
871.000	514.586	80.006	19.995	103.166	19.913	9.259	0.532
871.500	514.826	80.005	19.995	103.163	19.912	9.324	0.519
872.000	515.109	80.005	19.995	103.160	19.915	9.130	0.512
872.500	515.359	80.006	19.996	103.160	19.919	8.889	0.528
873.000	515.610	80.005	19.995	103.163	19.919	8.862	0.517
873.500	515.881	80.006	19.995	103.167	19.915	9.104	0.511
874.000	516.122	80.006	19.996	103.172	19.918	8.912	0.517
874.500	516.380	80.006	19.994	103.174	19.914	9.165	0.506
875.000	516.657	80.005	19.996	103.173	19.918	8.953	0.517
875.500	516.909	80.005	19.996	103.172	19.918	8.946	0.532
876.000	517.158	80.005	19.995	103.173	19.919	8.872	0.515
876.500	517.422	80.004	19.996	103.174	19.922	8.694	0.507
877.000	517.683	80.005	19.996	103.173	19.915	9.155	0.519
877.500	517.920	80.005	19.996	103.175	19.916	9.036	0.511
878.000	518.212	80.007	19.995	103.174	19.916	9.071	0.514
878.500	518.474	80.005	19.996	103.174	19.921	8.746	0.542
879.000	518.704	80.006	19.996	103.178	19.914	9.186	0.523
879.500	518.945	80.005	19.995	103.180	19.918	8.924	0.482
880.000	519.226	80.006	19.994	103.178	19.919	8.842	0.497
880.500	519.491	80.006	19.995	103.178	19.918	8.920	0.534
881.000	519.725	80.006	19.995	103.177	19.922	8.687	0.522
881.500	519.986	80.007	19.995	103.171	19.915	9.150	0.497
882.000	520.186	80.006	19.995	103.168	19.919	8.852	0.478
882.500	520.469	80.006	19.994	103.168	19.920	8.838	0.472
883.000	520.717	80.006	19.995	103.166	19.917	9.030	0.507
883.500	521.003	80.006	19.995	103.167	19.919	8.860	0.533
884.000	521.272	80.006	19.994	103.171	19.922	8.663	0.544
884.500	521.460	80.005	19.995	103.170	19.923	8.607	0.506
885.000	521.753	80.006	19.995	103.167	19.922	8.668	0.469
885.500	521.977	80.006	19.995	103.165	19.921	8.766	0.499
886.000	522.281	80.008	19.995	103.158	19.926	8.410	0.522
886.500	522.522	80.007	19.994	103.153	19.923	8.604	0.536
887.000	522.758	80.006	19.994	103.148	19.917	8.977	0.511
887.500	523.015	80.008	19.995	103.148	19.923	8.645	0.485
888.000	523.274	80.008	19.995	103.148	19.923	8.596	0.504
888.500	523.499	80.006	19.995	103.150	19.928	8.281	0.500
889.000	523.775	80.006	19.994	103.149	19.930	8.157	0.493
889.500	524.026	80.008	19.995	103.149	19.922	8.663	0.514
890.000	524.277	80.007	19.994	103.148	19.926	8.389	0.515
890.500	524.533	80.006	19.995	103.147	19.922	8.649	0.505
891.000	524.783	80.007	19.996	103.144	19.927	8.350	0.506
891.500	525.025	80.007	19.995	103.144	19.929	8.245	0.499
892.000	525.308	80.006	19.996	103.147	19.924	8.572	0.509
892.500	525.555	80.007	19.996	103.152	19.925	8.455	0.527
893.000	525.774	80.006	19.996	103.156	19.924	8.580	0.498
893.500	526.012	80.007	19.997	103.158	19.923	8.625	0.462
894.000	526.307	80.006	19.995	103.158	19.926	8.401	0.495
894.500	526.536	80.006	19.996	103.156	19.922	8.665	0.528
895.000	526.783	80.006	19.995	103.152	19.923	8.619	0.500
895.500	527.024	80.006	19.996	103.150	19.926	8.424	0.482
896.000	527.265	80.005	19.995	103.150	19.929	8.229	0.485
896.500	527.530	80.005	19.995	103.155	19.930	8.154	0.494
897.000	527.828	80.007	19.995	103.160	19.930	8.154	0.535
897.500	528.067	80.004	19.996	103.164	19.929	8.234	0.550
898.000	528.327	80.005	19.996	103.167	19.928	8.288	0.518
898.500	528.584	80.005	19.995	103.170	19.928	8.278	0.508
899.000	528.833	80.005	19.995	103.164	19.926	8.423	0.511
899.500	529.117	80.005	19.996	103.159	19.925	8.454	0.520
900.000	529.393	80.005	19.995	103.154	19.932	8.023	0.547
900.500	529.618	80.005	19.995	103.151	19.925	8.508	0.531
901.000	529.844	80.006	19.995	103.150	19.928	8.291	0.476
901.500	530.115	80.006	19.996	103.157	19.928	8.262	0.474
902.000	530.379	80.006	19.996	103.162	19.928	8.288	0.516
902.500	530.631	80.007	19.995	103.168	19.929	8.195	0.525
903.000	530.893	80.006	19.996	103.170	19.931	8.095	0.515
903.500	531.141	80.005	19.995	103.170	19.931	8.076	0.513
904.000	531.423	80.005	19.995	103.163	19.928	8.294	0.520
904.500	531.675	80.006	19.995	103.158	19.934	7.915	0.532
905.000	531.925	80.007	19.995	103.155	19.933	7.984	0.518
905.500	532.191	80.006	19.995	103.154	19.931	8.102	0.509
906.000	532.425	80.006	19.995	103.152	19.935	7.845	0.508
906.500	532.710	80.005	19.994	103.156	19.934	7.879	0.510
907.000	532.941	80.007	19.995	103.159	19.931	8.122	0.518
907.500	533.206	80.008	19.996	103.158	19.933	7.963	0.506
908.000	533.454	80.007	19.995	103.159	19.934	7.935	0.504
908.500	533.729	80.009	19.995	103.163	19.937	7.743	0.517
909.000	533.973	80.008	19.995	103.162	19.934	7.890	0.521
909.500	534.243	80.007	19.995	103.164	19.933	7.942	0.516
910.000	534.495	80.009	19.994	103.166	19.934	7.900	0.518
910.500	534.741	80.007	19.994	103.165	19.935	7.830	0.511
911.000	534.990	80.009	19.994	103.163	19.936	7.806	0.497
911.500	535.266	80.010	19.995	103.161	19.931	8.073	0.510
912.000	535.495	80.008	19.995	103.154	19.939	7.589	0.515
912.500	535.772	80.010	19.995	103.153	19.934	7.931	0.505
913.000	536.044	80.009	19.994	103.154	19.933	7.975	0.527
913.500	536.236	80.010	19.995	103.156	19.932	8.026	0.507
914.000	536.520	80.010	19.995	103.160	19.930	8.146	0.470
914.500	536.794	80.008	19.994	103.164	19.934	7.910	0.517
915.000	536.997	80.009	19.994	103.162	19.934	7.924	0.518
915.500	537.301	80.010	19.995	103.158	19.934	7.880	0.492
916.000	537.517	80.009	19.995	103.153	19.935	7.814	0.513
916.500	537.822	80.008	19.994	103.147	19.935	7.850	0.520
917.000	538.077	80.007	19.994	103.143	19.937	7.718	0.540
917.500	538.341	80.008	19.994	103.142	19.934	7.901	0.539
918.000	538.571	80.009	19.995	103.149	19.933	7.964	0.506
918.500	538.837	80.008	19.994	103.152	19.938	7.648	0.495
919.000	539.114	80.006	19.993	103.153	19.932	8.034	0.520
919.500	539.358	80.008	19.994	103.154	19.931	8.106	0.532
920.000	539.633	80.007	19.995	103.152	19.931	8.066	0.520
920.500	539.888	80.007	19.994	103.147	19.934	7.911	0.525
921.000	540.110	80.007	19.994	103.145	19.933	7.971	0.503
921.500	540.362	80.007	19.995	103.146	19.936	7.779	0.475
922.000	540.635	80.007	19.995	103.146	19.932	8.007	0.499
922.500	540.909	80.008	19.995	103.148	19.938	7.646	0.536
923.000	541.140	80.006	19.994	103.147	19.932	8.022	0.527
923.500	541.376	80.006	19.994	103.145	19.934	7.924	0.486
924.000	541.641	80.005	19.996	103.147	19.932	8.013	0.484
924.500	541.895	80.005	19.994	103.148	19.931	8.080	0.510
925.000	542.151	80.007	19.995	103.147	19.932	8.029	0.514
925.500	542.356	80.006	19.995	103.148	19.933	7.973	0.486
926.000	542.648	80.005	19.995	103.147	19.941	7.481	0.479
926.500	542.889	80.006	19.996	103.145	19.935	7.867	0.515
927.000	543.160	80.008	19.996	103.142	19.940	7.526	0.523
927.500	543.409	80.007	19.995	103.141	19.935	7.814	0.516
928.000	543.644	80.007	19.995	103.142	19.940	7.507	0.502
928.500	543.914	80.005	19.995	103.144	19.941	7.452	0.494
929.000	544.150	80.007	19.995	103.145	19.943	7.340	0.505
929.500	544.436	80.006	19.995	103.146	19.943	7.300	0.514
930.000	544.664	80.005	19.996	103.149	19.937	7.694	0.518
930.500	544.921	80.006	19.995	103.154	19.943	7.350	0.500
931.000	545.154	80.005	19.996	103.154	19.934	7.893	0.487
931.500	545.398	80.007	19.994	103.156	19.938	7.673	0.483
932.000	545.655	80.006	19.994	103.160	19.938	7.621	0.489
932.500	545.927	80.007	19.996	103.160	19.935	7.832	0.515
933.000	546.149	80.007	19.995	103.160	19.934	7.893	0.512
933.500	546.407	80.007	19.995	103.166	19.937	7.715	0.487
934.000	546.705	80.006	19.994	103.169	19.944	7.230	0.518
934.500	546.943	80.006	19.995	103.167	19.934	7.902	0.546
935.000	547.197	80.006	19.995	103.163	19.942	7.401	0.514
935.500	547.473	80.005	19.994	103.156	19.940	7.506	0.511
936.000	547.689	80.008	19.994	103.149	19.938	7.630	0.511
936.500	547.958	80.005	19.995	103.144	19.937	7.726	0.489
937.000	548.245	80.007	19.995	103.143	19.938	7.621	0.521
937.500	548.463	80.007	19.995	103.147	19.940	7.544	0.531
938.000	548.706	80.006	19.995	103.147	19.939	7.598	0.483
938.500	548.990	80.008	19.996	103.149	19.944	7.258	0.493
939.000	549.229	80.007	19.994	103.150	19.938	7.630	0.525
939.500	549.475	80.007	19.995	103.152	19.943	7.296	0.504
940.000	549.736	80.006	19.994	103.149	19.938	7.656	0.496
940.500	549.995	80.006	19.995	103.149	19.942	7.376	0.513
941.000	550.265	80.006	19.993	103.148	19.942	7.394	0.524
941.500	550.490	80.007	19.995	103.146	19.941	7.483	0.512
942.000	550.763	80.006	19.995	103.146	19.942	7.387	0.496
942.500	550.997	80.008	19.995	103.149	19.941	7.474	0.503
943.000	551.273	80.006	19.995	103.151	19.940	7.506	0.509
943.500	551.546	80.006	19.994	103.152	19.942	7.399	0.530
944.000	551.790	80.007	19.994	103.154	19.942	7.403	0.533
944.500	552.028	80.006	19.994	103.152	19.943	7.300	0.499
945.000	552.285	80.007	19.995	103.150	19.944	7.252	0.488
945.500	552.534	80.006	19.993	103.151	19.943	7.317	0.501
946.000	552.799	80.008	19.994	103.152	19.947	7.055	0.510
946.500	553.050	80.007	19.995	103.154	19.946	7.109	0.515
947.000	553.293	80.006	19.995	103.155	19.942	7.375	0.505
947.500	553.523	80.008	19.995	103.155	19.946	7.115	0.483
948.000	553.805	80.007	19.995	103.154	19.945	7.195	0.492
948.500	554.050	80.006	19.994	103.154	19.943	7.312	0.520
949.000	554.320	80.008	19.995	103.153	19.944	7.246	0.521
949.500	554.495	80.006	19.994	103.153	19.947	7.085	0.480
950.000	554.821	80.006	19.993	103.150	19.945	7.183	0.473
950.500	555.065	80.007	19.995	103.151	19.946	7.121	0.536
951.000	555.313	80.006	19.995	103.150	19.945	7.202	0.531
951.500	555.568	80.006	19.996	103.149	19.946	7.132	0.497
952.000	555.811	80.006	19.995	103.148	19.943	7.340	0.501
952.500	556.082	80.007	19.995	103.148	19.945	7.172	0.506
953.000	556.369	80.006	19.994	103.153	19.949	6.916	0.536
953.500	556.618	80.005	19.995	103.153	19.943	7.329	0.547
954.000	556.835	80.007	19.995	103.154	19.943	7.338	0.501
954.500	557.088	80.006	19.995	103.154	19.944	7.263	0.468
955.000	557.322	80.007	19.995	103.154	19.947	7.055	0.479
955.500	557.598	80.006	19.995	103.147	19.947	7.092	0.499
956.000	557.832	80.005	19.994	103.146	19.945	7.211	0.510
956.500	558.097	80.005	19.995	103.144	19.944	7.274	0.504
957.000	558.319	80.007	19.995	103.145	19.945	7.167	0.493
957.500	558.623	80.006	19.994	103.149	19.946	7.113	0.506
958.000	558.863	80.006	19.995	103.151	19.950	6.906	0.535
958.500	559.118	80.005	19.995	103.155	19.945	7.185	0.520
959.000	559.347	80.006	19.994	103.157	19.947	7.053	0.490
959.500	559.640	80.006	19.995	103.157	19.942	7.381	0.503
960.000	559.871	80.005	19.995	103.154	19.947	7.082	0.523
960.500	560.095	80.006	19.995	103.152	19.945	7.219	0.489
961.000	560.350	80.005	19.995	103.148	19.943	7.310	0.467
961.500	560.610	80.005	19.995	103.146	19.944	7.259	0.497
962.000	560.829	80.005	19.994	103.145	19.941	7.451	0.497
962.500	561.117	80.006	19.997	103.145	19.948	7.031	0.493
963.000	561.385	80.005	19.996	103.146	19.945	7.165	0.531
963.500	561.635	80.005	19.996	103.146	19.947	7.090	0.537
964.000	561.915	80.005	19.996	103.146	19.950	6.867	0.524
964.500	562.131	80.007	19.996	103.146	19.946	7.104	0.514
965.000	562.372	80.006	19.995	103.147	19.953	6.706	0.477
965.500	562.650	80.005	19.994	103.146	19.953	6.713	0.488
966.000	562.869	80.008	19.996	103.149	19.948	6.991	0.508
966.500	563.134	80.006	19.995	103.150	19.952	6.734	0.490
967.000	563.388	80.007	19.996	103.150	19.950	6.865	0.501
967.500	563.640	80.007	19.996	103.150	19.947	7.083	0.513
968.000	563.870	80.005	19.995	103.150	19.950	6.885	0.494
968.500	564.136	80.006	19.996	103.154	19.949	6.929	0.489
969.000	564.383	80.007	19.995	103.159	19.950	6.861	0.505
969.500	564.596	80.006	19.995	103.161	19.950	6.874	0.487
970.000	564.868	80.006	19.995	103.159	19.952	6.762	0.473
970.500	565.082	80.008	19.993	103.159	19.950	6.861	0.486
971.000	565.371	80.006	19.994	103.152	19.947	7.077	0.494
971.500	565.612	80.008	19.994	103.145	19.950	6.901	0.516
972.000	565.876	80.007	19.995	103.143	19.953	6.712	0.517
972.500	566.136	80.008	19.995	103.142	19.953	6.667	0.515
973.000	566.350	80.006	19.995	103.143	19.953	6.681	0.499
973.500	566.606	80.007	19.995	103.145	19.951	6.822	0.472
974.000	566.873	80.007	19.993	103.146	19.949	6.924	0.496
974.500	567.065	80.007	19.995	103.146	19.949	6.968	0.491
975.000	567.351	80.007	19.994	103.146	19.952	6.758	0.469
975.500	567.600	80.006	19.995	103.148	19.949	6.964	0.506
976.000	567.854	80.007	19.995	103.147	19.953	6.655	0.518
976.500	568.104	80.006	19.995	103.145	19.952	6.732	0.503
977.000	568.369	80.006	19.994	103.145	19.953	6.663	0.510
977.500	568.616	80.007	19.997	103.145	19.955	6.561	0.514
978.000	568.890	80.007	19.996	103.143	19.952	6.773	0.517
978.500	569.149	80.007	19.995	103.150	19.952	6.775	0.527
979.000	569.351	80.007	19.995	103.156	19.955	6.558	0.497
979.500	569.601	80.008	19.995	103.162	19.956	6.482	0.457
980.000	569.860	80.006	19.996	103.168	19.955	6.531	0.481
980.500	570.132	80.008	19.996	103.172	19.952	6.764	0.520
981.000	570.385	80.006	19.995	103.171	19.953	6.693	0.528
981.500	570.638	80.006	19.994	103.165	19.954	6.628	0.515
982.000	570.907	80.007	19.995	103.161	19.954	6.647	0.513
982.500	571.168	80.007	19.996	103.160	19.953	6.710	0.526
983.000	571.389	80.006	19.996	103.157	19.952	6.719	0.506
983.500	571.677	80.007	19.996	103.155	19.956	6.486	0.496
984.000	571.932	80.007	19.996	103.154	19.956	6.516	0.526
984.500	572.165	80.006	19.995	103.152	19.956	6.479	0.515
985.000	572.436	80.008	19.997	103.147	19.953	6.706	0.496
985.500	572.706	80.007	19.995	103.145	19.953	6.667	0.523
986.000	572.958	80.006	19.996	103.140	19.953	6.706	0.532
986.500	573.193	80.007	19.997	103.140	19.952	6.748	0.504
987.000	573.482	80.006	19.996	103.143	19.954	6.632	0.505
987.500	573.728	80.007	19.996	103.145	19.953	6.664	0.530
988.000	574.014	80.007	19.996	103.146	19.954	6.632	0.534
988.500	574.243	80.007	19.996	103.148	19.953	6.687	0.524
989.000	574.516	80.006	19.995	103.152	19.951	6.800	0.508
989.500	574.785	80.007	19.996	103.155	19.951	6.807	0.522
990.000	575.050	80.007	19.996	103.155	19.952	6.718	0.538
990.500	575.337	80.006	19.995	103.156	19.951	6.810	0.543
991.000	575.602	80.006	19.996	103.157	19.952	6.729	0.552
991.500	575.832	80.007	19.995	103.155	19.953	6.660	0.523
992.000	576.089	80.006	19.997	103.154	19.954	6.613	0.491
992.500	576.335	80.007	19.996	103.157	19.957	6.418	0.495
993.000	576.602	80.007	19.996	103.155	19.952	6.748	0.508
993.500	576.867	80.007	19.996	103.151	19.961	6.174	0.522
994.000	577.143	80.009	19.995	103.151	19.953	6.668	0.537
994.500	577.380	80.008	19.997	103.146	19.957	6.453	0.527
995.000	577.618	80.008	19.995	103.143	19.955	6.574	0.494
995.500	577.865	80.008	19.995	103.142	19.955	6.544	0.480
996.000	578.150	80.007	19.995	103.142	19.952	6.767	0.508
996.500	578.407	80.009	19.996	103.139	19.954	6.633	0.537
997.000	578.629	80.007	19.995	103.139	19.954	6.640	0.510
997.500	578.905	80.008	19.995	103.139	19.954	6.610	0.488
998.000	579.155	80.008	19.996	103.138	19.954	6.616	0.512
998.500	579.392	80.008	19.996	103.139	19.955	6.552	0.507
999.000	579.702	80.008	19.995	103.140	19.958	6.330	0.518
999.500	579.897	80.008	19.994	103.140	19.959	6.298	0.526
1000.000	580.137	80.008	19.994	103.141	19.956	6.494	0.470
1000.500	580.439	80.007	19.995	103.141	19.955	6.537	0.488
1001.000	580.647	80.007	19.995	103.141	19.957	6.418	0.526
1001.500	580.954	80.006	19.996	103.140	19.954	6.601	0.513
1002.000	581.205	80.007	19.994	103.141	19.959	6.306	0.537
1002.500	581.418	80.007	19.995	103.141	19.958	6.378	0.511
1003.000	581.688	80.008	19.994	103.141	19.956	6.477	0.473
1003.500	581.962	80.007	19.995	103.144	19.959	6.280	0.514
1004.000	582.203	80.007	19.994	103.148	19.959	6.315	0.529
1004.500	582.473	80.007	19.995	103.148	19.958	6.388	0.513
1005.000	582.701	80.007	19.995	103.150	19.958	6.329	0.504
1005.500	582.974	80.007	19.995	103.150	19.957	6.434	0.500
1006.000	583.222	80.005	19.995	103.150	19.956	6.519	0.511
1006.500	583.507	80.005	19.994	103.147	19.958	6.347	0.526
1007.000	583.758	80.005	19.995	103.148	19.962	6.092	0.534
1007.500	584.041	80.006	19.995	103.148	19.958	6.364	0.535
1008.000	584.265	80.007	19.995	103.148	19.957	6.438	0.521
1008.500	584.508	80.007	19.994	103.147	19.958	6.330	0.486
1009.000	584.764	80.006	19.995	103.153	19.957	6.429	0.483
1009.500	585.029	80.006	19.995	103.157	19.958	6.359	0.511
1010.000	585.278	80.005	19.994	103.157	19.956	6.468	0.518
1010.500	585.519	80.006	19.995	103.157	19.959	6.295	0.502
1011.000	585.787	80.005	19.995	103.157	19.960	6.227	0.499
1011.500	586.038	80.006	19.995	103.151	19.954	6.623	0.513
1012.000	586.255	80.005	19.995	103.145	19.955	6.579	0.494
1012.500	586.554	80.005	19.994	103.144	19.956	6.519	0.492
1013.000	586.841	80.004	19.995	103.144	19.954	6.643	0.551
1013.500	587.100	80.006	19.994	103.142	19.956	6.484	0.566
1014.000	587.321	80.007	19.995	103.143	19.957	6.399	0.513
1014.500	587.570	80.007	19.995	103.142	19.956	6.500	0.475
1015.000	587.826	80.006	19.995	103.142	19.954	6.631	0.487
1015.500	588.012	80.006	19.995	103.142	19.957	6.395	0.474
1016.000	588.361	80.007	19.995	103.143	19.956	6.486	0.489
1016.500	588.601	80.005	19.994	103.143	19.954	6.607	0.562
1017.000	588.850	80.006	19.994	103.143	19.956	6.501	0.539
1017.500	589.124	80.007	19.995	103.146	19.954	6.648	0.506
1018.000	589.386	80.007	19.995	103.148	19.956	6.515	0.529
1018.500	589.612	80.005	19.995	103.150	19.957	6.452	0.512
1019.000	589.892	80.007	19.996	103.153	19.957	6.422	0.498
1019.500	590.114	80.007	19.994	103.153	19.956	6.515	0.504
1020.000	590.380	80.007	19.994	103.152	19.957	6.438	0.495
1020.500	590.652	80.006	19.994	103.153	19.954	6.604	0.513
1021.000	590.899	80.006	19.995	103.154	19.958	6.344	0.529
1021.500	591.122	80.008	19.995	103.152	19.957	6.403	0.495
1022.000	591.408	80.006	19.995	103.151	19.960	6.227	0.489
1022.500	591.594	80.006	19.995	103.151	19.959	6.325	0.490
1023.000	591.870	80.006	19.995	103.150	19.957	6.427	0.467
1023.500	592.142	80.006	19.995	103.146	19.957	6.417	0.505
1024.000	592.390	80.005	19.995	103.145	19.960	6.200	0.534
1024.499	592.669	80.006	19.994	103.145	19.960	6.246	0.523
1024.999	592.915	80.006	19.995	103.144	19.957	6.394	0.526
1025.499	593.175	80.006	19.995	103.143	19.956	6.495	0.515
1025.999	593.395	80.006	19.994	103.144	19.958	6.363	0.493
1026.499	593.609	80.007	19.996	103.144	19.956	6.494	0.457
1026.999	593.912	80.006	19.995	103.144	19.957	6.405	0.475
1027.499	594.173	80.006	19.995	103.149	19.959	6.314	0.541
1027.999	594.466	80.007	19.995	103.153	19.959	6.323	0.559
1028.499	594.700	80.006	19.995	103.158	19.960	6.261	0.541
1028.999	594.953	80.006	19.995	103.158	19.961	6.169	0.507
1029.499	595.242	80.005	19.995	103.158	19.959	6.307	0.515
1029.999	595.448	80.007	19.996	103.156	19.956	6.499	0.519
1030.499	595.730	80.005	19.995	103.153	19.958	6.337	0.491
1030.999	595.933	80.006	19.994	103.152	19.960	6.211	0.486
1031.499	596.238	80.007	19.994	103.159	19.957	6.415	0.497
1031.999	596.485	80.006	19.995	103.161	19.960	6.260	0.530
1032.499	596.758	80.006	19.994	103.160	19.958	6.342	0.536
1032.999	597.014	80.006	19.995	103.160	19.957	6.394	0.525
1033.499	597.275	80.006	19.995	103.156	19.960	6.221	0.523
1033.999	597.504	80.004	19.995	103.151	19.956	6.477	0.503
1034.499	597.783	80.006	19.994	103.149	19.958	6.338	0.499
1034.999	598.020	80.007	19.995	103.148	19.954	6.594	0.512
1035.499	598.301	80.007	19.994	103.150	19.957	6.436	0.517
1035.999	598.535	80.005	19.995	103.151	19.958	6.357	0.516
1036.499	598.825	80.004	19.994	103.151	19.957	6.420	0.519
1036.999	599.058	80.005	19.993	103.149	19.955	6.535	0.523
1037.499	599.329	80.005	19.993	103.151	19.957	6.449	0.514
1037.999	599.572	80.005	19.996	103.151	19.957	6.423	0.510
1038.499	599.814	80.004	19.995	103.151	19.958	6.371	0.499
1038.999	600.094	80.005	19.994	103.151	19.959	6.324	0.503
1039.499	600.321	80.004	19.994	103.151	19.960	6.254	0.515
1039.999	600.622	80.005	19.995	103.150	19.958	6.331	0.518
1040.499	600.855	80.006	19.994	103.147	19.956	6.507	0.531
1040.999	601.132	80.005	19.994	103.151	19.957	6.425	0.522
1041.499	601.354	80.006	19.995	103.154	19.961	6.196	0.505
1041.999	601.610	80.003	19.995	103.157	19.958	6.334	0.489
1042.499	601.833	80.006	19.995	103.156	19.957	6.395	0.478
1042.999	602.145	80.006	19.994	103.155	19.958	6.336	0.507
1043.499	602.387	80.006	19.995	103.151	19.955	6.579	0.545
1043.999	602.626	80.006	19.995	103.147	19.952	6.755	0.518
1044.499	602.879	80.006	19.995	103.144	19.955	6.580	0.486
1044.999	603.140	80.005	19.996	103.144	19.957	6.423	0.503
1045.499	603.376	80.006	19.994	103.145	19.959	6.312	0.505
1045.999	603.619	80.006	19.994	103.146	19.958	6.331	0.488
1046.499	603.882	80.007	19.995	103.146	19.958	6.349	0.493
1046.999	604.178	80.007	19.996	103.145	19.957	6.443	0.532
1047.499	604.376	80.006	19.994	103.145	19.953	6.690	0.527
1047.999	604.646	80.007	19.995	103.144	19.956	6.491	0.481
1048.500	604.906	80.005	19.995	103.143	19.958	6.349	0.499
1049.000	605.139	80.007	19.995	103.144	19.961	6.180	0.511
1049.499	605.405	80.007	19.995	103.145	19.958	6.389	0.496
1049.999	605.668	80.007	19.994	103.144	19.957	6.430	0.514
1050.499	605.924	80.007	19.996	103.142	19.959	6.312	0.524
1050.999	606.125	80.008	19.995	103.141	19.958	6.357	0.488
1051.499	606.397	80.010	19.995	103.139	19.957	6.416	0.465
1051.999	606.665	80.008	19.994	103.139	19.956	6.472	0.507
1052.499	606.895	80.009	19.995	103.139	19.955	6.579	0.519
1052.999	607.144	80.007	19.995	103.140	19.958	6.385	0.488
1053.499	607.372	80.007	19.994	103.140	19.960	6.230	0.478
1053.999	607.631	80.006	19.995	103.142	19.960	6.223	0.482
1054.500	607.937	80.008	19.995	103.143	19.959	6.313	0.526
1055.000	608.180	80.008	19.995	103.143	19.960	6.253	0.557
1055.499	608.387	80.007	19.995	103.143	19.960	6.208	0.500
1055.999	608.651	80.007	19.995	103.143	19.962	6.080	0.461
1056.499	608.907	80.007	19.994	103.144	19.962	6.116	0.496
1056.999	609.160	80.008	19.995	103.148	19.962	6.104	0.515
1057.499	609.376	80.007	19.995	103.153	19.962	6.128	0.489
1057.999	609.619	80.008	19.995	103.157	19.961	6.172	0.464
1058.499	609.898	80.008	19.995	103.160	19.963	6.015	0.490
1059.000	610.114	80.008	19.995	103.160	19.967	5.800	0.509
1059.500	610.399	80.008	19.995	103.156	19.963	6.052	0.498
1059.999	610.655	80.007	19.995	103.152	19.967	5.795	0.521
1060.499	610.919	80.007	19.995	103.147	19.962	6.113	0.531
1060.999	611.168	80.007	19.996	103.144	19.963	6.036	0.517
1061.500	611.389	80.008	19.995	103.143	19.964	5.985	0.492
1062.000	611.652	80.006	19.995	103.142	19.968	5.729	0.477
1062.500	611.941	80.007	19.996	103.145	19.963	6.046	0.518
1063.000	612.151	80.008	19.995	103.146	19.965	5.893	0.525
1063.499	612.409	80.007	19.995	103.146	19.964	5.954	0.483
1063.999	612.688	80.008	19.996	103.146	19.963	6.010	0.502
1064.499	612.922	80.007	19.996	103.150	19.967	5.798	0.525
1064.999	613.189	80.008	19.995	103.154	19.967	5.783	0.507
1065.499	613.414	80.008	19.995	103.160	19.969	5.657	0.497
1065.999	613.715	80.007	19.996	103.160	19.971	5.533	0.509
1066.499	613.946	80.008	19.994	103.159	19.966	5.821	0.529
1066.999	614.185	80.008	19.996	103.153	19.968	5.724	0.501
1067.499	614.492	80.007	19.994	103.146	19.971	5.523	0.508
1067.999	614.744	80.007	19.995	103.139	19.969	5.663	0.552
1068.499	614.982	80.007	19.996	103.140	19.972	5.490	0.525
1069.000	615.265	80.007	19.995	103.141	19.970	5.590	0.506
1069.501	615.503	80.008	19.994	103.143	19.970	5.583	0.521
1070.000	615.779	80.007	19.995	103.143	19.973	5.384	0.518
1070.499	616.023	80.008	19.995	103.148	19.968	5.745	0.517
1070.999	616.288	80.007	19.995	103.148	19.971	5.541	0.515
1071.499	616.529	80.009	19.995	103.147	19.968	5.687	0.508
1071.999	616.774	80.008	19.995	103.146	19.970	5.609	0.496
1072.499	617.020	80.007	19.995	103.146	19.971	5.533	0.488
1072.999	617.311	80.008	19.995	103.141	19.973	5.371	0.514
1073.499	617.513	80.008	19.995	103.139	19.971	5.530	0.515
1073.999	617.806	80.009	19.995	103.140	19.967	5.806	0.494
1074.499	618.005	80.009	19.995	103.140	19.969	5.643	0.494
1075.000	618.267	80.009	19.995	103.140	19.967	5.799	0.477
1075.501	618.522	80.009	19.996	103.141	19.970	5.558	0.489
1076.000	618.756	80.009	19.995	103.141	19.970	5.572	0.502
1076.499	619.039	80.008	19.995	103.141	19.970	5.602	0.503
1076.999	619.295	80.008	19.995	103.141	19.969	5.681	0.528
1077.499	619.536	80.009	19.994	103.143	19.965	5.925	0.519
1077.999	619.813	80.009	19.994	103.148	19.967	5.777	0.508
1078.499	620.058	80.008	19.995	103.150	19.965	5.882	0.520
1078.999	620.303	80.008	19.995	103.151	19.969	5.658	0.505
1079.499	620.575	80.009	19.995	103.151	19.964	5.946	0.503
1079.999	620.839	80.010	19.995	103.152	19.966	5.821	0.526
1080.499	621.073	80.009	19.994	103.150	19.964	5.965	0.517
1080.999	621.332	80.009	19.996	103.149	19.966	5.838	0.496
1081.499	621.576	80.009	19.994	103.153	19.965	5.879	0.499
1082.000	621.845	80.008	19.996	103.152	19.965	5.892	0.508
1082.500	622.097	80.008	19.995	103.149	19.967	5.778	0.517
1082.999	622.343	80.006	19.996	103.146	19.964	5.986	0.509
1083.499	622.567	80.008	19.995	103.146	19.961	6.146	0.484
1083.999	622.854	80.007	19.996	103.142	19.969	5.656	0.490
1084.499	623.097	80.008	19.996	103.142	19.967	5.802	0.521
1084.999	623.340	80.007	19.996	103.145	19.966	5.871	0.508
1085.499	623.546	80.006	19.996	103.145	19.968	5.705	0.467
1085.999	623.830	80.007	19.996	103.146	19.968	5.719	0.470
1086.500	624.093	80.006	19.995	103.151	19.968	5.715	0.519
1087.001	624.330	80.006	19.996	103.156	19.967	5.806	0.523
1087.501	624.595	80.006	19.996	103.156	19.966	5.837	0.501
1088.000	624.865	80.004	19.996	103.158	19.967	5.789	0.519
1088.499	625.067	80.005	19.995	103.163	19.966	5.840	0.504
1088.999	625.323	80.006	19.996	103.161	19.963	6.036	0.465
1089.499	625.550	80.006	19.996	103.160	19.967	5.777	0.470
1089.999	625.770	80.006	19.995	103.164	19.968	5.737	0.465
1090.499	626.075	80.005	19.996	103.166	19.966	5.874	0.486
1090.999	626.279	80.005	19.996	103.161	19.969	5.677	0.517
1091.500	626.531	80.005	19.996	103.161	19.960	6.200	0.482
1092.000	626.812	80.004	19.996	103.159	19.966	5.832	0.494
1092.499	627.045	80.005	19.996	103.153	19.964	5.989	0.524
1092.999	627.278	80.004	19.994	103.153	19.966	5.844	0.490
1093.499	627.538	80.005	19.995	103.152	19.970	5.563	0.480
1093.999	627.771	80.006	19.996	103.148	19.965	5.910	0.493
1094.499	628.044	80.004	19.996	103.146	19.967	5.797	0.499
1094.999	628.276	80.006	19.995	103.148	19.968	5.745	0.505
1095.499	628.551	80.004	19.996	103.147	19.970	5.588	0.506
1096.000	628.771	80.006	19.995	103.152	19.966	5.871	0.501
1096.500	629.019	80.003	19.994	103.153	19.967	5.803	0.481
1096.999	629.239	80.004	19.994	103.154	19.968	5.721	0.468
1097.499	629.506	80.006	19.995	103.151	19.966	5.825	0.478
1097.999	629.774	80.005	19.995	103.149	19.965	5.923	0.511
1098.499	630.058	80.006	19.994	103.149	19.963	6.026	0.543
1098.999	630.270	80.005	19.994	103.155	19.968	5.733	0.524
1099.499	630.553	80.007	19.995	103.161	19.967	5.752	0.496
1100.000	630.821	80.006	19.994	103.166	19.967	5.777	0.523
1100.500	631.058	80.005	19.994	103.166	19.969	5.644	0.528
1100.999	631.297	80.005	19.995	103.161	19.964	5.979	0.490
1101.499	631.518	80.007	19.994	103.155	19.963	6.035	0.468
1101.999	631.768	80.005	19.995	103.149	19.965	5.899	0.466
1102.499	632.012	80.006	19.995	103.144	19.966	5.817	0.482
1102.999	632.207	80.005	19.995	103.144	19.966	5.813	0.466
1103.499	632.486	80.006	19.995	103.144	19.964	5.963	0.457
1103.999	632.769	80.007	19.994	103.144	19.965	5.884	0.518
1104.499	632.980	80.005	19.995	103.144	19.965	5.886	0.528
1104.999	633.218	80.005	19.995	103.147	19.967	5.764	0.472
1105.499	633.458	80.006	19.994	103.152	19.969	5.652	0.463
1105.999	633.727	80.005	19.994	103.157	19.968	5.698	0.493
1106.499	633.994	80.006	19.994	103.159	19.966	5.829	0.523
1106.999	634.278	80.008	19.996	103.158	19.968	5.711	0.543
1107.499	634.504	80.006	19.994	103.156	19.969	5.671	0.530
1107.999	634.749	80.006	19.995	103.152	19.968	5.718	0.490
1108.499	634.987	80.006	19.995	103.149	19.968	5.728	0.477
1108.999	635.250	80.007	19.995	103.153	19.966	5.843	0.492
1109.500	635.489	80.005	19.995	103.158	19.966	5.855	0.502
1110.000	635.755	80.006	19.997	103.158	19.966	5.819	0.503
1110.499	636.028	80.006	19.995	103.158	19.967	5.800	0.522
1110.999	636.259	80.006	19.995	103.159	19.968	5.719	0.522
1111.499	636.507	80.007	19.994	103.157	19.962	6.095	0.491
1111.999	636.726	80.007	19.995	103.152	19.967	5.752	0.473
1112.499	636.959	80.006	19.995	103.154	19.965	5.915	0.460
1112.999	637.241	80.006	19.995	103.154	19.965	5.932	0.484
1113.499	637.498	80.007	19.995	103.153	19.967	5.760	0.527
1113.999	637.736	80.005	19.996	103.152	19.964	5.978	0.517
1114.499	638.007	80.006	19.995	103.152	19.964	5.978	0.502
1114.999	638.215	80.005	19.995	103.150	19.965	5.889	0.494
1115.499	638.461	80.006	19.995	103.151	19.965	5.899	0.466
1115.999	638.732	80.007	19.993	103.150	19.964	5.994	0.486
1116.499	638.973	80.005	19.994	103.148	19.967	5.763	0.515
1116.999	639.260	80.006	19.994	103.151	19.965	5.932	0.520
1117.499	639.497	80.005	19.996	103.158	19.966	5.851	0.526
1117.999	639.738	80.007	19.995	103.162	19.966	5.869	0.501
1118.499	639.981	80.006	19.995	103.165	19.963	6.039	0.481
1118.999	640.278	80.005	19.995	103.165	19.964	5.973	0.511
1119.499	640.514	80.007	19.995	103.162	19.965	5.900	0.536
1119.999	640.796	80.005	19.995	103.159	19.966	5.841	0.526
1120.499	641.025	80.006	19.995	103.157	19.962	6.129	0.515
1120.999	641.279	80.005	19.995	103.159	19.968	5.721	0.497
1121.499	641.514	80.006	19.995	103.164	19.966	5.822	0.486
1121.999	641.800	80.008	19.995	103.163	19.963	6.019	0.504
1122.499	642.022	80.006	19.994	103.161	19.961	6.136	0.515
1122.999	642.274	80.006	19.995	103.161	19.963	6.017	0.491
1123.499	642.546	80.007	19.994	103.160	19.966	5.813	0.499
1123.999	642.805	80.004	19.995	103.160	19.964	5.983	0.527
1124.499	643.043	80.006	19.994	103.164	19.964	6.005	0.514
1124.999	643.276	80.005	19.995	103.167	19.964	5.944	0.484
1125.499	643.556	80.006	19.995	103.170	19.967	5.784	0.492
1125.999	643.824	80.006	19.994	103.167	19.964	5.945	0.530
1126.499	644.055	80.007	19.995	103.167	19.967	5.810	0.524
1126.999	644.300	80.006	19.995	103.166	19.966	5.854	0.488
1127.499	644.567	80.006	19.995	103.161	19.961	6.150	0.494
1127.999	644.850	80.008	19.994	103.154	19.965	5.902	0.531
1128.499	645.082	80.005	19.995	103.152	19.966	5.837	0.532
1128.999	645.330	80.007	19.995	103.145	19.964	5.970	0.498
1129.499	645.603	80.006	19.996	103.143	19.965	5.934	0.501
1129.999	645.835	80.007	19.994	103.143	19.968	5.744	0.513
1130.499	646.113	80.006	19.995	103.150	19.966	5.857	0.508
1130.999	646.340	80.006	19.994	103.153	19.963	6.043	0.508
1131.499	646.640	80.006	19.994	103.156	19.967	5.786	0.516
1131.999	646.856	80.006	19.996	103.159	19.967	5.795	0.522
1132.499	647.137	80.008	19.994	103.160	19.969	5.658	0.507
1132.999	647.393	80.008	19.994	103.158	19.969	5.634	0.517
1133.499	647.641	80.008	19.994	103.156	19.971	5.555	0.520
1133.999	647.901	80.008	19.994	103.155	19.964	5.957	0.506
1134.500	648.143	80.007	19.994	103.154	19.966	5.852	0.505
1135.000	648.415	80.007	19.994	103.156	19.968	5.704	0.508
1135.499	648.672	80.009	19.994	103.154	19.968	5.737	0.521
1135.999	648.897	80.009	19.994	103.158	19.970	5.589	0.506
1136.499	649.168	80.009	19.995	103.162	19.968	5.739	0.489
1136.999	649.456	80.008	19.994	103.163	19.966	5.863	0.528
1137.499	649.701	80.008	19.994	103.162	19.966	5.858	0.546
1137.999	649.971	80.009	19.994	103.160	19.966	5.838	0.524
1138.499	650.236	80.010	19.994	103.155	19.967	5.789	0.525
1138.999	650.524	80.010	19.994	103.150	19.969	5.650	0.544
1139.499	650.765	80.007	19.995	103.146	19.970	5.566	0.541
1139.999	651.040	80.009	19.994	103.147	19.968	5.704	0.522
1140.499	651.258	80.007	19.995	103.154	19.971	5.543	0.504
1141.000	651.522	80.008	19.994	103.161	19.971	5.533	0.487
1141.501	651.802	80.008	19.995	103.164	19.967	5.751	0.514
1142.000	652.021	80.008	19.994	103.168	19.965	5.879	0.521
1142.499	652.327	80.008	19.994	103.170	19.967	5.795	0.512
1142.999	652.564	80.006	19.994	103.166	19.967	5.788	0.534
1143.499	652.830	80.006	19.995	103.165	19.970	5.594	0.523
1143.999	653.078	80.008	19.995	103.164	19.971	5.540	0.508
1144.499	653.338	80.006	19.994	103.163	19.970	5.603	0.511
1144.999	653.609	80.009	19.994	103.164	19.971	5.545	0.520
1145.499	653.878	80.008	19.994	103.167	19.965	5.912	0.536
1145.999	654.158	80.006	19.995	103.163	19.970	5.618	0.545
1146.499	654.414	80.008	19.995	103.167	19.967	5.793	0.542
1146.999	654.689	80.006	19.994	103.170	19.972	5.491	0.534
1147.499	654.960	80.007	19.995	103.166	19.969	5.637	0.539
1147.999	655.209	80.007	19.994	103.163	19.972	5.440	0.533
1148.500	655.451	80.007	19.995	103.168	19.967	5.779	0.506
1149.000	655.729	80.008	19.995	103.168	19.970	5.620	0.506
1149.499	656.041	80.007	19.994	103.165	19.965	5.878	0.555
1150.000	656.261	80.008	19.995	103.165	19.972	5.490	0.561
1150.500	656.524	80.008	19.994	103.170	19.965	5.928	0.508
1150.999	656.758	80.010	19.995	103.170	19.968	5.715	0.490
1151.499	657.026	80.007	19.994	103.169	19.968	5.699	0.499
1151.999	657.295	80.009	19.994	103.170	19.967	5.806	0.519
1152.499	657.557	80.007	19.996	103.172	19.968	5.713	0.534
1152.999	657.818	80.008	19.995	103.173	19.966	5.813	0.527
1153.499	658.040	80.007	19.995	103.172	19.970	5.607	0.503
1153.999	658.338	80.008	19.995	103.169	19.970	5.569	0.502
1154.499	658.625	80.008	19.996	103.168	19.971	5.529	0.552
1154.999	658.876	80.007	19.994	103.170	19.967	5.803	0.561
1155.500	659.115	80.009	19.995	103.167	19.967	5.772	0.514
1156.000	659.379	80.007	19.996	103.167	19.971	5.539	0.497
1156.499	659.632	80.008	19.996	103.169	19.970	5.614	0.510
1157.000	659.926	80.008	19.995	103.166	19.972	5.479	0.531
1157.500	660.168	80.009	19.995	103.163	19.967	5.755	0.541
1157.999	660.444	80.007	19.995	103.166	19.966	5.830	0.527
1158.499	660.676	80.009	19.995	103.163	19.971	5.504	0.514
1158.999	660.919	80.008	19.995	103.160	19.971	5.510	0.491
1159.499	661.186	80.008	19.995	103.162	19.969	5.639	0.492
1159.999	661.434	80.009	19.995	103.158	19.966	5.865	0.513
1160.500	661.697	80.009	19.994	103.151	19.969	5.628	0.513
1161.000	661.972	80.008	19.995	103.148	19.968	5.718	0.524
1161.499	662.230	80.008	19.995	103.145	19.969	5.643	0.535
1161.999	662.437	80.009	19.995	103.142	19.969	5.640	0.500
1162.499	662.740	80.008	19.994	103.142	19.968	5.699	0.488
1162.999	662.956	80.008	19.994	103.143	19.970	5.608	0.514
1163.499	663.251	80.009	19.995	103.143	19.969	5.624	0.515
1163.999	663.471	80.010	19.996	103.148	19.971	5.540	0.513
1164.499	663.733	80.010	19.995	103.156	19.972	5.484	0.499
1164.999	663.971	80.008	19.995	103.162	19.969	5.667	0.492
1165.499	664.228	80.008	19.994	103.162	19.970	5.613	0.498
1165.999	664.474	80.006	19.995	103.163	19.971	5.550	0.499
1166.499	664.732	80.008	19.993	103.158	19.972	5.487	0.503
1166.999	664.976	80.007	19.995	103.151	19.970	5.609	0.503
1167.499	665.247	80.008	19.994	103.144	19.973	5.412	0.509
1168.000	665.488	80.009	19.995	103.143	19.974	5.321	0.514
1168.500	665.747	80.008	19.995	103.144	19.972	5.435	0.506
1168.999	665.983	80.007	19.996	103.149	19.974	5.357	0.497
1169.499	666.250	80.006	19.994	103.155	19.972	5.444	0.500
1169.999	666.522	80.006	19.994	103.160	19.971	5.540	0.521
1170.499	666.749	80.006	19.994	103.168	19.974	5.318	0.519
1170.999	667.022	80.006	19.994	103.173	19.972	5.477	0.499
1171.499	667.275	80.005	19.995	103.175	19.972	5.486	0.513
1171.999	667.511	80.006	19.994	103.173	19.973	5.381	0.508
1172.499	667.764	80.005	19.995	103.174	19.974	5.329	0.489
1172.999	668.026	80.006	19.994	103.174	19.974	5.355	0.501
1173.500	668.274	80.006	19.995	103.175	19.974	5.357	0.513
1174.000	668.505	80.005	19.995	103.173	19.976	5.230	0.495
1174.499	668.779	80.005	19.995	103.177	19.972	5.443	0.492
1174.999	669.018	80.005	19.994	103.176	19.974	5.337	0.509
1175.499	669.271	80.007	19.994	103.171	19.977	5.157	0.503
1175.999	669.551	80.005	19.995	103.167	19.977	5.164	0.512
1176.499	669.818	80.006	19.995	103.162	19.972	5.429	0.540
1176.999	670.061	80.006	19.996	103.155	19.976	5.224	0.529
1177.499	670.336	80.005	19.995	103.157	19.973	5.411	0.515
1177.999	670.578	80.005	19.996	103.161	19.977	5.139	0.518
1178.499	670.838	80.006	19.996	103.159	19.976	5.200	0.509
1178.999	671.064	80.006	19.995	103.156	19.973	5.423	0.494
1179.499	671.330	80.005	19.996	103.155	19.971	5.530	0.489
1179.999	671.601	80.005	19.996	103.147	19.975	5.250	0.514
1180.499	671.859	80.005	19.996	103.140	19.972	5.446	0.533
1180.999	672.060	80.006	19.996	103.136	19.972	5.470	0.494
1181.499	672.329	80.005	19.995	103.131	19.973	5.397	0.464
1181.999	672.639	80.005	19.996	103.130	19.976	5.177	0.524
1182.499	672.867	80.005	19.995	103.130	19.972	5.477	0.558
1182.999	673.109	80.005	19.996	103.130	19.976	5.212	0.504
1183.500	673.400	80.006	19.996	103.135	19.973	5.378	0.502
1184.000	673.635	80.007	19.996	103.143	19.977	5.158	0.530
1184.499	673.909	80.007	19.995	103.146	19.970	5.592	0.518
1184.999	674.195	80.005	19.996	103.151	19.973	5.371	0.534
1185.499	674.455	80.005	19.996	103.155	19.973	5.390	0.553
1185.999	674.668	80.005	19.996	103.155	19.972	5.488	0.509
1186.499	674.916	80.006	19.996	103.152	19.973	5.399	0.467
1186.999	675.212	80.007	19.996	103.149	19.971	5.552	0.503
1187.500	675.469	80.007	19.995	103.144	19.970	5.569	0.548
1188.001	675.704	80.006	19.995	103.139	19.974	5.342	0.522
1188.500	675.980	80.006	19.995	103.137	19.971	5.505	0.501
1188.999	676.212	80.008	19.995	103.137	19.974	5.331	0.510
1189.500	676.508	80.007	19.996	103.137	19.971	5.549	0.518
1190.000	676.733	80.008	19.995	103.138	19.970	5.577	0.525
1190.499	677.000	80.007	19.995	103.139	19.971	5.509	0.507
1190.999	677.254	80.008	19.995	103.139	19.971	5.492	0.507
1191.500	677.505	80.007	19.995	103.140	19.970	5.562	0.513
1192.000	677.728	80.007	19.995	103.140	19.970	5.580	0.489
1192.499	677.992	80.006	19.995	103.139	19.972	5.481	0.480
1192.999	678.229	80.007	19.996	103.139	19.967	5.786	0.494
1193.499	678.487	80.006	19.994	103.138	19.971	5.518	0.498
1193.999	678.760	80.007	19.995	103.134	19.967	5.761	0.512
1194.499	678.995	80.005	19.994	103.134	19.970	5.592	0.519
1194.999	679.259	80.005	19.994	103.134	19.971	5.518	0.504
1195.499	679.556	80.006	19.994	103.134	19.975	5.249	0.530
1195.999	679.754	80.007	19.995	103.136	19.976	5.196	0.528
1196.499	679.997	80.004	19.994	103.139	19.974	5.344	0.468
1197.000	680.258	80.007	19.994	103.135	19.971	5.497	0.472
1197.500	680.555	80.005	19.994	103.134	19.974	5.299	0.531
1198.000	680.783	80.004	19.994	103.131	19.975	5.289	0.542
1198.500	681.021	80.005	19.995	103.131	19.975	5.241	0.495
1198.999	681.252	80.006	19.994	103.131	19.975	5.239	0.468
1199.499	681.545	80.006	19.994	103.135	19.977	5.143	0.497
1200.000	681.743	80.008	19.994	103.135	19.978	5.103	0.508
1200.500	682.044	80.006	19.994	103.137	19.974	5.320	0.495
1200.999	682.247	80.006	19.995	103.137	19.975	5.260	0.501
1201.500	682.525	80.004	19.995	103.136	19.975	5.234	0.492
1202.000	682.772	80.006	19.994	103.128	19.974	5.356	0.504
1202.499	682.992	80.005	19.995	103.126	19.977	5.164	0.496
1202.999	683.293	80.006	19.995	103.128	19.976	5.222	0.494
1203.499	683.526	80.005	19.995	103.135	19.977	5.116	0.527
1204.000	683.764	80.004	19.995	103.144	19.977	5.165	0.502
1204.501	684.009	80.005	19.993	103.158	19.978	5.090	0.477
1205.000	684.295	80.006	19.995	103.166	19.980	4.935	0.507
1205.499	684.525	80.007	19.995	103.164	19.980	4.943	0.523
1205.999	684.775	80.006	19.994	103.157	19.974	5.310	0.498
1206.499	684.997	80.006	19.994	103.142	19.977	5.141	0.476
1206.999	685.245	80.006	19.994	103.128	19.977	5.142	0.471
1207.499	685.485	80.003	19.994	103.117	19.979	4.994	0.480
1207.999	685.735	80.006	19.994	103.112	19.977	5.144	0.489
1208.499	686.022	80.007	19.994	103.109	19.974	5.302	0.513
1208.999	686.263	80.007	19.996	103.112	19.976	5.189	0.532
1209.499	686.518	80.008	19.994	103.116	19.975	5.232	0.512
1209.999	686.785	80.008	19.996	103.122	19.974	5.302	0.509
1210.500	687.042	80.008	19.994	103.128	19.974	5.348	0.523
1211.000	687.249	80.006	19.995	103.131	19.976	5.217	0.494
1211.499	687.545	80.008	19.995	103.131	19.979	5.039	0.484
1211.999	687.787	80.007	19.995	103.127	19.977	5.134	0.521
1212.499	688.022	80.007	19.994	103.120	19.972	5.460	0.507
1212.999	688.275	80.006	19.995	103.121	19.977	5.138	0.482
1213.499	688.552	80.005	19.996	103.121	19.976	5.222	0.509
1213.999	688.813	80.006	19.995	103.125	19.977	5.140	0.534
1214.499	689.042	80.006	19.995	103.132	19.978	5.083	0.514
1214.999	689.325	80.007	19.994	103.140	19.976	5.181	0.501
1215.500	689.554	80.008	19.995	103.140	19.975	5.252	0.511
1216.000	689.806	80.007	19.994	103.141	19.976	5.181	0.496
1216.499	690.042	80.009	19.996	103.141	19.972	5.453	0.485
1217.000	690.302	80.004	19.994	103.141	19.976	5.221	0.492
1217.501	690.559	80.008	19.995	103.141	19.974	5.315	0.506
1218.000	690.784	80.008	19.995	103.140	19.972	5.460	0.499
1218.499	691.030	80.006	19.996	103.140	19.972	5.439	0.477
1219.000	691.265	80.009	19.993	103.135	19.973	5.413	0.476
1219.501	691.553	80.006	19.995	103.129	19.976	5.205	0.502
1220.001	691.796	80.008	19.995	103.128	19.975	5.291	0.527
1220.500	692.014	80.007	19.994	103.128	19.977	5.154	0.496
1220.999	692.263	80.006	19.993	103.128	19.975	5.241	0.464
1221.500	692.526	80.008	19.995	103.132	19.975	5.248	0.489
1222.000	692.774	80.008	19.994	103.138	19.976	5.173	0.512
1222.500	693.014	80.009	19.994	103.139	19.974	5.311	0.500
1223.000	693.262	80.006	19.994	103.139	19.974	5.343	0.488
1223.499	693.493	80.007	19.994	103.134	19.975	5.238	0.484
1223.999	693.769	80.008	19.994	103.133	19.977	5.165	0.493
1224.499	694.011	80.007	19.994	103.133	19.975	5.280	0.512
1225.000	694.283	80.006	19.994	103.133	19.976	5.198	0.516
1225.501	694.548	80.006	19.994	103.134	19.974	5.301	0.526
1226.000	694.775	80.006	19.993	103.140	19.979	5.004	0.515
1226.499	695.019	80.005	19.995	103.141	19.975	5.239	0.481
1226.999	695.255	80.005	19.995	103.139	19.973	5.414	0.475
1227.500	695.512	80.006	19.994	103.136	19.975	5.242	0.487
1228.000	695.834	80.008	19.994	103.136	19.979	5.006	0.536
1228.499	696.011	80.007	19.994	103.137	19.976	5.209	0.539
1228.999	696.290	80.006	19.994	103.138	19.977	5.165	0.478
1229.499	696.586	80.007	19.994	103.141	19.975	5.254	0.516
1229.999	696.807	80.005	19.994	103.144	19.976	5.186	0.546
1230.499	697.063	80.004	19.994	103.144	19.972	5.476	0.497
1230.999	697.282	79.996	19.995	103.143	19.974	5.317	0.476
1231.499	697.575	80.009	19.993	103.138	19.975	5.254	0.493
1231.999	697.815	80.005	19.992	103.132	19.979	5.013	0.522
1232.499	698.085	80.009	19.994	103.131	19.974	5.318	0.522
1232.999	698.335	80.006	19.993	103.131	19.975	5.281	0.515
1233.499	698.592	80.005	19.994	103.131	19.979	5.020	0.513
1233.999	698.855	80.004	19.994	103.136	19.977	5.162	0.514
1234.499	699.092	80.010	19.992	103.141	19.973	5.361	0.511
1235.000	699.349	80.003	19.994	103.143	19.976	5.225	0.497
1235.500	699.578	80.008	19.993	103.139	19.977	5.135	0.490
1235.999	699.804	80.007	19.994	103.133	19.977	5.133	0.470
1236.499	700.106	80.007	19.994	103.129	19.976	5.177	0.492
1236.999	700.338	80.007	19.994	103.126	19.976	5.196	0.531
1237.499	700.581	80.009	19.993	103.125	19.977	5.163	0.504
1237.999	700.827	80.010	19.993	103.130	19.975	5.243	0.482
1238.499	701.083	80.009	19.994	103.137	19.976	5.175	0.496
1238.999	701.323	80.008	19.994	103.140	19.975	5.262	0.499
1239.499	701.609	80.009	19.994	103.143	19.975	5.234	0.511
1240.000	701.840	80.009	19.995	103.143	19.971	5.536	0.522
1240.500	702.075	80.008	19.993	103.143	19.977	5.163	0.491
1240.999	702.331	80.010	19.995	103.141	19.977	5.154	0.478
1241.499	702.596	80.006	19.993	103.139	19.976	5.187	0.506
1241.999	702.854	80.017	19.994	103.135	19.975	5.237	0.522
1242.499	703.078	80.008	19.994	103.134	19.974	5.331	0.503
1242.999	703.310	80.008	19.994	103.132	19.971	5.518	0.469
1243.499	703.568	80.012	19.994	103.129	19.976	5.192	0.473
1243.999	703.827	80.001	19.997	103.129	19.976	5.173	0.503
1244.499	704.104	80.009	19.995	103.127	19.975	5.234	0.527
1244.999	704.326	80.016	19.994	103.125	19.972	5.426	0.518
1245.499	704.586	80.012	19.994	103.123	19.975	5.269	0.491
1245.999	704.829	80.008	19.995	103.124	19.977	5.112	0.493
1246.499	705.097	79.996	19.996	103.126	19.975	5.248	0.507
1246.999	705.340	80.010	19.994	103.131	19.972	5.461	0.511
1247.500	705.535	79.998	19.999	103.135	19.972	5.429	0.474
1248.000	705.819	80.005	19.994	103.136	19.978	5.068	0.458
1248.499	706.045	80.008	19.995	103.138	19.975	5.281	0.495
1248.999	706.321	80.010	19.995	103.139	19.975	5.292	0.506
1249.500	706.550	80.002	19.995	103.137	19.973	5.376	0.503
1250.001	706.787	80.004	19.995	103.132	19.980	4.914	0.485
1250.500	707.037	80.006	19.995	103.133	19.976	5.228	0.476
1250.999	707.303	80.010	19.993	103.131	19.975	5.248	0.502
1251.499	707.550	80.007	19.996	103.129	19.973	5.407	0.515
1251.999	707.806	80.007	19.995	103.128	19.977	5.126	0.508
1252.499	708.052	80.009	19.995	103.127	19.972	5.428	0.502
1252.999	708.273	80.004	19.994	103.122	19.974	5.349	0.485
1253.499	708.532	80.012	19.994	103.118	19.975	5.287	0.474
1253.999	708.771	79.999	19.995	103.120	19.974	5.330	0.489
1254.499	708.961	80.007	19.999	103.124	19.976	5.187	0.463
1254.999	709.199	80.010	19.994	103.125	19.975	5.278	0.428
1255.499	709.490	80.009	19.994	103.129	19.975	5.278	0.479
1255.999	709.722	80.004	19.996	103.134	19.972	5.427	0.526
1256.500	709.970	79.998	19.995	103.134	19.975	5.282	0.502
1257.001	710.224	80.001	19.996	103.128	19.974	5.309	0.491
1257.501	710.422	80.009	19.994	103.126	19.975	5.269	0.477
1258.000	710.701	80.007	19.994	103.125	19.976	5.186	0.465
1258.499	710.955	80.004	19.994	103.124	19.977	5.110	0.505
1259.000	711.195	80.005	19.995	103.124	19.978	5.046	0.514
1259.500	711.448	80.004	19.994	103.128	19.973	5.393	0.494
1259.999	711.701	80.008	19.997	103.130	19.975	5.250	0.499
1260.499	711.967	80.008	19.994	103.133	19.975	5.255	0.513
1260.999	712.173	80.006	19.996	103.136	19.975	5.262	0.496
1261.499	712.422	80.006	19.994	103.135	19.976	5.187	0.463
1262.000	712.706	80.007	19.994	103.133	19.977	5.135	0.494
1262.500	712.964	80.004	19.993	103.133	19.974	5.308	0.537
1262.999	713.211	80.006	19.996	103.133	19.973	5.407	0.524
1263.500	713.446	80.006	19.994	103.131	19.975	5.291	0.494
1264.000	713.698	80.008	19.994	103.131	19.978	5.104	0.484
1264.500	713.964	80.006	19.994	103.132	19.975	5.282	0.502
1265.000	714.191	80.005	19.994	103.133	19.975	5.242	0.506
1265.499	714.420	80.005	19.994	103.134	19.974	5.318	0.474
1265.999	714.669	80.008	19.993	103.134	19.976	5.217	0.467
1266.499	714.947	80.005	19.993	103.137	19.976	5.194	0.502
1266.999	715.187	80.003	19.996	103.137	19.976	5.172	0.523
1267.499	715.432	80.013	19.994	103.136	19.979	5.017	0.501
1267.999	715.718	80.022	19.993	103.134	19.976	5.170	0.508
1268.499	715.964	80.006	19.995	103.134	19.979	5.034	0.532
1268.999	716.236	80.004	19.996	103.132	19.978	5.050	0.525
1269.500	716.481	80.008	19.996	103.131	19.979	5.008	0.518
1270.000	716.739	79.994	19.997	103.132	19.979	4.984	0.510
1270.499	716.988	80.004	19.996	103.132	19.974	5.306	0.505
1270.999	717.262	80.007	19.996	103.132	19.977	5.107	0.515
1271.499	717.507	80.008	19.994	103.133	19.977	5.107	0.521
1271.999	717.787	80.006	19.997	103.133	19.977	5.106	0.522
1272.499	718.038	80.006	19.994	103.131	19.977	5.160	0.527
1272.999	718.284	80.014	19.994	103.133	19.979	4.997	0.514
1273.499	718.501	79.999	19.996	103.135	19.976	5.222	0.480
1273.999	718.825	80.016	19.994	103.136	19.978	5.049	0.502
1274.499	719.022	80.007	19.995	103.140	19.977	5.129	0.531
1274.999	719.274	80.009	19.997	103.139	19.978	5.058	0.485
1275.500	719.534	80.004	19.996	103.139	19.975	5.239	0.480
1276.000	719.770	80.003	19.994	103.136	19.975	5.283	0.504
1276.500	720.049	80.012	19.991	103.138	19.972	5.459	0.506
1277.000	720.288	80.005	19.990	103.133	19.977	5.118	0.517
1277.499	720.582	80.006	19.996	103.136	19.977	5.114	0.526
1277.999	720.808	80.009	19.994	103.135	19.975	5.274	0.526
1278.499	721.063	80.005	19.994	103.137	19.977	5.151	0.500
1278.999	721.327	80.006	19.996	103.137	19.977	5.147	0.499
1279.499	721.591	80.004	19.995	103.140	19.976	5.179	0.523
1279.999	721.860	80.003	19.999	103.140	19.976	5.178	0.531
1280.500	722.130	80.006	19.995	103.140	19.977	5.149	0.536
1281.000	722.348	80.007	19.996	103.140	19.978	5.089	0.514
1281.499	722.631	80.007	19.994	103.139	19.976	5.180	0.495
1281.999	722.874	80.004	19.996	103.139	19.976	5.173	0.513
1282.499	723.144	80.008	19.997	103.140	19.977	5.143	0.520
1282.999	723.418	80.007	19.997	103.141	19.976	5.184	0.528
1283.499	723.667	80.003	19.996	103.140	19.977	5.151	0.533
1284.000	723.906	80.005	19.996	103.139	19.976	5.217	0.506
1284.500	724.224	80.005	19.995	103.132	19.975	5.263	0.523
1284.999	724.436	80.006	19.995	103.127	19.976	5.217	0.543
1285.499	724.675	80.008	19.995	103.121	19.977	5.116	0.490
1285.999	724.967	80.002	19.995	103.120	19.976	5.201	0.491
1286.499	725.202	80.002	19.996	103.121	19.975	5.243	0.529
1286.999	725.498	80.008	19.993	103.126	19.976	5.187	0.529
1287.499	725.717	80.007	19.994	103.131	19.977	5.125	0.523
1287.999	725.997	80.008	19.997	103.137	19.977	5.118	0.507
1288.499	726.255	80.003	19.994	103.137	19.974	5.336	0.519
1289.000	726.522	80.008	19.995	103.132	19.976	5.210	0.532
1289.500	726.749	80.003	19.995	103.132	19.974	5.304	0.510
1289.999	727.024	80.007	19.995	103.133	19.973	5.400	0.498
1290.499	727.301	80.007	19.994	103.131	19.973	5.385	0.526
1290.999	727.563	80.000	19.994	103.127	19.972	5.474	0.545
1291.499	727.801	80.005	19.997	103.129	19.973	5.378	0.519
1291.999	728.086	80.004	19.993	103.124	19.973	5.388	0.512
1292.499	728.309	80.002	20.003	103.119	19.971	5.495	0.516
1292.999	728.599	80.005	19.994	103.117	19.973	5.379	0.511
1293.499	728.862	80.005	19.995	103.124	19.973	5.385	0.533
1293.999	729.138	80.008	19.995	103.127	19.974	5.331	0.546
1294.499	729.376	80.008	19.992	103.132	19.973	5.387	0.527
1294.999	729.662	80.006	19.996	103.136	19.974	5.338	0.519
1295.499	729.898	80.001	19.995	103.136	19.974	5.307	0.523
1295.999	730.145	80.008	19.994	103.128	19.973	5.363	0.503
1296.499	730.416	80.007	19.995	103.129	19.974	5.359	0.500
1296.999	730.694	80.005	19.993	103.127	19.976	5.217	0.533
1297.499	730.918	80.006	19.993	103.123	19.975	5.296	0.526
1297.999	731.195	80.007	19.995	103.127	19.974	5.315	0.502
1298.499	731.453	80.006	19.997	103.135	19.973	5.392	0.518
1298.999	731.740	79.994	19.996	103.135	19.977	5.150	0.539
1299.499	732.017	80.007	19.994	103.136	19.971	5.555	0.555
1299.999	732.267	80.003	19.996	103.139	19.973	5.381	0.546
1300.499	732.535	80.007	19.993	103.137	19.975	5.270	0.522
1300.999	732.811	80.013	19.993	103.136	19.974	5.298	0.531
1301.499	733.043	80.009	19.994	103.137	19.974	5.333	0.526
1301.999	733.272	80.006	19.994	103.140	19.975	5.276	0.484
1302.499	733.572	80.007	19.995	103.137	19.975	5.281	0.495
1302.999	733.798	80.000	19.995	103.138	19.975	5.293	0.527
1303.499	734.093	80.009	19.994	103.136	19.972	5.457	0.524
1303.999	734.325	80.003	19.995	103.135	19.974	5.303	0.525
1304.499	734.604	80.009	19.993	103.134	19.975	5.244	0.519
1304.999	734.836	80.005	19.994	103.138	19.977	5.137	0.511
1305.499	735.126	80.008	19.994	103.144	19.973	5.383	0.516
1305.999	735.373	80.009	19.992	103.146	19.971	5.528	0.530
1306.499	735.600	80.010	19.996	103.147	19.975	5.293	0.505
1306.999	735.868	80.007	19.995	103.147	19.973	5.415	0.484
1307.500	736.139	80.008	19.992	103.146	19.975	5.284	0.518
1308.001	736.414	80.008	19.994	103.143	19.975	5.244	0.543
1308.500	736.678	80.011	19.994	103.142	19.973	5.384	0.542
1309.000	736.940	80.007	19.994	103.145	19.975	5.258	0.532
1309.500	737.183	80.010	19.995	103.149	19.973	5.377	0.516
1309.999	737.430	80.005	19.994	103.152	19.975	5.261	0.498
1310.499	737.684	80.010	19.996	103.157	19.976	5.169	0.495
1310.999	737.941	80.009	19.994	103.158	19.976	5.211	0.506
1311.499	738.194	80.007	19.993	103.154	19.975	5.272	0.511
1311.999	738.436	80.008	19.996	103.150	19.977	5.142	0.503
1312.499	738.675	80.005	19.996	103.147	19.976	5.179	0.488
1312.999	738.965	80.006	19.997	103.133	19.978	5.086	0.505
1313.499	739.227	80.006	19.994	103.129	19.977	5.113	0.541
1313.999	739.466	80.008	19.994	103.120	19.976	5.201	0.526
1314.499	739.739	80.011	19.995	103.113	19.974	5.346	0.506
1315.000	739.954	80.008	19.992	103.106	19.975	5.289	0.500
1315.500	740.211	80.007	19.995	103.108	19.974	5.316	0.480
1315.999	740.460	80.011	19.996	103.103	19.974	5.342	0.489
1316.499	740.736	80.010	19.995	103.105	19.972	5.485	0.515
1316.999	741.003	80.006	19.995	103.110	19.971	5.509	0.534
1317.499	741.276	80.008	19.993	103.115	19.973	5.393	0.541
1317.999	741.514	80.005	19.995	103.119	19.973	5.418	0.526
1318.499	741.745	80.006	19.996	103.118	19.975	5.286	0.491
1318.999	742.015	80.008	19.995	103.116	19.973	5.381	0.485
1319.499	742.270	80.004	19.995	103.116	19.975	5.278	0.513
1319.999	742.526	79.994	19.996	103.116	19.976	5.198	0.518
1320.500	742.775	80.009	19.994	103.116	19.974	5.360	0.508
1321.000	742.995	80.009	19.994	103.116	19.974	5.344	0.487
1321.499	743.262	80.005	19.994	103.123	19.977	5.150	0.477
1321.999	743.477	80.004	19.994	103.125	19.975	5.281	0.484
1322.499	743.735	80.014	19.994	103.123	19.975	5.271	0.478
