Sample ID:	C:\MCC\MCC Cal\Test\Homasote_MCC_30K_min_220317_R2.txt
Sample Weight (mg):	4.23
Heating Rate (C/s):	0.5
Combustor Temp (C):	900
N2 Flow Rate (cc/min):	80
O2 Flow Rate (cc/min):	20
Calibration File:	C:\MCC\MCC Cal\Coeff1 JN10440_30_210304.txt.txt
T Correction Coefficients:	0	1.024463	0
Time Shift (s):	14
*
Time (s)	Temperature (C)	N2 flow rate (cc/min)	O2 flow rate (cc/min)	Flow Rate (cc/min)	Oxygen (%)	HRR (W/g)	Heating rate (C/s)
0.000	110.201	80.004	19.993	103.610	19.951	-0.464	-0.005
0.500	110.164	80.002	19.995	103.610	19.949	-0.318	0.028
1.000	110.156	80.002	19.994	103.612	19.951	-0.452	-0.015
1.500	110.161	80.002	19.996	103.614	19.950	-0.384	-0.024
2.000	110.189	80.001	19.998	103.614	19.949	-0.295	0.015
2.501	110.175	80.003	19.993	103.613	19.945	0.002	0.024
3.000	110.192	80.003	19.995	103.612	19.946	-0.102	0.009
3.500	110.155	80.002	19.996	103.612	19.945	-0.034	-0.008
4.000	110.182	80.004	19.996	103.611	19.946	-0.087	-0.015
4.500	110.133	80.008	19.992	103.611	19.946	-0.085	-0.017
5.000	110.149	80.002	19.998	103.613	19.944	0.066	-0.028
5.500	110.173	80.002	19.994	103.613	19.944	0.036	0.004
6.000	110.149	80.005	19.991	103.616	19.939	0.408	0.020
6.500	110.121	80.001	19.995	103.619	19.943	0.138	-0.026
7.000	110.134	80.002	19.993	103.621	19.943	0.093	-0.033
7.500	110.119	80.001	19.995	103.623	19.940	0.325	-0.008
8.000	110.126	80.001	19.993	103.628	19.943	0.113	-0.005
8.500	110.140	80.002	19.993	103.632	19.939	0.465	0.006
9.000	110.111	80.001	19.993	103.636	19.941	0.250	0.003
9.500	110.160	80.002	19.993	103.641	19.942	0.185	0.003
10.000	110.128	80.001	19.994	103.646	19.940	0.367	0.018
10.500	110.143	80.000	19.996	103.649	19.939	0.412	-0.000
11.000	110.154	80.001	19.994	103.652	19.936	0.679	0.004
11.500	110.105	80.001	19.994	103.654	19.939	0.410	-0.006
12.000	110.118	80.001	19.995	103.654	19.935	0.764	-0.037
12.500	110.143	80.001	19.995	103.662	19.934	0.832	0.001
13.000	110.143	80.001	19.994	103.654	19.933	0.919	0.032
13.500	110.171	80.001	19.998	103.629	19.931	1.085	0.027
14.000	110.166	80.002	19.997	103.612	19.929	1.212	0.025
14.500	110.183	80.002	19.997	103.603	19.930	1.159	0.017
15.000	110.186	80.000	19.996	103.596	19.931	1.015	0.016
15.500	110.217	80.001	19.996	103.605	19.927	1.329	0.027
16.000	110.248	80.001	19.995	103.643	19.929	1.225	0.048
16.500	110.249	80.001	19.995	103.712	19.929	1.185	0.047
17.000	110.249	80.002	19.995	103.775	19.924	1.573	0.016
17.500	110.246	80.000	19.995	103.809	19.923	1.637	-0.001
18.000	110.310	80.001	19.996	103.835	19.925	1.499	0.030
18.500	110.306	79.999	19.996	103.849	19.920	1.925	0.061
19.000	110.317	80.000	19.994	103.820	19.918	2.019	0.033
19.500	110.365	80.001	19.995	103.788	19.918	2.038	0.033
20.000	110.338	80.001	19.995	103.777	19.914	2.335	0.040
20.500	110.401	80.002	19.994	103.775	19.913	2.410	0.028
21.000	110.454	80.001	19.996	103.773	19.912	2.531	0.076
21.500	110.455	80.001	19.996	103.775	19.914	2.356	0.085
22.000	110.470	80.002	19.993	103.782	19.910	2.650	0.035
22.500	110.554	80.000	19.994	103.782	19.911	2.584	0.057
23.000	110.595	80.001	19.995	103.780	19.909	2.764	0.112
23.500	110.621	80.001	19.996	103.783	19.908	2.792	0.096
24.000	110.646	80.000	19.994	103.787	19.910	2.671	0.059
24.500	110.699	80.002	19.994	103.787	19.909	2.728	0.064
25.000	110.730	80.001	19.994	103.794	19.911	2.582	0.081
25.500	110.816	80.002	19.996	103.801	19.907	2.856	0.100
26.000	110.849	80.001	19.993	103.805	19.909	2.726	0.118
26.500	110.899	80.003	19.994	103.807	19.906	2.956	0.101
27.001	110.952	80.004	19.994	103.805	19.906	2.932	0.093
27.500	111.030	79.999	19.998	103.800	19.906	2.995	0.117
28.000	111.065	80.002	19.997	103.797	19.907	2.884	0.122
28.500	111.121	80.003	19.992	103.794	19.907	2.852	0.102
29.000	111.202	80.001	19.996	103.790	19.904	3.095	0.114
29.500	111.257	79.999	19.994	103.792	19.908	2.782	0.137
30.000	111.320	80.002	19.991	103.792	19.906	2.990	0.127
30.500	111.376	80.002	19.996	103.793	19.909	2.764	0.119
31.000	111.457	80.001	19.994	103.791	19.909	2.760	0.128
31.500	111.528	80.002	19.994	103.795	19.908	2.777	0.145
32.000	111.559	80.003	19.996	103.796	19.908	2.820	0.127
32.500	111.628	80.001	19.994	103.798	19.908	2.848	0.101
33.000	111.720	80.001	19.995	103.800	19.909	2.712	0.130
33.500	111.792	80.002	19.997	103.804	19.908	2.773	0.163
34.000	111.886	80.002	19.994	103.805	19.908	2.824	0.165
34.500	111.986	80.001	19.994	103.805	19.906	2.960	0.180
35.000	112.037	80.002	19.994	103.809	19.906	2.943	0.172
35.500	112.128	80.001	19.995	103.809	19.906	2.987	0.146
36.000	112.189	80.003	19.993	103.809	19.909	2.718	0.147
36.500	112.260	80.001	19.996	103.808	19.905	3.041	0.142
37.000	112.367	80.002	19.995	103.805	19.906	2.956	0.155
37.500	112.447	80.001	19.993	103.812	19.905	3.024	0.183
38.000	112.560	80.002	19.993	103.800	19.904	3.105	0.190
38.500	112.638	80.002	19.994	103.767	19.905	3.061	0.192
39.000	112.716	80.001	19.994	103.746	19.904	3.094	0.174
39.501	112.816	80.001	19.994	103.738	19.905	3.058	0.167
40.001	112.910	80.002	19.994	103.725	19.905	3.050	0.186
40.501	113.009	80.002	19.994	103.741	19.904	3.084	0.193
41.000	113.107	80.001	19.994	103.813	19.908	2.818	0.195
41.500	113.221	80.002	19.993	103.858	19.908	2.784	0.205
42.000	113.303	80.000	19.995	103.879	19.908	2.842	0.204
42.500	113.399	80.001	19.995	103.890	19.905	3.071	0.187
43.000	113.520	80.002	19.994	103.887	19.904	3.084	0.198
43.500	113.613	80.001	19.995	103.849	19.906	2.971	0.216
44.000	113.738	80.001	19.994	103.826	19.908	2.780	0.216
44.501	113.799	80.000	19.994	103.818	19.905	3.075	0.202
45.001	113.957	80.000	19.993	103.813	19.905	3.045	0.203
45.500	114.046	80.001	19.994	103.813	19.909	2.771	0.233
46.001	114.163	80.000	19.994	103.813	19.906	2.945	0.226
46.501	114.251	80.000	19.995	103.813	19.905	3.026	0.205
47.000	114.370	80.000	19.995	103.816	19.907	2.894	0.206
47.500	114.475	80.001	19.994	103.824	19.904	3.136	0.216
48.000	114.588	80.001	19.994	103.832	19.904	3.132	0.221
48.501	114.694	80.000	19.994	103.839	19.904	3.124	0.218
49.001	114.836	80.000	19.994	103.846	19.904	3.139	0.234
49.500	114.965	80.000	19.994	103.845	19.903	3.207	0.260
50.000	115.049	80.001	19.994	103.840	19.902	3.294	0.242
50.500	115.165	80.002	19.996	103.838	19.903	3.177	0.206
51.000	115.296	80.000	19.996	103.838	19.904	3.103	0.224
51.500	115.403	80.001	19.994	103.839	19.903	3.232	0.243
52.001	115.523	80.000	19.995	103.840	19.903	3.209	0.232
52.501	115.664	80.001	19.995	103.841	19.899	3.476	0.244
53.000	115.753	80.001	19.993	103.840	19.902	3.279	0.246
53.500	115.916	80.001	19.996	103.838	19.901	3.377	0.241
54.000	116.025	80.002	19.995	103.836	19.903	3.216	0.262
54.500	116.198	80.003	19.995	103.839	19.901	3.345	0.277
55.000	116.316	80.002	19.995	103.840	19.901	3.335	0.287
55.500	116.446	80.003	19.994	103.836	19.900	3.424	0.269
56.000	116.537	80.003	19.995	103.831	19.901	3.326	0.234
56.500	116.712	80.001	19.996	103.826	19.900	3.462	0.243
57.000	116.818	80.003	19.995	103.819	19.901	3.330	0.274
57.500	116.946	80.003	19.995	103.817	19.899	3.532	0.258
58.000	117.080	80.003	19.994	103.818	19.900	3.411	0.248
58.500	117.259	80.002	19.994	103.822	19.901	3.379	0.287
59.000	117.369	80.002	19.995	103.829	19.901	3.382	0.301
59.500	117.518	80.003	19.995	103.836	19.898	3.554	0.274
60.000	117.651	80.002	19.994	103.838	19.901	3.324	0.270
60.500	117.800	80.003	19.994	103.840	19.901	3.382	0.282
61.000	117.942	80.001	19.995	103.841	19.896	3.700	0.287
61.500	118.077	80.002	19.994	103.836	19.900	3.437	0.284
62.000	118.228	80.003	19.994	103.829	19.899	3.539	0.281
62.500	118.394	80.002	19.993	103.829	19.897	3.628	0.302
63.000	118.551	80.003	19.994	103.832	19.898	3.575	0.320
63.500	118.652	80.003	19.994	103.832	19.897	3.654	0.290
64.000	118.846	80.003	19.992	103.838	19.898	3.541	0.277
64.500	118.976	80.002	19.993	103.842	19.897	3.643	0.309
65.001	119.063	80.002	19.996	103.845	19.896	3.728	0.271
65.501	119.284	80.001	19.995	103.847	19.897	3.622	0.263
66.001	119.440	80.003	19.994	103.848	19.899	3.464	0.342
66.500	119.535	80.002	19.995	103.848	19.896	3.709	0.314
67.000	119.727	80.002	19.993	103.851	19.899	3.505	0.269
67.500	119.866	80.002	19.993	103.849	19.899	3.537	0.309
68.000	120.042	80.002	19.994	103.848	19.897	3.692	0.323
68.500	120.166	80.002	19.995	103.848	19.897	3.666	0.307
69.000	120.354	80.001	19.994	103.847	19.897	3.660	0.306
69.500	120.539	80.002	19.994	103.848	19.897	3.666	0.343
70.000	120.671	80.002	19.993	103.852	19.895	3.828	0.345
70.500	120.865	80.001	19.994	103.852	19.894	3.853	0.322
71.000	121.007	80.001	19.994	103.853	19.896	3.698	0.332
71.500	121.145	80.003	19.995	103.854	19.898	3.605	0.308
72.000	121.313	80.001	19.996	103.854	19.896	3.726	0.293
72.500	121.529	80.003	19.994	103.854	19.896	3.760	0.345
73.001	121.679	80.001	19.995	103.855	19.894	3.874	0.375
73.501	121.842	80.002	19.994	103.857	19.895	3.804	0.340
74.000	122.020	80.001	19.994	103.860	19.899	3.492	0.327
74.500	122.167	80.002	19.994	103.862	19.896	3.698	0.332
75.000	122.353	80.001	19.994	103.862	19.894	3.915	0.329
75.500	122.536	80.002	19.994	103.862	19.895	3.777	0.351
76.000	122.714	80.003	19.994	103.861	19.895	3.828	0.365
76.500	122.850	80.002	19.993	103.858	19.895	3.809	0.337
77.000	123.055	80.002	19.994	103.856	19.898	3.552	0.328
77.500	123.234	80.003	19.995	103.853	19.895	3.820	0.363
78.000	123.432	80.002	19.996	103.854	19.894	3.885	0.381
78.500	123.598	80.001	19.996	103.853	19.896	3.701	0.371
79.000	123.765	80.002	19.995	103.852	19.893	3.941	0.348
79.501	123.944	80.003	19.995	103.852	19.892	4.032	0.339
80.001	124.102	80.004	19.994	103.855	19.894	3.915	0.342
80.500	124.325	80.003	19.995	103.855	19.894	3.905	0.359
81.000	124.500	80.002	19.995	103.855	19.890	4.158	0.389
81.500	124.633	80.003	19.993	103.860	19.893	3.996	0.352
82.000	124.841	80.003	19.994	103.866	19.893	3.979	0.324
82.500	125.021	80.003	19.995	103.865	19.891	4.087	0.365
83.001	125.206	80.003	19.995	103.863	19.890	4.166	0.377
83.501	125.415	80.002	19.994	103.863	19.891	4.083	0.379
84.001	125.588	80.005	19.994	103.856	19.895	3.798	0.388
84.501	125.764	80.004	19.995	103.850	19.892	4.024	0.366
85.000	125.991	80.003	19.994	103.846	19.892	4.066	0.376
85.500	126.161	80.004	19.994	103.850	19.890	4.191	0.400
86.000	126.328	80.004	19.994	103.850	19.890	4.223	0.366
86.500	126.523	80.003	19.995	103.852	19.890	4.172	0.349
87.000	126.715	80.003	19.995	103.853	19.890	4.182	0.375
87.500	126.895	80.003	19.994	103.859	19.892	4.061	0.380
88.000	127.098	80.003	19.995	103.863	19.891	4.112	0.377
88.500	127.307	80.002	19.994	103.867	19.892	4.063	0.397
89.000	127.467	80.002	19.995	103.865	19.893	3.983	0.390
89.500	127.684	80.003	19.995	103.864	19.891	4.123	0.373
90.000	127.904	80.001	19.993	103.864	19.890	4.225	0.407
90.501	128.110	80.003	19.994	103.865	19.892	4.061	0.432
91.001	128.298	80.002	19.994	103.864	19.890	4.157	0.411
91.501	128.468	80.001	19.995	103.868	19.894	3.878	0.377
92.001	128.666	80.001	19.995	103.874	19.893	3.951	0.363
92.501	128.853	80.001	19.995	103.875	19.890	4.205	0.376
93.001	129.076	80.001	19.994	103.870	19.891	4.135	0.397
93.500	129.289	80.001	19.995	103.871	19.895	3.781	0.423
94.000	129.463	80.001	19.995	103.871	19.892	4.046	0.411
94.500	129.714	80.001	19.994	103.868	19.891	4.127	0.406
95.000	129.851	80.002	19.994	103.864	19.889	4.238	0.406
95.500	130.058	80.000	19.994	103.867	19.891	4.117	0.366
96.000	130.269	80.001	19.994	103.862	19.890	4.187	0.381
96.500	130.458	80.001	19.995	103.858	19.890	4.225	0.409
97.000	130.720	80.002	19.994	103.855	19.891	4.095	0.426
97.500	130.819	80.000	19.995	103.853	19.889	4.253	0.407
98.000	131.070	80.001	19.995	103.852	19.890	4.195	0.356
98.500	131.265	80.001	19.995	103.853	19.891	4.129	0.398
99.000	131.462	80.001	19.994	103.854	19.894	3.866	0.419
99.500	131.673	80.002	19.995	103.854	19.890	4.212	0.400
100.000	131.880	80.001	19.995	103.854	19.893	3.987	0.413
100.500	132.089	80.001	19.995	103.852	19.893	3.964	0.417
101.000	132.322	80.001	19.994	103.850	19.891	4.133	0.429
101.500	132.537	80.001	19.994	103.849	19.890	4.174	0.445
102.000	132.732	79.999	19.994	103.849	19.891	4.076	0.429
102.500	132.940	80.001	19.995	103.848	19.891	4.129	0.406
103.000	133.124	80.000	19.996	103.846	19.895	3.800	0.398
103.500	133.333	80.001	19.995	103.847	19.892	4.034	0.393
104.000	133.536	80.003	19.994	103.848	19.892	4.014	0.402
104.500	133.765	80.001	19.995	103.849	19.894	3.851	0.422
105.000	134.007	80.001	19.995	103.853	19.894	3.861	0.452
105.500	134.216	80.001	19.995	103.857	19.894	3.868	0.461
106.000	134.405	80.001	19.993	103.859	19.892	4.040	0.424
106.500	134.641	80.000	19.996	103.862	19.893	3.940	0.411
107.000	134.810	80.000	19.996	103.864	19.893	3.972	0.415
107.500	135.075	80.000	19.996	103.860	19.893	3.976	0.420
108.000	135.296	80.000	19.995	103.857	19.895	3.783	0.460
108.500	135.479	80.000	19.996	103.856	19.894	3.898	0.445
109.000	135.694	80.000	19.996	103.855	19.891	4.082	0.401
109.500	135.938	80.001	19.995	103.853	19.895	3.789	0.428
110.000	136.121	79.998	19.996	103.857	19.893	3.997	0.443
110.500	136.352	80.000	19.999	103.856	19.894	3.868	0.421
111.001	136.569	80.000	19.999	103.856	19.895	3.840	0.431
111.501	136.785	80.001	19.996	103.852	19.895	3.798	0.441
112.000	136.991	80.001	19.998	103.852	19.892	4.015	0.428
112.500	137.258	80.002	19.997	103.846	19.894	3.913	0.447
113.000	137.446	80.001	20.000	103.846	19.895	3.830	0.463
113.500	137.666	80.001	20.000	103.848	19.894	3.866	0.432
114.000	137.894	80.000	19.998	103.850	19.894	3.864	0.428
114.500	138.095	80.000	19.997	103.850	19.895	3.775	0.438
115.000	138.346	80.001	19.996	103.851	19.896	3.758	0.440
115.500	138.546	80.000	19.997	103.851	19.893	3.957	0.452
116.000	138.780	80.001	19.996	103.848	19.893	3.985	0.443
116.500	139.004	80.001	19.995	103.847	19.893	3.932	0.446
117.000	139.220	80.001	19.995	103.848	19.895	3.834	0.449
117.500	139.466	80.001	19.994	103.848	19.897	3.672	0.451
118.001	139.629	80.001	19.996	103.849	19.894	3.866	0.436
118.501	139.924	80.001	19.994	103.851	19.894	3.894	0.434
119.000	140.120	80.000	19.995	103.851	19.895	3.775	0.474
119.500	140.309	80.000	19.995	103.850	19.894	3.921	0.438
120.000	140.549	80.001	19.995	103.851	19.893	3.938	0.407
120.500	140.767	80.000	19.995	103.851	19.893	3.978	0.443
121.000	141.026	79.999	19.995	103.850	19.893	3.995	0.467
121.500	141.217	80.000	19.995	103.851	19.892	4.042	0.464
122.000	141.442	80.000	19.995	103.851	19.895	3.798	0.433
122.500	141.653	80.001	19.994	103.853	19.892	4.049	0.426
123.000	141.868	80.001	19.995	103.853	19.893	3.983	0.431
123.500	142.078	80.000	19.994	103.854	19.896	3.736	0.426
124.000	142.364	80.001	19.996	103.853	19.894	3.908	0.461
124.500	142.549	80.001	19.995	103.855	19.893	3.989	0.483
125.000	142.800	80.000	19.995	103.856	19.893	3.972	0.453
125.500	143.023	80.001	19.995	103.858	19.893	3.957	0.455
126.000	143.300	80.000	19.994	103.858	19.893	3.940	0.488
126.500	143.482	80.001	19.995	103.858	19.892	4.014	0.480
127.000	143.730	79.999	19.995	103.856	19.890	4.208	0.444
127.500	143.954	80.000	19.994	103.853	19.889	4.284	0.451
128.000	144.223	79.999	19.994	103.850	19.893	3.985	0.483
128.500	144.425	79.999	19.995	103.851	19.893	3.995	0.482
129.000	144.615	80.002	19.995	103.854	19.889	4.235	0.432
129.500	144.893	79.999	19.994	103.857	19.894	3.868	0.430
130.000	145.114	80.001	19.994	103.857	19.893	3.980	0.483
130.500	145.345	80.001	19.994	103.857	19.892	4.063	0.475
131.000	145.559	80.000	19.993	103.856	19.890	4.163	0.448
131.500	145.801	80.001	19.995	103.854	19.894	3.908	0.451
132.000	146.014	80.001	19.994	103.853	19.892	4.014	0.456
132.501	146.257	80.001	19.994	103.854	19.893	3.978	0.455
133.000	146.488	80.002	19.995	103.854	19.892	4.031	0.465
133.500	146.713	80.001	19.994	103.854	19.890	4.191	0.465
134.000	146.938	80.001	19.994	103.854	19.894	3.853	0.453
134.500	147.192	80.001	19.993	103.852	19.890	4.165	0.464
135.000	147.391	80.003	19.995	103.851	19.895	3.845	0.466
135.500	147.648	80.002	19.995	103.851	19.898	3.551	0.455
136.000	147.855	80.003	19.994	103.849	19.891	4.089	0.460
136.500	148.097	80.002	19.994	103.849	19.891	4.097	0.457
137.000	148.345	80.001	19.994	103.851	19.891	4.112	0.469
137.500	148.515	80.001	19.995	103.851	19.898	3.587	0.453
138.001	148.783	80.002	19.994	103.852	19.891	4.087	0.428
138.500	149.022	80.003	19.993	103.854	19.896	3.709	0.473
139.000	149.288	80.001	19.994	103.854	19.895	3.777	0.506
139.500	149.480	80.003	19.994	103.853	19.893	3.959	0.482
140.000	149.736	80.003	19.993	103.853	19.892	4.042	0.453
140.500	149.978	80.002	19.994	103.852	19.892	4.059	0.473
141.000	150.203	80.002	19.994	103.851	19.893	3.951	0.482
141.500	150.451	80.003	19.993	103.851	19.892	4.033	0.470
142.000	150.676	80.003	19.993	103.850	19.893	3.951	0.474
142.500	150.922	80.002	19.994	103.849	19.898	3.611	0.472
143.000	151.143	80.002	19.994	103.849	19.893	3.936	0.469
143.500	151.406	80.003	19.993	103.848	19.902	3.301	0.475
144.000	151.634	80.001	19.995	103.848	19.904	3.154	0.487
144.500	151.835	80.003	19.995	103.848	19.890	4.174	0.460
145.001	152.086	80.002	19.994	103.847	19.889	4.237	0.441
145.501	152.355	80.002	19.994	103.850	19.892	4.053	0.486
146.000	152.641	80.002	19.994	103.850	19.892	4.048	0.537
146.500	152.823	80.002	19.994	103.849	19.890	4.172	0.512
147.000	153.072	80.002	19.994	103.848	19.893	3.951	0.449
147.500	153.309	80.003	19.993	103.849	19.894	3.881	0.458
148.000	153.492	80.002	19.994	103.846	19.893	3.934	0.453
148.500	153.740	80.002	19.993	103.847	19.894	3.863	0.426
149.000	154.032	80.003	19.993	103.849	19.895	3.776	0.486
149.500	154.197	80.003	19.994	103.850	19.894	3.846	0.499
150.000	154.471	80.002	19.994	103.849	19.894	3.905	0.447
150.500	154.854	80.002	19.993	103.848	19.892	4.009	0.548
151.000	155.081	80.002	19.994	103.846	19.893	3.947	0.634
151.500	155.138	80.003	19.994	103.846	19.891	4.147	0.447
152.000	155.430	80.003	19.994	103.845	19.892	4.057	0.316
152.500	155.674	80.003	19.994	103.846	19.891	4.151	0.442
153.000	155.874	80.002	19.993	103.846	19.891	4.095	0.490
153.500	156.133	80.004	19.994	103.846	19.894	3.870	0.452
154.000	156.343	80.002	19.994	103.847	19.891	4.102	0.464
154.500	156.613	80.002	19.995	103.846	19.897	3.694	0.475
155.000	156.847	80.003	19.994	103.846	19.896	3.768	0.492
155.500	157.080	80.002	19.995	103.846	19.894	3.851	0.485
156.000	157.318	80.003	19.996	103.846	19.891	4.080	0.469
156.500	157.583	80.003	19.995	103.847	19.892	4.014	0.487
157.000	157.756	80.002	19.994	103.848	19.894	3.908	0.471
157.500	158.022	80.003	19.996	103.848	19.894	3.902	0.438
158.000	158.269	80.004	19.995	103.848	19.894	3.904	0.476
158.500	158.524	80.004	19.995	103.847	19.892	4.003	0.508
159.000	158.758	80.004	19.994	103.846	19.892	4.052	0.496
159.500	158.993	80.004	19.994	103.846	19.891	4.129	0.479
160.000	159.206	80.004	19.994	103.827	19.891	4.106	0.458
160.500	159.480	80.004	19.993	103.785	19.889	4.288	0.468
161.000	159.699	80.005	19.995	103.762	19.892	4.018	0.490
161.500	159.934	80.004	19.994	103.753	19.895	3.838	0.473
162.000	160.224	80.005	19.994	103.750	19.891	4.148	0.490
162.500	160.464	80.004	19.994	103.769	19.892	4.048	0.528
163.000	160.647	80.004	19.994	103.811	19.895	3.774	0.476
163.500	160.957	80.005	19.994	103.864	19.891	4.131	0.458
164.000	161.152	80.004	19.995	103.907	19.893	3.961	0.499
164.500	161.445	80.004	19.997	103.918	19.894	3.880	0.496
165.000	161.645	80.003	19.996	103.925	19.896	3.765	0.490
165.500	161.911	80.003	19.995	103.926	19.895	3.787	0.480
166.000	162.141	80.002	19.996	103.894	19.892	4.058	0.481
166.500	162.396	80.004	19.996	103.861	19.893	3.990	0.490
167.000	162.635	80.003	19.994	103.853	19.894	3.899	0.490
167.500	162.845	80.002	19.996	103.845	19.894	3.910	0.471
168.000	163.115	80.002	19.994	103.843	19.895	3.825	0.464
168.500	163.394	80.001	19.996	103.843	19.894	3.874	0.514
169.000	163.609	80.004	19.996	103.842	19.897	3.689	0.522
169.500	163.878	80.002	19.994	103.842	19.893	3.965	0.489
170.000	164.115	80.002	19.995	103.844	19.890	4.205	0.495
170.500	164.347	80.002	19.997	103.844	19.890	4.205	0.487
171.000	164.595	80.001	19.997	103.844	19.892	4.067	0.474
171.500	164.887	80.001	19.997	103.841	19.892	4.021	0.510
172.000	165.100	80.002	19.996	103.836	19.894	3.893	0.522
172.500	165.352	80.002	19.996	103.834	19.892	4.061	0.485
173.000	165.583	80.001	19.996	103.834	19.893	3.984	0.474
173.500	165.837	80.000	19.997	103.833	19.892	4.016	0.484
174.000	166.044	80.001	19.995	103.837	19.892	4.008	0.473
174.500	166.305	80.001	19.995	103.841	19.892	4.035	0.465
175.000	166.546	80.000	19.996	103.842	19.891	4.093	0.485
175.500	166.772	80.002	19.995	103.838	19.891	4.116	0.484
176.000	167.040	80.002	19.995	103.835	19.888	4.331	0.481
176.500	167.314	80.001	19.995	103.834	19.890	4.156	0.518
177.000	167.529	80.001	19.994	103.833	19.891	4.109	0.516
177.500	167.785	79.999	19.994	103.834	19.890	4.169	0.480
178.000	167.987	80.002	19.995	103.836	19.891	4.145	0.465
178.500	168.234	80.001	19.995	103.837	19.890	4.205	0.453
179.000	168.467	80.001	19.995	103.839	19.890	4.207	0.464
179.500	168.705	80.000	19.996	103.838	19.892	4.010	0.475
180.000	168.970	80.002	19.994	103.838	19.890	4.192	0.487
180.500	169.225	80.001	19.994	103.841	19.892	4.014	0.511
181.000	169.485	80.001	19.995	103.844	19.891	4.150	0.518
181.500	169.740	80.001	19.995	103.843	19.889	4.254	0.515
182.000	169.953	80.001	19.994	103.845	19.890	4.207	0.491
182.500	170.224	80.001	19.994	103.843	19.891	4.082	0.476
183.000	170.446	80.001	19.994	103.842	19.891	4.127	0.489
183.500	170.682	80.001	19.994	103.841	19.893	3.988	0.475
184.000	170.900	80.001	19.992	103.841	19.890	4.216	0.456
184.500	171.174	80.001	19.993	103.838	19.894	3.859	0.473
185.000	171.415	80.000	19.995	103.839	19.891	4.124	0.504
185.500	171.623	80.001	19.994	103.841	19.892	4.071	0.482
186.000	171.894	80.001	19.995	103.843	19.889	4.269	0.464
186.500	172.151	80.001	19.995	103.843	19.890	4.154	0.503
187.000	172.385	80.002	19.994	103.844	19.892	4.007	0.510
187.500	172.620	80.001	19.994	103.839	19.889	4.277	0.480
188.000	172.867	80.002	19.994	103.835	19.891	4.082	0.475
188.500	173.102	80.002	19.995	103.831	19.892	4.018	0.482
189.000	173.362	80.001	19.994	103.826	19.891	4.088	0.489
189.500	173.573	80.000	19.994	103.828	19.889	4.303	0.483
190.000	173.834	80.001	19.994	103.834	19.891	4.094	0.471
190.500	174.099	80.001	19.995	103.833	19.890	4.196	0.499
191.000	174.357	80.000	19.995	103.835	19.892	4.011	0.525
191.500	174.609	80.000	19.995	103.840	19.892	4.056	0.517
192.000	174.817	80.000	19.995	103.840	19.892	4.033	0.485
192.500	175.073	80.001	19.995	103.839	19.890	4.203	0.462
193.000	175.301	80.001	19.995	103.842	19.892	4.026	0.474
193.500	175.574	80.001	19.995	103.841	19.890	4.209	0.493
194.000	175.828	80.001	19.995	103.840	19.894	3.905	0.514
194.500	176.058	80.000	19.994	103.834	19.890	4.220	0.505
195.000	176.317	80.001	19.995	103.833	19.894	3.897	0.487
195.500	176.558	79.998	19.994	103.832	19.892	4.018	0.495
196.000	176.803	80.000	19.996	103.828	19.894	3.890	0.493
196.500	177.084	80.000	19.995	103.830	19.891	4.081	0.506
197.000	177.336	80.000	19.995	103.832	19.891	4.081	0.529
197.500	177.570	80.000	19.995	103.829	19.887	4.444	0.509
198.000	177.834	80.000	19.994	103.827	19.892	4.007	0.492
198.500	178.041	79.999	19.996	103.831	19.892	4.047	0.485
199.000	178.274	80.000	19.995	103.831	19.891	4.092	0.455
199.500	178.570	80.001	19.996	103.835	19.890	4.170	0.485
200.000	178.788	80.000	19.995	103.840	19.891	4.096	0.522
200.500	179.046	80.000	19.994	103.838	19.893	3.929	0.495
201.000	179.288	80.000	19.995	103.833	19.888	4.319	0.488
201.500	179.531	80.001	19.994	103.830	19.890	4.192	0.492
202.000	179.797	80.000	19.994	103.829	19.891	4.088	0.497
202.500	180.056	80.000	19.996	103.828	19.891	4.122	0.518
203.000	180.273	79.999	19.995	103.828	19.890	4.192	0.500
203.500	180.526	80.000	19.996	103.832	19.889	4.276	0.472
204.000	180.758	80.000	19.996	103.832	19.892	4.073	0.477
204.500	181.027	79.998	19.995	103.834	19.887	4.402	0.493
205.000	181.257	80.001	19.995	103.832	19.890	4.219	0.500
205.500	181.484	80.000	19.995	103.831	19.887	4.419	0.478
206.000	181.781	79.999	19.995	103.827	19.889	4.294	0.491
206.500	182.015	80.001	19.995	103.826	19.887	4.400	0.528
207.000	182.297	80.001	19.995	103.821	19.886	4.482	0.524
207.500	182.506	80.001	19.996	103.818	19.888	4.319	0.504
208.000	182.759	80.000	19.996	103.820	19.887	4.395	0.477
208.500	183.035	80.000	19.995	103.820	19.889	4.253	0.496
209.000	183.293	80.001	19.995	103.817	19.889	4.296	0.532
209.500	183.505	80.002	19.994	103.820	19.885	4.585	0.502
210.000	183.793	80.000	19.995	103.822	19.889	4.250	0.485
210.500	184.007	80.001	19.995	103.822	19.885	4.564	0.501
211.000	184.285	80.001	19.994	103.829	19.889	4.298	0.497
211.500	184.514	80.000	19.994	103.834	19.885	4.557	0.499
212.000	184.789	80.002	19.994	103.831	19.888	4.378	0.505
212.500	184.998	80.001	19.995	103.830	19.897	3.616	0.494
213.000	185.238	80.002	19.994	103.832	19.903	3.191	0.466
213.500	185.509	80.002	19.994	103.826	19.893	3.937	0.480
214.000	185.773	80.002	19.994	103.821	19.888	4.342	0.523
214.500	185.984	80.002	19.995	103.817	19.882	4.822	0.505
215.000	186.288	80.002	19.994	103.818	19.884	4.615	0.495
215.500	186.545	80.002	19.994	103.814	19.887	4.415	0.538
216.000	186.769	80.002	19.995	103.814	19.898	3.546	0.521
216.500	187.024	80.002	19.994	103.817	19.895	3.824	0.479
217.000	187.276	80.003	19.995	103.819	19.896	3.763	0.493
217.500	187.506	80.004	19.994	103.816	19.888	4.351	0.495
218.000	187.760	80.002	19.994	103.816	19.888	4.334	0.483
218.500	188.003	80.003	19.994	103.817	19.888	4.336	0.490
219.000	188.279	80.002	19.993	103.820	19.883	4.739	0.508
219.500	188.465	80.004	19.994	103.825	19.883	4.701	0.490
220.000	188.719	80.003	19.995	103.833	19.884	4.632	0.451
220.500	188.984	80.002	19.994	103.836	19.884	4.668	0.480
221.000	189.241	80.003	19.993	103.834	19.885	4.568	0.521
221.500	189.491	80.003	19.993	103.827	19.886	4.464	0.515
222.000	189.755	80.002	19.995	103.820	19.886	4.470	0.510
222.500	190.005	80.003	19.994	103.812	19.886	4.510	0.513
223.000	190.229	80.002	19.994	103.810	19.884	4.684	0.493
223.500	190.494	80.002	19.995	103.808	19.886	4.527	0.482
224.000	190.729	80.003	19.995	103.809	19.887	4.457	0.495
224.500	190.978	80.002	19.995	103.814	19.885	4.574	0.492
225.000	191.238	80.002	19.995	103.819	19.885	4.580	0.496
225.501	191.484	80.002	19.994	103.823	19.884	4.637	0.507
226.000	191.707	80.001	19.994	103.827	19.882	4.792	0.487
226.500	191.942	80.003	19.994	103.827	19.882	4.828	0.463
227.000	192.217	80.002	19.995	103.823	19.886	4.522	0.484
227.500	192.441	80.003	19.995	103.820	19.882	4.830	0.505
228.000	192.776	80.003	19.994	103.816	19.885	4.605	0.529
228.500	193.034	80.002	19.995	103.812	19.885	4.582	0.576
229.000	193.202	80.002	19.993	103.813	19.885	4.599	0.510
229.500	193.440	80.003	19.996	103.814	19.883	4.757	0.416
230.000	193.713	80.002	19.993	103.818	19.882	4.812	0.458
230.500	193.951	80.002	19.997	103.823	19.884	4.680	0.511
231.000	194.215	80.001	19.998	103.827	19.882	4.801	0.507
231.500	194.511	80.002	19.996	103.825	19.885	4.597	0.531
232.000	194.749	80.002	19.996	103.825	19.883	4.705	0.547
232.500	194.957	80.002	19.996	103.824	19.882	4.835	0.490
233.000	195.223	80.002	19.996	103.822	19.882	4.818	0.460
233.500	195.516	80.002	19.996	103.818	19.882	4.832	0.516
234.000	195.710	80.003	19.996	103.820	19.882	4.796	0.523
234.500	195.984	80.002	19.995	103.820	19.878	5.083	0.478
235.000	196.250	80.002	19.995	103.815	19.881	4.852	0.504
235.500	196.477	80.003	19.996	103.813	19.883	4.750	0.516
236.000	196.755	80.002	19.996	103.810	19.879	5.051	0.499
236.500	196.976	80.003	19.996	103.808	19.879	5.064	0.502
237.000	197.256	80.004	19.995	103.807	19.880	4.956	0.500
237.500	197.506	80.003	19.995	103.807	19.879	5.043	0.516
238.000	197.769	80.004	19.994	103.807	19.878	5.130	0.522
238.500	198.010	80.003	19.994	103.810	19.877	5.196	0.508
239.000	198.247	80.004	19.995	103.810	19.879	5.041	0.491
239.500	198.480	80.003	19.994	103.816	19.878	5.128	0.474
240.000	198.721	80.002	19.994	103.823	19.881	4.841	0.472
240.500	199.012	80.004	19.995	103.826	19.882	4.824	0.503
241.000	199.243	80.004	19.996	103.825	19.879	5.041	0.527
241.500	199.520	80.004	19.998	103.825	19.880	4.979	0.515
242.000	199.758	80.005	19.997	103.820	19.879	5.017	0.511
242.500	200.034	80.004	19.997	103.814	19.877	5.185	0.515
243.000	200.256	80.005	19.995	103.811	19.881	4.898	0.506
243.500	200.532	80.004	19.994	103.811	19.878	5.134	0.498
244.000	200.767	80.003	19.995	103.811	19.877	5.168	0.505
244.500	201.024	80.005	19.996	103.811	19.874	5.431	0.501
245.000	201.259	80.005	19.995	103.811	19.876	5.238	0.491
245.500	201.524	80.003	19.994	103.811	19.878	5.136	0.496
246.000	201.734	80.003	19.993	103.811	19.876	5.287	0.488
246.500	202.021	80.003	19.995	103.812	19.876	5.230	0.486
247.001	202.290	80.004	19.994	103.813	19.877	5.219	0.526
247.500	202.503	80.002	19.995	103.815	19.876	5.276	0.519
248.000	202.782	80.004	19.994	103.817	19.875	5.334	0.487
248.500	203.021	80.004	19.994	103.817	19.875	5.348	0.505
249.000	203.267	80.002	19.993	103.818	19.877	5.159	0.501
249.500	203.547	80.003	19.993	103.817	19.877	5.210	0.505
250.000	203.758	80.002	19.994	103.814	19.876	5.242	0.508
250.500	204.027	80.003	19.994	103.812	19.876	5.259	0.486
251.000	204.286	80.003	19.995	103.812	19.874	5.378	0.505
251.500	204.538	80.002	19.994	103.811	19.873	5.503	0.520
252.000	204.739	80.002	19.995	103.811	19.875	5.364	0.482
252.500	205.011	80.002	19.993	103.811	19.873	5.500	0.462
253.000	205.260	80.001	19.993	103.811	19.874	5.391	0.497
253.500	205.524	80.002	19.994	103.810	19.874	5.435	0.517
254.000	205.780	80.002	19.994	103.810	19.874	5.448	0.517
254.500	206.016	80.002	19.993	103.810	19.874	5.439	0.506
255.000	206.283	80.002	19.994	103.811	19.871	5.620	0.498
255.500	206.555	80.000	19.993	103.811	19.869	5.820	0.521
256.000	206.813	80.003	19.994	103.811	19.867	5.945	0.535
256.500	207.012	80.001	19.994	103.811	19.869	5.790	0.493
257.000	207.297	80.001	19.995	103.811	19.868	5.864	0.470
257.500	207.558	80.002	19.995	103.811	19.868	5.914	0.515
258.000	207.767	80.001	19.994	103.810	19.867	5.958	0.507
258.500	208.074	80.001	19.994	103.810	19.869	5.828	0.493
259.000	208.283	80.001	19.994	103.810	19.869	5.813	0.517
259.500	208.532	80.002	19.994	103.810	19.864	6.191	0.487
260.000	208.785	80.002	19.993	103.810	19.865	6.106	0.480
260.500	209.013	80.002	19.994	103.812	19.866	6.063	0.492
261.000	209.292	80.001	19.994	103.813	19.863	6.259	0.494
261.500	209.562	80.000	19.996	103.813	19.865	6.097	0.528
262.000	209.764	80.001	19.996	103.812	19.862	6.312	0.510
262.500	210.025	80.002	19.996	103.811	19.862	6.320	0.468
263.000	210.274	80.002	19.995	103.778	19.859	6.586	0.487
263.500	210.576	80.001	19.995	103.746	19.862	6.301	0.530
264.000	210.759	80.000	19.996	103.734	19.858	6.632	0.518
264.500	211.022	79.999	19.994	103.727	19.862	6.359	0.465
265.000	211.292	79.999	19.995	103.726	19.863	6.227	0.490
265.500	211.562	80.001	19.996	103.758	19.860	6.449	0.537
266.000	211.758	80.000	19.996	103.803	19.863	6.248	0.503
266.500	212.005	80.002	19.995	103.858	19.859	6.591	0.454
267.000	212.284	80.001	19.995	103.878	19.869	5.783	0.485
267.500	212.522	80.000	19.997	103.881	19.861	6.373	0.522
268.000	212.814	80.001	19.995	103.881	19.865	6.114	0.524
268.500	213.075	80.000	19.996	103.867	19.872	5.535	0.541
269.000	213.278	80.001	19.995	103.822	19.873	5.501	0.508
269.500	213.526	79.999	19.996	103.809	19.878	5.108	0.458
270.000	213.755	80.000	19.995	103.808	19.876	5.223	0.464
270.500	213.999	80.001	19.995	103.807	19.870	5.715	0.475
271.000	214.233	80.002	19.996	103.803	19.877	5.189	0.476
271.500	214.522	80.002	19.995	103.800	19.864	6.202	0.500
272.000	214.764	80.000	19.995	103.800	19.856	6.805	0.527
272.500	214.978	80.001	19.995	103.800	19.857	6.753	0.494
273.000	215.257	80.001	19.995	103.800	19.858	6.607	0.474
273.500	215.514	80.001	19.994	103.804	19.860	6.473	0.514
274.000	215.734	80.002	19.995	103.807	19.860	6.522	0.506
274.500	215.996	80.001	19.996	103.805	19.856	6.800	0.479
275.000	216.230	80.000	19.995	103.803	19.855	6.848	0.489
275.500	216.486	80.002	19.995	103.802	19.852	7.099	0.493
276.000	216.719	80.000	19.996	103.800	19.853	7.038	0.490
276.500	216.956	80.001	19.995	103.796	19.857	6.730	0.480
277.000	217.181	80.001	19.995	103.793	19.851	7.140	0.466
277.500	217.490	80.000	19.994	103.792	19.854	6.919	0.498
278.000	217.722	80.001	19.996	103.790	19.852	7.072	0.537
278.500	217.946	80.001	19.995	103.792	19.852	7.083	0.498
279.000	218.196	80.001	19.996	103.797	19.854	6.978	0.465
279.500	218.471	79.999	19.996	103.801	19.853	7.046	0.500
280.000	218.706	80.001	19.996	103.804	19.851	7.184	0.517
280.500	218.917	80.002	19.995	103.806	19.853	7.014	0.478
281.000	219.151	80.001	19.995	103.805	19.850	7.282	0.446
281.500	219.368	80.000	19.995	103.804	19.852	7.110	0.448
282.000	219.629	80.001	19.995	103.803	19.848	7.413	0.465
282.500	219.898	80.000	19.995	103.804	19.847	7.502	0.504
283.000	220.135	80.001	19.994	103.804	19.852	7.067	0.518
283.500	220.356	80.000	19.994	103.802	19.849	7.326	0.482
284.000	220.597	79.999	19.997	103.802	19.848	7.435	0.460
284.500	220.838	80.001	19.995	103.800	19.847	7.475	0.472
285.000	221.097	80.000	19.995	103.798	19.846	7.519	0.491
285.500	221.346	79.999	19.995	103.796	19.848	7.407	0.505
286.000	221.604	80.001	19.995	103.795	19.845	7.643	0.508
286.500	221.989	80.000	19.996	103.796	19.845	7.619	0.574
287.000	222.057	79.999	19.996	103.797	19.844	7.700	0.548
287.500	222.408	80.001	19.996	103.799	19.843	7.803	0.436
288.000	222.608	80.000	19.997	103.800	19.843	7.799	0.485
288.500	222.878	80.000	19.996	103.803	19.842	7.876	0.511
289.000	223.080	80.000	19.996	103.803	19.842	7.869	0.471
289.500	223.326	80.002	19.996	103.804	19.840	7.993	0.460
290.000	223.572	80.000	19.994	103.800	19.840	8.029	0.470
290.500	223.783	80.000	19.998	103.799	19.839	8.089	0.475
291.000	224.052	80.000	19.997	103.801	19.839	8.116	0.468
291.500	224.301	80.001	19.996	103.799	19.838	8.150	0.499
292.000	224.571	80.000	19.997	103.797	19.838	8.199	0.519
292.500	224.793	80.001	19.997	103.793	19.839	8.064	0.506
293.000	224.983	80.001	19.997	103.792	19.838	8.140	0.452
293.500	225.311	80.001	19.996	103.790	19.840	8.042	0.465
294.000	225.511	80.002	19.997	103.791	19.839	8.115	0.523
294.500	225.734	80.002	19.997	103.792	19.839	8.100	0.476
295.000	226.004	80.000	19.995	103.798	19.838	8.170	0.458
295.500	226.267	80.002	19.996	103.798	19.836	8.361	0.514
296.000	226.518	80.001	19.997	103.796	19.837	8.250	0.524
296.500	226.781	80.003	19.996	103.794	19.833	8.520	0.514
297.000	226.983	80.003	19.997	103.796	19.835	8.422	0.490
297.500	227.197	80.003	19.996	103.796	19.834	8.461	0.441
298.000	227.454	80.003	19.996	103.793	19.833	8.533	0.444
298.500	227.745	80.003	19.995	103.789	19.833	8.531	0.510
299.000	227.998	80.003	19.996	103.789	19.830	8.769	0.546
299.500	228.184	80.002	19.996	103.790	19.832	8.649	0.491
300.000	228.496	80.004	19.996	103.790	19.832	8.606	0.468
300.500	228.747	80.002	19.995	103.794	19.831	8.686	0.530
301.000	229.008	80.003	19.995	103.801	19.831	8.742	0.538
301.500	229.231	80.002	19.996	103.802	19.831	8.701	0.498
302.000	229.478	80.003	19.995	103.802	19.828	8.952	0.477
302.500	229.707	80.002	19.995	103.803	19.830	8.770	0.473
303.000	229.982	80.003	19.996	103.804	19.829	8.870	0.490
303.500	230.188	80.002	19.996	103.806	19.826	9.083	0.493
304.000	230.483	80.003	19.995	103.806	19.827	9.038	0.491
304.500	230.709	80.003	19.994	103.806	19.828	8.906	0.511
305.000	230.973	80.002	19.994	103.806	19.829	8.840	0.505
305.500	231.177	80.004	19.994	103.806	19.827	8.995	0.479
306.000	231.429	80.002	19.995	103.804	19.826	9.084	0.463
306.500	231.715	80.002	19.995	103.801	19.829	8.865	0.497
307.000	231.940	80.001	19.995	103.802	19.827	9.025	0.524
307.500	232.195	80.001	19.995	103.802	19.825	9.148	0.495
308.000	232.421	80.002	19.995	103.802	19.822	9.377	0.481
308.500	232.670	80.002	19.995	103.805	19.823	9.302	0.478
309.000	232.922	80.002	19.995	103.808	19.822	9.361	0.488
309.501	233.150	80.002	19.994	103.809	19.826	9.058	0.491
310.000	233.360	80.001	19.994	103.806	19.821	9.487	0.459
310.500	233.650	80.001	19.995	103.801	19.825	9.194	0.469
311.000	233.898	80.004	19.994	103.793	19.823	9.313	0.519
311.500	234.142	80.000	19.995	103.788	19.820	9.519	0.515
312.000	234.372	80.002	19.995	103.788	19.820	9.547	0.483
312.500	234.625	80.003	19.994	103.791	19.817	9.793	0.479
313.000	234.860	80.003	19.995	103.797	19.820	9.568	0.486
313.500	235.107	80.002	19.994	103.802	19.819	9.610	0.485
314.000	235.390	80.001	19.994	103.806	19.819	9.659	0.506
314.500	235.615	80.002	19.995	103.804	19.816	9.869	0.519
315.000	235.852	80.001	19.995	103.804	19.818	9.698	0.485
315.500	236.112	80.002	19.994	103.802	19.813	10.101	0.479
316.000	236.357	80.001	19.994	103.800	19.816	9.861	0.501
316.500	236.583	80.002	19.994	103.798	19.816	9.879	0.488
317.000	236.844	80.002	19.995	103.798	19.817	9.770	0.479
317.500	237.099	80.002	19.994	103.798	19.817	9.754	0.502
318.000	237.363	80.002	19.994	103.798	19.816	9.838	0.518
318.500	237.598	80.003	19.994	103.797	19.815	9.963	0.509
319.000	237.878	80.001	19.994	103.793	19.811	10.245	0.507
319.500	238.117	80.004	19.994	103.789	19.813	10.097	0.517
320.000	238.351	80.001	19.995	103.786	19.812	10.192	0.496
320.500	238.622	80.002	19.995	103.785	19.813	10.078	0.489
321.000	238.848	80.003	19.994	103.788	19.810	10.350	0.501
321.500	239.062	80.003	19.995	103.792	19.810	10.278	0.469
322.000	239.313	80.003	19.995	103.796	19.812	10.150	0.453
322.500	239.569	80.003	19.994	103.796	19.809	10.413	0.486
323.000	239.823	80.002	19.994	103.795	19.808	10.492	0.509
323.500	240.056	80.003	19.995	103.793	19.809	10.407	0.499
324.000	240.303	80.003	19.994	103.795	19.809	10.389	0.483
324.500	240.514	80.003	19.995	103.793	19.804	10.772	0.468
325.000	240.754	80.003	19.993	103.791	19.806	10.635	0.455
325.500	241.010	80.003	19.994	103.795	19.806	10.633	0.474
326.000	241.264	80.002	19.994	103.796	19.807	10.555	0.503
326.500	241.511	80.003	19.994	103.795	19.806	10.627	0.505
327.000	241.798	80.002	19.995	103.800	19.804	10.774	0.517
327.500	242.041	80.003	19.995	103.803	19.807	10.546	0.533
328.000	242.273	80.002	19.994	103.803	19.804	10.743	0.503
328.500	242.515	80.002	19.995	103.805	19.804	10.787	0.474
329.000	242.731	80.003	19.995	103.804	19.803	10.857	0.466
329.500	243.021	80.002	19.995	103.801	19.801	10.990	0.482
330.000	243.267	80.002	19.994	103.797	19.802	10.918	0.521
330.500	243.504	80.001	19.994	103.797	19.799	11.171	0.509
331.000	243.752	80.002	19.994	103.798	19.800	11.039	0.484
331.500	244.033	80.000	19.996	103.802	19.798	11.262	0.507
332.000	244.257	80.001	19.994	103.804	19.798	11.250	0.516
332.500	244.482	80.001	19.996	103.808	19.801	10.990	0.477
333.000	244.760	80.000	19.998	103.803	19.799	11.162	0.476
333.500	244.986	80.000	19.996	103.801	19.797	11.336	0.504
334.000	245.268	80.001	19.995	103.799	19.796	11.399	0.506
334.500	245.484	80.001	19.997	103.796	19.798	11.256	0.503
335.000	245.724	80.000	19.995	103.791	19.797	11.336	0.477
335.500	245.983	80.002	19.995	103.794	19.797	11.274	0.478
336.000	246.240	80.001	19.995	103.790	19.798	11.207	0.507
336.500	246.469	80.002	19.995	103.791	19.798	11.241	0.501
337.000	246.730	80.000	19.995	103.794	19.796	11.367	0.488
337.500	246.959	80.001	19.995	103.796	19.795	11.443	0.490
338.000	247.230	80.000	19.995	103.796	19.793	11.628	0.495
338.500	247.449	80.002	19.994	103.793	19.796	11.368	0.496
339.000	247.712	80.001	19.994	103.787	19.795	11.493	0.486
339.500	247.965	80.002	19.995	103.783	19.792	11.714	0.498
340.000	248.223	80.002	19.995	103.780	19.796	11.416	0.513
340.500	248.457	80.002	19.995	103.774	19.793	11.591	0.502
341.000	248.688	80.003	19.994	103.774	19.793	11.623	0.479
341.500	248.980	80.001	19.995	103.773	19.793	11.646	0.494
342.000	249.246	80.001	19.994	103.771	19.793	11.586	0.541
342.500	249.473	80.001	19.995	103.774	19.791	11.756	0.526
343.000	249.724	80.001	19.994	103.782	19.789	11.925	0.485
343.500	250.014	80.002	19.995	103.788	19.791	11.799	0.509
344.000	250.243	80.001	19.994	103.792	19.791	11.784	0.530
344.500	250.497	80.002	19.994	103.792	19.789	11.895	0.501
345.000	250.725	80.001	19.995	103.788	19.788	11.994	0.483
345.500	250.996	80.002	19.994	103.781	19.789	11.886	0.490
346.000	251.217	80.001	19.995	103.774	19.789	11.882	0.495
346.500	251.482	80.002	19.995	103.771	19.787	12.067	0.489
347.000	251.737	80.000	19.994	103.778	19.789	11.884	0.503
347.500	251.979	80.002	19.995	103.781	19.789	11.929	0.508
348.000	252.224	80.000	19.994	103.780	19.786	12.141	0.492
348.500	252.473	80.002	19.996	103.781	19.787	12.036	0.491
349.000	252.703	80.000	19.994	103.780	19.787	12.063	0.486
349.500	252.973	80.000	19.995	103.772	19.784	12.294	0.489
350.000	253.225	80.000	19.994	103.772	19.785	12.218	0.511
350.500	253.465	80.002	19.996	103.779	19.784	12.319	0.507
351.000	253.679	80.000	19.997	103.786	19.787	12.064	0.473
351.500	253.911	80.001	19.997	103.793	19.787	12.109	0.450
352.000	254.175	80.002	19.995	103.797	19.783	12.352	0.471
352.500	254.405	80.002	19.995	103.795	19.782	12.450	0.495
353.000	254.664	80.002	19.994	103.791	19.784	12.309	0.492
353.500	254.920	80.002	19.995	103.788	19.784	12.331	0.502
354.000	255.161	80.001	19.995	103.781	19.787	12.068	0.507
354.500	255.373	80.001	19.996	103.777	19.784	12.306	0.475
355.000	255.653	80.001	19.995	103.777	19.785	12.246	0.472
355.500	255.860	80.003	19.995	103.779	19.781	12.533	0.489
356.000	256.153	80.001	19.996	103.776	19.784	12.274	0.493
356.500	256.378	80.002	19.996	103.777	19.784	12.342	0.509
357.000	256.632	80.000	19.996	103.780	19.779	12.650	0.498
357.500	256.834	80.002	19.996	103.782	19.781	12.539	0.467
358.000	257.082	80.000	19.995	103.778	19.783	12.395	0.453
358.500	257.344	80.001	19.994	103.777	19.779	12.703	0.481
359.000	257.603	80.002	19.995	103.781	19.781	12.535	0.516
359.500	257.844	80.000	19.995	103.784	19.780	12.633	0.510
360.000	258.064	80.003	19.995	103.782	19.782	12.433	0.480
360.500	258.328	80.001	19.995	103.782	19.783	12.359	0.473
361.000	258.561	80.001	19.995	103.781	19.782	12.472	0.491
361.500	258.806	80.002	19.995	103.778	19.780	12.639	0.487
362.000	259.024	80.002	19.994	103.772	19.780	12.619	0.471
362.500	259.277	80.001	19.996	103.777	19.781	12.533	0.467
363.000	259.560	80.001	19.996	103.783	19.777	12.855	0.503
363.500	259.802	80.002	19.996	103.790	19.777	12.815	0.531
364.000	260.039	80.000	19.996	103.796	19.779	12.683	0.502
364.500	260.264	80.002	19.996	103.804	19.779	12.679	0.470
365.000	260.503	80.003	19.995	103.805	19.775	12.987	0.463
365.500	260.771	80.001	19.995	103.805	19.778	12.749	0.485
366.000	261.003	80.000	19.996	103.806	19.776	12.921	0.504
366.500	261.230	80.002	19.995	103.806	19.775	12.964	0.480
367.000	261.515	80.000	19.996	103.806	19.775	13.009	0.485
367.500	261.728	80.000	19.996	103.806	19.776	12.932	0.505
368.000	262.005	80.000	19.996	103.806	19.773	13.129	0.494
368.500	262.235	80.001	19.996	103.806	19.775	13.000	0.499
369.000	262.465	80.001	19.995	103.807	19.772	13.195	0.483
369.500	262.713	80.001	19.997	103.806	19.777	12.866	0.469
370.000	262.969	80.002	19.996	103.807	19.773	13.142	0.491
370.500	263.184	80.002	19.995	103.808	19.774	13.100	0.488
371.000	263.468	79.999	19.996	103.808	19.772	13.215	0.485
371.500	263.661	80.001	19.995	103.808	19.775	12.962	0.487
372.000	263.927	80.001	19.995	103.808	19.773	13.164	0.468
372.500	264.183	80.001	19.995	103.805	19.771	13.321	0.491
373.000	264.452	80.000	19.997	103.802	19.771	13.330	0.523
373.500	264.710	80.002	19.995	103.803	19.769	13.488	0.526
374.000	264.937	80.000	19.995	103.803	19.769	13.429	0.506
374.500	265.186	80.002	19.995	103.802	19.768	13.514	0.480
375.000	265.441	80.002	19.994	103.803	19.771	13.276	0.490
375.500	265.699	80.002	19.996	103.803	19.768	13.518	0.508
376.000	265.934	80.002	19.995	103.802	19.768	13.559	0.503
376.500	266.212	80.002	19.995	103.803	19.768	13.493	0.503
377.000	266.434	80.002	19.997	103.804	19.770	13.408	0.507
377.500	266.691	80.003	19.996	103.805	19.768	13.514	0.490
378.000	266.943	80.002	19.996	103.808	19.766	13.652	0.494
378.500	267.180	80.001	19.995	103.807	19.768	13.531	0.499
379.000	267.427	80.002	19.997	103.806	19.767	13.576	0.487
379.500	267.703	80.004	19.995	103.805	19.766	13.684	0.504
380.000	267.942	80.002	19.996	103.807	19.767	13.631	0.519
380.500	268.200	80.003	19.996	103.807	19.770	13.410	0.505
381.000	268.488	80.002	19.996	103.807	19.766	13.712	0.521
381.501	268.694	80.003	19.997	103.807	19.766	13.714	0.520
382.000	268.914	80.002	19.997	103.812	19.768	13.534	0.460
382.500	269.188	80.002	19.995	103.812	19.765	13.735	0.460
383.000	269.426	80.001	19.996	103.812	19.766	13.689	0.503
383.500	269.738	80.003	19.995	103.811	19.768	13.529	0.531
384.000	269.976	80.002	19.996	103.811	19.765	13.778	0.550
384.500	270.193	80.002	19.994	103.807	19.762	13.975	0.502
385.000	270.520	80.000	19.997	103.807	19.761	14.046	0.500
385.500	270.761	80.002	19.996	103.806	19.761	14.071	0.556
386.000	270.961	80.000	19.995	103.807	19.762	13.982	0.504
386.500	271.248	80.001	19.995	103.808	19.762	14.016	0.464
387.000	271.479	79.999	19.996	103.808	19.761	14.041	0.503
387.500	271.765	80.004	19.995	103.807	19.760	14.147	0.518
388.000	272.015	80.000	19.996	103.807	19.758	14.279	0.527
388.500	272.300	80.001	19.996	103.807	19.760	14.119	0.536
389.000	272.545	80.001	19.996	103.809	19.759	14.213	0.533
389.500	272.770	80.001	19.996	103.809	19.760	14.164	0.500
390.000	273.068	80.002	19.996	103.810	19.758	14.279	0.496
390.500	273.288	80.002	19.994	103.810	19.758	14.285	0.520
391.000	273.547	80.002	19.995	103.811	19.759	14.230	0.498
391.500	273.782	80.002	19.995	103.810	19.756	14.438	0.487
392.000	274.049	80.001	19.995	103.810	19.755	14.543	0.498
392.500	274.316	80.002	19.995	103.811	19.757	14.371	0.518
393.000	274.557	80.002	19.994	103.812	19.758	14.263	0.521
393.500	274.823	80.000	19.995	103.812	19.756	14.416	0.508
394.000	275.071	80.001	19.995	103.812	19.756	14.466	0.511
394.500	275.351	80.002	19.996	103.812	19.755	14.536	0.521
395.000	275.602	80.001	19.995	103.812	19.754	14.578	0.529
395.500	275.866	80.002	19.995	103.811	19.753	14.642	0.523
396.000	276.135	80.002	19.994	103.815	19.753	14.712	0.524
396.500	276.361	80.003	19.994	103.815	19.755	14.504	0.514
397.000	276.633	80.002	19.995	103.815	19.753	14.666	0.496
397.500	276.849	80.001	19.995	103.815	19.752	14.776	0.493
398.000	277.130	80.002	19.995	103.814	19.753	14.657	0.493
398.500	277.344	80.002	19.994	103.811	19.754	14.593	0.496
399.000	277.625	80.003	19.995	103.811	19.750	14.939	0.495
399.500	277.886	80.002	19.994	103.810	19.749	15.022	0.519
400.000	278.146	80.003	19.994	103.810	19.750	14.903	0.531
400.500	278.402	80.002	19.995	103.813	19.751	14.863	0.518
401.000	278.651	80.004	19.995	103.813	19.747	15.132	0.511
401.500	278.921	80.004	19.994	103.812	19.750	14.945	0.512
402.000	279.163	80.002	19.993	103.810	19.746	15.207	0.515
402.500	279.409	80.005	19.994	103.809	19.747	15.112	0.500
403.000	279.691	80.003	19.995	103.806	19.747	15.112	0.508
403.500	279.903	80.005	19.995	103.806	19.746	15.197	0.511
404.000	280.162	80.004	19.994	103.807	19.742	15.490	0.482
404.500	280.417	80.004	19.994	103.809	19.744	15.383	0.492
405.000	280.704	80.003	19.994	103.810	19.743	15.421	0.528
405.500	280.950	80.004	19.994	103.810	19.745	15.291	0.537
406.001	281.159	80.003	19.994	103.813	19.740	15.640	0.494
406.501	281.450	80.003	19.995	103.813	19.741	15.596	0.477
407.000	281.702	80.003	19.995	103.813	19.742	15.492	0.522
407.500	281.957	80.003	19.996	103.814	19.742	15.501	0.525
408.000	282.176	80.003	19.996	103.814	19.735	16.076	0.491
408.500	282.431	80.004	19.996	103.811	19.739	15.734	0.474
409.000	282.667	80.002	19.996	103.812	19.737	15.877	0.482
409.500	282.942	80.002	19.995	103.813	19.738	15.866	0.501
410.000	283.214	80.002	19.994	103.812	19.735	16.024	0.529
410.500	283.507	80.001	19.999	103.812	19.734	16.162	0.557
411.000	283.689	80.001	19.998	103.812	19.735	16.042	0.520
411.500	284.009	80.003	19.998	103.810	19.737	15.932	0.488
412.000	284.228	80.003	19.997	103.810	19.734	16.131	0.521
412.500	284.472	80.001	19.996	103.810	19.735	16.079	0.501
413.000	284.727	80.001	19.996	103.812	19.735	16.047	0.481
413.500	284.978	80.001	19.996	103.816	19.732	16.274	0.502
414.000	285.200	80.000	19.996	103.816	19.733	16.230	0.490
414.500	285.439	80.002	19.996	103.815	19.733	16.191	0.467
415.000	285.705	80.000	19.995	103.815	19.730	16.440	0.483
415.500	285.940	80.003	19.995	103.812	19.728	16.604	0.503
416.000	286.226	79.999	19.997	103.810	19.729	16.532	0.511
416.500	286.482	80.001	19.996	103.810	19.727	16.661	0.532
417.000	286.727	80.000	19.995	103.812	19.728	16.619	0.522
417.500	286.938	80.002	19.994	103.814	19.725	16.827	0.478
418.000	287.170	80.001	19.995	103.818	19.722	17.039	0.449
418.500	287.447	80.002	19.994	103.818	19.725	16.804	0.476
419.000	287.713	80.002	19.996	103.820	19.724	16.881	0.527
419.500	287.940	80.001	19.996	103.819	19.722	17.052	0.518
420.000	288.192	80.000	19.995	103.818	19.719	17.286	0.486
420.500	288.431	80.002	19.995	103.821	19.717	17.469	0.485
421.000	288.645	80.001	19.995	103.823	19.717	17.406	0.472
421.500	288.923	80.000	19.994	103.827	19.718	17.376	0.472
422.000	289.169	80.000	19.995	103.831	19.719	17.272	0.508
422.500	289.421	80.000	19.996	103.832	19.715	17.576	0.511
423.000	289.693	80.001	19.995	103.827	19.715	17.582	0.511
423.500	289.916	80.003	19.994	103.826	19.713	17.727	0.509
424.000	290.181	80.002	19.995	103.822	19.712	17.802	0.491
424.500	290.409	80.002	19.994	103.821	19.709	18.057	0.491
425.000	290.678	80.002	19.995	103.827	19.709	18.042	0.496
425.500	290.932	80.004	19.994	103.833	19.710	18.012	0.510
426.000	291.173	80.000	19.995	103.837	19.708	18.125	0.509
426.500	291.400	80.001	19.994	103.841	19.707	18.209	0.481
427.000	291.668	80.001	19.994	103.839	19.705	18.377	0.481
427.500	291.926	80.002	19.994	103.835	19.704	18.432	0.510
428.000	292.162	80.001	19.994	103.829	19.708	18.154	0.510
428.500	292.406	80.003	19.994	103.826	19.706	18.276	0.487
429.000	292.671	80.001	19.996	103.825	19.705	18.369	0.494
429.500	292.922	80.002	19.995	103.828	19.698	18.881	0.512
430.000	293.136	80.004	19.994	103.831	19.702	18.565	0.490
430.500	293.363	80.003	19.994	103.837	19.698	18.911	0.453
431.000	293.627	80.003	19.994	103.840	19.697	19.000	0.466
431.500	293.877	80.003	19.995	103.844	19.695	19.131	0.503
432.000	294.101	80.003	19.995	103.846	19.693	19.246	0.494
432.500	294.350	80.002	19.994	103.846	19.695	19.118	0.474
433.000	294.603	80.004	19.993	103.846	19.692	19.324	0.488
433.500	294.865	80.003	19.993	103.848	19.694	19.218	0.508
434.000	295.118	80.003	19.993	103.848	19.691	19.399	0.515
434.500	295.349	80.002	19.994	103.850	19.689	19.616	0.499
435.000	295.579	80.003	19.994	103.851	19.685	19.872	0.472
435.500	295.824	80.003	19.994	103.853	19.685	19.886	0.468
436.000	296.092	80.003	19.995	103.852	19.688	19.695	0.495
436.500	296.334	80.002	19.994	103.852	19.683	20.016	0.511
437.000	296.595	80.001	19.995	103.851	19.683	20.010	0.506
437.500	296.845	80.003	19.994	103.850	19.681	20.192	0.507
438.000	297.027	80.003	19.994	103.849	19.680	20.314	0.472
438.500	297.297	79.999	19.995	103.849	19.680	20.308	0.442
439.000	297.561	79.999	19.995	103.850	19.677	20.499	0.493
439.500	297.799	80.000	19.995	103.852	19.675	20.660	0.518
440.001	298.062	80.002	19.994	103.854	19.676	20.611	0.501
440.500	298.339	80.002	19.994	103.853	19.672	20.887	0.520
441.000	298.624	80.003	19.994	103.853	19.670	21.053	0.551
441.500	298.842	80.000	19.995	103.854	19.671	20.990	0.532
442.000	299.091	80.001	19.996	103.852	19.671	20.997	0.485
442.500	299.306	80.000	19.996	103.852	19.668	21.228	0.466
443.000	299.574	80.003	19.994	103.853	19.668	21.199	0.474
443.500	299.846	79.999	19.994	103.859	19.666	21.321	0.511
444.000	300.090	80.000	19.994	103.861	19.666	21.347	0.528
444.500	300.330	80.003	19.995	103.860	19.666	21.330	0.500
445.000	300.569	80.001	19.996	103.863	19.663	21.593	0.482
445.500	300.824	80.000	19.996	103.865	19.660	21.810	0.487
446.000	301.084	80.001	19.995	103.860	19.657	22.008	0.504
446.500	301.340	80.001	19.994	103.857	19.657	22.051	0.515
447.000	301.579	80.001	19.995	103.857	19.655	22.229	0.506
447.500	301.826	80.001	19.995	103.855	19.652	22.435	0.490
448.000	302.082	80.001	19.995	103.857	19.653	22.317	0.494
448.500	302.307	80.001	19.996	103.863	19.651	22.521	0.492
449.000	302.576	80.002	19.996	103.871	19.648	22.710	0.488
449.500	302.837	80.001	19.995	103.872	19.646	22.921	0.512
450.000	303.099	80.001	19.996	103.872	19.646	22.902	0.527
450.500	303.331	80.003	19.996	103.869	19.643	23.131	0.508
451.000	303.567	80.000	19.996	103.869	19.642	23.203	0.481
451.500	303.832	80.001	19.996	103.867	19.642	23.179	0.485
452.000	304.102	80.003	19.996	103.869	19.641	23.252	0.518
452.500	304.334	80.000	19.996	103.872	19.636	23.685	0.518
453.000	304.606	80.002	19.996	103.876	19.636	23.626	0.503
453.500	304.828	80.003	19.995	103.871	19.634	23.800	0.499
454.000	305.106	80.002	19.995	103.866	19.634	23.826	0.498
454.500	305.314	80.003	19.994	103.868	19.634	23.838	0.493
455.000	305.589	80.000	19.995	103.871	19.631	24.044	0.484
455.500	305.868	80.003	19.995	103.873	19.630	24.108	0.518
456.000	306.090	80.002	19.995	103.880	19.626	24.447	0.527
456.500	306.352	80.001	19.995	103.883	19.622	24.722	0.493
457.000	306.635	80.001	19.996	103.885	19.620	24.915	0.515
457.500	306.918	80.002	19.996	103.886	19.621	24.826	0.555
458.000	307.151	80.000	19.995	103.886	19.616	25.169	0.541
458.500	307.390	80.003	19.995	103.884	19.617	25.086	0.494
459.000	307.622	80.002	19.995	103.888	19.614	25.379	0.471
459.500	307.894	80.002	19.994	103.888	19.613	25.451	0.488
460.000	308.130	80.002	19.995	103.888	19.614	25.368	0.506
460.500	308.411	80.003	19.994	103.890	19.609	25.703	0.513
461.000	308.629	80.003	19.995	103.890	19.605	26.045	0.508
461.500	308.935	80.002	19.995	103.889	19.605	26.018	0.511
462.000	309.180	80.003	19.995	103.888	19.602	26.255	0.537
462.500	309.428	80.004	19.996	103.888	19.601	26.370	0.522
463.000	309.674	80.002	19.994	103.887	19.600	26.398	0.493
463.500	309.954	80.004	19.994	103.888	19.597	26.667	0.510
464.001	310.205	80.004	19.995	103.889	19.597	26.620	0.528
464.500	310.431	80.002	19.995	103.890	19.596	26.700	0.504
465.000	310.706	80.002	19.995	103.889	19.593	26.986	0.489
465.500	310.973	80.002	19.997	103.889	19.593	26.933	0.521
466.000	311.201	80.002	19.995	103.887	19.591	27.105	0.519
466.500	311.487	80.003	19.996	103.886	19.585	27.553	0.505
467.000	311.747	80.002	19.995	103.885	19.584	27.632	0.530
467.500	311.992	80.002	19.995	103.886	19.586	27.500	0.525
468.000	312.283	80.004	19.994	103.886	19.579	28.001	0.520
468.500	312.560	80.003	19.995	103.888	19.578	28.102	0.552
469.000	312.798	80.001	19.995	103.889	19.577	28.175	0.542
469.500	313.050	80.003	19.996	103.889	19.573	28.504	0.503
470.000	313.320	80.000	19.996	103.888	19.573	28.452	0.506
470.500	313.579	80.004	20.000	103.887	19.568	28.860	0.525
471.000	313.791	80.000	19.998	103.887	19.568	28.894	0.500
471.500	314.120	80.003	19.998	103.886	19.565	29.093	0.506
472.000	314.344	80.002	19.997	103.885	19.563	29.219	0.548
472.500	314.576	80.003	19.998	103.885	19.563	29.267	0.504
473.000	314.822	80.002	19.997	103.889	19.557	29.696	0.466
473.500	315.101	80.002	19.996	103.892	19.557	29.693	0.502
474.000	315.338	80.002	19.996	103.895	19.555	29.850	0.521
474.500	315.623	80.003	19.997	103.900	19.549	30.304	0.519
475.000	315.884	80.002	19.997	103.899	19.549	30.307	0.534
475.500	316.118	80.003	19.996	103.895	19.552	30.124	0.521
476.000	316.396	80.001	19.996	103.892	19.550	30.277	0.503
476.500	316.622	80.002	19.997	103.892	19.548	30.443	0.508
477.000	316.838	80.005	19.996	103.890	19.543	30.796	0.473
477.500	317.147	80.003	19.996	103.891	19.540	31.052	0.484
478.000	317.391	80.002	19.995	103.892	19.537	31.284	0.539
478.500	317.646	80.002	19.996	103.892	19.535	31.430	0.526
479.000	317.924	80.002	19.995	103.889	19.537	31.262	0.516
479.500	318.155	80.003	19.995	103.886	19.531	31.745	0.521
480.000	318.437	80.004	19.996	103.889	19.530	31.795	0.511
480.500	318.681	80.001	19.996	103.895	19.526	32.107	0.520
481.000	318.918	80.005	19.996	103.900	19.521	32.473	0.504
481.500	319.201	80.003	19.994	103.905	19.522	32.401	0.500
482.000	319.433	80.004	19.995	103.908	19.518	32.723	0.517
482.500	319.676	80.002	19.995	103.904	19.519	32.618	0.495
483.000	319.911	80.004	19.995	103.899	19.517	32.812	0.477
483.500	320.171	80.003	19.996	103.895	19.516	32.895	0.486
484.000	320.408	80.005	19.996	103.895	19.511	33.226	0.496
484.500	320.676	80.006	19.995	103.899	19.510	33.315	0.501
485.000	320.936	80.005	19.995	103.905	19.506	33.661	0.517
485.500	321.199	80.005	19.994	103.911	19.505	33.729	0.526
486.000	321.445	80.005	19.994	103.913	19.503	33.882	0.516
486.500	321.710	80.006	19.995	103.914	19.502	33.934	0.510
487.000	321.924	80.005	19.995	103.912	19.501	34.020	0.495
487.500	322.194	80.003	19.994	103.913	19.495	34.460	0.481
488.000	322.434	80.005	19.994	103.913	19.491	34.738	0.497
488.500	322.680	80.004	19.995	103.918	19.491	34.775	0.499
489.000	322.926	80.002	19.995	103.919	19.490	34.820	0.489
489.500	323.217	80.003	19.994	103.922	19.489	34.911	0.514
490.000	323.457	80.005	19.995	103.921	19.483	35.368	0.534
490.500	323.721	80.003	19.994	103.916	19.482	35.436	0.518
491.000	323.966	80.003	19.993	103.908	19.476	35.946	0.506
491.500	324.200	80.004	19.995	103.906	19.475	35.974	0.494
492.000	324.415	80.004	19.995	103.906	19.470	36.397	0.464
492.500	324.681	80.002	19.995	103.907	19.472	36.234	0.465
493.000	324.936	80.004	19.994	103.913	19.469	36.487	0.501
493.500	325.178	80.004	19.993	103.922	19.466	36.712	0.509
494.000	325.428	80.002	19.994	103.924	19.461	37.044	0.495
494.500	325.688	80.004	19.995	103.925	19.460	37.154	0.501
495.000	325.899	80.001	19.995	103.922	19.457	37.417	0.490
495.500	326.186	80.003	19.994	103.922	19.455	37.555	0.484
496.000	326.420	80.002	19.996	103.921	19.452	37.786	0.510
496.500	326.661	80.000	19.995	103.921	19.454	37.618	0.498
497.000	326.899	80.001	19.995	103.921	19.448	38.069	0.477
497.500	327.179	80.002	19.994	103.922	19.444	38.410	0.498
498.000	327.420	80.002	19.996	103.919	19.443	38.444	0.519
498.500	327.651	80.002	19.995	103.919	19.441	38.618	0.497
499.000	327.901	80.003	19.995	103.919	19.438	38.860	0.477
499.500	328.123	80.001	19.995	103.920	19.434	39.135	0.476
500.000	328.384	80.001	19.994	103.923	19.433	39.238	0.477
500.500	328.660	80.002	19.994	103.927	19.432	39.305	0.510
501.000	328.884	80.002	19.994	103.928	19.428	39.611	0.519
501.500	329.110	80.001	19.994	103.928	19.426	39.749	0.475
502.000	329.383	80.000	19.995	103.928	19.426	39.786	0.475
502.500	329.610	80.002	19.994	103.927	19.424	39.956	0.499
503.000	329.887	80.002	19.996	103.929	19.420	40.273	0.502
503.500	330.075	80.001	19.994	103.928	19.419	40.339	0.485
504.000	330.341	80.001	19.998	103.929	19.418	40.361	0.460
504.500	330.603	80.003	19.996	103.929	19.418	40.419	0.491
505.000	330.828	80.001	19.996	103.929	19.411	40.955	0.507
505.500	331.054	80.003	19.997	103.929	19.406	41.291	0.469
506.000	331.280	80.001	19.996	103.932	19.406	41.348	0.452
506.500	331.524	80.001	19.995	103.932	19.405	41.394	0.461
507.000	331.781	80.002	19.995	103.936	19.399	41.825	0.486
507.500	332.042	80.000	19.995	103.936	19.397	41.982	0.510
508.000	332.267	80.001	19.995	103.938	19.394	42.267	0.502
508.500	332.551	80.003	19.994	103.935	19.391	42.431	0.497
509.000	332.818	80.003	19.995	103.939	19.388	42.665	0.530
509.501	333.026	80.000	19.994	103.943	19.385	42.930	0.513
510.000	333.254	80.003	19.995	103.949	19.381	43.253	0.455
510.500	333.503	80.002	19.995	103.950	19.376	43.579	0.456
511.000	333.786	80.003	19.995	103.952	19.378	43.458	0.505
511.500	334.065	80.001	19.995	103.956	19.374	43.774	0.547
512.000	334.292	80.002	19.994	103.955	19.371	44.002	0.534
512.500	334.515	80.001	19.994	103.954	19.368	44.212	0.478
513.000	334.781	80.002	19.995	103.959	19.363	44.618	0.469
513.500	335.047	80.003	19.994	103.963	19.361	44.790	0.510
514.000	335.281	80.000	19.994	103.963	19.360	44.849	0.517
514.501	335.543	80.003	19.995	103.964	19.357	45.106	0.498
515.000	335.785	80.002	19.995	103.966	19.354	45.300	0.500
515.500	336.008	80.001	19.995	103.966	19.351	45.536	0.485
516.000	336.319	80.003	19.996	103.967	19.350	45.621	0.500
516.500	336.533	80.002	19.995	103.967	19.348	45.775	0.529
517.000	336.776	80.001	19.995	103.967	19.343	46.164	0.491
517.500	337.009	80.001	19.995	103.965	19.343	46.143	0.466
518.000	337.287	80.001	19.993	103.963	19.338	46.527	0.494
518.500	337.547	80.001	19.994	103.963	19.334	46.831	0.524
519.000	337.775	80.000	19.994	103.963	19.331	47.093	0.513
519.500	338.006	80.003	19.995	103.963	19.327	47.378	0.474
520.000	338.282	80.003	19.994	103.963	19.326	47.487	0.484
520.500	338.506	80.001	19.994	103.966	19.318	48.074	0.503
521.000	338.727	80.002	19.994	103.967	19.320	47.929	0.472
521.500	339.010	80.004	19.995	103.968	19.315	48.294	0.475
522.000	339.236	80.002	19.995	103.969	19.311	48.573	0.506
522.500	339.501	80.000	19.994	103.971	19.307	48.887	0.500
523.000	339.751	80.001	19.994	103.976	19.306	49.000	0.503
523.500	339.938	80.003	19.993	103.980	19.303	49.247	0.476
524.000	340.206	80.001	19.995	103.980	19.302	49.273	0.446
524.500	340.457	80.001	19.994	103.979	19.298	49.572	0.487
525.000	340.681	80.003	19.995	103.979	19.296	49.794	0.497
525.500	340.946	80.002	19.995	103.973	19.294	49.934	0.482
526.000	341.242	80.002	19.995	103.969	19.287	50.431	0.525
526.500	341.479	80.003	19.994	103.968	19.284	50.646	0.547
527.000	341.693	80.001	19.995	103.969	19.280	50.967	0.492
527.500	341.914	80.002	19.996	103.970	19.277	51.251	0.443
528.000	342.165	80.002	19.994	103.970	19.275	51.362	0.454
528.500	342.431	80.001	19.995	103.975	19.275	51.409	0.495
529.000	342.667	80.001	19.995	103.979	19.269	51.809	0.509
529.500	342.932	80.001	19.995	103.978	19.264	52.243	0.501
530.000	343.164	79.999	19.993	103.979	19.264	52.230	0.499
530.500	343.422	79.999	19.998	103.984	19.258	52.684	0.493
531.000	343.647	80.001	19.995	103.985	19.256	52.861	0.486
531.500	343.867	80.001	19.996	103.989	19.253	53.091	0.464
532.000	344.143	80.003	19.995	103.988	19.251	53.227	0.470
532.500	344.381	80.001	19.996	103.988	19.249	53.331	0.506
533.000	344.611	80.001	19.996	103.987	19.246	53.620	0.491
533.500	344.867	80.003	19.996	103.987	19.241	53.961	0.477
534.000	345.094	80.000	19.996	103.982	19.239	54.143	0.484
534.500	345.375	80.002	19.995	103.983	19.236	54.333	0.496
535.000	345.585	80.001	19.996	103.988	19.232	54.695	0.500
535.500	345.832	80.002	19.995	103.991	19.226	55.124	0.474
536.000	346.118	80.001	19.995	103.993	19.225	55.242	0.495
536.500	346.351	80.003	19.995	103.997	19.223	55.345	0.526
537.000	346.612	80.004	19.996	104.003	19.222	55.458	0.506
537.500	346.862	80.003	19.995	104.004	19.216	55.900	0.502
538.000	347.095	80.002	19.995	104.003	19.208	56.525	0.497
538.500	347.378	80.004	19.996	104.002	19.209	56.445	0.500
539.000	347.606	80.004	19.995	104.001	19.206	56.699	0.513
539.500	347.841	80.005	19.996	104.002	19.207	56.609	0.487
540.000	348.107	80.003	19.995	104.002	19.202	56.964	0.482
540.500	348.333	80.003	19.996	104.003	19.199	57.178	0.496
541.000	348.579	80.002	19.994	104.003	19.194	57.615	0.482
541.500	348.827	80.003	19.995	104.003	19.193	57.673	0.483
542.000	349.084	80.004	19.995	104.001	19.190	57.915	0.500
542.500	349.316	80.004	19.995	104.001	19.185	58.260	0.497
543.000	349.578	80.003	19.996	104.001	19.186	58.244	0.491
543.500	349.833	80.002	19.995	104.001	19.183	58.436	0.505
544.000	350.071	80.002	19.995	104.001	19.179	58.715	0.505
544.500	350.299	80.002	19.995	104.001	19.177	58.865	0.480
545.000	350.527	80.003	19.997	104.000	19.174	59.129	0.461
545.500	350.778	80.003	19.996	104.000	19.173	59.224	0.467
546.000	351.034	80.005	19.995	104.001	19.170	59.450	0.493
546.500	351.300	80.002	19.995	104.001	19.169	59.551	0.515
547.000	351.526	80.003	19.995	104.002	19.165	59.840	0.507
547.500	351.808	80.000	19.995	104.003	19.161	60.135	0.500
548.000	352.016	80.003	19.995	104.004	19.155	60.570	0.499
548.500	352.287	80.001	19.996	104.008	19.159	60.279	0.484
549.000	352.533	80.002	19.996	104.011	19.152	60.809	0.498
549.500	352.757	80.003	19.995	104.016	19.151	60.923	0.494
550.000	353.049	80.003	19.996	104.017	19.147	61.204	0.493
550.500	353.309	80.002	19.996	104.020	19.145	61.336	0.534
551.000	353.569	80.004	19.995	104.016	19.143	61.479	0.536
551.500	353.775	80.003	19.995	104.014	19.142	61.610	0.493
552.000	354.052	80.004	19.995	104.012	19.139	61.807	0.474
552.500	354.274	80.003	19.995	104.014	19.133	62.294	0.491
553.000	354.553	80.002	19.996	104.016	19.133	62.302	0.500
553.500	354.802	80.002	19.995	104.021	19.131	62.451	0.515
554.000	355.031	80.002	19.995	104.025	19.131	62.390	0.503
554.500	355.315	80.003	19.995	104.027	19.128	62.689	0.496
555.001	355.538	80.002	19.995	104.025	19.122	63.094	0.510
555.500	355.786	80.002	19.995	104.018	19.119	63.349	0.489
556.000	356.076	80.003	19.995	104.014	19.116	63.613	0.504
556.500	356.309	80.001	19.995	104.013	19.117	63.519	0.530
557.001	356.551	80.004	19.995	104.015	19.114	63.698	0.498
557.501	356.807	80.001	19.995	104.019	19.116	63.577	0.487
558.000	357.060	80.003	19.994	104.024	19.114	63.752	0.504
558.500	357.335	80.003	19.995	104.030	19.111	63.938	0.519
559.000	357.608	80.003	19.995	104.027	19.108	64.219	0.538
559.500	357.834	80.002	19.995	104.024	19.104	64.488	0.524
560.000	358.132	80.004	19.994	104.021	19.105	64.447	0.512
560.500	358.351	80.001	19.995	104.024	19.103	64.600	0.520
561.000	358.628	80.003	19.996	104.019	19.102	64.672	0.506
561.500	358.860	80.002	19.995	104.020	19.099	64.844	0.502
562.000	359.134	80.001	19.996	104.020	19.099	64.874	0.508
562.500	359.357	80.003	19.994	104.019	19.097	64.995	0.502
563.000	359.639	80.001	19.996	104.014	19.096	65.114	0.501
563.500	359.908	80.003	19.995	104.010	19.097	64.998	0.528
564.000	360.135	80.002	19.994	104.010	19.093	65.328	0.523
564.500	360.394	80.004	19.996	104.005	19.092	65.363	0.491
565.000	360.644	80.004	19.995	104.006	19.091	65.485	0.498
565.500	360.873	80.002	19.995	104.009	19.092	65.418	0.494
566.000	361.173	80.003	19.996	104.017	19.089	65.596	0.504
566.500	361.397	80.002	19.994	104.017	19.091	65.466	0.526
567.001	361.703	80.003	19.995	104.018	19.090	65.556	0.527
567.500	361.936	80.002	20.001	104.016	19.091	65.508	0.535
568.000	362.202	80.002	20.000	104.011	19.091	65.505	0.519
568.500	362.428	80.001	20.000	104.004	19.090	65.524	0.495
569.000	362.715	80.004	19.997	104.004	19.092	65.370	0.503
569.500	362.930	80.002	19.997	104.003	19.093	65.287	0.508
570.000	363.209	80.002	19.997	104.002	19.093	65.306	0.498
570.500	363.434	80.001	19.997	104.004	19.092	65.382	0.499
571.000	363.730	80.001	19.997	104.004	19.094	65.223	0.513
571.500	363.990	80.001	19.997	104.003	19.095	65.153	0.538
572.000	364.259	80.000	19.996	104.003	19.095	65.120	0.542
572.500	364.514	80.001	19.996	104.003	19.096	65.100	0.526
573.000	364.784	80.001	19.996	104.002	19.100	64.758	0.525
573.500	365.038	80.001	19.996	104.002	19.100	64.725	0.524
574.000	365.238	80.000	19.996	103.999	19.102	64.629	0.489
574.500	365.530	79.998	19.997	103.994	19.104	64.465	0.473
575.000	365.796	79.999	19.997	103.988	19.106	64.290	0.525
575.500	366.089	80.001	19.994	103.985	19.109	64.067	0.558
576.000	366.327	80.002	19.995	103.984	19.111	63.922	0.545
576.500	366.585	80.000	19.995	103.981	19.113	63.761	0.514
577.000	366.843	79.999	19.996	103.984	19.117	63.428	0.506
577.500	367.077	80.001	19.996	103.983	19.117	63.454	0.504
578.000	367.372	80.002	19.996	103.978	19.121	63.120	0.510
578.500	367.603	80.001	19.994	103.973	19.125	62.811	0.528
579.000	367.827	80.000	19.995	103.971	19.127	62.678	0.491
579.500	368.122	80.001	19.994	103.967	19.131	62.335	0.487
580.000	368.399	80.001	19.994	103.967	19.140	61.699	0.546
580.500	368.661	80.000	19.995	103.962	19.142	61.546	0.555
581.000	368.928	80.003	19.994	103.959	19.140	61.634	0.534
581.500	369.192	80.001	19.994	103.958	19.148	61.063	0.530
582.000	369.469	80.000	19.994	103.952	19.151	60.806	0.536
582.500	369.693	79.999	19.994	103.946	19.157	60.359	0.521
583.000	369.972	80.001	19.995	103.944	19.163	59.931	0.502
583.500	370.221	80.002	19.995	103.939	19.166	59.651	0.516
584.000	370.484	80.001	19.995	103.932	19.171	59.262	0.520
584.500	370.764	80.003	19.995	103.931	19.177	58.833	0.528
585.000	370.988	80.002	19.993	103.930	19.180	58.569	0.523
585.500	371.233	80.001	19.994	103.929	19.185	58.155	0.487
586.000	371.502	80.001	19.995	103.929	19.191	57.728	0.492
586.500	371.766	80.002	19.994	103.929	19.202	56.906	0.523
587.000	372.050	80.001	19.995	103.928	19.203	56.791	0.540
587.500	372.333	80.002	19.994	103.926	19.213	56.019	0.558
588.000	372.597	80.001	19.994	103.920	19.222	55.351	0.557
588.500	372.861	80.002	19.994	103.914	19.224	55.160	0.537
589.000	373.109	80.000	19.995	103.910	19.234	54.425	0.520
589.500	373.366	80.001	19.994	103.907	19.243	53.750	0.508
590.000	373.624	79.998	19.994	103.906	19.248	53.362	0.510
590.500	373.899	80.001	19.996	103.908	19.259	52.490	0.524
591.000	374.149	80.001	19.996	103.911	19.265	52.060	0.529
591.500	374.418	80.003	19.996	103.908	19.274	51.378	0.522
592.000	374.696	80.002	19.995	103.901	19.282	50.769	0.533
592.500	374.941	80.002	19.996	103.896	19.291	50.045	0.535
593.000	375.223	80.002	19.996	103.892	19.299	49.408	0.525
593.500	375.431	80.000	19.995	103.884	19.307	48.832	0.508
594.000	375.706	80.002	19.995	103.882	19.317	48.042	0.487
594.500	375.960	80.002	19.995	103.875	19.326	47.363	0.506
595.000	376.218	80.001	19.996	103.868	19.335	46.692	0.521
595.500	376.461	80.002	19.996	103.860	19.341	46.225	0.506
596.000	376.748	80.000	19.995	103.855	19.349	45.635	0.515
596.500	377.019	80.002	19.996	103.849	19.359	44.871	0.544
597.000	377.261	80.001	19.994	103.848	19.368	44.176	0.535
597.500	377.504	80.001	19.995	103.847	19.374	43.654	0.499
598.000	377.759	80.002	19.994	103.848	19.387	42.649	0.492
598.500	378.038	80.001	19.995	103.846	19.397	41.946	0.515
599.000	378.287	80.003	19.994	103.840	19.406	41.237	0.531
599.500	378.552	80.003	19.994	103.835	19.414	40.634	0.521
600.000	378.810	80.003	19.994	103.827	19.426	39.688	0.518
600.500	379.044	80.002	19.994	103.820	19.432	39.220	0.507
601.000	379.324	80.002	19.995	103.813	19.445	38.226	0.503
601.500	379.562	80.002	19.993	103.810	19.454	37.533	0.516
602.000	379.826	80.002	19.994	103.807	19.464	36.768	0.510
602.500	380.098	80.001	19.995	103.807	19.473	36.092	0.519
603.000	380.338	80.002	19.995	103.807	19.485	35.209	0.524
603.500	380.606	80.002	19.994	103.802	19.492	34.608	0.510
604.000	380.883	79.999	19.996	103.802	19.502	33.870	0.526
604.500	381.120	80.001	19.995	103.801	19.510	33.244	0.530
605.000	381.391	80.002	19.995	103.800	19.520	32.480	0.511
605.500	381.641	80.001	19.994	103.796	19.531	31.654	0.514
606.000	381.894	80.000	19.996	103.797	19.537	31.164	0.512
606.500	382.149	80.001	19.995	103.792	19.549	30.279	0.506
607.000	382.410	80.000	19.995	103.786	19.558	29.559	0.512
607.500	382.632	80.003	19.994	103.779	19.566	29.000	0.500
608.000	382.928	80.001	19.994	103.776	19.575	28.250	0.501
608.500	383.216	80.001	19.996	103.772	19.587	27.371	0.551
609.000	383.454	80.001	19.994	103.769	19.594	26.855	0.555
609.500	383.690	80.001	19.996	103.768	19.603	26.166	0.500
610.000	383.946	80.001	19.995	103.768	19.611	25.551	0.483
610.500	384.180	80.000	19.995	103.766	19.621	24.799	0.491
611.000	384.441	80.004	19.994	103.762	19.628	24.226	0.492
611.500	384.689	80.003	19.994	103.758	19.636	23.652	0.502
612.000	384.956	80.003	19.995	103.756	19.644	22.991	0.512
612.501	385.174	80.001	19.995	103.755	19.651	22.441	0.500
613.001	385.459	80.003	19.995	103.751	19.662	21.667	0.494
613.500	385.686	80.002	19.994	103.753	19.666	21.313	0.507
614.000	385.964	80.003	19.996	103.754	19.674	20.746	0.509
614.500	386.208	80.004	19.995	103.753	19.681	20.212	0.514
615.000	386.460	80.002	19.994	103.747	19.689	19.591	0.509
615.500	386.690	80.003	19.994	103.746	19.695	19.130	0.489
616.000	386.945	80.002	19.996	103.746	19.701	18.617	0.484
616.500	387.244	80.001	19.995	103.746	19.709	18.046	0.519
617.000	387.467	80.004	19.995	103.745	19.717	17.418	0.538
617.500	387.728	80.004	19.995	103.745	19.718	17.374	0.503
618.000	388.002	80.003	19.995	103.743	19.726	16.750	0.510
618.500	388.236	80.002	19.994	103.738	19.730	16.453	0.521
619.000	388.487	80.003	19.994	103.734	19.736	15.995	0.497
619.500	388.720	80.002	19.994	103.731	19.742	15.526	0.485
620.000	388.981	80.003	19.996	103.732	19.747	15.161	0.489
620.500	389.236	80.003	19.994	103.732	19.748	15.020	0.505
621.000	389.472	80.003	19.994	103.733	19.757	14.352	0.503
621.500	389.712	80.001	19.996	103.731	19.760	14.129	0.484
622.000	389.978	80.004	19.995	103.731	19.763	13.882	0.491
622.500	390.208	80.003	19.995	103.731	19.768	13.534	0.500
623.000	390.451	80.004	19.994	103.735	19.771	13.254	0.484
623.500	390.733	80.004	19.995	103.735	19.776	12.878	0.499
624.000	390.963	80.003	19.995	103.736	19.780	12.588	0.519
624.500	391.223	80.004	19.995	103.736	19.782	12.469	0.501
625.000	391.455	80.002	19.996	103.735	19.784	12.328	0.491
625.500	391.713	80.003	19.995	103.731	19.788	11.989	0.491
626.000	391.966	80.002	19.995	103.730	19.791	11.748	0.500
626.500	392.198	80.002	19.994	103.729	19.798	11.236	0.498
627.000	392.436	80.000	19.995	103.730	19.795	11.427	0.478
627.500	392.708	80.001	19.996	103.730	19.804	10.752	0.489
628.000	392.960	80.002	19.995	103.730	19.803	10.873	0.517
628.500	393.210	80.005	19.995	103.731	19.805	10.659	0.513
629.000	393.469	80.001	19.995	103.732	19.807	10.568	0.506
629.500	393.710	80.002	19.996	103.732	19.811	10.220	0.505
630.000	393.975	80.002	19.995	103.732	19.811	10.230	0.503
630.500	394.234	80.000	19.996	103.730	19.814	10.014	0.515
631.000	394.476	80.002	19.996	103.729	19.815	9.910	0.512
631.500	394.690	80.002	19.994	103.728	19.816	9.861	0.479
632.000	395.011	80.001	19.996	103.728	19.821	9.499	0.496
632.500	395.199	80.002	19.997	103.728	19.820	9.545	0.522
633.000	395.457	80.002	19.996	103.733	19.822	9.380	0.478
633.500	395.694	80.000	19.995	103.736	19.825	9.184	0.471
634.000	395.966	80.001	19.996	103.738	19.824	9.233	0.502
634.500	396.230	79.999	19.995	103.744	19.826	9.068	0.522
635.000	396.432	80.001	19.995	103.750	19.831	8.737	0.501
635.500	396.707	80.002	19.995	103.748	19.831	8.692	0.472
636.000	396.959	80.002	19.996	103.747	19.829	8.858	0.501
636.500	397.203	80.000	19.996	103.746	19.831	8.706	0.511
637.000	397.420	80.001	19.994	103.741	19.832	8.630	0.479
637.500	397.696	80.001	19.995	103.735	19.833	8.585	0.477
638.000	397.925	80.001	19.996	103.732	19.833	8.522	0.499
638.500	398.193	80.001	19.995	103.733	19.832	8.593	0.501
639.000	398.417	80.004	19.994	103.732	19.836	8.319	0.494
639.500	398.687	80.005	19.995	103.732	19.836	8.319	0.493
640.000	398.937	80.003	19.995	103.732	19.838	8.179	0.507
640.500	399.190	80.004	19.995	103.732	19.836	8.332	0.511
641.000	399.471	80.003	19.995	103.731	19.837	8.234	0.518
641.500	399.698	80.002	19.995	103.731	19.838	8.200	0.521
642.000	399.954	80.003	19.995	103.732	19.837	8.224	0.496
642.500	400.180	80.004	19.995	103.732	19.836	8.321	0.483
643.000	400.460	80.003	19.995	103.733	19.839	8.096	0.494
643.500	400.724	80.003	19.994	103.734	19.839	8.116	0.525
644.000	400.932	80.001	19.994	103.733	19.835	8.381	0.508
644.500	401.208	80.004	19.995	103.731	19.841	7.958	0.478
645.000	401.455	80.002	19.994	103.730	19.837	8.238	0.504
645.500	401.728	80.005	19.994	103.730	19.836	8.340	0.522
646.000	401.959	80.003	19.995	103.730	19.839	8.113	0.512
646.500	402.203	80.003	19.996	103.732	19.842	7.892	0.489
647.000	402.462	80.002	19.994	103.738	19.841	7.962	0.489
647.500	402.696	80.005	19.994	103.742	19.842	7.822	0.498
648.000	402.939	80.001	19.994	103.748	19.842	7.892	0.486
648.500	403.222	80.004	19.995	103.747	19.843	7.820	0.501
649.000	403.479	80.003	19.994	103.746	19.841	7.924	0.532
649.500	403.679	80.002	19.994	103.742	19.843	7.820	0.498
650.000	403.976	80.003	19.993	103.739	19.843	7.769	0.477
650.500	404.222	80.002	19.997	103.735	19.842	7.822	0.520
651.000	404.502	80.002	19.996	103.736	19.846	7.578	0.535
651.500	404.730	80.004	19.996	103.736	19.842	7.827	0.517
652.000	404.995	80.003	19.995	103.736	19.844	7.687	0.500
652.500	405.197	80.001	19.997	103.737	19.842	7.841	0.480
653.000	405.467	80.000	19.995	103.738	19.845	7.614	0.470
653.500	405.750	80.001	19.995	103.737	19.845	7.661	0.513
654.000	405.976	80.002	19.995	103.737	19.842	7.858	0.531
654.500	406.219	80.000	19.996	103.737	19.844	7.673	0.489
655.000	406.501	80.002	19.997	103.734	19.843	7.794	0.497
655.500	406.745	80.002	19.994	103.733	19.845	7.642	0.526
656.000	407.020	80.002	19.997	103.733	19.842	7.837	0.523
656.500	407.261	80.000	19.996	103.733	19.840	8.011	0.517
657.000	407.524	80.001	19.994	103.732	19.842	7.835	0.510
657.500	407.713	80.000	19.996	103.732	19.841	7.928	0.478
658.000	407.997	80.000	19.996	103.731	19.842	7.886	0.463
658.500	408.286	80.002	19.996	103.731	19.842	7.841	0.523
659.000	408.532	80.000	19.996	103.731	19.840	8.038	0.554
659.500	408.779	80.001	19.996	103.729	19.845	7.623	0.514
660.000	409.014	79.999	19.995	103.729	19.841	7.972	0.488
660.500	409.282	80.001	19.997	103.729	19.842	7.862	0.492
661.000	409.556	80.000	19.997	103.730	19.840	8.036	0.522
661.500	409.790	80.000	19.997	103.730	19.840	8.034	0.525
662.000	410.067	80.002	19.995	103.731	19.843	7.797	0.509
662.500	410.296	80.000	19.997	103.732	19.840	7.977	0.508
663.000	410.575	80.000	19.997	103.733	19.843	7.814	0.507
663.500	410.815	80.001	19.996	103.731	19.841	7.926	0.514
664.000	411.050	80.000	19.996	103.731	19.841	7.941	0.497
664.500	411.334	80.002	19.997	103.729	19.841	7.911	0.497
665.000	411.579	79.999	19.996	103.728	19.842	7.896	0.524
665.500	411.836	80.002	19.996	103.726	19.845	7.648	0.516
666.000	412.118	80.001	19.995	103.727	19.843	7.793	0.520
666.500	412.333	80.001	19.995	103.728	19.843	7.780	0.518
667.000	412.605	80.000	19.997	103.729	19.842	7.844	0.492
667.500	412.860	80.000	19.996	103.730	19.843	7.772	0.507
668.000	413.081	80.001	19.995	103.731	19.841	7.899	0.502
668.500	413.354	79.999	19.996	103.731	19.843	7.769	0.485
669.000	413.557	79.998	19.996	103.728	19.841	7.946	0.485
669.500	413.856	80.002	19.995	103.726	19.842	7.842	0.490
670.000	414.095	80.003	19.995	103.725	19.842	7.822	0.520
670.500	414.334	80.000	19.995	103.726	19.848	7.430	0.507
671.000	414.554	80.000	19.996	103.725	19.846	7.587	0.468
671.500	414.800	80.000	19.995	103.727	19.844	7.670	0.463
672.000	415.071	80.002	19.995	103.728	19.843	7.750	0.492
672.500	415.304	80.001	19.994	103.727	19.847	7.492	0.510
673.000	415.580	80.002	19.994	103.727	19.842	7.831	0.506
673.500	415.819	80.001	19.994	103.728	19.842	7.892	0.512
674.000	416.094	80.002	19.994	103.729	19.844	7.716	0.515
674.500	416.319	80.002	19.994	103.730	19.845	7.659	0.507
675.000	416.569	80.001	19.995	103.730	19.841	7.911	0.488
675.500	416.820	80.001	19.995	103.729	19.841	7.956	0.488
676.000	417.085	80.001	19.995	103.728	19.846	7.565	0.508
676.500	417.351	80.000	19.994	103.730	19.844	7.708	0.524
677.000	417.605	80.000	19.994	103.730	19.846	7.546	0.526
677.500	417.896	80.000	19.994	103.729	19.846	7.523	0.532
678.000	418.139	80.000	19.995	103.731	19.844	7.682	0.539
678.500	418.379	80.000	19.994	103.734	19.847	7.477	0.509
679.000	418.651	80.000	19.994	103.733	19.845	7.653	0.498
679.500	418.905	80.003	19.995	103.733	19.846	7.580	0.519
680.000	419.146	80.002	19.994	103.733	19.849	7.298	0.510
680.500	419.424	80.001	19.995	103.733	19.845	7.640	0.507
681.000	419.668	80.001	19.995	103.730	19.846	7.565	0.521
681.500	419.920	80.002	19.995	103.730	19.844	7.680	0.509
682.000	420.152	80.000	19.996	103.731	19.841	7.948	0.490
682.500	420.447	80.001	19.996	103.733	19.847	7.496	0.506
683.000	420.670	80.002	19.998	103.733	19.844	7.676	0.523
683.500	420.950	80.000	19.997	103.733	19.845	7.623	0.511
684.000	421.206	80.003	19.996	103.733	19.846	7.546	0.519
684.501	421.490	80.001	19.997	103.733	19.845	7.608	0.538
685.001	421.740	80.000	19.996	103.730	19.845	7.646	0.537
685.500	422.038	80.000	19.996	103.730	19.844	7.687	0.541
686.000	422.272	80.003	19.995	103.729	19.845	7.663	0.540
686.500	422.492	80.001	19.997	103.730	19.846	7.564	0.493
687.000	422.706	80.004	19.996	103.728	19.845	7.640	0.444
687.500	422.974	80.000	19.996	103.729	19.845	7.659	0.458
688.000	423.255	80.000	19.995	103.729	19.845	7.659	0.515
688.500	423.491	80.001	19.994	103.731	19.844	7.682	0.532
689.000	423.728	79.999	19.995	103.731	19.846	7.555	0.495
689.500	424.014	80.002	19.995	103.731	19.845	7.604	0.498
690.000	424.217	80.001	19.995	103.730	19.845	7.606	0.506
690.500	424.486	79.999	19.995	103.730	19.846	7.563	0.481
691.000	424.757	80.002	19.995	103.730	19.849	7.347	0.506
691.500	425.004	80.000	19.996	103.729	19.847	7.485	0.529
692.000	425.282	80.000	19.996	103.729	19.843	7.799	0.521
692.500	425.556	80.002	19.995	103.731	19.847	7.476	0.539
693.000	425.786	80.002	19.996	103.731	19.846	7.515	0.528
693.500	426.060	80.002	19.995	103.730	19.848	7.398	0.503
694.000	426.291	80.001	19.994	103.729	19.847	7.472	0.504
694.500	426.542	80.001	19.995	103.729	19.845	7.633	0.494
695.000	426.763	80.003	19.995	103.729	19.845	7.593	0.477
695.500	427.041	80.001	19.997	103.730	19.849	7.298	0.486
696.000	427.307	80.001	19.995	103.731	19.846	7.585	0.521
696.500	427.567	80.001	19.995	103.733	19.846	7.519	0.534
697.000	427.783	80.002	19.994	103.732	19.849	7.349	0.501
697.500	428.053	80.002	19.995	103.732	19.848	7.376	0.482
698.000	428.319	80.003	19.995	103.730	19.847	7.505	0.511
698.500	428.583	80.002	19.994	103.730	19.848	7.362	0.533
699.000	428.817	80.002	19.994	103.729	19.851	7.191	0.514
699.500	429.050	80.003	19.995	103.729	19.846	7.560	0.482
700.000	429.297	80.003	19.994	103.729	19.845	7.660	0.474
700.500	429.584	80.004	19.994	103.730	19.845	7.599	0.507
701.000	429.794	80.003	19.993	103.730	19.846	7.523	0.515
701.500	430.078	80.003	19.994	103.731	19.847	7.499	0.496
702.000	430.329	80.003	19.993	103.732	19.849	7.340	0.515
702.500	430.523	80.003	19.994	103.731	19.846	7.514	0.490
703.000	430.835	80.004	19.994	103.731	19.848	7.393	0.476
703.500	431.061	80.003	19.994	103.730	19.845	7.616	0.522
704.000	431.272	80.004	19.994	103.729	19.851	7.185	0.487
704.500	431.593	80.003	19.995	103.729	19.847	7.495	0.484
705.000	431.813	80.003	19.994	103.727	19.849	7.300	0.537
705.500	432.055	80.004	19.994	103.727	19.849	7.353	0.502
706.000	432.319	80.003	19.994	103.729	19.847	7.473	0.484
706.500	432.566	80.005	19.994	103.729	19.849	7.291	0.508
707.000	432.822	80.001	19.994	103.728	19.851	7.159	0.507
707.500	433.049	80.003	19.994	103.728	19.848	7.411	0.493
708.000	433.315	80.002	19.994	103.725	19.852	7.060	0.488
708.500	433.563	80.003	19.994	103.717	19.849	7.299	0.504
709.000	433.782	80.002	19.993	103.711	19.849	7.310	0.491
709.500	434.013	80.003	19.994	103.706	19.849	7.300	0.458
710.000	434.297	80.000	19.994	103.708	19.852	7.092	0.482
710.500	434.562	80.001	19.995	103.711	19.850	7.215	0.532
711.000	434.826	80.003	19.997	103.717	19.853	7.052	0.540
711.500	435.062	80.003	19.997	103.723	19.851	7.167	0.515
712.000	435.300	80.001	19.996	103.724	19.851	7.158	0.487
712.500	435.555	80.002	19.995	103.721	19.852	7.098	0.483
713.000	435.802	80.003	19.996	103.719	19.851	7.140	0.497
713.500	436.042	80.001	19.995	103.716	19.850	7.270	0.494
714.000	436.254	80.003	19.994	103.717	19.853	6.979	0.470
714.500	436.506	80.001	19.994	103.718	19.851	7.164	0.458
715.000	436.743	80.000	19.994	103.722	19.851	7.166	0.476
715.500	437.028	80.004	19.995	103.725	19.853	7.029	0.505
716.000	437.260	80.002	19.995	103.727	19.854	6.929	0.519
716.500	437.507	80.003	19.995	103.723	19.855	6.848	0.498
717.000	437.748	80.004	19.994	103.719	19.857	6.729	0.484
717.500	437.999	80.002	19.994	103.713	19.855	6.846	0.490
718.000	438.246	80.003	19.994	103.711	19.855	6.844	0.495
718.500	438.492	80.002	19.994	103.711	19.852	7.062	0.496
719.000	438.714	80.003	19.995	103.714	19.857	6.719	0.480
719.500	438.987	80.003	19.994	103.717	19.855	6.884	0.481
720.000	439.206	80.004	19.995	103.719	19.855	6.840	0.493
720.500	439.500	80.003	19.994	103.721	19.855	6.846	0.503
721.000	439.689	80.004	19.996	103.722	19.855	6.893	0.498
721.500	439.939	80.003	19.995	103.723	19.857	6.717	0.461
722.000	440.222	80.003	19.996	103.727	19.852	7.101	0.486
722.500	440.428	80.004	19.995	103.729	19.855	6.865	0.511
723.000	440.672	80.003	19.994	103.729	19.856	6.782	0.469
723.500	440.929	80.004	19.995	103.724	19.857	6.716	0.475
724.000	441.155	80.004	19.994	103.719	19.855	6.839	0.492
724.500	441.417	80.003	19.993	103.718	19.857	6.699	0.485
725.000	441.694	80.004	19.995	103.718	19.856	6.820	0.514
725.500	441.912	80.004	19.995	103.718	19.857	6.744	0.518
726.000	442.145	80.003	19.995	103.722	19.856	6.823	0.473
726.500	442.389	80.004	19.995	103.727	19.857	6.710	0.464
727.000	442.630	80.003	19.995	103.728	19.858	6.659	0.481
727.500	442.882	80.004	19.995	103.728	19.858	6.647	0.489
728.000	443.136	80.004	19.995	103.726	19.859	6.591	0.500
728.500	443.373	80.003	19.995	103.726	19.858	6.644	0.499
729.000	443.620	80.003	19.995	103.725	19.858	6.651	0.487
729.500	443.883	80.004	19.995	103.724	19.856	6.768	0.497
730.000	444.129	80.003	19.994	103.724	19.859	6.562	0.509
730.500	444.413	80.003	19.996	103.726	19.857	6.699	0.520
731.000	444.642	80.003	19.995	103.726	19.860	6.515	0.522
731.500	444.884	80.002	19.995	103.728	19.860	6.470	0.492
732.000	445.085	80.002	19.995	103.729	19.859	6.563	0.457
732.500	445.360	80.001	19.995	103.729	19.858	6.618	0.459
733.000	445.630	80.002	19.994	103.728	19.858	6.623	0.511
733.500	445.869	80.001	19.994	103.722	19.857	6.748	0.527
734.001	446.155	80.000	19.995	103.719	19.857	6.678	0.516
734.501	446.380	80.001	19.995	103.714	19.860	6.481	0.518
735.000	446.587	80.001	19.994	103.714	19.858	6.604	0.471
735.500	446.839	80.001	19.995	103.715	19.861	6.375	0.446
736.000	447.098	80.002	19.995	103.720	19.859	6.549	0.485
736.500	447.356	80.000	19.995	103.723	19.857	6.708	0.514
737.000	447.612	80.001	19.995	103.727	19.860	6.449	0.515
737.500	447.863	80.002	19.994	103.727	19.862	6.361	0.510
738.000	448.134	80.002	19.996	103.726	19.861	6.389	0.514
738.500	448.374	80.001	19.995	103.725	19.860	6.489	0.516
739.000	448.585	80.001	19.995	103.725	19.862	6.345	0.481
739.500	448.866	80.001	19.994	103.726	19.860	6.462	0.472
740.000	449.086	80.001	19.994	103.726	19.863	6.280	0.496
740.500	449.376	80.001	19.995	103.727	19.864	6.174	0.505
741.000	449.620	80.003	19.995	103.723	19.860	6.445	0.522
741.500	449.895	80.001	19.995	103.719	19.860	6.477	0.527
742.000	450.109	80.001	19.995	103.717	19.864	6.211	0.504
742.500	450.397	80.002	19.995	103.715	19.863	6.213	0.495
743.000	450.579	80.001	19.995	103.715	19.858	6.597	0.486
743.500	450.870	80.002	19.996	103.716	19.857	6.709	0.471
744.000	451.125	80.002	19.995	103.719	19.863	6.230	0.510
744.500	451.413	80.000	19.996	103.718	19.863	6.256	0.545
745.000	451.678	80.001	19.995	103.717	19.865	6.088	0.548
745.500	451.916	80.001	19.996	103.717	19.862	6.296	0.527
746.000	452.121	80.001	19.996	103.721	19.863	6.226	0.473
746.500	452.417	80.001	19.996	103.722	19.864	6.152	0.472
747.000	452.659	80.001	19.995	103.725	19.864	6.197	0.520
747.500	452.918	80.001	19.996	103.722	19.863	6.233	0.519
748.000	453.132	80.000	19.995	103.718	19.864	6.142	0.487
748.500	453.403	80.000	19.996	103.710	19.864	6.186	0.479
749.000	453.669	80.002	19.996	103.710	19.864	6.139	0.511
749.500	453.939	80.001	19.997	103.711	19.866	6.020	0.536
750.000	454.173	80.000	19.996	103.715	19.868	5.842	0.520
750.500	454.441	80.002	19.996	103.720	19.864	6.139	0.503
751.001	454.700	80.001	19.996	103.724	19.868	5.859	0.514
751.500	454.956	80.002	19.996	103.726	19.868	5.859	0.521
752.000	455.218	80.001	19.996	103.725	19.867	5.982	0.517
752.500	455.471	80.001	19.995	103.724	19.863	6.214	0.517
753.000	455.744	80.001	19.995	103.718	19.866	6.050	0.521
753.500	456.032	80.000	19.995	103.717	19.869	5.829	0.543
754.000	456.242	80.000	19.996	103.711	19.864	6.152	0.529
754.500	456.491	80.001	19.995	103.708	19.867	5.936	0.478
755.000	456.757	80.001	19.997	103.708	19.866	5.998	0.487
755.500	456.995	80.001	19.995	103.714	19.865	6.072	0.510
756.000	457.278	80.000	19.996	103.718	19.867	5.943	0.512
756.500	457.518	80.001	19.995	103.722	19.867	5.972	0.522
757.000	457.755	80.000	19.996	103.724	19.867	5.928	0.500
757.500	457.992	80.001	19.996	103.727	19.871	5.645	0.476
758.000	458.294	80.002	19.996	103.727	19.866	6.014	0.507
758.501	458.543	80.002	19.995	103.727	19.870	5.745	0.545
759.000	458.800	80.000	19.995	103.727	19.866	6.001	0.529
759.500	459.059	80.001	19.996	103.727	19.868	5.872	0.511
760.001	459.345	80.001	19.995	103.722	19.868	5.868	0.530
760.501	459.592	80.000	19.996	103.719	19.868	5.841	0.539
761.000	459.860	80.000	19.995	103.717	19.871	5.658	0.524
761.500	460.118	80.001	19.995	103.718	19.866	6.032	0.520
762.000	460.372	80.002	19.995	103.716	19.868	5.862	0.519
762.500	460.635	80.001	19.996	103.716	19.869	5.815	0.515
763.000	460.855	80.000	19.995	103.718	19.869	5.812	0.500
763.500	461.125	80.002	19.996	103.720	19.866	6.009	0.486
764.000	461.374	80.002	19.994	103.716	19.867	5.935	0.505
764.500	461.622	80.003	19.994	103.719	19.867	5.943	0.508
765.000	461.880	80.000	19.995	103.724	19.870	5.708	0.502
765.500	462.139	80.001	19.994	103.726	19.869	5.802	0.512
766.000	462.446	80.001	19.995	103.728	19.870	5.742	0.542
766.500	462.661	80.001	19.993	103.731	19.866	6.003	0.544
767.001	462.884	80.001	19.995	103.732	19.869	5.778	0.480
767.500	463.178	79.999	19.996	103.729	19.871	5.672	0.477
768.000	463.404	80.002	19.993	103.728	19.873	5.498	0.518
768.500	463.630	80.001	19.995	103.725	19.871	5.616	0.486
769.000	463.876	80.001	19.995	103.722	19.876	5.262	0.462
769.500	464.155	80.001	19.995	103.721	19.870	5.706	0.498
770.000	464.426	80.001	19.993	103.722	19.875	5.314	0.538
770.500	464.671	80.001	19.998	103.721	19.869	5.797	0.534
771.000	464.927	80.001	19.997	103.725	19.871	5.657	0.509
771.500	465.180	80.002	19.996	103.728	19.872	5.572	0.505
772.000	465.426	80.002	19.995	103.728	19.874	5.434	0.504
772.500	465.655	80.001	19.996	103.731	19.872	5.576	0.487
773.000	465.913	80.003	19.996	103.726	19.872	5.589	0.481
773.500	466.170	80.000	19.995	103.720	19.874	5.439	0.501
774.000	466.435	80.001	19.995	103.713	19.876	5.290	0.519
774.500	466.690	80.000	19.995	103.711	19.873	5.458	0.520
775.000	466.941	80.002	19.995	103.703	19.872	5.555	0.513
775.500	467.227	80.002	19.995	103.704	19.873	5.472	0.522
776.000	467.474	80.001	19.995	103.709	19.870	5.731	0.535
776.500	467.683	80.003	19.994	103.712	19.871	5.614	0.494
777.000	467.994	80.002	19.995	103.711	19.873	5.521	0.488
777.500	468.199	80.002	19.994	103.710	19.874	5.415	0.518
778.000	468.451	80.003	19.995	103.710	19.874	5.388	0.486
778.500	468.705	80.002	19.994	103.704	19.874	5.441	0.481
779.000	468.988	80.003	19.994	103.703	19.874	5.382	0.522
779.500	469.191	80.003	19.995	103.703	19.875	5.354	0.512
780.000	469.509	80.003	19.994	103.707	19.875	5.314	0.504
780.500	469.706	80.003	19.993	103.711	19.878	5.116	0.518
781.000	469.987	80.004	19.994	103.711	19.878	5.120	0.496
781.500	470.224	80.002	19.994	103.707	19.877	5.146	0.498
782.000	470.477	80.003	19.995	103.707	19.877	5.141	0.504
782.500	470.741	80.003	19.994	103.708	19.879	5.027	0.504
783.000	471.025	80.003	19.994	103.705	19.877	5.182	0.532
783.500	471.237	80.003	19.995	103.707	19.878	5.101	0.522
784.000	471.509	80.002	19.994	103.711	19.878	5.110	0.490
784.500	471.739	80.003	19.994	103.715	19.875	5.307	0.493
785.000	471.992	80.004	19.994	103.715	19.877	5.183	0.493
785.500	472.262	80.003	19.995	103.714	19.880	4.971	0.503
786.000	472.491	80.003	19.995	103.710	19.879	5.008	0.511
786.500	472.745	80.003	19.995	103.707	19.879	5.000	0.491
787.000	473.013	80.002	19.995	103.703	19.877	5.161	0.503
787.500	473.229	80.002	19.996	103.700	19.880	4.930	0.503
788.000	473.497	80.003	19.995	103.705	19.878	5.072	0.484
788.500	473.724	80.002	19.995	103.709	19.880	4.961	0.490
789.000	473.996	80.003	19.994	103.713	19.878	5.099	0.497
789.500	474.244	80.002	19.994	103.718	19.881	4.838	0.509
790.000	474.508	80.002	19.994	103.719	19.880	4.944	0.516
790.500	474.772	80.003	19.994	103.717	19.878	5.105	0.520
791.000	475.022	80.004	19.995	103.712	19.879	5.054	0.521
791.500	475.288	80.003	19.996	103.707	19.880	4.946	0.515
792.000	475.518	80.003	19.998	103.701	19.881	4.879	0.506
792.500	475.782	80.002	19.997	103.702	19.879	5.019	0.495
793.000	476.030	80.003	19.997	103.702	19.882	4.805	0.503
793.500	476.286	80.003	19.996	103.707	19.879	5.057	0.508
794.000	476.522	80.003	19.997	103.710	19.880	4.961	0.498
794.500	476.780	80.003	19.997	103.710	19.883	4.753	0.493
795.000	477.066	80.002	19.994	103.705	19.881	4.880	0.519
795.500	477.285	80.003	19.995	103.700	19.883	4.738	0.524
796.000	477.540	80.003	19.995	103.697	19.883	4.736	0.490
796.500	477.811	80.003	19.994	103.697	19.880	4.942	0.500
797.000	478.051	80.003	19.994	103.703	19.885	4.547	0.519
797.500	478.315	80.004	19.994	103.710	19.881	4.881	0.508
798.000	478.557	80.002	19.994	103.715	19.881	4.881	0.505
798.500	478.794	80.003	19.993	103.719	19.882	4.762	0.492
799.000	479.040	80.004	19.993	103.718	19.883	4.698	0.481
799.500	479.339	80.004	19.994	103.711	19.884	4.670	0.513
800.000	479.575	80.004	19.995	103.708	19.884	4.674	0.540
800.500	479.840	80.004	19.994	103.703	19.884	4.628	0.518
801.000	480.118	80.003	19.993	103.699	19.883	4.685	0.523
801.500	480.318	80.004	19.994	103.699	19.883	4.698	0.511
802.000	480.590	80.003	19.995	103.701	19.885	4.570	0.475
802.500	480.880	80.004	19.994	103.703	19.884	4.615	0.517
803.000	481.069	80.004	19.993	103.709	19.886	4.469	0.520
803.500	481.395	80.003	19.993	103.715	19.885	4.594	0.497
804.000	481.602	80.004	19.994	103.717	19.885	4.567	0.524
804.500	481.832	80.004	19.994	103.714	19.882	4.804	0.485
805.000	482.100	80.005	19.994	103.709	19.886	4.524	0.467
805.500	482.341	80.004	19.994	103.701	19.883	4.734	0.503
806.000	482.610	80.004	19.993	103.695	19.886	4.456	0.510
806.500	482.862	80.005	19.994	103.694	19.884	4.651	0.516
807.000	483.112	80.005	19.994	103.697	19.886	4.465	0.511
807.500	483.376	80.005	19.994	103.701	19.885	4.554	0.508
808.000	483.615	80.004	19.994	103.702	19.885	4.583	0.508
808.500	483.839	80.004	19.994	103.705	19.888	4.369	0.483
809.000	484.100	80.005	19.995	103.706	19.886	4.464	0.474
809.500	484.351	80.004	19.994	103.704	19.887	4.411	0.499
810.000	484.623	80.004	19.995	103.700	19.885	4.534	0.518
810.500	484.865	80.004	19.996	103.699	19.887	4.377	0.519
811.000	485.106	80.004	19.995	103.696	19.885	4.534	0.499
811.500	485.368	80.002	19.994	103.693	19.887	4.397	0.493
812.000	485.609	80.002	19.995	103.691	19.886	4.520	0.503
812.500	485.844	80.003	19.996	103.694	19.885	4.541	0.490
813.000	486.115	80.001	19.995	103.695	19.888	4.363	0.491
813.500	486.370	80.001	19.996	103.699	19.889	4.263	0.516
814.000	486.624	80.002	19.996	103.704	19.889	4.238	0.517
814.500	486.888	80.001	19.995	103.706	19.890	4.192	0.513
815.000	487.138	80.003	19.994	103.703	19.890	4.221	0.516
815.500	487.384	80.000	19.995	103.703	19.890	4.156	0.505
816.000	487.621	80.001	19.997	103.701	19.890	4.153	0.490
816.500	487.878	80.002	19.996	103.702	19.889	4.264	0.489
817.000	488.117	80.001	19.995	103.702	19.891	4.145	0.495
817.500	488.401	80.002	19.995	103.702	19.891	4.147	0.509
818.000	488.626	80.001	19.995	103.701	19.889	4.297	0.516
818.500	488.892	80.001	19.995	103.699	19.890	4.180	0.500
819.000	489.123	80.002	19.994	103.694	19.891	4.138	0.494
819.500	489.369	80.001	19.995	103.694	19.892	3.998	0.487
820.000	489.640	80.000	19.995	103.694	19.891	4.087	0.497
820.500	489.876	80.001	19.994	103.694	19.891	4.128	0.512
821.000	490.124	80.002	19.995	103.694	19.891	4.107	0.496
821.500	490.365	80.001	19.995	103.694	19.891	4.141	0.487
822.000	490.639	80.001	19.994	103.693	19.894	3.882	0.502
822.500	490.893	80.000	19.995	103.694	19.893	3.967	0.521
823.000	491.185	80.001	19.994	103.696	19.895	3.812	0.537
823.500	491.405	80.001	19.994	103.698	19.894	3.854	0.529
824.000	491.672	80.002	19.995	103.702	19.893	3.954	0.500
824.500	491.909	80.002	19.995	103.704	19.893	3.926	0.496
825.000	492.155	80.001	19.996	103.708	19.898	3.572	0.493
825.500	492.409	80.002	19.995	103.712	19.894	3.897	0.491
826.000	492.702	80.001	19.995	103.715	19.897	3.668	0.523
826.500	492.923	80.001	19.994	103.716	19.898	3.536	0.531
827.000	493.154	80.002	19.995	103.715	19.894	3.850	0.483
827.500	493.469	80.001	19.995	103.711	19.896	3.737	0.499
828.000	493.722	80.001	19.995	103.705	19.896	3.742	0.557
828.500	493.946	80.002	19.994	103.701	19.895	3.833	0.523
829.000	494.234	80.002	19.994	103.696	19.899	3.508	0.495
829.500	494.502	80.002	19.994	103.694	19.897	3.616	0.534
830.000	494.762	80.000	19.993	103.694	19.899	3.466	0.542
830.500	494.985	80.002	19.996	103.700	19.897	3.676	0.505
831.000	495.263	80.002	19.996	103.706	19.898	3.536	0.491
831.500	495.501	80.001	19.995	103.713	19.898	3.586	0.508
832.000	495.800	80.002	19.995	103.721	19.898	3.597	0.527
832.500	495.999	80.001	19.996	103.728	19.897	3.663	0.518
833.000	496.265	80.001	19.996	103.725	19.895	3.773	0.482
833.500	496.539	80.001	19.995	103.718	19.895	3.797	0.503
834.000	496.777	80.002	19.997	103.712	19.897	3.635	0.526
834.500	497.039	80.003	19.995	103.707	19.897	3.623	0.505
835.000	497.264	80.001	19.996	103.705	19.895	3.832	0.494
835.500	497.548	80.002	19.995	103.708	19.894	3.900	0.499
836.000	497.809	80.002	19.995	103.716	19.895	3.803	0.527
836.500	498.057	80.001	19.995	103.720	19.894	3.851	0.527
837.000	498.323	80.001	19.996	103.723	19.896	3.754	0.511
837.500	498.571	80.001	19.996	103.720	19.895	3.807	0.514
838.000	498.820	80.001	19.995	103.715	19.896	3.692	0.506
838.500	499.064	79.999	19.995	103.709	19.899	3.512	0.495
839.000	499.344	80.001	19.995	103.705	19.897	3.612	0.509
839.500	499.578	79.999	19.994	103.701	19.896	3.690	0.519
840.000	499.822	79.999	19.994	103.699	19.898	3.582	0.496
840.500	500.071	80.001	19.997	103.701	19.896	3.718	0.485
841.000	500.338	79.999	19.994	103.699	19.898	3.582	0.504
841.500	500.582	80.000	19.995	103.697	19.897	3.620	0.513
842.000	500.839	80.000	19.995	103.696	19.898	3.593	0.506
842.500	501.081	79.999	19.996	103.698	19.899	3.499	0.500
843.000	501.358	80.001	19.995	103.702	19.897	3.675	0.509
843.500	501.598	80.000	19.996	103.706	19.899	3.518	0.518
844.000	501.836	80.000	19.996	103.706	19.899	3.510	0.498
844.500	502.101	80.001	19.996	103.706	19.896	3.690	0.490
845.000	502.355	80.001	19.995	103.704	19.895	3.809	0.511
845.500	502.594	80.001	19.996	103.698	19.899	3.503	0.506
846.000	502.841	79.999	19.996	103.694	19.901	3.323	0.490
846.500	503.089	80.000	19.996	103.694	19.896	3.720	0.490
847.000	503.343	80.001	19.995	103.694	19.898	3.607	0.498
847.500	503.550	80.000	19.995	103.693	19.899	3.484	0.482
848.000	503.831	80.000	19.996	103.693	19.897	3.627	0.475
848.500	504.057	80.000	19.996	103.693	19.896	3.709	0.498
849.000	504.291	80.000	19.996	103.693	19.895	3.799	0.483
849.500	504.566	80.000	19.996	103.692	19.899	3.514	0.485
850.000	504.807	80.001	19.996	103.692	19.897	3.654	0.512
850.500	505.053	80.001	19.995	103.693	19.895	3.839	0.502
851.000	505.287	80.002	19.996	103.692	19.897	3.639	0.484
851.500	505.572	80.001	19.995	103.693	19.898	3.563	0.499
852.000	505.788	80.001	19.995	103.693	19.897	3.614	0.510
852.500	506.053	80.001	19.996	103.693	19.899	3.476	0.491
853.000	506.316	80.001	19.995	103.692	19.899	3.461	0.504
853.500	506.538	80.002	19.996	103.692	19.898	3.542	0.507
854.000	506.800	80.000	19.995	103.691	19.899	3.468	0.485
854.500	507.062	80.002	19.995	103.691	19.904	3.094	0.504
855.000	507.308	80.001	19.996	103.690	19.900	3.389	0.515
855.500	507.556	80.002	19.995	103.690	19.901	3.372	0.500
856.000	507.776	80.002	19.994	103.690	19.900	3.400	0.481
856.500	508.048	80.002	19.994	103.690	19.903	3.154	0.480
857.000	508.313	80.003	19.995	103.690	19.902	3.254	0.515
857.500	508.526	80.003	19.995	103.691	19.902	3.237	0.508
858.000	508.760	80.002	19.993	103.691	19.901	3.368	0.463
858.500	509.038	80.002	19.994	103.692	19.906	2.993	0.480
859.000	509.272	80.004	19.995	103.694	19.901	3.351	0.512
859.500	509.515	80.003	19.994	103.694	19.902	3.272	0.495
860.000	509.786	80.004	19.994	103.696	19.904	3.137	0.495
860.500	510.045	80.003	19.994	103.696	19.902	3.279	0.522
861.000	510.249	80.003	19.995	103.696	19.902	3.272	0.497
861.500	510.513	80.003	19.993	103.694	19.901	3.332	0.465
862.000	510.798	80.003	19.994	103.693	19.903	3.177	0.509
862.500	510.983	80.003	19.995	103.690	19.902	3.262	0.510
863.000	511.228	80.004	19.994	103.690	19.902	3.279	0.450
863.500	511.480	80.004	19.994	103.690	19.903	3.196	0.463
864.000	511.711	80.004	19.995	103.691	19.902	3.277	0.490
864.500	511.955	80.003	19.994	103.694	19.905	3.016	0.479
865.000	512.222	80.003	19.996	103.698	19.902	3.236	0.493
865.500	512.451	80.004	19.994	103.698	19.905	3.071	0.503
866.000	512.688	80.002	19.994	103.698	19.904	3.090	0.481
866.500	512.985	80.002	19.995	103.700	19.905	3.073	0.500
867.000	513.205	80.004	19.994	103.699	19.904	3.107	0.525
867.500	513.413	80.003	19.995	103.698	19.904	3.094	0.472
868.000	513.717	80.003	19.995	103.701	19.904	3.147	0.470
868.500	513.944	80.003	19.993	103.702	19.903	3.162	0.522
869.000	514.201	80.003	19.995	103.699	19.905	3.005	0.508
869.500	514.468	80.003	19.995	103.698	19.906	2.995	0.504
870.000	514.720	80.003	19.994	103.694	19.906	2.976	0.521
870.500	514.994	80.002	19.995	103.691	19.905	3.050	0.523
871.000	515.224	80.002	19.994	103.689	19.906	2.995	0.515
871.500	515.491	80.001	19.994	103.689	19.903	3.162	0.500
872.000	515.728	80.002	19.996	103.693	19.904	3.084	0.500
872.500	515.990	80.002	19.995	103.700	19.906	2.944	0.502
873.000	516.231	80.003	19.995	103.705	19.904	3.101	0.501
873.500	516.499	80.003	19.996	103.709	19.907	2.906	0.507
874.000	516.736	80.003	19.995	103.708	19.907	2.901	0.508
874.500	516.977	80.004	19.995	103.705	19.906	2.984	0.492
875.001	517.258	80.003	19.995	103.699	19.905	3.001	0.500
875.500	517.490	80.002	19.996	103.695	19.903	3.201	0.517
876.000	517.733	80.004	19.994	103.692	19.907	2.893	0.494
876.500	517.997	80.002	19.994	103.693	19.905	3.063	0.491
877.000	518.251	80.003	19.995	103.695	19.904	3.147	0.513
877.500	518.484	80.003	19.995	103.694	19.905	3.056	0.502
878.000	518.746	80.003	19.995	103.697	19.903	3.160	0.491
878.500	518.988	80.003	19.994	103.700	19.902	3.270	0.500
879.000	519.293	80.004	19.995	103.699	19.904	3.105	0.526
879.500	519.520	80.003	19.994	103.698	19.904	3.077	0.539
880.000	519.763	80.004	19.995	103.699	19.904	3.101	0.501
880.500	520.012	80.004	19.994	103.696	19.904	3.120	0.481
881.000	520.251	80.004	19.995	103.693	19.903	3.173	0.489
881.500	520.492	80.004	19.995	103.693	19.906	2.999	0.484
882.000	520.765	80.005	19.995	103.693	19.907	2.895	0.497
882.500	521.024	80.004	19.994	103.693	19.905	3.054	0.523
883.000	521.264	80.004	19.994	103.692	19.905	3.073	0.516
883.500	521.497	80.004	19.993	103.693	19.905	3.007	0.486
884.000	521.722	80.004	19.994	103.692	19.904	3.092	0.466
884.500	521.990	80.003	19.994	103.693	19.905	3.031	0.475
885.000	522.244	80.004	19.995	103.696	19.909	2.734	0.507
885.500	522.500	80.004	19.994	103.699	19.906	2.991	0.517
886.000	522.741	80.005	19.994	103.700	19.906	2.997	0.504
886.500	522.983	80.004	19.994	103.703	19.906	2.929	0.490
887.000	523.243	80.003	19.994	103.702	19.904	3.148	0.492
887.500	523.515	80.004	19.994	103.699	19.908	2.781	0.517
888.000	523.776	80.005	19.994	103.697	19.905	3.027	0.532
888.500	523.979	80.004	19.994	103.696	19.906	2.931	0.498
889.000	524.267	80.004	19.994	103.693	19.906	2.963	0.477
889.500	524.509	80.004	19.994	103.693	19.907	2.897	0.510
890.000	524.733	80.003	19.993	103.693	19.907	2.891	0.498
890.500	525.040	80.003	19.997	103.696	19.904	3.082	0.498
891.000	525.234	80.003	19.995	103.700	19.905	3.020	0.516
891.500	525.484	80.002	19.994	103.702	19.906	2.970	0.473
892.000	525.726	80.002	19.994	103.704	19.905	3.071	0.468
892.500	525.994	80.002	19.994	103.703	19.906	2.948	0.501
893.000	526.236	80.003	19.994	103.700	19.906	2.927	0.510
893.500	526.470	80.001	19.994	103.696	19.904	3.116	0.493
894.000	526.719	80.003	19.994	103.695	19.906	2.925	0.479
894.500	526.994	80.002	19.994	103.696	19.905	3.016	0.503
895.000	527.238	80.002	19.994	103.698	19.906	2.986	0.522
895.500	527.461	80.001	19.993	103.699	19.903	3.156	0.493
896.000	527.743	80.001	19.993	103.702	19.903	3.175	0.485
896.500	527.997	80.001	19.993	103.701	19.905	3.012	0.520
897.000	528.250	80.000	19.995	103.699	19.902	3.275	0.522
897.500	528.481	80.001	19.993	103.697	19.907	2.859	0.495
898.000	528.729	80.000	19.994	103.700	19.903	3.165	0.481
898.500	529.002	80.002	19.994	103.699	19.904	3.090	0.500
899.000	529.280	80.000	19.994	103.699	19.905	3.052	0.536
899.500	529.520	80.002	19.994	103.699	19.906	2.925	0.534
900.000	529.789	80.001	19.993	103.698	19.907	2.874	0.514
900.500	529.972	80.000	19.994	103.695	19.905	3.005	0.481
901.000	530.238	80.002	19.994	103.696	19.907	2.876	0.451
901.500	530.530	80.001	19.996	103.700	19.906	2.939	0.503
902.000	530.778	80.000	19.994	103.702	19.908	2.831	0.549
902.500	531.039	80.001	19.995	103.706	19.905	3.009	0.524
903.000	531.266	80.002	19.995	103.706	19.905	3.029	0.499
903.500	531.504	80.001	19.994	103.708	19.905	3.027	0.477
904.000	531.783	80.001	19.994	103.709	19.906	2.959	0.491
904.500	532.040	80.000	19.994	103.707	19.906	2.956	0.527
905.000	532.229	80.000	19.994	103.703	19.906	2.999	0.491
905.500	532.535	80.001	19.994	103.703	19.907	2.895	0.470
906.000	532.775	80.001	19.994	103.701	19.906	2.999	0.520
906.500	533.053	80.001	19.995	103.697	19.905	3.052	0.531
907.000	533.279	80.000	19.994	103.701	19.907	2.867	0.511
907.500	533.552	80.000	19.994	103.704	19.908	2.791	0.502
908.000	533.792	80.000	19.993	103.704	19.910	2.691	0.506
908.500	534.068	80.001	19.994	103.704	19.907	2.846	0.514
909.000	534.298	80.001	19.994	103.702	19.907	2.884	0.511
909.500	534.567	80.002	19.994	103.697	19.905	3.003	0.503
910.000	534.819	80.000	19.994	103.694	19.907	2.888	0.510
910.500	535.065	80.001	19.995	103.694	19.905	3.050	0.509
911.000	535.332	80.000	19.995	103.694	19.908	2.840	0.505
911.500	535.570	80.001	19.994	103.694	19.907	2.872	0.509
912.000	535.827	80.001	19.995	103.693	19.904	3.118	0.500
912.500	536.074	80.001	19.994	103.693	19.908	2.832	0.500
913.000	536.374	80.001	19.995	103.695	19.905	3.044	0.526
913.500	536.631	80.000	19.994	103.695	19.906	2.942	0.552
914.000	536.868	80.002	19.996	103.695	19.906	2.963	0.525
914.500	537.135	80.001	19.995	103.697	19.908	2.840	0.499
915.000	537.391	80.001	19.995	103.696	19.906	2.995	0.514
915.500	537.624	80.001	19.995	103.693	19.908	2.804	0.506
916.000	537.878	80.002	19.994	103.694	19.904	3.114	0.487
916.500	538.127	80.002	19.995	103.694	19.904	3.122	0.495
917.000	538.400	80.002	19.994	103.691	19.904	3.107	0.513
917.500	538.640	80.001	19.995	103.691	19.904	3.095	0.518
918.000	538.933	80.001	19.994	103.694	19.904	3.097	0.523
918.500	539.166	80.001	19.993	103.697	19.908	2.825	0.530
919.000	539.412	80.002	19.994	103.697	19.905	3.056	0.503
919.500	539.648	80.001	19.994	103.697	19.905	3.033	0.481
920.000	539.904	80.001	19.993	103.697	19.906	2.969	0.487
920.500	540.160	80.000	19.994	103.694	19.906	2.973	0.502
921.000	540.397	80.002	19.994	103.688	19.902	3.232	0.502
921.500	540.688	80.002	19.995	103.689	19.907	2.920	0.511
922.000	540.930	80.001	19.994	103.691	19.905	3.071	0.531
922.500	541.180	80.002	19.994	103.694	19.905	3.014	0.512
923.000	541.424	80.001	19.994	103.697	19.907	2.888	0.493
923.500	541.678	80.003	19.993	103.703	19.906	2.927	0.496
924.001	541.938	80.001	19.994	103.704	19.906	2.963	0.506
924.501	542.204	80.001	19.995	103.702	19.906	2.939	0.520
925.000	542.477	80.001	19.995	103.703	19.906	2.973	0.532
925.500	542.726	80.001	19.995	103.702	19.906	2.970	0.530
926.000	542.974	80.000	19.995	103.698	19.907	2.895	0.510
926.500	543.226	80.001	19.995	103.698	19.905	3.044	0.499
927.000	543.461	80.001	19.996	103.706	19.906	2.931	0.493
927.500	543.759	80.000	19.994	103.708	19.904	3.129	0.510
928.000	543.988	80.000	19.994	103.707	19.906	2.994	0.530
928.500	544.213	80.001	19.994	103.706	19.909	2.697	0.491
929.000	544.477	80.002	19.995	103.704	19.907	2.922	0.472
929.500	544.745	80.000	19.995	103.697	19.905	3.050	0.510
930.000	544.993	80.000	19.995	103.692	19.905	3.069	0.524
930.500	545.214	80.000	19.995	103.692	19.907	2.912	0.492
931.000	545.516	80.000	19.995	103.692	19.905	3.063	0.496
931.500	545.747	80.000	19.995	103.692	19.908	2.840	0.528
932.000	546.028	80.001	19.995	103.691	19.906	2.952	0.523
932.500	546.282	80.001	19.995	103.691	19.907	2.897	0.524
933.000	546.532	80.000	19.994	103.690	19.907	2.905	0.519
933.500	546.787	80.001	19.996	103.691	19.907	2.867	0.504
934.000	547.045	80.001	19.996	103.691	19.902	3.296	0.509
934.500	547.312	80.002	19.995	103.691	19.900	3.391	0.519
935.000	547.557	80.002	19.996	103.691	19.901	3.328	0.519
935.500	547.811	80.002	19.995	103.691	19.904	3.149	0.506
936.000	548.086	80.002	19.995	103.683	19.903	3.192	0.514
936.500	548.348	80.002	19.995	103.652	19.903	3.203	0.533
937.000	548.573	80.002	19.996	103.635	19.905	3.067	0.512
937.500	548.821	80.001	19.995	103.629	19.905	3.069	0.480
938.000	549.117	80.002	19.996	103.628	19.904	3.127	0.509
938.500	549.341	80.002	19.995	103.636	19.906	2.991	0.531
939.000	549.636	80.001	19.996	103.673	19.907	2.885	0.520
939.500	549.880	80.002	19.994	103.731	19.907	2.878	0.530
940.000	550.116	80.003	19.996	103.757	19.906	2.961	0.510
940.500	550.395	80.002	19.995	103.765	19.906	2.995	0.497
941.000	550.662	80.003	19.996	103.764	19.907	2.908	0.531
941.500	550.912	80.003	19.996	103.758	19.905	3.056	0.531
942.000	551.159	80.003	19.995	103.716	19.907	2.910	0.507
942.500	551.414	80.003	19.994	103.697	19.906	2.997	0.500
943.000	551.716	80.003	19.995	103.689	19.903	3.169	0.530
943.500	551.936	80.002	19.995	103.689	19.907	2.893	0.540
944.000	552.187	80.004	19.995	103.690	19.906	2.993	0.497
944.500	552.465	80.003	19.995	103.691	19.906	2.950	0.500
945.000	552.722	80.002	19.994	103.691	19.903	3.188	0.532
945.500	553.012	80.003	19.994	103.693	19.906	2.965	0.541
946.000	553.232	80.002	19.994	103.694	19.905	3.065	0.529
946.500	553.542	80.003	19.994	103.695	19.905	3.041	0.520
947.000	553.792	80.003	19.994	103.702	19.908	2.833	0.545
947.500	554.047	80.002	19.994	103.706	19.907	2.923	0.532
948.000	554.295	80.003	19.994	103.710	19.907	2.923	0.504
948.500	554.578	80.002	19.994	103.711	19.905	3.044	0.517
949.000	554.808	80.002	19.994	103.710	19.906	2.999	0.522
949.500	555.093	80.002	19.994	103.703	19.907	2.878	0.514
950.000	555.374	80.001	19.992	103.702	19.908	2.797	0.541
950.500	555.611	80.003	19.995	103.700	19.902	3.255	0.542
951.000	555.914	80.003	19.995	103.705	19.903	3.194	0.529
951.500	556.173	80.001	19.995	103.706	19.908	2.804	0.551
952.000	556.453	80.002	19.996	103.707	19.907	2.850	0.550
952.500	556.655	80.002	19.994	103.705	19.907	2.910	0.510
953.000	556.964	80.003	19.994	103.702	19.906	2.942	0.496
953.500	557.194	80.003	19.993	103.697	19.907	2.916	0.525
954.000	557.445	80.002	19.995	103.697	19.905	3.033	0.510
954.500	557.716	80.002	19.993	103.696	19.908	2.842	0.502
955.000	557.981	80.002	19.993	103.695	19.907	2.899	0.529
955.500	558.248	80.002	19.993	103.695	19.907	2.916	0.534
956.000	558.493	80.004	19.994	103.693	19.907	2.891	0.522
956.500	558.780	80.001	19.994	103.693	19.907	2.908	0.522
957.000	559.018	80.002	19.994	103.693	19.906	2.942	0.529
957.500	559.275	80.002	19.994	103.693	19.908	2.817	0.510
958.000	559.555	80.003	19.994	103.694	19.908	2.823	0.516
958.500	559.830	80.003	19.994	103.698	19.908	2.804	0.546
959.000	560.078	80.002	19.995	103.698	19.907	2.884	0.539
959.500	560.349	80.003	19.994	103.698	19.906	2.940	0.521
960.000	560.598	80.003	19.995	103.697	19.905	3.046	0.519
960.500	560.876	80.003	19.994	103.697	19.907	2.878	0.523
961.000	561.162	80.004	19.993	103.692	19.905	3.035	0.546
961.500	561.404	80.003	19.994	103.692	19.905	3.031	0.546
962.000	561.675	80.004	19.994	103.692	19.904	3.118	0.520
962.500	561.931	80.003	19.993	103.695	19.904	3.080	0.520
963.000	562.208	80.003	19.993	103.695	19.905	3.067	0.530
963.500	562.469	80.003	19.994	103.696	19.904	3.124	0.536
964.000	562.739	80.004	19.994	103.696	19.906	2.925	0.535
964.500	562.984	80.004	19.993	103.696	19.907	2.918	0.523
965.000	563.221	80.003	19.994	103.694	19.905	3.029	0.498
965.500	563.497	80.005	19.993	103.695	19.906	2.969	0.497
966.000	563.792	80.004	19.993	103.695	19.906	2.997	0.542
966.500	564.062	80.005	19.993	103.695	19.906	2.950	0.568
967.001	564.292	80.004	19.995	103.697	19.905	3.011	0.532
967.500	564.544	80.004	19.994	103.697	19.907	2.852	0.491
968.000	564.839	80.004	19.994	103.696	19.907	2.852	0.515
968.500	565.058	80.004	19.995	103.697	19.907	2.914	0.530
969.000	565.352	80.005	19.993	103.697	19.905	3.016	0.513
969.500	565.582	80.002	19.993	103.696	19.906	2.927	0.518
970.000	565.870	80.003	19.993	103.695	19.906	2.925	0.521
970.500	566.149	80.003	19.994	103.695	19.905	3.011	0.543
971.001	566.381	80.003	19.993	103.695	19.906	2.961	0.539
971.500	566.664	80.003	19.994	103.694	19.906	2.984	0.513
972.000	566.907	80.002	19.993	103.695	19.904	3.077	0.521
972.500	567.163	80.002	19.993	103.696	19.904	3.122	0.513
973.000	567.387	80.004	19.994	103.699	19.907	2.912	0.490
973.500	567.681	80.003	19.994	103.698	19.907	2.887	0.499
974.000	567.937	80.001	19.995	103.699	19.908	2.797	0.533
974.500	568.194	80.002	19.994	103.697	19.907	2.903	0.531
975.000	568.459	80.002	19.994	103.696	19.905	3.060	0.518
975.500	568.724	80.002	19.995	103.693	19.905	3.016	0.526
976.000	568.960	80.004	19.994	103.692	19.906	2.980	0.515
976.500	569.199	80.001	19.994	103.692	19.903	3.177	0.488
977.000	569.478	80.002	19.993	103.692	19.905	3.039	0.497
977.500	569.696	80.001	19.993	103.691	19.908	2.795	0.508
978.000	570.021	80.002	19.993	103.690	19.904	3.094	0.520
978.500	570.234	80.002	19.993	103.691	19.904	3.081	0.541
979.000	570.489	80.001	19.994	103.691	19.905	3.060	0.503
979.500	570.748	80.001	19.995	103.691	19.906	2.982	0.491
980.000	571.020	80.004	19.994	103.690	19.904	3.081	0.522
980.500	571.283	80.002	19.993	103.690	19.905	3.058	0.533
981.000	571.532	80.002	19.994	103.690	19.907	2.895	0.523
981.500	571.784	80.002	19.993	103.689	19.905	3.069	0.506
982.000	572.023	80.003	19.994	103.689	19.907	2.884	0.496
982.500	572.280	80.002	19.995	103.696	19.903	3.213	0.493
983.000	572.572	80.003	19.994	103.697	19.903	3.156	0.523
983.500	572.795	80.003	19.995	103.697	19.903	3.162	0.532
984.000	573.055	80.002	19.995	103.697	19.904	3.092	0.499
984.500	573.314	80.002	19.994	103.697	19.906	2.984	0.501
985.000	573.569	80.002	19.995	103.691	19.905	3.043	0.516
985.500	573.860	80.003	19.994	103.691	19.907	2.872	0.530
986.000	574.095	80.003	19.994	103.691	19.903	3.198	0.536
986.500	574.330	80.002	19.994	103.691	19.907	2.906	0.498
987.000	574.638	80.002	19.993	103.691	19.905	3.010	0.506
987.500	574.896	80.001	19.994	103.691	19.908	2.810	0.555
988.000	575.135	80.003	19.994	103.691	19.906	2.995	0.532
988.500	575.370	80.002	19.994	103.691	19.909	2.768	0.485
989.000	575.623	80.003	19.994	103.690	19.905	3.027	0.481
989.500	575.910	80.002	19.994	103.690	19.903	3.162	0.514
990.000	576.139	80.002	19.993	103.689	19.906	2.988	0.529
990.500	576.381	80.002	19.994	103.689	19.904	3.096	0.494
991.000	576.640	80.002	19.994	103.689	19.909	2.755	0.486
991.500	576.852	80.002	19.994	103.690	19.904	3.130	0.486
992.000	577.136	80.003	19.995	103.691	19.907	2.878	0.483
992.500	577.343	80.002	19.994	103.695	19.907	2.899	0.493
993.000	577.602	80.002	19.995	103.697	19.905	3.018	0.478
993.500	577.845	80.002	19.994	103.697	19.905	3.022	0.484
994.000	578.099	80.002	19.995	103.697	19.906	2.954	0.500
994.500	578.315	80.002	19.995	103.697	19.907	2.863	0.484
995.000	578.580	80.002	19.995	103.694	19.906	2.980	0.476
995.500	578.870	80.002	19.996	103.692	19.906	2.982	0.518
996.000	579.125	80.002	19.995	103.692	19.902	3.273	0.550
996.500	579.354	80.003	19.995	103.692	19.907	2.919	0.514
997.000	579.563	80.002	19.995	103.693	19.904	3.099	0.461
997.500	579.846	80.002	19.995	103.694	19.904	3.124	0.465
998.000	580.065	80.002	19.994	103.698	19.902	3.234	0.497
998.500	580.301	80.003	19.994	103.700	19.907	2.882	0.479
999.000	580.591	80.002	19.994	103.703	19.905	3.026	0.491
999.500	580.849	80.002	19.995	103.702	19.902	3.266	0.537
1000.000	581.062	80.002	19.995	103.702	19.906	2.972	0.509
1000.500	581.335	80.001	19.995	103.698	19.905	3.042	0.478
1001.000	581.558	80.003	19.995	103.695	19.908	2.836	0.491
1001.500	581.812	80.003	19.995	103.693	19.904	3.131	0.486
1002.000	582.038	80.002	19.995	103.692	19.911	2.573	0.478
1002.500	582.312	79.999	19.995	103.694	19.908	2.785	0.490
1003.000	582.566	80.001	19.994	103.694	19.909	2.752	0.514
1003.500	582.787	80.001	19.996	103.698	19.909	2.762	0.501
1004.000	583.054	80.003	19.995	103.699	19.903	3.167	0.481
1004.500	583.314	80.001	19.995	103.699	19.904	3.131	0.508
1005.000	583.552	80.002	19.995	103.697	19.903	3.226	0.513
1005.500	583.786	80.001	19.995	103.697	19.903	3.180	0.485
1006.000	584.091	80.001	19.995	103.694	19.905	3.004	0.505
1006.500	584.346	80.001	19.995	103.699	19.908	2.821	0.549
1007.000	584.571	80.002	19.995	103.699	19.904	3.095	0.520
1007.500	584.863	80.001	19.994	103.703	19.906	2.957	0.499
1008.000	585.099	80.001	19.994	103.704	19.906	2.968	0.523
1008.500	585.395	80.002	19.994	103.705	19.904	3.152	0.530
1009.000	585.629	80.001	19.996	103.699	19.904	3.078	0.531
1009.500	585.914	80.000	19.995	103.699	19.904	3.080	0.524
1010.000	586.136	79.999	19.994	103.696	19.905	3.057	0.513
1010.500	586.426	80.000	19.996	103.696	19.903	3.165	0.510
1011.000	586.677	80.001	19.996	103.702	19.903	3.222	0.527
1011.500	586.904	80.000	19.996	103.706	19.905	3.027	0.510
1012.000	587.176	80.002	19.996	103.712	19.901	3.322	0.488
1012.500	587.432	80.001	19.996	103.719	19.905	3.003	0.513
1013.000	587.705	80.003	19.995	103.726	19.907	2.846	0.528
1013.500	587.976	80.001	19.995	103.724	19.904	3.105	0.537
1014.000	588.215	80.001	19.995	103.727	19.905	3.052	0.527
1014.500	588.502	80.003	19.996	103.729	19.904	3.116	0.518
1015.000	588.760	80.003	19.997	103.727	19.906	2.991	0.536
1015.500	589.015	80.002	19.996	103.720	19.907	2.885	0.529
1016.000	589.318	80.002	19.994	103.715	19.906	2.991	0.536
1016.500	589.584	80.002	19.995	103.712	19.903	3.190	0.564
1017.000	589.811	80.002	19.996	103.711	19.902	3.268	0.531
1017.500	590.105	80.002	19.995	103.711	19.906	2.931	0.507
1018.000	590.351	80.000	19.995	103.718	19.906	2.997	0.531
1018.500	590.639	80.003	19.994	103.723	19.905	3.071	0.537
1019.000	590.896	80.003	19.995	103.726	19.905	3.069	0.540
1019.500	591.173	80.003	19.994	103.720	19.904	3.101	0.540
1020.000	591.453	80.003	19.994	103.717	19.907	2.915	0.546
1020.500	591.735	80.003	19.995	103.714	19.904	3.141	0.560
1021.000	592.004	80.003	19.994	103.712	19.904	3.127	0.557
1021.500	592.278	80.003	19.995	103.710	19.904	3.118	0.547
1022.000	592.529	80.004	19.995	103.713	19.905	3.043	0.534
1022.500	592.838	80.003	19.995	103.713	19.905	3.024	0.543
1023.000	593.086	80.003	19.994	103.708	19.905	3.065	0.559
1023.500	593.384	80.002	19.994	103.703	19.902	3.266	0.551
1024.001	593.675	80.004	19.996	103.697	19.905	3.043	0.567
1024.500	593.890	80.004	19.995	103.693	19.907	2.895	0.548
1025.000	594.202	80.004	19.994	103.696	19.904	3.107	0.517
1025.500	594.491	80.003	19.995	103.701	19.905	3.067	0.564
1026.001	594.792	80.002	19.995	103.704	19.905	3.023	0.595
1026.501	595.036	80.003	19.996	103.708	19.906	2.949	0.567
1027.000	595.323	80.003	19.995	103.708	19.906	2.959	0.538
1027.500	595.600	80.002	19.995	103.704	19.904	3.125	0.548
1028.000	595.838	80.002	19.994	103.700	19.908	2.811	0.539
1028.500	596.097	80.001	19.995	103.697	19.906	2.989	0.506
1029.000	596.417	80.001	19.996	103.694	19.902	3.303	0.538
1029.500	596.687	80.002	19.995	103.698	19.906	2.976	0.584
1030.000	596.980	80.002	19.995	103.705	19.903	3.216	0.577
1030.500	597.209	80.002	19.994	103.711	19.906	2.940	0.543
1031.001	597.477	80.002	19.996	103.712	19.907	2.880	0.509
1031.501	597.783	80.002	19.995	103.711	19.905	3.046	0.535
1032.001	598.062	80.002	19.995	103.707	19.905	3.037	0.580
1032.501	598.325	80.003	19.996	103.700	19.906	2.958	0.563
1033.001	598.598	80.002	19.995	103.695	19.908	2.835	0.539
1033.501	598.872	80.002	19.995	103.694	19.908	2.782	0.542
1034.000	599.156	80.001	19.994	103.695	19.906	2.967	0.553
1034.500	599.481	80.001	19.995	103.694	19.908	2.802	0.584
1035.000	599.720	80.002	19.995	103.696	19.908	2.797	0.587
1035.500	599.975	80.002	19.995	103.700	19.907	2.849	0.529
1036.000	600.241	80.003	19.994	103.707	19.906	2.993	0.507
1036.500	600.532	80.001	19.995	103.711	19.904	3.084	0.539
1037.000	600.803	80.002	19.995	103.719	19.908	2.785	0.560
1037.500	601.105	80.002	19.995	103.722	19.907	2.880	0.567
1038.000	601.369	80.002	19.994	103.718	19.905	3.014	0.569
1038.500	601.645	80.003	19.995	103.717	19.906	2.965	0.553
1039.000	601.897	80.003	19.994	103.715	19.906	2.941	0.534
1039.500	602.165	80.002	19.993	103.708	19.909	2.759	0.524
1040.000	602.474	80.003	19.994	103.706	19.909	2.764	0.548
1040.500	602.737	80.002	19.993	103.709	19.909	2.757	0.574
1041.000	603.011	80.003	19.994	103.704	19.906	2.950	0.554
1041.500	603.296	80.005	19.994	103.702	19.905	3.050	0.548
1042.000	603.525	80.004	19.993	103.700	19.909	2.725	0.536
1042.500	603.832	80.005	19.993	103.697	19.902	3.236	0.525
1043.000	604.083	80.005	19.993	103.692	19.904	3.088	0.547
1043.500	604.343	80.005	19.994	103.691	19.909	2.736	0.534
1044.000	604.628	80.004	19.994	103.692	19.907	2.861	0.528
1044.500	604.919	80.005	19.994	103.692	19.906	2.980	0.561
1045.000	605.167	80.005	19.994	103.693	19.906	2.990	0.558
1045.500	605.442	80.003	19.994	103.693	19.905	3.001	0.531
1046.000	605.728	80.004	19.994	103.697	19.905	3.067	0.542
1046.501	605.987	80.004	19.994	103.702	19.906	2.974	0.553
1047.001	606.296	80.004	19.994	103.703	19.903	3.228	0.556
1047.500	606.531	80.005	19.994	103.702	19.905	3.022	0.556
1048.000	606.837	80.006	19.994	103.702	19.907	2.882	0.542
1048.501	607.080	80.003	19.994	103.697	19.904	3.079	0.545
1049.001	607.376	80.005	19.994	103.691	19.906	2.929	0.544
1049.500	607.650	80.004	19.993	103.689	19.907	2.906	0.555
1050.001	607.908	80.004	19.995	103.689	19.906	2.984	0.551
1050.501	608.170	80.005	19.995	103.691	19.904	3.084	0.526
1051.001	608.431	80.004	19.995	103.696	19.902	3.241	0.521
1051.501	608.729	80.004	19.994	103.699	19.904	3.145	0.541
1052.000	609.002	80.003	19.996	103.700	19.906	2.954	0.565
1052.500	609.289	80.002	19.995	103.700	19.906	2.952	0.566
1053.000	609.514	80.003	19.995	103.699	19.906	2.982	0.536
1053.500	609.812	80.003	19.994	103.696	19.905	3.060	0.517
1054.000	610.057	80.003	19.996	103.692	19.906	2.961	0.533
1054.500	610.311	80.002	19.995	103.691	19.905	3.010	0.521
1055.000	610.602	80.001	19.994	103.691	19.907	2.918	0.522
1055.500	610.842	80.001	19.995	103.691	19.904	3.082	0.538
1056.000	611.125	80.001	19.994	103.691	19.906	2.952	0.527
1056.500	611.387	80.002	19.994	103.693	19.903	3.201	0.534
1057.001	611.663	80.002	19.995	103.699	19.906	2.961	0.541
1057.501	611.936	80.001	19.995	103.702	19.907	2.851	0.543
1058.001	612.191	80.002	19.994	103.702	19.907	2.872	0.539
1058.500	612.473	80.002	19.995	103.701	19.905	3.067	0.533
1059.000	612.716	80.001	19.993	103.700	19.907	2.906	0.531
1059.500	612.990	80.001	19.995	103.695	19.907	2.910	0.521
1060.000	613.281	80.002	19.995	103.692	19.906	2.989	0.541
1060.500	613.486	80.000	19.994	103.694	19.904	3.084	0.531
1061.000	613.777	80.002	19.994	103.695	19.904	3.141	0.496
1061.500	614.060	80.002	19.994	103.695	19.905	3.048	0.535
1062.000	614.332	80.002	19.996	103.696	19.903	3.213	0.565
1062.500	614.590	80.003	19.994	103.696	19.900	3.455	0.543
1063.000	614.871	80.001	19.994	103.696	19.904	3.118	0.535
1063.500	615.144	80.001	19.994	103.697	19.903	3.211	0.547
1064.000	615.384	80.001	19.995	103.697	19.903	3.222	0.533
1064.500	615.662	80.002	19.994	103.697	19.903	3.169	0.516
1065.000	615.931	80.002	19.994	103.698	19.903	3.192	0.532
1065.500	616.189	80.002	19.994	103.697	19.904	3.116	0.536
1066.000	616.477	80.001	19.994	103.697	19.906	2.990	0.536
1066.500	616.697	80.003	19.994	103.700	19.903	3.173	0.527
1067.000	616.959	80.002	19.994	103.702	19.903	3.169	0.495
1067.500	617.207	80.001	19.993	103.704	19.908	2.823	0.496
1068.000	617.518	80.003	19.994	103.702	19.906	2.978	0.535
1068.500	617.771	80.001	19.993	103.700	19.905	3.063	0.561
1069.000	618.016	80.001	19.993	103.700	19.904	3.143	0.531
1069.501	618.284	80.000	19.994	103.699	19.902	3.253	0.506
1070.001	618.546	80.001	19.993	103.697	19.904	3.130	0.522
1070.501	618.808	80.002	19.996	103.703	19.903	3.219	0.527
1071.000	619.066	80.002	19.996	103.706	19.902	3.239	0.522
1071.500	619.360	80.003	19.995	103.704	19.905	3.003	0.536
1072.000	619.629	80.003	19.995	103.701	19.901	3.315	0.557
1072.500	619.864	80.001	19.995	103.701	19.905	3.067	0.534
1073.001	620.136	80.001	19.995	103.695	19.903	3.186	0.506
1073.501	620.413	80.002	19.994	103.692	19.905	3.056	0.528
1074.000	620.645	80.001	19.995	103.693	19.907	2.853	0.529
1074.500	620.923	80.002	19.995	103.695	19.907	2.855	0.510
1075.000	621.188	80.001	19.994	103.697	19.906	2.978	0.527
1075.500	621.453	80.002	19.994	103.698	19.909	2.708	0.536
1076.000	621.707	80.002	19.994	103.698	19.909	2.762	0.524
1076.500	621.942	80.001	19.994	103.698	19.909	2.713	0.504
1077.000	622.223	80.003	19.994	103.698	19.908	2.804	0.503
1077.500	622.460	80.003	19.994	103.696	19.906	2.950	0.517
1078.001	622.729	80.003	19.994	103.696	19.907	2.859	0.512
1078.501	623.005	80.000	19.994	103.696	19.907	2.865	0.525
1079.000	623.250	80.002	19.994	103.696	19.908	2.825	0.533
1079.501	623.532	80.001	19.994	103.696	19.905	3.044	0.524
1080.001	623.784	80.003	19.994	103.695	19.903	3.196	0.531
1080.501	624.039	80.001	19.994	103.695	19.902	3.230	0.521
1081.000	624.291	80.001	19.995	103.695	19.907	2.872	0.507
1081.500	624.519	80.002	19.994	103.695	19.907	2.870	0.493
1082.000	624.813	80.003	19.995	103.695	19.905	3.048	0.501
1082.500	625.053	80.002	19.995	103.695	19.902	3.264	0.528
1083.000	625.300	80.002	19.993	103.697	19.906	2.988	0.510
1083.500	625.575	80.002	19.994	103.697	19.904	3.135	0.504
1084.001	625.866	80.001	19.994	103.698	19.905	3.024	0.544
1084.501	626.091	80.001	19.994	103.698	19.905	3.058	0.541
1085.000	626.371	80.001	19.995	103.698	19.904	3.122	0.511
1085.500	626.625	80.001	19.994	103.696	19.907	2.912	0.519
1086.000	626.857	80.001	19.993	103.697	19.902	3.285	0.510
1086.500	627.181	80.000	19.994	103.701	19.904	3.146	0.521
1087.000	627.424	80.000	19.993	103.703	19.901	3.358	0.561
1087.500	627.687	80.001	19.995	103.706	19.905	3.041	0.536
1088.000	627.957	80.002	19.994	103.707	19.904	3.135	0.520
1088.500	628.220	80.001	19.996	103.707	19.905	3.056	0.534
1089.000	628.482	80.000	19.994	103.705	19.905	3.056	0.529
1089.500	628.767	80.001	19.995	103.703	19.906	2.965	0.535
1090.000	629.035	80.001	19.995	103.703	19.904	3.084	0.550
1090.500	629.267	80.001	19.995	103.708	19.903	3.171	0.527
1091.000	629.507	80.001	19.995	103.706	19.906	2.965	0.486
1091.501	629.749	80.000	19.996	103.707	19.907	2.906	0.477
1092.001	630.020	80.002	19.994	103.708	19.908	2.819	0.497
1092.500	630.307	80.001	19.994	103.705	19.905	3.005	0.535
1093.001	630.522	80.001	19.996	103.702	19.905	3.037	0.530
1093.501	630.803	80.000	19.994	103.702	19.905	3.073	0.499
1094.000	631.031	80.001	19.994	103.700	19.905	3.043	0.503
1094.500	631.296	80.000	19.994	103.699	19.905	3.075	0.501
1095.001	631.555	80.001	19.995	103.698	19.908	2.829	0.509
1095.501	631.841	80.001	19.995	103.698	19.908	2.833	0.535
1096.001	632.120	80.002	19.995	103.697	19.907	2.882	0.555
1096.500	632.338	80.001	19.995	103.701	19.906	2.959	0.531
1097.000	632.624	80.001	19.995	103.703	19.908	2.781	0.500
1097.501	632.893	80.002	19.994	103.704	19.908	2.781	0.530
1098.001	633.100	80.002	19.995	103.701	19.906	2.931	0.516
1098.500	633.358	80.003	19.994	103.701	19.908	2.802	0.470
1099.000	633.642	80.001	19.994	103.698	19.910	2.641	0.503
1099.500	633.897	80.003	19.995	103.695	19.908	2.812	0.541
1100.000	634.130	80.003	19.994	103.694	19.906	2.952	0.514
1100.500	634.431	80.002	19.993	103.694	19.906	2.946	0.511
1101.000	634.671	80.004	19.995	103.695	19.905	3.038	0.537
1101.501	634.913	80.003	19.993	103.695	19.907	2.895	0.511
1102.001	635.206	80.002	19.993	103.697	19.904	3.145	0.508
1102.500	635.486	80.003	19.994	103.697	19.900	3.380	0.554
1103.000	635.733	80.003	19.994	103.698	19.902	3.256	0.550
1103.500	636.010	80.003	19.994	103.696	19.901	3.308	0.525
1104.000	636.257	80.003	19.995	103.696	19.901	3.325	0.523
1104.500	636.456	80.004	19.994	103.695	19.902	3.296	0.485
1105.000	636.749	80.002	19.995	103.694	19.900	3.428	0.469
1105.500	637.009	80.004	19.994	103.694	19.901	3.343	0.522
1106.000	637.262	80.002	19.995	103.696	19.903	3.175	0.533
1106.500	637.465	80.003	19.994	103.696	19.900	3.456	0.485
1107.000	637.729	80.003	19.995	103.696	19.904	3.121	0.461
1107.500	637.976	80.004	19.994	103.700	19.903	3.176	0.489
1108.000	638.294	80.004	19.994	103.705	19.903	3.161	0.538
1108.500	638.548	80.002	19.994	103.704	19.901	3.339	0.568
1109.000	638.799	80.002	19.995	103.705	19.897	3.617	0.538
1109.500	639.050	80.003	19.995	103.705	19.899	3.534	0.504
1110.000	639.311	80.003	19.994	103.702	19.898	3.564	0.508
1110.500	639.582	80.002	19.995	103.696	19.899	3.462	0.522
1111.000	639.831	80.002	19.994	103.696	19.899	3.519	0.526
1111.500	640.053	80.002	19.994	103.686	19.903	3.192	0.495
1112.000	640.320	80.001	19.995	103.650	19.901	3.349	0.480
1112.500	640.547	80.002	19.995	103.631	19.900	3.385	0.492
1113.000	640.829	80.002	19.996	103.624	19.902	3.294	0.502
1113.500	641.054	80.002	19.995	103.621	19.901	3.328	0.508
1114.000	641.305	80.002	19.995	103.633	19.901	3.313	0.491
1114.500	641.554	80.002	19.995	103.681	19.902	3.256	0.487
1115.000	641.805	80.003	19.996	103.743	19.903	3.228	0.500
1115.500	642.054	80.002	19.994	103.767	19.901	3.368	0.501
1116.000	642.320	80.002	19.996	103.776	19.905	3.039	0.508
1116.500	642.575	80.002	19.995	103.781	19.905	3.076	0.518
1117.001	642.810	80.002	19.995	103.773	19.904	3.142	0.505
1117.501	643.068	80.002	19.994	103.735	19.906	2.970	0.491
1118.000	643.330	80.003	19.997	103.724	19.909	2.762	0.506
1118.500	643.586	80.003	19.996	103.717	19.904	3.129	0.519
1119.000	643.826	80.002	19.996	103.713	19.905	3.063	0.507
1119.500	644.070	80.004	19.995	103.716	19.902	3.275	0.490
1120.000	644.300	80.003	19.996	103.717	19.905	3.035	0.479
1120.500	644.578	80.002	19.995	103.717	19.907	2.855	0.491
1121.000	644.816	80.003	19.995	103.718	19.906	2.986	0.512
1121.501	645.103	80.003	19.996	103.716	19.905	3.033	0.521
1122.001	645.381	80.003	19.995	103.710	19.901	3.317	0.546
1122.501	645.584	80.003	19.995	103.704	19.905	3.056	0.523
1123.000	645.829	80.003	19.995	103.701	19.905	3.069	0.464
1123.500	646.108	80.002	19.995	103.705	19.904	3.116	0.486
1124.000	646.323	80.003	19.996	103.710	19.904	3.110	0.509
1124.500	646.619	80.004	19.995	103.709	19.901	3.332	0.503
1125.000	646.881	80.005	19.995	103.708	19.901	3.366	0.534
1125.500	647.137	80.004	19.996	103.704	19.903	3.190	0.538
1126.000	647.377	80.002	19.995	103.702	19.904	3.091	0.507
1126.500	647.620	80.005	19.994	103.700	19.900	3.392	0.490
1127.000	647.874	80.004	19.996	103.705	19.903	3.212	0.490
1127.500	648.128	80.005	19.994	103.712	19.902	3.282	0.502
1128.000	648.383	80.004	19.994	103.719	19.900	3.411	0.508
1128.500	648.629	80.005	19.994	103.717	19.901	3.373	0.505
1129.000	648.898	80.004	19.994	103.716	19.901	3.352	0.508
1129.500	649.156	80.004	19.994	103.711	19.900	3.386	0.521
1130.000	649.422	80.002	19.994	103.708	19.902	3.282	0.526
1130.500	649.665	80.004	19.996	103.702	19.903	3.174	0.517
1131.000	649.943	80.005	19.997	103.703	19.901	3.307	0.515
1131.500	650.205	80.005	19.994	103.702	19.901	3.369	0.530
1132.001	650.468	80.005	19.994	103.700	19.899	3.477	0.533
1132.501	650.728	80.003	19.994	103.698	19.898	3.579	0.524
1133.000	650.953	80.003	19.994	103.698	19.901	3.358	0.504
1133.500	651.209	80.004	19.995	103.697	19.903	3.199	0.483
1134.000	651.477	80.004	19.994	103.700	19.903	3.197	0.502
1134.500	651.730	80.002	19.995	103.704	19.901	3.325	0.522
1135.000	652.017	80.004	19.995	103.710	19.901	3.344	0.531
1135.500	652.228	80.001	19.994	103.711	19.900	3.437	0.519
1136.000	652.505	80.003	19.995	103.712	19.902	3.250	0.493
1136.500	652.742	80.003	19.995	103.710	19.902	3.280	0.501
1137.000	653.022	80.002	19.993	103.713	19.901	3.322	0.515
1137.500	653.316	80.002	19.995	103.713	19.897	3.643	0.545
1138.000	653.546	80.003	19.994	103.717	19.900	3.446	0.549
1138.500	653.800	80.002	19.995	103.720	19.900	3.439	0.504
1139.000	654.032	80.002	19.993	103.725	19.897	3.610	0.485
1139.500	654.300	80.001	19.994	103.727	19.899	3.518	0.493
1140.000	654.583	80.002	19.993	103.727	19.901	3.369	0.526
1140.500	654.806	80.001	19.993	103.729	19.898	3.583	0.528
1141.000	655.086	80.002	19.993	103.730	19.899	3.535	0.504
1141.500	655.315	80.002	19.995	103.726	19.898	3.543	0.506
1142.000	655.594	80.002	19.993	103.721	19.899	3.520	0.509
1142.500	655.884	80.002	19.995	103.720	19.899	3.502	0.538
1143.000	656.125	80.003	19.994	103.720	19.892	4.040	0.549
1143.500	656.375	80.001	19.994	103.721	19.899	3.501	0.511
1144.000	656.625	80.001	19.995	103.727	19.898	3.562	0.495
1144.500	656.900	80.001	19.995	103.731	19.897	3.617	0.513
1145.000	657.165	80.002	19.994	103.732	19.899	3.511	0.533
1145.500	657.407	80.002	19.995	103.733	19.899	3.482	0.524
1146.001	657.662	80.001	19.993	103.733	19.899	3.511	0.502
1146.501	657.911	80.001	19.994	103.732	19.896	3.691	0.500
1147.000	658.241	80.001	19.995	103.730	19.901	3.341	0.541
1147.500	658.457	80.001	19.994	103.739	19.900	3.445	0.563
1148.000	658.731	80.002	19.995	103.714	19.901	3.367	0.518
1148.501	658.990	80.003	19.994	103.687	19.896	3.734	0.511
1149.001	659.277	80.002	19.994	103.669	19.897	3.683	0.539
1149.500	659.539	80.002	19.994	103.661	19.900	3.443	0.548
1150.000	659.755	80.001	19.993	103.645	19.899	3.511	0.514
1150.500	660.027	80.001	19.995	103.672	19.899	3.502	0.483
1151.000	660.276	80.001	19.994	103.732	19.899	3.517	0.505
1151.500	660.515	80.001	19.994	103.773	19.901	3.354	0.505
1152.000	660.737	80.001	19.994	103.793	19.900	3.405	0.475
1152.501	661.045	80.001	19.994	103.800	19.899	3.486	0.495
1153.001	661.303	80.002	19.994	103.798	19.901	3.316	0.548
1153.500	661.533	80.001	19.993	103.763	19.899	3.499	0.527
1154.000	661.794	80.002	19.995	103.739	19.900	3.452	0.489
1154.500	662.056	80.001	19.994	103.732	19.901	3.357	0.507
1155.001	662.318	80.001	19.994	103.734	19.900	3.429	0.524
1155.501	662.573	80.002	19.993	103.735	19.903	3.221	0.520
1156.000	662.813	80.002	19.994	103.735	19.902	3.244	0.506
1156.500	663.071	80.001	19.994	103.731	19.900	3.433	0.496
1157.000	663.302	80.001	19.993	103.728	19.902	3.246	0.493
1157.501	663.554	80.002	19.994	103.723	19.901	3.365	0.486
1158.001	663.834	80.001	19.994	103.721	19.903	3.170	0.508
1158.500	664.111	80.001	19.994	103.720	19.902	3.282	0.544
1159.000	664.336	80.002	19.995	103.722	19.899	3.530	0.529
1159.500	664.613	80.001	19.994	103.722	19.900	3.424	0.503
1160.001	664.840	80.001	19.993	103.724	19.900	3.456	0.504
1160.501	665.106	80.001	19.993	103.722	19.900	3.416	0.498
1161.000	665.350	80.001	19.994	103.719	19.902	3.278	0.501
1161.500	665.603	80.001	19.992	103.721	19.900	3.388	0.504
1162.000	665.860	80.003	19.993	103.723	19.903	3.212	0.504
1162.500	666.089	80.000	19.993	103.723	19.900	3.392	0.498
1163.000	666.346	80.001	19.994	103.726	19.904	3.138	0.486
1163.500	666.609	80.001	19.993	103.732	19.897	3.622	0.503
1164.000	666.875	80.000	19.993	103.734	19.896	3.715	0.524
1164.500	667.113	80.000	19.993	103.736	19.901	3.363	0.516
1165.000	667.356	80.001	19.995	103.740	19.896	3.762	0.492
1165.500	667.624	80.000	19.995	103.741	19.895	3.825	0.496
1166.000	667.883	80.002	19.994	103.741	19.896	3.711	0.519
1166.500	668.137	80.002	19.993	103.741	19.898	3.571	0.520
1167.000	668.347	80.001	19.993	103.739	19.895	3.787	0.488
1167.501	668.582	80.002	19.993	103.736	19.896	3.732	0.455
1168.001	668.867	80.001	19.994	103.734	19.897	3.613	0.482
1168.500	669.116	80.002	19.993	103.734	19.895	3.779	0.527
1169.000	669.372	80.002	19.994	103.733	19.895	3.781	0.520
1169.500	669.611	80.001	19.995	103.734	19.896	3.700	0.500
1170.000	669.877	80.001	19.995	103.734	19.897	3.618	0.500
1170.500	670.203	80.001	19.993	103.738	19.897	3.671	0.548
1171.000	670.406	80.002	19.995	103.737	19.896	3.696	0.560
1171.500	670.665	80.001	19.994	103.737	19.899	3.531	0.495
1172.000	670.888	80.001	19.993	103.736	19.898	3.588	0.472
1172.500	671.134	80.002	19.994	103.735	19.894	3.868	0.476
1173.000	671.383	80.002	19.993	103.731	19.896	3.700	0.482
1173.501	671.639	80.001	19.994	103.732	19.897	3.685	0.500
1174.001	671.897	80.001	19.994	103.731	19.896	3.715	0.510
1174.500	672.175	80.001	19.994	103.731	19.895	3.838	0.525
1175.000	672.448	80.002	19.994	103.731	19.895	3.815	0.543
1175.500	672.656	80.003	19.994	103.731	19.895	3.793	0.516
1176.000	672.910	80.003	19.995	103.730	19.895	3.789	0.472
1176.500	673.133	80.001	19.994	103.731	19.893	3.989	0.469
1177.000	673.433	80.003	19.995	103.731	19.895	3.828	0.500
1177.500	673.671	80.002	19.993	103.731	19.894	3.852	0.530
1178.000	673.932	80.003	19.995	103.730	19.897	3.686	0.518
1178.500	674.184	80.003	19.995	103.730	19.896	3.732	0.506
1179.000	674.395	80.002	19.995	103.730	19.895	3.796	0.489
1179.500	674.661	80.003	19.995	103.730	19.894	3.898	0.470
1180.001	674.952	80.002	19.994	103.731	19.893	3.925	0.517
1180.501	675.202	80.003	19.994	103.738	19.895	3.813	0.549
1181.000	675.464	80.003	19.994	103.745	19.895	3.834	0.527
1181.500	675.728	80.002	19.995	103.747	19.895	3.785	0.519
1182.000	675.955	80.003	19.994	103.747	19.895	3.770	0.509
1182.500	676.277	80.002	19.993	103.746	19.892	4.059	0.520
1183.000	676.543	80.003	19.995	103.738	19.896	3.719	0.568
1183.500	676.744	80.003	19.995	103.731	19.894	3.889	0.527
1184.000	676.844	80.003	19.994	103.728	19.891	4.071	0.384
1184.500	677.263	80.003	19.994	103.729	19.894	3.857	0.410
1185.000	677.516	80.004	19.994	103.728	19.895	3.821	0.596
1185.500	677.792	80.003	19.995	103.728	19.894	3.872	0.600
1186.000	678.002	80.003	19.994	103.728	19.893	3.936	0.507
1186.500	678.281	80.004	19.994	103.731	19.896	3.751	0.487
1187.000	678.507	80.003	19.995	103.736	19.895	3.790	0.497
1187.500	678.770	80.003	19.995	103.743	19.892	4.055	0.497
1188.000	679.028	80.003	19.994	103.749	19.894	3.858	0.505
1188.500	679.306	80.002	19.995	103.754	19.891	4.091	0.529
1189.000	679.562	80.003	19.996	103.751	19.893	3.974	0.536
1189.500	679.830	80.002	19.994	103.746	19.894	3.879	0.529
1190.000	680.046	80.001	19.994	103.739	19.898	3.577	0.504
1190.500	680.327	80.001	19.996	103.734	19.880	4.918	0.491
1191.000	680.567	80.003	19.995	103.733	19.891	4.103	0.509
1191.500	680.850	80.002	19.996	103.736	19.894	3.891	0.522
1192.000	681.049	80.002	19.995	103.740	19.895	3.817	0.503
1192.500	681.324	80.003	19.995	103.742	19.894	3.859	0.478
1193.000	681.599	80.003	19.996	103.741	19.895	3.821	0.512
1193.500	681.839	80.001	19.995	103.738	19.894	3.897	0.532
1194.000	682.082	80.002	19.994	103.736	19.893	3.934	0.499
1194.500	682.321	80.003	19.995	103.733	19.891	4.125	0.482
1195.001	682.573	80.003	19.996	103.734	19.894	3.895	0.486
1195.501	682.834	80.002	19.994	103.736	19.895	3.777	0.502
1196.000	683.090	80.003	19.995	103.738	19.895	3.834	0.516
1196.501	683.348	80.002	19.994	103.738	19.898	3.609	0.516
1197.001	683.592	80.003	19.994	103.741	19.892	4.065	0.508
1197.501	683.813	80.002	19.994	103.741	19.895	3.834	0.483
1198.001	684.118	80.003	19.995	103.746	19.893	3.944	0.496
1198.501	684.376	80.001	19.994	103.749	19.893	3.982	0.545
1199.001	684.558	80.003	19.995	103.749	19.890	4.169	0.501
1199.501	684.848	80.003	19.993	103.750	19.893	3.985	0.456
1200.000	685.087	80.002	19.994	103.747	19.892	4.070	0.500
1200.500	685.338	80.003	19.994	103.740	19.893	3.947	0.509
1201.001	685.582	80.002	19.994	103.735	19.892	3.996	0.493
1201.501	685.862	80.004	19.995	103.734	19.890	4.208	0.510
1202.000	686.089	80.005	19.994	103.730	19.888	4.358	0.515
1202.500	686.356	80.004	19.994	103.729	19.890	4.180	0.500
1203.001	686.575	80.003	19.994	103.729	19.890	4.168	0.490
1203.501	686.813	80.003	19.994	103.733	19.894	3.902	0.472
1204.000	687.094	80.004	19.994	103.733	19.891	4.083	0.488
1204.500	686.972	80.003	19.993	103.733	19.892	4.049	0.339
1205.000	687.548	80.004	19.994	103.737	19.890	4.178	0.306
1205.500	687.814	80.003	19.995	103.740	19.891	4.095	0.648
1206.000	688.131	80.003	19.994	103.737	19.890	4.207	0.712
1206.500	688.331	80.002	19.996	103.737	19.888	4.375	0.550
1207.000	688.581	80.004	19.995	103.737	19.893	3.984	0.484
1207.500	688.845	80.003	19.995	103.734	19.892	4.059	0.482
1208.000	689.120	80.004	19.995	103.733	19.889	4.290	0.526
1208.500	689.316	80.005	19.995	103.732	19.888	4.364	0.505
1209.000	689.639	80.003	19.995	103.732	19.888	4.369	0.495
1209.500	689.879	80.003	19.994	103.735	19.892	4.010	0.541
1210.000	690.091	80.003	19.995	103.739	19.892	4.050	0.507
1210.500	690.382	80.003	19.994	103.744	19.891	4.080	0.477
1211.000	690.587	80.003	19.995	103.748	19.889	4.301	0.499
1211.500	690.855	80.001	19.995	103.753	19.890	4.203	0.484
1212.001	691.124	80.002	19.995	103.754	19.896	3.739	0.505
1212.501	691.348	80.001	19.995	103.753	19.893	3.942	0.515
1213.000	691.610	80.002	19.996	103.748	19.890	4.193	0.490
1213.500	691.853	80.002	19.995	103.747	19.889	4.241	0.496
1214.000	692.120	80.000	19.995	103.748	19.889	4.252	0.508
1214.500	692.356	80.001	19.995	103.750	19.889	4.280	0.506
1215.000	692.619	80.001	19.995	103.753	19.886	4.477	0.501
1215.501	692.880	80.001	19.995	103.754	19.886	4.458	0.511
1216.001	693.151	80.000	19.995	103.751	19.889	4.290	0.528
1216.501	693.370	80.001	19.995	103.743	19.891	4.084	0.511
1217.001	693.623	80.001	19.996	103.739	19.890	4.161	0.481
1217.500	693.931	80.001	19.995	103.735	19.889	4.237	0.517
1218.000	694.138	80.001	19.994	103.733	19.892	4.053	0.538
1218.500	694.378	80.000	19.994	103.737	19.893	3.989	0.481
1219.000	694.653	80.000	19.995	103.738	19.891	4.076	0.481
1219.500	694.908	80.001	19.995	103.738	19.891	4.127	0.523
1220.000	695.166	80.000	19.995	103.738	19.892	4.070	0.521
1220.500	695.417	80.002	19.995	103.738	19.885	4.579	0.511
1221.000	695.693	80.001	19.995	103.736	19.888	4.350	0.518
1221.500	695.951	80.001	19.994	103.737	19.893	3.955	0.531
1222.000	696.194	80.000	19.994	103.740	19.894	3.917	0.518
1222.500	696.478	80.002	19.994	103.740	19.890	4.199	0.514
1223.000	696.706	80.002	19.993	103.740	19.890	4.150	0.520
1223.500	697.012	80.001	19.995	103.739	19.890	4.169	0.523
1224.000	697.259	80.001	19.994	103.737	19.892	4.027	0.543
1224.500	697.537	80.000	19.993	103.736	19.891	4.106	0.539
1225.000	697.772	80.002	19.994	103.737	19.894	3.859	0.518
1225.500	698.042	80.001	19.994	103.738	19.892	4.029	0.509
1226.000	698.287	80.002	19.994	103.739	19.892	3.997	0.510
1226.500	698.592	80.002	19.994	103.740	19.893	3.940	0.533
1227.000	698.814	80.000	19.995	103.739	19.892	4.050	0.539
1227.500	699.047	80.001	19.995	103.740	19.893	3.927	0.491
1228.000	699.309	80.001	19.995	103.740	19.892	4.067	0.475
1228.500	699.552	80.001	19.994	103.740	19.889	4.235	0.500
1229.000	699.813	80.001	19.994	103.743	19.890	4.175	0.504
1229.500	700.092	80.000	19.995	103.746	19.894	3.889	0.522
1230.000	700.347	80.002	19.994	103.747	19.890	4.167	0.537
1230.501	700.617	80.003	19.995	103.749	19.892	4.063	0.530
1231.001	700.919	80.002	19.995	103.747	19.894	3.900	0.548
1231.500	701.186	80.002	19.993	103.745	19.891	4.082	0.571
1232.001	701.446	80.003	19.995	103.740	19.895	3.783	0.548
1232.501	701.720	80.003	19.994	103.740	19.895	3.789	0.530
1233.000	701.951	80.003	19.995	103.736	19.891	4.135	0.520
1233.500	702.190	80.003	19.994	103.737	19.891	4.129	0.488
1234.000	702.485	80.003	19.994	103.738	19.893	3.946	0.502
1234.500	702.746	80.002	19.993	103.738	19.895	3.806	0.545
1235.000	703.027	80.002	19.993	103.736	19.892	4.033	0.549
1235.500	703.263	80.002	19.995	103.737	19.893	3.972	0.530
1236.000	703.543	80.002	19.995	103.738	19.893	3.957	0.517
1236.500	703.825	80.002	19.994	103.739	19.891	4.127	0.539
1237.000	704.065	80.003	19.994	103.739	19.894	3.845	0.542
1237.500	704.336	80.002	19.993	103.741	19.893	3.972	0.516
1238.000	704.598	80.002	19.994	103.740	19.897	3.685	0.522
1238.500	704.863	80.003	19.994	103.737	19.898	3.543	0.530
1239.000	705.178	80.003	19.995	103.734	19.892	4.035	0.553
1239.500	705.440	80.003	19.994	103.734	19.893	3.942	0.578
1240.000	705.699	80.002	19.994	103.733	19.894	3.914	0.549
1240.500	705.944	80.001	19.995	103.738	19.896	3.764	0.513
1241.000	706.175	80.002	19.995	103.743	19.892	4.063	0.490
1241.500	706.484	80.001	19.994	103.746	19.896	3.757	0.508
1242.000	706.764	80.001	19.995	103.746	19.898	3.549	0.564
1242.500	707.002	80.003	19.995	103.745	19.895	3.838	0.553
1243.000	707.258	80.003	19.994	103.740	19.892	4.001	0.506
1243.500	707.529	80.001	19.995	103.736	19.894	3.889	0.511
1244.000	707.810	80.002	19.994	103.735	19.897	3.647	0.540
1244.500	708.054	80.002	19.995	103.734	19.896	3.719	0.538
1245.000	708.320	80.001	19.996	103.734	19.895	3.825	0.517
1245.500	708.578	80.002	19.994	103.736	19.896	3.689	0.517
1246.000	708.866	80.000	19.996	103.738	19.896	3.708	0.535
1246.501	709.140	80.000	19.995	103.744	19.901	3.307	0.554
1247.001	709.381	79.999	19.994	103.747	19.902	3.303	0.539
1247.501	709.637	80.002	19.994	103.746	19.897	3.675	0.506
1248.001	709.882	80.001	19.994	103.744	19.899	3.509	0.499
1248.501	710.177	80.001	19.996	103.740	19.903	3.187	0.520
1249.000	710.398	80.002	19.994	103.733	19.901	3.331	0.528
1249.500	710.659	80.001	19.994	103.730	19.900	3.394	0.499
1250.000	710.961	80.000	19.994	103.730	19.901	3.364	0.523
1250.500	711.195	80.002	19.996	103.730	19.897	3.644	0.549
1251.000	711.455	80.003	19.997	103.731	19.901	3.375	0.515
1251.500	711.706	80.002	19.996	103.732	19.897	3.684	0.502
1252.000	711.976	80.002	19.995	103.732	19.898	3.572	0.516
1252.500	712.223	80.001	19.996	103.732	19.899	3.466	0.519
1253.000	712.498	80.003	19.996	103.732	19.896	3.708	0.520
1253.500	712.749	80.002	19.995	103.730	19.896	3.693	0.524
1254.000	713.021	80.003	19.994	103.727	19.897	3.653	0.524
1254.500	713.264	80.002	19.995	103.725	19.897	3.659	0.519
1255.000	713.506	80.001	19.994	103.722	19.894	3.897	0.500
1255.500	713.777	80.005	19.995	103.722	19.897	3.670	0.499
1256.000	714.024	80.004	19.994	103.723	19.895	3.811	0.516
1256.500	714.308	80.003	19.996	103.724	19.897	3.612	0.524
1257.000	714.577	80.004	19.994	103.726	19.898	3.557	0.542
1257.500	714.821	80.003	19.993	103.728	19.894	3.847	0.534
1258.000	715.072	80.003	19.995	103.728	19.897	3.635	0.504
1258.500	715.336	80.005	19.994	103.729	19.899	3.521	0.505
1259.000	715.578	80.004	19.994	103.729	19.898	3.572	0.510
1259.500	715.863	80.004	19.994	103.727	19.896	3.703	0.516
1260.000	716.105	80.004	19.995	103.724	19.899	3.480	0.527
1260.500	716.427	80.004	19.995	103.719	19.894	3.883	0.546
1261.000	716.663	80.006	19.995	103.712	19.898	3.544	0.561
1261.500	716.922	80.003	19.994	103.710	19.898	3.542	0.526
1262.000	717.189	80.004	19.995	103.706	19.896	3.712	0.511
1262.500	717.452	80.006	19.994	103.709	19.896	3.743	0.528
1263.000	717.695	80.005	19.995	103.710	19.897	3.661	0.518
1263.501	717.971	80.005	19.994	103.712	19.900	3.440	0.513
1264.001	718.204	80.004	19.995	103.711	19.897	3.625	0.514
1264.500	718.481	80.004	19.995	103.717	19.897	3.680	0.510
1265.001	718.727	80.004	19.995	103.716	19.898	3.602	0.517
1265.501	718.972	80.003	19.994	103.716	19.893	3.937	0.507
1266.000	719.269	80.003	19.994	103.713	19.896	3.714	0.516
1266.501	719.491	80.003	19.995	103.709	19.896	3.695	0.530
1267.001	719.700	80.003	19.994	103.702	19.896	3.754	0.475
1267.500	719.988	80.004	19.994	103.695	19.898	3.572	0.464
1268.001	720.255	80.004	19.994	103.692	19.895	3.784	0.526
1268.501	720.521	80.003	19.993	103.694	19.899	3.474	0.544
1269.001	720.765	80.002	19.994	103.695	19.896	3.750	0.522
1269.500	721.011	80.002	19.995	103.696	19.898	3.544	0.500
1270.000	721.279	80.003	19.993	103.696	19.897	3.614	0.501
1270.500	721.565	80.002	19.995	103.695	19.902	3.281	0.534
1271.000	721.780	80.004	19.995	103.696	19.900	3.444	0.528
1271.500	722.066	80.002	19.995	103.699	19.899	3.465	0.501
1272.000	722.336	80.003	19.994	103.699	19.899	3.470	0.528
1272.500	722.579	80.004	19.995	103.699	19.897	3.678	0.534
1273.000	722.825	80.002	19.994	103.700	19.900	3.446	0.501
1273.500	723.085	80.003	19.995	103.697	19.901	3.364	0.498
1274.000	723.330	80.004	19.995	103.699	19.904	3.149	0.506
1274.500	723.607	80.003	19.994	103.701	19.902	3.258	0.513
1275.000	723.872	80.002	19.996	103.701	19.903	3.190	0.532
1275.500	724.155	80.002	19.996	103.703	19.904	3.101	0.545
1276.000	724.364	80.003	19.996	103.706	19.905	3.001	0.520
1276.501	724.623	80.002	19.995	103.702	19.902	3.270	0.480
1277.001	724.860	80.002	19.996	103.701	19.901	3.374	0.482
1277.500	725.110	80.004	19.995	103.700	19.899	3.466	0.492
1278.000	725.399	80.002	19.995	103.698	19.905	3.048	0.513
1278.500	725.666	80.000	19.995	103.694	19.899	3.474	0.548
1279.000	725.909	80.001	19.995	103.695	19.902	3.290	0.533
1279.500	726.171	80.001	19.994	103.695	19.901	3.309	0.507
1280.000	726.396	80.002	19.995	103.694	19.899	3.500	0.496
1280.500	726.645	80.001	19.995	103.695	19.901	3.376	0.481
1281.000	726.922	80.005	19.996	103.695	19.900	3.391	0.500
1281.501	727.149	80.002	19.995	103.694	19.899	3.519	0.515
1282.001	727.432	80.004	19.994	103.693	19.897	3.686	0.506
1282.500	727.675	80.002	19.996	103.694	19.899	3.512	0.518
1283.000	727.942	80.003	19.994	103.693	19.897	3.646	0.518
1283.500	728.217	80.004	19.994	103.693	19.899	3.470	0.526
1284.000	728.476	80.004	19.995	103.692	19.903	3.160	0.538
1284.500	728.735	80.004	19.995	103.693	19.900	3.402	0.526
1285.000	729.015	80.002	19.994	103.693	19.902	3.264	0.529
1285.501	729.240	80.002	19.994	103.694	19.900	3.423	0.522
1286.001	729.507	80.003	19.994	103.693	19.902	3.300	0.498
1286.501	729.786	80.004	19.994	103.694	19.900	3.438	0.519
1287.001	730.029	80.006	19.993	103.693	19.899	3.463	0.534
1287.500	730.285	80.006	19.995	103.693	19.896	3.735	0.511
1288.000	730.585	80.004	19.993	103.693	19.901	3.378	0.528
1288.500	730.817	80.005	19.994	103.696	19.900	3.427	0.544
1289.000	731.088	80.004	19.994	103.700	19.898	3.550	0.517
1289.500	731.345	80.004	19.995	103.701	19.899	3.491	0.515
1290.000	731.620	80.005	19.994	103.701	19.898	3.601	0.530
1290.500	731.859	80.004	19.993	103.700	19.901	3.336	0.523
1291.000	732.111	80.004	19.993	103.698	19.897	3.633	0.503
1291.501	732.341	80.003	19.994	103.696	19.899	3.510	0.486
1292.001	732.640	80.002	19.993	103.696	19.901	3.364	0.505
1292.500	732.870	80.001	19.995	103.695	19.898	3.567	0.529
1293.000	733.156	80.002	19.995	103.696	19.898	3.557	0.523
1293.500	733.398	80.004	19.994	103.696	19.902	3.302	0.522
1294.000	733.678	80.002	19.995	103.694	19.900	3.431	0.525
1294.500	733.904	80.000	19.995	103.694	19.900	3.402	0.514
1295.000	734.162	80.001	19.994	103.694	19.900	3.383	0.495
1295.501	734.324	80.000	19.994	103.694	19.898	3.571	0.452
1296.001	734.650	80.003	19.995	103.694	19.901	3.325	0.454
1296.500	734.901	80.001	19.995	103.694	19.900	3.457	0.533
1297.001	735.119	80.000	19.995	103.693	19.899	3.497	0.524
1297.501	735.388	80.002	19.995	103.693	19.900	3.425	0.478
1298.000	735.654	79.999	19.995	103.692	19.896	3.688	0.511
1298.500	735.839	80.000	19.996	103.692	19.898	3.586	0.493
1299.000	736.144	80.001	19.995	103.691	19.898	3.550	0.470
1299.500	736.395	80.002	19.995	103.691	19.896	3.735	0.523
1300.000	736.660	80.000	19.996	103.691	19.899	3.482	0.536
1300.501	736.891	80.001	19.996	103.690	19.898	3.607	0.506
1301.001	737.143	80.000	19.995	103.690	19.898	3.593	0.489
1301.500	737.360	80.002	19.996	103.689	19.901	3.317	0.475
1302.000	737.636	80.000	19.995	103.689	19.901	3.328	0.481
1302.500	737.906	80.001	19.995	103.689	19.901	3.355	0.520
1303.000	738.170	80.000	19.994	103.690	19.897	3.620	0.540
1303.500	738.416	80.001	19.995	103.690	19.900	3.391	0.522
1304.001	738.654	80.003	19.997	103.690	19.899	3.463	0.497
1304.501	738.928	80.001	19.996	103.690	19.900	3.444	0.498
1305.001	739.168	80.000	19.995	103.690	19.900	3.423	0.513
1305.501	739.419	80.001	19.997	103.692	19.899	3.472	0.503
1306.000	739.683	80.002	19.997	103.693	19.900	3.385	0.503
1306.500	739.942	80.002	19.996	103.693	19.897	3.629	0.519
1307.000	740.199	80.002	19.996	103.693	19.897	3.637	0.520
1307.500	740.435	80.001	19.995	103.694	19.902	3.260	0.505
1308.001	740.639	79.999	19.996	103.692	19.896	3.690	0.467
1308.501	740.909	80.003	19.995	103.693	19.897	3.618	0.458
1309.000	741.180	80.001	19.996	103.693	19.900	3.446	0.508
1309.500	741.460	80.003	19.995	103.693	19.898	3.608	0.546
1310.000	741.713	80.001	19.995	103.691	19.899	3.489	0.542
1310.500	741.933	80.002	19.998	103.691	19.895	3.764	0.503
1311.000	742.180	80.001	19.997	103.691	19.897	3.629	0.470
1311.500	742.466	80.001	19.996	103.692	19.896	3.756	0.500
1312.000	742.686	80.002	19.995	103.692	19.897	3.654	0.520
1312.500	742.955	80.001	19.995	103.691	19.899	3.501	0.498
1313.000	743.216	80.000	19.995	103.691	19.899	3.529	0.509
1313.500	743.484	80.000	19.996	103.690	19.898	3.597	0.529
