Sample ID:	C:\MCC\MCC Cal\Test\EPDM_Membrane_MCC_30K_min_211206_R3.txt
Sample Weight (mg):	4.2
Heating Rate (C/s):	0.5
Combustor Temp (C):	900
N2 Flow Rate (cc/min):	80
O2 Flow Rate (cc/min):	20
Calibration File:	C:\MCC\MCC Cal\Coeff1 JN10440_30_210304.txt.txt
T Correction Coefficients:	0	1.024463	0
Time Shift (s):	14
*
Time (s)	Temperature (C)	N2 flow rate (cc/min)	O2 flow rate (cc/min)	Flow Rate (cc/min)	Oxygen (%)	HRR (W/g)	Heating rate (C/s)
0.000	110.862	80.000	19.996	103.042	20.018	-0.343	-0.012
0.500	110.862	80.000	19.996	103.045	20.017	-0.254	-0.014
1.000	110.860	80.001	19.995	103.045	20.013	0.051	-0.007
1.500	110.878	80.000	19.996	103.045	20.015	-0.098	0.007
2.000	110.878	80.001	19.994	103.040	20.015	-0.137	0.017
2.500	110.889	80.000	19.994	103.035	20.018	-0.348	0.014
3.000	110.900	80.000	19.994	103.031	20.016	-0.164	0.017
3.500	110.893	80.001	19.994	103.030	20.018	-0.307	0.013
4.000	110.900	80.001	19.995	103.030	20.017	-0.282	0.002
4.500	110.879	80.000	19.995	103.032	20.014	-0.021	-0.007
5.000	110.874	80.000	19.994	103.032	20.018	-0.297	-0.020
5.500	110.886	80.002	19.994	103.032	20.014	-0.019	-0.010
6.000	110.889	80.000	19.995	103.032	20.016	-0.166	0.011
6.500	110.853	80.001	19.994	103.035	20.017	-0.284	-0.009
7.000	110.883	80.001	19.995	103.038	20.014	-0.034	-0.019
7.500	110.839	80.001	19.995	103.046	20.014	-0.019	-0.010
8.000	110.850	80.002	19.993	103.054	20.012	0.158	-0.023
8.500	110.810	80.002	19.995	103.062	20.012	0.147	-0.031
9.000	110.882	80.002	19.995	103.067	20.010	0.275	0.001
9.500	110.878	80.001	19.994	103.070	20.009	0.363	0.050
10.000	110.900	80.001	19.993	103.075	20.010	0.303	0.043
10.500	110.898	80.001	19.995	103.086	20.004	0.708	0.019
11.000	110.875	80.000	19.995	103.101	20.003	0.838	-0.002
11.500	110.888	80.000	19.994	103.116	20.008	0.471	-0.018
12.000	110.880	80.001	19.995	103.131	20.009	0.337	-0.003
12.500	110.883	80.001	19.995	103.141	20.002	0.873	0.000
13.000	110.907	80.001	19.994	103.146	20.003	0.824	0.011
13.500	110.910	80.000	19.995	103.152	20.001	0.935	0.027
14.000	110.959	80.000	19.996	103.162	19.996	1.372	0.039
14.500	110.972	80.000	19.995	103.171	20.000	1.042	0.057
15.000	110.961	80.000	19.995	103.183	19.997	1.306	0.032
15.500	110.980	79.999	19.994	103.197	19.996	1.357	0.005
16.000	110.992	80.000	19.995	103.199	19.996	1.389	0.020
16.500	111.057	80.000	19.994	103.196	19.998	1.184	0.054
17.000	111.053	80.001	19.996	103.193	19.997	1.310	0.069
17.500	111.083	79.999	19.995	103.186	19.997	1.253	0.044
18.000	111.131	80.001	19.996	103.179	19.994	1.487	0.052
18.500	111.164	79.999	19.995	103.177	19.995	1.449	0.079
19.000	111.182	80.002	19.996	103.172	19.995	1.402	0.066
19.500	111.199	79.999	19.995	103.165	19.996	1.372	0.043
20.000	111.249	80.001	19.996	103.158	19.993	1.611	0.051
20.500	111.308	80.001	19.996	103.151	19.993	1.568	0.088
21.000	111.296	80.001	19.995	103.144	19.994	1.513	0.078
21.500	111.306	80.001	19.996	103.143	19.995	1.413	0.022
22.000	111.347	80.000	19.997	103.143	19.993	1.596	0.024
22.500	111.394	80.001	19.997	103.144	19.991	1.705	0.070
23.000	111.437	80.001	19.995	103.149	19.990	1.833	0.090
23.500	111.444	79.999	19.995	103.157	19.991	1.744	0.070
24.000	111.537	80.001	19.995	103.166	19.989	1.865	0.074
24.500	111.548	79.999	19.997	103.178	19.989	1.882	0.102
25.000	111.564	80.001	19.996	103.186	19.991	1.756	0.066
25.500	111.628	80.000	19.994	103.190	19.990	1.842	0.054
26.000	111.660	80.002	19.994	103.186	19.989	1.902	0.088
26.500	111.735	80.001	19.995	103.181	19.988	1.977	0.102
27.000	111.757	80.001	19.995	103.176	19.990	1.825	0.102
27.500	111.801	80.002	19.996	103.175	19.991	1.763	0.082
28.000	111.893	80.002	19.995	103.174	19.989	1.913	0.101
28.500	111.899	80.000	19.994	103.176	19.990	1.802	0.117
29.000	111.949	80.001	19.994	103.177	19.992	1.693	0.077
29.500	111.994	80.002	19.996	103.174	19.995	1.450	0.076
30.000	112.044	80.002	19.995	103.169	19.995	1.448	0.095
30.500	112.103	80.001	19.994	103.164	19.992	1.670	0.102
31.000	112.142	80.002	19.994	103.158	19.994	1.516	0.103
31.500	112.196	80.001	19.995	103.155	19.993	1.608	0.095
32.000	112.256	80.001	19.995	103.158	19.993	1.610	0.103
32.500	112.326	80.004	19.994	103.163	19.991	1.708	0.122
33.000	112.374	80.001	19.996	103.169	19.993	1.548	0.124
33.500	112.415	80.002	19.996	103.176	19.991	1.751	0.104
34.000	112.485	80.002	19.994	103.182	19.991	1.721	0.100
34.500	112.519	80.002	19.995	103.184	19.992	1.682	0.107
35.000	112.610	80.002	19.994	103.180	19.988	1.964	0.114
35.500	112.631	80.002	19.994	103.180	19.987	2.033	0.118
36.000	112.749	80.000	19.995	103.180	19.988	1.986	0.125
36.500	112.765	80.000	19.994	103.185	19.986	2.122	0.137
37.000	112.831	80.001	19.996	103.191	19.991	1.723	0.108
37.500	112.918	80.001	19.995	103.202	19.985	2.170	0.117
38.000	112.932	79.999	19.994	103.210	19.987	2.067	0.127
38.500	112.973	80.000	19.994	103.218	19.988	1.973	0.078
39.000	113.044	79.999	19.995	103.222	19.984	2.304	0.083
39.500	113.164	80.000	19.995	103.225	19.986	2.125	0.152
40.000	113.221	79.998	19.994	103.226	19.985	2.183	0.184
40.500	113.282	79.997	19.995	103.226	19.987	2.078	0.147
41.000	113.369	79.998	19.993	103.226	19.985	2.208	0.133
41.501	113.427	79.998	19.996	103.227	19.985	2.217	0.147
42.001	113.553	80.000	19.995	103.227	19.983	2.379	0.165
42.500	113.558	79.998	19.996	103.227	19.983	2.326	0.158
43.001	113.729	79.999	19.994	103.226	19.983	2.385	0.154
43.501	113.790	79.999	19.996	103.226	19.984	2.306	0.204
44.001	113.892	79.998	19.996	103.226	19.983	2.390	0.197
44.501	113.937	79.999	19.995	103.225	19.983	2.366	0.155
45.000	114.023	79.999	19.996	103.226	19.980	2.571	0.139
45.500	114.082	79.998	19.996	103.226	19.981	2.475	0.138
46.000	114.204	79.999	19.997	103.226	19.980	2.569	0.163
46.500	114.281	79.998	19.995	103.226	19.983	2.360	0.190
47.000	114.396	79.998	19.996	103.229	19.982	2.422	0.195
47.500	114.463	79.997	19.996	103.237	19.982	2.431	0.187
48.000	114.562	79.998	19.996	103.242	19.979	2.625	0.174
48.500	114.643	79.998	19.995	103.247	19.980	2.555	0.173
49.000	114.724	79.997	19.995	103.255	19.980	2.583	0.171
49.500	114.849	79.998	19.996	103.260	19.978	2.737	0.184
50.000	114.911	79.998	19.995	103.259	19.976	2.925	0.196
50.500	115.032	79.998	19.996	103.261	19.979	2.687	0.185
51.000	115.105	79.998	19.995	103.263	19.976	2.927	0.189
51.500	115.247	79.998	19.996	103.263	19.975	2.958	0.204
52.000	115.329	79.998	19.995	103.263	19.977	2.845	0.219
52.500	115.417	79.998	19.996	103.261	19.976	2.879	0.197
53.000	115.544	79.998	19.996	103.259	19.974	3.042	0.193
53.500	115.660	79.997	19.996	103.257	19.972	3.183	0.229
54.000	115.761	79.999	19.996	103.253	19.977	2.845	0.230
54.500	115.855	79.999	19.996	103.249	19.974	3.033	0.206
55.000	116.000	79.997	19.997	103.251	19.974	3.024	0.217
55.500	116.100	79.999	19.996	103.253	19.973	3.106	0.242
56.000	116.259	79.999	19.997	103.256	19.974	3.070	0.252
56.500	116.356	79.998	19.995	103.260	19.973	3.113	0.257
57.000	116.479	79.998	19.994	103.265	19.971	3.271	0.238
57.500	116.591	79.998	19.996	103.266	19.972	3.222	0.228
58.001	116.696	79.998	19.996	103.269	19.973	3.141	0.226
58.501	116.876	79.998	19.998	103.274	19.973	3.132	0.251
59.000	116.964	79.998	19.996	103.281	19.971	3.265	0.276
59.500	117.106	79.999	19.997	103.289	19.975	2.989	0.249
60.001	117.183	79.999	19.998	103.291	19.967	3.578	0.225
60.501	117.370	79.999	19.995	103.293	19.969	3.416	0.242
61.001	117.478	79.999	19.996	103.294	19.969	3.446	0.280
61.500	117.607	79.998	19.996	103.288	19.969	3.412	0.266
62.000	117.744	80.000	19.996	103.281	19.974	3.038	0.251
62.500	117.868	80.000	19.995	103.278	19.971	3.275	0.263
63.000	118.002	79.999	19.995	103.274	19.971	3.256	0.259
63.500	118.121	80.000	19.995	103.271	19.969	3.439	0.256
64.000	118.255	80.000	19.995	103.270	19.971	3.288	0.253
64.500	118.409	80.000	19.994	103.269	19.972	3.230	0.270
65.000	118.532	80.000	19.996	103.269	19.974	3.010	0.283
65.501	118.711	80.000	19.994	103.270	19.971	3.299	0.290
66.001	118.798	79.999	19.995	103.270	19.969	3.406	0.284
66.500	118.957	80.000	19.994	103.276	19.971	3.307	0.255
67.000	119.089	80.000	19.994	103.283	19.971	3.271	0.269
67.500	119.255	80.000	19.995	103.289	19.969	3.457	0.295
68.000	119.412	80.001	19.995	103.295	19.971	3.260	0.311
68.500	119.551	80.000	19.994	103.300	19.970	3.330	0.309
69.000	119.680	79.999	19.995	103.302	19.969	3.422	0.282
69.500	119.834	79.999	19.995	103.301	19.968	3.467	0.275
70.000	119.953	80.000	19.995	103.297	19.968	3.521	0.278
70.500	120.088	80.000	19.995	103.289	19.967	3.596	0.264
71.000	120.247	79.999	19.996	103.285	19.968	3.479	0.274
71.500	120.413	79.999	19.995	103.283	19.971	3.272	0.309
72.000	120.588	80.000	19.995	103.281	19.969	3.443	0.333
72.500	120.735	79.998	19.995	103.285	19.969	3.460	0.331
73.000	120.930	79.998	19.994	103.287	19.969	3.430	0.332
73.500	121.063	79.999	19.996	103.287	19.969	3.438	0.335
74.000	121.236	79.999	19.996	103.287	19.971	3.282	0.317
74.500	121.397	79.998	19.995	103.286	19.969	3.431	0.320
75.000	121.511	79.999	19.994	103.288	19.968	3.508	0.305
75.500	121.691	79.999	19.995	103.292	19.968	3.506	0.284
76.000	121.896	79.999	19.995	103.296	19.970	3.363	0.339
76.500	122.033	80.000	19.995	103.297	19.966	3.656	0.363
77.000	122.244	79.998	19.995	103.300	19.966	3.650	0.345
77.500	122.371	79.997	19.994	103.299	19.970	3.344	0.343
78.001	122.541	79.998	19.995	103.298	19.967	3.607	0.317
78.501	122.756	79.999	19.995	103.293	19.965	3.745	0.341
79.000	122.925	79.998	19.995	103.288	19.966	3.626	0.385
79.501	123.102	79.997	19.996	103.287	19.964	3.831	0.365
80.001	123.234	79.999	19.995	103.289	19.963	3.910	0.328
80.500	123.446	79.999	19.995	103.292	19.964	3.824	0.327
81.000	123.594	80.000	19.995	103.297	19.963	3.852	0.353
81.500	123.801	79.999	19.995	103.304	19.963	3.910	0.358
82.000	124.003	80.000	19.995	103.309	19.965	3.750	0.382
82.501	124.158	80.000	19.995	103.316	19.963	3.880	0.383
83.001	124.341	79.999	19.994	103.320	19.963	3.865	0.347
83.500	124.566	80.001	19.994	103.321	19.966	3.664	0.373
84.000	124.714	80.000	19.996	103.319	19.963	3.914	0.391
84.500	124.898	80.000	19.995	103.315	19.962	3.978	0.352
85.000	125.120	80.002	19.995	103.308	19.963	3.914	0.369
85.500	125.279	80.001	19.995	103.304	19.962	3.970	0.394
86.000	125.487	80.001	19.995	103.305	19.965	3.718	0.375
86.500	125.683	80.001	19.995	103.307	19.965	3.699	0.385
87.000	125.862	80.000	19.994	103.308	19.966	3.678	0.389
87.500	126.056	80.002	19.995	103.308	19.966	3.648	0.374
88.000	126.254	80.000	19.995	103.308	19.965	3.710	0.382
88.500	126.450	80.000	19.995	103.305	19.965	3.731	0.393
89.000	126.665	80.000	19.996	103.303	19.963	3.899	0.403
89.500	126.831	80.001	19.995	103.302	19.963	3.925	0.396
90.000	127.009	80.000	19.994	103.302	19.964	3.835	0.363
90.501	127.236	80.001	19.994	103.301	19.962	3.940	0.374
91.001	127.449	80.000	19.995	103.301	19.964	3.779	0.422
91.500	127.601	80.000	19.995	103.301	19.961	4.074	0.403
92.000	127.801	80.000	19.995	103.301	19.966	3.686	0.359
92.500	128.002	80.000	19.995	103.301	19.968	3.508	0.376
93.000	128.187	80.001	19.995	103.301	19.965	3.735	0.393
93.500	128.395	80.001	19.996	103.301	19.962	3.959	0.389
94.000	128.577	80.000	19.993	103.302	19.963	3.884	0.392
94.501	128.785	80.001	19.994	103.302	19.965	3.760	0.390
95.001	128.983	79.999	19.994	103.303	19.962	3.989	0.398
95.500	129.185	80.000	19.994	103.303	19.964	3.807	0.403
96.000	129.396	80.000	19.994	103.307	19.970	3.329	0.407
96.500	129.601	79.999	19.994	103.312	19.967	3.572	0.414
97.000	129.835	80.000	19.995	103.317	19.967	3.611	0.428
97.500	130.024	79.999	19.995	103.320	19.965	3.720	0.431
98.000	130.219	80.000	19.994	103.322	19.966	3.645	0.403
98.500	130.423	80.000	19.995	103.321	19.965	3.720	0.392
99.000	130.611	80.001	19.994	103.315	19.967	3.562	0.396
99.500	130.850	80.000	19.994	103.310	19.967	3.585	0.410
100.000	131.039	79.998	19.994	103.303	19.965	3.713	0.427
100.500	131.255	79.999	19.996	103.299	19.971	3.303	0.416
101.000	131.463	79.999	19.996	103.298	19.970	3.316	0.414
101.500	131.695	79.999	19.995	103.297	19.967	3.596	0.432
102.000	131.915	79.999	19.996	103.298	19.967	3.607	0.446
102.500	132.094	79.998	19.995	103.302	19.966	3.686	0.425
103.000	132.308	79.999	19.994	103.300	19.968	3.478	0.396
103.500	132.547	79.999	19.995	103.298	19.968	3.502	0.423
104.000	132.732	80.000	19.994	103.298	19.970	3.342	0.438
104.500	132.967	80.001	19.994	103.297	19.965	3.709	0.422
105.001	133.163	79.999	19.994	103.297	19.969	3.442	0.426
105.501	133.357	80.001	19.994	103.300	19.967	3.598	0.411
106.000	133.575	80.000	19.994	103.302	19.967	3.564	0.401
106.500	133.820	79.999	19.993	103.303	19.966	3.688	0.437
107.000	134.056	80.000	19.994	103.302	19.966	3.641	0.472
107.500	134.262	80.000	19.994	103.300	19.967	3.574	0.462
108.000	134.465	80.001	19.994	103.300	19.970	3.369	0.426
108.500	134.724	80.000	19.995	103.298	19.964	3.799	0.436
109.000	134.967	80.002	19.995	103.297	19.968	3.521	0.482
109.500	135.179	80.002	19.995	103.296	19.965	3.750	0.478
110.000	135.392	80.001	19.995	103.299	19.966	3.651	0.439
110.500	135.611	80.001	19.995	103.299	19.970	3.363	0.428
111.000	135.845	80.001	19.994	103.301	19.964	3.807	0.442
111.500	136.045	80.001	19.994	103.302	19.968	3.540	0.444
112.000	136.284	80.000	19.996	103.303	19.967	3.570	0.437
112.500	136.497	80.001	19.994	103.302	19.964	3.829	0.446
113.001	136.723	80.002	19.994	103.301	19.965	3.741	0.446
113.501	136.966	80.002	19.994	103.301	19.965	3.713	0.454
114.000	137.198	80.001	19.995	103.301	19.965	3.771	0.472
114.500	137.438	80.000	19.994	103.302	19.963	3.882	0.474
115.000	137.662	80.000	19.995	103.302	19.968	3.519	0.468
115.500	137.874	80.002	19.994	103.304	19.966	3.671	0.450
116.000	138.076	80.000	19.995	103.304	19.962	3.946	0.425
116.500	138.304	80.000	19.995	103.304	19.964	3.786	0.422
117.000	138.563	79.999	19.994	103.304	19.966	3.690	0.458
117.500	138.797	80.000	19.995	103.303	19.966	3.632	0.490
118.000	139.004	79.999	19.994	103.301	19.965	3.750	0.467
118.500	139.229	80.000	19.994	103.300	19.963	3.901	0.437
119.000	139.439	79.999	19.995	103.300	19.965	3.771	0.434
119.500	139.691	80.000	19.996	103.300	19.966	3.677	0.448
120.000	139.911	79.999	19.995	103.300	19.963	3.893	0.467
120.501	140.137	79.999	19.996	103.301	19.961	4.053	0.459
121.001	140.409	79.998	19.994	103.303	19.965	3.722	0.472
121.500	140.607	79.998	19.995	103.304	19.966	3.619	0.484
122.000	140.849	79.998	19.995	103.303	19.965	3.716	0.455
122.500	141.037	79.998	19.995	103.302	19.966	3.673	0.435
123.000	141.295	79.998	19.995	103.302	19.964	3.844	0.438
123.500	141.543	79.998	19.994	103.303	19.965	3.703	0.476
124.000	141.763	79.998	19.995	103.303	19.962	3.985	0.487
124.500	142.019	79.999	19.995	103.304	19.966	3.622	0.472
125.000	142.224	80.000	19.995	103.305	19.966	3.628	0.468
125.500	142.454	79.999	19.996	103.305	19.960	4.096	0.448
126.000	142.682	79.999	19.995	103.304	19.962	3.936	0.447
126.500	142.917	80.000	19.995	103.304	19.970	3.352	0.461
127.000	143.141	79.998	19.995	103.304	19.969	3.442	0.461
127.501	143.407	80.000	19.995	103.304	19.965	3.752	0.475
128.000	143.646	79.999	19.995	103.303	19.965	3.741	0.498
128.500	143.893	79.999	19.996	103.303	19.971	3.288	0.496
129.000	144.102	79.999	19.995	103.303	19.963	3.880	0.471
129.500	144.369	80.001	19.995	103.302	19.968	3.529	0.466
130.000	144.590	80.001	19.995	103.302	19.968	3.538	0.482
130.500	144.818	79.999	19.995	103.303	19.964	3.843	0.468
131.000	145.080	80.000	19.996	103.302	19.965	3.700	0.469
131.500	145.301	79.999	19.995	103.302	19.967	3.557	0.487
132.000	145.527	80.000	19.995	103.302	19.963	3.894	0.465
132.500	145.783	80.001	19.995	103.302	19.962	3.986	0.464
133.000	146.007	79.998	19.994	103.303	19.963	3.916	0.480
133.500	146.280	79.999	19.996	103.304	19.961	4.004	0.488
134.000	146.535	80.000	19.995	103.304	19.966	3.630	0.513
134.500	146.728	80.000	19.995	103.305	19.963	3.895	0.489
135.000	147.002	79.999	19.994	103.304	19.971	3.247	0.458
135.500	147.243	79.999	19.996	103.303	19.966	3.692	0.491
136.000	147.450	79.999	19.995	103.303	19.967	3.615	0.481
136.500	147.708	79.998	19.995	103.303	19.968	3.478	0.456
137.000	147.928	80.000	19.995	103.303	19.972	3.211	0.472
137.500	148.224	79.999	19.996	103.302	19.969	3.418	0.497
138.000	148.455	79.999	19.994	103.302	19.969	3.452	0.521
138.500	148.725	79.999	19.995	103.301	19.965	3.764	0.514
139.000	148.969	80.000	19.995	103.299	19.968	3.527	0.508
139.500	149.203	80.000	19.996	103.299	19.963	3.873	0.496
140.000	149.450	80.000	19.995	103.296	19.968	3.467	0.479
140.500	149.692	79.998	19.997	103.295	19.966	3.638	0.485
141.000	149.972	79.999	19.996	103.294	19.968	3.472	0.505
141.500	150.179	79.998	19.996	103.290	19.964	3.782	0.504
142.000	150.424	79.999	19.996	103.285	19.966	3.639	0.470
142.500	150.644	79.999	19.996	103.284	19.965	3.720	0.459
143.000	150.899	79.999	19.996	103.285	19.966	3.647	0.470
143.500	151.117	79.999	19.996	103.283	19.963	3.860	0.474
144.000	151.433	79.999	19.995	103.289	19.963	3.924	0.503
144.500	151.622	79.999	19.997	103.294	19.966	3.678	0.519
145.000	151.837	79.999	19.995	103.296	19.968	3.497	0.455
145.500	152.111	79.999	19.996	103.291	19.963	3.854	0.447
146.000	152.384	79.999	19.997	103.290	19.962	3.986	0.518
146.500	152.567	79.999	19.996	103.290	19.963	3.890	0.501
147.000	152.854	80.000	19.996	103.290	19.961	4.057	0.463
147.500	153.140	80.001	19.997	103.289	19.966	3.624	0.521
148.000	153.337	79.998	19.995	103.294	19.964	3.829	0.528
148.500	153.594	79.999	19.997	103.296	19.962	3.942	0.468
149.000	153.853	79.998	19.995	103.294	19.960	4.085	0.485
149.500	154.088	79.999	19.996	103.293	19.963	3.899	0.505
150.000	154.293	79.999	19.996	103.292	19.964	3.837	0.467
150.500	154.575	79.998	19.995	103.293	19.967	3.612	0.464
151.000	154.814	79.999	19.997	103.294	19.966	3.672	0.504
151.500	155.056	79.999	19.996	103.297	19.962	3.930	0.501
152.000	155.300	80.000	19.998	103.298	19.959	4.161	0.483
152.500	155.535	79.999	19.996	103.302	19.961	4.044	0.483
153.000	155.809	80.000	19.995	103.300	19.960	4.123	0.494
153.500	156.039	80.000	19.996	103.298	19.961	4.010	0.507
154.000	156.314	79.998	19.997	103.292	19.961	4.030	0.504
154.500	156.550	79.998	19.996	103.285	19.962	3.965	0.508
155.000	156.764	79.999	19.996	103.277	19.963	3.874	0.480
155.500	157.009	79.999	19.997	103.272	19.963	3.878	0.454
156.000	157.257	79.999	19.994	103.272	19.959	4.214	0.476
156.500	157.486	79.999	19.996	103.277	19.959	4.164	0.485
157.000	157.737	79.999	19.996	103.282	19.963	3.899	0.479
157.500	157.966	79.999	19.995	103.288	19.962	3.957	0.481
158.000	158.248	80.000	19.996	103.295	19.962	3.976	0.496
158.500	158.506	79.999	19.995	103.298	19.959	4.166	0.526
159.000	158.737	79.999	19.996	103.297	19.962	3.963	0.514
159.500	158.967	79.998	19.995	103.298	19.958	4.279	0.475
160.000	159.257	80.000	19.996	103.295	19.957	4.330	0.490
160.500	159.480	80.000	19.995	103.291	19.959	4.221	0.517
161.000	159.718	79.999	19.996	103.284	19.957	4.309	0.487
161.500	159.941	79.999	19.995	103.280	19.956	4.409	0.461
162.000	160.199	80.000	19.995	103.278	19.958	4.262	0.471
162.500	160.440	80.001	19.994	103.280	19.958	4.249	0.490
163.000	160.705	79.998	19.995	103.283	19.960	4.102	0.502
163.500	160.956	80.000	19.995	103.288	19.959	4.175	0.511
164.000	161.247	79.999	19.995	103.293	19.959	4.203	0.530
164.500	161.499	79.999	19.995	103.296	19.961	4.049	0.543
165.000	161.727	80.000	19.996	103.299	19.959	4.187	0.511
165.500	161.997	80.001	19.996	103.300	19.956	4.398	0.488
166.000	162.204	80.001	19.995	103.303	19.960	4.125	0.487
166.500	162.467	80.000	19.994	103.305	19.957	4.315	0.474
167.000	162.723	79.999	19.995	103.305	19.961	4.069	0.495
167.500	162.945	80.000	19.995	103.305	19.960	4.131	0.498
168.000	163.210	80.000	19.994	103.305	19.954	4.595	0.482
168.500	163.462	80.000	19.995	103.305	19.963	3.918	0.502
169.000	163.722	80.001	19.995	103.304	19.959	4.232	0.515
169.500	163.941	80.001	19.995	103.298	19.962	4.001	0.495
170.000	164.200	79.999	19.994	103.291	19.960	4.093	0.478
170.500	164.440	80.001	19.995	103.291	19.962	3.988	0.489
171.000	164.693	80.000	19.995	103.290	19.957	4.319	0.496
171.500	164.964	80.001	19.995	103.286	19.962	3.939	0.508
172.000	165.202	80.000	19.995	103.285	19.959	4.197	0.516
172.500	165.448	80.000	19.996	103.287	19.957	4.336	0.496
173.000	165.719	80.000	19.995	103.288	19.959	4.231	0.500
173.500	165.938	80.000	19.995	103.290	19.960	4.127	0.504
174.000	166.207	80.000	19.995	103.294	19.956	4.423	0.489
174.500	166.428	80.000	19.995	103.299	19.959	4.203	0.489
175.000	166.691	80.000	19.994	103.299	19.955	4.462	0.487
175.501	166.934	80.001	19.995	103.293	19.957	4.358	0.495
176.000	167.155	79.999	19.995	103.287	19.958	4.247	0.485
176.500	167.455	80.000	19.994	103.282	19.958	4.300	0.492
177.000	167.701	80.000	19.995	103.279	19.954	4.553	0.533
177.500	167.929	79.999	19.995	103.278	19.958	4.299	0.510
178.000	168.190	79.999	19.993	103.278	19.957	4.324	0.482
178.500	168.450	79.999	19.996	103.279	19.953	4.632	0.505
179.000	168.715	80.000	19.996	103.281	19.954	4.583	0.522
179.500	168.938	80.000	19.996	103.278	19.957	4.326	0.506
180.000	169.195	80.000	19.996	103.277	19.958	4.247	0.484
180.500	169.466	80.000	19.996	103.278	19.956	4.420	0.504
181.000	169.683	80.001	19.995	103.278	19.955	4.484	0.508
181.500	169.936	80.000	19.995	103.276	19.952	4.708	0.479
182.000	170.218	80.001	19.994	103.275	19.953	4.637	0.503
182.500	170.501	79.998	19.995	103.276	19.959	4.218	0.550
183.000	170.724	80.000	19.995	103.275	19.956	4.445	0.535
183.500	170.990	79.999	19.995	103.270	19.956	4.387	0.498
184.000	171.203	80.000	19.994	103.271	19.954	4.549	0.484
184.500	171.469	80.000	19.995	103.271	19.951	4.776	0.479
185.000	171.701	80.000	19.995	103.269	19.947	5.111	0.488
185.500	171.951	79.998	19.995	103.268	19.954	4.558	0.490
186.000	172.208	80.001	19.995	103.270	19.954	4.605	0.495
186.500	172.448	80.002	19.996	103.275	19.954	4.579	0.502
187.000	172.722	80.001	19.995	103.282	19.952	4.709	0.506
187.500	172.946	80.001	19.995	103.285	19.953	4.660	0.506
188.000	173.197	80.001	19.994	103.293	19.951	4.821	0.486
188.500	173.479	80.000	19.994	103.297	19.948	5.053	0.504
189.000	173.699	80.002	19.994	103.298	19.950	4.917	0.518
189.500	173.939	80.002	19.994	103.295	19.950	4.863	0.481
190.000	174.188	80.001	19.995	103.292	19.949	4.957	0.474
190.500	174.407	80.001	19.994	103.289	19.950	4.859	0.479
191.000	174.672	80.001	19.994	103.287	19.953	4.682	0.476
191.500	174.958	80.002	19.993	103.280	19.949	4.978	0.518
192.000	175.181	80.003	19.994	103.275	19.951	4.782	0.530
192.500	175.424	80.002	19.996	103.275	19.949	4.944	0.487
193.000	175.693	80.002	19.993	103.270	19.946	5.162	0.489
193.500	175.915	80.003	19.994	103.263	19.949	4.992	0.501
194.000	176.194	80.002	19.995	103.262	19.950	4.915	0.496
194.500	176.455	80.003	19.995	103.262	19.950	4.891	0.521
195.000	176.644	80.002	19.995	103.261	19.951	4.844	0.495
195.500	176.924	80.003	19.996	103.262	19.953	4.665	0.460
196.000	177.143	80.002	19.995	103.263	19.948	5.000	0.484
196.501	177.413	80.003	19.993	103.263	19.948	5.038	0.494
197.000	177.682	80.001	19.995	103.263	19.951	4.806	0.514
197.500	177.916	80.003	19.996	103.263	19.947	5.124	0.520
198.000	178.139	80.000	19.994	103.263	19.947	5.117	0.480
198.500	178.408	80.003	19.995	103.264	19.947	5.104	0.475
199.000	178.636	80.001	19.994	103.264	19.948	5.025	0.495
199.500	178.902	80.001	19.995	103.263	19.946	5.192	0.496
200.000	179.161	80.001	19.994	103.263	19.945	5.267	0.510
200.500	179.405	80.001	19.995	103.262	19.940	5.655	0.514
201.000	179.642	80.000	19.994	103.260	19.944	5.309	0.492
201.500	179.899	80.001	19.995	103.260	19.944	5.348	0.488
202.000	180.117	80.000	19.996	103.261	19.944	5.363	0.485
202.500	180.350	80.000	19.995	103.261	19.944	5.359	0.463
203.000	180.655	80.001	19.995	103.260	19.942	5.463	0.494
203.500	180.901	80.001	19.995	103.264	19.942	5.463	0.544
204.000	181.124	80.001	19.996	103.267	19.941	5.572	0.510
204.500	181.405	80.000	19.996	103.267	19.943	5.440	0.487
205.000	181.638	79.999	19.996	103.268	19.943	5.442	0.508
205.500	181.902	80.000	19.995	103.268	19.944	5.322	0.506
206.000	182.161	80.001	19.995	103.266	19.942	5.474	0.511
206.500	182.366	80.000	19.995	103.264	19.940	5.681	0.493
207.000	182.661	80.000	19.998	103.265	19.940	5.685	0.482
207.500	182.878	80.001	19.997	103.264	19.941	5.587	0.506
208.000	183.159	79.999	19.996	103.264	19.941	5.561	0.506
208.500	183.404	80.000	19.996	103.263	19.940	5.668	0.512
209.000	183.598	80.000	19.998	103.262	19.941	5.610	0.482
209.500	183.910	79.999	19.996	103.260	19.939	5.742	0.472
210.000	184.144	80.000	19.995	103.260	19.939	5.699	0.526
210.500	184.369	80.000	19.996	103.260	19.941	5.593	0.503
211.000	184.684	80.000	19.998	103.259	19.938	5.789	0.500
211.500	184.887	79.999	19.997	103.260	19.942	5.494	0.529
212.000	185.133	80.000	19.996	103.261	19.940	5.648	0.484
212.500	185.418	80.001	19.996	103.261	19.940	5.657	0.490
213.000	185.667	79.999	19.995	103.261	19.938	5.830	0.532
213.500	185.893	80.000	19.996	103.262	19.939	5.711	0.505
214.000	186.176	79.999	19.996	103.262	19.937	5.877	0.492
214.501	186.400	79.999	19.996	103.261	19.936	5.991	0.508
215.000	186.664	80.000	19.996	103.261	19.936	5.954	0.497
215.500	186.939	79.999	19.996	103.262	19.939	5.757	0.513
216.000	187.171	79.999	19.996	103.263	19.934	6.144	0.523
216.500	187.417	80.001	19.996	103.263	19.930	6.381	0.492
217.000	187.650	79.999	19.994	103.263	19.937	5.877	0.479
217.500	187.900	80.000	19.995	103.262	19.935	6.055	0.481
218.000	188.147	79.999	19.995	103.262	19.933	6.168	0.490
218.500	188.406	80.000	19.995	103.262	19.935	6.050	0.501
219.000	188.654	79.999	19.995	103.260	19.933	6.177	0.507
219.500	188.886	80.000	19.995	103.259	19.932	6.230	0.494
220.000	189.145	80.000	19.995	103.256	19.933	6.202	0.485
220.500	189.389	80.001	19.996	103.250	19.931	6.347	0.497
221.000	189.637	80.000	19.995	103.243	19.929	6.490	0.498
221.500	189.906	79.999	19.995	103.243	19.929	6.524	0.504
222.000	190.154	80.001	19.995	103.243	19.932	6.257	0.516
222.500	190.356	80.001	19.995	103.243	19.927	6.618	0.484
223.000	190.631	80.000	19.995	103.247	19.928	6.586	0.464
223.500	190.889	80.000	19.996	103.253	19.930	6.383	0.505
224.000	191.157	80.000	19.997	103.254	19.929	6.487	0.529
224.500	191.395	80.000	19.996	103.253	19.929	6.505	0.516
225.000	191.620	79.999	19.996	103.256	19.928	6.569	0.485
225.500	191.874	80.000	19.996	103.257	19.925	6.802	0.471
226.001	192.111	79.999	19.997	103.252	19.928	6.599	0.485
226.500	192.370	80.000	19.996	103.252	19.924	6.851	0.494
227.000	192.643	79.999	19.997	103.254	19.928	6.567	0.514
227.500	192.893	79.998	19.996	103.255	19.923	6.934	0.528
228.000	193.149	79.998	19.995	103.257	19.926	6.699	0.515
228.500	193.363	80.000	19.996	103.259	19.923	6.980	0.488
229.000	193.638	79.998	19.995	103.259	19.925	6.778	0.480
229.500	193.893	79.998	19.995	103.259	19.924	6.878	0.510
230.000	194.111	79.999	19.996	103.260	19.921	7.075	0.502
230.500	194.342	79.999	19.996	103.258	19.922	6.998	0.461
231.000	194.594	79.999	19.996	103.257	19.921	7.090	0.466
231.500	194.847	79.999	19.996	103.256	19.922	7.003	0.493
232.000	195.102	79.999	19.996	103.256	19.923	6.971	0.506
232.500	195.353	79.998	19.996	103.252	19.920	7.161	0.507
233.000	195.596	79.998	19.995	103.247	19.923	6.949	0.500
233.500	195.853	79.999	19.998	103.247	19.923	6.966	0.497
234.000	196.058	79.999	19.996	103.246	19.923	6.974	0.482
234.500	196.326	80.000	19.995	103.246	19.917	7.376	0.467
235.000	196.587	79.999	19.996	103.245	19.920	7.218	0.501
235.500	196.824	79.998	19.996	103.249	19.920	7.203	0.514
236.000	197.015	79.998	19.998	103.253	19.918	7.348	0.463
236.500	197.306	79.997	19.996	103.254	19.918	7.361	0.455
237.000	197.550	79.998	19.996	103.254	19.915	7.552	0.508
237.500	197.813	79.999	19.996	103.255	19.918	7.311	0.521
238.000	198.041	79.999	19.996	103.252	19.921	7.138	0.499
238.500	198.301	79.998	19.997	103.248	19.915	7.535	0.490
239.000	198.570	79.998	19.998	103.244	19.916	7.456	0.509
239.500	198.831	79.998	19.998	103.241	19.912	7.802	0.529
240.000	199.065	79.999	19.997	103.243	19.916	7.496	0.512
240.500	199.289	79.999	19.996	103.245	19.916	7.476	0.476
241.000	199.572	79.999	19.997	103.247	19.917	7.425	0.482
241.500	199.831	79.999	19.996	103.252	19.913	7.728	0.525
242.000	200.053	79.999	19.997	103.257	19.911	7.862	0.511
242.500	200.285	79.998	19.997	103.258	19.912	7.823	0.468
243.000	200.536	79.999	19.996	103.260	19.917	7.420	0.469
243.500	200.783	80.000	19.996	103.260	19.908	8.078	0.491
244.000	201.036	80.000	19.996	103.254	19.908	8.105	0.498
244.500	201.269	79.998	19.996	103.249	19.909	8.029	0.492
245.000	201.547	79.999	19.996	103.246	19.911	7.911	0.499
245.501	201.775	79.999	19.995	103.242	19.909	8.003	0.509
246.000	202.022	80.000	19.996	103.244	19.910	7.972	0.491
246.500	202.290	80.001	19.996	103.248	19.909	8.013	0.495
247.000	202.538	80.000	19.994	103.251	19.905	8.335	0.516
247.500	202.775	80.000	19.994	103.254	19.908	8.122	0.500
248.000	203.062	80.001	19.996	103.259	19.907	8.218	0.504
248.500	203.253	79.998	19.996	103.261	19.908	8.109	0.501
249.000	203.511	80.000	19.995	103.263	19.907	8.215	0.463
249.500	203.780	80.000	19.995	103.264	19.904	8.415	0.488
250.000	204.027	80.000	19.994	103.263	19.908	8.131	0.522
250.500	204.282	80.001	19.994	103.261	19.903	8.470	0.509
251.000	204.526	80.000	19.995	103.255	19.903	8.468	0.500
251.500	204.768	80.000	19.995	103.248	19.900	8.743	0.492
252.000	205.013	80.000	19.995	103.244	19.900	8.698	0.487
252.500	205.235	80.001	19.994	103.239	19.902	8.594	0.477
253.000	205.519	80.002	19.995	103.235	19.902	8.581	0.486
253.500	205.742	80.002	19.995	103.233	19.897	8.931	0.506
254.000	205.993	80.001	19.994	103.236	19.898	8.839	0.491
254.500	206.272	80.001	19.996	103.237	19.897	8.940	0.502
255.000	206.513	80.002	19.994	103.236	19.896	9.059	0.526
255.500	206.770	80.000	19.996	103.237	19.895	9.102	0.509
256.000	207.003	79.999	19.996	103.240	19.897	8.950	0.493
256.500	207.228	80.001	19.994	103.244	19.896	9.010	0.474
257.000	207.466	80.001	19.994	103.247	19.895	9.095	0.461
257.500	207.749	80.001	19.994	103.252	19.897	8.959	0.492
258.000	207.983	80.000	19.994	103.256	19.892	9.346	0.519
258.500	208.230	80.001	19.995	103.256	19.901	8.660	0.499
259.000	208.482	80.000	19.995	103.256	19.893	9.245	0.490
259.500	208.713	80.000	19.996	103.253	19.893	9.247	0.491
260.000	208.989	80.001	19.995	103.247	19.889	9.533	0.495
260.500	209.175	80.000	19.995	103.242	19.892	9.315	0.485
261.000	209.449	80.000	19.996	103.238	19.888	9.669	0.461
261.500	209.721	80.001	19.995	103.235	19.888	9.601	0.503
262.000	209.988	80.000	19.995	103.232	19.891	9.392	0.543
262.500	210.191	80.000	19.994	103.230	19.890	9.516	0.504
263.000	210.416	80.000	19.995	103.229	19.888	9.631	0.448
263.500	210.710	80.002	19.995	103.233	19.888	9.621	0.474
264.000	210.931	80.000	19.996	103.230	19.890	9.504	0.517
264.500	211.205	80.000	19.995	103.231	19.886	9.771	0.505
265.000	211.435	80.000	19.994	103.231	19.885	9.858	0.499
265.500	211.654	80.001	19.995	103.231	19.889	9.574	0.477
266.000	211.897	80.000	19.995	103.227	19.889	9.568	0.456
266.500	212.168	80.001	19.995	103.226	19.887	9.732	0.487
267.000	212.383	79.999	19.995	103.225	19.886	9.809	0.500
267.500	212.612	80.000	19.995	103.224	19.890	9.476	0.465
268.000	212.893	80.001	19.996	103.224	19.886	9.805	0.477
268.500	213.134	80.002	19.996	103.229	19.883	10.011	0.516
269.000	213.392	80.000	19.995	103.232	19.883	10.033	0.511
269.500	213.628	80.001	19.995	103.232	19.882	10.101	0.496
270.000	213.882	80.001	19.995	103.232	19.880	10.229	0.492
270.500	214.131	80.001	19.995	103.232	19.880	10.244	0.497
271.000	214.404	80.001	19.995	103.227	19.882	10.126	0.512
271.500	214.618	80.001	19.995	103.224	19.883	10.016	0.504
272.000	214.903	80.002	19.996	103.224	19.886	9.809	0.493
272.500	215.128	80.001	19.995	103.224	19.885	9.860	0.504
273.000	215.346	80.001	19.995	103.227	19.883	10.020	0.477
273.500	215.631	80.001	19.995	103.227	19.883	10.048	0.473
274.000	215.852	80.002	19.995	103.228	19.881	10.207	0.505
274.500	216.082	80.002	19.995	103.229	19.881	10.153	0.478
275.000	216.337	80.001	19.994	103.232	19.880	10.256	0.468
275.500	216.615	80.004	19.995	103.233	19.880	10.263	0.509
276.000	216.843	80.004	19.996	103.233	19.882	10.091	0.519
276.500	217.081	80.003	19.995	103.232	19.881	10.206	0.486
277.000	217.319	80.002	19.994	103.232	19.881	10.177	0.471
277.500	217.588	80.003	19.994	103.230	19.879	10.332	0.491
278.000	217.856	80.003	19.994	103.228	19.880	10.268	0.522
278.500	218.115	80.003	19.994	103.230	19.880	10.225	0.532
279.000	218.349	80.003	19.995	103.237	19.875	10.631	0.510
279.500	218.599	80.003	19.994	103.244	19.878	10.366	0.488
280.000	218.862	80.003	19.994	103.250	19.879	10.346	0.499
280.500	219.066	80.002	19.994	103.253	19.878	10.378	0.490
281.000	219.363	80.001	19.995	103.253	19.876	10.541	0.484
281.500	219.616	80.002	19.995	103.246	19.874	10.716	0.525
282.000	219.828	80.002	19.996	103.241	19.877	10.496	0.508
282.500	220.117	80.001	19.995	103.234	19.876	10.588	0.483
283.000	220.314	80.002	19.996	103.229	19.875	10.601	0.494
283.500	220.576	80.001	19.995	103.227	19.872	10.836	0.472
284.000	220.849	80.001	19.996	103.230	19.875	10.612	0.496
284.500	221.101	80.001	19.995	103.234	19.875	10.597	0.530
285.000	221.337	80.000	19.997	103.240	19.874	10.743	0.507
285.500	221.581	80.001	19.997	103.239	19.874	10.734	0.484
286.000	221.891	80.000	19.997	103.243	19.873	10.800	0.517
286.500	222.117	79.999	19.997	103.243	19.872	10.862	0.545
287.000	222.368	80.000	19.996	103.238	19.873	10.789	0.506
287.500	222.583	79.999	19.996	103.234	19.872	10.864	0.471
288.000	222.858	80.000	19.996	103.237	19.874	10.745	0.478
288.500	223.121	80.000	19.996	103.234	19.872	10.895	0.515
289.000	223.342	79.999	19.995	103.232	19.875	10.660	0.511
289.500	223.594	79.999	19.996	103.232	19.872	10.876	0.478
290.001	223.859	79.999	19.996	103.229	19.872	10.834	0.495
290.500	224.069	80.000	19.995	103.226	19.869	11.073	0.496
291.000	224.349	79.999	19.996	103.226	19.869	11.068	0.482
291.500	224.605	79.999	19.995	103.226	19.868	11.177	0.513
292.000	224.829	80.000	19.995	103.226	19.865	11.379	0.508
292.500	225.078	79.999	19.994	103.227	19.865	11.439	0.476
293.000	225.330	79.999	19.995	103.227	19.867	11.251	0.487
293.500	225.573	80.000	19.996	103.227	19.868	11.180	0.498
294.000	225.833	79.998	19.995	103.232	19.869	11.106	0.499
294.500	226.128	79.998	19.994	103.236	19.870	10.981	0.529
295.001	226.357	79.999	19.995	103.236	19.865	11.386	0.539
295.500	226.584	79.999	19.995	103.238	19.866	11.350	0.490
296.000	226.876	79.999	19.995	103.239	19.868	11.168	0.487
296.500	227.097	79.999	19.996	103.236	19.865	11.366	0.516
297.000	227.369	79.996	19.995	103.233	19.864	11.485	0.503
297.500	227.639	79.998	19.995	103.232	19.866	11.329	0.517
298.000	227.902	79.997	19.995	103.231	19.865	11.401	0.537
298.500	228.149	79.998	19.996	103.232	19.863	11.530	0.521
299.001	228.365	79.999	19.995	103.236	19.863	11.579	0.487
299.500	228.612	79.999	19.997	103.242	19.863	11.543	0.463
300.000	228.910	79.999	19.997	103.246	19.861	11.694	0.504
300.500	229.135	79.999	19.996	103.250	19.863	11.557	0.534
301.000	229.403	79.999	19.996	103.254	19.864	11.440	0.508
301.500	229.660	79.999	19.996	103.249	19.866	11.320	0.509
302.000	229.947	79.998	19.995	103.247	19.862	11.619	0.535
302.500	230.175	79.998	19.996	103.245	19.861	11.674	0.530
303.000	230.440	79.999	19.997	103.242	19.858	11.903	0.504
303.500	230.670	79.999	19.996	103.237	19.861	11.677	0.494
304.000	230.927	79.998	19.996	103.237	19.860	11.749	0.491
304.500	231.175	79.999	19.996	103.238	19.859	11.860	0.496
305.000	231.444	79.998	19.996	103.242	19.859	11.871	0.510
305.500	231.673	79.999	19.995	103.247	19.858	11.915	0.507
306.000	231.940	79.999	19.995	103.248	19.861	11.696	0.497
306.500	232.175	79.998	19.996	103.251	19.860	11.803	0.499
307.000	232.406	80.000	19.996	103.245	19.862	11.624	0.484
307.500	232.698	80.000	19.995	103.238	19.860	11.816	0.494
308.000	232.951	80.000	19.996	103.232	19.860	11.762	0.534
308.500	233.198	79.999	19.995	103.232	19.857	11.991	0.523
309.000	233.438	79.997	19.996	103.228	19.855	12.159	0.493
309.500	233.727	79.999	19.996	103.230	19.858	11.924	0.508
310.000	233.968	79.998	19.996	103.232	19.856	12.074	0.530
310.500	234.180	79.999	19.995	103.232	19.854	12.266	0.491
311.000	234.436	79.999	19.995	103.231	19.857	12.033	0.460
311.500	234.689	79.999	19.995	103.231	19.854	12.228	0.489
312.000	234.970	79.997	19.995	103.228	19.855	12.198	0.522
312.500	235.219	79.999	19.994	103.226	19.850	12.520	0.532
313.000	235.443	80.000	19.995	103.226	19.852	12.394	0.501
313.500	235.695	79.998	19.995	103.226	19.851	12.473	0.474
314.000	235.951	79.997	19.996	103.227	19.849	12.618	0.492
314.500	236.185	79.999	19.995	103.226	19.852	12.419	0.499
315.000	236.458	79.998	19.996	103.226	19.851	12.468	0.499
315.500	236.725	79.998	19.995	103.224	19.852	12.359	0.524
316.000	236.944	79.999	19.995	103.224	19.848	12.680	0.513
316.500	237.166	79.999	19.995	103.224	19.850	12.560	0.464
317.000	237.438	79.997	19.996	103.226	19.851	12.505	0.468
317.500	237.681	79.997	19.996	103.227	19.850	12.571	0.505
318.000	237.932	79.998	19.996	103.231	19.853	12.340	0.504
318.500	238.203	79.998	19.996	103.230	19.849	12.643	0.508
319.000	238.468	79.998	19.996	103.230	19.848	12.681	0.529
319.500	238.707	79.997	19.995	103.230	19.850	12.543	0.520
320.000	238.943	79.998	19.996	103.229	19.848	12.681	0.489
320.500	239.219	79.999	19.997	103.228	19.843	13.098	0.494
321.000	239.453	79.998	19.996	103.228	19.846	12.833	0.511
321.500	239.664	79.999	19.996	103.228	19.849	12.598	0.477
322.000	239.938	79.998	19.995	103.228	19.846	12.887	0.465
322.500	240.161	79.998	19.996	103.228	19.849	12.633	0.491
323.000	240.415	79.999	19.996	103.228	19.844	12.976	0.487
323.500	240.630	80.000	19.997	103.227	19.849	12.607	0.473
324.000	240.906	79.999	19.996	103.226	19.848	12.714	0.481
324.500	241.149	79.999	19.996	103.224	19.845	12.897	0.505
325.000	241.397	80.000	19.996	103.223	19.848	12.684	0.505
325.500	241.643	79.998	19.997	103.223	19.844	12.983	0.492
326.000	241.880	79.998	19.996	103.223	19.847	12.798	0.488
326.500	242.131	79.999	19.996	103.223	19.847	12.808	0.486
327.000	242.409	79.999	19.996	103.225	19.844	12.994	0.509
327.500	242.624	80.000	19.996	103.225	19.844	12.977	0.511
328.000	242.893	80.000	19.997	103.225	19.843	13.058	0.489
328.500	243.171	79.998	19.996	103.224	19.844	13.026	0.516
329.000	243.415	80.000	19.997	103.224	19.842	13.154	0.534
329.500	243.657	80.000	19.996	103.221	19.842	13.128	0.503
330.000	243.896	80.000	19.996	103.221	19.842	13.167	0.484
330.500	244.144	79.998	19.996	103.220	19.842	13.171	0.485
331.000	244.400	80.000	19.997	103.220	19.843	13.090	0.496
331.500	244.632	79.999	19.996	103.220	19.839	13.363	0.495
332.000	244.953	79.999	19.996	103.222	19.842	13.194	0.520
332.500	245.159	80.000	19.997	103.223	19.839	13.423	0.540
333.000	245.385	80.000	19.996	103.223	19.842	13.194	0.480
333.500	245.634	80.000	19.996	103.223	19.835	13.696	0.453
334.000	245.899	80.000	19.997	103.223	19.834	13.764	0.495
334.500	246.161	80.000	19.997	103.223	19.837	13.568	0.520
335.000	246.370	80.000	19.997	103.223	19.838	13.491	0.499
335.500	246.660	80.000	19.997	103.223	19.833	13.816	0.485
336.000	246.930	80.001	19.996	103.224	19.835	13.728	0.530
336.500	247.172	79.999	19.995	103.226	19.836	13.651	0.536
337.000	247.404	80.001	19.995	103.227	19.837	13.583	0.493
337.500	247.650	80.000	19.996	103.227	19.832	13.895	0.476
338.000	247.920	79.999	19.996	103.227	19.831	13.986	0.497
338.500	248.188	80.001	19.997	103.227	19.834	13.781	0.527
339.000	248.399	79.999	19.997	103.224	19.832	13.929	0.509
339.500	248.660	80.000	19.996	103.223	19.834	13.749	0.475
340.000	248.883	80.000	19.995	103.226	19.833	13.847	0.478
340.500	249.194	80.000	19.996	103.226	19.829	14.198	0.510
341.000	249.402	79.999	19.995	103.225	19.832	13.957	0.527
341.500	249.712	80.000	19.995	103.226	19.829	14.174	0.518
342.000	249.957	80.001	19.996	103.226	19.831	14.031	0.536
342.500	250.179	80.000	19.996	103.224	19.827	14.328	0.511
343.000	250.423	80.001	19.994	103.224	19.827	14.294	0.467
343.500	250.711	80.000	19.995	103.223	19.827	14.292	0.499
344.000	250.973	80.000	19.995	103.223	19.831	14.014	0.541
344.500	251.206	80.002	19.996	103.222	19.828	14.234	0.523
345.000	251.417	80.001	19.996	103.222	19.828	14.215	0.470
345.501	251.703	80.001	19.996	103.223	19.824	14.507	0.470
346.001	251.931	80.000	19.995	103.224	19.827	14.328	0.505
346.500	252.209	80.000	19.996	103.225	19.828	14.226	0.510
347.000	252.450	80.002	19.994	103.225	19.828	14.238	0.513
347.501	252.677	80.002	19.996	103.225	19.827	14.317	0.494
348.000	252.890	80.002	19.995	103.225	19.825	14.473	0.454
348.500	253.215	80.000	19.995	103.225	19.823	14.648	0.489
349.000	253.421	80.001	19.996	103.223	19.823	14.650	0.535
349.500	253.654	80.000	19.995	103.223	19.822	14.732	0.485
350.000	253.893	80.001	19.996	103.223	19.823	14.608	0.456
350.500	254.123	80.001	19.995	103.223	19.820	14.869	0.470
351.000	254.407	80.000	19.994	103.223	19.821	14.751	0.491
351.500	254.643	80.001	19.995	103.224	19.823	14.598	0.517
352.000	254.879	80.001	19.995	103.225	19.824	14.561	0.496
352.500	255.120	80.000	19.995	103.225	19.823	14.613	0.474
353.000	255.405	80.001	19.995	103.225	19.821	14.762	0.501
353.500	255.621	80.001	19.994	103.225	19.823	14.642	0.514
354.000	255.862	80.000	19.996	103.224	19.820	14.853	0.479
354.500	256.114	80.001	19.995	103.224	19.820	14.886	0.475
355.000	256.352	80.002	19.996	103.223	19.822	14.685	0.492
355.500	256.618	80.001	19.995	103.223	19.824	14.559	0.497
356.000	256.823	80.002	19.995	103.224	19.821	14.802	0.487
356.500	257.106	80.003	19.996	103.225	19.821	14.781	0.480
357.000	257.348	80.002	19.995	103.225	19.820	14.828	0.506
357.500	257.571	80.002	19.995	103.225	19.822	14.661	0.495
358.000	257.822	80.002	19.994	103.225	19.821	14.811	0.470
358.500	258.124	80.002	19.995	103.225	19.819	14.964	0.514
359.000	258.384	80.003	19.995	103.224	19.821	14.738	0.557
359.500	258.621	80.001	19.995	103.224	19.819	14.930	0.529
360.000	258.826	80.003	19.994	103.225	19.821	14.769	0.470
360.500	259.092	80.002	19.997	103.226	19.822	14.732	0.457
361.000	259.384	80.002	19.996	103.226	19.819	14.939	0.515
361.500	259.598	80.001	19.996	103.227	19.819	14.942	0.532
362.000	259.847	80.002	19.995	103.228	19.815	15.267	0.485
362.500	260.103	80.001	19.997	103.230	19.818	14.985	0.484
363.000	260.336	80.001	19.995	103.229	19.821	14.800	0.497
363.500	260.563	80.000	19.995	103.229	19.820	14.815	0.475
364.000	260.821	80.001	19.994	103.229	19.818	15.006	0.472
364.500	261.043	80.001	19.996	103.228	19.820	14.880	0.482
365.000	261.327	80.000	19.995	103.227	19.815	15.203	0.493
365.500	261.565	79.999	19.995	103.227	19.818	14.981	0.515
366.000	261.838	80.000	19.994	103.227	19.819	14.947	0.517
366.500	262.080	79.999	19.996	103.227	19.815	15.201	0.513
367.000	262.306	79.999	19.995	103.226	19.816	15.193	0.491
367.500	262.558	79.999	19.995	103.226	19.817	15.046	0.473
368.000	262.839	79.998	19.995	103.226	19.816	15.138	0.505
368.500	263.075	80.000	19.995	103.226	19.815	15.215	0.525
369.000	263.310	79.999	19.995	103.226	19.818	14.967	0.494
369.500	263.595	80.000	19.994	103.226	19.811	15.515	0.495
370.000	263.847	80.001	19.996	103.225	19.815	15.254	0.528
370.500	264.078	79.999	19.995	103.225	19.811	15.512	0.510
371.000	264.318	79.999	19.995	103.220	19.810	15.604	0.478
371.500	264.570	79.998	19.995	103.215	19.813	15.392	0.481
372.000	264.835	79.999	19.995	103.210	19.817	15.083	0.504
372.500	265.069	79.999	19.995	103.205	19.816	15.159	0.508
373.000	265.331	79.999	19.996	103.205	19.811	15.562	0.498
373.500	265.573	80.000	19.995	103.206	19.813	15.370	0.500
374.001	265.864	80.000	19.995	103.209	19.812	15.498	0.518
374.500	266.099	80.000	19.995	103.213	19.811	15.545	0.530
375.000	266.320	80.000	19.995	103.217	19.810	15.581	0.492
375.500	266.560	79.999	19.995	103.218	19.812	15.478	0.458
376.000	266.837	80.000	19.994	103.221	19.810	15.583	0.489
376.500	267.076	79.998	19.994	103.222	19.810	15.585	0.516
377.000	267.293	79.999	19.995	103.224	19.809	15.681	0.486
377.500	267.589	80.001	19.995	103.225	19.810	15.619	0.485
378.000	267.842	79.999	19.994	103.225	19.812	15.474	0.531
378.501	268.070	80.001	19.995	103.227	19.812	15.466	0.515
379.001	268.326	79.999	19.994	103.229	19.811	15.541	0.482
379.500	268.604	80.001	19.994	103.229	19.810	15.584	0.509
380.000	268.830	79.999	19.994	103.229	19.814	15.345	0.519
380.501	269.073	80.000	19.995	103.227	19.808	15.754	0.486
381.001	269.333	80.000	19.995	103.221	19.808	15.748	0.486
381.500	269.586	80.000	19.994	103.219	19.808	15.802	0.509
382.000	269.840	80.000	19.995	103.219	19.806	15.955	0.510
382.500	270.062	79.999	19.995	103.218	19.805	16.007	0.491
383.000	270.372	79.999	19.994	103.221	19.812	15.439	0.504
383.500	270.618	79.999	19.995	103.226	19.811	15.569	0.544
384.000	270.832	80.000	19.995	103.226	19.813	15.367	0.508
384.500	271.104	80.000	19.994	103.226	19.813	15.407	0.474
385.000	271.356	79.999	19.994	103.226	19.809	15.717	0.505
385.500	271.596	80.000	19.995	103.226	19.808	15.789	0.508
386.000	271.904	80.000	19.995	103.222	19.811	15.528	0.520
386.500	272.147	80.000	19.994	103.222	19.809	15.661	0.550
387.000	272.355	80.001	19.994	103.220	19.811	15.519	0.501
387.500	272.627	80.001	19.994	103.219	19.811	15.506	0.466
388.000	272.877	80.000	19.995	103.219	19.812	15.433	0.501
388.500	273.125	80.000	19.995	103.222	19.810	15.578	0.510
389.000	273.425	80.000	19.995	103.221	19.809	15.697	0.523
389.500	273.622	80.001	19.995	103.223	19.807	15.857	0.522
390.000	273.903	80.000	19.995	103.228	19.810	15.606	0.488
390.500	274.161	79.999	19.996	103.228	19.808	15.745	0.509
391.000	274.401	79.999	19.995	103.227	19.808	15.793	0.519
391.500	274.642	79.999	19.995	103.226	19.810	15.648	0.489
392.000	274.913	80.000	19.995	103.226	19.807	15.869	0.496
392.500	275.170	79.999	19.994	103.218	19.811	15.573	0.520
393.000	275.419	80.000	19.995	103.215	19.808	15.777	0.517
393.500	275.684	80.000	19.995	103.214	19.809	15.670	0.510
394.000	275.930	79.999	19.995	103.215	19.805	15.983	0.513
394.500	276.148	79.999	19.995	103.211	19.806	15.949	0.488
395.000	276.392	80.000	19.995	103.208	19.805	16.009	0.463
395.500	276.652	80.000	19.995	103.204	19.805	16.012	0.482
396.000	276.893	80.000	19.994	103.202	19.801	16.301	0.502
396.500	277.182	79.998	19.995	103.199	19.803	16.160	0.516
397.000	277.418	79.999	19.995	103.198	19.802	16.241	0.527
397.500	277.709	79.999	19.995	103.202	19.801	16.294	0.526
398.000	277.956	80.000	19.996	103.207	19.803	16.149	0.533
398.500	278.204	80.000	19.995	103.208	19.801	16.319	0.516
399.000	278.428	80.000	19.996	103.207	19.801	16.290	0.483
399.500	278.711	80.000	19.995	103.205	19.801	16.298	0.489
400.000	278.958	79.998	19.995	103.203	19.804	16.059	0.519
400.500	279.200	79.997	19.995	103.198	19.800	16.368	0.510
401.000	279.434	79.999	19.995	103.193	19.801	16.272	0.483
401.500	279.702	79.998	19.995	103.192	19.803	16.148	0.489
402.000	279.938	79.999	19.996	103.199	19.801	16.300	0.503
402.500	280.193	79.999	19.997	103.203	19.802	16.193	0.497
403.000	280.439	79.999	19.996	103.209	19.802	16.266	0.496
403.500	280.685	79.998	19.995	103.214	19.802	16.206	0.496
404.000	280.942	80.000	19.996	103.218	19.802	16.264	0.498
404.500	281.200	79.999	19.996	103.216	19.807	15.873	0.509
405.000	281.450	80.000	19.995	103.216	19.802	16.237	0.512
405.500	281.671	79.999	19.995	103.217	19.802	16.194	0.490
406.000	281.975	79.999	19.996	103.219	19.801	16.306	0.498
406.500	282.216	80.001	19.996	103.221	19.801	16.270	0.535
407.000	282.441	79.999	19.997	103.223	19.797	16.619	0.506
407.500	282.702	80.000	19.996	103.224	19.798	16.540	0.476
408.000	282.919	80.000	19.995	103.224	19.796	16.666	0.482
408.500	283.205	80.002	19.994	103.224	19.796	16.718	0.490
409.000	283.425	80.001	19.995	103.223	19.796	16.723	0.505
409.500	283.677	80.000	19.997	103.221	19.797	16.613	0.490
410.000	283.958	80.000	19.994	103.222	19.800	16.404	0.503
410.500	284.182	79.999	19.995	103.221	19.799	16.450	0.519
411.000	284.423	80.001	19.996	103.222	19.799	16.424	0.485
411.500	284.635	80.002	19.996	103.220	19.799	16.462	0.459
412.000	284.914	80.000	19.995	103.219	19.802	16.240	0.471
412.500	285.117	80.001	19.996	103.218	19.799	16.424	0.486
413.000	285.401	80.003	19.996	103.218	19.802	16.259	0.485
413.500	285.682	80.002	19.995	103.218	19.797	16.619	0.526
414.000	285.914	80.003	19.997	103.219	19.799	16.495	0.539
414.500	286.177	80.002	19.995	103.222	19.797	16.630	0.504
415.000	286.432	80.002	19.995	103.222	19.798	16.562	0.506
415.500	286.694	80.001	19.996	103.222	19.797	16.596	0.518
416.000	286.935	80.002	19.996	103.216	19.796	16.673	0.510
416.500	287.167	80.000	19.995	103.212	19.798	16.541	0.488
417.000	287.462	80.002	19.995	103.206	19.799	16.493	0.500
417.500	287.737	80.002	19.996	103.204	19.796	16.728	0.549
418.000	287.967	80.001	19.996	103.198	19.795	16.751	0.538
418.500	288.177	80.001	19.996	103.200	19.799	16.489	0.473
419.000	288.434	80.000	19.995	103.201	19.797	16.612	0.454
419.500	288.674	80.002	19.996	103.207	19.793	16.954	0.482
420.000	288.917	80.000	19.996	103.210	19.794	16.830	0.490
420.500	289.181	80.000	19.997	103.215	19.793	16.890	0.495
421.000	289.448	80.000	19.996	103.219	19.794	16.881	0.519
421.500	289.634	80.001	19.995	103.220	19.795	16.774	0.492
422.000	289.904	80.001	19.996	103.219	19.793	16.902	0.454
422.501	290.202	80.000	19.996	103.219	19.794	16.826	0.512
423.000	290.428	79.999	19.997	103.219	19.794	16.877	0.546
423.500	290.692	80.001	19.996	103.220	19.796	16.715	0.507
424.000	290.976	79.999	19.998	103.220	19.796	16.702	0.518
424.500	291.216	80.000	19.997	103.224	19.796	16.694	0.536
425.000	291.436	80.000	19.996	103.222	19.793	16.892	0.493
425.500	291.715	80.000	19.996	103.217	19.794	16.827	0.479
426.000	291.971	79.999	19.996	103.216	19.795	16.764	0.517
426.500	292.243	79.998	19.996	103.217	19.795	16.737	0.532
427.000	292.515	79.998	19.996	103.217	19.794	16.812	0.536
427.500	292.747	80.001	19.997	103.219	19.792	17.004	0.524
428.000	292.985	79.999	19.995	103.224	19.796	16.702	0.487
428.500	293.229	79.999	19.996	103.225	19.796	16.671	0.476
429.000	293.485	80.001	19.996	103.225	19.794	16.855	0.491
429.500	293.720	79.999	19.997	103.224	19.797	16.583	0.495
430.000	293.968	79.998	19.995	103.224	19.796	16.691	0.487
430.500	294.222	80.000	19.996	103.224	19.797	16.640	0.492
431.000	294.515	79.999	19.996	103.224	19.796	16.652	0.524
431.500	294.745	79.999	19.996	103.223	19.795	16.772	0.535
432.000	294.978	80.000	19.996	103.222	19.791	17.076	0.493
432.500	295.220	80.001	19.995	103.222	19.794	16.820	0.469
433.000	295.478	80.000	19.995	103.222	19.797	16.603	0.487
433.500	295.731	80.000	19.995	103.223	19.792	16.961	0.506
434.000	295.984	80.001	19.997	103.224	19.795	16.761	0.509
434.500	296.204	80.000	19.995	103.225	19.798	16.560	0.490
435.000	296.467	80.001	19.995	103.226	19.797	16.613	0.478
435.500	296.705	80.001	19.996	103.225	19.798	16.564	0.492
436.000	296.962	79.999	19.995	103.222	19.797	16.622	0.498
436.500	297.235	80.001	19.995	103.216	19.794	16.871	0.512
437.000	297.476	80.000	19.995	103.211	19.795	16.726	0.521
437.500	297.744	80.001	19.995	103.204	19.793	16.912	0.512
438.000	298.015	80.001	19.996	103.202	19.795	16.789	0.524
438.500	298.223	80.001	19.995	103.204	19.798	16.549	0.509
439.000	298.485	80.001	19.996	103.209	19.794	16.820	0.474
439.500	298.705	80.003	19.995	103.214	19.793	16.896	0.476
440.000	298.996	80.002	19.995	103.220	19.797	16.636	0.497
440.500	299.260	80.002	19.995	103.216	19.799	16.462	0.533
441.000	299.476	80.003	19.995	103.211	19.797	16.620	0.518
441.500	299.757	80.003	19.995	103.207	19.797	16.616	0.489
442.000	300.030	80.002	19.995	103.205	19.796	16.720	0.526
442.500	300.269	80.001	19.995	103.206	19.796	16.699	0.533
443.000	300.535	80.001	19.995	103.211	19.794	16.848	0.509
443.500	300.796	80.002	19.994	103.215	19.795	16.735	0.516
444.000	301.017	80.002	19.994	103.216	19.800	16.380	0.504
444.501	301.238	80.000	19.994	103.213	19.793	16.882	0.462
445.000	301.528	80.001	19.995	103.208	19.795	16.747	0.477
445.500	301.775	80.001	19.995	103.205	19.794	16.865	0.524
446.000	302.007	80.001	19.994	103.203	19.792	16.999	0.508
446.500	302.239	80.002	19.995	103.202	19.795	16.793	0.471
447.000	302.492	80.001	19.995	103.201	19.796	16.707	0.475
447.500	302.757	80.001	19.994	103.202	19.792	17.030	0.502
448.000	303.011	80.003	19.995	103.200	19.793	16.956	0.519
448.500	303.295	80.001	19.994	103.200	19.792	17.016	0.528
449.000	303.542	80.001	19.995	103.197	19.788	17.313	0.534
449.500	303.788	79.999	19.995	103.201	19.792	17.029	0.512
450.000	304.065	80.000	19.995	103.202	19.788	17.283	0.508
450.500	304.270	79.999	19.995	103.208	19.789	17.187	0.502
451.000	304.512	80.000	19.995	103.210	19.789	17.253	0.464
451.500	304.761	80.000	19.995	103.218	19.788	17.291	0.469
452.000	305.006	80.000	19.996	103.219	19.792	17.028	0.492
452.500	305.279	80.000	19.996	103.219	19.788	17.289	0.506
453.000	305.539	80.001	19.997	103.218	19.790	17.119	0.526
453.500	305.818	80.001	19.995	103.218	19.786	17.440	0.536
454.000	306.091	80.000	19.995	103.218	19.786	17.421	0.546
454.500	306.347	79.999	19.995	103.216	19.788	17.295	0.541
455.000	306.545	80.001	19.995	103.210	19.787	17.381	0.491
455.500	306.858	80.000	19.995	103.205	19.787	17.361	0.482
456.000	307.093	80.000	19.995	103.198	19.787	17.371	0.529
456.500	307.340	80.000	19.995	103.190	19.785	17.537	0.515
457.000	307.579	79.999	19.996	103.189	19.786	17.477	0.484
457.500	307.829	80.000	19.995	103.194	19.790	17.146	0.487
458.000	308.102	80.001	19.995	103.199	19.785	17.549	0.506
458.500	308.347	80.001	19.995	103.203	19.785	17.513	0.521
459.000	308.589	80.000	19.995	103.208	19.789	17.240	0.503
459.500	308.858	80.001	19.995	103.211	19.783	17.665	0.499
460.000	309.072	79.999	19.996	103.212	19.785	17.522	0.497
460.500	309.346	79.999	19.996	103.212	19.784	17.606	0.485
461.000	309.573	80.000	19.995	103.215	19.783	17.658	0.495
461.500	309.813	79.999	19.995	103.214	19.781	17.812	0.484
462.000	310.086	80.000	19.996	103.213	19.780	17.935	0.490
462.500	310.354	80.001	19.995	103.208	19.779	17.961	0.527
463.000	310.583	79.999	19.996	103.205	19.780	17.907	0.519
463.500	310.843	80.001	19.995	103.200	19.778	18.063	0.493
464.000	311.087	80.000	19.996	103.200	19.777	18.107	0.496
464.500	311.360	80.001	19.996	103.197	19.777	18.106	0.510
465.000	311.591	79.999	19.995	103.197	19.777	18.116	0.511
465.500	311.870	80.000	19.996	103.198	19.772	18.507	0.507
466.000	312.150	80.000	19.995	103.196	19.777	18.160	0.535
466.500	312.400	79.999	19.995	103.192	19.777	18.139	0.545
467.000	312.632	80.000	19.995	103.190	19.774	18.389	0.506
467.500	312.890	79.998	19.996	103.188	19.779	18.025	0.486
468.000	313.167	79.999	19.996	103.185	19.775	18.315	0.513
468.500	313.399	80.000	19.995	103.183	19.773	18.441	0.522
469.000	313.667	80.000	19.996	103.184	19.773	18.468	0.505
469.500	313.928	80.001	19.995	103.184	19.770	18.693	0.514
470.000	314.157	80.001	19.995	103.185	19.766	19.015	0.509
470.500	314.434	80.000	19.995	103.185	19.768	18.871	0.498
471.000	314.694	80.001	19.995	103.188	19.771	18.581	0.521
471.500	314.932	80.000	19.995	103.194	19.765	19.088	0.517
472.000	315.133	80.000	19.995	103.195	19.768	18.860	0.468
472.500	315.454	80.001	19.995	103.200	19.768	18.834	0.481
473.000	315.699	80.000	19.995	103.207	19.767	18.936	0.544
473.500	315.955	80.002	19.995	103.206	19.761	19.333	0.533
474.000	316.211	80.000	19.994	103.202	19.762	19.272	0.506
474.500	316.433	80.000	19.995	103.203	19.759	19.515	0.495
475.000	316.692	80.000	19.995	103.199	19.757	19.643	0.479
475.500	316.945	80.000	19.995	103.193	19.759	19.543	0.496
476.000	317.182	80.000	19.994	103.192	19.756	19.778	0.501
476.500	317.446	80.000	19.995	103.196	19.752	20.087	0.496
477.000	317.681	80.002	19.994	103.197	19.753	19.960	0.500
477.500	317.953	80.000	19.996	103.200	19.754	19.922	0.503
478.000	318.218	79.999	19.994	103.203	19.750	20.242	0.522
478.500	318.446	80.000	19.994	103.206	19.752	20.059	0.515
479.000	318.729	79.999	19.995	103.205	19.749	20.322	0.502
479.500	318.957	80.000	19.995	103.208	19.748	20.335	0.511
480.000	319.253	80.000	19.995	103.213	19.746	20.511	0.518
480.500	319.500	80.000	19.994	103.217	19.746	20.546	0.533
481.000	319.744	80.000	19.994	103.216	19.745	20.573	0.517
481.500	320.013	79.998	19.995	103.210	19.741	20.886	0.502
482.000	320.222	79.999	19.995	103.203	19.740	21.010	0.496
482.500	320.472	79.999	19.995	103.195	19.737	21.197	0.469
483.000	320.724	80.000	19.995	103.187	19.739	21.090	0.481
483.500	321.009	80.001	19.996	103.184	19.737	21.213	0.519
484.000	321.218	79.997	19.996	103.184	19.734	21.454	0.515
484.500	321.513	80.000	19.995	103.185	19.734	21.457	0.499
485.000	321.753	79.999	19.997	103.185	19.731	21.694	0.520
485.500	321.993	79.999	19.995	103.185	19.731	21.696	0.508
486.000	322.241	79.999	19.995	103.185	19.729	21.847	0.484
486.501	322.525	80.000	19.996	103.186	19.730	21.716	0.510
487.000	322.723	79.999	19.996	103.186	19.726	22.038	0.507
487.500	322.993	79.999	19.996	103.188	19.726	22.028	0.475
488.000	323.260	80.000	19.996	103.189	19.723	22.294	0.503
488.500	323.483	80.000	19.996	103.195	19.721	22.400	0.513
489.000	323.741	80.000	19.996	103.203	19.720	22.489	0.485
489.500	323.990	79.999	19.996	103.208	19.718	22.686	0.494
490.000	324.234	80.000	19.996	103.209	19.718	22.683	0.500
490.500	324.451	80.001	19.996	103.209	19.719	22.574	0.477
491.000	324.728	79.999	19.996	103.203	19.713	23.022	0.477
491.500	324.978	80.000	19.997	103.196	19.710	23.278	0.511
492.000	325.227	80.001	19.996	103.191	19.712	23.083	0.513
492.500	325.475	80.000	19.995	103.188	19.711	23.220	0.498
493.000	325.742	80.000	19.995	103.189	19.708	23.466	0.506
493.500	325.993	80.000	19.995	103.196	19.707	23.497	0.517
494.000	326.224	80.001	19.996	103.204	19.705	23.661	0.500
494.500	326.485	80.000	19.995	103.212	19.703	23.779	0.487
495.000	326.741	80.001	19.996	103.219	19.700	24.064	0.505
495.500	326.999	80.000	19.995	103.225	19.700	24.062	0.515
496.000	327.234	80.002	19.995	103.227	19.695	24.429	0.504
496.501	327.500	80.001	19.995	103.226	19.692	24.645	0.497
497.000	327.751	80.002	19.996	103.223	19.693	24.608	0.509
497.500	327.952	80.002	19.996	103.217	19.689	24.867	0.484
498.000	328.264	80.001	19.995	103.209	19.690	24.772	0.482
498.500	328.502	80.001	19.996	103.201	19.686	25.122	0.531
499.000	328.769	80.002	19.995	103.189	19.683	25.329	0.527
499.500	329.034	80.001	19.995	103.181	19.679	25.632	0.518
500.000	329.275	80.001	19.995	103.179	19.676	25.880	0.519
500.500	329.532	80.002	19.994	103.176	19.678	25.758	0.502
501.000	329.764	80.002	19.995	103.169	19.674	26.013	0.493
501.500	330.029	80.002	19.995	103.170	19.672	26.169	0.493
502.000	330.299	80.001	19.994	103.170	19.669	26.451	0.517
502.500	330.513	80.001	19.995	103.170	19.668	26.496	0.510
503.000	330.762	80.000	19.994	103.175	19.663	26.914	0.474
503.500	331.005	80.001	19.995	103.184	19.660	27.119	0.478
504.000	331.246	80.000	19.994	103.189	19.660	27.102	0.488
504.500	331.509	80.001	19.994	103.191	19.658	27.293	0.494
505.000	331.770	80.000	19.995	103.192	19.653	27.654	0.514
505.500	331.983	80.000	19.994	103.192	19.652	27.735	0.499
506.000	332.318	80.000	19.996	103.197	19.651	27.771	0.511
506.500	332.565	79.999	19.996	103.200	19.649	27.969	0.565
507.000	332.789	80.001	19.994	103.200	19.645	28.263	0.526
507.500	333.058	80.000	19.995	103.199	19.642	28.525	0.482
508.000	333.315	80.000	19.995	103.197	19.637	28.878	0.510
508.500	333.560	80.000	19.996	103.190	19.632	29.236	0.514
509.000	333.823	80.001	19.995	103.188	19.630	29.370	0.505
509.500	334.073	79.999	19.995	103.188	19.625	29.799	0.511
510.000	334.354	80.000	19.994	103.188	19.625	29.816	0.522
510.500	334.580	80.001	19.995	103.188	19.622	30.053	0.519
511.000	334.867	80.000	19.995	103.188	19.617	30.377	0.509
511.500	335.103	80.001	19.995	103.186	19.616	30.451	0.518
512.000	335.367	80.000	19.995	103.184	19.613	30.697	0.512
512.500	335.637	79.999	19.996	103.184	19.610	30.945	0.517
513.000	335.842	80.001	19.996	103.177	19.602	31.573	0.504
513.500	336.095	80.000	19.995	103.177	19.599	31.760	0.466
514.000	336.327	79.999	19.995	103.177	19.597	31.944	0.471
514.500	336.585	80.002	19.995	103.178	19.592	32.324	0.488
515.000	336.875	80.001	19.995	103.178	19.586	32.768	0.519
515.500	337.101	80.000	19.996	103.181	19.592	32.313	0.532
516.000	337.373	80.000	19.996	103.180	19.583	32.993	0.507
516.500	337.641	80.000	19.996	103.181	19.579	33.335	0.519
517.000	337.869	80.001	19.996	103.181	19.574	33.667	0.518
517.500	338.136	80.001	19.995	103.180	19.571	33.917	0.495
518.000	338.371	80.001	19.996	103.183	19.567	34.208	0.498
518.500	338.658	80.002	19.996	103.184	19.562	34.614	0.512
519.000	338.903	80.001	19.995	103.184	19.561	34.662	0.527
519.500	339.189	80.002	19.996	103.184	19.558	34.938	0.531
520.000	339.427	80.002	19.996	103.184	19.552	35.419	0.528
520.500	339.684	80.002	19.997	103.184	19.548	35.718	0.510
521.000	339.940	80.003	19.996	103.184	19.547	35.805	0.504
521.500	340.163	80.003	19.996	103.182	19.543	36.111	0.496
522.000	340.425	80.002	19.996	103.181	19.541	36.239	0.482
522.500	340.664	80.003	19.996	103.181	19.531	36.954	0.493
523.000	340.906	80.001	19.998	103.181	19.527	37.332	0.491
523.500	341.152	80.003	19.996	103.182	19.517	38.042	0.484
524.000	341.432	80.003	19.996	103.190	19.518	37.992	0.507
524.500	341.691	80.003	19.996	103.197	19.511	38.491	0.533
525.001	341.903	80.003	19.996	103.198	19.512	38.449	0.505
525.500	342.139	80.002	19.996	103.197	19.505	38.975	0.460
526.000	342.456	80.003	19.996	103.197	19.501	39.306	0.500
526.500	342.682	80.002	19.997	103.189	19.496	39.681	0.548
527.000	342.884	80.003	19.995	103.182	19.489	40.208	0.486
527.500	343.173	80.002	19.996	103.176	19.486	40.458	0.459
528.000	343.405	80.002	19.995	103.174	19.480	40.864	0.506
528.500	343.671	80.002	19.995	103.173	19.475	41.269	0.509
529.000	343.908	80.001	19.996	103.170	19.471	41.551	0.501
529.500	344.139	80.005	19.995	103.166	19.464	42.158	0.486
530.000	344.434	80.002	19.995	103.169	19.455	42.791	0.497
530.500	344.651	80.002	19.996	103.171	19.452	43.007	0.519
531.000	344.900	80.000	19.995	103.172	19.444	43.633	0.489
531.500	345.164	80.003	19.994	103.174	19.437	44.186	0.489
532.000	345.403	80.001	19.994	103.179	19.434	44.441	0.509
532.500	345.674	80.000	19.995	103.181	19.430	44.750	0.507
533.000	345.920	80.002	19.995	103.176	19.417	45.754	0.513
533.500	346.200	80.001	19.996	103.169	19.415	45.869	0.521
534.000	346.401	80.001	19.996	103.162	19.407	46.508	0.504
534.500	346.674	80.001	19.995	103.156	19.401	46.930	0.478
535.000	346.929	79.999	19.995	103.149	19.394	47.511	0.501
535.500	347.161	80.001	19.994	103.148	19.389	47.872	0.508
536.000	347.432	80.001	19.995	103.148	19.382	48.379	0.495
536.500	347.662	80.000	19.995	103.148	19.379	48.649	0.502
537.000	347.893	80.000	19.995	103.147	19.365	49.691	0.481
537.500	348.166	80.001	19.996	103.147	19.366	49.659	0.482
538.000	348.416	80.001	19.995	103.146	19.356	50.415	0.514
538.500	348.655	79.999	19.995	103.146	19.351	50.761	0.506
539.000	348.938	80.002	19.994	103.150	19.342	51.461	0.506
539.500	349.165	80.000	19.995	103.158	19.334	52.107	0.516
540.000	349.460	79.999	19.995	103.161	19.328	52.518	0.516
540.500	349.722	80.000	19.996	103.162	19.320	53.143	0.539
541.000	349.985	79.999	19.995	103.166	19.316	53.492	0.541
541.500	350.245	80.000	19.995	103.168	19.312	53.751	0.524
542.000	350.487	79.999	19.995	103.163	19.305	54.344	0.513
542.500	350.718	80.001	19.995	103.164	19.296	54.999	0.487
543.000	350.967	79.999	19.994	103.162	19.287	55.720	0.476
543.500	351.240	80.001	19.996	103.157	19.282	56.108	0.501
544.000	351.446	80.000	19.996	103.150	19.275	56.612	0.501
544.500	351.756	80.001	19.995	103.144	19.268	57.175	0.498
545.000	351.974	79.999	19.995	103.141	19.256	58.055	0.522
545.500	352.232	80.000	19.995	103.145	19.252	58.373	0.501
546.000	352.465	80.001	19.996	103.153	19.244	59.002	0.483
546.500	352.742	80.000	19.995	103.167	19.241	59.181	0.501
547.001	352.981	79.999	19.995	103.184	19.230	60.041	0.513
547.500	353.244	80.001	19.997	103.190	19.222	60.686	0.509
548.000	353.462	80.000	19.997	103.186	19.215	61.170	0.492
548.500	353.730	80.000	19.995	103.178	19.205	61.974	0.484
549.000	353.961	80.001	19.995	103.166	19.196	62.643	0.493
549.500	354.233	80.001	19.995	103.157	19.189	63.189	0.501
550.000	354.496	80.001	19.995	103.153	19.179	63.954	0.519
550.500	354.733	79.999	19.995	103.153	19.174	64.326	0.517
551.000	354.982	80.000	19.995	103.151	19.163	65.208	0.493
551.500	355.248	80.001	19.995	103.151	19.154	65.835	0.501
552.000	355.482	80.001	19.995	103.154	19.149	66.227	0.508
552.500	355.766	79.999	19.994	103.159	19.139	67.024	0.508
553.000	356.001	80.001	19.993	103.168	19.131	67.626	0.518
553.500	356.237	80.000	19.994	103.175	19.122	68.331	0.495
554.000	356.507	80.000	19.995	103.179	19.109	69.285	0.489
554.500	356.754	79.998	19.995	103.171	19.108	69.373	0.512
555.000	357.007	80.001	19.994	103.162	19.098	70.119	0.509
555.500	357.277	79.999	19.995	103.154	19.088	70.900	0.512
556.000	357.541	80.002	19.995	103.155	19.083	71.317	0.528
556.500	357.780	79.999	19.995	103.156	19.069	72.368	0.518
557.000	358.032	80.002	19.993	103.153	19.060	73.055	0.497
557.500	358.310	79.998	19.995	103.151	19.050	73.816	0.511
558.000	358.560	80.001	19.995	103.151	19.041	74.525	0.529
558.500	358.804	80.002	19.995	103.146	19.032	75.234	0.511
559.000	359.054	80.002	19.995	103.141	19.026	75.667	0.494
559.500	359.333	79.998	19.995	103.144	19.011	76.807	0.511
560.000	359.572	80.001	19.996	103.143	19.006	77.215	0.523
560.500	359.789	80.001	19.996	103.143	18.997	77.863	0.487
561.000	360.065	80.001	19.995	103.141	18.989	78.532	0.474
561.500	360.320	80.001	19.995	103.136	18.976	79.463	0.512
562.000	360.584	80.001	19.995	103.131	18.969	80.007	0.525
562.500	360.823	80.000	19.995	103.135	18.958	80.827	0.512
563.000	361.085	80.001	19.995	103.137	18.953	81.218	0.502
563.500	361.328	80.001	19.994	103.139	18.941	82.189	0.503
564.000	361.599	80.000	19.995	103.142	18.933	82.739	0.510
564.500	361.860	80.001	19.995	103.148	18.922	83.657	0.523
565.000	362.087	79.999	19.995	103.145	18.911	84.463	0.509
565.500	362.340	80.000	19.994	103.139	18.905	84.953	0.484
566.000	362.591	79.997	19.995	103.138	18.890	86.057	0.493
566.500	362.818	80.001	19.994	103.132	18.882	86.714	0.491
567.000	363.054	80.002	19.995	103.128	18.873	87.365	0.470
567.500	363.332	80.000	19.994	103.130	18.862	88.187	0.489
568.000	363.578	79.999	19.995	103.134	18.855	88.714	0.519
568.500	363.852	80.000	19.995	103.133	18.844	89.621	0.522
569.000	364.100	80.000	19.996	103.137	18.836	90.194	0.521
569.500	364.368	79.998	19.995	103.135	18.825	91.043	0.519
570.000	364.635	80.001	19.994	103.128	18.814	91.894	0.526
570.500	364.879	80.000	19.995	103.127	18.804	92.666	0.523
571.000	365.144	80.000	19.994	103.129	18.795	93.351	0.510
571.500	365.363	79.999	19.995	103.124	18.788	93.876	0.497
572.000	365.627	80.000	19.994	103.124	18.777	94.669	0.484
572.500	365.872	79.998	19.995	103.123	18.770	95.225	0.496
573.000	366.115	80.000	19.995	103.118	18.762	95.846	0.498
573.500	366.391	79.998	19.996	103.113	18.753	96.530	0.504
574.000	366.649	80.001	19.994	103.114	18.746	97.043	0.526
574.500	366.882	80.001	19.994	103.114	18.736	97.817	0.512
575.000	367.185	80.000	19.996	103.114	18.727	98.514	0.513
575.500	367.452	80.000	19.994	103.115	18.715	99.418	0.553
576.000	367.685	80.001	19.994	103.113	18.708	99.989	0.535
576.501	367.923	80.000	19.995	103.112	18.702	100.466	0.485
577.001	368.168	80.001	19.995	103.111	18.694	101.043	0.477
577.500	368.421	79.999	19.995	103.112	18.681	102.001	0.491
578.000	368.688	80.001	19.996	103.110	18.675	102.465	0.509
578.500	368.942	80.001	19.995	103.111	18.666	103.190	0.521
579.000	369.192	80.002	19.995	103.111	18.656	103.941	0.512
579.500	369.475	80.002	19.995	103.111	18.653	104.214	0.518
580.000	369.690	80.002	19.995	103.111	18.645	104.842	0.516
580.501	369.957	80.002	19.994	103.111	18.637	105.404	0.490
581.000	370.195	80.001	19.996	103.109	18.629	106.054	0.494
581.500	370.437	80.001	19.995	103.107	18.622	106.570	0.492
582.000	370.696	80.001	19.995	103.100	18.618	106.874	0.490
582.500	370.953	80.002	19.996	103.097	18.608	107.672	0.509
583.000	371.201	80.001	19.996	103.093	18.601	108.216	0.511
583.500	371.452	80.001	19.995	103.090	18.591	108.939	0.502
584.000	371.685	80.002	19.995	103.086	18.585	109.382	0.492
584.500	371.923	80.000	19.995	103.086	18.576	110.116	0.478
585.000	372.200	80.000	19.996	103.087	18.570	110.524	0.493
585.500	372.475	80.001	19.995	103.090	18.562	111.167	0.533
586.000	372.686	80.002	19.996	103.089	18.562	111.178	0.519
586.500	373.003	80.000	19.996	103.087	18.549	112.174	0.507
587.000	373.236	79.999	19.994	103.090	18.548	112.242	0.539
587.500	373.512	80.001	19.995	103.084	18.542	112.691	0.529
588.001	373.775	79.999	19.996	103.076	18.536	113.167	0.524
588.500	374.011	80.000	19.995	103.072	18.532	113.459	0.519
589.000	374.267	80.000	19.996	103.076	18.527	113.819	0.496
589.500	374.527	79.999	19.996	103.079	18.523	114.163	0.504
590.000	374.766	80.001	19.995	103.086	18.515	114.761	0.507
590.500	375.060	79.999	19.996	103.093	18.513	114.912	0.516
591.000	375.299	80.002	19.996	103.099	18.506	115.419	0.533
591.500	375.560	80.000	19.996	103.096	18.501	115.865	0.517
592.000	375.800	80.001	19.996	103.090	18.500	115.915	0.501
592.500	376.029	80.003	19.995	103.090	18.492	116.504	0.485
593.000	376.293	80.000	19.996	103.086	18.491	116.560	0.481
593.500	376.584	80.000	19.995	103.087	18.488	116.782	0.524
594.000	376.835	80.001	19.995	103.091	18.484	117.145	0.548
594.500	377.092	80.001	19.996	103.097	18.481	117.331	0.525
595.000	377.330	80.003	19.995	103.098	18.475	117.826	0.502
595.500	377.603	80.001	19.995	103.100	18.475	117.815	0.503
596.000	377.850	80.003	19.995	103.094	18.472	118.071	0.516
596.500	378.086	80.002	19.995	103.096	18.467	118.426	0.501
597.000	378.341	80.001	19.996	103.096	18.465	118.555	0.487
597.500	378.578	80.001	19.995	103.096	18.462	118.776	0.491
598.000	378.818	80.002	19.994	103.095	18.461	118.904	0.485
598.501	379.070	80.004	19.996	103.101	18.457	119.182	0.484
599.000	379.355	80.001	19.997	103.103	18.460	118.932	0.515
599.500	379.643	80.000	19.996	103.101	18.457	119.196	0.555
600.000	379.854	80.002	19.995	103.094	18.453	119.499	0.535
600.500	380.117	80.001	19.996	103.090	18.457	119.229	0.486
601.000	380.364	80.002	19.996	103.085	18.454	119.452	0.492
601.500	380.646	80.001	19.998	103.081	18.454	119.462	0.520
602.000	380.892	80.003	19.995	103.077	18.452	119.569	0.528
602.500	381.133	80.002	19.997	103.079	18.452	119.618	0.508
603.000	381.396	80.004	19.996	103.080	18.453	119.515	0.496
603.500	381.673	80.001	19.996	103.078	18.453	119.476	0.522
604.000	381.929	80.001	19.997	103.075	18.453	119.512	0.536
604.500	382.147	80.006	19.996	103.073	18.452	119.606	0.503
605.000	382.407	80.002	19.994	103.070	18.454	119.395	0.476
605.500	382.659	80.001	19.996	103.069	18.459	119.061	0.495
606.000	382.925	80.002	19.996	103.067	18.456	119.306	0.515
606.500	383.154	80.002	19.996	103.067	18.459	119.030	0.507
607.000	383.422	80.002	19.996	103.067	18.462	118.842	0.496
607.500	383.665	80.001	19.996	103.070	18.463	118.702	0.504
608.000	383.931	80.004	19.996	103.077	18.465	118.570	0.510
608.500	384.187	80.001	19.996	103.077	18.468	118.352	0.515
609.000	384.405	80.000	19.996	103.077	18.474	117.897	0.498
609.500	384.694	80.002	19.995	103.076	18.473	117.973	0.491
610.000	384.951	80.001	19.995	103.072	18.476	117.766	0.526
610.500	385.211	80.000	19.996	103.068	18.481	117.337	0.531
611.000	385.454	80.001	19.995	103.073	18.481	117.377	0.510
611.500	385.686	80.001	19.995	103.075	18.485	117.018	0.489
612.000	385.943	80.000	19.995	103.080	18.493	116.443	0.482
612.500	386.207	80.000	19.997	103.085	18.502	115.710	0.505
613.000	386.443	80.000	19.996	103.087	18.500	115.867	0.510
613.500	386.707	79.998	19.996	103.085	18.506	115.460	0.500
614.000	386.939	80.000	19.997	103.088	18.512	114.961	0.499
614.500	387.198	80.000	19.996	103.086	18.515	114.720	0.494
615.000	387.494	79.999	19.996	103.082	18.522	114.195	0.522
615.500	387.713	80.000	19.996	103.078	18.525	113.955	0.535
616.000	387.983	80.000	19.996	103.079	18.531	113.545	0.502
616.500	388.249	79.997	19.996	103.073	18.540	112.827	0.513
617.000	388.496	80.000	19.996	103.075	18.544	112.502	0.524
617.500	388.737	79.999	19.996	103.076	18.548	112.204	0.500
618.000	389.020	79.999	19.995	103.076	18.556	111.615	0.506
618.500	389.206	79.999	19.997	103.076	18.563	111.097	0.497
619.000	389.524	79.999	19.995	103.079	18.565	110.900	0.487
619.501	389.742	80.001	19.995	103.078	18.572	110.349	0.520
620.001	390.000	79.998	19.996	103.079	18.579	109.852	0.506
620.500	390.261	79.997	19.996	103.079	18.585	109.380	0.497
621.000	390.525	80.000	19.997	103.076	18.596	108.584	0.522
621.500	390.769	79.998	19.996	103.074	18.602	108.085	0.517
622.000	391.052	79.999	19.996	103.072	18.606	107.771	0.518
622.500	391.301	79.998	19.996	103.073	18.612	107.307	0.530
623.000	391.547	80.000	19.995	103.073	18.622	106.590	0.514
623.500	391.796	80.000	19.996	103.076	18.625	106.316	0.495
624.000	392.041	79.999	19.996	103.077	18.634	105.638	0.494
624.500	392.268	79.999	19.996	103.077	18.636	105.465	0.483
625.000	392.594	79.998	19.995	103.075	18.647	104.662	0.513
625.500	392.830	79.997	19.994	103.077	18.654	104.110	0.558
626.000	393.104	79.998	19.995	103.077	18.660	103.637	0.536
626.500	393.360	80.000	19.996	103.079	18.669	102.994	0.519
627.000	393.582	80.000	19.996	103.078	18.678	102.305	0.504
627.500	393.867	79.999	19.996	103.081	18.683	101.904	0.493
628.000	394.122	80.000	19.995	103.082	18.695	101.006	0.523
628.500	394.378	80.000	19.995	103.082	18.700	100.593	0.525
629.000	394.638	79.999	19.995	103.078	18.708	99.985	0.514
629.500	394.937	79.999	19.997	103.078	18.718	99.239	0.538
630.000	395.189	79.998	19.995	103.075	18.724	98.725	0.555
630.500	395.430	80.001	19.995	103.072	18.732	98.174	0.522
631.000	395.682	80.001	19.995	103.070	18.739	97.615	0.493
631.500	395.980	79.999	19.996	103.075	18.745	97.193	0.521
632.000	396.214	80.001	19.995	103.079	18.751	96.740	0.541
632.500	396.430	79.999	19.995	103.084	18.760	96.034	0.491
633.000	396.730	79.998	19.996	103.088	18.770	95.228	0.483
633.500	396.953	80.000	19.995	103.089	18.775	94.895	0.520
634.000	397.235	80.001	19.994	103.086	18.786	94.068	0.514
634.500	397.475	80.001	19.994	103.083	18.794	93.413	0.513
635.000	397.744	79.998	19.994	103.079	18.797	93.208	0.515
635.500	398.011	79.999	19.995	103.079	18.806	92.491	0.523
636.000	398.269	80.001	19.994	103.082	18.810	92.161	0.531
636.500	398.525	80.000	19.994	103.082	18.821	91.332	0.519
637.000	398.766	80.001	19.995	103.087	18.830	90.692	0.506
637.500	398.996	80.001	19.995	103.090	18.840	89.922	0.484
638.000	399.250	80.001	19.995	103.091	18.846	89.406	0.477
638.500	399.529	79.999	19.995	103.093	18.851	89.031	0.508
639.000	399.802	79.999	19.994	103.095	18.859	88.441	0.542
639.500	400.032	79.999	19.996	103.089	18.868	87.752	0.527
640.000	400.311	80.000	19.995	103.087	18.872	87.475	0.506
640.500	400.562	79.999	19.995	103.087	18.883	86.628	0.520
641.000	400.833	79.999	19.995	103.089	18.888	86.234	0.526
641.500	401.064	80.000	19.994	103.093	18.895	85.683	0.512
642.000	401.339	79.999	19.995	103.101	18.903	85.108	0.504
642.500	401.599	79.998	19.994	103.106	18.909	84.626	0.520
643.000	401.839	79.999	19.995	103.109	18.916	84.042	0.517
643.500	402.106	79.999	19.995	103.109	18.923	83.556	0.504
644.000	402.367	80.000	19.994	103.110	18.932	82.890	0.518
644.500	402.617	79.999	19.996	103.109	18.938	82.419	0.519
645.000	402.864	80.001	19.995	103.108	18.945	81.830	0.504
645.500	403.120	79.999	19.996	103.107	18.955	81.082	0.500
646.000	403.373	80.000	19.995	103.107	18.960	80.731	0.506
646.500	403.632	79.999	19.996	103.106	18.968	80.121	0.510
647.000	403.894	80.001	19.995	103.106	18.974	79.599	0.516
647.500	404.151	80.000	19.995	103.107	18.981	79.117	0.520
648.000	404.393	79.999	19.996	103.107	18.989	78.486	0.509
648.500	404.660	79.999	19.996	103.107	18.996	77.967	0.504
649.000	404.872	80.000	19.996	103.107	19.003	77.436	0.494
649.500	405.139	80.000	19.994	103.108	19.004	77.382	0.479
650.000	405.354	79.998	19.995	103.108	19.010	76.895	0.481
650.500	405.624	80.000	19.996	103.108	19.014	76.547	0.483
651.000	405.928	79.999	19.995	103.108	19.023	75.877	0.530
651.500	406.159	80.000	19.996	103.108	19.030	75.384	0.554
652.000	406.414	80.000	19.995	103.108	19.037	74.809	0.510
652.500	406.667	79.999	19.995	103.108	19.041	74.520	0.497
653.000	406.937	79.999	19.995	103.109	19.049	73.923	0.516
653.500	407.181	79.999	19.994	103.109	19.050	73.823	0.519
654.000	407.424	79.999	19.995	103.111	19.057	73.248	0.500
654.500	407.660	79.999	19.996	103.114	19.065	72.665	0.483
655.000	407.948	80.001	19.995	103.117	19.067	72.480	0.502
655.500	408.182	80.000	19.996	103.117	19.070	72.291	0.523
656.000	408.467	80.000	19.996	103.117	19.076	71.854	0.520
656.500	408.686	80.000	19.994	103.114	19.084	71.237	0.511
657.000	408.971	80.001	19.995	103.110	19.089	70.826	0.504
657.500	409.199	80.000	19.995	103.112	19.093	70.491	0.509
658.000	409.448	80.000	19.993	103.113	19.096	70.323	0.495
658.500	409.680	80.001	19.995	103.113	19.103	69.746	0.479
659.000	409.967	80.000	19.996	103.116	19.106	69.552	0.500
659.500	410.217	80.002	19.996	103.124	19.109	69.314	0.528
660.000	410.466	80.002	19.995	103.125	19.115	68.823	0.518
660.500	410.721	80.001	19.995	103.127	19.119	68.506	0.502
661.000	410.990	80.003	19.995	103.128	19.126	68.025	0.514
661.500	411.220	80.001	19.995	103.128	19.131	67.610	0.511
662.000	411.523	80.003	19.995	103.122	19.132	67.524	0.516
662.500	411.751	80.001	19.995	103.116	19.134	67.362	0.532
663.000	411.975	80.002	19.994	103.113	19.140	66.924	0.492
663.501	412.237	80.003	19.995	103.111	19.144	66.616	0.469
664.001	412.518	80.002	19.995	103.110	19.148	66.279	0.514
664.500	412.725	80.002	19.995	103.110	19.152	66.007	0.515
665.000	413.022	80.002	19.995	103.114	19.154	65.859	0.496
665.500	413.257	80.002	19.995	103.115	19.160	65.418	0.518
666.000	413.511	80.001	19.995	103.119	19.162	65.222	0.511
666.500	413.769	80.001	19.995	103.123	19.165	64.983	0.501
667.000	414.007	80.001	19.996	103.124	19.170	64.643	0.504
667.500	414.274	80.000	19.995	103.120	19.170	64.659	0.500
668.000	414.506	80.001	19.995	103.118	19.172	64.438	0.502
668.500	414.757	80.001	19.995	103.114	19.176	64.181	0.491
669.000	414.995	80.002	19.995	103.109	19.180	63.841	0.486
669.500	415.275	80.001	19.995	103.107	19.186	63.399	0.504
670.000	415.494	80.002	19.995	103.107	19.188	63.237	0.508
670.500	415.751	80.002	19.996	103.108	19.192	62.927	0.487
671.000	416.031	80.001	19.997	103.111	19.198	62.510	0.506
671.500	416.226	80.000	19.996	103.113	19.200	62.342	0.507
672.001	416.530	80.001	19.996	103.113	19.204	62.038	0.488
672.500	416.749	79.999	19.995	103.115	19.207	61.816	0.511
673.000	417.042	80.001	19.996	103.114	19.209	61.661	0.517
673.500	417.283	80.000	19.996	103.111	19.212	61.422	0.523
674.000	417.529	79.999	19.996	103.110	19.218	60.979	0.510
674.500	417.788	80.002	19.995	103.111	19.218	60.923	0.496
675.000	418.074	80.001	19.995	103.111	19.223	60.584	0.525
675.500	418.297	80.000	19.996	103.114	19.224	60.499	0.527
676.000	418.546	80.001	19.996	103.118	19.228	60.172	0.490
676.500	418.776	80.001	19.996	103.119	19.230	60.008	0.475
677.000	419.041	80.001	19.994	103.120	19.231	59.938	0.487
677.500	419.301	80.002	19.996	103.120	19.235	59.665	0.510
678.000	419.546	80.001	19.997	103.118	19.236	59.582	0.515
678.500	419.790	80.002	19.996	103.114	19.237	59.525	0.497
679.000	420.031	80.001	19.996	103.114	19.239	59.359	0.487
679.500	420.282	80.001	19.996	103.113	19.244	58.992	0.489
680.000	420.545	80.002	19.995	103.117	19.246	58.826	0.503
680.500	420.797	80.001	19.996	103.118	19.250	58.469	0.515
681.000	421.030	80.001	19.996	103.118	19.251	58.419	0.500
681.500	421.296	80.001	19.995	103.116	19.252	58.324	0.491
682.000	421.517	80.002	19.997	103.113	19.261	57.661	0.493
682.500	421.762	80.002	19.995	103.111	19.263	57.533	0.476
683.000	422.049	80.002	19.996	103.113	19.264	57.460	0.499
683.500	422.285	80.002	19.995	103.113	19.266	57.299	0.528
684.000	422.520	80.002	19.995	103.114	19.267	57.208	0.497
684.500	422.783	80.003	19.996	103.114	19.267	57.200	0.485
685.000	423.050	80.002	19.995	103.115	19.270	56.999	0.514
685.500	423.273	80.002	19.995	103.117	19.276	56.511	0.510
686.000	423.539	80.003	19.995	103.121	19.280	56.174	0.490
686.500	423.828	80.003	19.995	103.126	19.279	56.315	0.522
687.000	424.031	80.001	19.996	103.131	19.283	55.998	0.524
687.500	424.294	80.003	19.995	103.132	19.284	55.889	0.479
688.000	424.561	80.003	19.995	103.132	19.287	55.651	0.498
688.500	424.807	80.002	19.994	103.133	19.292	55.302	0.521
689.000	425.048	80.002	19.995	103.133	19.295	55.052	0.500
689.500	425.348	80.003	19.995	103.130	19.295	55.036	0.514
690.000	425.567	80.004	19.996	103.127	19.299	54.716	0.531
690.500	425.849	80.004	19.994	103.124	19.300	54.676	0.510
691.000	426.104	80.002	19.996	103.125	19.302	54.527	0.519
691.500	426.363	80.002	19.995	103.127	19.301	54.562	0.526
692.000	426.573	80.001	19.995	103.133	19.306	54.229	0.492
692.500	426.824	80.002	19.994	103.137	19.313	53.650	0.465
693.000	427.058	80.003	19.994	103.142	19.313	53.682	0.473
693.500	427.331	80.001	19.995	103.143	19.317	53.387	0.496
694.000	427.577	80.002	19.995	103.138	19.318	53.306	0.513
694.500	427.834	80.001	19.995	103.131	19.317	53.398	0.511
695.000	428.077	80.001	19.995	103.125	19.320	53.124	0.501
695.500	428.354	80.000	19.995	103.119	19.323	52.930	0.510
696.000	428.620	79.999	19.996	103.114	19.324	52.835	0.531
696.500	428.825	80.001	19.996	103.115	19.329	52.470	0.507
697.000	429.110	80.001	19.995	103.122	19.333	52.153	0.481
697.500	429.365	80.001	19.996	103.128	19.334	52.056	0.515
698.000	429.599	80.000	19.996	103.128	19.336	51.887	0.515
698.500	429.824	80.001	19.996	103.135	19.337	51.879	0.474
699.000	430.091	79.999	19.996	103.137	19.340	51.623	0.476
699.500	430.349	79.999	19.995	103.132	19.342	51.497	0.509
700.000	430.603	80.000	19.995	103.130	19.346	51.116	0.518
700.500	430.837	79.998	19.996	103.129	19.350	50.851	0.500
701.000	431.103	79.999	19.996	103.125	19.355	50.477	0.494
701.500	431.372	80.000	19.997	103.125	19.357	50.307	0.518
702.000	431.638	79.999	19.996	103.125	19.356	50.368	0.535
702.500	431.910	80.000	19.995	103.127	19.362	49.953	0.536
703.000	432.155	79.999	19.995	103.131	19.361	49.994	0.527
703.500	432.385	79.998	19.996	103.132	19.361	49.975	0.496
704.000	432.679	79.998	19.996	103.134	19.366	49.623	0.499
704.500	432.885	80.000	19.995	103.136	19.371	49.233	0.512
705.000	433.134	79.998	19.997	103.136	19.373	49.107	0.478
705.500	433.358	79.997	19.995	103.133	19.377	48.756	0.464
706.000	433.676	79.998	19.996	103.135	19.381	48.464	0.508
706.500	433.937	80.000	19.996	103.135	19.384	48.238	0.561
707.000	434.209	79.999	19.996	103.138	19.388	47.920	0.556
707.500	434.466	80.000	19.997	103.140	19.390	47.814	0.530
708.000	434.699	80.000	19.996	103.143	19.390	47.798	0.509
708.500	434.963	79.998	19.997	103.141	19.395	47.425	0.493
709.000	435.210	80.000	19.996	103.136	19.397	47.285	0.504
709.500	435.458	80.000	19.996	103.136	19.401	46.950	0.503
710.000	435.701	79.999	19.996	103.136	19.402	46.881	0.493
710.500	435.975	80.000	19.996	103.137	19.406	46.569	0.504
711.000	436.211	79.999	19.996	103.138	19.411	46.157	0.513
711.500	436.460	80.001	19.996	103.136	19.411	46.176	0.497
712.000	436.739	80.000	19.996	103.135	19.415	45.850	0.507
712.500	437.010	79.999	19.997	103.132	19.419	45.586	0.539
713.000	437.224	80.000	19.995	103.132	19.423	45.274	0.518
713.500	437.483	79.999	19.996	103.132	19.422	45.321	0.479
714.000	437.733	80.000	19.996	103.138	19.425	45.137	0.491
714.500	437.994	80.001	19.995	103.138	19.431	44.619	0.510
715.000	438.260	80.000	19.997	103.138	19.433	44.482	0.519
715.500	438.511	79.998	19.996	103.138	19.437	44.202	0.522
716.000	438.760	80.001	19.996	103.140	19.441	43.888	0.509
716.500	439.036	80.000	19.996	103.141	19.443	43.699	0.512
717.000	439.229	80.000	19.995	103.142	19.449	43.271	0.496
717.500	439.506	80.001	19.995	103.146	19.449	43.240	0.469
718.000	439.765	80.000	19.995	103.152	19.453	42.973	0.503
718.500	440.023	79.999	19.994	103.158	19.456	42.762	0.527
719.000	440.281	80.001	19.995	103.159	19.461	42.329	0.517
719.500	440.572	79.999	19.995	103.159	19.465	42.037	0.533
720.000	440.802	80.000	19.996	103.157	19.464	42.086	0.535
720.500	441.048	79.999	19.995	103.152	19.469	41.723	0.498
721.000	441.281	80.000	19.995	103.146	19.470	41.670	0.477
721.500	441.556	80.000	19.995	103.144	19.476	41.209	0.494
722.000	441.827	80.000	19.996	103.145	19.477	41.115	0.528
722.500	442.039	80.000	19.995	103.145	19.477	41.087	0.514
723.000	442.295	80.000	19.996	103.145	19.486	40.428	0.475
723.500	442.555	80.000	19.995	103.145	19.488	40.257	0.492
724.000	442.791	80.000	19.995	103.145	19.493	39.912	0.506
724.500	443.098	80.000	19.995	103.145	19.498	39.519	0.519
725.000	443.341	80.000	19.995	103.144	19.502	39.235	0.547
725.500	443.599	79.999	19.994	103.145	19.499	39.431	0.525
726.000	443.827	80.000	19.994	103.149	19.504	39.033	0.493
726.500	444.097	80.000	19.994	103.153	19.509	38.670	0.492
727.000	444.348	79.999	19.994	103.156	19.513	38.332	0.509
727.500	444.588	80.001	19.994	103.157	19.514	38.267	0.506
728.000	444.855	80.000	19.995	103.156	19.518	37.962	0.500
728.500	445.113	79.999	19.995	103.152	19.524	37.554	0.516
729.000	445.351	80.001	19.994	103.152	19.523	37.607	0.510
729.500	445.604	80.000	19.996	103.148	19.528	37.188	0.493
730.000	445.875	79.999	19.994	103.148	19.531	37.011	0.508
730.500	446.113	80.000	19.994	103.148	19.534	36.728	0.517
731.000	446.377	79.999	19.995	103.148	19.539	36.348	0.505
731.500	446.632	80.001	19.995	103.146	19.541	36.193	0.510
732.000	446.865	80.000	19.996	103.148	19.544	35.987	0.504
732.500	447.141	79.999	19.996	103.148	19.546	35.839	0.499
733.000	447.381	80.000	19.994	103.148	19.552	35.348	0.513
733.500	447.662	79.999	19.994	103.148	19.550	35.505	0.519
734.000	447.894	79.999	19.996	103.147	19.556	35.070	0.517
734.500	448.157	79.998	19.996	103.146	19.559	34.829	0.504
735.000	448.409	80.000	19.994	103.148	19.562	34.571	0.505
735.500	448.680	80.000	19.995	103.148	19.566	34.308	0.519
736.000	448.916	80.000	19.995	103.152	19.570	33.965	0.515
736.500	449.167	80.000	19.994	103.152	19.577	33.447	0.497
737.000	449.460	79.999	19.996	103.153	19.577	33.472	0.515
737.500	449.709	80.002	19.995	103.152	19.581	33.167	0.543
738.000	449.935	80.000	19.995	103.151	19.587	32.702	0.508
738.500	450.201	80.000	19.995	103.148	19.588	32.647	0.483
739.000	450.458	80.001	19.995	103.153	19.591	32.386	0.508
739.500	450.722	79.999	19.995	103.159	19.597	31.964	0.522
740.000	450.961	80.003	19.994	103.163	19.595	32.061	0.512
740.500	451.232	80.000	19.995	103.168	19.605	31.345	0.507
741.000	451.472	80.002	19.994	103.168	19.605	31.346	0.511
741.500	451.748	80.001	19.994	103.163	19.606	31.263	0.513
742.000	451.968	80.001	19.995	103.157	19.611	30.864	0.505
742.500	452.204	80.001	19.995	103.153	19.611	30.819	0.476
743.000	452.466	80.001	19.994	103.148	19.618	30.335	0.477
743.500	452.764	80.000	19.995	103.147	19.621	30.090	0.529
744.000	453.003	80.001	19.995	103.147	19.626	29.743	0.549
744.500	453.243	80.000	19.994	103.150	19.629	29.468	0.508
745.000	453.489	80.001	19.994	103.150	19.631	29.328	0.483
745.500	453.748	80.001	19.994	103.150	19.633	29.178	0.495
746.000	454.003	80.001	19.994	103.150	19.638	28.787	0.509
746.500	454.260	80.001	19.995	103.149	19.637	28.898	0.513
747.000	454.517	80.003	19.994	103.150	19.644	28.339	0.513
747.500	454.785	80.001	19.995	103.152	19.648	28.040	0.519
748.000	455.022	80.001	19.995	103.152	19.650	27.861	0.515
748.500	455.252	80.003	19.995	103.156	19.651	27.759	0.486
749.000	455.510	80.000	19.994	103.159	19.661	27.035	0.478
749.500	455.781	80.001	19.994	103.160	19.661	27.012	0.509
750.000	456.021	80.001	19.994	103.158	19.665	26.748	0.520
750.500	456.295	80.002	19.994	103.159	19.667	26.528	0.513
751.000	456.519	80.001	19.994	103.155	19.670	26.310	0.506
751.500	456.819	80.001	19.995	103.152	19.672	26.163	0.510
752.000	457.034	80.000	19.995	103.149	19.677	25.800	0.519
752.500	457.278	80.000	19.994	103.147	19.680	25.531	0.487
753.000	457.548	80.001	19.994	103.147	19.681	25.499	0.487
753.500	457.798	80.001	19.995	103.152	19.687	25.036	0.517
754.000	458.066	80.000	19.995	103.154	19.688	24.949	0.519
754.500	458.317	80.000	19.994	103.157	19.690	24.772	0.519
755.000	458.579	80.000	19.994	103.159	19.692	24.611	0.516
755.500	458.813	80.000	19.994	103.160	19.698	24.175	0.504
756.000	459.097	80.001	19.994	103.155	19.701	23.925	0.507
756.500	459.322	79.999	19.995	103.154	19.699	24.085	0.513
757.000	459.658	80.001	19.994	103.151	19.705	23.671	0.535
757.500	459.889	80.001	19.994	103.150	19.710	23.263	0.564
758.000	460.145	80.002	19.993	103.150	19.711	23.194	0.527
758.500	460.396	80.001	19.994	103.150	19.711	23.226	0.497
759.000	460.677	80.000	19.995	103.150	19.718	22.621	0.519
759.500	460.867	80.002	19.995	103.151	19.727	21.930	0.501
760.000	461.153	80.001	19.995	103.150	19.720	22.487	0.473
760.500	461.447	80.001	19.994	103.150	19.725	22.085	0.528
761.000	461.680	80.002	19.994	103.151	19.731	21.642	0.554
761.500	461.940	80.002	19.995	103.151	19.740	20.947	0.510
762.001	462.180	80.000	19.995	103.151	19.744	20.634	0.496
762.500	462.493	80.000	19.995	103.151	19.734	21.412	0.527
763.000	462.707	80.000	19.994	103.150	19.738	21.155	0.540
763.500	462.983	80.002	19.995	103.149	19.737	21.170	0.509
764.000	463.256	80.001	19.995	103.150	19.742	20.794	0.520
764.500	463.474	80.002	19.995	103.151	19.742	20.836	0.520
765.000	463.761	80.002	19.994	103.152	19.745	20.598	0.498
765.500	464.000	80.000	19.994	103.152	19.753	20.010	0.516
766.000	464.256	80.000	19.996	103.157	19.752	20.068	0.511
766.500	464.512	80.001	19.994	103.160	19.754	19.918	0.503
767.000	464.812	80.003	19.995	103.160	19.760	19.475	0.534
767.500	465.042	80.003	19.995	103.161	19.759	19.523	0.543
768.000	465.276	80.000	19.995	103.162	19.766	18.965	0.497
768.500	465.503	80.001	19.995	103.159	19.769	18.774	0.463
769.000	465.719	80.002	19.996	103.155	19.767	18.877	0.452
769.500	465.991	80.003	19.995	103.153	19.769	18.763	0.465
770.000	466.260	80.004	19.995	103.152	19.773	18.471	0.514
770.500	466.509	80.002	19.996	103.151	19.772	18.527	0.530
771.000	466.785	80.002	19.996	103.153	19.780	17.900	0.522
771.500	467.042	80.001	19.996	103.159	19.782	17.770	0.528
772.000	467.312	80.001	19.995	103.161	19.785	17.535	0.530
772.500	467.565	80.002	19.994	103.163	19.787	17.372	0.525
773.000	467.820	80.001	19.996	103.167	19.787	17.374	0.515
773.500	468.097	80.002	19.995	103.163	19.790	17.148	0.519
774.000	468.319	80.001	19.994	103.158	19.789	17.225	0.515
774.500	468.546	80.002	19.995	103.159	19.794	16.864	0.474
775.000	468.793	80.002	19.995	103.158	19.797	16.610	0.461
775.500	469.092	80.001	19.996	103.154	19.797	16.574	0.510
776.000	469.317	80.002	19.996	103.159	19.803	16.160	0.535
776.500	469.570	79.999	19.997	103.163	19.802	16.212	0.501
777.000	469.874	80.000	19.995	103.166	19.808	15.730	0.517
777.500	470.074	80.001	19.995	103.171	19.812	15.452	0.531
778.000	470.376	80.000	19.995	103.175	19.813	15.367	0.503
778.500	470.592	79.999	19.996	103.171	19.811	15.522	0.510
779.000	470.894	80.000	19.996	103.164	19.813	15.358	0.518
779.500	471.169	80.000	19.995	103.157	19.817	15.098	0.548
780.000	471.411	79.999	19.995	103.151	19.820	14.861	0.546
780.500	471.660	79.998	19.996	103.148	19.818	15.008	0.504
781.000	471.903	80.001	19.995	103.150	19.822	14.687	0.492
781.500	472.194	80.000	19.995	103.150	19.824	14.522	0.513
782.000	472.425	80.001	19.996	103.150	19.830	14.103	0.528
782.500	472.702	79.999	19.995	103.151	19.830	14.075	0.515
783.000	472.913	79.999	19.995	103.150	19.828	14.197	0.498
783.500	473.225	79.999	19.995	103.147	19.835	13.719	0.505
784.000	473.478	79.999	19.995	103.147	19.836	13.608	0.544
784.500	473.715	79.999	19.996	103.146	19.838	13.493	0.527
785.000	473.959	80.000	19.996	103.146	19.838	13.489	0.486
785.500	474.256	79.999	19.996	103.145	19.842	13.123	0.511
786.000	474.533	80.000	19.996	103.146	19.843	13.069	0.557
786.500	474.735	79.999	19.994	103.146	19.847	12.770	0.526
787.000	475.023	80.000	19.995	103.146	19.848	12.683	0.485
787.500	475.242	79.999	19.995	103.147	19.847	12.761	0.499
788.001	475.480	79.999	19.996	103.147	19.854	12.209	0.482
788.500	475.750	79.999	19.996	103.146	19.854	12.247	0.483
789.000	476.012	79.999	19.995	103.145	19.855	12.126	0.520
789.500	476.268	79.999	19.995	103.145	19.857	12.010	0.525
790.000	476.513	80.000	19.996	103.145	19.855	12.121	0.509
790.500	476.775	79.998	19.995	103.145	19.862	11.621	0.504
791.000	477.030	80.000	19.996	103.145	19.861	11.704	0.512
791.500	477.286	80.000	19.996	103.146	19.863	11.523	0.514
792.000	477.572	79.999	19.996	103.149	19.867	11.249	0.527
792.500	477.817	80.000	19.995	103.150	19.866	11.294	0.537
793.000	478.096	79.997	19.996	103.153	19.868	11.180	0.527
793.500	478.312	79.998	19.997	103.155	19.873	10.766	0.509
794.000	478.580	79.999	19.996	103.155	19.872	10.842	0.489
794.500	478.844	79.999	19.997	103.154	19.874	10.686	0.508
795.000	479.091	79.999	19.997	103.156	19.879	10.294	0.522
795.500	479.373	80.002	19.995	103.159	19.878	10.410	0.520
796.000	479.602	79.998	19.997	103.163	19.884	9.968	0.520
796.500	479.868	79.999	19.996	103.165	19.881	10.157	0.503
797.000	480.164	79.999	19.997	103.165	19.885	9.822	0.529
797.500	480.374	79.999	19.996	103.163	19.885	9.871	0.534
798.000	480.648	80.000	19.995	103.162	19.880	10.221	0.495
798.500	480.888	80.000	19.996	103.160	19.889	9.520	0.499
799.000	481.162	79.999	19.996	103.160	19.889	9.588	0.514
799.500	481.406	79.999	19.996	103.161	19.893	9.277	0.516
800.000	481.664	80.000	19.996	103.159	19.890	9.476	0.510
800.500	481.966	79.998	19.996	103.156	19.890	9.476	0.531
801.000	482.203	80.000	19.995	103.153	19.893	9.274	0.549
801.500	482.454	80.000	19.996	103.150	19.895	9.072	0.513
802.000	482.717	80.000	19.996	103.148	19.894	9.147	0.501
802.500	482.994	80.000	19.996	103.147	19.901	8.671	0.527
803.000	483.248	80.000	19.996	103.145	19.900	8.741	0.535
803.500	483.484	80.001	19.996	103.144	19.900	8.736	0.510
804.000	483.748	79.999	19.995	103.152	19.900	8.747	0.495
804.500	484.028	80.000	19.995	103.159	19.903	8.467	0.523
805.000	484.210	80.000	19.996	103.166	19.907	8.151	0.503
805.500	484.548	79.999	19.996	103.169	19.908	8.088	0.490
806.000	484.756	80.001	19.995	103.169	19.910	7.979	0.533
806.500	485.053	79.998	19.996	103.161	19.907	8.165	0.526
807.000	485.279	79.999	19.996	103.154	19.908	8.112	0.514
807.500	485.553	80.000	19.994	103.150	19.910	7.945	0.511
808.000	485.807	79.999	19.994	103.150	19.908	8.111	0.514
808.500	486.091	80.001	19.995	103.149	19.910	7.959	0.533
809.000	486.329	80.001	19.995	103.149	19.912	7.781	0.530
809.500	486.577	80.000	19.994	103.150	19.912	7.803	0.504
810.000	486.824	79.999	19.996	103.149	19.916	7.519	0.490
810.500	487.117	80.000	19.994	103.153	19.919	7.249	0.517
811.000	487.350	79.999	19.995	103.161	19.923	6.980	0.533
811.500	487.568	79.998	19.994	103.169	19.923	6.923	0.489
812.000	487.834	80.000	19.995	103.177	19.926	6.754	0.468
812.500	488.092	80.000	19.996	103.185	19.925	6.797	0.504
813.001	488.392	80.000	19.995	103.187	19.924	6.856	0.541
813.500	488.630	79.998	19.995	103.187	19.930	6.409	0.548
814.000	488.863	79.998	19.994	103.181	19.928	6.573	0.504
814.500	489.128	79.999	19.995	103.174	19.931	6.349	0.484
815.000	489.395	79.998	19.996	103.170	19.931	6.322	0.515
815.500	489.636	79.999	19.994	103.168	19.932	6.247	0.521
816.000	489.891	79.999	19.994	103.168	19.932	6.228	0.502
816.500	490.167	79.999	19.995	103.174	19.935	6.062	0.514
817.000	490.379	80.000	19.994	103.182	19.937	5.862	0.510
817.500	490.643	80.000	19.995	103.183	19.936	5.980	0.482
818.000	490.893	80.001	19.994	103.183	19.941	5.564	0.495
818.500	491.136	80.000	19.994	103.180	19.940	5.668	0.504
819.000	491.397	79.999	19.995	103.172	19.940	5.649	0.498
819.500	491.686	80.000	19.995	103.164	19.938	5.779	0.527
820.000	491.927	79.999	19.994	103.159	19.942	5.463	0.540
820.500	492.181	79.999	19.994	103.159	19.940	5.678	0.512
821.000	492.416	80.001	19.994	103.162	19.943	5.390	0.492
821.500	492.665	79.999	19.994	103.168	19.945	5.296	0.487
822.000	492.974	80.000	19.994	103.176	19.945	5.298	0.521
822.500	493.208	80.001	19.994	103.183	19.948	5.061	0.550
823.000	493.466	80.000	19.995	103.179	19.947	5.089	0.517
823.500	493.753	80.001	19.994	103.172	19.948	5.030	0.518
824.000	493.989	80.000	19.995	103.166	19.945	5.256	0.534
824.500	494.283	80.003	19.994	103.159	19.949	4.933	0.526
825.000	494.535	80.001	19.994	103.152	19.952	4.703	0.538
825.500	494.814	80.002	19.995	103.149	19.953	4.611	0.539
826.000	495.069	80.000	19.995	103.153	19.955	4.492	0.533
826.500	495.290	80.002	19.996	103.156	19.953	4.620	0.505
827.000	495.591	80.000	19.995	103.160	19.954	4.577	0.499
827.500	495.844	80.000	19.994	103.167	19.955	4.520	0.537
828.000	496.094	80.001	19.994	103.176	19.955	4.513	0.528
828.500	496.331	80.001	19.995	103.179	19.959	4.208	0.495
829.000	496.602	80.000	19.994	103.185	19.957	4.306	0.498
829.500	496.848	80.001	19.994	103.183	19.961	4.054	0.512
830.000	497.132	80.001	19.994	103.177	19.960	4.140	0.523
830.500	497.357	80.001	19.996	103.175	19.960	4.127	0.520
831.000	497.640	80.001	19.994	103.173	19.961	4.054	0.509
831.500	497.894	80.001	19.994	103.165	19.960	4.148	0.522
832.000	498.135	80.000	19.994	103.161	19.958	4.280	0.516
832.500	498.396	80.000	19.995	103.165	19.960	4.075	0.498
833.000	498.617	80.000	19.995	103.162	19.964	3.832	0.492
833.500	498.897	80.000	19.994	103.161	19.963	3.920	0.492
834.000	499.179	80.000	19.994	103.166	19.963	3.862	0.532
834.500	499.436	79.999	19.995	103.169	19.963	3.915	0.550
835.000	499.733	80.000	19.994	103.166	19.963	3.906	0.546
835.500	499.950	79.999	19.995	103.163	19.963	3.859	0.534
836.000	500.203	79.998	19.994	103.162	19.965	3.695	0.492
836.500	500.463	80.000	19.995	103.164	19.964	3.817	0.491
837.000	500.725	80.000	19.994	103.168	19.966	3.647	0.518
837.500	500.942	80.001	19.994	103.173	19.964	3.777	0.501
838.000	501.209	80.001	19.994	103.176	19.966	3.683	0.482
838.500	501.468	80.000	19.994	103.172	19.965	3.715	0.505
839.000	501.752	80.000	19.997	103.169	19.967	3.572	0.534
839.500	502.009	79.999	19.994	103.168	19.967	3.595	0.542
840.000	502.294	80.000	19.995	103.164	19.967	3.591	0.541
840.500	502.526	80.002	19.994	103.167	19.965	3.700	0.530
841.000	502.772	80.001	19.995	103.174	19.966	3.676	0.498
841.500	503.033	80.002	19.994	103.173	19.969	3.412	0.493
842.000	503.300	80.003	19.994	103.167	19.967	3.554	0.517
842.500	503.553	80.002	19.995	103.168	19.968	3.478	0.523
843.000	503.834	80.002	19.995	103.162	19.969	3.414	0.527
843.500	504.067	80.000	19.994	103.158	19.968	3.495	0.525
844.000	504.338	80.001	19.995	103.158	19.971	3.301	0.509
844.500	504.593	80.000	19.995	103.161	19.972	3.220	0.515
845.000	504.842	80.002	19.995	103.158	19.973	3.084	0.515
845.500	505.103	80.002	19.994	103.156	19.975	2.972	0.507
846.001	505.368	80.001	19.995	103.152	19.975	2.943	0.518
846.500	505.588	80.003	19.994	103.150	19.978	2.716	0.505
847.000	505.886	80.002	19.995	103.154	19.975	2.987	0.502
847.500	506.131	80.003	19.994	103.161	19.980	2.597	0.531
848.000	506.393	80.003	19.994	103.166	19.978	2.729	0.525
848.500	506.644	80.002	19.994	103.168	19.978	2.714	0.510
849.000	506.882	80.004	19.993	103.170	19.980	2.608	0.501
849.500	507.122	80.002	19.994	103.166	19.978	2.749	0.484
850.000	507.386	80.001	19.994	103.159	19.977	2.787	0.491
850.500	507.600	80.004	19.995	103.156	19.980	2.573	0.491
851.000	507.942	80.003	19.994	103.159	19.981	2.484	0.517
851.500	508.158	80.002	19.995	103.155	19.983	2.319	0.557
852.000	508.427	80.002	19.994	103.153	19.980	2.616	0.521
852.500	508.676	80.003	19.993	103.154	19.977	2.804	0.501
853.000	508.930	80.004	19.995	103.154	19.979	2.620	0.510
853.500	509.181	80.003	19.994	103.155	19.978	2.734	0.504
854.000	509.451	80.003	19.994	103.162	19.978	2.738	0.513
854.500	509.700	80.001	19.995	103.169	19.981	2.507	0.520
855.000	509.953	80.002	19.994	103.174	19.984	2.289	0.511
855.500	510.223	80.003	19.994	103.178	19.979	2.661	0.513
856.000	510.473	80.002	19.994	103.173	19.982	2.449	0.522
856.500	510.718	80.003	19.995	103.170	19.980	2.579	0.508
857.000	511.003	80.002	19.994	103.170	19.982	2.443	0.513
857.500	511.268	80.001	19.995	103.170	19.982	2.458	0.540
858.000	511.515	80.000	19.995	103.170	19.979	2.635	0.531
858.500	511.780	80.001	19.995	103.178	19.983	2.381	0.512
859.000	512.064	80.000	19.995	103.180	19.984	2.259	0.530
859.500	512.311	79.999	19.995	103.176	19.982	2.443	0.540
860.000	512.560	80.000	19.995	103.176	19.985	2.199	0.514
860.500	512.858	79.999	19.995	103.174	19.982	2.432	0.521
861.000	513.085	79.999	19.995	103.170	19.981	2.500	0.536
861.500	513.337	79.999	19.996	103.171	19.980	2.552	0.502
862.000	513.602	80.002	19.996	103.170	19.980	2.579	0.497
862.500	513.872	79.999	19.996	103.165	19.981	2.530	0.526
863.000	514.130	80.000	19.995	103.167	19.980	2.562	0.531
863.500	514.389	80.000	19.995	103.169	19.979	2.643	0.522
864.000	514.643	79.999	19.996	103.169	19.982	2.432	0.515
864.500	514.960	80.000	19.996	103.171	19.980	2.588	0.542
865.001	515.213	80.000	19.995	103.169	19.984	2.264	0.571
865.500	515.454	80.000	19.996	103.167	19.985	2.208	0.532
866.000	515.707	80.000	19.996	103.162	19.982	2.392	0.494
866.500	515.945	79.999	19.995	103.156	19.985	2.180	0.492
867.000	516.244	79.999	19.995	103.155	19.986	2.131	0.514
867.500	516.448	80.001	19.996	103.156	19.988	1.976	0.520
868.000	516.683	80.000	19.996	103.151	19.989	1.899	0.471
868.500	517.008	79.999	19.997	103.151	19.989	1.916	0.499
869.000	517.243	80.001	19.996	103.149	19.985	2.165	0.560
869.500	517.512	80.000	19.996	103.146	19.991	1.713	0.532
870.000	517.765	80.000	19.997	103.144	19.987	2.008	0.513
870.500	517.999	80.001	19.995	103.145	19.987	2.023	0.505
871.000	518.278	80.000	19.996	103.145	19.988	1.933	0.500
871.500	518.500	79.999	19.998	103.147	19.987	2.014	0.507
872.000	518.790	80.000	19.995	103.147	19.986	2.100	0.506
872.500	519.009	80.000	19.996	103.148	19.989	1.859	0.510
873.000	519.288	79.999	19.995	103.148	19.991	1.726	0.503
873.500	519.567	80.001	19.996	103.149	19.988	1.938	0.528
874.000	519.813	80.002	19.995	103.148	19.989	1.889	0.542
874.500	520.067	80.000	19.994	103.150	19.990	1.848	0.513
875.000	520.314	80.000	19.995	103.152	19.990	1.793	0.500
875.500	520.546	79.999	19.996	103.154	19.991	1.737	0.490
876.000	520.821	80.000	19.996	103.153	19.988	1.944	0.493
876.500	521.045	79.999	19.995	103.154	19.992	1.692	0.503
877.000	521.340	80.001	19.995	103.152	19.992	1.654	0.509
877.500	521.598	79.999	19.994	103.150	19.992	1.639	0.536
878.000	521.828	80.000	19.995	103.148	19.991	1.726	0.520
878.500	522.072	79.999	19.994	103.148	19.993	1.581	0.481
879.000	522.362	80.000	19.996	103.148	19.994	1.500	0.504
879.500	522.626	80.000	19.995	103.151	19.989	1.912	0.544
880.000	522.859	79.999	19.994	103.151	19.990	1.844	0.525
880.500	523.145	80.000	19.993	103.157	19.992	1.679	0.508
881.000	523.394	80.000	19.996	103.162	19.994	1.492	0.527
881.500	523.679	79.999	19.995	103.164	19.990	1.803	0.534
882.000	523.908	80.000	19.994	103.164	19.992	1.667	0.524
882.500	524.168	79.998	19.996	103.166	19.993	1.596	0.502
883.000	524.435	79.999	19.995	103.165	19.991	1.750	0.508
883.500	524.705	80.000	19.995	103.168	19.993	1.585	0.532
884.000	524.941	80.000	19.996	103.172	19.993	1.558	0.521
884.500	525.167	79.998	19.996	103.178	19.993	1.590	0.484
885.000	525.432	79.999	19.995	103.181	19.990	1.782	0.477
885.500	525.703	79.998	19.995	103.184	19.992	1.622	0.513
886.000	525.931	79.999	19.996	103.184	19.997	1.310	0.518
886.500	526.191	79.998	19.996	103.182	19.996	1.359	0.494
887.000	526.465	80.000	19.996	103.181	19.995	1.393	0.511
887.500	526.721	79.998	19.995	103.182	19.998	1.223	0.532
888.000	526.956	79.998	19.996	103.182	19.994	1.519	0.511
888.500	527.259	79.998	19.997	103.180	19.994	1.496	0.514
889.000	527.481	79.997	19.996	103.177	19.994	1.526	0.531
889.500	527.783	79.998	19.996	103.177	19.994	1.522	0.525
890.000	528.021	79.998	19.996	103.177	19.994	1.532	0.532
890.500	528.267	79.998	19.995	103.174	19.993	1.613	0.512
891.000	528.545	79.998	19.995	103.176	19.998	1.221	0.504
891.500	528.787	79.998	19.996	103.179	19.994	1.509	0.522
892.000	529.067	79.997	19.996	103.174	19.995	1.459	0.522
892.500	529.300	79.998	19.995	103.171	19.998	1.206	0.518
893.000	529.550	79.998	19.996	103.171	19.997	1.242	0.497
893.500	529.816	79.997	19.996	103.167	19.995	1.453	0.499
894.000	530.039	79.998	19.995	103.162	19.998	1.225	0.503
894.500	530.268	79.998	19.996	103.166	19.998	1.216	0.470
895.000	530.535	79.998	19.995	103.165	19.993	1.572	0.474
895.500	530.805	79.997	19.995	103.162	19.994	1.508	0.517
896.000	531.063	79.998	19.995	103.160	19.995	1.415	0.532
896.500	531.343	79.998	19.996	103.164	19.994	1.496	0.533
897.000	531.574	79.999	19.996	103.162	19.994	1.517	0.524
897.501	531.845	79.998	19.996	103.162	19.997	1.297	0.507
898.000	532.109	79.998	19.995	103.164	19.994	1.506	0.518
898.500	532.356	79.998	19.996	103.167	19.995	1.440	0.523
899.000	532.610	79.999	19.995	103.169	19.995	1.400	0.506
899.500	532.832	79.998	19.996	103.173	19.994	1.538	0.489
900.000	533.135	80.000	19.996	103.173	19.994	1.515	0.501
900.500	533.374	79.999	19.995	103.176	19.992	1.683	0.534
901.000	533.632	79.997	19.996	103.177	19.993	1.589	0.520
901.500	533.878	80.000	19.995	103.174	19.993	1.579	0.501
902.000	534.141	80.000	19.995	103.167	19.995	1.397	0.506
902.500	534.392	80.001	19.995	103.165	19.996	1.319	0.511
903.000	534.631	80.000	19.995	103.164	19.995	1.406	0.502
903.500	534.884	80.001	19.994	103.162	19.996	1.391	0.491
904.000	535.171	79.999	19.994	103.159	19.996	1.351	0.516
904.500	535.383	80.001	19.996	103.160	19.995	1.428	0.520
905.000	535.698	80.000	19.995	103.159	19.995	1.406	0.513
905.500	535.930	80.003	19.994	103.156	19.995	1.400	0.537
906.000	536.199	80.001	19.995	103.155	19.998	1.182	0.524
906.500	536.459	80.000	19.995	103.154	19.996	1.391	0.515
907.000	536.721	80.001	19.995	103.152	19.996	1.372	0.525
907.500	536.954	80.001	19.994	103.150	19.996	1.336	0.508
908.000	537.201	80.000	19.995	103.148	19.993	1.579	0.488
908.500	537.451	80.002	19.994	103.146	19.995	1.430	0.488
909.000	537.706	80.002	19.995	103.145	19.993	1.564	0.501
909.500	537.955	80.002	19.995	103.147	19.992	1.637	0.505
910.000	538.182	80.002	19.995	103.148	19.992	1.622	0.490
910.500	538.460	80.002	19.995	103.148	19.992	1.694	0.491
911.000	538.725	80.002	19.995	103.148	19.992	1.690	0.524
911.500	538.963	80.002	19.995	103.148	19.993	1.581	0.523
912.000	539.243	80.003	19.996	103.147	19.993	1.570	0.510
912.500	539.415	80.001	19.995	103.149	19.993	1.581	0.485
913.000	539.728	80.000	19.995	103.154	19.991	1.700	0.469
913.500	539.950	80.002	19.994	103.157	19.994	1.532	0.510
914.000	540.264	79.999	19.995	103.161	19.994	1.472	0.536
914.500	540.474	80.001	19.995	103.163	19.996	1.336	0.530
915.000	540.706	80.000	19.994	103.168	19.992	1.679	0.483
915.500	540.970	79.999	19.994	103.169	19.994	1.481	0.469
916.000	541.242	80.000	19.995	103.170	19.995	1.429	0.516
916.500	541.502	79.999	19.995	103.167	19.994	1.506	0.534
917.000	541.762	79.999	19.995	103.164	19.996	1.327	0.526
917.500	542.027	80.001	19.996	103.160	19.995	1.431	0.523
918.000	542.269	80.000	19.995	103.154	19.994	1.476	0.516
918.500	542.526	80.002	19.995	103.155	19.992	1.640	0.503
919.000	542.759	79.999	19.995	103.156	19.992	1.647	0.494
919.500	542.986	80.000	19.995	103.161	19.993	1.568	0.475
920.000	543.297	80.002	19.996	103.166	19.993	1.551	0.499
920.500	543.515	80.001	19.994	103.172	19.992	1.622	0.534
921.001	543.793	80.001	19.994	103.168	19.995	1.453	0.513
921.500	544.018	80.000	19.995	103.169	19.998	1.210	0.499
922.000	544.272	80.001	19.994	103.167	19.995	1.415	0.491
922.500	544.565	80.000	19.995	103.161	19.994	1.496	0.513
923.000	544.824	80.002	19.996	103.157	19.994	1.526	0.549
923.500	544.992	80.000	19.994	103.157	19.996	1.347	0.490
924.000	545.326	79.999	19.995	103.153	19.991	1.710	0.465
924.500	545.544	80.001	19.996	103.149	19.988	1.975	0.527
925.000	545.800	80.000	19.995	103.148	19.994	1.507	0.513
925.500	546.026	80.001	19.994	103.148	19.993	1.605	0.478
926.000	546.266	80.002	19.995	103.148	19.991	1.723	0.473
926.500	546.557	80.001	19.995	103.147	19.995	1.464	0.498
927.000	546.805	80.002	19.995	103.147	19.993	1.601	0.535
927.500	547.148	80.003	19.994	103.147	19.994	1.473	0.565
928.000	547.331	80.001	19.994	103.146	19.995	1.400	0.558
928.500	547.601	80.003	19.995	103.144	19.996	1.355	0.489
929.000	547.868	80.001	19.994	103.141	19.994	1.498	0.495
929.500	548.129	80.001	19.994	103.141	19.995	1.430	0.533
930.000	548.382	80.003	19.995	103.141	19.995	1.406	0.521
930.500	548.633	80.001	19.996	103.145	19.996	1.351	0.509
931.000	548.872	80.002	19.996	103.152	19.998	1.180	0.497
931.500	549.127	80.002	19.995	103.162	19.997	1.289	0.492
932.000	549.399	80.004	19.995	103.169	19.996	1.334	0.511
932.500	549.656	80.002	19.995	103.172	19.999	1.095	0.528
933.000	549.885	80.003	19.995	103.175	19.999	1.133	0.507
933.500	550.142	80.003	19.994	103.178	19.999	1.152	0.486
934.000	550.445	80.002	19.993	103.183	19.997	1.278	0.523
934.500	550.720	80.003	19.994	103.192	19.995	1.428	0.569
935.000	550.936	80.003	19.994	103.204	19.996	1.387	0.534
935.500	551.244	80.004	19.995	103.209	19.996	1.323	0.507
936.000	551.507	80.003	19.994	103.210	19.999	1.114	0.548
936.500	551.727	80.003	19.994	103.212	19.998	1.220	0.528
937.000	551.978	80.001	19.995	103.207	19.995	1.423	0.477
937.500	552.216	80.003	19.994	103.199	20.000	1.039	0.480
938.000	552.512	80.002	19.994	103.194	19.996	1.335	0.511
938.500	552.718	80.003	19.994	103.192	19.997	1.276	0.518
939.000	553.023	80.000	19.995	103.185	19.996	1.327	0.506
939.500	553.310	80.004	19.994	103.181	19.998	1.212	0.552
940.000	553.547	80.001	19.994	103.173	19.995	1.430	0.558
940.500	553.782	80.002	19.995	103.166	19.997	1.259	0.498
941.000	554.101	80.001	19.993	103.158	19.997	1.293	0.513
941.500	554.307	80.000	19.994	103.153	19.996	1.361	0.540
942.000	554.637	80.001	19.994	103.150	19.996	1.380	0.531
942.500	554.840	80.000	19.993	103.154	19.996	1.368	0.534
943.000	555.133	79.999	19.995	103.158	19.997	1.278	0.514
943.500	555.426	80.001	19.995	103.164	19.994	1.511	0.541
944.000	555.674	80.001	19.995	103.168	19.993	1.554	0.564
944.500	555.927	80.000	19.995	103.171	19.993	1.609	0.521
945.000	556.173	80.000	19.994	103.173	19.993	1.609	0.500
945.500	556.399	80.000	19.994	103.177	19.993	1.588	0.486
946.000	556.702	80.001	19.995	103.177	19.992	1.632	0.501
946.500	556.929	79.999	19.995	103.173	19.996	1.366	0.529
947.000	557.168	80.000	19.995	103.169	19.992	1.628	0.498
947.500	557.464	79.998	19.996	103.161	19.998	1.229	0.500
948.000	557.665	79.999	19.996	103.149	19.991	1.771	0.516
948.500	557.999	80.000	19.995	103.142	19.990	1.782	0.517
949.000	558.161	80.000	19.995	103.140	19.990	1.788	0.516
949.500	558.512	80.000	19.994	103.142	19.990	1.829	0.504
950.000	558.724	79.999	19.995	103.152	19.994	1.477	0.538
950.500	558.958	80.000	19.996	103.161	19.993	1.605	0.504
951.000	559.225	79.999	19.995	103.163	19.996	1.379	0.473
951.500	559.483	79.998	19.995	103.164	19.997	1.255	0.513
952.000	559.766	80.000	19.995	103.165	19.994	1.479	0.533
952.500	560.073	80.000	19.996	103.162	19.998	1.229	0.566
953.000	560.254	80.000	19.996	103.161	19.987	2.072	0.539
953.500	560.547	79.999	19.995	103.167	20.000	1.009	0.481
954.000	560.823	80.000	19.996	103.171	19.994	1.513	0.522
954.500	561.101	80.000	19.995	103.174	19.995	1.442	0.562
955.000	561.298	79.999	19.995	103.177	19.994	1.534	0.514
955.500	561.573	79.998	19.995	103.180	20.004	0.728	0.474
956.000	561.840	80.001	19.995	103.173	19.988	1.952	0.507
956.500	562.102	80.006	19.994	103.169	20.006	0.612	0.535
957.000	562.390	80.000	19.995	103.164	19.996	1.353	0.539
957.500	562.545	79.999	19.996	103.161	19.983	2.338	0.496
958.000	562.881	79.998	19.995	103.162	19.986	2.127	0.468
958.500	563.133	79.997	19.996	103.164	19.999	1.129	0.540
959.000	563.399	79.998	19.996	103.169	19.992	1.630	0.553
959.500	563.595	80.002	19.996	103.174	19.999	1.139	0.490
960.000	563.849	79.998	19.997	103.177	19.995	1.408	0.455
960.500	564.152	79.999	19.996	103.176	19.997	1.285	0.503
961.000	564.411	79.998	19.995	103.179	19.999	1.142	0.560
961.500	564.700	80.001	19.995	103.179	19.995	1.396	0.555
962.000	564.749	80.000	19.995	103.179	20.000	1.039	0.443
962.500	565.061	79.999	19.995	103.180	19.996	1.332	0.349
963.000	565.408	79.999	19.996	103.183	19.998	1.195	0.510
963.500	565.783	79.999	19.996	103.184	19.997	1.257	0.691
964.000	565.864	79.999	19.994	103.180	20.000	1.061	0.589
964.500	566.212	80.000	19.994	103.174	20.002	0.920	0.442
965.000	566.484	79.998	19.995	103.166	19.995	1.417	0.524
965.500	566.437	79.998	19.995	103.158	19.997	1.270	0.423
966.000	566.993	80.000	19.995	103.152	19.997	1.304	0.367
966.500	567.426	80.002	19.994	103.151	19.999	1.129	0.749
967.000	567.294	79.999	19.994	103.153	19.998	1.214	0.645
967.500	567.640	79.998	19.995	103.152	19.997	1.261	0.257
968.000	568.250	79.998	19.995	103.152	19.996	1.344	0.584
968.500	567.995	80.000	19.995	103.156	19.996	1.321	0.656
969.000	568.382	80.000	19.995	103.161	20.001	0.999	0.244
969.500	568.831	80.001	19.994	103.161	19.996	1.321	0.484
970.000	568.606	79.999	19.995	103.163	19.998	1.201	0.529
970.500	569.654	79.998	19.997	103.165	19.998	1.238	0.523
971.000	568.984	79.998	19.997	103.163	19.996	1.366	0.600
971.500	569.092	80.001	19.995	103.163	19.995	1.442	-0.092
972.000	569.390	79.998	19.996	103.167	19.995	1.393	-0.078
972.500	569.958	80.000	19.996	103.172	19.995	1.395	0.636
973.000	570.617	80.001	19.995	103.177	19.997	1.276	1.047
973.500	570.927	79.997	19.997	103.180	19.996	1.378	1.098
974.000	571.038	79.999	19.996	103.181	19.995	1.414	0.695
974.500	571.216	80.001	19.996	103.177	19.997	1.274	0.355
975.000	571.489	79.998	19.995	103.177	19.998	1.171	0.370
975.500	571.901	80.000	19.995	103.176	19.998	1.231	0.568
976.000	572.102	79.999	19.996	103.178	19.999	1.154	0.649
976.500	572.220	79.999	19.995	103.180	19.999	1.109	0.466
977.000	572.613	79.997	19.996	103.180	19.997	1.312	0.415
977.500	572.859	79.999	19.995	103.176	19.998	1.205	0.575
978.000	573.082	79.999	19.995	103.175	19.998	1.207	0.554
978.500	573.319	80.000	19.995	103.174	19.999	1.120	0.464
979.000	573.710	79.999	19.997	103.174	20.000	1.077	0.544
979.501	573.833	79.996	19.997	103.176	19.999	1.152	0.571
980.000	574.161	79.999	19.996	103.177	19.997	1.267	0.483
980.500	574.497	80.000	19.996	103.174	19.998	1.171	0.557
981.000	574.637	79.999	19.996	103.166	19.997	1.297	0.569
981.500	574.892	80.001	19.995	103.164	19.996	1.391	0.435
982.000	575.162	80.000	19.996	103.162	19.994	1.504	0.461
982.500	575.440	80.000	19.996	103.158	19.995	1.442	0.537
983.000	575.705	80.001	19.995	103.156	19.992	1.638	0.546
983.500	575.985	80.001	19.996	103.156	19.994	1.481	0.544
984.001	576.187	79.999	19.996	103.153	19.992	1.647	0.513
984.500	576.493	80.000	19.996	103.148	19.993	1.566	0.495
985.000	576.690	79.998	19.995	103.148	19.993	1.555	0.505
985.501	576.918	79.999	19.996	103.148	19.991	1.733	0.464
986.001	577.150	79.999	19.996	103.147	19.991	1.756	0.443
986.500	577.470	80.001	19.996	103.145	19.993	1.586	0.506
987.000	577.697	80.002	19.995	103.145	19.992	1.680	0.549
987.500	577.942	80.000	19.995	103.145	19.992	1.622	0.509
988.000	578.173	80.003	19.995	103.147	19.994	1.545	0.474
988.500	578.368	80.003	19.995	103.147	19.992	1.679	0.451
989.000	578.728	80.003	19.997	103.146	19.990	1.797	0.491
989.500	578.953	80.000	19.996	103.145	19.989	1.922	0.570
990.000	579.229	80.002	19.995	103.148	19.991	1.700	0.543
990.500	579.462	80.004	19.996	103.148	19.991	1.741	0.505
991.000	579.662	80.005	19.994	103.153	19.990	1.841	0.471
991.500	579.930	80.000	19.995	103.156	19.992	1.683	0.450
992.000	580.191	80.001	19.995	103.155	19.994	1.527	0.498
992.500	580.423	80.002	19.995	103.152	19.994	1.545	0.511
993.000	580.713	80.001	19.996	103.150	19.991	1.737	0.507
993.500	580.935	80.002	19.995	103.144	19.989	1.876	0.517
994.000	581.154	80.002	19.995	103.143	19.989	1.878	0.477
994.500	581.442	80.003	19.995	103.144	19.987	2.016	0.473
995.000	581.678	80.003	19.994	103.145	19.992	1.622	0.516
995.500	581.913	80.002	19.995	103.146	19.990	1.775	0.498
996.000	582.184	80.001	19.996	103.152	19.989	1.873	0.488
996.500	582.346	80.004	19.996	103.159	19.990	1.822	0.469
997.000	582.678	80.004	19.994	103.166	19.994	1.511	0.464
997.500	582.883	80.001	19.995	103.177	19.993	1.577	0.515
998.000	583.096	80.003	19.995	103.188	19.992	1.662	0.477
998.500	583.392	79.996	19.995	103.188	19.993	1.555	0.464
999.000	583.609	80.000	19.995	103.180	19.993	1.564	0.511
999.500	583.851	80.002	19.995	103.173	19.990	1.790	0.486
1000.000	584.125	80.002	19.995	103.162	19.994	1.530	0.487
1000.500	584.355	80.002	19.995	103.150	19.995	1.417	0.510
1001.000	584.536	80.003	19.994	103.144	19.993	1.575	0.458
1001.500	584.813	80.001	19.995	103.146	19.993	1.611	0.435
1002.000	585.043	80.000	19.996	103.146	19.991	1.707	0.482
1002.500	585.310	79.999	19.996	103.146	19.992	1.662	0.502
1003.000	585.540	79.999	19.996	103.146	19.991	1.730	0.497
1003.500	585.750	79.999	19.994	103.147	19.991	1.698	0.468
1004.000	586.083	80.000	19.995	103.153	19.993	1.594	0.491
1004.500	586.246	80.002	19.996	103.161	19.994	1.543	0.520
1005.000	586.515	80.001	19.996	103.166	19.993	1.577	0.464
1005.500	586.796	80.000	19.995	103.169	19.995	1.459	0.491
1006.000	587.074	80.000	19.996	103.170	19.994	1.498	0.554
1006.500	587.268	80.001	19.995	103.169	19.990	1.795	0.515
1007.000	587.504	80.002	19.995	103.166	19.994	1.470	0.451
1007.500	587.764	80.002	19.995	103.163	19.993	1.560	0.463
1008.000	587.975	80.001	19.996	103.162	19.991	1.709	0.483
1008.500	588.245	79.999	19.995	103.160	19.993	1.581	0.476
1009.000	588.458	80.002	19.996	103.156	19.992	1.645	0.482
1009.500	588.741	80.000	19.995	103.156	19.994	1.521	0.489
1010.001	589.019	80.003	19.994	103.162	19.994	1.496	0.529
1010.500	589.259	80.001	19.996	103.170	19.999	1.161	0.540
1011.000	589.492	80.003	19.995	103.177	19.995	1.395	0.495
1011.500	589.747	80.002	19.995	103.183	20.001	1.005	0.480
1012.000	589.974	79.999	19.996	103.185	19.997	1.274	0.485
1012.500	590.261	80.004	19.994	103.179	20.001	0.971	0.498
1013.000	590.497	80.003	19.995	103.171	20.001	0.981	0.519
1013.500	590.737	80.002	19.996	103.170	20.001	0.971	0.499
1014.000	591.016	80.004	19.993	103.164	19.998	1.163	0.497
1014.500	591.241	80.002	19.995	103.157	19.996	1.317	0.512
1015.000	591.486	80.002	19.995	103.157	19.999	1.112	0.487
1015.500	591.735	80.003	19.995	103.160	19.997	1.304	0.482
1016.000	591.968	80.002	19.995	103.157	19.997	1.274	0.488
1016.500	592.239	80.003	19.995	103.157	19.996	1.387	0.493
1017.000	592.469	80.001	19.995	103.164	19.998	1.233	0.502
1017.500	592.762	80.002	19.995	103.171	20.000	1.026	0.512
1018.000	592.990	80.001	19.994	103.168	19.997	1.310	0.522
1018.500	593.263	80.001	19.996	103.167	19.996	1.366	0.511
1019.000	593.488	80.002	19.997	103.172	19.999	1.148	0.499
1019.500	593.768	80.000	19.998	103.169	19.996	1.342	0.502
1020.000	594.051	79.999	19.997	103.161	19.998	1.229	0.534
1020.500	594.235	80.000	19.996	103.162	20.001	0.934	0.515
1021.000	594.515	80.001	19.995	103.160	19.999	1.152	0.466
1021.500	594.790	80.001	19.995	103.154	20.002	0.883	0.509
1022.000	595.020	80.000	19.996	103.150	19.998	1.191	0.530
1022.500	595.304	80.002	19.995	103.151	20.000	1.073	0.509
1023.001	595.564	80.000	19.995	103.149	20.000	1.056	0.529
1023.500	595.790	80.002	19.995	103.150	20.001	0.960	0.516
1024.000	596.047	79.999	19.994	103.151	19.999	1.099	0.485
1024.500	596.328	79.998	19.996	103.158	20.000	1.069	0.510
1025.000	596.555	80.001	19.995	103.164	19.998	1.210	0.523
1025.500	596.787	79.998	19.995	103.168	20.001	0.945	0.484
1026.000	597.092	79.996	19.996	103.173	20.002	0.907	0.498
1026.500	597.368	79.999	19.996	103.174	19.999	1.157	0.559
1027.000	597.592	80.002	19.996	103.171	19.999	1.110	0.540
1027.500	597.816	79.999	19.995	103.170	20.001	0.962	0.474
1028.000	598.128	79.998	19.994	103.169	20.003	0.794	0.492
1028.500	598.351	80.003	19.994	103.164	19.999	1.105	0.535
1029.000	598.589	80.003	19.994	103.163	19.999	1.097	0.498
1029.500	598.836	79.999	19.995	103.159	20.001	0.975	0.473
1030.000	599.078	80.001	19.994	103.155	20.002	0.886	0.487
1030.500	599.320	79.998	19.994	103.155	20.002	0.864	0.486
1031.001	599.593	79.999	19.994	103.154	20.001	0.999	0.500
1031.501	599.849	79.999	19.995	103.153	20.001	0.939	0.523
1032.000	600.076	79.999	19.995	103.152	19.999	1.129	0.506
1032.500	600.332	79.999	19.996	103.154	20.000	1.031	0.483
1033.000	600.585	80.000	19.995	103.154	19.999	1.129	0.496
1033.500	600.843	79.999	19.995	103.157	20.000	1.050	0.510
1034.000	601.120	79.999	19.995	103.158	19.996	1.372	0.523
1034.500	601.385	80.000	19.995	103.157	19.999	1.124	0.538
1035.000	601.634	80.002	19.995	103.158	19.996	1.340	0.528
1035.500	601.892	80.003	19.993	103.165	19.998	1.174	0.510
1036.000	602.140	79.997	19.997	103.171	19.998	1.182	0.507
1036.500	602.396	80.004	19.994	103.173	19.997	1.299	0.505
1037.001	602.613	80.000	19.994	103.175	19.996	1.331	0.488
1037.501	602.926	80.001	19.995	103.173	19.997	1.310	0.501
1038.000	603.157	80.001	19.995	103.166	19.995	1.447	0.537
1038.500	603.421	79.997	19.996	103.165	19.991	1.699	0.520
1039.001	603.640	80.002	19.994	103.167	19.996	1.323	0.489
1039.501	603.929	80.000	19.995	103.172	19.995	1.438	0.496
1040.001	604.177	80.008	19.994	103.174	19.995	1.410	0.522
1040.500	604.397	80.001	19.995	103.175	19.999	1.095	0.502
1041.000	604.663	80.003	19.994	103.172	19.995	1.432	0.477
1041.500	604.967	79.991	19.996	103.166	19.996	1.327	0.528
1042.000	605.187	80.001	19.996	103.157	19.995	1.432	0.547
1042.500	605.472	80.000	19.994	103.152	19.996	1.334	0.514
1043.000	605.707	80.000	19.994	103.152	19.993	1.592	0.512
1043.500	605.993	80.000	19.996	103.154	19.993	1.586	0.520
1044.000	606.233	80.000	19.996	103.155	19.991	1.748	0.524
1044.501	606.482	79.999	19.995	103.160	19.995	1.466	0.508
1045.001	606.755	79.999	19.995	103.161	19.995	1.468	0.506
1045.500	607.007	80.000	19.995	103.163	19.995	1.436	0.523
1046.000	607.249	80.000	19.997	103.159	19.994	1.532	0.509
1046.500	607.496	80.004	19.995	103.162	19.995	1.417	0.492
1047.000	607.766	79.997	19.996	103.161	19.994	1.515	0.503
1047.500	608.006	80.001	19.995	103.161	19.995	1.434	0.513
1048.000	608.246	79.999	19.996	103.159	19.996	1.379	0.495
1048.500	608.517	80.000	19.997	103.164	19.994	1.526	0.496
1049.000	608.778	80.003	19.995	103.168	19.996	1.385	0.522
1049.500	609.000	80.000	19.996	103.174	19.994	1.475	0.508
1050.000	609.273	80.001	19.996	103.175	19.997	1.246	0.489
1050.500	609.578	79.997	19.996	103.172	19.997	1.312	0.537
1051.000	609.808	79.999	19.995	103.165	19.994	1.470	0.556
1051.500	610.018	80.002	19.995	103.158	19.995	1.432	0.487
1052.000	610.253	79.999	19.995	103.157	19.991	1.726	0.442
1052.501	610.558	79.999	19.995	103.161	19.995	1.434	0.492
1053.001	610.806	79.999	19.996	103.168	19.991	1.744	0.547
1053.501	611.082	79.998	19.995	103.175	19.991	1.767	0.539
1054.001	611.322	80.000	19.996	103.181	19.990	1.827	0.520
1054.500	611.592	80.003	19.998	103.182	19.994	1.494	0.512
1055.000	611.854	80.004	19.996	103.173	19.993	1.618	0.521
1055.500	612.136	79.999	19.995	103.167	19.994	1.502	0.538
1056.000	612.395	80.001	19.996	103.165	19.992	1.678	0.543
1056.500	612.627	79.991	19.996	103.161	19.990	1.842	0.516
1057.000	612.893	79.999	19.997	103.159	19.990	1.846	0.494
1057.500	613.129	79.995	19.996	103.168	19.993	1.598	0.500
1058.000	613.412	79.995	19.995	103.172	19.991	1.763	0.510
1058.501	613.665	80.003	19.994	103.176	19.987	2.010	0.527
1059.001	613.880	79.995	19.996	103.181	19.989	1.899	0.502
1059.500	614.199	79.998	19.995	103.182	19.989	1.908	0.501
1060.000	614.479	79.996	19.995	103.182	19.990	1.833	0.567
1060.500	614.740	79.992	19.997	103.183	19.993	1.579	0.570
1061.000	615.014	80.005	19.996	103.180	19.990	1.823	0.538
1061.500	615.269	79.997	19.997	103.173	19.991	1.746	0.532
1062.000	615.514	79.998	19.994	103.173	19.993	1.605	0.514
1062.500	615.782	79.995	19.997	103.172	19.994	1.526	0.507
1063.000	616.061	79.998	19.995	103.173	19.995	1.438	0.530
1063.500	616.347	79.996	19.996	103.175	19.993	1.568	0.556
1064.000	616.604	80.001	19.995	103.181	19.993	1.569	0.554
1064.500	616.852	80.001	19.996	103.178	19.995	1.468	0.524
1065.000	617.103	80.001	19.994	103.179	19.993	1.598	0.501
1065.500	617.337	80.009	19.995	103.180	19.993	1.618	0.492
1066.000	617.580	79.994	19.995	103.182	19.995	1.451	0.481
1066.500	617.896	80.000	19.995	103.186	19.995	1.443	0.519
1067.001	618.124	79.989	19.996	103.191	19.994	1.471	0.552
1067.501	618.407	80.002	19.994	103.188	19.995	1.396	0.527
1068.000	618.666	79.998	19.996	103.189	19.993	1.567	0.526
1068.500	618.969	80.005	19.995	103.185	19.994	1.483	0.552
1069.000	619.251	79.997	19.995	103.181	19.994	1.530	0.574
1069.500	619.476	79.999	19.996	103.180	19.993	1.554	0.546
1070.000	619.722	80.007	19.996	103.181	19.995	1.447	0.489
1070.500	619.939	79.991	19.996	103.180	19.996	1.374	0.467
1071.001	620.202	79.997	19.995	103.182	19.992	1.677	0.472
1071.501	620.497	79.994	19.995	103.182	19.993	1.581	0.519
1072.000	620.764	79.992	19.998	103.180	19.994	1.534	0.560
1072.500	621.010	79.974	19.996	103.177	19.994	1.532	0.537
1073.000	621.288	80.001	19.996	103.174	19.990	1.841	0.518
1073.500	621.542	79.998	19.996	103.177	19.994	1.515	0.528
1074.000	621.821	79.997	19.996	103.176	19.994	1.545	0.532
1074.500	622.057	80.003	19.995	103.175	19.991	1.737	0.524
1075.000	622.323	79.999	19.996	103.178	19.993	1.549	0.509
1075.500	622.559	80.000	19.996	103.179	19.995	1.455	0.502
1076.000	622.866	80.005	19.996	103.179	19.995	1.447	0.522
1076.500	623.110	79.998	19.996	103.182	19.993	1.569	0.547
1077.000	623.376	80.001	19.996	103.184	19.993	1.560	0.530
1077.500	623.646	80.000	19.996	103.189	19.991	1.720	0.523
1078.000	623.920	79.999	19.996	103.195	19.993	1.551	0.540
1078.500	624.156	79.998	19.996	103.196	19.993	1.615	0.527
1079.000	624.398	79.996	19.997	103.195	19.994	1.498	0.494
1079.500	624.707	79.997	19.996	103.195	19.994	1.479	0.515
1080.000	624.944	79.998	19.998	103.190	19.994	1.543	0.548
1080.500	625.207	80.000	19.996	103.178	19.995	1.411	0.523
1081.000	625.446	80.000	19.995	103.175	19.995	1.404	0.501
1081.500	625.711	79.999	19.996	103.167	19.995	1.424	0.503
1082.000	625.978	79.999	19.996	103.162	19.992	1.635	0.518
1082.500	626.237	79.999	19.996	103.159	19.993	1.579	0.529
1083.000	626.470	80.001	19.996	103.158	19.995	1.407	0.509
1083.500	626.758	79.993	19.996	103.158	19.990	1.846	0.506
1084.001	627.004	79.999	19.995	103.163	19.994	1.479	0.527
1084.501	627.252	80.000	19.996	103.166	19.995	1.464	0.514
1085.000	627.532	79.999	19.995	103.165	19.994	1.530	0.512
1085.500	627.726	79.999	19.996	103.173	19.994	1.520	0.502
1086.000	628.035	80.004	19.995	103.174	19.993	1.573	0.488
1086.500	628.274	80.002	19.995	103.175	19.994	1.509	0.525
1087.000	628.535	80.001	19.995	103.177	19.993	1.618	0.524
1087.500	628.822	80.002	19.995	103.178	19.993	1.556	0.524
1088.000	629.051	80.002	19.996	103.175	19.993	1.569	0.532
1088.500	629.324	80.001	19.995	103.176	19.994	1.475	0.509
1089.000	629.561	79.996	19.996	103.176	19.992	1.652	0.506
1089.500	629.828	79.998	19.994	103.172	19.994	1.539	0.507
1090.000	630.107	80.006	19.994	103.176	19.994	1.479	0.525
1090.500	630.383	80.001	19.994	103.178	19.999	1.103	0.551
1091.000	630.624	80.003	19.994	103.180	19.997	1.312	0.536
1091.500	630.854	80.003	19.995	103.183	19.993	1.575	0.494
1092.000	631.115	80.000	19.995	103.190	19.996	1.363	0.481
1092.500	631.392	80.004	19.994	103.195	19.997	1.257	0.514
1093.000	631.649	80.001	19.994	103.195	19.995	1.415	0.536
1093.500	631.887	80.001	19.995	103.196	19.997	1.293	0.515
1094.000	632.162	80.005	19.994	103.196	19.996	1.368	0.504
1094.500	632.442	80.003	19.995	103.197	19.996	1.327	0.534
1095.000	632.704	80.000	19.995	103.193	19.998	1.238	0.548
1095.500	632.975	79.998	19.997	103.192	20.000	1.058	0.537
1096.000	633.209	80.001	19.996	103.190	19.998	1.208	0.519
1096.500	633.478	80.002	19.996	103.189	19.996	1.338	0.504
1097.000	633.731	80.001	19.995	103.187	19.996	1.364	0.513
1097.500	633.990	80.001	19.995	103.187	19.992	1.671	0.517
1098.000	634.250	80.000	19.996	103.186	19.993	1.581	0.515
1098.501	634.542	80.003	19.995	103.186	19.997	1.308	0.535
1099.001	634.794	80.005	19.994	103.189	19.993	1.579	0.548
1099.500	635.056	80.003	19.995	103.189	19.994	1.483	0.529
1100.000	635.347	80.002	19.994	103.190	19.995	1.398	0.534
1100.500	635.582	80.001	19.994	103.189	19.993	1.562	0.539
1101.000	635.863	80.002	19.995	103.186	19.993	1.579	0.521
1101.501	636.143	80.002	19.995	103.177	19.994	1.473	0.539
1102.001	636.366	80.002	19.994	103.170	19.993	1.567	0.532
1102.501	636.617	80.002	19.995	103.166	19.996	1.366	0.489
1103.000	636.887	80.000	19.997	103.166	19.995	1.413	0.498
1103.500	637.169	80.000	19.997	103.171	19.993	1.569	0.536
1104.000	637.439	80.000	19.995	103.174	19.995	1.426	0.552
1104.500	637.725	80.001	19.996	103.175	19.991	1.703	0.554
1105.000	637.950	80.003	19.995	103.172	19.994	1.532	0.534
1105.500	638.201	79.989	19.996	103.171	19.992	1.695	0.493
1106.000	638.471	80.001	19.996	103.168	19.989	1.876	0.498
1106.500	638.739	80.001	19.996	103.171	19.992	1.686	0.529
1107.000	638.976	80.000	19.994	103.177	19.989	1.897	0.521
1107.500	639.223	80.002	19.995	103.186	19.989	1.855	0.495
1108.000	639.486	79.998	19.995	103.187	19.991	1.746	0.497
1108.500	639.702	80.002	19.995	103.187	19.989	1.867	0.494
1109.000	640.002	80.000	19.996	103.187	19.991	1.754	0.497
1109.500	640.282	80.000	19.995	103.187	19.991	1.771	0.548
1110.000	640.510	80.000	19.996	103.186	19.990	1.846	0.544
1110.501	640.758	79.998	19.996	103.187	19.990	1.844	0.492
1111.001	641.026	80.001	19.996	103.188	19.991	1.750	0.496
1111.500	641.224	79.999	19.995	103.187	19.988	1.993	0.491
1112.000	641.503	80.002	19.995	103.187	19.989	1.897	0.471
1112.501	641.778	80.001	19.995	103.185	19.990	1.831	0.515
1113.001	642.034	80.000	19.996	103.186	19.989	1.895	0.543
1113.500	642.316	80.000	19.995	103.186	19.989	1.914	0.535
1114.000	642.551	79.999	19.995	103.187	19.987	2.064	0.528
1114.500	642.806	80.001	19.995	103.187	19.991	1.710	0.503
1115.000	643.077	79.995	19.996	103.187	19.985	2.164	0.508
1115.500	643.326	79.999	19.996	103.185	19.989	1.859	0.523
1116.000	643.541	79.997	19.996	103.184	19.990	1.793	0.492
1116.500	643.846	80.002	19.995	103.183	19.991	1.718	0.492
1117.000	644.082	80.000	19.995	103.184	19.990	1.831	0.530
1117.500	644.322	80.008	19.994	103.183	19.988	1.942	0.508
1118.000	644.567	80.000	19.995	103.185	19.988	1.930	0.481
1118.500	644.849	80.002	19.994	103.187	19.991	1.738	0.507
1119.000	645.056	79.998	19.995	103.188	19.990	1.789	0.508
1119.500	645.325	79.997	19.994	103.188	19.990	1.802	0.482
1120.000	645.568	80.001	19.995	103.188	19.990	1.844	0.494
1120.500	645.768	80.001	19.996	103.187	19.989	1.928	0.478
1121.000	646.063	80.000	19.994	103.187	19.990	1.776	0.469
1121.500	646.283	80.000	19.994	103.186	19.994	1.530	0.505
1122.000	646.562	80.002	19.994	103.186	19.988	1.968	0.507
1122.500	646.753	79.999	19.996	103.186	19.990	1.827	0.484
1123.000	647.034	80.000	19.995	103.187	19.990	1.787	0.471
1123.500	647.278	80.000	19.997	103.188	19.991	1.748	0.498
1124.000	647.548	80.002	19.996	103.188	19.992	1.654	0.520
1124.500	647.784	80.000	19.996	103.191	19.986	2.115	0.510
1125.000	648.040	80.001	19.996	103.196	19.987	2.023	0.499
1125.500	648.303	80.001	19.996	103.196	19.992	1.680	0.506
1126.000	648.532	80.000	19.996	103.195	19.992	1.646	0.506
1126.500	648.809	79.995	19.996	103.196	19.993	1.584	0.499
1127.000	649.075	80.001	19.995	103.196	19.988	1.970	0.525
1127.500	649.315	79.999	19.995	103.195	19.991	1.729	0.524
1128.000	649.534	79.998	19.996	103.201	19.992	1.695	0.482
1128.500	649.796	79.997	19.996	103.202	19.989	1.878	0.470
1129.000	650.074	80.008	19.995	103.202	19.991	1.723	0.510
1129.500	650.293	80.009	19.994	103.207	19.993	1.563	0.518
1130.001	650.588	80.002	19.995	103.207	19.993	1.586	0.505
1130.501	650.812	80.003	19.996	103.207	19.994	1.482	0.517
1131.001	651.067	79.987	19.997	103.208	19.991	1.766	0.499
1131.500	651.301	79.997	19.995	103.207	19.992	1.682	0.484
1132.000	651.585	79.998	19.995	103.203	19.993	1.584	0.504
1132.500	651.818	80.001	19.995	103.201	19.990	1.806	0.518
1133.000	652.083	79.992	19.996	103.199	19.993	1.614	0.508
1133.500	652.286	79.998	19.996	103.195	19.992	1.622	0.483
1134.000	652.576	80.000	19.994	103.196	19.992	1.622	0.480
1134.500	652.794	80.002	19.996	103.194	19.988	2.002	0.500
1135.000	653.060	79.986	19.996	103.192	19.994	1.515	0.496
1135.500	653.354	80.000	19.995	103.189	19.994	1.522	0.522
1136.000	653.564	79.991	19.996	103.192	19.994	1.518	0.532
1136.500	653.817	80.002	19.996	103.196	19.989	1.881	0.484
1137.000	654.099	80.006	19.996	103.198	19.993	1.595	0.499
1137.500	654.345	80.004	19.995	103.203	19.991	1.738	0.531
1138.000	654.633	80.002	19.995	103.208	19.991	1.751	0.531
1138.500	654.826	79.993	19.996	103.209	19.990	1.791	0.508
1139.000	655.093	80.006	19.996	103.205	19.992	1.659	0.471
1139.501	655.406	80.010	19.994	103.205	19.990	1.785	0.520
1140.001	655.621	80.006	19.996	103.206	19.992	1.673	0.554
1140.500	655.834	79.997	19.997	103.208	19.989	1.853	0.478
1141.000	656.081	80.000	19.996	103.212	19.990	1.818	0.444
1141.500	656.386	80.002	19.996	103.222	19.997	1.298	0.506
1142.000	656.625	79.998	19.997	103.229	19.977	2.798	0.548
1142.500	656.853	79.999	19.996	103.228	19.973	3.138	0.506
1143.000	657.121	79.995	19.997	103.223	19.991	1.752	0.482
1143.500	657.387	79.981	19.999	103.214	19.988	1.944	0.515
1144.000	657.640	79.999	19.997	103.204	19.992	1.633	0.527
1144.500	657.886	80.004	19.996	103.201	19.995	1.441	0.509
1145.000	658.150	79.996	19.996	103.200	19.992	1.624	0.505
1145.500	658.429	79.997	19.996	103.199	19.991	1.714	0.527
1146.000	658.640	79.997	19.997	103.200	19.993	1.603	0.516
1146.500	658.910	79.985	19.997	103.204	19.991	1.729	0.486
1147.000	659.201	79.993	19.995	103.204	19.991	1.738	0.521
1147.500	659.405	79.995	19.995	103.206	19.988	1.962	0.528
1148.001	659.747	79.997	19.994	103.207	19.994	1.494	0.520
1148.501	659.954	79.991	19.994	103.213	19.992	1.693	0.547
1149.000	660.160	79.999	19.995	103.216	19.989	1.868	0.481
1149.500	660.456	79.999	19.995	103.212	19.991	1.746	0.458
1150.000	660.669	80.011	19.994	103.206	19.996	1.336	0.505
1150.500	660.971	79.995	19.997	103.205	19.991	1.722	0.511
1151.001	661.199	80.003	19.996	103.199	19.990	1.793	0.523
1151.501	661.499	79.997	19.996	103.192	19.992	1.654	0.529
1152.000	661.731	80.000	19.996	103.193	19.993	1.552	0.530
1152.500	661.976	80.000	19.996	103.192	19.991	1.759	0.504
1153.000	662.261	80.000	19.994	103.192	19.990	1.782	0.503
1153.500	662.438	79.999	19.996	103.195	19.995	1.447	0.496
1154.000	662.757	79.995	19.996	103.196	19.993	1.571	0.479
1154.500	662.994	79.999	19.996	103.196	19.991	1.735	0.526
1155.000	663.255	80.000	19.994	103.199	19.989	1.904	0.527
1155.500	663.780	80.002	19.995	103.200	19.987	2.017	0.642
1156.000	663.519	80.003	19.995	103.201	19.991	1.705	0.525
1156.500	663.762	79.998	19.995	103.207	19.991	1.757	0.123
1157.000	664.278	80.004	19.996	103.213	19.991	1.759	0.371
1157.500	664.481	80.001	19.995	103.215	19.988	1.987	0.739
1158.000	664.763	79.996	19.994	103.217	19.989	1.870	0.602
1158.500	665.096	79.998	19.995	103.214	19.990	1.846	0.550
1159.000	665.266	80.004	19.995	103.207	19.993	1.616	0.559
1159.501	665.531	79.995	19.996	103.201	19.991	1.703	0.469
1160.001	665.789	79.993	19.995	103.196	19.987	2.019	0.479
1160.500	666.026	80.000	19.995	103.193	19.986	2.117	0.509
1161.000	666.297	80.003	19.995	103.192	19.990	1.819	0.502
1161.500	666.517	79.997	19.996	103.193	19.988	1.955	0.499
1162.000	666.783	80.002	19.995	103.191	19.990	1.838	0.488
1162.500	667.055	79.998	19.996	103.192	19.988	1.936	0.512
1163.000	667.281	79.999	19.996	103.191	19.987	2.058	0.518
1163.501	667.570	80.012	19.996	103.190	19.988	1.996	0.506
1164.001	667.787	80.022	19.992	103.192	19.983	2.329	0.510
1164.500	668.044	80.014	19.993	103.199	19.986	2.130	0.490
1165.000	668.283	79.996	19.997	103.199	19.986	2.124	0.485
1165.500	668.554	80.000	19.996	103.198	19.987	2.058	0.503
1166.000	668.810	80.004	19.995	103.199	19.985	2.235	0.519
1166.501	669.054	80.001	19.997	103.199	19.989	1.883	0.513
1167.001	669.365	80.001	19.995	103.192	19.983	2.323	0.527
1167.500	669.601	79.998	19.996	103.191	19.986	2.120	0.551
1168.000	669.792	79.999	19.995	103.193	19.985	2.209	0.487
1168.500	670.098	80.000	19.995	103.191	19.986	2.122	0.462
1169.000	670.301	79.997	19.996	103.189	19.988	1.996	0.503
1169.500	670.578	79.980	19.997	103.186	19.981	2.538	0.494
1170.000	670.839	80.001	19.997	103.184	19.984	2.273	0.509
1170.500	671.129	80.004	19.994	103.184	19.988	1.944	0.545
1171.000	671.391	79.998	19.996	103.189	19.986	2.109	0.552
1171.501	671.606	79.999	19.996	103.197	19.987	2.021	0.514
1172.001	671.843	80.002	19.996	103.206	19.991	1.761	0.464
1172.501	672.139	80.013	19.995	103.213	19.979	2.681	0.493
1173.001	672.376	80.002	19.995	103.220	20.005	0.664	0.533
1173.501	672.618	80.001	19.995	103.222	19.985	2.224	0.506
1174.000	672.885	80.005	19.995	103.214	19.986	2.091	0.494
1174.500	673.100	79.993	19.996	103.211	19.984	2.254	0.496
1175.000	673.341	80.000	19.997	103.206	19.989	1.910	0.469
1175.500	673.669	79.995	19.996	103.202	19.985	2.200	0.512
1176.001	673.897	80.024	19.993	103.202	19.986	2.096	0.562
1176.501	674.119	79.996	19.995	103.214	19.984	2.241	0.503
1177.001	674.435	80.003	19.996	103.215	19.986	2.138	0.494
1177.501	674.640	80.007	19.994	103.217	19.987	2.013	0.529
1178.001	674.944	80.004	19.996	103.220	19.987	2.074	0.515
1178.500	675.164	80.000	19.994	103.216	19.986	2.109	0.517
1179.000	675.448	80.003	19.996	103.204	19.987	2.038	0.514
1179.500	675.682	80.012	19.994	103.196	19.987	2.015	0.511
1180.000	675.938	80.001	19.996	103.194	19.983	2.328	0.503
1180.500	676.215	80.014	19.993	103.187	19.984	2.243	0.511
1181.000	676.443	80.003	19.994	103.187	19.986	2.147	0.519
1181.500	676.670	80.005	19.994	103.187	19.988	1.993	0.480
1182.000	676.951	79.996	19.995	103.190	19.986	2.132	0.482
1182.500	677.192	80.003	19.995	103.188	19.984	2.237	0.515
1183.000	677.495	80.002	19.994	103.189	19.984	2.247	0.533
1183.500	677.685	79.993	19.994	103.187	19.984	2.281	0.519
1184.000	677.990	79.992	19.995	103.186	19.988	1.993	0.494
1184.500	678.172	80.008	19.995	103.185	19.983	2.322	0.491
1185.000	678.508	80.000	19.996	103.183	19.988	1.972	0.502
1185.500	678.814	79.984	19.997	103.181	19.986	2.085	0.580
1186.000	678.732	80.000	19.994	103.178	19.985	2.207	0.433
1186.500	679.568	80.008	19.992	103.182	19.984	2.290	0.489
1187.001	680.125	80.000	19.995	103.185	19.983	2.373	1.073
1187.501	679.737	79.997	19.995	103.185	19.985	2.198	0.781
1188.000	679.916	80.004	19.997	103.185	19.987	2.055	-0.020
1188.500	680.138	79.993	19.994	103.185	19.986	2.100	0.096
1189.000	680.523	80.011	19.994	103.181	19.987	2.009	0.504
1189.500	680.750	79.991	19.996	103.182	19.985	2.177	0.610
1190.000	681.020	80.001	19.996	103.182	19.987	2.026	0.555
1190.500	681.291	79.991	19.995	103.185	19.987	2.011	0.519
1191.000	681.537	79.996	19.994	103.187	19.988	1.985	0.528
1191.500	681.767	80.013	19.995	103.189	19.989	1.923	0.496
1192.000	682.076	80.002	19.995	103.187	19.990	1.823	0.508
1192.500	682.277	80.009	19.995	103.187	19.990	1.778	0.525
1193.000	682.537	80.000	19.994	103.186	19.987	2.059	0.485
1193.500	682.799	79.997	19.995	103.186	19.987	2.049	0.491
1194.000	683.081	80.001	19.994	103.184	19.988	2.002	0.533
1194.500	683.331	80.000	19.996	103.181	19.987	2.023	0.539
1195.001	683.536	80.009	19.994	103.179	19.984	2.307	0.494
1195.501	683.828	79.998	19.996	103.180	19.988	2.000	0.476
1196.000	684.102	79.993	19.994	103.179	19.988	1.982	0.531
1196.500	684.357	79.991	19.995	103.180	19.987	2.036	0.547
1197.000	684.585	79.999	19.995	103.184	19.987	2.059	0.506
1197.500	684.830	79.994	19.995	103.187	19.986	2.115	0.478
1198.000	685.088	80.007	19.991	103.186	19.989	1.895	0.488
1198.501	685.339	80.008	19.993	103.188	19.992	1.679	0.506
1199.001	685.694	80.009	19.995	103.192	19.994	1.536	0.558
1199.501	685.828	80.008	19.994	103.198	19.990	1.824	0.547
1200.001	686.106	79.989	19.998	103.205	19.992	1.662	0.451
1200.501	686.380	80.006	19.995	103.206	19.990	1.786	0.482
1201.000	686.610	79.990	19.996	103.210	19.988	1.933	0.528
1201.500	686.843	80.005	19.994	103.207	19.990	1.799	0.483
1202.000	687.091	79.989	19.998	103.198	19.994	1.538	0.472
1202.500	687.371	80.013	19.993	103.187	19.988	1.954	0.505
1203.001	687.630	80.002	19.996	103.189	19.992	1.641	0.534
1203.501	687.893	80.000	19.993	103.181	19.990	1.822	0.531
1204.001	688.179	79.999	19.995	103.180	19.991	1.720	0.536
1204.500	688.445	80.004	19.993	103.180	19.990	1.805	0.550
1205.000	688.666	80.007	19.993	103.183	19.992	1.692	0.519
1205.500	688.958	80.010	19.993	103.179	19.995	1.427	0.500
1206.000	689.181	80.003	19.994	103.180	19.992	1.670	0.514
1206.500	689.412	80.006	19.994	103.174	19.992	1.623	0.485
1207.000	689.720	79.989	19.996	103.171	19.990	1.820	0.497
1207.500	689.842	79.993	19.996	103.172	19.988	1.967	0.484
1208.000	690.173	80.001	19.994	103.170	19.991	1.752	0.441
1208.501	690.441	80.007	19.993	103.169	19.993	1.585	0.526
1209.001	690.699	80.012	19.992	103.173	19.994	1.485	0.563
1209.500	690.962	80.003	19.995	103.172	19.990	1.775	0.524
1210.000	691.221	80.010	19.994	103.168	19.991	1.741	0.522
1210.500	691.450	80.007	19.994	103.169	19.991	1.737	0.505
1211.000	691.736	79.997	19.996	103.169	19.989	1.880	0.501
1211.500	691.961	79.998	19.994	103.166	19.991	1.747	0.513
1212.000	692.252	79.996	19.995	103.165	19.990	1.814	0.513
1212.500	692.505	79.997	19.996	103.165	19.989	1.863	0.530
1213.000	692.757	80.002	19.993	103.158	19.992	1.634	0.525
1213.500	693.014	79.998	19.994	103.154	19.992	1.628	0.507
1214.000	693.262	80.005	19.992	103.154	19.991	1.709	0.507
1214.500	693.515	79.999	19.996	103.155	19.989	1.856	0.503
1215.000	693.787	79.990	19.993	103.155	19.992	1.637	0.513
1215.500	694.081	79.995	19.994	103.156	19.991	1.726	0.546
1216.000	694.306	80.003	19.995	103.147	19.990	1.799	0.543
1216.500	694.558	80.009	19.994	103.144	19.993	1.560	0.498
1217.000	694.789	79.998	19.994	103.142	19.988	1.952	0.480
1217.500	695.086	79.994	19.995	103.139	19.988	1.989	0.506
1218.000	695.346	79.999	19.994	103.139	19.992	1.679	0.542
1218.500	695.568	80.008	19.994	103.146	19.990	1.837	0.520
1219.000	695.822	79.995	19.997	103.151	19.990	1.837	0.479
1219.500	696.069	80.019	19.992	103.150	19.993	1.604	0.488
1220.000	696.346	80.003	19.993	103.153	19.990	1.833	0.513
1220.500	696.576	79.997	19.995	103.153	19.990	1.782	0.516
1221.000	696.804	79.989	19.995	103.152	19.994	1.510	0.482
1221.500	697.113	79.989	19.995	103.149	19.991	1.739	0.497
1222.000	697.329	80.001	19.995	103.156	19.992	1.694	0.531
1222.500	697.600	80.000	19.994	103.156	19.991	1.737	0.506
1223.001	697.863	80.001	19.992	103.155	19.989	1.869	0.511
1223.501	698.136	80.000	19.993	103.158	19.989	1.869	0.535
1224.001	698.378	79.994	19.995	103.163	19.993	1.557	0.526
1224.501	698.593	79.998	19.994	103.160	19.991	1.732	0.486
1225.000	698.878	79.998	19.996	103.167	19.991	1.769	0.478
1225.500	699.133	80.000	19.996	103.170	19.993	1.598	0.520
1226.001	699.376	80.001	19.995	103.169	19.991	1.709	0.519
1226.501	699.620	80.002	19.995	103.166	19.993	1.572	0.493
1227.000	699.915	79.996	19.995	103.164	19.995	1.448	0.513
1227.500	700.172	79.999	19.994	103.158	19.998	1.214	0.546
1228.000	700.419	79.997	19.996	103.159	19.992	1.683	0.528
1228.500	700.644	79.992	19.995	103.160	19.994	1.472	0.488
1229.000	700.924	80.004	19.995	103.163	19.995	1.453	0.488
1229.500	701.186	79.997	19.995	103.164	19.991	1.724	0.524
1230.000	701.419	79.988	19.996	103.162	19.994	1.489	0.519
1230.501	701.676	80.011	19.994	103.158	19.991	1.747	0.492
1231.001	701.897	79.996	19.996	103.157	19.993	1.553	0.484
1231.500	702.153	79.990	19.996	103.155	19.998	1.233	0.478
1232.000	702.438	79.999	19.996	103.150	19.999	1.158	0.509
1232.501	702.674	80.000	19.997	103.150	19.993	1.570	0.531
1233.001	702.914	79.997	19.994	103.147	19.995	1.455	0.498
1233.500	703.220	80.010	19.995	103.145	19.990	1.801	0.511
1234.000	703.457	79.999	19.996	103.144	19.995	1.461	0.544
1234.500	703.716	79.996	19.996	103.145	19.991	1.773	0.520
1235.001	703.944	80.009	19.997	103.148	19.991	1.760	0.492
1235.501	704.170	79.987	19.996	103.149	19.989	1.920	0.471
1236.000	704.416	79.990	19.996	103.147	19.993	1.572	0.463
1236.500	704.687	79.998	19.995	103.142	19.990	1.822	0.494
1237.001	704.936	79.992	19.997	103.137	19.990	1.850	0.519
1237.501	705.193	80.002	19.996	103.130	19.990	1.803	0.513
1238.000	705.440	80.005	19.995	103.129	19.992	1.666	0.505
1238.500	705.693	80.007	19.993	103.131	19.991	1.701	0.502
1239.000	705.983	79.994	19.995	103.136	19.990	1.780	0.521
1239.500	706.187	80.007	19.995	103.141	19.992	1.636	0.518
1240.000	706.495	80.001	19.995	103.146	19.990	1.796	0.503
1240.500	706.728	80.003	19.994	103.149	19.988	1.984	0.527
1241.000	706.958	80.004	19.995	103.151	19.991	1.771	0.502
1241.500	707.282	80.006	19.995	103.151	19.993	1.606	0.508
1242.000	707.480	79.998	19.997	103.150	19.990	1.831	0.538
1242.500	707.755	79.992	19.996	103.146	19.992	1.662	0.498
1243.000	708.018	80.020	19.994	103.143	19.990	1.829	0.505
1243.500	708.255	79.995	19.995	103.143	19.989	1.852	0.519
1244.000	708.495	80.009	19.993	103.141	19.992	1.673	0.488
1244.500	708.726	79.995	19.996	103.142	19.994	1.524	0.474
1245.000	708.996	79.993	19.997	103.143	19.990	1.799	0.487
1245.500	709.242	80.004	19.997	103.142	19.993	1.564	0.508
1246.000	709.508	80.002	19.995	103.139	19.992	1.650	0.513
1246.500	709.741	79.997	19.996	103.142	19.992	1.686	0.505
1247.000	709.976	80.009	19.995	103.141	19.995	1.417	0.484
1247.500	710.255	80.000	19.995	103.145	19.992	1.694	0.491
1248.000	710.529	80.033	19.990	103.154	19.991	1.718	0.534
1248.501	710.781	80.000	19.995	103.165	19.996	1.336	0.540
1249.001	711.017	79.995	19.996	103.165	19.993	1.551	0.507
1249.500	711.266	79.986	19.997	103.165	19.994	1.507	0.487
1250.000	711.566	79.993	19.995	103.161	19.998	1.201	0.517
1250.500	711.814	80.009	19.994	103.157	19.991	1.713	0.549
1251.000	712.023	79.993	19.996	103.149	19.998	1.178	0.502
1251.500	712.303	79.995	19.996	103.147	19.995	1.402	0.473
1252.001	712.539	80.005	19.995	103.146	19.992	1.630	0.503
1252.501	712.802	79.999	19.996	103.148	19.995	1.440	0.508
1253.000	713.046	80.000	19.996	103.152	19.998	1.184	0.503
1253.501	713.323	80.004	19.995	103.157	19.998	1.229	0.514
1254.001	713.548	80.015	19.994	103.164	19.999	1.118	0.511
1254.500	713.807	79.997	19.995	103.173	19.999	1.124	0.493
1255.000	714.064	80.008	19.996	103.181	19.992	1.628	0.500
1255.500	714.350	80.004	19.995	103.183	19.995	1.423	0.529
1256.000	714.581	80.000	19.997	103.183	19.996	1.323	0.530
1256.501	714.851	80.005	19.995	103.178	19.996	1.380	0.509
1257.001	715.076	79.996	19.996	103.176	19.993	1.604	0.498
1257.500	715.357	79.997	19.995	103.170	19.995	1.438	0.500
1258.000	715.600	79.995	19.997	103.169	19.993	1.581	0.515
1258.500	715.904	80.009	19.993	103.168	19.995	1.446	0.535
1259.000	716.144	80.005	19.996	103.173	19.997	1.284	0.546
1259.500	716.379	80.011	19.994	103.170	19.992	1.675	0.510
1260.000	716.664	80.014	19.994	103.174	19.995	1.415	0.497
1260.500	716.905	80.006	19.995	103.170	19.996	1.365	0.523
1261.000	717.172	80.014	19.993	103.163	19.994	1.538	0.517
1261.500	717.400	79.995	19.996	103.155	19.993	1.596	0.501
1262.000	717.664	80.004	19.996	103.151	19.994	1.526	0.493
1262.500	717.889	79.997	19.997	103.144	19.990	1.801	0.491
1263.000	718.145	79.997	19.996	103.138	19.991	1.715	0.485
1263.500	718.451	80.007	19.994	103.136	19.991	1.756	0.522
1264.000	718.706	80.006	19.999	103.134	19.992	1.626	0.561
1264.500	718.907	80.004	19.997	103.133	19.993	1.557	0.508
1265.000	719.186	80.004	19.995	103.135	19.986	2.112	0.468
1265.501	719.428	80.005	19.997	103.137	19.989	1.905	0.501
1266.001	719.688	80.003	19.996	103.140	19.988	1.948	0.512
1266.500	719.975	80.007	19.996	103.139	19.990	1.847	0.524
1267.000	720.199	80.000	19.994	103.143	19.989	1.858	0.529
1267.500	720.464	79.993	19.997	103.142	19.992	1.668	0.500
1268.000	720.715	79.995	19.998	103.143	19.988	2.001	0.503
1268.500	720.982	80.009	19.995	103.141	19.988	1.975	0.517
1269.000	721.200	79.990	19.999	103.147	19.992	1.688	0.502
1269.500	721.475	80.005	19.995	103.145	19.987	2.052	0.489
1270.000	721.668	79.999	19.995	103.146	19.986	2.102	0.480
1270.501	721.992	80.002	19.993	103.147	19.986	2.155	0.492
1271.001	722.196	80.000	19.993	103.153	19.986	2.106	0.523
1271.500	722.485	79.999	19.995	103.152	19.990	1.844	0.510
1272.000	722.671	79.991	19.996	103.155	19.987	2.032	0.484
1272.500	722.918	79.975	19.997	103.158	19.987	2.062	0.454
1273.000	723.183	79.992	19.995	103.158	19.990	1.812	0.473
1273.500	723.428	79.998	19.996	103.155	19.987	2.046	0.511
1274.000	723.658	79.998	19.994	103.151	19.988	1.999	0.493
1274.500	723.953	80.001	19.996	103.149	19.987	2.050	0.500
1275.000	724.219	79.994	19.996	103.146	19.984	2.266	0.543
1275.501	724.443	80.011	19.993	103.143	19.989	1.899	0.525
1276.001	724.704	79.996	19.995	103.147	19.991	1.769	0.487
1276.500	724.931	79.996	19.996	103.149	19.987	2.005	0.487
1277.000	725.147	79.982	19.997	103.148	19.988	1.978	0.466
1277.501	725.438	79.994	19.995	103.142	19.989	1.899	0.475
1278.001	725.694	80.003	19.995	103.144	19.988	1.961	0.527
1278.501	725.959	80.009	19.994	103.140	19.988	1.984	0.534
1279.000	726.191	79.992	19.995	103.140	19.990	1.816	0.509
1279.500	726.440	80.009	19.994	103.142	19.985	2.185	0.489
1280.000	726.690	80.007	19.995	103.150	19.990	1.820	0.490
1280.500	726.930	79.999	19.995	103.152	19.987	2.050	0.495
1281.000	727.192	80.001	19.994	103.152	19.990	1.835	0.496
1281.500	727.422	80.009	19.994	103.157	19.990	1.795	0.497
1282.000	727.688	79.996	19.993	103.165	19.988	1.961	0.494
1282.500	727.913	79.995	19.994	103.170	19.991	1.773	0.494
1283.000	728.180	79.997	19.995	103.177	19.990	1.805	0.491
1283.500	728.434	79.991	19.994	103.179	19.987	2.014	0.506
1284.000	728.689	79.993	19.995	103.180	19.988	1.993	0.515
1284.500	728.971	79.998	19.994	103.172	19.992	1.681	0.523
1285.000	729.190	79.991	19.995	103.166	19.991	1.711	0.520
1285.500	729.465	80.008	19.994	103.156	19.990	1.809	0.497
1286.000	729.720	80.006	19.993	103.154	19.988	1.980	0.511
1286.501	729.975	80.016	19.992	103.146	19.989	1.899	0.520
1287.001	730.237	80.018	19.994	103.148	19.992	1.679	0.513
1287.500	730.489	80.005	19.995	103.150	19.989	1.924	0.516
1288.000	730.726	79.998	19.995	103.154	19.992	1.645	0.502
1288.500	731.013	79.999	19.994	103.159	19.989	1.892	0.507
1289.000	731.298	79.999	19.994	103.164	19.990	1.783	0.548
1289.501	731.513	80.006	19.994	103.165	19.987	2.012	0.536
1290.001	731.788	80.009	19.994	103.164	19.989	1.903	0.495
1290.500	732.062	79.996	19.995	103.161	19.988	1.973	0.519
1291.000	732.309	80.003	19.993	103.155	19.990	1.803	0.535
1291.500	732.579	80.024	19.991	103.156	19.987	2.033	0.519
1292.000	732.789	79.993	19.995	103.161	19.987	2.016	0.498
1292.500	733.051	79.994	19.996	103.165	19.991	1.741	0.476
1293.000	733.310	79.990	19.996	103.164	19.990	1.807	0.497
1293.500	733.577	80.001	19.994	103.160	19.989	1.920	0.524
1294.000	733.823	80.004	19.994	103.158	19.990	1.802	0.519
1294.500	734.089	80.005	19.993	103.153	19.988	1.958	0.512
1295.000	734.334	80.000	19.995	103.151	19.985	2.174	0.512
1295.500	734.635	79.999	19.995	103.154	19.987	2.014	0.529
1296.000	734.854	79.998	19.995	103.164	19.986	2.093	0.533
1296.500	735.123	80.017	19.993	103.168	19.988	1.984	0.504
1297.000	735.367	80.000	19.995	103.165	19.989	1.875	0.500
1297.500	735.627	79.990	19.995	103.161	19.986	2.112	0.508
1298.000	735.853	79.992	19.996	103.158	19.986	2.112	0.495
1298.500	736.107	80.002	19.996	103.149	19.987	2.020	0.483
1299.000	736.370	80.009	19.994	103.142	19.989	1.920	0.499
1299.501	736.619	79.996	19.996	103.142	19.984	2.311	0.515
1300.001	736.898	79.998	19.995	103.141	19.984	2.253	0.520
1300.500	737.183	79.994	19.994	103.140	19.985	2.159	0.545
1301.000	737.410	80.004	19.995	103.141	19.984	2.238	0.538
1301.500	737.709	80.003	19.994	103.142	19.984	2.240	0.520
1302.000	737.915	80.005	19.996	103.142	19.984	2.300	0.516
1302.500	738.210	80.006	19.996	103.141	19.984	2.253	0.503
1303.000	738.484	80.003	19.995	103.136	19.985	2.189	0.535
1303.500	738.726	79.998	19.994	103.131	19.984	2.244	0.542
1304.000	738.987	80.001	19.995	103.132	19.984	2.240	0.510
1304.500	739.243	80.000	19.995	103.130	19.982	2.391	0.510
1305.000	739.501	80.009	19.995	103.132	19.982	2.402	0.516
1305.500	739.734	79.997	19.995	103.137	19.980	2.605	0.503
1306.000	739.999	80.003	19.994	103.142	19.983	2.334	0.495
1306.500	740.274	80.002	19.996	103.143	19.982	2.424	0.519
1307.000	740.533	79.999	19.995	103.142	19.983	2.355	0.537
1307.500	740.778	79.999	19.996	103.142	19.982	2.415	0.518
1308.001	741.052	80.003	19.994	103.142	19.984	2.253	0.511
1308.501	741.306	80.005	19.993	103.143	19.986	2.110	0.524
1309.000	741.560	80.011	19.994	103.141	19.986	2.145	0.518
1309.500	741.782	80.017	19.994	103.146	19.987	2.038	0.492
1310.000	742.060	80.001	19.994	103.150	19.988	2.000	0.488
1310.500	742.320	80.006	19.994	103.150	19.988	1.957	0.519
1311.000	742.602	80.003	19.994	103.150	19.984	2.277	0.540
1311.501	742.850	80.000	19.994	103.152	19.989	1.884	0.537
1312.001	743.121	80.002	19.994	103.150	19.987	2.034	0.525
1312.500	743.377	80.008	19.993	103.147	19.984	2.262	0.523
1313.000	743.600	80.005	19.995	103.149	19.988	1.999	0.503
