Sample ID:	C:\MCC\MCC Cal\Test\Tyvek_Wrap_MCC_30K_min_220211_R3.txt
Sample Weight (mg):	4.55
Heating Rate (C/s):	0.5
Combustor Temp (C):	900
N2 Flow Rate (cc/min):	80
O2 Flow Rate (cc/min):	20
Calibration File:	C:\MCC\MCC Cal\Coeff1 JN10440_30_210304.txt.txt
T Correction Coefficients:	0	1.024463	0
Time Shift (s):	14
*
Time (s)	Temperature (C)	N2 flow rate (cc/min)	O2 flow rate (cc/min)	Flow Rate (cc/min)	Oxygen (%)	HRR (W/g)	Heating rate (C/s)
0.000	112.321	80.011	19.994	103.627	19.894	0.193	0.007
0.500	112.310	80.010	19.993	103.627	19.895	0.117	-0.012
1.000	112.332	80.009	19.993	103.627	19.892	0.304	-0.005
1.500	112.320	80.010	19.993	103.627	19.892	0.310	0.011
2.000	112.314	80.010	19.992	103.626	19.892	0.306	-0.004
2.500	112.319	80.010	19.993	103.625	19.888	0.592	-0.010
3.000	112.294	80.011	19.994	103.623	19.894	0.214	-0.011
3.500	112.329	80.009	19.994	103.623	19.891	0.380	-0.005
4.000	112.262	80.009	19.993	103.622	19.892	0.327	-0.011
4.500	112.301	80.009	19.994	103.623	19.896	0.057	-0.030
5.000	112.286	80.009	19.993	103.624	19.891	0.421	-0.002
5.500	112.292	80.010	19.993	103.626	19.888	0.616	0.007
6.000	112.287	80.008	19.993	103.627	19.887	0.675	-0.004
6.500	112.305	80.009	19.993	103.633	19.893	0.259	0.007
7.000	112.311	80.010	19.993	103.640	19.892	0.359	0.018
7.500	112.318	80.009	19.994	103.648	19.890	0.456	0.019
8.000	112.290	80.008	19.994	103.656	19.892	0.308	-0.004
8.500	112.292	80.008	19.994	103.663	19.891	0.390	-0.024
9.000	112.307	80.009	19.994	103.666	19.890	0.482	-0.005
9.500	112.335	80.008	19.994	103.666	19.895	0.148	0.030
10.000	112.319	80.007	19.993	103.666	19.886	0.745	0.028
10.500	112.353	80.008	19.994	103.667	19.891	0.421	0.015
11.000	112.343	80.007	19.994	103.670	19.886	0.727	0.021
11.500	112.334	80.007	19.993	103.677	19.888	0.634	0.003
12.000	112.348	80.007	19.993	103.685	19.883	1.006	-0.007
12.501	112.326	80.008	19.994	103.692	19.882	1.047	-0.002
13.001	112.368	80.009	19.993	103.698	19.884	0.879	0.006
13.501	112.347	80.009	19.993	103.704	19.881	1.099	0.020
14.000	112.405	80.008	19.995	103.707	19.879	1.236	0.029
14.500	112.427	80.007	19.994	103.713	19.879	1.253	0.058
15.000	112.414	80.008	19.995	103.722	19.876	1.450	0.045
15.500	112.411	80.009	19.993	103.733	19.874	1.598	-0.003
16.000	112.401	80.010	19.993	103.748	19.874	1.604	-0.014
16.500	112.426	80.007	19.994	103.762	19.873	1.701	0.001
17.000	112.462	80.009	19.994	103.765	19.871	1.809	0.038
17.500	112.504	80.008	19.993	103.766	19.876	1.442	0.069
18.000	112.474	80.008	19.993	103.770	19.875	1.577	0.045
18.500	112.517	80.008	19.993	103.769	19.875	1.555	0.013
19.000	112.525	80.008	19.993	103.770	19.872	1.787	0.032
19.500	112.580	80.008	19.994	103.776	19.872	1.770	0.057
20.000	112.595	80.008	19.993	103.781	19.873	1.688	0.066
20.500	112.647	80.006	19.994	103.780	19.871	1.837	0.068
21.000	112.664	80.008	19.994	103.778	19.873	1.661	0.068
21.500	112.717	80.008	19.993	103.776	19.871	1.817	0.070
22.000	112.770	80.008	19.993	103.768	19.872	1.747	0.088
22.500	112.847	80.007	19.994	103.765	19.870	1.870	0.118
23.000	112.835	80.008	19.994	103.761	19.874	1.608	0.097
23.500	112.851	80.009	19.994	103.755	19.873	1.672	0.034
24.000	112.923	80.009	19.993	103.748	19.872	1.747	0.046
24.500	112.964	80.009	19.994	103.747	19.873	1.715	0.101
25.000	112.994	80.007	19.993	103.740	19.871	1.854	0.092
25.500	113.003	80.008	19.994	103.733	19.872	1.766	0.055
26.000	113.068	80.009	19.993	103.727	19.873	1.669	0.057
26.500	113.134	80.008	19.994	103.723	19.871	1.841	0.103
27.000	113.133	80.007	19.993	103.720	19.872	1.737	0.098
27.500	113.185	80.008	19.993	103.725	19.871	1.810	0.058
28.000	113.228	80.009	19.993	103.732	19.871	1.806	0.073
28.500	113.243	80.008	19.994	103.739	19.872	1.759	0.077
29.000	113.355	80.007	19.992	103.746	19.870	1.935	0.092
29.500	113.394	80.008	19.993	103.750	19.868	2.027	0.139
30.000	113.430	80.009	19.992	103.755	19.871	1.804	0.113
30.500	113.493	80.007	19.992	103.759	19.871	1.795	0.087
31.000	113.533	80.008	19.993	103.767	19.870	1.914	0.101
31.500	113.607	80.008	19.995	103.773	19.873	1.715	0.108
32.000	113.643	80.008	19.993	103.777	19.869	1.970	0.112
32.500	113.712	80.009	19.995	103.773	19.869	1.988	0.108
33.000	113.740	80.007	19.993	103.769	19.869	1.951	0.101
33.500	113.837	80.008	19.994	103.764	19.870	1.886	0.111
34.000	113.873	80.007	19.994	103.758	19.869	1.970	0.129
34.500	113.943	80.008	19.994	103.753	19.869	1.988	0.119
35.000	114.009	80.007	19.993	103.754	19.868	2.017	0.121
35.500	114.019	80.008	19.993	103.754	19.870	1.881	0.106
36.000	114.114	80.008	19.994	103.757	19.867	2.119	0.091
36.500	114.149	80.006	19.993	103.762	19.869	1.971	0.117
37.001	114.225	80.008	19.993	103.770	19.866	2.160	0.120
37.501	114.293	80.008	19.994	103.776	19.868	2.078	0.128
38.000	114.343	80.007	19.994	103.785	19.866	2.181	0.131
38.500	114.419	80.008	19.994	103.788	19.863	2.382	0.122
39.000	114.469	80.007	19.995	103.795	19.862	2.458	0.126
39.500	114.533	80.007	19.993	103.803	19.861	2.571	0.120
40.000	114.612	80.006	19.995	103.810	19.863	2.367	0.128
40.500	114.693	80.007	19.994	103.816	19.859	2.653	0.152
41.000	114.737	80.007	19.995	103.825	19.864	2.308	0.143
41.500	114.806	80.007	19.993	103.829	19.863	2.421	0.119
42.000	114.897	80.007	19.994	103.831	19.864	2.319	0.137
42.501	114.965	80.008	19.995	103.834	19.860	2.590	0.159
43.001	115.067	80.006	19.993	103.838	19.858	2.774	0.164
43.500	115.156	80.007	19.994	103.839	19.859	2.649	0.181
44.000	115.243	80.008	19.993	103.838	19.859	2.651	0.184
44.500	115.278	80.007	19.994	103.837	19.859	2.672	0.149
45.000	115.373	80.007	19.995	103.835	19.860	2.626	0.125
45.500	115.509	80.007	19.994	103.830	19.860	2.579	0.181
46.000	115.576	80.006	19.994	103.831	19.856	2.870	0.218
46.500	115.640	80.008	19.994	103.837	19.859	2.652	0.167
47.000	115.752	80.007	19.994	103.844	19.860	2.607	0.153
47.500	115.860	80.008	19.993	103.851	19.857	2.792	0.198
48.000	115.924	80.007	19.994	103.857	19.858	2.763	0.196
48.500	116.039	80.009	19.993	103.857	19.857	2.818	0.175
49.000	116.114	80.008	19.994	103.850	19.857	2.814	0.184
49.500	116.207	80.008	19.993	103.845	19.858	2.788	0.179
50.000	116.332	80.009	19.994	103.840	19.852	3.164	0.193
50.500	116.412	80.008	19.994	103.842	19.857	2.839	0.212
51.000	116.536	80.008	19.995	103.843	19.856	2.924	0.205
51.501	116.637	80.009	19.994	103.843	19.855	2.959	0.215
52.001	116.724	80.010	19.993	103.842	19.854	3.022	0.206
52.500	116.830	80.010	19.993	103.839	19.854	3.007	0.190
53.000	116.920	80.010	19.993	103.833	19.853	3.085	0.195
53.500	117.030	80.008	19.994	103.828	19.856	2.884	0.198
54.001	117.178	80.010	19.993	103.828	19.852	3.154	0.228
54.501	117.210	80.010	19.992	103.829	19.855	2.998	0.219
55.000	117.393	80.010	19.993	103.829	19.856	2.928	0.198
55.500	117.511	80.011	19.994	103.830	19.853	3.146	0.258
56.000	117.586	80.010	19.992	103.836	19.852	3.154	0.246
56.501	117.726	80.009	19.994	103.842	19.848	3.504	0.204
57.001	117.830	80.010	19.993	103.843	19.849	3.406	0.230
57.500	117.950	80.011	19.993	103.849	19.848	3.490	0.234
58.000	118.089	80.010	19.995	103.854	19.849	3.408	0.241
58.500	118.159	80.010	19.993	103.855	19.849	3.391	0.234
59.000	118.303	80.010	19.994	103.855	19.852	3.190	0.212
59.500	118.431	80.010	19.994	103.857	19.849	3.402	0.243
60.000	118.573	80.009	19.994	103.852	19.851	3.252	0.271
60.500	118.678	80.009	19.994	103.845	19.850	3.351	0.259
61.000	118.835	80.010	19.993	103.841	19.848	3.468	0.255
61.501	118.920	80.009	19.994	103.839	19.849	3.376	0.252
62.001	119.037	80.010	19.994	103.837	19.848	3.480	0.221
62.500	119.190	80.009	19.993	103.838	19.848	3.498	0.236
63.000	119.297	80.009	19.995	103.845	19.848	3.441	0.265
63.500	119.462	80.009	19.995	103.849	19.848	3.477	0.266
64.000	119.577	80.007	19.994	103.853	19.847	3.522	0.276
64.500	119.697	80.010	19.994	103.859	19.846	3.576	0.257
65.000	119.832	80.010	19.994	103.870	19.843	3.822	0.245
65.500	119.939	80.008	19.995	103.877	19.847	3.570	0.249
66.000	120.108	80.009	19.993	103.885	19.849	3.427	0.259
66.500	120.238	80.009	19.994	103.888	19.847	3.570	0.287
67.000	120.419	80.008	19.994	103.890	19.849	3.427	0.304
67.500	120.589	80.009	19.994	103.890	19.849	3.404	0.331
68.001	120.710	80.008	19.994	103.890	19.847	3.527	0.322
68.501	120.904	80.008	19.994	103.891	19.845	3.691	0.303
69.000	121.052	80.009	19.994	103.894	19.846	3.584	0.328
69.500	121.172	80.009	19.994	103.900	19.844	3.726	0.305
70.000	121.332	80.009	19.994	103.900	19.844	3.777	0.274
70.500	121.445	80.009	19.994	103.895	19.846	3.620	0.277
71.000	121.617	80.008	19.994	103.886	19.845	3.649	0.279
71.500	121.778	80.008	19.995	103.878	19.845	3.678	0.309
72.000	121.945	80.009	19.994	103.877	19.846	3.602	0.331
72.500	122.084	80.009	19.994	103.877	19.849	3.421	0.317
73.000	122.282	80.010	19.994	103.883	19.844	3.767	0.322
73.501	122.430	80.010	19.995	103.893	19.845	3.712	0.341
74.001	122.618	80.010	19.995	103.901	19.846	3.636	0.341
74.500	122.776	80.010	19.994	103.902	19.848	3.460	0.341
75.000	122.938	80.008	19.995	103.904	19.845	3.696	0.333
75.500	123.080	80.009	19.994	103.904	19.844	3.764	0.312
76.001	123.260	80.009	19.994	103.901	19.845	3.690	0.313
76.501	123.410	80.010	19.993	103.893	19.844	3.759	0.326
77.000	123.589	80.009	19.995	103.887	19.846	3.628	0.330
77.500	123.769	80.009	19.994	103.882	19.842	3.904	0.344
78.001	123.954	80.009	19.994	103.880	19.845	3.672	0.362
78.501	124.070	80.011	19.994	103.881	19.845	3.648	0.333
79.000	124.276	80.010	19.994	103.888	19.844	3.738	0.312
79.500	124.474	80.010	19.993	103.892	19.844	3.765	0.363
80.000	124.648	80.011	19.993	103.893	19.844	3.756	0.388
80.500	124.818	80.010	19.994	103.889	19.842	3.898	0.358
81.000	124.961	80.011	19.992	103.885	19.844	3.766	0.328
81.500	125.140	80.010	19.993	103.879	19.846	3.620	0.317
82.000	125.366	80.011	19.994	103.872	19.841	3.934	0.364
82.500	125.499	80.011	19.993	103.867	19.846	3.591	0.382
83.000	125.681	80.011	19.993	103.871	19.841	3.955	0.337
83.500	125.852	80.012	19.993	103.875	19.842	3.906	0.334
84.001	126.013	80.011	19.993	103.878	19.842	3.922	0.342
84.501	126.182	80.010	19.992	103.879	19.841	3.992	0.331
85.000	126.449	80.011	19.993	103.878	19.842	3.867	0.383
85.500	126.583	80.011	19.993	103.873	19.844	3.736	0.418
86.000	126.778	80.011	19.993	103.866	19.841	3.937	0.365
86.500	126.946	80.009	19.993	103.862	19.842	3.863	0.346
87.000	127.105	80.010	19.993	103.866	19.844	3.735	0.345
87.500	127.303	80.011	19.993	103.874	19.843	3.842	0.342
88.000	127.507	80.010	19.993	103.881	19.845	3.688	0.380
88.500	127.710	80.009	19.993	103.888	19.843	3.791	0.404
89.000	127.839	80.009	19.993	103.896	19.843	3.810	0.369
89.500	128.011	80.009	19.993	103.899	19.845	3.714	0.317
90.000	128.237	80.009	19.993	103.899	19.844	3.755	0.349
90.500	128.434	80.008	19.992	103.899	19.844	3.775	0.410
91.000	128.576	80.006	19.993	103.901	19.843	3.858	0.381
91.500	128.797	80.007	19.995	103.907	19.845	3.663	0.352
92.000	128.976	80.008	19.994	103.911	19.846	3.620	0.382
92.500	129.174	80.008	19.995	103.918	19.848	3.459	0.388
93.000	129.356	80.009	19.994	103.922	19.846	3.590	0.379
93.500	129.559	80.008	19.993	103.922	19.846	3.586	0.383
94.000	129.753	80.008	19.996	103.916	19.848	3.488	0.391
94.500	129.954	80.008	19.994	103.910	19.844	3.789	0.396
95.000	130.176	80.008	19.993	103.904	19.846	3.580	0.409
95.500	130.392	80.009	19.993	103.895	19.847	3.557	0.431
96.000	130.530	80.008	19.993	103.891	19.846	3.623	0.396
96.500	130.745	80.008	19.993	103.891	19.843	3.808	0.353
97.000	130.942	80.009	19.993	103.893	19.844	3.726	0.382
97.500	131.157	80.008	19.993	103.898	19.844	3.728	0.412
98.000	131.351	80.008	19.993	103.908	19.846	3.619	0.411
98.500	131.569	80.007	19.994	103.912	19.844	3.755	0.410
99.000	131.761	80.008	19.993	103.912	19.846	3.583	0.411
99.500	131.994	80.007	19.993	103.910	19.842	3.931	0.418
100.000	132.162	80.008	19.993	103.904	19.844	3.761	0.413
100.500	132.406	80.008	19.992	103.894	19.845	3.675	0.406
101.000	132.583	80.008	19.993	103.887	19.845	3.666	0.416
101.500	132.813	80.008	19.994	103.884	19.841	3.947	0.414
102.000	133.016	80.009	19.992	103.881	19.842	3.889	0.420
102.500	133.197	80.007	19.993	103.879	19.847	3.563	0.408
103.000	133.430	80.007	19.994	103.883	19.847	3.539	0.399
103.500	133.659	80.006	19.994	103.889	19.845	3.698	0.438
104.000	133.848	80.008	19.993	103.893	19.846	3.598	0.440
104.500	134.028	80.007	19.994	103.898	19.847	3.563	0.394
105.000	134.268	80.008	19.993	103.902	19.844	3.744	0.395
105.500	134.520	80.008	19.993	103.904	19.845	3.684	0.456
106.000	134.711	80.008	19.993	103.904	19.846	3.631	0.468
106.500	134.931	80.008	19.993	103.902	19.845	3.656	0.427
107.000	135.167	80.009	19.993	103.900	19.847	3.564	0.433
107.500	135.332	80.007	19.993	103.899	19.846	3.621	0.428
108.000	135.573	80.009	19.992	103.897	19.845	3.716	0.404
108.500	135.795	80.007	19.994	103.894	19.845	3.679	0.435
109.000	136.008	80.008	19.993	103.890	19.843	3.793	0.449
109.500	136.214	80.008	19.994	103.886	19.845	3.678	0.426
110.000	136.449	80.008	19.993	103.883	19.843	3.846	0.430
110.500	136.658	80.008	19.993	103.884	19.847	3.563	0.443
111.000	136.900	80.007	19.993	103.886	19.847	3.549	0.447
111.501	137.076	80.007	19.993	103.892	19.843	3.810	0.434
112.001	137.308	80.008	19.994	103.899	19.844	3.730	0.413
112.500	137.538	80.010	19.993	103.903	19.844	3.727	0.435
113.000	137.785	80.008	19.993	103.908	19.846	3.592	0.470
113.500	137.966	80.008	19.993	103.913	19.846	3.574	0.452
114.000	138.177	80.008	19.993	103.912	19.844	3.739	0.409
114.500	138.429	80.007	19.993	103.911	19.843	3.817	0.427
115.000	138.657	80.007	19.994	103.911	19.841	3.965	0.472
115.500	138.848	80.008	19.994	103.907	19.844	3.738	0.449
116.000	139.107	80.007	19.992	103.905	19.842	3.929	0.434
116.500	139.320	80.009	19.993	103.905	19.843	3.837	0.461
117.000	139.529	80.008	19.992	103.905	19.843	3.798	0.447
117.500	139.762	80.008	19.993	103.902	19.842	3.929	0.432
118.000	140.012	80.008	19.994	103.899	19.840	4.033	0.463
118.500	140.207	80.008	19.993	103.896	19.843	3.795	0.464
119.000	140.446	80.009	19.993	103.892	19.845	3.678	0.439
119.500	140.663	80.008	19.993	103.892	19.844	3.785	0.445
120.000	140.892	80.008	19.993	103.897	19.846	3.602	0.451
120.500	141.161	80.008	19.993	103.899	19.842	3.889	0.472
121.000	141.364	80.008	19.993	103.903	19.843	3.855	0.485
121.501	141.611	80.008	19.993	103.905	19.843	3.793	0.461
122.001	141.819	80.008	19.993	103.902	19.843	3.816	0.452
122.501	142.079	80.008	19.993	103.899	19.841	3.978	0.462
123.000	142.300	80.009	19.993	103.896	19.841	3.949	0.475
123.500	142.524	80.009	19.994	103.871	19.839	4.097	0.463
124.000	142.722	80.007	19.993	103.850	19.840	4.068	0.434
124.500	143.008	80.007	19.992	103.837	19.838	4.160	0.453
125.000	143.207	80.007	19.993	103.829	19.842	3.871	0.485
125.500	143.472	80.008	19.993	103.827	19.843	3.840	0.475
126.000	143.654	80.008	19.994	103.861	19.842	3.916	0.455
126.501	143.919	80.008	19.993	103.906	19.842	3.890	0.447
127.001	144.187	80.007	19.993	103.928	19.843	3.812	0.490
127.500	144.407	80.008	19.993	103.937	19.845	3.662	0.511
128.000	144.624	80.008	19.993	103.945	19.844	3.751	0.462
128.500	144.828	80.007	19.993	103.937	19.845	3.709	0.428
129.000	145.093	80.006	19.995	103.914	19.844	3.732	0.444
129.500	145.328	80.009	19.993	103.908	19.843	3.796	0.484
130.000	145.575	80.009	19.994	103.908	19.843	3.828	0.491
130.500	145.781	80.008	19.993	103.905	19.845	3.701	0.468
131.000	146.045	80.009	19.993	103.903	19.845	3.670	0.461
131.500	146.292	80.009	19.993	103.903	19.846	3.601	0.490
132.000	146.521	80.008	19.994	103.902	19.844	3.763	0.494
132.500	146.757	80.008	19.993	103.901	19.847	3.572	0.471
133.000	147.002	80.008	19.993	103.901	19.846	3.613	0.473
133.500	147.215	80.008	19.994	103.900	19.848	3.449	0.470
134.000	147.475	80.010	19.994	103.899	19.845	3.709	0.466
134.500	147.693	80.009	19.995	103.896	19.844	3.765	0.475
135.000	147.918	80.009	19.994	103.896	19.846	3.601	0.460
135.500	148.194	80.010	19.994	103.896	19.846	3.632	0.472
136.000	148.381	80.009	19.995	103.897	19.847	3.539	0.482
136.500	148.647	80.010	19.995	103.898	19.849	3.371	0.458
137.000	148.899	80.010	19.993	103.900	19.846	3.609	0.486
137.500	149.138	80.009	19.995	103.900	19.847	3.510	0.504
138.000	149.361	80.009	19.993	103.898	19.849	3.416	0.476
138.500	149.616	80.010	19.993	103.895	19.847	3.572	0.470
139.000	149.860	80.010	19.994	103.891	19.845	3.671	0.488
139.500	150.126	80.010	19.994	103.892	19.847	3.548	0.505
140.000	150.384	80.010	19.993	103.891	19.848	3.494	0.517
140.500	150.584	80.009	19.994	103.892	19.846	3.607	0.491
141.000	150.814	80.009	19.994	103.893	19.846	3.594	0.444
141.500	151.084	80.010	19.993	103.895	19.846	3.597	0.465
142.000	151.304	80.011	19.995	103.893	19.847	3.575	0.495
142.501	151.549	80.008	19.993	103.888	19.845	3.689	0.477
143.001	151.820	80.010	19.994	103.886	19.846	3.634	0.491
143.500	152.033	80.009	19.995	103.886	19.846	3.629	0.500
144.000	152.253	80.009	19.994	103.888	19.847	3.543	0.459
144.500	152.563	80.009	19.993	103.889	19.850	3.293	0.482
145.000	152.784	80.009	19.995	103.895	19.849	3.395	0.530
145.500	153.048	80.009	19.993	103.898	19.851	3.283	0.508
146.000	153.289	80.009	19.994	103.896	19.843	3.838	0.495
146.500	153.526	80.009	19.994	103.893	19.847	3.574	0.491
147.000	153.772	80.009	19.993	103.889	19.845	3.713	0.481
147.500	154.030	80.008	19.993	103.892	19.848	3.492	0.494
148.000	154.275	80.009	19.993	103.882	19.848	3.455	0.503
148.500	154.438	80.008	19.994	103.856	19.847	3.519	0.455
149.000	154.714	80.008	19.994	103.840	19.847	3.523	0.423
149.500	154.969	80.010	19.994	103.830	19.845	3.658	0.485
150.000	155.169	80.009	19.994	103.820	19.847	3.564	0.493
150.500	155.432	80.008	19.994	103.822	19.847	3.540	0.459
151.000	155.692	80.009	19.994	103.846	19.851	3.263	0.493
151.500	155.938	80.009	19.994	103.882	19.846	3.632	0.514
152.000	156.218	80.009	19.995	103.916	19.848	3.468	0.516
152.500	156.447	80.009	19.995	103.930	19.849	3.382	0.518
153.000	156.694	80.008	19.994	103.938	19.849	3.399	0.493
153.500	156.957	80.008	19.994	103.943	19.849	3.370	0.493
154.000	157.201	80.008	19.993	103.926	19.848	3.437	0.509
154.500	157.457	80.008	19.993	103.907	19.851	3.220	0.504
155.001	157.688	80.009	19.994	103.901	19.849	3.376	0.493
155.501	157.889	80.008	19.995	103.899	19.850	3.333	0.460
156.000	158.199	80.008	19.994	103.899	19.847	3.536	0.472
156.500	158.441	80.009	19.994	103.899	19.851	3.286	0.532
157.000	158.686	80.009	19.993	103.899	19.853	3.122	0.520
157.500	158.928	80.008	19.993	103.899	19.849	3.366	0.487
158.000	159.138	80.009	19.994	103.899	19.853	3.132	0.469
158.500	159.423	80.009	19.994	103.898	19.848	3.460	0.473
159.000	159.648	80.010	19.994	103.898	19.851	3.257	0.502
159.500	159.908	80.008	19.994	103.898	19.849	3.372	0.497
160.000	160.132	80.010	19.994	103.894	19.851	3.224	0.484
160.500	160.425	80.008	19.994	103.891	19.850	3.325	0.501
161.000	160.620	80.009	19.993	103.889	19.846	3.585	0.503
161.500	160.868	80.008	19.994	103.882	19.846	3.612	0.465
162.000	161.143	80.009	19.994	103.875	19.849	3.372	0.483
162.500	161.415	80.010	19.994	103.872	19.848	3.481	0.536
163.000	161.666	80.009	19.994	103.870	19.846	3.600	0.535
163.500	161.888	80.009	19.995	103.869	19.841	3.956	0.498
164.000	162.133	80.010	19.995	103.870	19.843	3.839	0.469
164.500	162.368	80.009	19.993	103.871	19.847	3.511	0.473
165.000	162.610	80.009	19.995	103.872	19.844	3.775	0.479
165.500	162.907	80.010	19.994	103.871	19.842	3.931	0.508
166.000	163.129	80.010	19.994	103.871	19.847	3.519	0.529
166.500	163.351	80.009	19.994	103.870	19.845	3.713	0.482
167.000	163.630	80.007	19.995	103.867	19.850	3.324	0.473
167.500	163.892	80.009	19.993	103.867	19.844	3.759	0.521
168.000	164.113	80.008	19.994	103.869	19.848	3.433	0.512
168.500	164.372	80.010	19.994	103.869	19.846	3.613	0.481
169.000	164.619	80.009	19.995	103.869	19.846	3.599	0.493
169.500	164.865	80.009	19.994	103.869	19.846	3.587	0.500
170.000	165.113	80.008	19.995	103.869	19.847	3.558	0.494
170.500	165.407	80.009	19.994	103.867	19.847	3.529	0.518
171.000	165.654	80.008	19.994	103.863	19.845	3.706	0.541
171.500	165.873	80.009	19.994	103.862	19.846	3.602	0.503
172.000	166.149	80.007	19.995	103.862	19.846	3.622	0.480
172.500	166.368	80.008	19.994	103.863	19.847	3.557	0.495
173.001	166.647	80.008	19.994	103.865	19.850	3.313	0.496
173.500	166.903	80.007	19.994	103.867	19.851	3.263	0.516
174.000	167.133	80.007	19.995	103.871	19.848	3.479	0.511
174.500	167.393	80.007	19.995	103.877	19.846	3.575	0.488
175.000	167.621	80.007	19.993	103.884	19.847	3.550	0.489
175.500	167.872	80.007	19.994	103.890	19.851	3.286	0.484
176.000	168.073	80.008	19.994	103.894	19.852	3.206	0.466
176.500	168.375	80.007	19.994	103.895	19.849	3.370	0.477
177.000	168.634	80.007	19.993	103.897	19.848	3.503	0.532
177.500	168.844	80.007	19.994	103.894	19.850	3.337	0.515
178.000	169.120	80.009	19.994	103.886	19.847	3.557	0.477
178.500	169.352	80.006	19.992	103.882	19.846	3.577	0.496
179.000	169.612	80.007	19.993	103.884	19.847	3.516	0.500
179.500	169.832	80.006	19.993	103.883	19.847	3.507	0.486
180.000	170.129	80.008	19.993	103.884	19.848	3.497	0.499
180.500	170.371	80.007	19.994	103.889	19.850	3.323	0.528
181.000	170.619	80.007	19.993	103.890	19.848	3.452	0.514
181.500	170.880	80.007	19.993	103.883	19.851	3.233	0.500
182.000	171.167	80.007	19.993	103.877	19.848	3.456	0.528
182.500	171.403	80.008	19.993	103.872	19.849	3.409	0.535
183.000	171.635	80.007	19.992	103.868	19.849	3.421	0.495
183.500	171.843	80.008	19.993	103.868	19.850	3.292	0.454
184.000	172.136	80.007	19.993	103.868	19.847	3.516	0.470
184.500	172.368	80.007	19.993	103.867	19.847	3.512	0.513
185.000	172.603	80.007	19.993	103.867	19.848	3.491	0.496
185.500	172.850	80.008	19.994	103.866	19.845	3.664	0.475
186.000	173.104	80.008	19.994	103.868	19.847	3.571	0.491
186.500	173.373	80.008	19.994	103.868	19.847	3.540	0.512
187.000	173.621	80.009	19.996	103.868	19.849	3.417	0.520
187.500	173.869	80.008	19.993	103.869	19.848	3.475	0.507
188.000	174.134	80.007	19.994	103.869	19.848	3.465	0.504
188.500	174.381	80.006	19.994	103.866	19.844	3.748	0.513
189.000	174.613	80.007	19.995	103.865	19.848	3.454	0.496
189.500	174.864	80.007	19.994	103.865	19.848	3.448	0.481
190.000	175.115	80.008	19.994	103.863	19.845	3.686	0.492
190.500	175.368	80.007	19.993	103.862	19.848	3.440	0.503
191.000	175.635	80.009	19.994	103.860	19.847	3.528	0.512
191.500	175.824	80.008	19.995	103.858	19.846	3.578	0.488
192.000	176.120	80.007	19.994	103.856	19.845	3.680	0.471
192.500	176.365	80.008	19.993	103.856	19.846	3.637	0.514
193.000	176.630	80.008	19.994	103.856	19.847	3.522	0.526
193.500	176.849	80.009	19.993	103.860	19.845	3.649	0.497
194.000	177.163	80.009	19.994	103.861	19.847	3.530	0.508
194.501	177.397	80.010	19.994	103.863	19.848	3.456	0.540
195.000	177.647	80.008	19.994	103.863	19.843	3.819	0.516
195.500	177.889	80.008	19.994	103.863	19.848	3.483	0.488
196.000	178.084	80.009	19.995	103.861	19.845	3.678	0.465
196.500	178.386	80.008	19.994	103.860	19.847	3.524	0.467
197.001	178.658	80.009	19.994	103.859	19.844	3.754	0.535
197.500	178.872	80.009	19.994	103.859	19.844	3.721	0.530
198.000	179.155	80.008	19.995	103.859	19.844	3.774	0.492
198.500	179.387	80.009	19.993	103.859	19.846	3.588	0.507
199.000	179.618	80.008	19.994	103.859	19.845	3.668	0.489
199.500	179.860	80.009	19.995	103.859	19.844	3.738	0.468
200.000	180.092	80.009	19.994	103.859	19.847	3.534	0.473
200.500	180.348	80.009	19.994	103.859	19.844	3.758	0.481
201.000	180.647	80.009	19.994	103.857	19.844	3.762	0.521
201.500	180.854	80.008	19.994	103.852	19.845	3.657	0.530
202.000	181.142	80.009	19.995	103.851	19.844	3.725	0.501
202.500	181.356	80.008	19.993	103.850	19.844	3.733	0.499
203.000	181.643	80.008	19.994	103.850	19.844	3.739	0.501
203.500	181.868	80.009	19.994	103.854	19.850	3.352	0.506
204.000	182.089	80.008	19.993	103.861	19.846	3.590	0.479
204.500	182.367	80.008	19.994	103.865	19.847	3.512	0.472
205.000	182.626	80.009	19.993	103.868	19.850	3.309	0.518
205.500	182.853	80.007	19.994	103.869	19.848	3.484	0.512
206.000	183.117	80.007	19.994	103.868	19.849	3.400	0.489
206.500	183.357	80.007	19.994	103.867	19.851	3.287	0.498
207.000	183.603	80.008	19.995	103.865	19.849	3.385	0.495
207.500	183.849	80.008	19.994	103.863	19.849	3.383	0.489
208.000	184.092	80.008	19.994	103.857	19.846	3.613	0.490
208.500	184.309	80.008	19.994	103.854	19.850	3.354	0.474
209.000	184.584	80.007	19.994	103.854	19.847	3.555	0.477
209.500	184.809	80.008	19.995	103.850	19.849	3.428	0.496
210.000	185.053	80.009	19.994	103.849	19.849	3.422	0.484
210.500	185.304	80.008	19.993	103.855	19.850	3.360	0.482
211.000	185.600	80.008	19.996	103.858	19.851	3.260	0.521
211.500	185.846	80.008	19.995	103.858	19.850	3.327	0.544
212.000	186.098	80.008	19.995	103.861	19.850	3.323	0.520
212.500	186.325	80.008	19.993	103.863	19.848	3.446	0.489
213.000	186.625	80.007	19.995	103.863	19.850	3.354	0.502
213.500	186.866	80.009	19.994	103.863	19.850	3.348	0.534
214.000	187.108	80.009	19.994	103.861	19.850	3.342	0.512
214.500	187.308	80.009	19.995	103.860	19.850	3.306	0.463
215.000	187.603	80.008	19.993	103.853	19.848	3.483	0.469
215.500	187.837	80.009	19.993	103.850	19.849	3.366	0.512
216.000	188.112	80.008	19.994	103.847	19.846	3.604	0.519
216.500	188.327	80.008	19.993	103.843	19.846	3.606	0.499
217.000	188.595	80.009	19.994	103.837	19.843	3.838	0.486
217.500	188.854	80.010	19.994	103.837	19.847	3.518	0.505
218.000	189.092	80.010	19.994	103.838	19.850	3.303	0.512
218.500	189.347	80.009	19.994	103.842	19.849	3.420	0.495
219.000	189.596	80.011	19.993	103.847	19.847	3.528	0.498
219.500	189.870	80.009	19.994	103.855	19.846	3.585	0.513
220.000	190.107	80.009	19.994	103.861	19.847	3.526	0.517
220.500	190.387	80.010	19.994	103.856	19.849	3.385	0.515
221.000	190.630	80.009	19.993	103.855	19.852	3.209	0.520
221.500	190.839	80.009	19.993	103.856	19.850	3.326	0.487
222.000	191.105	80.010	19.993	103.855	19.849	3.408	0.463
222.500	191.385	80.010	19.993	103.850	19.847	3.541	0.511
223.000	191.563	80.009	19.994	103.853	19.847	3.505	0.502
223.500	191.833	80.011	19.993	103.852	19.849	3.427	0.453
224.000	192.088	80.010	19.993	103.851	19.848	3.472	0.486
224.500	192.330	80.009	19.993	103.852	19.851	3.269	0.511
225.000	192.552	80.010	19.993	103.858	19.850	3.304	0.480
225.500	192.804	80.010	19.993	103.862	19.851	3.242	0.469
226.000	193.086	80.010	19.993	103.863	19.851	3.224	0.504
226.500	193.352	80.009	19.993	103.863	19.849	3.365	0.541
227.000	193.583	80.008	19.993	103.862	19.851	3.283	0.522
227.500	193.843	80.008	19.994	103.860	19.851	3.270	0.494
228.000	194.109	80.010	19.994	103.856	19.851	3.244	0.509
228.500	194.356	80.009	19.993	103.854	19.852	3.192	0.519
229.000	194.555	80.010	19.994	103.855	19.852	3.172	0.480
229.500	194.807	80.009	19.994	103.856	19.852	3.147	0.449
230.000	195.068	80.008	19.993	103.858	19.849	3.409	0.482
230.500	195.305	80.009	19.995	103.861	19.849	3.379	0.505
231.000	195.559	80.009	19.995	103.858	19.849	3.426	0.494
231.500	195.798	80.008	19.995	103.851	19.852	3.175	0.492
232.000	196.062	80.009	19.995	103.844	19.850	3.296	0.498
232.500	196.311	80.009	19.995	103.839	19.852	3.153	0.508
233.000	196.542	80.008	19.995	103.834	19.852	3.178	0.496
233.500	196.816	80.009	19.994	103.831	19.848	3.482	0.492
234.000	197.078	80.008	19.994	103.831	19.850	3.313	0.521
234.500	197.298	80.009	19.995	103.830	19.852	3.172	0.509
235.000	197.550	80.009	19.994	103.830	19.852	3.149	0.477
235.500	197.813	80.009	19.995	103.827	19.851	3.227	0.494
236.000	198.047	80.008	19.994	103.827	19.851	3.229	0.506
236.500	198.290	80.008	19.994	103.826	19.850	3.341	0.487
237.000	198.558	80.008	19.994	103.826	19.852	3.215	0.494
237.500	198.807	80.009	19.995	103.826	19.853	3.106	0.514
238.000	199.051	80.008	19.994	103.829	19.848	3.471	0.505
238.500	199.305	80.008	19.994	103.835	19.851	3.246	0.496
239.000	199.555	80.008	19.994	103.838	19.849	3.373	0.501
239.500	199.799	80.008	19.995	103.842	19.850	3.327	0.499
240.000	200.034	80.007	19.995	103.849	19.846	3.600	0.486
240.500	200.284	80.009	19.993	103.851	19.848	3.477	0.482
241.000	200.513	80.009	19.994	103.850	19.851	3.277	0.483
241.500	200.767	80.009	19.994	103.853	19.850	3.348	0.482
242.000	201.012	80.008	19.994	103.856	19.852	3.176	0.491
242.500	201.277	80.008	19.994	103.853	19.852	3.205	0.504
243.000	201.510	80.009	19.995	103.855	19.849	3.383	0.503
243.500	201.808	80.010	19.994	103.854	19.849	3.420	0.515
244.000	202.018	80.011	19.994	103.848	19.850	3.336	0.520
244.500	202.265	80.009	19.993	103.842	19.852	3.172	0.482
245.000	202.544	80.009	19.993	103.841	19.852	3.203	0.491
245.500	202.740	80.010	19.994	103.842	19.850	3.330	0.500
246.000	203.005	80.011	19.994	103.848	19.852	3.199	0.468
246.500	203.265	80.010	19.994	103.855	19.848	3.478	0.493
247.000	203.496	80.010	19.994	103.860	19.848	3.494	0.508
247.500	203.753	80.011	19.993	103.859	19.851	3.252	0.489
248.000	204.005	80.009	19.993	103.852	19.850	3.355	0.498
248.501	204.277	80.010	19.993	103.846	19.848	3.453	0.517
249.000	204.506	80.011	19.994	103.842	19.847	3.542	0.512
249.500	204.743	80.011	19.992	103.842	19.848	3.476	0.483
250.000	205.039	80.010	19.995	103.845	19.848	3.490	0.500
250.501	205.261	80.011	19.993	103.847	19.851	3.246	0.526
251.000	205.519	80.010	19.994	103.845	19.852	3.156	0.499
251.500	205.770	80.010	19.993	103.843	19.851	3.254	0.495
252.000	206.022	80.009	19.994	103.839	19.853	3.123	0.506
252.500	206.261	80.010	19.993	103.838	19.852	3.176	0.497
253.000	206.501	80.009	19.994	103.839	19.853	3.104	0.485
253.500	206.742	80.010	19.995	103.838	19.849	3.373	0.480
254.000	206.955	80.009	19.993	103.836	19.848	3.437	0.468
254.500	207.273	80.010	19.993	103.835	19.852	3.170	0.493
255.000	207.504	80.009	19.995	103.829	19.850	3.360	0.540
255.500	207.783	80.008	19.995	103.825	19.849	3.424	0.530
256.000	208.035	80.006	19.994	103.824	19.850	3.290	0.521
256.500	208.252	80.008	19.995	103.826	19.852	3.212	0.500
257.000	208.487	80.009	19.995	103.828	19.850	3.348	0.461
257.500	208.770	80.008	19.995	103.828	19.850	3.360	0.485
258.000	208.949	80.008	19.994	103.828	19.847	3.516	0.490
258.500	209.265	80.008	19.995	103.828	19.848	3.478	0.478
259.000	209.503	80.007	19.996	103.826	19.849	3.386	0.524
259.500	209.750	80.008	19.994	103.823	19.851	3.226	0.520
260.000	209.979	80.008	19.995	103.823	19.850	3.353	0.481
260.500	210.229	80.007	19.995	103.830	19.851	3.236	0.478
261.000	210.468	80.008	19.994	103.830	19.849	3.404	0.484
261.500	210.716	80.007	19.994	103.830	19.847	3.572	0.487
262.000	210.958	80.009	19.995	103.831	19.849	3.383	0.488
262.500	211.200	80.008	19.995	103.836	19.848	3.478	0.487
263.000	211.453	80.007	19.995	103.830	19.850	3.355	0.490
263.500	211.709	80.007	19.995	103.834	19.848	3.466	0.502
264.000	211.990	80.008	19.996	103.836	19.847	3.519	0.522
264.500	212.180	80.008	19.996	103.836	19.849	3.416	0.503
265.000	212.483	80.008	19.996	103.832	19.849	3.429	0.482
265.500	212.677	80.007	19.996	103.838	19.850	3.351	0.495
266.000	212.960	80.007	19.995	103.843	19.852	3.209	0.487
266.500	213.220	80.008	19.995	103.848	19.850	3.297	0.510
267.000	213.495	80.007	19.995	103.855	19.850	3.330	0.539
267.500	213.701	80.008	19.995	103.859	19.855	2.993	0.508
268.000	213.914	80.008	19.994	103.856	19.849	3.373	0.450
268.500	214.190	80.008	19.995	103.850	19.854	3.049	0.454
269.000	214.477	80.007	19.996	103.843	19.852	3.160	0.526
269.500	214.707	80.007	19.994	103.835	19.853	3.113	0.540
270.000	214.935	80.007	19.996	103.830	19.855	2.975	0.487
270.500	215.215	80.007	19.995	103.825	19.852	3.160	0.483
271.001	215.452	80.007	19.996	103.829	19.853	3.100	0.513
271.500	215.730	80.009	19.998	103.832	19.854	3.022	0.516
272.000	215.945	80.007	19.997	103.835	19.857	2.842	0.504
272.500	216.186	80.008	19.996	103.835	19.855	2.941	0.474
273.000	216.454	80.008	19.996	103.835	19.857	2.832	0.483
273.500	216.710	80.007	19.996	103.829	19.853	3.127	0.517
274.000	216.962	80.008	19.995	103.825	19.854	3.035	0.516
274.500	217.187	80.008	19.995	103.822	19.855	3.000	0.492
275.000	217.448	80.008	19.993	103.825	19.853	3.139	0.482
275.500	217.636	80.008	19.996	103.829	19.856	2.867	0.468
276.000	217.933	80.008	19.993	103.831	19.857	2.834	0.467
276.500	218.153	80.008	19.994	103.835	19.851	3.222	0.501
277.000	218.409	80.008	19.994	103.837	19.854	3.020	0.497
277.500	218.631	80.008	19.993	103.842	19.852	3.189	0.477
278.000	218.896	80.010	19.993	103.846	19.855	2.965	0.483
278.500	219.142	80.008	19.994	103.843	19.855	2.969	0.499
279.000	219.416	80.009	19.994	103.840	19.855	3.000	0.516
279.500	219.667	80.009	19.993	103.841	19.853	3.086	0.522
280.000	219.927	80.008	19.994	103.840	19.854	3.006	0.518
280.500	220.161	80.009	19.994	103.835	19.853	3.140	0.502
281.000	220.430	80.009	19.994	103.835	19.853	3.131	0.498
281.500	220.678	80.009	19.994	103.835	19.854	3.021	0.510
282.000	220.924	80.008	19.993	103.832	19.851	3.219	0.506
282.500	221.222	80.008	19.993	103.825	19.851	3.287	0.519
283.000	221.434	80.009	19.994	103.823	19.853	3.088	0.527
283.500	221.669	80.010	19.993	103.823	19.853	3.078	0.478
284.000	221.955	80.008	19.994	103.823	19.855	2.977	0.484
284.500	222.195	80.008	19.993	103.823	19.852	3.183	0.524
285.000	222.458	80.008	19.994	103.825	19.853	3.100	0.515
285.500	222.697	80.008	19.993	103.825	19.851	3.232	0.503
286.000	222.960	80.007	19.994	103.826	19.852	3.174	0.502
286.500	223.216	80.009	19.994	103.827	19.854	3.033	0.511
287.000	223.461	80.009	19.995	103.827	19.849	3.381	0.510
287.500	223.701	80.008	19.992	103.825	19.854	3.071	0.492
288.000	223.942	80.008	19.993	103.824	19.853	3.096	0.483
288.501	224.192	80.008	19.993	103.824	19.850	3.295	0.486
289.001	224.459	80.006	19.993	103.823	19.855	2.971	0.504
289.500	224.692	80.007	19.994	103.823	19.855	2.964	0.508
290.000	224.945	80.007	19.993	103.823	19.853	3.087	0.493
290.500	225.167	80.008	19.994	103.823	19.854	3.054	0.481
291.000	225.454	80.007	19.995	103.823	19.854	3.071	0.492
291.500	225.719	80.008	19.994	103.823	19.853	3.146	0.531
292.000	225.931	80.008	19.994	103.824	19.852	3.173	0.515
292.500	226.181	80.008	19.994	103.825	19.852	3.194	0.470
293.000	226.432	80.007	19.993	103.825	19.853	3.083	0.482
293.500	226.698	80.008	19.994	103.826	19.856	2.925	0.509
294.000	226.947	80.007	19.995	103.824	19.855	2.995	0.516
294.500	227.175	80.007	19.994	103.824	19.853	3.113	0.496
295.000	227.442	80.008	19.994	103.824	19.855	3.002	0.486
295.500	227.674	80.006	19.994	103.824	19.855	2.975	0.497
296.000	227.947	80.008	19.994	103.825	19.852	3.212	0.501
296.500	228.216	80.008	19.994	103.829	19.855	2.949	0.524
297.000	228.486	80.008	19.994	103.829	19.853	3.144	0.541
297.500	228.716	80.007	19.995	103.831	19.855	2.949	0.519
298.000	228.986	80.008	19.993	103.837	19.856	2.925	0.500
298.500	229.197	80.008	19.994	103.844	19.855	2.953	0.491
299.000	229.469	80.008	19.994	103.848	19.859	2.701	0.482
299.500	229.721	80.008	19.994	103.848	19.854	3.009	0.503
300.000	229.964	80.007	19.993	103.846	19.855	2.956	0.510
300.500	230.220	80.007	19.994	103.847	19.857	2.839	0.497
301.000	230.482	80.008	19.994	103.849	19.859	2.648	0.508
301.500	230.759	80.009	19.992	103.853	19.855	2.952	0.528
302.000	231.056	80.008	19.994	103.861	19.858	2.742	0.556
302.500	231.246	80.009	19.993	103.869	19.856	2.910	0.530
303.000	231.525	80.009	19.994	103.869	19.857	2.806	0.478
303.500	231.747	80.010	19.992	103.867	19.858	2.783	0.485
304.000	231.998	80.010	19.993	103.860	19.854	3.031	0.487
304.500	232.278	80.010	19.994	103.852	19.854	3.055	0.502
305.000	232.514	80.009	19.994	103.843	19.854	3.020	0.524
305.500	232.753	80.009	19.993	103.836	19.854	3.030	0.496
306.000	232.989	80.009	19.992	103.827	19.853	3.106	0.475
306.500	233.261	80.009	19.993	103.820	19.852	3.151	0.491
307.000	233.489	80.009	19.993	103.815	19.848	3.465	0.504
307.500	233.741	80.009	19.993	103.808	19.853	3.133	0.490
308.000	233.983	80.010	19.994	103.802	19.852	3.187	0.487
308.500	234.238	80.008	19.994	103.804	19.852	3.148	0.495
309.000	234.496	80.009	19.994	103.803	19.850	3.300	0.505
309.500	234.711	80.009	19.994	103.801	19.849	3.380	0.493
310.000	234.984	80.008	19.994	103.802	19.849	3.384	0.480
310.500	235.233	80.010	19.993	103.800	19.849	3.365	0.505
311.000	235.497	80.010	19.993	103.795	19.849	3.392	0.518
311.500	235.728	80.009	19.993	103.792	19.849	3.423	0.504
312.000	235.977	80.009	19.992	103.791	19.850	3.328	0.487
312.500	236.260	80.009	19.992	103.792	19.851	3.281	0.506
313.000	236.497	80.009	19.993	103.794	19.850	3.351	0.526
313.500	236.731	80.009	19.994	103.800	19.848	3.439	0.496
314.000	236.983	80.009	19.993	103.807	19.851	3.246	0.479
314.500	237.244	80.009	19.991	103.815	19.850	3.347	0.499
315.000	237.477	80.009	19.994	103.821	19.851	3.265	0.503
315.500	237.721	80.009	19.993	103.828	19.853	3.109	0.485
316.000	237.971	80.009	19.993	103.829	19.852	3.203	0.486
316.500	238.256	80.009	19.993	103.836	19.852	3.187	0.515
317.000	238.484	80.008	19.993	103.838	19.854	3.064	0.524
317.500	238.726	80.009	19.992	103.838	19.853	3.140	0.491
318.000	238.976	80.010	19.993	103.835	19.851	3.279	0.481
318.500	239.221	80.009	19.994	103.829	19.851	3.260	0.494
319.000	239.458	80.008	19.994	103.820	19.851	3.285	0.489
319.500	239.677	80.009	19.993	103.814	19.851	3.275	0.469
320.000	239.938	80.007	19.994	103.812	19.852	3.216	0.468
320.500	240.159	80.008	19.994	103.814	19.851	3.224	0.481
321.000	240.443	80.010	19.993	103.818	19.853	3.077	0.494
321.500	240.651	80.010	19.993	103.819	19.853	3.091	0.498
322.000	240.932	80.009	19.994	103.821	19.852	3.179	0.490
322.500	241.211	80.009	19.993	103.822	19.850	3.323	0.525
323.000	241.383	80.009	19.994	103.825	19.851	3.224	0.506
323.500	241.639	80.009	19.994	103.829	19.854	3.017	0.439
324.000	241.913	80.009	19.994	103.831	19.853	3.109	0.479
324.500	242.163	80.009	19.993	103.831	19.855	2.986	0.527
325.000	242.404	80.008	19.994	103.832	19.854	3.056	0.508
325.501	242.620	80.008	19.993	103.828	19.853	3.076	0.474
326.000	242.893	80.009	19.994	103.824	19.856	2.894	0.473
326.500	243.119	80.010	19.994	103.822	19.853	3.087	0.494
327.000	243.415	80.009	19.995	103.822	19.854	3.023	0.511
327.500	243.647	80.009	19.994	103.821	19.853	3.089	0.524
328.000	243.888	80.010	19.993	103.821	19.858	2.783	0.500
328.500	244.130	80.010	19.994	103.820	19.855	2.951	0.478
329.000	244.381	80.010	19.994	103.823	19.853	3.086	0.488
329.500	244.673	80.010	19.993	103.826	19.854	3.019	0.518
330.000	244.879	80.010	19.994	103.826	19.850	3.325	0.521
330.500	245.172	80.009	19.992	103.819	19.852	3.171	0.498
331.000	245.396	80.008	19.993	103.811	19.854	3.015	0.508
331.500	245.663	80.009	19.996	103.806	19.852	3.160	0.504
332.000	245.886	80.010	19.996	103.802	19.853	3.132	0.490
332.500	246.137	80.009	19.994	103.798	19.854	3.025	0.482
333.000	246.414	80.009	19.993	103.802	19.850	3.308	0.501
333.500	246.654	80.009	19.994	103.809	19.854	3.054	0.522
334.000	246.918	80.010	19.994	103.812	19.848	3.438	0.510
334.500	247.159	80.010	19.995	103.811	19.854	3.039	0.504
335.000	247.422	80.011	19.994	103.811	19.854	3.064	0.504
335.500	247.654	80.010	19.993	103.814	19.855	2.933	0.500
336.000	247.884	80.010	19.994	103.814	19.852	3.189	0.479
336.500	248.134	80.008	19.994	103.813	19.854	3.049	0.471
337.000	248.404	80.010	19.994	103.812	19.854	3.037	0.500
337.500	248.669	80.007	19.994	103.813	19.852	3.179	0.528
338.000	248.918	80.008	19.995	103.812	19.853	3.142	0.524
338.500	249.185	80.009	19.994	103.812	19.851	3.242	0.515
339.000	249.434	80.010	19.993	103.813	19.849	3.376	0.516
339.500	249.699	80.008	19.993	103.814	19.851	3.259	0.515
340.000	249.940	80.008	19.993	103.814	19.851	3.255	0.509
340.500	250.207	80.008	19.994	103.813	19.852	3.157	0.507
341.000	250.456	80.008	19.995	103.812	19.850	3.351	0.512
341.500	250.708	80.009	19.994	103.810	19.852	3.146	0.509
342.000	250.953	80.009	19.994	103.813	19.851	3.287	0.499
342.500	251.215	80.010	19.994	103.816	19.852	3.168	0.502
343.000	251.465	80.009	19.993	103.816	19.853	3.137	0.509
343.500	251.711	80.008	19.994	103.812	19.854	3.072	0.504
344.000	251.969	80.008	19.994	103.812	19.854	3.012	0.501
344.500	252.217	80.008	19.993	103.808	19.855	3.002	0.505
345.000	252.463	80.008	19.993	103.805	19.853	3.138	0.500
345.500	252.723	80.008	19.993	103.807	19.854	3.029	0.500
346.000	252.972	80.008	19.993	103.812	19.855	2.988	0.507
346.500	253.189	80.008	19.994	103.814	19.855	2.970	0.487
347.000	253.461	80.008	19.992	103.818	19.855	2.990	0.478
347.500	253.716	80.008	19.994	103.821	19.852	3.165	0.508
348.000	253.967	80.007	19.994	103.822	19.850	3.304	0.516
348.500	254.202	80.009	19.994	103.821	19.853	3.130	0.496
349.000	254.460	80.010	19.993	103.820	19.850	3.296	0.489
349.500	254.708	80.008	19.993	103.815	19.852	3.203	0.500
350.000	254.988	80.009	19.993	103.808	19.854	3.026	0.517
350.500	255.250	80.008	19.996	103.807	19.854	3.038	0.535
351.000	255.489	80.008	19.994	103.804	19.857	2.803	0.521
351.500	255.764	80.009	19.994	103.805	19.850	3.299	0.507
352.000	255.994	80.007	19.995	103.810	19.855	2.959	0.510
352.500	256.217	80.009	19.995	103.818	19.856	2.870	0.479
353.000	256.469	80.007	19.995	103.820	19.854	3.055	0.464
353.500	256.737	80.009	19.995	103.824	19.855	2.963	0.497
354.000	256.999	80.008	19.995	103.825	19.857	2.821	0.525
354.500	257.232	80.008	19.995	103.825	19.857	2.819	0.513
355.000	257.465	80.009	19.995	103.825	19.854	3.018	0.481
355.500	257.756	80.009	19.994	103.824	19.855	2.981	0.495
356.000	257.991	80.009	19.994	103.823	19.855	2.936	0.525
356.500	258.243	80.007	19.994	103.819	19.855	2.982	0.506
357.000	258.482	80.009	19.994	103.811	19.857	2.791	0.490
357.500	258.753	80.008	19.995	103.806	19.857	2.795	0.500
358.000	258.991	80.008	19.995	103.807	19.855	2.974	0.509
358.500	259.249	80.008	19.994	103.807	19.857	2.844	0.502
359.000	259.515	80.008	19.993	103.808	19.858	2.787	0.510
359.500	259.783	80.009	19.995	103.815	19.855	2.933	0.529
360.000	259.971	80.007	19.994	103.820	19.857	2.829	0.495
360.500	260.257	80.008	19.995	103.821	19.857	2.857	0.465
361.000	260.512	80.009	19.995	103.829	19.853	3.079	0.508
361.500	260.781	80.009	19.993	103.839	19.857	2.839	0.533
362.000	260.990	80.008	19.994	103.841	19.856	2.915	0.501
362.500	261.218	80.009	19.995	103.840	19.857	2.828	0.457
363.000	261.456	80.008	19.993	103.838	19.856	2.888	0.451
363.501	261.708	80.008	19.995	103.831	19.856	2.908	0.478
364.000	261.947	80.008	19.995	103.824	19.858	2.773	0.490
364.500	262.231	80.008	19.995	103.823	19.856	2.879	0.507
365.000	262.488	80.007	19.995	103.823	19.857	2.840	0.532
365.500	262.694	80.008	19.994	103.823	19.858	2.787	0.502
366.000	262.989	80.007	19.995	103.824	19.858	2.742	0.482
366.500	263.250	80.008	19.995	103.824	19.858	2.785	0.528
367.000	263.500	80.008	19.994	103.824	19.856	2.881	0.534
367.500	263.726	80.009	19.995	103.824	19.858	2.780	0.494
368.000	264.012	80.006	19.995	103.825	19.856	2.889	0.494
368.500	264.249	80.008	19.994	103.824	19.855	2.992	0.517
369.000	264.539	80.007	19.993	103.816	19.856	2.910	0.525
369.500	264.754	80.008	19.993	103.808	19.859	2.698	0.516
370.000	264.994	80.007	19.994	103.801	19.856	2.924	0.480
370.500	265.251	80.008	19.993	103.795	19.857	2.859	0.475
371.000	265.511	80.007	19.993	103.793	19.851	3.255	0.507
371.500	265.767	80.008	19.993	103.798	19.852	3.197	0.517
372.000	265.989	80.008	19.993	103.798	19.851	3.253	0.497
372.500	266.269	80.007	19.994	103.798	19.853	3.120	0.489
373.000	266.513	80.007	19.993	103.798	19.853	3.142	0.513
373.500	266.758	80.007	19.993	103.795	19.854	3.007	0.507
374.000	266.999	80.008	19.994	103.795	19.853	3.134	0.488
374.500	267.265	80.007	19.994	103.802	19.855	2.974	0.496
375.000	267.496	80.009	19.994	103.810	19.857	2.841	0.502
375.500	267.760	80.007	19.994	103.816	19.854	3.030	0.496
376.000	267.993	80.007	19.994	103.822	19.853	3.124	0.496
376.500	268.257	80.008	19.993	103.825	19.856	2.909	0.497
377.000	268.528	80.008	19.993	103.819	19.853	3.139	0.516
377.500	268.759	80.008	19.993	103.817	19.857	2.816	0.518
378.000	269.025	80.007	19.994	103.822	19.858	2.744	0.499
378.500	269.250	80.007	19.994	103.825	19.857	2.845	0.494
379.000	269.541	80.007	19.993	103.825	19.856	2.861	0.503
379.500	269.764	80.008	19.993	103.832	19.856	2.908	0.515
380.000	270.080	80.008	19.993	103.830	19.857	2.855	0.527
380.500	270.316	80.008	19.994	103.824	19.857	2.855	0.545
381.000	270.523	80.009	19.994	103.822	19.856	2.903	0.498
381.500	270.784	80.010	19.992	103.819	19.855	2.999	0.456
382.000	271.069	80.008	19.993	103.817	19.854	3.017	0.507
382.500	271.320	80.009	19.994	103.816	19.855	2.958	0.540
383.000	271.568	80.009	19.993	103.809	19.854	3.033	0.517
383.500	271.841	80.010	19.993	103.801	19.854	3.017	0.510
384.000	272.068	80.009	19.994	103.796	19.853	3.142	0.511
384.500	272.276	80.009	19.994	103.791	19.854	3.060	0.468
385.000	272.507	80.010	19.992	103.787	19.851	3.257	0.437
385.501	272.735	80.010	19.994	103.785	19.852	3.179	0.449
386.000	273.028	80.009	19.994	103.784	19.854	3.042	0.490
386.500	273.255	80.009	19.993	103.783	19.854	3.026	0.521
387.000	273.505	80.011	19.993	103.782	19.856	2.866	0.499
387.500	273.775	80.010	19.993	103.783	19.855	2.962	0.498
388.000	274.015	80.010	19.994	103.786	19.856	2.896	0.515
388.500	274.283	80.010	19.995	103.791	19.854	3.018	0.509
389.000	274.574	80.010	19.993	103.795	19.856	2.898	0.534
389.500	274.808	80.010	19.993	103.799	19.852	3.216	0.542
390.000	275.024	80.010	19.993	103.799	19.849	3.379	0.488
390.500	275.294	80.008	19.993	103.798	19.852	3.208	0.468
391.000	275.542	80.009	19.995	103.793	19.853	3.128	0.502
391.500	275.806	80.009	19.996	103.790	19.854	3.065	0.514
392.000	276.064	80.011	19.995	103.786	19.854	3.071	0.517
392.500	276.331	80.009	19.995	103.788	19.851	3.225	0.524
393.000	276.563	80.010	19.995	103.793	19.852	3.212	0.512
393.500	276.781	80.010	19.994	103.799	19.854	3.071	0.475
394.000	277.026	80.010	19.993	103.806	19.855	2.958	0.456
394.500	277.278	80.011	19.993	103.813	19.855	2.937	0.480
395.000	277.577	80.010	19.994	103.818	19.853	3.077	0.524
395.500	277.807	80.010	19.993	103.818	19.852	3.163	0.540
396.000	278.009	80.009	19.994	103.812	19.851	3.227	0.480
396.500	278.261	80.010	19.993	103.805	19.851	3.247	0.443
397.000	278.567	80.011	19.994	103.802	19.855	2.958	0.506
397.500	278.796	80.009	19.993	103.795	19.854	3.028	0.547
398.000	279.042	80.010	19.994	103.789	19.855	2.976	0.505
398.500	279.306	80.009	19.993	103.788	19.853	3.130	0.492
399.000	279.522	80.009	19.994	103.790	19.852	3.173	0.495
399.500	279.798	80.010	19.993	103.789	19.853	3.138	0.486
400.000	280.045	80.009	19.994	103.793	19.852	3.161	0.508
400.500	280.298	80.009	19.994	103.794	19.853	3.079	0.511
401.000	280.535	80.009	19.994	103.796	19.852	3.192	0.494
401.500	280.761	80.009	19.993	103.795	19.853	3.105	0.477
402.000	281.074	80.010	19.993	103.798	19.854	3.015	0.502
402.500	281.288	80.009	19.994	103.794	19.852	3.175	0.533
403.000	281.574	80.010	19.993	103.793	19.852	3.181	0.513
403.500	281.810	80.009	19.993	103.794	19.854	3.006	0.511
404.000	282.022	80.010	19.993	103.797	19.852	3.210	0.485
404.500	282.262	80.009	19.993	103.791	19.855	2.965	0.450
405.000	282.538	80.010	19.993	103.794	19.854	3.048	0.484
405.500	282.785	80.011	19.993	103.794	19.853	3.097	0.519
406.000	283.033	80.009	19.992	103.793	19.857	2.832	0.509
406.500	283.287	80.010	19.994	103.789	19.853	3.120	0.499
407.000	283.516	80.011	19.993	103.788	19.853	3.087	0.493
407.500	283.779	80.010	19.992	103.785	19.854	3.073	0.488
408.000	284.056	80.011	19.992	103.786	19.855	3.001	0.516
408.500	284.288	80.011	19.994	103.791	19.855	2.950	0.524
409.000	284.534	80.010	19.993	103.792	19.852	3.145	0.493
409.500	284.792	80.008	19.994	103.794	19.856	2.890	0.491
410.000	285.015	80.011	19.993	103.794	19.855	2.997	0.493
410.500	285.253	80.011	19.993	103.793	19.857	2.808	0.471
411.000	285.528	80.011	19.993	103.788	19.855	2.946	0.486
411.500	285.798	80.010	19.992	103.790	19.857	2.857	0.529
412.000	286.013	80.011	19.993	103.795	19.855	2.962	0.516
412.500	286.283	80.011	19.992	103.803	19.855	2.941	0.485
413.000	286.518	80.011	19.993	103.810	19.851	3.251	0.495
413.500	286.755	80.010	19.991	103.815	19.854	3.013	0.488
414.000	287.046	80.012	19.992	103.812	19.855	2.989	0.500
414.500	287.298	80.012	19.992	103.812	19.853	3.132	0.535
415.000	287.493	80.011	19.993	103.811	19.855	2.958	0.495
415.500	287.777	80.012	19.992	103.811	19.856	2.874	0.463
416.000	288.017	80.010	19.994	103.811	19.856	2.911	0.502
416.500	288.272	80.010	19.994	103.815	19.853	3.096	0.510
417.000	288.548	80.010	19.993	103.810	19.852	3.163	0.513
417.500	288.791	80.011	19.993	103.803	19.854	3.030	0.524
418.000	289.040	80.009	19.993	103.798	19.851	3.233	0.505
418.500	289.253	80.010	19.993	103.792	19.855	2.935	0.477
419.000	289.503	80.010	19.993	103.787	19.856	2.886	0.462
419.500	289.773	80.009	19.994	103.787	19.854	3.026	0.492
420.000	290.029	80.010	19.995	103.787	19.854	3.024	0.523
420.500	290.270	80.009	19.994	103.785	19.854	3.036	0.511
421.000	290.553	80.009	19.992	103.784	19.856	2.913	0.510
421.500	290.782	80.008	19.992	103.786	19.857	2.843	0.518
422.000	291.070	80.007	19.993	103.787	19.855	2.942	0.515
422.500	291.279	80.007	19.995	103.790	19.855	2.976	0.507
423.000	291.537	80.008	19.994	103.790	19.853	3.130	0.482
423.500	291.823	80.008	19.994	103.791	19.855	2.980	0.506
424.000	292.078	80.009	19.993	103.794	19.855	2.960	0.543
424.500	292.301	80.007	19.993	103.797	19.854	3.034	0.509
425.000	292.570	80.009	19.994	103.796	19.857	2.824	0.485
425.500	292.798	80.009	19.993	103.798	19.856	2.914	0.494
426.000	293.046	80.007	19.994	103.797	19.852	3.161	0.486
426.500	293.322	80.008	19.993	103.793	19.857	2.855	0.500
427.000	293.602	80.007	19.994	103.788	19.857	2.808	0.541
427.500	293.799	80.009	19.994	103.787	19.855	2.972	0.517
428.000	294.038	80.008	19.995	103.785	19.854	3.040	0.456
428.500	294.300	80.008	19.994	103.786	19.853	3.099	0.468
429.000	294.564	80.008	19.993	103.785	19.855	2.999	0.514
429.500	294.828	80.009	19.994	103.787	19.851	3.227	0.528
430.000	295.078	80.006	19.994	103.788	19.854	3.040	0.521
430.500	295.301	80.009	19.995	103.789	19.854	3.052	0.493
431.000	295.544	80.008	19.994	103.789	19.855	2.990	0.469
431.500	295.790	80.008	19.994	103.789	19.855	3.001	0.477
432.000	296.059	80.007	19.994	103.788	19.853	3.122	0.502
432.500	296.305	80.007	19.994	103.787	19.853	3.126	0.515
433.000	296.570	80.007	19.994	103.786	19.853	3.126	0.513
433.500	296.839	80.009	19.994	103.786	19.850	3.294	0.522
434.000	297.090	80.008	19.995	103.788	19.854	3.042	0.527
434.500	297.319	80.008	19.994	103.793	19.858	2.765	0.500
435.000	297.590	80.007	19.994	103.798	19.854	3.050	0.490
435.500	297.829	80.009	19.994	103.802	19.853	3.085	0.505
436.000	298.117	80.007	19.993	103.802	19.855	2.990	0.519
436.500	298.359	80.008	19.994	103.804	19.852	3.185	0.529
437.000	298.598	80.009	19.993	103.801	19.854	3.054	0.505
437.500	298.848	80.009	19.993	103.796	19.857	2.841	0.485
438.000	299.108	80.009	19.993	103.795	19.851	3.229	0.500
438.500	299.339	80.010	19.993	103.798	19.853	3.132	0.500
439.000	299.584	80.010	19.992	103.800	19.854	3.048	0.483
439.500	299.851	80.009	19.994	103.798	19.855	2.989	0.494
440.000	300.139	80.010	19.993	103.798	19.856	2.907	0.534
440.500	300.339	80.007	19.994	103.797	19.855	2.939	0.522
441.000	300.646	80.009	19.993	103.796	19.856	2.861	0.497
441.500	300.862	80.007	19.994	103.794	19.857	2.802	0.515
442.000	301.140	80.009	19.993	103.800	19.856	2.886	0.509
442.500	301.350	80.008	19.993	103.805	19.854	3.054	0.491
443.000	301.639	80.009	19.993	103.811	19.853	3.114	0.493
443.500	301.868	80.008	19.992	103.811	19.854	3.054	0.508
444.000	302.137	80.009	19.992	103.807	19.858	2.761	0.508
444.500	302.370	80.009	19.995	103.802	19.858	2.747	0.500
445.000	302.643	80.008	19.993	103.796	19.857	2.831	0.504
445.500	302.866	80.008	19.993	103.793	19.851	3.231	0.501
446.000	303.115	80.008	19.994	103.799	19.853	3.131	0.484
446.500	303.396	80.006	19.994	103.802	19.853	3.089	0.501
447.000	303.600	80.009	19.995	103.809	19.854	3.073	0.507
447.500	303.861	80.008	19.994	103.812	19.854	3.024	0.475
448.000	304.138	80.009	19.994	103.808	19.852	3.198	0.502
448.500	304.370	80.009	19.993	103.801	19.853	3.135	0.524
449.000	304.610	80.009	19.992	103.800	19.855	2.946	0.490
449.500	304.882	80.008	19.994	103.794	19.853	3.077	0.492
450.000	305.137	80.007	19.993	103.791	19.854	3.026	0.519
450.500	305.375	80.008	19.993	103.790	19.857	2.823	0.510
451.000	305.586	80.007	19.994	103.789	19.856	2.919	0.471
451.500	305.896	80.007	19.995	103.787	19.854	3.056	0.485
452.000	306.138	80.007	19.995	103.792	19.856	2.927	0.536
452.500	306.389	80.007	19.995	103.799	19.853	3.126	0.522
453.000	306.634	80.006	19.995	103.803	19.854	3.066	0.495
453.500	306.887	80.007	19.995	103.804	19.853	3.091	0.497
454.000	307.160	80.008	19.995	103.802	19.853	3.140	0.512
454.500	307.376	80.008	19.995	103.796	19.852	3.175	0.507
455.000	307.608	80.007	19.994	103.789	19.853	3.143	0.469
455.500	307.875	80.007	19.994	103.784	19.852	3.149	0.474
456.000	308.127	80.009	19.994	103.784	19.852	3.202	0.509
456.500	308.407	80.007	19.995	103.783	19.853	3.088	0.526
457.000	308.657	80.007	19.995	103.785	19.853	3.077	0.531
457.500	308.929	80.008	19.995	103.785	19.856	2.895	0.526
458.000	309.147	80.008	19.994	103.786	19.855	2.987	0.506
458.501	309.385	80.006	19.996	103.786	19.855	2.958	0.473
459.001	309.694	80.006	19.995	103.786	19.854	3.036	0.502
459.500	309.917	80.007	19.994	103.784	19.854	3.057	0.539
460.000	310.160	80.007	19.997	103.785	19.853	3.116	0.499
460.500	310.419	80.007	19.995	103.786	19.855	2.940	0.484
461.000	310.657	80.007	19.996	103.785	19.856	2.890	0.500
461.500	310.928	80.008	19.995	103.786	19.855	2.981	0.503
462.000	311.181	80.008	19.995	103.789	19.853	3.098	0.516
462.500	311.443	80.008	19.995	103.791	19.853	3.106	0.519
463.000	311.686	80.008	19.995	103.795	19.854	3.016	0.510
463.500	311.941	80.007	19.995	103.803	19.853	3.075	0.501
464.000	312.200	80.007	19.994	103.810	19.857	2.825	0.506
464.500	312.438	80.008	19.994	103.810	19.855	2.987	0.506
465.000	312.734	80.009	19.995	103.807	19.856	2.882	0.515
465.500	313.011	80.008	19.994	103.803	19.856	2.890	0.553
466.000	313.202	80.009	19.994	103.794	19.851	3.274	0.521
466.500	313.477	80.009	19.994	103.787	19.853	3.103	0.467
467.000	313.734	80.009	19.993	103.783	19.855	2.966	0.499
467.500	313.984	80.009	19.993	103.782	19.857	2.839	0.520
468.000	314.240	80.009	19.994	103.782	19.859	2.710	0.507
468.500	314.483	80.010	19.994	103.781	19.855	2.981	0.503
469.000	314.773	80.009	19.993	103.779	19.855	2.964	0.516
469.500	314.999	80.009	19.994	103.779	19.853	3.130	0.524
470.000	315.243	80.009	19.993	103.780	19.854	3.032	0.493
470.500	315.440	80.008	19.993	103.780	19.854	3.038	0.455
471.000	315.740	80.009	19.992	103.780	19.855	2.958	0.469
471.500	315.990	80.012	19.992	103.787	19.853	3.106	0.524
472.000	316.229	80.009	19.994	103.789	19.852	3.178	0.519
472.500	316.468	80.011	19.992	103.789	19.853	3.075	0.483
473.000	316.707	80.010	19.994	103.788	19.856	2.893	0.478
473.500	316.986	80.009	19.992	103.785	19.854	3.055	0.498
474.000	317.243	80.009	19.995	103.781	19.853	3.137	0.527
474.500	317.499	80.009	19.994	103.780	19.857	2.852	0.525
475.000	317.745	80.010	19.992	103.783	19.857	2.812	0.507
475.500	317.988	80.010	19.993	103.787	19.853	3.141	0.496
476.000	318.254	80.011	19.993	103.790	19.856	2.907	0.499
476.500	318.513	80.010	19.993	103.792	19.856	2.905	0.516
477.000	318.772	80.009	19.994	103.797	19.855	2.942	0.522
477.500	319.027	80.009	19.994	103.795	19.855	2.989	0.517
478.000	319.247	80.010	19.994	103.792	19.852	3.155	0.495
478.500	319.538	80.009	19.994	103.792	19.854	3.006	0.493
479.000	319.763	80.011	19.993	103.790	19.855	2.940	0.513
479.500	320.017	80.010	19.993	103.786	19.857	2.841	0.497
480.000	320.274	80.009	19.993	103.786	19.853	3.118	0.495
480.500	320.468	80.009	19.993	103.791	19.853	3.079	0.481
481.000	320.782	80.010	19.992	103.793	19.854	3.011	0.480
481.500	321.031	80.010	19.992	103.793	19.857	2.808	0.535
482.000	321.269	80.010	19.994	103.792	19.857	2.853	0.525
482.500	321.527	80.009	19.994	103.791	19.859	2.662	0.491
483.000	321.803	80.009	19.992	103.786	19.856	2.919	0.515
483.500	322.029	80.010	19.993	103.782	19.857	2.833	0.518
484.000	322.314	80.008	19.995	103.780	19.853	3.096	0.506
484.500	322.537	80.010	19.994	103.780	19.853	3.143	0.509
485.000	322.805	80.009	19.992	103.780	19.855	2.970	0.500
485.500	323.061	80.008	19.993	103.778	19.852	3.163	0.507
486.000	323.292	80.008	19.993	103.780	19.854	3.067	0.505
486.500	323.571	80.010	19.993	103.783	19.854	3.063	0.499
487.000	323.806	80.010	19.993	103.783	19.849	3.389	0.512
487.500	324.110	80.008	19.994	103.783	19.855	2.966	0.526
488.000	324.302	80.010	19.994	103.785	19.852	3.153	0.518
488.500	324.536	80.010	19.993	103.777	19.852	3.155	0.461
489.000	324.807	80.009	19.992	103.775	19.851	3.241	0.465
489.500	325.048	80.009	19.993	103.774	19.852	3.180	0.508
490.000	325.299	80.008	19.993	103.774	19.853	3.137	0.502
490.500	325.570	80.009	19.994	103.775	19.852	3.192	0.507
491.000	325.766	80.010	19.993	103.782	19.854	3.073	0.495
491.500	326.080	80.008	19.994	103.785	19.852	3.165	0.489
492.000	326.304	80.009	19.994	103.786	19.854	3.063	0.524
492.500	326.513	80.009	19.993	103.787	19.853	3.096	0.486
493.000	326.829	80.009	19.992	103.787	19.852	3.188	0.479
493.500	327.047	80.009	19.994	103.787	19.856	2.866	0.530
494.000	327.299	80.010	19.993	103.787	19.851	3.221	0.502
494.500	327.565	80.011	19.994	103.786	19.853	3.131	0.494
495.000	327.819	80.010	19.993	103.786	19.854	3.022	0.519
495.500	328.094	80.010	19.992	103.787	19.854	3.030	0.524
496.000	328.364	80.011	19.992	103.787	19.859	2.706	0.537
496.500	328.599	80.009	19.993	103.786	19.855	2.987	0.525
497.000	328.862	80.011	19.993	103.788	19.855	2.977	0.501
497.500	329.067	80.010	19.994	103.789	19.856	2.927	0.483
498.000	329.321	80.011	19.994	103.788	19.857	2.822	0.464
498.501	329.584	80.012	19.993	103.787	19.855	2.937	0.488
499.000	329.849	80.009	19.994	103.788	19.857	2.820	0.522
499.500	330.101	80.010	19.993	103.788	19.856	2.911	0.522
500.000	330.341	80.010	19.993	103.787	19.854	3.042	0.504
500.500	330.581	80.010	19.992	103.786	19.856	2.903	0.487
501.000	330.840	80.009	19.993	103.788	19.857	2.819	0.490
501.500	331.086	80.009	19.993	103.789	19.857	2.857	0.502
502.000	331.321	80.009	19.992	103.789	19.855	2.979	0.493
502.500	331.632	80.009	19.993	103.788	19.857	2.826	0.514
503.000	331.834	80.009	19.992	103.788	19.856	2.921	0.530
503.501	332.081	80.009	19.993	103.786	19.855	2.995	0.481
504.000	332.337	80.009	19.993	103.785	19.855	2.937	0.476
504.500	332.583	80.009	19.992	103.785	19.856	2.874	0.503
505.000	332.838	80.007	19.994	103.784	19.853	3.129	0.502
505.500	333.100	80.009	19.992	103.783	19.855	2.969	0.509
506.000	333.365	80.008	19.992	103.783	19.856	2.887	0.522
506.500	333.634	80.007	19.993	103.784	19.856	2.901	0.530
507.000	333.903	80.008	19.992	103.784	19.855	2.957	0.537
507.500	334.161	80.008	19.993	103.785	19.857	2.856	0.532
508.000	334.386	80.008	19.993	103.787	19.856	2.895	0.505
508.500	334.604	80.008	19.994	103.788	19.854	3.067	0.463
509.000	334.881	80.008	19.991	103.787	19.856	2.903	0.469
509.500	335.137	80.008	19.993	103.788	19.857	2.858	0.514
510.000	335.417	80.009	19.992	103.787	19.856	2.917	0.534
510.500	335.662	80.007	19.992	103.787	19.857	2.800	0.530
511.000	335.904	80.007	19.993	103.781	19.857	2.829	0.506
511.500	336.162	80.008	19.995	103.782	19.857	2.856	0.494
512.000	336.438	80.007	19.995	103.784	19.857	2.835	0.517
512.500	336.679	80.007	19.993	103.786	19.858	2.726	0.525
513.000	336.935	80.009	19.994	103.787	19.855	2.970	0.507
513.500	337.206	80.009	19.993	103.792	19.859	2.687	0.512
514.000	337.460	80.009	19.993	103.793	19.858	2.747	0.526
514.500	337.685	80.009	19.994	103.790	19.859	2.673	0.502
515.000	337.965	80.008	19.991	103.787	19.855	2.960	0.492
515.500	338.193	80.010	19.994	103.786	19.856	2.882	0.507
516.000	338.479	80.008	19.994	103.782	19.856	2.884	0.511
516.500	338.696	80.009	19.993	103.775	19.855	2.942	0.508
517.000	338.953	80.008	19.994	103.768	19.855	2.940	0.488
517.500	339.186	80.008	19.993	103.767	19.857	2.849	0.482
518.000	339.453	80.008	19.994	103.767	19.853	3.079	0.495
518.500	339.712	80.009	19.994	103.770	19.856	2.917	0.513
519.000	339.970	80.008	19.993	103.775	19.858	2.745	0.521
519.501	340.197	80.008	19.993	103.781	19.858	2.771	0.500
520.001	340.501	80.008	19.995	103.778	19.853	3.085	0.508
520.501	340.717	80.008	19.993	103.778	19.856	2.897	0.526
521.000	340.973	80.008	19.993	103.778	19.856	2.886	0.496
521.500	341.230	80.009	19.993	103.778	19.854	3.053	0.493
522.000	341.526	80.009	19.992	103.778	19.854	3.014	0.533
522.500	341.728	80.008	19.993	103.782	19.856	2.929	0.526
523.000	341.976	80.008	19.994	103.782	19.854	3.016	0.474
523.500	342.231	80.007	19.995	103.782	19.855	2.999	0.477
524.000	342.497	80.007	19.995	103.783	19.856	2.901	0.512
524.500	342.747	80.007	19.995	103.782	19.852	3.159	0.518
525.000	343.026	80.009	19.994	103.783	19.856	2.897	0.523
525.500	343.224	80.009	19.993	103.783	19.856	2.925	0.503
526.000	343.502	80.009	19.994	103.783	19.851	3.254	0.476
526.500	343.749	80.008	19.993	103.782	19.853	3.108	0.500
527.001	343.968	80.008	19.993	103.783	19.852	3.198	0.496
527.500	344.256	80.008	19.993	103.783	19.853	3.083	0.486
528.000	344.516	80.008	19.993	103.783	19.856	2.903	0.527
528.500	344.761	80.008	19.994	103.783	19.856	2.868	0.526
529.000	345.009	80.009	19.993	103.783	19.852	3.188	0.499
529.500	345.285	80.009	19.994	103.783	19.852	3.182	0.509
530.000	345.517	80.010	19.994	103.783	19.853	3.102	0.516
530.500	345.725	80.009	19.994	103.783	19.853	3.077	0.474
531.000	345.998	80.009	19.995	103.783	19.853	3.093	0.461
531.500	346.258	80.010	19.993	103.784	19.854	3.048	0.507
532.000	346.494	80.009	19.993	103.784	19.855	2.944	0.514
532.500	346.778	80.009	19.995	103.781	19.856	2.901	0.507
533.000	346.995	80.008	19.995	103.781	19.856	2.917	0.510
533.500	347.260	80.010	19.994	103.782	19.855	2.997	0.492
534.000	347.508	80.008	19.995	103.782	19.856	2.882	0.498
534.500	347.738	80.009	19.994	103.782	19.854	3.026	0.496
535.000	348.019	80.007	19.994	103.784	19.855	2.937	0.494
535.500	348.250	80.009	19.994	103.784	19.855	2.991	0.511
536.000	348.539	80.007	19.994	103.784	19.860	2.603	0.516
536.500	348.767	80.007	19.996	103.784	19.857	2.796	0.519
537.000	349.031	80.007	19.995	103.788	19.855	2.993	0.505
537.500	349.266	80.009	19.994	103.789	19.856	2.927	0.496
538.000	349.510	80.008	19.993	103.789	19.860	2.593	0.489
538.500	349.764	80.009	19.994	103.789	19.854	3.067	0.488
539.000	350.022	80.008	19.994	103.788	19.855	2.969	0.505
539.500	350.300	80.009	19.994	103.784	19.857	2.815	0.524
540.000	350.519	80.008	19.994	103.783	19.855	2.932	0.516
540.500	350.766	80.008	19.995	103.787	19.855	2.987	0.482
541.001	351.087	80.008	19.996	103.789	19.855	2.997	0.517
541.500	351.279	80.008	19.995	103.791	19.856	2.917	0.541
542.000	351.551	80.009	19.995	103.790	19.857	2.796	0.488
542.500	351.791	80.008	19.995	103.790	19.858	2.761	0.488
543.000	352.029	80.008	19.994	103.788	19.857	2.849	0.495
543.500	352.306	80.007	19.994	103.785	19.853	3.081	0.496
544.001	352.593	80.008	19.995	103.785	19.857	2.851	0.540
544.500	352.818	80.008	19.996	103.788	19.853	3.088	0.538
545.000	353.098	80.009	19.995	103.787	19.857	2.839	0.508
545.500	353.326	80.009	19.994	103.787	19.856	2.897	0.507
546.000	353.565	80.008	19.994	103.787	19.854	3.024	0.487
546.500	353.831	80.010	19.993	103.787	19.854	3.022	0.486
547.000	354.098	80.009	19.994	103.784	19.856	2.883	0.519
547.500	354.370	80.009	19.995	103.783	19.855	2.965	0.536
548.000	354.609	80.008	19.996	103.783	19.853	3.096	0.526
548.500	354.846	80.009	19.994	103.783	19.853	3.116	0.494
549.000	355.115	80.009	19.994	103.781	19.853	3.075	0.490
549.500	355.359	80.008	19.996	103.778	19.855	2.935	0.510
550.000	355.595	80.009	19.994	103.773	19.854	3.067	0.497
550.500	355.851	80.010	19.995	103.769	19.852	3.200	0.486
551.000	356.082	80.008	19.994	103.768	19.855	2.985	0.489
551.500	356.368	80.011	19.994	103.770	19.853	3.075	0.502
552.000	356.642	80.010	19.995	103.773	19.855	2.958	0.539
552.500	356.884	80.008	19.995	103.775	19.856	2.884	0.538
553.000	357.135	80.009	19.995	103.778	19.853	3.133	0.504
553.501	357.359	80.010	19.994	103.780	19.852	3.204	0.484
554.000	357.644	80.009	19.994	103.781	19.852	3.170	0.492
554.500	357.912	80.009	19.996	103.779	19.854	3.042	0.531
555.000	358.144	80.010	19.994	103.781	19.850	3.340	0.526
555.500	358.401	80.010	19.994	103.777	19.851	3.221	0.494
556.000	358.670	80.011	19.993	103.771	19.852	3.166	0.507
556.500	358.911	80.008	19.994	103.767	19.853	3.081	0.518
557.000	359.155	80.012	19.993	103.766	19.853	3.114	0.498
557.500	359.423	80.009	19.995	103.765	19.852	3.196	0.499
558.000	359.642	80.010	19.994	103.769	19.853	3.100	0.500
558.500	359.903	80.009	19.994	103.775	19.855	3.001	0.483
559.000	360.198	80.010	19.993	103.779	19.855	2.993	0.518
559.500	360.396	80.009	19.994	103.782	19.853	3.128	0.524
560.000	360.700	80.009	19.995	103.784	19.852	3.159	0.497
560.500	360.933	80.010	19.995	103.783	19.852	3.174	0.520
561.000	361.197	80.009	19.996	103.784	19.853	3.124	0.517
561.500	361.479	80.009	19.994	103.786	19.850	3.354	0.521
562.000	361.694	80.008	19.993	103.785	19.848	3.484	0.521
562.500	361.939	80.009	19.994	103.785	19.852	3.186	0.479
563.000	362.206	80.009	19.995	103.786	19.849	3.364	0.487
563.500	362.433	80.007	19.995	103.785	19.850	3.356	0.503
564.000	362.710	80.009	19.992	103.784	19.849	3.371	0.498
564.500	362.942	80.008	19.992	103.784	19.852	3.176	0.506
565.000	363.187	80.009	19.992	103.782	19.853	3.131	0.493
565.500	363.460	80.010	19.993	103.782	19.851	3.276	0.498
566.000	363.725	80.010	19.993	103.783	19.851	3.286	0.529
566.500	363.997	80.009	19.992	103.781	19.851	3.229	0.537
567.000	364.253	80.009	19.994	103.781	19.852	3.198	0.532
567.500	364.471	80.010	19.993	103.783	19.852	3.163	0.501
568.000	364.723	80.010	19.993	103.783	19.853	3.137	0.472
568.500	364.988	80.010	19.994	103.784	19.849	3.373	0.493
569.000	365.252	80.009	19.993	103.786	19.854	3.020	0.523
569.500	365.472	80.009	19.993	103.786	19.853	3.102	0.507
570.000	365.741	80.008	19.993	103.786	19.851	3.273	0.486
570.500	365.991	80.009	19.992	103.785	19.852	3.164	0.504
571.000	366.273	80.008	19.993	103.785	19.852	3.199	0.526
571.500	366.548	80.008	19.994	103.784	19.851	3.233	0.545
572.000	366.803	80.010	19.994	103.785	19.852	3.209	0.543
572.500	367.044	80.009	19.995	103.785	19.853	3.135	0.513
573.000	367.296	80.009	19.994	103.786	19.851	3.246	0.494
573.500	367.559	80.009	19.994	103.786	19.848	3.430	0.504
574.000	367.778	80.009	19.992	103.786	19.852	3.155	0.499
574.500	368.032	80.010	19.995	103.785	19.851	3.270	0.478
575.000	368.285	80.009	19.992	103.785	19.851	3.277	0.490
575.500	368.525	80.009	19.993	103.784	19.850	3.328	0.500
576.000	368.785	80.010	19.993	103.784	19.848	3.467	0.497
576.500	369.070	80.009	19.993	103.785	19.849	3.396	0.523
577.000	369.312	80.009	19.992	103.785	19.848	3.480	0.536
577.500	369.570	80.010	19.992	103.785	19.849	3.367	0.513
578.000	369.825	80.010	19.993	103.785	19.850	3.356	0.506
578.500	370.059	80.010	19.993	103.784	19.848	3.467	0.501
579.000	370.378	80.009	19.993	103.781	19.847	3.566	0.521
579.500	370.604	80.010	19.995	103.777	19.848	3.480	0.549
580.000	370.859	80.010	19.993	103.774	19.847	3.556	0.513
580.500	371.108	80.010	19.993	103.772	19.848	3.445	0.492
581.000	371.358	80.010	19.994	103.771	19.848	3.447	0.502
581.500	371.578	80.011	19.993	103.772	19.851	3.280	0.485
582.000	371.847	80.012	19.992	103.777	19.849	3.416	0.479
582.500	372.148	80.011	19.994	103.779	19.850	3.295	0.530
583.000	372.382	80.011	19.992	103.782	19.849	3.397	0.552
583.500	372.625	80.010	19.992	103.781	19.849	3.404	0.506
584.000	372.900	80.010	19.992	103.782	19.848	3.429	0.498
584.500	373.179	80.009	19.993	103.779	19.846	3.591	0.536
585.000	373.455	80.010	19.992	103.780	19.849	3.423	0.555
585.500	373.693	80.010	19.992	103.778	19.850	3.357	0.534
586.001	373.960	80.010	19.992	103.778	19.851	3.285	0.510
586.500	374.200	80.009	19.993	103.776	19.850	3.293	0.506
587.000	374.458	80.008	19.993	103.777	19.852	3.213	0.503
587.501	374.729	80.008	19.994	103.776	19.851	3.271	0.514
588.000	374.989	80.009	19.996	103.778	19.850	3.357	0.530
588.500	375.213	80.008	19.994	103.779	19.852	3.176	0.507
589.000	375.502	80.008	19.993	103.782	19.852	3.187	0.498
589.500	375.740	80.008	19.994	103.782	19.850	3.341	0.520
590.000	375.958	80.008	19.993	103.782	19.850	3.318	0.491
590.500	376.200	80.008	19.994	103.781	19.852	3.183	0.458
591.000	376.499	80.007	19.994	103.781	19.851	3.244	0.500
591.500	376.751	80.009	19.993	103.780	19.849	3.378	0.546
592.000	377.003	80.009	19.993	103.781	19.850	3.335	0.528
592.500	377.265	80.008	19.994	103.782	19.853	3.090	0.509
593.000	377.512	80.008	19.993	103.783	19.852	3.162	0.511
593.500	377.757	80.009	19.993	103.783	19.846	3.603	0.500
594.000	377.996	80.009	19.993	103.783	19.849	3.385	0.487
594.500	378.291	80.008	19.993	103.780	19.850	3.318	0.508
595.000	378.530	80.009	19.994	103.775	19.847	3.531	0.534
595.500	378.784	80.007	19.992	103.769	19.843	3.798	0.514
596.000	379.026	80.010	19.992	103.762	19.849	3.406	0.494
596.500	379.329	80.009	19.994	103.758	19.845	3.662	0.521
597.000	379.563	80.010	19.994	103.757	19.847	3.556	0.542
597.500	379.826	80.009	19.994	103.761	19.846	3.578	0.517
598.000	380.083	80.009	19.994	103.767	19.846	3.626	0.508
598.500	380.285	80.009	19.992	103.772	19.848	3.500	0.490
599.000	380.572	80.009	19.992	103.772	19.846	3.572	0.474
599.500	380.841	80.009	19.993	103.770	19.844	3.726	0.522
600.000	381.125	80.009	19.994	103.764	19.848	3.490	0.554
600.500	381.353	80.010	19.992	103.757	19.847	3.546	0.532
601.000	381.637	80.010	19.992	103.752	19.848	3.451	0.512
601.500	381.868	80.009	19.992	103.751	19.845	3.698	0.514
602.000	382.108	80.009	19.993	103.751	19.844	3.749	0.493
602.500	382.408	80.008	19.993	103.753	19.842	3.925	0.505
603.000	382.656	80.010	19.992	103.758	19.844	3.751	0.544
603.500	382.919	80.010	19.991	103.762	19.844	3.732	0.530
604.000	383.156	80.008	19.993	103.764	19.843	3.813	0.506
604.501	383.383	80.009	19.993	103.769	19.842	3.872	0.482
605.000	383.660	80.009	19.993	103.774	19.843	3.813	0.484
605.500	383.909	80.008	19.993	103.777	19.846	3.617	0.515
606.000	384.185	80.009	19.994	103.779	19.844	3.753	0.525
606.500	384.424	80.008	19.994	103.781	19.845	3.658	0.520
607.000	384.663	80.010	19.993	103.779	19.844	3.720	0.496
607.500	384.914	80.009	19.994	103.778	19.841	3.987	0.484
608.000	385.171	80.009	19.992	103.776	19.843	3.798	0.499
608.500	385.469	80.010	19.993	103.773	19.843	3.847	0.532
609.000	385.703	80.010	19.993	103.771	19.844	3.780	0.543
609.500	385.951	80.009	19.993	103.775	19.844	3.751	0.507
610.000	386.199	80.010	19.993	103.775	19.843	3.821	0.489
610.500	386.459	80.009	19.993	103.773	19.841	3.973	0.502
611.000	386.698	80.009	19.993	103.769	19.843	3.818	0.504
611.500	386.935	80.007	19.994	103.766	19.842	3.872	0.488
612.000	387.201	80.009	19.994	103.763	19.841	3.995	0.490
612.500	387.501	80.009	19.992	103.762	19.840	4.026	0.535
613.000	387.746	80.008	19.993	103.765	19.841	3.971	0.555
613.500	387.989	80.008	19.994	103.772	19.841	3.928	0.516
614.000	388.263	80.009	19.994	103.775	19.841	3.957	0.503
614.500	388.500	80.007	19.993	103.771	19.840	4.024	0.514
615.000	388.769	80.008	19.993	103.768	19.843	3.835	0.509
615.500	389.022	80.008	19.993	103.768	19.840	4.022	0.514
616.000	389.235	80.009	19.994	103.769	19.840	4.065	0.494
616.500	389.511	80.007	19.994	103.771	19.841	3.993	0.478
617.000	389.760	80.009	19.994	103.778	19.839	4.079	0.507
617.500	390.031	80.009	19.993	103.782	19.840	4.024	0.522
618.000	390.283	80.008	19.993	103.781	19.835	4.410	0.522
618.500	390.491	80.009	19.993	103.779	19.840	4.051	0.492
619.000	390.769	80.009	19.993	103.776	19.841	3.956	0.473
619.500	391.040	80.008	19.994	103.770	19.838	4.143	0.517
620.000	391.316	80.006	19.994	103.766	19.837	4.260	0.548
620.500	391.555	80.009	19.995	103.766	19.839	4.101	0.531
621.001	391.820	80.008	19.993	103.769	19.837	4.237	0.510
621.500	392.094	80.008	19.994	103.772	19.837	4.223	0.521
622.000	392.354	80.007	19.994	103.778	19.837	4.218	0.537
622.500	392.576	80.007	19.995	103.778	19.836	4.311	0.508
623.000	392.845	80.007	19.993	103.775	19.836	4.303	0.486
623.500	393.094	80.008	19.993	103.769	19.835	4.384	0.504
624.000	393.362	80.007	19.994	103.765	19.836	4.283	0.518
624.500	393.628	80.008	19.996	103.759	19.831	4.657	0.525
625.000	393.912	80.008	19.994	103.758	19.830	4.741	0.542
625.500	394.161	80.008	19.995	103.761	19.832	4.620	0.542
626.001	394.406	80.008	19.994	103.768	19.831	4.671	0.514
626.501	394.681	80.008	19.994	103.773	19.831	4.644	0.506
627.000	394.912	80.008	19.993	103.774	19.832	4.595	0.513
627.500	395.214	80.008	19.994	103.777	19.829	4.782	0.520
628.000	395.485	80.007	19.993	103.772	19.829	4.821	0.553
628.500	395.738	80.008	19.994	103.767	19.829	4.795	0.548
629.000	395.992	80.007	19.995	103.765	19.828	4.865	0.516
629.500	396.201	80.008	19.993	103.772	19.830	4.754	0.485
630.000	396.482	80.008	19.995	103.774	19.831	4.676	0.476
630.500	396.706	80.007	19.993	103.780	19.827	4.924	0.498
631.000	397.010	80.008	19.994	103.785	19.827	4.932	0.517
631.500	397.221	80.008	19.995	103.788	19.827	4.969	0.521
632.000	397.469	80.008	19.994	103.787	19.827	4.946	0.487
632.500	397.728	80.009	19.994	103.786	19.828	4.876	0.483
633.000	398.011	80.009	19.992	103.785	19.830	4.757	0.524
633.500	398.201	80.009	19.994	103.781	19.828	4.852	0.508
634.000	398.470	80.011	19.994	103.774	19.827	4.951	0.466
634.500	398.760	80.010	19.994	103.767	19.828	4.901	0.509
635.000	399.017	80.010	19.994	103.760	19.824	5.160	0.553
635.500	399.247	80.009	19.994	103.755	19.825	5.123	0.517
636.000	399.489	80.008	19.993	103.756	19.825	5.128	0.480
636.500	399.771	80.009	19.992	103.758	19.822	5.316	0.498
637.000	400.054	80.009	19.994	103.759	19.821	5.364	0.544
637.500	400.252	80.009	19.993	103.763	19.819	5.503	0.523
638.000	400.513	80.008	19.993	103.761	19.821	5.415	0.470
638.500	400.773	80.009	19.993	103.756	19.819	5.518	0.489
639.000	400.983	80.008	19.993	103.756	19.822	5.292	0.495
639.500	401.221	80.010	19.994	103.756	19.820	5.450	0.459
640.000	401.494	80.009	19.995	103.753	19.818	5.579	0.480
640.500	401.720	80.010	19.994	103.753	19.817	5.638	0.505
641.000	402.051	80.009	19.994	103.757	19.817	5.700	0.528
641.500	402.290	80.009	19.993	103.761	19.817	5.690	0.563
642.000	402.512	80.007	19.995	103.761	19.817	5.645	0.515
642.500	402.781	80.009	19.994	103.763	19.815	5.779	0.476
643.000	403.036	80.008	19.993	103.766	19.816	5.756	0.507
643.500	403.323	80.009	19.993	103.762	19.814	5.918	0.534
644.000	403.559	80.008	19.993	103.761	19.812	6.000	0.532
644.500	403.787	80.008	19.994	103.762	19.816	5.773	0.493
645.000	404.073	80.008	19.995	103.760	19.814	5.906	0.489
645.500	404.304	80.009	19.994	103.758	19.814	5.900	0.516
646.000	404.563	80.009	19.995	103.757	19.810	6.169	0.504
646.500	404.799	80.009	19.994	103.752	19.813	5.986	0.492
647.000	405.097	80.009	19.994	103.750	19.811	6.119	0.515
647.500	405.359	80.008	19.994	103.752	19.808	6.276	0.547
648.000	405.658	80.009	19.994	103.751	19.808	6.303	0.560
648.500	405.854	80.008	19.993	103.751	19.809	6.231	0.527
649.000	406.107	80.009	19.994	103.751	19.806	6.465	0.472
649.500	406.377	80.007	19.994	103.750	19.803	6.676	0.487
650.000	406.615	80.007	19.994	103.748	19.804	6.582	0.515
650.500	406.870	80.009	19.994	103.753	19.805	6.540	0.500
651.000	407.111	80.009	19.994	103.758	19.802	6.715	0.495
651.500	407.380	80.010	19.994	103.758	19.804	6.620	0.504
652.000	407.645	80.007	19.996	103.758	19.804	6.580	0.522
652.500	407.868	80.009	19.993	103.756	19.802	6.752	0.511
653.000	408.152	80.010	19.994	103.752	19.802	6.717	0.497
653.500	408.363	80.009	19.995	103.747	19.804	6.598	0.501
654.000	408.654	80.009	19.994	103.747	19.803	6.664	0.499
654.500	408.912	80.009	19.994	103.747	19.802	6.740	0.526
655.000	409.156	80.009	19.994	103.748	19.801	6.789	0.525
655.500	409.439	80.009	19.994	103.745	19.801	6.797	0.514
656.000	409.670	80.008	19.994	103.745	19.799	6.924	0.520
656.500	409.945	80.010	19.993	103.745	19.797	7.107	0.511
657.000	410.185	80.011	19.992	103.749	19.796	7.150	0.511
657.500	410.472	80.010	19.994	103.756	19.799	6.973	0.520
658.000	410.748	80.009	19.995	103.763	19.797	7.108	0.545
658.500	410.992	80.011	19.993	103.771	19.796	7.154	0.542
659.000	411.272	80.010	19.994	103.776	19.794	7.301	0.523
659.500	411.487	80.009	19.993	103.780	19.795	7.216	0.509
660.000	411.752	80.010	19.993	103.776	19.796	7.154	0.487
660.500	412.016	80.010	19.994	103.772	19.794	7.297	0.504
661.000	412.251	80.010	19.994	103.766	19.792	7.435	0.514
661.500	412.534	80.011	19.993	103.760	19.794	7.332	0.508
662.000	412.749	80.011	19.993	103.755	19.790	7.584	0.508
662.500	413.016	80.010	19.994	103.752	19.792	7.458	0.490
663.000	413.257	80.011	19.994	103.749	19.788	7.719	0.495
663.500	413.510	80.010	19.993	103.749	19.788	7.732	0.501
664.000	413.731	80.009	19.994	103.748	19.785	7.917	0.484
664.500	414.017	80.009	19.993	103.748	19.788	7.746	0.490
665.001	414.274	80.010	19.993	103.747	19.786	7.867	0.525
665.500	414.523	80.011	19.992	103.746	19.782	8.173	0.525
666.000	414.804	80.010	19.994	103.747	19.780	8.268	0.518
666.500	415.018	80.008	19.992	103.750	19.779	8.364	0.513
667.000	415.282	80.009	19.995	103.752	19.778	8.414	0.487
667.500	415.556	80.009	19.993	103.755	19.777	8.489	0.508
668.000	415.837	80.009	19.993	103.761	19.779	8.387	0.546
668.500	416.095	80.009	19.993	103.761	19.775	8.663	0.547
669.000	416.365	80.009	19.993	103.761	19.773	8.781	0.534
669.500	416.618	80.009	19.993	103.759	19.771	8.965	0.526
670.000	416.901	80.009	19.993	103.761	19.772	8.856	0.530
670.500	417.155	80.008	19.992	103.756	19.767	9.209	0.536
671.000	417.409	80.008	19.994	103.759	19.767	9.230	0.523
671.500	417.707	80.009	19.995	103.761	19.764	9.434	0.530
672.000	417.968	80.007	19.994	103.766	19.764	9.437	0.555
672.500	418.238	80.010	19.995	103.768	19.761	9.643	0.545
673.000	418.483	80.009	19.993	103.776	19.759	9.787	0.523
673.501	418.756	80.008	19.994	103.780	19.756	10.030	0.516
674.001	419.004	80.007	19.993	103.783	19.756	9.978	0.520
674.500	419.324	80.009	19.994	103.790	19.753	10.221	0.545
675.000	419.537	80.007	19.994	103.770	19.751	10.377	0.550
675.500	419.809	80.008	19.993	103.745	19.752	10.268	0.509
676.000	420.054	80.009	19.993	103.722	19.750	10.412	0.501
676.500	420.343	80.007	19.994	103.705	19.747	10.670	0.525
677.000	420.583	80.006	19.994	103.690	19.749	10.522	0.531
677.500	420.830	80.008	19.993	103.702	19.750	10.418	0.508
678.000	421.111	80.007	19.994	103.718	19.748	10.567	0.507
678.500	421.400	80.008	19.995	103.734	19.749	10.497	0.549
679.000	421.682	80.009	19.994	103.748	19.746	10.743	0.571
679.500	421.908	80.008	19.993	103.779	19.743	10.942	0.540
680.000	422.141	80.009	19.994	103.793	19.746	10.751	0.484
680.500	422.409	80.006	19.993	103.799	19.741	11.071	0.480
681.000	422.671	80.009	19.993	103.803	19.743	10.918	0.515
681.500	422.909	80.007	19.993	103.804	19.743	10.928	0.515
682.000	423.202	80.008	19.992	103.777	19.742	10.993	0.516
682.500	423.436	80.008	19.993	103.765	19.742	11.005	0.529
683.000	423.742	80.008	19.993	103.759	19.743	10.953	0.533
683.500	424.000	80.008	19.994	103.755	19.742	11.008	0.552
684.000	424.238	80.007	19.993	103.749	19.741	11.083	0.530
684.500	424.481	80.008	19.993	103.748	19.737	11.371	0.489
685.000	424.780	80.008	19.993	103.746	19.735	11.483	0.512
685.500	424.993	80.007	19.992	103.747	19.732	11.696	0.527
686.000	425.274	80.009	19.992	103.747	19.731	11.772	0.503
686.500	425.535	80.009	19.993	103.747	19.733	11.609	0.518
687.000	425.802	80.006	19.994	103.748	19.733	11.670	0.535
687.500	426.046	80.008	19.994	103.748	19.733	11.640	0.520
688.000	426.314	80.008	19.995	103.749	19.729	11.956	0.511
688.500	426.601	80.008	19.993	103.749	19.731	11.783	0.533
689.000	426.830	80.008	19.994	103.751	19.730	11.888	0.535
689.500	427.101	80.009	19.993	103.751	19.727	12.065	0.508
690.000	427.363	80.008	19.993	103.754	19.731	11.825	0.517
690.500	427.608	80.008	19.992	103.758	19.726	12.181	0.520
691.000	427.858	80.008	19.993	103.763	19.726	12.148	0.500
691.500	428.129	80.008	19.993	103.768	19.723	12.344	0.508
692.001	428.416	80.008	19.994	103.775	19.727	12.100	0.540
692.500	428.641	80.010	19.993	103.780	19.724	12.286	0.535
693.000	428.918	80.007	19.994	103.784	19.725	12.233	0.506
693.500	429.157	80.009	19.993	103.787	19.723	12.327	0.509
694.000	429.466	80.009	19.993	103.788	19.722	12.412	0.533
694.500	429.652	80.009	19.994	103.793	19.722	12.406	0.521
695.000	429.935	80.009	19.993	103.789	19.721	12.475	0.482
695.500	430.205	80.009	19.993	103.760	19.718	12.731	0.511
696.000	430.463	80.010	19.992	103.734	19.715	12.891	0.540
696.500	430.741	80.008	19.993	103.727	19.712	13.146	0.532
697.000	430.980	80.009	19.993	103.721	19.711	13.234	0.527
697.500	431.213	80.008	19.992	103.729	19.711	13.193	0.494
698.000	431.474	80.009	19.993	103.765	19.707	13.495	0.483
698.500	431.759	80.008	19.994	103.800	19.705	13.650	0.521
699.000	431.984	80.008	19.992	103.833	19.704	13.709	0.528
699.500	432.252	80.008	19.993	103.835	19.703	13.769	0.501
700.000	432.537	80.008	19.993	103.832	19.698	14.163	0.523
700.500	432.795	80.008	19.992	103.825	19.694	14.391	0.548
701.000	433.031	80.008	19.993	103.815	19.689	14.810	0.518
701.500	433.279	80.007	19.993	103.789	19.687	14.935	0.489
702.000	433.556	80.008	19.993	103.784	19.684	15.108	0.505
702.500	433.831	80.009	19.993	103.783	19.682	15.268	0.539
703.000	434.074	80.008	19.994	103.780	19.676	15.678	0.535
703.500	434.334	80.007	19.993	103.781	19.674	15.816	0.510
704.001	434.606	80.007	19.993	103.782	19.671	16.065	0.517
704.501	434.843	80.009	19.993	103.784	19.667	16.346	0.520
705.000	435.109	80.006	19.993	103.780	19.663	16.652	0.506
705.500	435.371	80.007	19.994	103.774	19.661	16.800	0.515
706.000	435.587	80.008	19.994	103.766	19.653	17.361	0.503
706.500	435.878	80.007	19.994	103.760	19.652	17.413	0.493
707.000	436.142	80.007	19.993	103.756	19.650	17.577	0.531
707.500	436.401	80.007	19.995	103.753	19.644	17.957	0.539
708.000	436.648	80.007	19.993	103.755	19.645	17.888	0.515
708.500	436.929	80.007	19.994	103.756	19.639	18.329	0.517
709.000	437.172	80.007	19.994	103.754	19.636	18.560	0.526
709.500	437.403	80.006	19.994	103.750	19.631	18.903	0.499
710.000	437.692	80.006	19.993	103.750	19.627	19.181	0.497
710.500	437.928	80.008	19.994	103.750	19.623	19.442	0.522
711.000	438.171	80.007	19.993	103.749	19.618	19.802	0.502
711.500	438.368	80.009	19.994	103.748	19.615	20.034	0.460
712.000	438.695	80.008	19.994	103.748	19.613	20.208	0.482
712.500	438.905	80.007	19.994	103.749	19.609	20.467	0.531
713.000	439.181	80.008	19.994	103.749	19.605	20.744	0.512
713.500	439.438	80.009	19.993	103.749	19.603	20.883	0.509
714.000	439.708	80.008	19.994	103.751	19.598	21.248	0.530
714.500	439.939	80.009	19.994	103.750	19.592	21.650	0.514
715.000	440.196	80.008	19.994	103.751	19.588	21.962	0.494
715.500	440.402	80.009	19.994	103.751	19.583	22.347	0.475
716.000	440.716	80.008	19.993	103.750	19.577	22.739	0.492
716.500	440.953	80.009	19.993	103.749	19.570	23.263	0.536
717.000	441.195	80.011	19.994	103.748	19.568	23.404	0.515
717.500	441.452	80.008	19.994	103.745	19.558	24.101	0.489
718.000	441.680	80.010	19.993	103.744	19.555	24.341	0.492
718.500	441.995	80.008	19.994	103.744	19.549	24.742	0.514
719.000	442.215	80.010	19.994	103.742	19.538	25.481	0.539
719.500	442.468	80.009	19.993	103.740	19.537	25.595	0.504
720.000	442.714	80.011	19.995	103.739	19.531	26.001	0.486
720.500	442.933	80.010	19.994	103.738	19.527	26.303	0.482
721.000	443.221	80.010	19.994	103.736	19.520	26.760	0.486
721.500	443.488	80.010	19.993	103.733	19.513	27.325	0.531
722.000	443.707	80.010	19.994	103.731	19.506	27.763	0.520
722.500	443.972	80.010	19.994	103.729	19.500	28.203	0.485
723.000	444.245	80.011	19.994	103.724	19.489	29.015	0.511
723.500	444.500	80.009	19.994	103.723	19.485	29.245	0.533
724.000	444.711	80.009	19.994	103.725	19.475	29.958	0.497
724.500	444.988	80.011	19.993	103.729	19.474	30.024	0.477
725.000	445.245	80.010	19.994	103.730	19.468	30.515	0.512
725.500	445.489	80.009	19.993	103.732	19.460	31.070	0.518
726.000	445.745	80.009	19.994	103.732	19.441	32.381	0.500
726.500	446.033	80.010	19.994	103.729	19.432	33.036	0.522
727.000	446.208	80.009	19.994	103.729	19.432	33.018	0.503
727.500	446.518	80.010	19.993	103.730	19.431	33.120	0.474
728.000	446.727	80.009	19.993	103.733	19.422	33.780	0.503
728.500	447.018	80.009	19.995	103.736	19.415	34.251	0.510
729.000	447.271	80.010	19.994	103.738	19.394	35.735	0.522
729.500	447.536	80.009	19.994	103.730	19.387	36.264	0.531
730.000	447.754	80.010	19.993	103.724	19.385	36.377	0.500
730.500	448.020	80.009	19.993	103.720	19.367	37.637	0.483
731.000	448.309	80.010	19.993	103.720	19.362	38.051	0.519
731.500	448.487	80.009	19.995	103.722	19.347	39.101	0.511
732.000	448.815	80.009	19.994	103.725	19.339	39.644	0.486
732.500	449.056	80.009	19.994	103.723	19.325	40.654	0.537
733.000	449.274	80.009	19.993	103.721	19.314	41.441	0.514
733.500	449.511	80.009	19.994	103.715	19.303	42.198	0.458
734.000	449.698	80.010	19.995	103.707	19.299	42.494	0.440
734.500	449.979	80.010	19.994	103.704	19.284	43.583	0.446
735.000	450.360	80.009	19.993	103.704	19.275	44.177	0.565
735.500	450.492	80.008	19.994	103.704	19.263	45.030	0.587
736.001	450.717	80.010	19.995	103.704	19.245	46.298	0.435
736.500	451.103	80.010	19.994	103.705	19.237	46.921	0.484
737.000	451.232	80.010	19.994	103.703	19.223	47.901	0.563
737.500	451.599	80.010	19.993	103.703	19.212	48.697	0.506
738.000	451.714	80.010	19.993	103.701	19.199	49.638	0.489
738.500	451.938	80.010	19.994	103.699	19.184	50.647	0.410
739.000	452.546	80.009	19.994	103.697	19.170	51.696	0.585
739.500	452.381	80.009	19.994	103.695	19.160	52.374	0.638
740.000	452.559	80.011	19.994	103.693	19.146	53.379	0.228
740.500	452.685	80.009	19.995	103.692	19.132	54.363	0.158
741.000	452.952	80.010	19.993	103.692	19.120	55.206	0.349
741.500	453.743	80.010	19.993	103.691	19.103	56.426	0.726
742.000	453.968	80.011	19.994	103.689	19.094	57.035	1.037
742.500	454.354	80.011	19.994	103.683	19.073	58.553	0.813
743.000	454.466	80.010	19.995	103.677	19.063	59.308	0.554
743.500	454.261	80.010	19.994	103.670	19.048	60.384	0.203
744.000	454.985	80.010	19.995	103.665	19.031	61.598	0.213
744.500	455.122	80.010	19.995	103.663	19.019	62.459	0.690
745.000	455.314	80.010	19.994	103.663	19.004	63.526	0.594
745.500	455.344	80.011	19.993	103.663	18.986	64.756	0.275
746.000	455.849	80.010	19.993	103.663	18.970	65.878	0.379
746.500	456.099	80.011	19.994	103.663	18.951	67.218	0.645
747.000	456.278	80.010	19.994	103.665	18.937	68.190	0.592
747.500	456.490	80.011	19.994	103.671	18.916	69.690	0.410
748.000	456.796	80.008	19.995	103.677	18.901	70.732	0.455
748.500	457.057	80.010	19.993	103.681	18.882	72.035	0.542
749.000	457.361	80.010	19.994	103.684	18.864	73.298	0.566
749.500	457.466	80.009	19.993	103.683	18.840	74.999	0.487
750.000	457.772	80.009	19.994	103.677	18.816	76.652	0.410
750.500	458.076	80.010	19.993	103.670	18.794	78.215	0.511
751.000	458.256	80.008	19.994	103.667	18.768	80.080	0.547
751.500	458.500	80.009	19.995	103.668	18.740	82.078	0.454
752.000	458.847	80.008	19.996	103.670	18.710	84.242	0.507
752.500	459.030	80.009	19.994	103.672	18.673	86.874	0.560
753.000	459.308	80.007	19.994	103.678	18.638	89.361	0.496
753.500	459.629	80.009	19.995	103.686	18.608	91.524	0.530
754.000	459.829	80.008	19.994	103.699	18.572	94.139	0.560
754.500	460.120	80.008	19.994	103.712	18.537	96.619	0.506
755.000	460.351	80.009	19.993	103.725	18.503	99.115	0.507
755.500	460.615	80.008	19.994	103.729	18.476	101.053	0.508
756.000	460.858	80.008	19.994	103.727	18.448	102.990	0.501
756.500	461.135	80.009	19.993	103.711	18.423	104.806	0.514
757.000	461.421	80.009	19.994	103.695	18.395	106.717	0.542
757.500	461.631	80.009	19.994	103.672	18.376	108.043	0.530
758.000	461.923	80.008	19.994	103.645	18.352	109.739	0.499
758.500	462.184	80.007	19.994	103.617	18.327	111.449	0.527
759.000	462.419	80.008	19.995	103.586	18.309	112.681	0.524
759.500	462.694	80.008	19.994	103.551	18.288	114.205	0.503
760.000	462.958	80.007	19.994	103.522	18.261	116.079	0.524
760.500	463.181	80.007	19.995	103.502	18.240	117.516	0.513
761.000	463.489	80.007	19.993	103.483	18.214	119.347	0.509
761.500	463.735	80.008	19.993	103.471	18.183	121.557	0.543
762.000	463.989	80.008	19.994	103.467	18.156	123.487	0.527
762.500	464.202	80.008	19.993	103.473	18.120	125.990	0.483
763.000	464.486	80.007	19.994	103.488	18.085	128.522	0.482
763.500	464.710	80.008	19.993	103.515	18.049	131.090	0.503
764.000	464.968	80.008	19.995	103.549	18.006	134.191	0.495
764.500	465.217	80.008	19.993	103.586	17.966	137.024	0.494
765.000	465.495	80.006	19.993	103.623	17.928	139.796	0.517
765.500	465.697	80.008	19.993	103.655	17.887	142.691	0.504
766.000	466.023	80.007	19.992	103.680	17.849	145.395	0.504
766.500	466.208	80.007	19.992	103.698	17.815	147.795	0.519
767.000	466.477	80.008	19.993	103.702	17.776	150.519	0.482
767.500	466.760	80.008	19.993	103.692	17.737	153.265	0.503
768.000	467.004	80.008	19.993	103.670	17.701	155.814	0.539
768.500	467.232	80.007	19.994	103.637	17.666	158.234	0.499
769.000	467.514	80.007	19.992	103.598	17.627	160.985	0.491
769.500	467.734	80.008	19.994	103.563	17.592	163.464	0.506
770.000	467.978	80.007	19.994	103.533	17.556	166.051	0.483
770.500	468.310	80.008	19.994	103.508	17.517	168.800	0.520
771.000	468.493	80.007	19.994	103.489	17.481	171.316	0.545
771.500	468.816	80.009	19.993	103.470	17.445	173.858	0.510
772.000	469.030	80.009	19.994	103.452	17.403	176.824	0.522
772.500	469.278	80.009	19.993	103.439	17.363	179.652	0.500
773.000	469.509	80.007	19.994	103.431	17.317	182.920	0.471
773.500	469.800	80.008	19.993	103.428	17.273	186.020	0.501
774.000	470.002	80.009	19.994	103.440	17.223	189.559	0.507
774.500	470.320	80.008	19.994	103.464	17.184	192.293	0.506
775.000	470.544	80.008	19.992	103.485	17.134	195.829	0.531
775.500	470.762	80.008	19.993	103.508	17.092	198.794	0.492
776.000	471.047	80.010	19.994	103.534	17.043	202.181	0.473
776.500	471.297	80.009	19.993	103.543	16.995	205.560	0.519
777.000	471.552	80.008	19.994	103.536	16.951	208.628	0.520
777.500	471.832	80.009	19.994	103.529	16.901	212.088	0.520
778.000	472.069	80.008	19.994	103.515	16.847	215.841	0.526
778.500	472.327	80.009	19.993	103.488	16.793	219.593	0.506
779.000	472.564	80.009	19.994	103.468	16.745	223.018	0.495
779.500	472.829	80.008	19.994	103.455	16.688	226.990	0.499
780.000	473.067	80.008	19.992	103.447	16.634	230.760	0.502
780.500	473.305	80.008	19.994	103.445	16.576	234.801	0.489
781.000	473.573	80.009	19.992	103.446	16.520	238.762	0.491
781.500	473.833	80.008	19.994	103.442	16.457	243.190	0.517
782.000	474.093	80.009	19.994	103.438	16.397	247.433	0.524
782.500	474.352	80.009	19.993	103.425	16.329	252.293	0.520
783.000	474.596	80.008	19.994	103.406	16.265	256.786	0.511
783.500	474.846	80.007	19.993	103.396	16.202	261.186	0.498
784.000	475.118	80.009	19.995	103.391	16.130	266.194	0.508
784.500	475.372	80.008	19.994	103.388	16.062	270.934	0.524
785.000	475.611	80.008	19.993	103.388	15.993	275.748	0.510
785.500	475.870	80.007	19.994	103.386	15.925	280.556	0.495
786.000	476.095	80.008	19.994	103.377	15.856	285.360	0.491
786.500	476.364	80.008	19.993	103.363	15.782	290.526	0.489
787.000	476.579	80.008	19.994	103.339	15.709	295.646	0.489
787.500	476.858	80.008	19.993	103.306	15.638	300.586	0.489
788.000	477.086	80.008	19.993	103.278	15.563	305.871	0.501
788.500	477.341	80.008	19.994	103.248	15.487	311.117	0.495
789.000	477.608	80.009	19.995	103.216	15.411	316.393	0.502
789.500	477.874	80.008	19.995	103.196	15.335	321.699	0.527
790.000	478.142	80.008	19.994	103.179	15.256	327.214	0.533
790.500	478.351	80.008	19.994	103.159	15.176	332.839	0.505
791.000	478.608	80.007	19.994	103.135	15.092	338.684	0.472
791.500	478.892	80.008	19.994	103.117	15.009	344.482	0.504
792.000	479.128	80.008	19.994	103.114	14.925	350.354	0.530
792.500	479.363	80.009	19.994	103.121	14.842	356.142	0.495
793.000	479.642	80.008	19.994	103.118	14.754	362.290	0.493
793.500	479.885	80.008	19.993	103.120	14.668	368.223	0.518
794.000	480.118	80.008	19.993	103.116	14.580	374.370	0.499
794.500	480.397	80.009	19.994	103.091	14.489	380.658	0.494
795.000	480.649	80.009	19.993	103.059	14.400	386.821	0.522
795.500	480.897	80.009	19.994	103.037	14.308	393.232	0.515
796.000	481.120	80.009	19.994	103.021	14.217	399.616	0.485
796.500	481.395	80.010	19.993	103.007	14.123	406.167	0.485
797.000	481.622	80.008	19.992	102.992	14.031	412.608	0.501
797.500	481.890	80.010	19.993	102.976	13.937	419.200	0.499
798.000	482.162	80.009	19.994	102.959	13.842	425.796	0.517
798.500	482.398	80.010	19.995	102.939	13.749	432.342	0.523
799.000	482.601	80.010	19.994	102.918	13.651	439.152	0.473
799.500	482.871	80.010	19.994	102.896	13.556	445.793	0.456
800.000	483.130	80.009	19.995	102.874	13.461	452.458	0.501
800.500	483.372	80.012	19.996	102.850	13.361	459.426	0.516
801.000	483.632	80.010	19.995	102.830	13.261	466.409	0.501
801.500	483.897	80.011	19.994	102.815	13.166	472.991	0.513
802.000	484.103	80.011	19.994	102.806	13.069	479.713	0.498
802.500	484.364	80.010	19.993	102.792	12.974	486.342	0.469
803.000	484.628	80.008	19.995	102.777	12.876	493.113	0.496
803.500	484.882	80.009	19.994	102.760	12.781	499.765	0.521
804.000	485.097	80.010	19.995	102.735	12.689	506.132	0.493
804.500	485.377	80.010	19.993	102.706	12.589	513.016	0.482
805.000	485.628	80.010	19.994	102.683	12.497	519.410	0.513
805.500	485.842	80.010	19.994	102.660	12.401	526.042	0.498
806.000	486.097	80.010	19.993	102.635	12.303	532.795	0.467
806.500	486.397	80.009	19.994	102.614	12.212	539.139	0.512
807.000	486.587	80.009	19.994	102.599	12.116	545.843	0.522
807.500	486.850	80.009	19.994	102.592	12.023	552.311	0.471
808.000	487.096	80.008	19.994	102.584	11.928	558.834	0.481
808.500	487.333	80.009	19.993	102.574	11.833	565.415	0.496
809.001	487.589	80.008	19.994	102.563	11.743	571.619	0.488
809.501	487.796	80.008	19.994	102.555	11.655	577.640	0.478
810.000	488.058	80.009	19.994	102.543	11.561	584.029	0.466
810.500	488.308	80.007	19.994	102.532	11.471	590.271	0.491
811.000	488.566	80.009	19.995	102.525	11.380	596.666	0.510
811.500	488.829	80.008	19.996	102.517	11.289	603.023	0.515
812.000	489.060	80.009	19.997	102.498	11.201	609.362	0.508
812.500	489.318	80.008	19.996	102.478	11.114	615.633	0.492
813.000	489.565	80.008	19.995	102.467	11.029	621.568	0.497
813.500	489.882	80.008	19.995	102.449	10.945	627.429	0.534
814.000	490.090	80.008	19.996	102.432	10.866	632.922	0.544
814.501	490.320	80.010	19.995	102.422	10.785	638.510	0.481
815.001	490.573	80.008	19.995	102.402	10.712	643.707	0.461
815.500	490.835	80.009	19.994	102.379	10.631	649.588	0.499
816.000	491.088	80.009	19.994	102.364	10.560	654.851	0.515
816.500	491.351	80.009	19.994	102.348	10.493	659.764	0.515
817.000	491.601	80.009	19.994	102.324	10.427	664.473	0.514
817.500	491.799	80.010	19.995	102.315	10.368	668.698	0.480
818.000	492.072	80.009	19.994	102.309	10.310	672.690	0.459
818.500	492.355	80.009	19.993	102.295	10.257	676.092	0.514
819.000	492.590	80.009	19.994	102.275	10.203	679.358	0.538
819.500	492.880	80.010	19.993	102.261	10.156	682.039	0.522
820.000	493.099	80.007	19.994	102.240	10.110	684.539	0.516
820.500	493.371	80.009	19.994	102.210	10.065	687.074	0.499
821.000	493.610	80.009	19.994	102.181	10.022	689.610	0.501
821.500	493.876	80.010	19.994	102.167	9.984	692.067	0.508
822.000	494.136	80.008	19.994	102.166	9.954	694.248	0.516
822.501	494.388	80.011	19.995	102.172	9.921	696.804	0.519
823.000	494.650	80.009	19.995	102.193	9.889	699.524	0.513
823.500	494.915	80.010	19.994	102.219	9.853	702.777	0.521
824.000	495.141	80.010	19.994	102.226	9.822	705.756	0.509
824.500	495.429	80.010	19.993	102.215	9.788	709.036	0.503
825.000	495.654	80.010	19.993	102.205	9.763	711.445	0.514
825.500	495.930	80.010	19.994	102.199	9.734	714.038	0.507
826.000	496.197	80.009	19.993	102.204	9.713	715.905	0.521
826.500	496.435	80.010	19.993	102.239	9.706	716.668	0.524
827.000	496.637	80.010	19.994	102.287	9.711	716.607	0.473
827.500	496.936	80.010	19.993	102.316	9.731	715.379	0.471
828.000	497.147	80.011	19.994	102.331	9.768	712.888	0.506
828.500	497.387	80.011	19.994	102.340	9.822	709.074	0.481
829.000	497.665	80.009	19.993	102.329	9.884	704.726	0.484
829.500	497.950	80.011	19.993	102.284	9.964	699.063	0.540
830.000	498.193	80.010	19.994	102.207	10.040	693.854	0.546
830.500	498.425	80.010	19.993	102.109	10.123	688.157	0.502
831.000	498.703	80.010	19.992	102.005	10.210	682.310	0.492
831.500	498.931	80.008	19.993	101.911	10.298	676.418	0.508
832.000	499.194	80.008	19.993	101.842	10.393	670.051	0.499
832.500	499.452	80.008	19.995	101.818	10.491	663.550	0.506
833.000	499.724	80.009	19.993	101.828	10.602	656.021	0.525
833.500	499.968	80.009	19.993	101.866	10.714	648.432	0.523
834.000	500.250	80.009	19.994	101.936	10.837	639.909	0.521
834.500	500.494	80.008	19.994	102.040	10.966	630.870	0.526
835.000	500.751	80.009	19.993	102.164	11.104	621.268	0.513
835.500	500.999	80.008	19.994	102.287	11.248	611.184	0.503
836.000	501.313	80.008	19.995	102.387	11.396	600.870	0.534
836.500	501.557	80.007	19.996	102.462	11.550	590.226	0.560
837.000	501.786	80.008	19.994	102.519	11.715	578.802	0.516
837.500	502.021	80.007	19.994	102.562	11.878	567.483	0.469
838.000	502.329	80.007	19.995	102.597	12.044	555.905	0.503
838.500	502.579	80.007	19.994	102.625	12.210	544.276	0.550
839.000	502.832	80.008	19.994	102.639	12.387	531.965	0.531
839.500	503.091	80.006	19.994	102.637	12.559	519.934	0.508
840.000	503.338	80.007	19.995	102.638	12.737	507.512	0.509
840.500	503.622	80.006	19.995	102.642	12.918	494.904	0.518
841.000	503.865	80.007	19.996	102.655	13.104	481.969	0.529
841.500	504.150	80.008	19.995	102.683	13.291	468.867	0.528
842.000	504.356	80.008	19.994	102.725	13.485	455.331	0.509
842.500	504.662	80.008	19.994	102.770	13.674	442.055	0.501
843.000	504.893	80.008	19.994	102.821	13.870	428.312	0.524
843.500	505.172	80.008	19.995	102.878	14.063	414.716	0.524
844.000	505.431	80.007	19.995	102.933	14.254	401.327	0.525
844.500	505.682	80.008	19.995	102.977	14.449	387.566	0.524
845.000	505.967	80.008	19.995	103.001	14.646	373.707	0.522
845.500	506.206	80.009	19.994	103.022	14.843	359.790	0.530
846.000	506.493	80.008	19.996	103.042	15.035	346.174	0.526
846.500	506.776	80.009	19.995	103.062	15.231	332.327	0.548
847.000	507.016	80.008	19.994	103.087	15.427	318.422	0.546
847.500	507.270	80.008	19.993	103.127	15.613	305.179	0.508
848.000	507.562	80.009	19.995	103.168	15.803	291.687	0.520
848.500	507.801	80.009	19.994	103.202	15.988	278.484	0.539
849.000	508.092	80.010	19.995	103.232	16.167	265.679	0.530
849.500	508.376	80.008	19.995	103.265	16.351	252.605	0.553
850.000	508.645	80.009	19.994	103.298	16.523	240.296	0.564
850.500	508.879	80.008	19.996	103.338	16.693	228.264	0.528
851.000	509.164	80.009	19.995	103.380	16.858	216.515	0.511
851.500	509.416	80.008	19.994	103.426	17.021	205.004	0.528
852.000	509.701	80.010	19.994	103.471	17.177	193.928	0.537
852.500	509.956	80.008	19.993	103.517	17.329	183.086	0.539
853.000	510.223	80.009	19.994	103.557	17.474	172.721	0.531
853.500	510.470	80.009	19.994	103.598	17.615	162.617	0.518
854.000	510.754	80.009	19.993	103.638	17.749	153.068	0.522
854.500	511.001	80.009	19.993	103.679	17.878	143.857	0.531
855.000	511.299	80.008	19.994	103.719	18.002	134.993	0.538
855.500	511.550	80.009	19.992	103.757	18.118	126.682	0.547
856.000	511.797	80.009	19.994	103.790	18.232	118.592	0.524
856.500	512.057	80.009	19.994	103.820	18.338	111.048	0.502
857.000	512.345	80.008	19.994	103.846	18.439	103.809	0.528
857.500	512.607	80.008	19.995	103.866	18.535	96.990	0.549
858.000	512.854	80.009	19.994	103.882	18.630	90.202	0.529
858.500	513.087	80.008	19.994	103.896	18.719	83.900	0.494
859.000	513.369	80.008	19.993	103.903	18.797	78.293	0.498
859.500	513.656	80.008	19.994	103.890	18.878	72.576	0.543
860.000	513.934	80.008	19.994	103.881	18.949	67.491	0.567
860.500	514.192	80.009	19.993	103.882	19.012	62.985	0.550
861.000	514.443	80.008	19.995	103.887	19.079	58.228	0.523
861.500	514.724	80.009	19.994	103.894	19.137	54.111	0.521
862.000	515.002	80.009	19.994	103.915	19.195	49.929	0.546
862.500	515.279	80.009	19.993	103.948	19.249	46.069	0.557
863.000	515.533	80.009	19.993	103.970	19.297	42.707	0.543
863.500	515.831	80.008	19.993	103.969	19.344	39.320	0.542
864.000	516.064	80.008	19.995	103.962	19.383	36.541	0.542
864.500	516.319	80.009	19.993	103.955	19.421	33.831	0.509
865.000	516.565	80.008	19.994	103.932	19.459	31.148	0.494
865.500	516.854	80.009	19.992	103.908	19.490	28.924	0.518
866.000	517.119	80.009	19.994	103.901	19.521	26.739	0.545
866.500	517.404	80.008	19.993	103.892	19.547	24.891	0.552
867.000	517.645	80.008	19.994	103.885	19.574	22.993	0.538
867.500	517.907	80.009	19.994	103.877	19.598	21.283	0.514
868.000	518.173	80.007	19.993	103.869	19.614	20.080	0.516
868.500	518.448	80.009	19.993	103.862	19.637	18.512	0.535
869.000	518.702	80.009	19.994	103.861	19.655	17.203	0.535
869.500	518.951	80.008	19.994	103.860	19.667	16.365	0.516
870.000	519.202	80.008	19.995	103.855	19.683	15.175	0.501
870.500	519.448	80.008	19.993	103.849	19.696	14.311	0.498
871.000	519.735	80.008	19.994	103.843	19.708	13.396	0.515
871.500	520.014	80.008	19.995	103.837	19.721	12.528	0.550
872.000	520.261	80.009	19.994	103.829	19.729	11.927	0.546
872.500	520.522	80.008	19.994	103.820	19.739	11.216	0.517
873.000	520.788	80.007	19.993	103.814	19.745	10.781	0.517
873.500	521.065	80.009	19.995	103.805	19.754	10.151	0.535
874.000	521.316	80.008	19.994	103.797	19.761	9.622	0.535
874.500	521.498	80.008	19.994	103.788	19.765	9.338	0.481
875.000	521.778	80.008	19.994	103.781	19.772	8.889	0.448
875.500	522.073	80.008	19.994	103.769	19.777	8.513	0.519
876.000	522.316	80.008	19.994	103.763	19.783	8.071	0.557
876.500	522.602	80.009	19.993	103.761	19.790	7.619	0.534
877.000	522.859	80.008	19.994	103.757	19.790	7.607	0.536
877.500	523.104	80.007	19.994	103.759	19.792	7.440	0.523
878.000	523.344	80.009	19.993	103.759	19.797	7.067	0.494
878.500	523.622	80.008	19.993	103.757	19.801	6.837	0.502
879.000	523.840	80.010	19.993	103.755	19.804	6.566	0.507
879.500	524.132	80.008	19.994	103.761	19.807	6.408	0.503
880.000	524.388	80.010	19.993	103.758	19.808	6.326	0.529
880.500	524.651	80.008	19.994	103.762	19.808	6.295	0.534
881.000	524.910	80.010	19.994	103.764	19.810	6.143	0.520
881.500	525.157	80.009	19.994	103.764	19.813	5.983	0.514
882.000	525.428	80.009	19.993	103.757	19.816	5.744	0.512
882.500	525.665	80.009	19.993	103.757	19.814	5.855	0.513
883.000	525.950	80.011	19.992	103.753	19.814	5.877	0.515
883.500	526.169	80.010	19.993	103.750	19.820	5.489	0.513
884.000	526.467	80.010	19.992	103.746	19.818	5.625	0.510
884.500	526.705	80.009	19.993	103.742	19.820	5.420	0.527
885.000	526.947	80.009	19.993	103.741	19.822	5.279	0.508
885.500	527.239	80.010	19.993	103.741	19.822	5.304	0.507
886.000	527.500	80.010	19.993	103.739	19.826	5.056	0.543
886.500	527.719	80.009	19.994	103.740	19.826	5.035	0.516
887.000	528.057	80.009	19.994	103.742	19.826	5.000	0.518
887.500	528.277	80.009	19.992	103.742	19.828	4.902	0.558
888.001	528.543	80.008	19.993	103.743	19.830	4.744	0.523
888.500	528.792	80.010	19.992	103.743	19.827	4.970	0.501
889.000	529.046	80.009	19.992	103.739	19.830	4.774	0.509
889.500	529.308	80.009	19.994	103.737	19.828	4.857	0.509
890.000	529.592	80.008	19.992	103.734	19.829	4.824	0.531
890.500	529.851	80.011	19.992	103.730	19.831	4.684	0.545
891.000	530.090	80.009	19.992	103.726	19.831	4.649	0.521
891.500	530.361	80.009	19.994	103.730	19.829	4.809	0.504
892.000	530.605	80.009	19.993	103.733	19.832	4.606	0.512
892.500	530.890	80.010	19.993	103.736	19.832	4.630	0.522
893.000	531.142	80.008	19.993	103.740	19.833	4.554	0.533
893.500	531.380	80.008	19.993	103.747	19.833	4.522	0.514
894.000	531.642	80.009	19.992	103.744	19.831	4.665	0.495
894.500	531.901	80.008	19.994	103.744	19.835	4.372	0.510
895.000	532.154	80.010	19.993	103.739	19.834	4.450	0.516
895.500	532.464	80.009	19.993	103.732	19.838	4.208	0.537
896.000	532.699	80.009	19.993	103.723	19.836	4.342	0.554
896.500	532.941	80.009	19.993	103.719	19.836	4.293	0.511
897.000	533.191	80.008	19.994	103.713	19.836	4.294	0.485
897.501	533.463	80.009	19.994	103.709	19.835	4.360	0.507
898.000	533.736	80.008	19.993	103.710	19.838	4.188	0.534
898.500	533.989	80.010	19.992	103.710	19.836	4.338	0.536
899.000	534.232	80.010	19.994	103.710	19.839	4.113	0.511
899.500	534.499	80.009	19.994	103.709	19.838	4.202	0.503
900.000	534.768	80.009	19.993	103.710	19.838	4.165	0.523
900.500	535.054	80.009	19.994	103.710	19.836	4.308	0.545
901.000	535.303	80.009	19.994	103.709	19.836	4.289	0.545
901.500	535.529	80.008	19.994	103.711	19.833	4.510	0.505
902.000	535.823	80.008	19.993	103.716	19.838	4.136	0.498
902.500	536.087	80.009	19.994	103.716	19.836	4.283	0.539
903.000	536.351	80.010	19.993	103.718	19.839	4.115	0.543
903.500	536.579	80.009	19.994	103.718	19.839	4.113	0.510
904.000	536.840	80.009	19.994	103.716	19.838	4.168	0.491
904.500	537.081	80.009	19.992	103.711	19.837	4.254	0.496
905.000	537.326	80.009	19.995	103.710	19.839	4.084	0.494
905.500	537.590	80.011	19.993	103.706	19.838	4.145	0.498
906.000	537.895	80.009	19.993	103.700	19.839	4.115	0.539
906.500	538.093	80.011	19.993	103.693	19.841	3.951	0.536
907.000	538.353	80.010	19.992	103.683	19.837	4.250	0.480
907.500	538.637	80.010	19.993	103.671	19.838	4.204	0.501
908.000	538.913	80.009	19.994	103.659	19.839	4.113	0.552
908.500	539.152	80.010	19.992	103.649	19.838	4.182	0.537
909.000	539.435	80.009	19.994	103.639	19.840	4.038	0.518
909.500	539.650	80.010	19.993	103.626	19.837	4.220	0.510
910.000	539.900	80.009	19.993	103.615	19.842	3.875	0.482
910.500	540.180	80.011	19.993	103.603	19.844	3.761	0.497
911.000	540.425	80.011	19.994	103.585	19.844	3.761	0.528
911.500	540.688	80.010	19.993	103.563	19.844	3.777	0.516
912.000	540.929	80.011	19.994	103.544	19.840	4.046	0.506
912.500	541.219	80.011	19.993	103.521	19.840	4.033	0.518
913.000	541.447	80.010	19.992	103.497	19.844	3.762	0.525
913.500	541.702	80.012	19.994	103.475	19.842	3.881	0.501
914.001	541.964	80.010	19.993	103.465	19.842	3.883	0.500
914.500	542.214	80.010	19.994	103.458	19.840	4.062	0.514
915.000	542.462	80.011	19.994	103.462	19.841	3.964	0.505
915.500	542.721	80.010	19.993	103.480	19.839	4.128	0.503
916.000	542.969	80.010	19.993	103.506	19.839	4.093	0.507
916.500	543.231	80.011	19.995	103.534	19.837	4.239	0.508
917.000	543.495	80.010	19.994	103.565	19.839	4.110	0.518
917.500	543.743	80.009	19.994	103.592	19.841	3.994	0.519
918.000	544.012	80.009	19.994	103.617	19.842	3.863	0.514
918.500	544.260	80.009	19.993	103.638	19.844	3.754	0.517
919.000	544.530	80.008	19.994	103.658	19.840	4.021	0.518
919.500	544.764	80.008	19.993	103.674	19.841	3.996	0.511
920.000	545.047	80.009	19.995	103.688	19.838	4.140	0.510
920.500	545.292	80.008	19.994	103.698	19.842	3.912	0.523
921.000	545.543	80.008	19.994	103.710	19.843	3.832	0.512
921.500	545.789	80.007	19.994	103.720	19.841	3.972	0.496
922.000	546.030	80.008	19.993	103.724	19.843	3.838	0.492
922.500	546.304	80.007	19.994	103.731	19.844	3.756	0.502
923.000	546.579	80.008	19.995	103.737	19.841	3.980	0.532
923.500	546.802	80.008	19.994	103.740	19.842	3.914	0.524
924.000	547.086	80.009	19.994	103.740	19.843	3.801	0.503
924.500	547.353	80.009	19.994	103.743	19.841	3.951	0.529
925.000	547.592	80.007	19.996	103.744	19.843	3.801	0.528
925.500	547.879	80.009	19.994	103.745	19.840	4.066	0.516
926.000	548.126	80.007	19.993	103.745	19.842	3.890	0.530
926.500	548.413	80.008	19.994	103.745	19.841	3.976	0.534
927.000	548.639	80.008	19.995	103.744	19.840	4.003	0.523
927.500	548.910	80.008	19.994	103.742	19.842	3.896	0.504
928.000	549.141	80.008	19.994	103.741	19.846	3.588	0.499
928.500	549.414	80.006	19.995	103.740	19.841	3.941	0.503
929.000	549.640	80.007	19.993	103.741	19.842	3.904	0.502
929.500	549.923	80.007	19.995	103.743	19.844	3.777	0.504
930.000	550.166	80.008	19.994	103.744	19.841	3.933	0.517
930.500	550.446	80.008	19.995	103.747	19.840	4.062	0.524
931.000	550.696	80.007	19.994	103.748	19.842	3.916	0.527
931.500	550.942	80.009	19.995	103.747	19.839	4.122	0.513
932.000	551.230	80.008	19.996	103.747	19.840	3.999	0.515
932.500	551.499	80.008	19.995	103.747	19.839	4.091	0.546
933.000	551.757	80.007	19.995	103.745	19.844	3.764	0.542
933.500	552.024	80.007	19.994	103.744	19.840	4.013	0.526
934.000	552.247	80.009	19.995	103.744	19.839	4.079	0.508
934.500	552.490	80.009	19.995	103.745	19.840	3.999	0.478
935.000	552.759	80.009	19.996	103.744	19.841	3.931	0.488
935.500	552.987	80.007	19.995	103.744	19.841	3.996	0.504
936.000	553.268	80.008	19.996	103.744	19.840	4.007	0.503
936.500	553.524	80.008	19.995	103.744	19.846	3.610	0.523
937.000	553.795	80.009	19.996	103.743	19.841	3.962	0.532
937.500	554.047	80.008	19.996	103.743	19.842	3.922	0.525
938.000	554.305	80.009	19.996	103.743	19.840	4.060	0.516
938.500	554.575	80.008	19.995	103.744	19.841	3.929	0.519
939.000	554.847	80.009	19.996	103.744	19.841	3.995	0.535
939.500	555.107	80.009	19.996	103.745	19.844	3.769	0.537
940.000	555.364	80.009	19.996	103.748	19.844	3.775	0.525
940.501	555.627	80.007	19.995	103.746	19.844	3.763	0.518
941.000	555.855	80.008	19.996	103.745	19.844	3.779	0.505
941.500	556.150	80.007	19.994	103.743	19.842	3.859	0.507
942.000	556.391	80.009	19.995	103.741	19.841	3.959	0.529
942.500	556.616	80.008	19.993	103.738	19.841	3.937	0.501
943.000	556.884	80.008	19.994	103.739	19.841	3.941	0.480
943.500	557.139	80.008	19.996	103.739	19.840	3.999	0.508
944.000	557.366	80.008	19.996	103.740	19.842	3.892	0.502
944.500	557.641	80.009	19.995	103.741	19.841	3.983	0.492
945.000	557.906	80.009	19.995	103.741	19.842	3.917	0.521
945.500	558.164	80.009	19.995	103.740	19.845	3.687	0.532
946.000	558.409	80.008	19.994	103.740	19.843	3.851	0.513
946.500	558.657	80.007	19.995	103.741	19.842	3.921	0.498
947.000	558.920	80.008	19.994	103.741	19.844	3.759	0.502
947.500	559.172	80.007	19.994	103.740	19.842	3.871	0.513
948.000	559.463	80.007	19.994	103.742	19.842	3.915	0.529
948.500	559.712	80.008	19.994	103.742	19.841	3.931	0.542
949.000	559.943	80.007	19.994	103.741	19.843	3.835	0.510
949.500	560.212	80.008	19.993	103.741	19.842	3.868	0.490
950.000	560.460	80.006	19.994	103.739	19.840	4.005	0.508
950.500	560.742	80.008	19.993	103.739	19.839	4.089	0.523
951.000	560.998	80.007	19.993	103.738	19.840	4.013	0.534
951.500	561.235	80.009	19.993	103.736	19.839	4.100	0.516
952.000	561.530	80.008	19.992	103.735	19.841	3.954	0.512
952.500	561.767	80.007	19.993	103.733	19.841	3.983	0.532
953.000	562.041	80.007	19.994	103.711	19.839	4.117	0.522
953.500	562.273	80.009	19.995	103.693	19.842	3.907	0.508
954.000	562.517	80.008	19.992	103.684	19.841	3.932	0.491
954.500	562.802	80.007	19.994	103.679	19.840	4.051	0.503
955.000	563.029	80.007	19.994	103.684	19.839	4.115	0.520
955.500	563.287	80.007	19.993	103.718	19.840	4.039	0.499
956.000	563.553	80.008	19.994	103.768	19.843	3.837	0.504
956.500	563.785	80.007	19.993	103.781	19.838	4.184	0.511
957.000	564.067	80.008	19.994	103.785	19.839	4.084	0.506
957.500	564.326	80.008	19.993	103.785	19.842	3.919	0.528
958.000	564.588	80.007	19.993	103.770	19.844	3.712	0.531
958.500	564.825	80.007	19.994	103.734	19.841	3.975	0.510
959.000	565.101	80.007	19.992	103.727	19.843	3.850	0.506
959.500	565.328	80.008	19.992	103.729	19.843	3.813	0.508
960.000	565.596	80.009	19.994	103.729	19.840	4.038	0.499
960.500	565.831	80.009	19.993	103.727	19.841	3.942	0.499
961.000	566.115	80.007	19.995	103.733	19.844	3.769	0.511
961.500	566.387	80.008	19.993	103.735	19.839	4.111	0.537
962.000	566.597	80.007	19.993	103.733	19.837	4.215	0.519
962.500	566.845	80.008	19.994	103.729	19.839	4.079	0.470
963.000	567.113	80.007	19.994	103.728	19.839	4.098	0.487
963.500	567.380	80.009	19.994	103.723	19.842	3.855	0.525
964.000	567.624	80.008	19.994	103.720	19.843	3.800	0.523
964.500	567.896	80.010	19.993	103.714	19.844	3.783	0.514
965.000	568.112	80.009	19.992	103.711	19.843	3.828	0.502
965.500	568.384	80.008	19.994	103.713	19.844	3.712	0.488
966.000	568.642	80.010	19.994	103.715	19.844	3.757	0.509
966.500	568.903	80.008	19.994	103.718	19.840	4.067	0.525
967.000	569.138	80.010	19.993	103.718	19.843	3.833	0.508
967.500	569.420	80.009	19.994	103.719	19.843	3.847	0.506
968.000	569.641	80.009	19.992	103.716	19.841	3.938	0.510
968.500	569.909	80.010	19.991	103.714	19.841	3.954	0.496
969.000	570.161	80.009	19.994	103.713	19.843	3.814	0.505
969.500	570.433	80.007	19.994	103.715	19.841	3.932	0.522
970.000	570.672	80.009	19.994	103.716	19.840	4.035	0.517
970.500	570.952	80.009	19.993	103.717	19.841	3.948	0.515
971.000	571.145	80.009	19.992	103.719	19.840	4.033	0.496
971.500	571.446	80.008	19.993	103.718	19.839	4.123	0.484
972.000	571.708	80.009	19.994	103.716	19.843	3.829	0.529
972.500	571.987	80.008	19.994	103.716	19.841	3.936	0.552
973.000	572.209	80.009	19.993	103.721	19.846	3.636	0.521
973.500	572.435	80.008	19.993	103.724	19.844	3.712	0.474
974.000	572.727	80.009	19.994	103.730	19.843	3.788	0.483
974.500	572.971	80.008	19.994	103.732	19.842	3.858	0.528
975.000	573.190	80.009	19.992	103.734	19.843	3.815	0.500
975.500	573.462	80.009	19.994	103.734	19.843	3.825	0.477
976.000	573.739	80.008	19.994	103.731	19.842	3.915	0.520
976.500	573.975	80.009	19.992	103.725	19.844	3.763	0.531
977.000	574.236	80.008	19.994	103.723	19.843	3.817	0.505
977.500	574.545	80.009	19.993	103.721	19.842	3.888	0.533
978.000	574.835	80.008	19.994	103.718	19.844	3.716	0.584
978.500	575.059	80.008	19.994	103.719	19.842	3.876	0.557
979.000	575.351	80.009	19.993	103.724	19.845	3.681	0.515
979.500	575.589	80.008	19.993	103.725	19.842	3.869	0.523
980.000	575.850	80.008	19.993	103.722	19.843	3.851	0.514
980.500	576.064	80.008	19.993	103.719	19.842	3.863	0.487
981.000	576.352	80.010	19.994	103.715	19.842	3.888	0.489
981.500	576.581	80.009	19.993	103.709	19.839	4.070	0.510
982.000	576.853	80.010	19.993	103.707	19.841	3.935	0.509
982.500	577.074	80.010	19.994	103.709	19.839	4.085	0.497
983.000	577.331	80.009	19.994	103.712	19.844	3.769	0.485
983.501	577.560	80.009	19.993	103.715	19.841	3.931	0.482
984.001	577.832	80.009	19.995	103.717	19.842	3.867	0.493
984.500	578.106	80.009	19.995	103.722	19.841	3.993	0.523
985.000	578.329	80.010	19.995	103.725	19.841	3.937	0.522
985.501	578.599	80.010	19.995	103.724	19.843	3.841	0.495
986.000	578.844	80.009	19.995	103.721	19.840	4.034	0.504
986.500	579.109	80.009	19.994	103.721	19.844	3.759	0.513
987.000	579.363	80.010	19.993	103.719	19.840	4.003	0.515
987.500	579.642	80.010	19.994	103.718	19.839	4.073	0.526
988.000	579.874	80.009	19.994	103.720	19.841	3.960	0.522
988.500	580.120	80.010	19.993	103.723	19.841	3.990	0.494
989.000	580.395	80.010	19.994	103.724	19.843	3.830	0.500
989.500	580.626	80.009	19.993	103.727	19.843	3.804	0.514
990.000	580.887	80.009	19.992	103.730	19.844	3.779	0.499
990.500	581.148	80.009	19.992	103.734	19.842	3.878	0.507
991.000	581.397	80.009	19.993	103.737	19.844	3.783	0.516
991.500	581.625	80.009	19.995	103.741	19.842	3.861	0.493
992.000	581.914	80.011	19.994	103.743	19.844	3.767	0.497
992.500	582.155	80.011	19.995	103.743	19.845	3.689	0.523
993.000	582.399	80.010	19.994	103.741	19.845	3.654	0.508
993.500	582.674	80.011	19.994	103.738	19.845	3.644	0.503
994.000	582.954	80.010	19.993	103.736	19.844	3.749	0.537
994.500	583.179	80.010	19.993	103.736	19.844	3.761	0.530
995.000	583.437	80.010	19.994	103.735	19.844	3.751	0.493
995.500	583.669	80.009	19.993	103.735	19.843	3.849	0.486
996.000	583.916	80.011	19.992	103.736	19.844	3.761	0.484
996.500	584.169	80.010	19.992	103.735	19.844	3.744	0.490
997.000	584.406	80.009	19.994	103.733	19.845	3.670	0.495
997.500	584.681	80.009	19.993	103.734	19.844	3.715	0.501
998.000	584.920	80.008	19.993	103.735	19.846	3.592	0.513
998.500	585.183	80.009	19.993	103.737	19.849	3.393	0.509
999.000	585.440	80.009	19.994	103.736	19.846	3.590	0.511
999.500	585.695	80.009	19.993	103.737	19.843	3.814	0.516
1000.000	585.972	80.008	19.994	103.735	19.842	3.921	0.522
1000.500	586.183	80.008	19.993	103.733	19.843	3.830	0.510
1001.000	586.441	80.008	19.994	103.730	19.845	3.699	0.478
1001.500	586.683	80.007	19.993	103.734	19.844	3.748	0.484
1002.000	586.927	80.007	19.994	103.733	19.844	3.728	0.493
1002.500	587.234	80.008	19.994	103.736	19.845	3.654	0.518
1003.000	587.489	80.009	19.993	103.735	19.843	3.814	0.556
1003.500	587.744	80.007	19.994	103.736	19.844	3.769	0.536
1004.000	588.023	80.006	19.994	103.732	19.841	3.989	0.522
1004.500	588.289	80.006	19.994	103.726	19.845	3.701	0.539
1005.000	588.526	80.008	19.995	103.721	19.843	3.841	0.524
1005.500	588.810	80.008	19.993	103.719	19.841	3.950	0.512
1006.000	589.057	80.008	19.994	103.720	19.844	3.754	0.526
1006.500	589.306	80.009	19.995	103.723	19.842	3.900	0.513
1007.000	589.613	80.008	19.994	103.731	19.840	4.057	0.526
1007.500	589.881	80.009	19.994	103.736	19.839	4.073	0.566
1008.000	590.103	80.007	19.994	103.740	19.839	4.102	0.532
1008.500	590.379	80.009	19.994	103.736	19.839	4.133	0.494
1009.000	590.608	80.007	19.994	103.733	19.842	3.878	0.502
1009.500	590.848	80.008	19.994	103.731	19.841	3.955	0.487
1010.000	591.118	80.007	19.995	103.731	19.843	3.822	0.489
1010.500	591.346	80.008	19.995	103.731	19.839	4.099	0.504
1011.000	591.635	80.008	19.994	103.736	19.842	3.900	0.508
1011.500	591.910	80.008	19.994	103.742	19.841	3.933	0.541
1012.000	592.165	80.008	19.993	103.743	19.841	3.945	0.548
1012.500	592.465	80.008	19.994	103.740	19.842	3.894	0.543
1013.000	592.717	80.008	19.994	103.735	19.844	3.783	0.553
1013.500	592.954	80.007	19.995	103.733	19.844	3.738	0.520
1014.000	593.194	80.008	19.994	103.730	19.843	3.849	0.483
1014.500	593.483	80.007	19.994	103.727	19.842	3.921	0.503
1015.000	593.721	80.008	19.995	103.729	19.843	3.800	0.528
1015.500	593.998	80.008	19.993	103.731	19.841	3.933	0.521
1016.000	594.271	80.008	19.994	103.732	19.846	3.638	0.532
1016.500	594.496	80.008	19.995	103.736	19.846	3.636	0.524
1017.000	594.776	80.008	19.994	103.736	19.843	3.843	0.502
1017.500	595.057	80.008	19.993	103.734	19.843	3.825	0.533
1018.000	595.319	80.008	19.994	103.731	19.845	3.669	0.552
1018.500	595.576	80.007	19.995	103.728	19.847	3.504	0.531
1019.000	595.812	80.007	19.995	103.726	19.844	3.751	0.506
1019.500	596.087	80.008	19.993	103.730	19.841	3.959	0.502
1020.000	596.301	80.007	19.994	103.735	19.847	3.560	0.500
1020.500	596.568	80.008	19.995	103.739	19.844	3.728	0.485
1021.000	596.851	80.008	19.994	103.740	19.846	3.572	0.515
1021.500	597.077	80.006	19.993	103.737	19.847	3.525	0.529
1022.000	597.344	80.006	19.993	103.737	19.845	3.702	0.501
1022.500	597.595	80.008	19.995	103.737	19.844	3.743	0.505
1023.000	597.923	80.007	19.993	103.737	19.844	3.772	0.548
1023.500	598.154	80.008	19.993	103.738	19.846	3.586	0.569
1024.000	598.370	80.007	19.995	103.737	19.844	3.716	0.503
1024.501	598.675	80.008	19.994	103.732	19.849	3.406	0.484
1025.001	598.924	80.006	19.995	103.731	19.846	3.611	0.537
1025.500	599.160	80.009	19.993	103.731	19.844	3.742	0.520
1026.000	599.428	80.008	19.994	103.729	19.844	3.718	0.495
1026.500	599.670	80.008	19.996	103.729	19.844	3.740	0.507
1027.000	599.952	80.009	19.994	103.729	19.845	3.666	0.516
1027.500	600.204	80.007	19.995	103.729	19.844	3.753	0.529
1028.000	600.440	80.007	19.995	103.727	19.844	3.728	0.511
1028.500	600.719	80.008	19.994	103.727	19.845	3.681	0.501
1029.000	600.952	80.008	19.995	103.724	19.844	3.712	0.513
1029.500	601.205	80.007	19.994	103.721	19.845	3.697	0.499
1030.000	601.493	80.006	19.994	103.717	19.842	3.886	0.513
1030.500	601.742	80.007	19.994	103.715	19.842	3.909	0.539
1031.000	601.998	80.007	19.995	103.719	19.843	3.814	0.521
1031.501	602.240	80.006	19.994	103.724	19.843	3.802	0.502
1032.001	602.511	80.006	19.995	103.725	19.842	3.874	0.505
1032.500	602.766	80.005	19.994	103.724	19.843	3.784	0.519
1033.000	603.013	80.007	19.995	103.722	19.845	3.667	0.514
1033.500	603.263	80.008	19.994	103.717	19.845	3.673	0.499
1034.000	603.528	80.007	19.994	103.717	19.845	3.693	0.506
1034.500	603.774	80.007	19.995	103.722	19.842	3.903	0.513
1035.000	604.062	80.007	19.996	103.722	19.842	3.901	0.523
1035.500	604.272	80.006	19.994	103.724	19.842	3.922	0.516
1036.000	604.571	80.006	19.995	103.728	19.840	4.049	0.503
1036.500	604.799	80.006	19.995	103.726	19.841	3.973	0.518
1037.000	605.052	80.007	19.994	103.725	19.843	3.788	0.504
1037.501	605.315	80.007	19.995	103.724	19.840	4.003	0.499
1038.001	605.562	80.006	19.995	103.723	19.839	4.088	0.513
1038.500	605.821	80.006	19.995	103.720	19.841	3.946	0.508
1039.000	606.096	80.007	19.994	103.722	19.843	3.811	0.520
1039.500	606.334	80.006	19.995	103.721	19.844	3.770	0.524
1040.000	606.589	80.007	19.995	103.724	19.839	4.098	0.503
1040.501	606.846	80.006	19.994	103.730	19.842	3.903	0.502
1041.001	607.089	80.008	19.994	103.733	19.840	4.001	0.506
1041.501	607.335	80.007	19.994	103.731	19.840	3.997	0.495
1042.001	607.587	80.006	19.994	103.729	19.842	3.855	0.494
1042.500	607.858	80.006	19.994	103.726	19.840	4.032	0.510
1043.000	608.091	80.008	19.995	103.720	19.844	3.771	0.513
1043.500	608.384	80.008	19.993	103.721	19.842	3.878	0.515
1044.000	608.579	80.008	19.994	103.721	19.840	4.040	0.507
1044.501	608.856	80.008	19.994	103.720	19.844	3.740	0.480
1045.001	609.116	80.009	19.993	103.718	19.841	3.991	0.505
1045.500	609.356	80.010	19.993	103.717	19.842	3.921	0.519
1046.000	609.617	80.008	19.994	103.716	19.840	4.001	0.500
1046.500	609.884	80.009	19.994	103.714	19.844	3.783	0.514
1047.000	610.112	80.010	19.994	103.716	19.844	3.769	0.512
1047.500	610.388	80.011	19.993	103.722	19.842	3.870	0.499
1048.000	610.625	80.010	19.992	103.724	19.842	3.854	0.508
1048.500	610.894	80.010	19.992	103.723	19.845	3.698	0.510
1049.000	611.134	80.009	19.993	103.724	19.844	3.757	0.508
1049.500	611.386	80.010	19.993	103.720	19.843	3.792	0.500
1050.000	611.640	80.010	19.994	103.716	19.846	3.605	0.499
1050.500	611.872	80.012	19.994	103.713	19.845	3.656	0.496
1051.000	612.172	80.010	19.993	103.710	19.842	3.915	0.509
1051.500	612.406	80.011	19.995	103.716	19.845	3.656	0.533
1052.000	612.670	80.010	19.994	103.723	19.844	3.743	0.516
1052.500	612.931	80.011	19.994	103.726	19.847	3.550	0.511
1053.001	613.158	80.010	19.994	103.731	19.846	3.593	0.507
1053.501	613.399	80.011	19.994	103.737	19.844	3.747	0.478
1054.001	613.686	80.011	19.993	103.736	19.846	3.599	0.498
1054.501	613.919	80.010	19.996	103.729	19.846	3.591	0.524
1055.001	614.162	80.011	19.993	103.726	19.846	3.632	0.499
1055.502	614.434	80.009	19.994	103.726	19.848	3.427	0.496
1056.001	614.733	80.011	19.994	103.724	19.851	3.230	0.543
1056.500	614.955	80.010	19.994	103.725	19.849	3.402	0.546
1057.000	615.211	80.008	19.994	103.732	19.846	3.632	0.500
1057.500	615.459	80.009	19.994	103.735	19.849	3.417	0.491
1058.000	615.722	80.009	19.994	103.731	19.847	3.556	0.507
1058.500	615.978	80.008	19.994	103.726	19.848	3.433	0.515
1059.000	616.259	80.009	19.995	103.718	19.848	3.451	0.528
1059.500	616.501	80.009	19.994	103.712	19.849	3.414	0.530
1060.000	616.779	80.009	19.994	103.709	19.846	3.609	0.522
1060.500	617.031	80.010	19.995	103.708	19.842	3.862	0.525
1061.000	617.289	80.009	19.996	103.712	19.848	3.462	0.520
1061.500	617.538	80.009	19.994	103.719	19.847	3.538	0.509
1062.000	617.810	80.009	19.995	103.718	19.847	3.558	0.514
1062.500	618.030	80.009	19.995	103.717	19.845	3.661	0.506
1063.000	618.288	80.009	19.995	103.717	19.847	3.509	0.485
1063.500	618.558	80.009	19.992	103.714	19.843	3.790	0.504
1064.000	618.863	80.008	19.994	103.709	19.845	3.710	0.551
1064.500	619.066	80.008	19.994	103.709	19.846	3.623	0.541
1065.000	619.310	80.009	19.994	103.708	19.849	3.422	0.478
1065.500	619.589	80.009	19.996	103.707	19.846	3.574	0.485
1066.000	619.853	80.009	19.993	103.708	19.846	3.603	0.533
1066.500	620.141	80.010	19.995	103.707	19.848	3.480	0.548
1067.000	620.338	80.010	19.994	103.707	19.847	3.511	0.519
1067.500	620.610	80.009	19.994	103.707	19.846	3.582	0.477
1068.000	620.850	80.010	19.996	103.707	19.846	3.576	0.490
1068.500	621.162	80.010	19.994	103.705	19.851	3.233	0.532
1069.000	621.409	80.010	19.994	103.712	19.849	3.368	0.556
1069.500	621.691	80.010	19.996	103.719	19.848	3.454	0.544
1070.000	621.941	80.011	19.994	103.722	19.849	3.397	0.530
1070.500	622.175	80.010	19.995	103.724	19.851	3.237	0.508
1071.000	622.453	80.012	19.996	103.725	19.847	3.539	0.498
1071.500	622.701	80.010	19.994	103.718	19.848	3.483	0.519
1072.000	622.983	80.010	19.993	103.712	19.848	3.436	0.528
1072.500	623.219	80.011	19.994	103.710	19.847	3.537	0.524
1073.000	623.457	80.012	19.996	103.709	19.847	3.561	0.496
1073.500	623.738	80.010	19.994	103.714	19.849	3.424	0.496
1074.000	623.983	80.012	19.994	103.718	19.846	3.580	0.523
1074.500	624.225	80.011	19.994	103.725	19.847	3.537	0.506
1075.000	624.491	80.011	19.994	103.728	19.849	3.393	0.497
1075.500	624.755	80.011	19.995	103.733	19.848	3.463	0.519
1076.000	624.981	80.011	19.993	103.728	19.847	3.541	0.510
1076.501	625.242	80.010	19.992	103.725	19.848	3.436	0.489
1077.001	625.502	80.010	19.994	103.719	19.847	3.551	0.504
1077.500	625.735	80.012	19.994	103.715	19.849	3.368	0.507
1078.000	626.014	80.011	19.993	103.713	19.849	3.424	0.503
1078.500	626.272	80.011	19.994	103.719	19.849	3.399	0.525
1079.000	626.498	80.012	19.993	103.725	19.847	3.524	0.510
1079.501	626.778	80.011	19.994	103.731	19.847	3.535	0.495
1080.001	627.062	80.011	19.992	103.739	19.847	3.541	0.535
1080.500	627.346	80.009	19.994	103.742	19.848	3.475	0.566
1081.000	627.575	80.010	19.993	103.739	19.847	3.551	0.540
1081.501	627.875	80.011	19.993	103.735	19.847	3.534	0.521
1082.001	628.108	80.010	19.993	103.734	19.846	3.631	0.531
1082.500	628.394	80.010	19.993	103.733	19.848	3.473	0.526
1083.000	628.643	80.009	19.993	103.731	19.848	3.493	0.527
1083.500	628.871	80.009	19.993	103.734	19.847	3.536	0.506
1084.000	629.140	80.008	19.995	103.736	19.846	3.582	0.487
1084.500	629.391	80.009	19.995	103.735	19.848	3.436	0.509
1085.000	629.661	80.008	19.993	103.729	19.846	3.606	0.520
1085.500	629.919	80.010	19.995	103.727	19.848	3.444	0.525
1086.000	630.178	80.009	19.995	103.728	19.846	3.600	0.523
1086.500	630.405	80.009	19.993	103.732	19.845	3.684	0.501
1087.000	630.665	80.009	19.994	103.735	19.846	3.637	0.486
1087.500	630.955	80.008	19.994	103.743	19.845	3.653	0.518
1088.000	631.206	80.008	19.993	103.747	19.846	3.639	0.545
1088.500	631.488	80.009	19.994	103.744	19.848	3.471	0.537
1089.001	631.695	80.009	19.993	103.740	19.848	3.481	0.511
1089.501	631.986	80.008	19.995	103.737	19.847	3.567	0.494
1090.001	632.251	80.009	19.995	103.736	19.844	3.734	0.527
1090.501	632.537	80.007	19.995	103.737	19.846	3.596	0.553
1091.000	632.766	80.009	19.995	103.740	19.846	3.575	0.533
1091.500	633.017	80.008	19.993	103.744	19.848	3.440	0.498
1092.000	633.291	80.008	19.995	103.747	19.845	3.676	0.502
1092.500	633.528	80.010	19.994	103.748	19.847	3.530	0.518
1093.000	633.787	80.008	19.994	103.744	19.844	3.779	0.503
1093.500	634.057	80.008	19.993	103.743	19.847	3.557	0.512
1094.000	634.321	80.008	19.994	103.742	19.844	3.725	0.531
1094.500	634.583	80.009	19.994	103.742	19.845	3.659	0.530
1095.000	634.853	80.008	19.994	103.742	19.845	3.663	0.529
1095.500	635.120	80.008	19.994	103.746	19.844	3.776	0.535
1096.000	635.386	80.008	19.994	103.747	19.845	3.678	0.535
1096.500	635.663	80.008	19.994	103.746	19.844	3.713	0.538
1097.000	635.906	80.008	19.994	103.747	19.847	3.514	0.532
1097.501	636.179	80.008	19.993	103.746	19.844	3.732	0.518
1098.001	636.435	80.007	19.994	103.747	19.847	3.568	0.522
1098.500	636.690	80.008	19.994	103.747	19.844	3.720	0.520
1099.000	636.955	80.007	19.994	103.747	19.842	3.863	0.516
1099.500	637.220	80.008	19.994	103.748	19.846	3.621	0.525
1100.000	637.416	80.008	19.993	103.749	19.847	3.532	0.496
1100.500	637.720	80.008	19.994	103.747	19.845	3.653	0.480
1101.000	637.983	80.007	19.993	103.745	19.846	3.618	0.534
1101.500	638.216	80.008	19.995	103.744	19.848	3.460	0.532
1102.000	638.508	80.008	19.994	103.743	19.849	3.426	0.511
1102.500	638.769	80.006	19.993	103.742	19.847	3.526	0.539
1103.001	639.047	80.008	19.995	103.743	19.845	3.670	0.546
1103.501	639.282	80.007	19.994	103.745	19.844	3.744	0.526
1104.001	639.522	80.009	19.993	103.746	19.848	3.469	0.494
1104.501	639.768	80.007	19.995	103.746	19.850	3.338	0.481
1105.000	640.062	80.007	19.994	103.748	19.848	3.447	0.513
1105.500	640.271	80.007	19.994	103.753	19.850	3.356	0.521
1106.000	640.549	80.007	19.994	103.754	19.847	3.514	0.495
1106.501	640.794	80.008	19.993	103.754	19.850	3.309	0.505
1107.001	641.066	80.008	19.995	103.753	19.851	3.284	0.520
1107.500	641.284	80.010	19.994	103.746	19.848	3.442	0.504
1108.001	641.571	80.008	19.994	103.739	19.849	3.370	0.498
1108.501	641.859	80.008	19.993	103.733	19.849	3.362	0.539
1109.001	642.135	80.008	19.995	103.732	19.847	3.534	0.570
1109.500	642.343	80.008	19.995	103.733	19.847	3.543	0.524
1110.001	642.604	80.008	19.994	103.737	19.847	3.534	0.476
1110.501	642.884	80.008	19.994	103.741	19.847	3.567	0.505
1111.001	643.136	80.008	19.995	103.744	19.848	3.496	0.537
1111.501	643.405	80.008	19.995	103.746	19.847	3.500	0.527
1112.001	643.633	80.007	19.995	103.746	19.848	3.430	0.509
1112.501	643.931	80.007	19.996	103.745	19.849	3.414	0.511
1113.001	644.146	80.008	19.995	103.743	19.846	3.627	0.519
1113.500	644.412	80.010	19.995	103.739	19.845	3.652	0.496
1114.000	644.652	80.009	19.995	103.737	19.846	3.586	0.493
1114.500	644.949	80.008	19.994	103.735	19.846	3.596	0.522
1115.000	645.166	80.007	19.994	103.730	19.845	3.655	0.526
1115.500	645.426	80.007	19.996	103.725	19.848	3.467	0.496
1116.000	645.689	80.008	19.995	103.727	19.845	3.645	0.500
1116.500	645.960	80.008	19.994	103.729	19.847	3.565	0.528
1117.000	646.227	80.008	19.995	103.731	19.845	3.699	0.536
1117.500	646.472	80.008	19.994	103.734	19.846	3.600	0.525
1118.000	646.718	80.009	19.993	103.741	19.845	3.711	0.501
1118.500	647.018	80.008	19.995	103.742	19.847	3.506	0.519
1119.000	647.271	80.009	19.994	103.741	19.844	3.781	0.550
1119.500	647.551	80.008	19.994	103.741	19.845	3.701	0.543
1120.000	647.768	80.008	19.995	103.741	19.847	3.536	0.515
1120.500	648.039	80.008	19.995	103.739	19.844	3.760	0.492
1121.000	648.281	80.009	19.995	103.739	19.844	3.734	0.501
1121.500	648.535	80.007	19.995	103.738	19.844	3.759	0.505
1122.001	648.822	80.009	19.995	103.732	19.844	3.742	0.518
1122.501	649.080	80.008	19.995	103.733	19.844	3.771	0.543
1123.000	649.335	80.008	19.995	103.731	19.845	3.670	0.529
1123.500	649.572	80.008	19.995	103.730	19.845	3.711	0.503
1124.000	649.805	80.008	19.995	103.732	19.846	3.602	0.481
1124.500	650.088	80.008	19.996	103.739	19.844	3.773	0.493
1125.000	650.369	80.009	19.995	103.740	19.846	3.613	0.540
1125.500	650.619	80.007	19.994	103.746	19.844	3.756	0.548
1126.000	650.872	80.008	19.997	103.745	19.850	3.317	0.517
1126.501	651.111	80.007	19.996	103.740	19.845	3.642	0.497
1127.001	651.363	80.008	19.995	103.737	19.847	3.508	0.491
1127.500	651.617	80.008	19.995	103.736	19.845	3.652	0.498
1128.000	651.885	80.009	19.994	103.735	19.846	3.627	0.514
1128.500	652.140	80.010	19.995	103.735	19.848	3.492	0.523
1129.000	652.409	80.008	19.995	103.740	19.849	3.381	0.523
1129.501	652.657	80.009	19.995	103.741	19.847	3.551	0.521
1130.001	652.912	80.008	19.995	103.742	19.843	3.806	0.510
1130.500	653.173	80.009	19.994	103.741	19.844	3.722	0.509
1131.001	653.413	80.009	19.996	103.741	19.844	3.720	0.508
1131.501	653.684	80.010	19.995	103.741	19.844	3.755	0.506
1132.000	653.910	80.009	19.996	103.738	19.849	3.387	0.504
1132.500	654.243	80.010	19.994	103.732	19.844	3.744	0.528
1133.000	654.443	80.009	19.995	103.730	19.844	3.781	0.546
1133.501	654.700	80.009	19.995	103.729	19.845	3.646	0.495
1134.001	654.966	80.008	19.995	103.730	19.842	3.911	0.490
1134.500	655.243	80.009	19.995	103.732	19.844	3.749	0.533
1135.000	655.498	80.010	19.994	103.738	19.845	3.658	0.538
1135.500	655.739	80.009	19.995	103.739	19.845	3.642	0.514
1136.000	656.022	80.009	19.994	103.736	19.843	3.788	0.510
1136.500	656.283	80.010	19.996	103.734	19.846	3.622	0.534
1137.000	656.514	80.008	19.994	103.734	19.848	3.488	0.518
1137.500	656.800	80.008	19.994	103.734	19.844	3.773	0.505
1138.000	656.999	80.010	19.994	103.735	19.845	3.672	0.501
1138.500	657.280	80.010	19.995	103.738	19.842	3.898	0.482
1139.000	657.517	80.010	19.993	103.736	19.845	3.701	0.499
1139.500	657.736	80.008	19.993	103.734	19.845	3.691	0.487
1140.000	657.990	80.009	19.993	103.732	19.844	3.760	0.465
1140.500	658.274	80.009	19.994	103.731	19.844	3.760	0.506
1141.000	658.539	80.009	19.993	103.730	19.843	3.830	0.544
1141.500	658.797	80.009	19.994	103.734	19.841	3.953	0.536
1142.000	659.031	80.009	19.994	103.735	19.846	3.602	0.508
1142.500	659.277	80.008	19.995	103.732	19.842	3.892	0.486
1143.000	659.549	80.010	19.995	103.731	19.841	3.990	0.499
1143.500	659.776	80.009	19.993	103.732	19.844	3.762	0.508
1144.001	660.043	80.009	19.994	103.732	19.841	3.935	0.496
1144.501	660.272	80.008	19.994	103.731	19.843	3.787	0.495
1145.000	660.534	80.009	19.994	103.728	19.842	3.893	0.494
1145.500	660.784	80.008	19.994	103.725	19.844	3.757	0.502
1146.000	661.046	80.009	19.996	103.718	19.842	3.905	0.512
1146.500	661.278	80.008	19.994	103.712	19.841	3.942	0.503
1147.000	661.550	80.009	19.994	103.709	19.842	3.920	0.499
1147.500	661.763	80.009	19.993	103.714	19.841	3.950	0.495
1148.000	662.029	80.007	19.994	103.721	19.840	4.029	0.482
1148.500	662.315	80.008	19.993	103.727	19.844	3.726	0.516
1149.000	662.526	80.010	19.994	103.733	19.842	3.915	0.524
1149.500	662.710	80.008	19.994	103.740	19.845	3.658	0.446
1150.001	663.000	80.009	19.993	103.742	19.846	3.581	0.434
1150.501	663.298	80.009	19.994	103.741	19.843	3.821	0.531
1151.000	663.555	80.009	19.994	103.741	19.847	3.552	0.571
1151.500	663.797	80.008	19.996	103.739	19.847	3.563	0.527
1152.000	664.082	80.010	19.994	103.740	19.842	3.885	0.513
1152.500	664.291	80.009	19.996	103.741	19.844	3.781	0.511
1153.001	664.546	80.009	19.994	103.741	19.844	3.740	0.479
1153.501	664.839	80.010	19.993	103.742	19.843	3.797	0.506
1154.000	665.089	80.010	19.994	103.745	19.842	3.879	0.546
1154.500	665.356	80.010	19.994	103.746	19.845	3.699	0.530
1155.000	665.548	80.009	19.995	103.746	19.842	3.877	0.488
1155.500	665.827	80.010	19.994	103.748	19.846	3.628	0.465
1156.001	666.126	80.010	19.995	103.755	19.844	3.733	0.524
1156.501	666.346	80.010	19.994	103.763	19.845	3.665	0.549
1157.000	666.603	80.011	19.993	103.765	19.849	3.363	0.498
1157.500	666.883	80.010	19.993	103.765	19.844	3.718	0.507
1158.000	667.103	80.009	19.995	103.764	19.845	3.698	0.518
1158.500	667.364	80.010	19.993	103.763	19.843	3.848	0.490
1159.000	667.614	80.010	19.994	103.761	19.848	3.440	0.496
1159.500	667.853	80.008	19.994	103.768	19.846	3.582	0.500
1160.000	668.111	80.012	19.995	103.774	19.850	3.317	0.493
1160.500	668.346	80.008	19.993	103.773	19.844	3.736	0.496
1161.001	668.643	80.011	19.994	103.768	19.845	3.645	0.513
1161.501	668.885	80.010	19.993	103.761	19.849	3.392	0.535
1162.001	669.153	80.011	19.994	103.753	19.849	3.368	0.525
1162.500	669.418	80.010	19.992	103.747	19.848	3.467	0.522
1163.000	669.615	80.009	19.994	103.747	19.845	3.656	0.497
1163.500	669.898	80.008	19.995	103.747	19.847	3.528	0.471
1164.000	670.220	80.009	19.993	103.747	19.846	3.635	0.543
1164.500	670.399	80.009	19.995	103.747	19.847	3.531	0.553
1165.000	670.662	80.010	19.995	103.747	19.845	3.683	0.471
1165.500	670.909	80.009	19.994	103.747	19.845	3.705	0.476
1166.000	671.136	80.009	19.994	103.750	19.848	3.469	0.493
1166.500	671.415	80.008	19.995	103.752	19.846	3.637	0.490
1167.000	671.657	80.009	19.994	103.755	19.849	3.370	0.513
1167.500	671.919	80.008	19.994	103.759	19.845	3.690	0.513
1168.000	672.249	80.007	19.993	103.766	19.848	3.479	0.548
1168.501	672.476	80.008	19.994	103.763	19.844	3.760	0.574
1169.001	672.715	80.007	19.995	103.761	19.847	3.516	0.512
1169.501	672.958	80.008	19.993	103.753	19.846	3.599	0.474
1170.000	673.226	80.008	19.993	103.747	19.846	3.593	0.496
1170.500	673.469	80.008	19.993	103.740	19.845	3.671	0.511
1171.000	673.749	80.007	19.994	103.741	19.847	3.545	0.517
1171.501	673.976	80.008	19.997	103.745	19.849	3.405	0.515
1172.001	674.297	80.007	19.995	103.750	19.844	3.775	0.528
1172.500	674.531	80.007	19.995	103.751	19.845	3.652	0.552
1173.000	674.778	80.008	19.995	103.748	19.846	3.629	0.518
1173.500	675.029	80.007	19.992	103.745	19.845	3.688	0.489
1174.000	675.318	80.009	19.995	103.741	19.846	3.600	0.519
1174.500	675.560	80.008	19.995	103.734	19.842	3.875	0.535
1175.000	675.823	80.007	19.994	103.728	19.847	3.559	0.518
1175.500	676.080	80.009	19.995	103.728	19.844	3.775	0.513
1176.000	676.330	80.008	19.993	103.730	19.846	3.608	0.513
1176.500	676.566	80.010	19.994	103.730	19.846	3.635	0.496
1177.000	676.833	80.010	19.994	103.733	19.845	3.701	0.494
1177.500	677.062	80.008	19.995	103.739	19.843	3.798	0.499
1178.000	677.305	80.009	19.994	103.741	19.844	3.775	0.484
1178.500	677.574	80.008	19.994	103.741	19.842	3.919	0.493
1179.001	677.789	80.008	19.994	103.741	19.842	3.915	0.498
1179.501	678.041	80.009	19.994	103.741	19.845	3.677	0.475
1180.001	678.313	80.009	19.994	103.735	19.842	3.882	0.495
1180.501	678.608	80.009	19.996	103.729	19.839	4.070	0.546
1181.000	678.822	80.008	19.993	103.724	19.842	3.881	0.538
1181.500	679.088	80.008	19.994	103.722	19.843	3.853	0.495
1182.000	679.353	80.009	19.994	103.723	19.843	3.826	0.506
1182.500	679.601	80.008	19.995	103.729	19.842	3.886	0.522
1183.000	679.830	80.010	19.995	103.736	19.839	4.072	0.495
1183.500	680.093	80.008	19.993	103.741	19.841	3.945	0.484
1184.000	680.376	80.010	19.992	103.743	19.842	3.883	0.519
1184.500	680.625	80.009	19.993	103.742	19.841	3.949	0.540
1185.000	680.848	80.010	19.995	103.744	19.843	3.799	0.502
1185.501	681.063	80.008	19.993	103.743	19.844	3.725	0.455
1186.001	681.360	80.010	19.994	103.744	19.844	3.766	0.475
1186.501	681.575	80.009	19.993	103.744	19.840	4.048	0.512
1187.001	681.834	80.008	19.996	103.745	19.840	4.052	0.493
1187.501	682.100	80.009	19.993	103.744	19.842	3.881	0.499
1188.000	682.342	80.008	19.994	103.738	19.843	3.804	0.516
1188.500	682.614	80.010	19.996	103.731	19.844	3.771	0.511
1189.000	682.854	80.008	19.994	103.726	19.843	3.834	0.513
1189.500	683.070	80.009	19.994	103.724	19.841	3.982	0.484
1190.000	683.337	80.008	19.994	103.724	19.842	3.882	0.469
1190.500	683.604	80.008	19.996	103.730	19.838	4.150	0.509
1191.000	683.840	80.009	19.993	103.737	19.843	3.799	0.518
1191.500	684.069	80.008	19.993	103.741	19.841	3.961	0.484
1192.000	684.316	80.008	19.993	103.740	19.839	4.087	0.471
1192.500	684.555	80.009	19.994	103.741	19.845	3.701	0.481
1193.000	684.811	80.008	19.995	103.740	19.841	3.971	0.490
1193.500	685.101	80.008	19.995	103.740	19.843	3.836	0.520
1194.000	685.314	80.007	19.994	103.740	19.842	3.879	0.525
1194.500	685.565	80.007	19.995	103.743	19.839	4.097	0.484
1195.001	685.769	80.008	19.994	103.746	19.841	3.960	0.459
1195.501	686.087	80.008	19.994	103.747	19.841	3.948	0.488
1196.001	686.312	80.007	19.995	103.748	19.841	3.976	0.532
1196.501	686.564	80.006	19.995	103.748	19.840	4.028	0.511
1197.001	686.819	80.008	19.994	103.746	19.841	3.951	0.492
1197.501	687.041	80.007	19.996	103.744	19.840	4.023	0.491
1198.000	687.302	80.008	19.996	103.743	19.840	4.027	0.480
1198.500	687.582	80.008	19.995	103.742	19.841	3.995	0.512
1199.000	687.794	80.007	19.993	103.737	19.840	4.021	0.516
1199.501	688.060	80.006	19.994	103.737	19.845	3.662	0.485
1200.001	688.288	80.008	19.993	103.736	19.842	3.857	0.486
1200.501	688.570	80.007	19.996	103.736	19.841	3.965	0.502
1201.001	688.828	80.008	19.995	103.737	19.841	3.996	0.525
1201.500	689.022	80.008	19.996	103.743	19.845	3.672	0.496
1202.000	689.334	80.007	19.996	103.743	19.844	3.715	0.478
1202.500	689.600	80.007	19.994	103.745	19.845	3.680	0.542
1203.000	689.826	80.008	19.994	103.746	19.844	3.781	0.535
1203.500	690.072	80.009	19.995	103.743	19.843	3.793	0.482
1204.000	690.343	80.008	19.995	103.721	19.841	3.947	0.494
1204.500	690.543	80.007	19.994	103.704	19.842	3.859	0.494
1205.001	690.819	80.007	19.994	103.694	19.845	3.646	0.474
1205.501	691.065	80.008	19.995	103.688	19.842	3.901	0.499
1206.000	691.338	80.008	19.995	103.687	19.843	3.792	0.520
1206.500	691.560	80.008	19.995	103.710	19.843	3.792	0.507
1207.000	691.839	80.007	19.995	103.736	19.844	3.748	0.498
1207.500	692.106	80.008	19.995	103.779	19.842	3.922	0.524
1208.000	692.305	80.007	19.996	103.793	19.843	3.807	0.506
1208.500	692.568	80.008	19.994	103.796	19.844	3.727	0.464
1209.001	692.848	80.007	19.996	103.796	19.840	4.011	0.503
1209.501	693.098	80.009	19.994	103.787	19.844	3.758	0.536
1210.001	693.350	80.007	19.994	103.753	19.843	3.798	0.516
1210.501	693.638	80.009	19.994	103.745	19.844	3.713	0.521
1211.000	693.890	80.008	19.994	103.746	19.841	3.935	0.540
1211.500	694.144	80.008	19.994	103.746	19.839	4.085	0.523
1212.000	694.392	80.009	19.993	103.746	19.840	4.025	0.504
1212.500	694.671	80.011	19.994	103.746	19.839	4.091	0.514
1213.000	694.887	80.010	19.994	103.746	19.839	4.070	0.511
1213.500	695.139	80.011	19.993	103.746	19.840	3.998	0.482
1214.000	695.417	80.010	19.993	103.746	19.838	4.210	0.499
1214.500	695.642	80.010	19.994	103.746	19.838	4.181	0.516
1215.000	695.939	80.010	19.993	103.744	19.835	4.370	0.512
1215.500	696.224	80.010	19.992	103.732	19.838	4.161	0.551
1216.000	696.476	80.010	19.995	103.724	19.837	4.251	0.559
1216.500	696.775	80.010	19.994	103.722	19.840	4.013	0.544
1217.000	697.059	80.009	19.994	103.722	19.839	4.080	0.567
1217.500	697.244	80.009	19.993	103.725	19.841	3.945	0.526
1218.000	697.509	80.008	19.993	103.738	19.837	4.259	0.459
1218.500	697.709	80.008	19.995	103.749	19.839	4.128	0.458
1219.001	697.996	80.010	19.995	103.750	19.835	4.405	0.476
1219.501	698.222	80.011	19.995	103.743	19.839	4.085	0.500
1220.000	698.497	80.009	19.994	103.737	19.834	4.485	0.507
1220.500	698.735	80.010	19.995	103.735	19.837	4.237	0.507
1221.000	698.977	80.009	19.995	103.731	19.837	4.235	0.496
1221.500	699.230	80.009	19.993	103.733	19.836	4.337	0.487
1222.000	699.450	80.009	19.994	103.740	19.839	4.095	0.484
1222.500	699.745	80.008	19.994	103.749	19.839	4.124	0.494
1223.000	700.034	80.008	19.995	103.750	19.839	4.097	0.550
1223.500	700.276	80.009	19.995	103.750	19.840	4.013	0.558
1224.000	700.558	80.009	19.994	103.750	19.838	4.140	0.528
1224.500	700.813	80.007	19.995	103.750	19.840	4.005	0.530
1225.000	701.038	80.007	19.995	103.748	19.840	4.029	0.508
1225.500	701.305	80.008	19.995	103.746	19.838	4.159	0.486
1226.000	701.546	80.008	19.995	103.747	19.837	4.249	0.500
1226.500	701.786	80.009	19.995	103.747	19.837	4.263	0.495
1227.001	702.055	80.009	19.995	103.747	19.838	4.152	0.495
1227.501	702.305	80.008	19.994	103.746	19.836	4.351	0.514
1228.000	702.564	80.008	19.997	103.746	19.835	4.362	0.514
1228.500	702.817	80.008	19.996	103.742	19.835	4.358	0.511
1229.000	703.050	80.008	19.996	103.741	19.835	4.395	0.499
1229.500	703.322	80.008	19.995	103.742	19.836	4.343	0.496
1230.000	703.627	80.008	19.996	103.742	19.836	4.352	0.541
1230.500	703.906	80.009	19.993	103.742	19.836	4.319	0.580
1231.000	704.143	80.008	19.995	103.745	19.838	4.191	0.550
1231.500	704.425	80.008	19.997	103.746	19.833	4.547	0.518
1232.000	704.645	80.009	19.997	103.746	19.837	4.247	0.510
1232.500	704.883	80.008	19.995	103.748	19.835	4.374	0.480
1233.000	705.140	80.008	19.994	103.748	19.834	4.483	0.476
1233.501	705.415	80.008	19.996	103.749	19.835	4.401	0.513
1234.001	705.640	80.009	19.995	103.748	19.835	4.354	0.516
1234.500	705.919	80.009	19.994	103.743	19.838	4.191	0.502
1235.000	706.156	80.007	19.995	103.741	19.835	4.362	0.510
1235.500	706.444	80.008	19.993	103.738	19.837	4.261	0.521
1236.001	706.716	80.009	19.995	103.737	19.837	4.235	0.543
1236.501	706.976	80.010	19.996	103.736	19.836	4.348	0.546
1237.000	707.229	80.009	19.994	103.740	19.836	4.328	0.522
1237.501	707.445	80.010	19.994	103.741	19.839	4.083	0.490
1238.001	707.716	80.009	19.994	103.745	19.839	4.098	0.478
1238.500	708.035	80.009	19.994	103.749	19.841	3.943	0.539
1239.000	708.253	80.009	19.993	103.750	19.840	4.036	0.564
1239.500	708.476	80.011	19.993	103.750	19.837	4.218	0.489
1240.000	708.783	80.011	19.994	103.750	19.839	4.134	0.485
1240.500	709.043	80.011	19.994	103.749	19.842	3.871	0.549
1241.000	709.302	80.012	19.993	103.746	19.842	3.888	0.543
1241.500	709.516	80.010	19.994	103.745	19.841	3.953	0.496
1242.000	709.789	80.010	19.993	103.745	19.842	3.894	0.480
1242.500	710.026	80.010	19.993	103.745	19.841	3.929	0.499
1243.000	710.297	80.010	19.993	103.746	19.840	4.068	0.509
1243.500	710.583	80.012	19.992	103.748	19.840	4.000	0.532
1244.000	710.801	80.011	19.993	103.748	19.842	3.871	0.531
1244.500	711.059	80.010	19.994	103.747	19.844	3.738	0.490
1245.000	711.339	80.010	19.993	103.746	19.840	4.021	0.507
1245.500	711.600	80.010	19.994	103.745	19.841	3.929	0.540
1246.000	711.822	80.010	19.993	103.740	19.843	3.851	0.512
1246.500	712.128	80.010	19.993	103.740	19.841	3.980	0.505
1247.000	712.381	80.010	19.992	103.739	19.845	3.675	0.543
1247.500	712.629	80.010	19.994	103.738	19.841	3.962	0.530
1248.000	712.870	80.009	19.993	103.733	19.841	3.972	0.495
1248.500	713.180	80.010	19.994	103.732	19.842	3.921	0.520
1249.000	713.408	80.010	19.994	103.732	19.839	4.136	0.544
1249.501	713.672	80.008	19.994	103.733	19.840	4.044	0.515
1250.001	713.912	80.008	19.994	103.735	19.841	3.966	0.498
1250.500	714.210	80.009	19.993	103.741	19.838	4.143	0.521
1251.001	714.457	80.009	19.994	103.745	19.841	3.935	0.541
1251.501	714.691	80.008	19.993	103.745	19.838	4.208	0.513
1252.001	714.972	80.010	19.994	103.745	19.841	3.974	0.498
1252.500	715.264	80.008	19.993	103.745	19.843	3.830	0.544
1253.000	715.549	80.008	19.994	103.745	19.842	3.887	0.575
1253.501	715.795	80.008	19.993	103.745	19.842	3.857	0.554
1254.001	716.015	80.009	19.993	103.746	19.840	4.058	0.499
1254.500	716.328	80.009	19.993	103.746	19.841	3.933	0.500
1255.000	716.573	80.007	19.993	103.747	19.836	4.313	0.545
1255.500	716.871	80.009	19.993	103.747	19.840	4.064	0.550
1256.000	717.099	80.007	19.995	103.746	19.840	4.013	0.535
1256.501	717.341	80.009	19.994	103.742	19.840	4.005	0.499
1257.001	717.620	80.008	19.997	103.738	19.837	4.263	0.496
1257.500	717.856	80.010	19.994	103.732	19.837	4.257	0.518
1258.000	718.075	80.008	19.994	103.730	19.838	4.188	0.485
1258.501	718.405	80.009	19.993	103.729	19.836	4.344	0.502
1259.001	718.658	80.008	19.995	103.730	19.839	4.138	0.566
1259.501	718.918	80.008	19.994	103.733	19.834	4.430	0.548
1260.000	719.162	80.008	19.994	103.734	19.838	4.167	0.508
1260.500	719.413	80.009	19.993	103.728	19.838	4.208	0.500
1261.000	719.652	80.009	19.994	103.725	19.836	4.304	0.493
1261.501	719.943	80.008	19.996	103.727	19.837	4.257	0.510
1262.001	720.190	80.008	19.995	103.727	19.837	4.243	0.533
1262.500	720.474	80.009	19.993	103.732	19.840	4.052	0.534
1263.000	720.743	80.009	19.996	103.740	19.839	4.128	0.542
1263.501	720.968	80.010	19.995	103.745	19.836	4.308	0.524
1264.001	721.198	80.009	19.994	103.745	19.836	4.306	0.474
1264.501	721.461	80.009	19.994	103.746	19.838	4.142	0.474
1265.000	721.727	80.009	19.994	103.746	19.839	4.115	0.512
1265.500	721.994	80.008	19.995	103.745	19.839	4.103	0.531
1266.000	722.228	80.009	19.995	103.745	19.838	4.189	0.517
1266.500	722.516	80.009	19.993	103.745	19.840	4.029	0.511
1267.000	722.754	80.010	19.993	103.745	19.842	3.886	0.524
1267.500	723.018	80.008	19.994	103.746	19.841	3.992	0.513
1268.000	723.283	80.010	19.995	103.743	19.840	4.034	0.515
1268.500	723.554	80.010	19.993	103.739	19.839	4.079	0.533
1269.000	723.780	80.009	19.995	103.738	19.838	4.161	0.517
1269.500	724.048	80.010	19.993	103.738	19.842	3.876	0.496
1270.000	724.330	80.009	19.993	103.738	19.840	4.018	0.522
1270.500	724.580	80.008	19.994	103.740	19.840	4.061	0.541
1271.000	724.836	80.008	19.993	103.744	19.841	3.960	0.519
1271.500	725.026	80.009	19.993	103.744	19.840	4.054	0.476
1272.000	725.336	80.009	19.993	103.744	19.839	4.112	0.473
1272.501	725.575	80.010	19.994	103.744	19.841	3.947	0.525
1273.001	725.811	80.009	19.995	103.744	19.840	4.056	0.512
1273.501	726.107	80.009	19.994	103.744	19.841	3.943	0.504
1274.000	726.343	80.009	19.994	103.744	19.838	4.196	0.532
1274.500	726.577	80.009	19.993	103.745	19.836	4.288	0.501
1275.000	726.831	80.010	19.993	103.745	19.839	4.124	0.479
1275.500	727.098	80.008	19.993	103.745	19.841	3.951	0.504
1276.000	727.375	80.009	19.994	103.745	19.837	4.239	0.532
1276.500	727.638	80.009	19.994	103.744	19.839	4.113	0.542
1277.000	727.849	80.009	19.994	103.743	19.838	4.154	0.507
1277.500	728.084	80.008	19.994	103.743	19.840	4.035	0.460
1278.000	728.386	80.009	19.994	103.742	19.839	4.095	0.492
1278.500	728.641	80.009	19.994	103.742	19.838	4.200	0.548
1279.000	728.851	80.009	19.992	103.739	19.838	4.193	0.511
1279.500	729.147	80.008	19.993	103.737	19.838	4.195	0.485
1280.000	729.376	80.008	19.993	103.737	19.840	4.021	0.515
1280.500	729.659	80.009	19.993	103.735	19.837	4.212	0.519
1281.000	729.921	80.007	19.993	103.730	19.837	4.224	0.529
1281.500	730.149	80.008	19.994	103.731	19.839	4.136	0.518
1282.000	730.410	80.009	19.993	103.736	19.838	4.155	0.490
1282.500	730.625	80.008	19.994	103.736	19.837	4.251	0.482
1283.001	730.903	80.008	19.995	103.740	19.839	4.070	0.484
1283.501	731.145	80.010	19.993	103.745	19.837	4.233	0.507
1284.001	731.428	80.009	19.995	103.747	19.840	4.040	0.523
1284.500	731.648	80.008	19.994	103.744	19.841	3.966	0.514
1285.000	731.900	80.008	19.993	103.743	19.839	4.075	0.487
1285.500	732.162	80.008	19.994	103.744	19.839	4.135	0.493
1286.000	732.422	80.008	19.993	103.744	19.839	4.110	0.518
1286.500	732.649	80.008	19.995	103.744	19.838	4.157	0.505
1287.000	732.920	80.009	19.994	103.747	19.837	4.231	0.493
1287.500	733.141	80.008	19.994	103.748	19.839	4.132	0.495
1288.000	733.436	80.008	19.994	103.748	19.841	3.970	0.504
1288.500	733.668	80.008	19.995	103.748	19.837	4.255	0.521
1289.000	733.906	80.007	19.995	103.748	19.838	4.179	0.498
1289.500	734.164	80.009	19.995	103.746	19.839	4.108	0.483
1290.000	734.395	80.008	19.995	103.746	19.839	4.122	0.493
1290.500	734.643	80.008	19.993	103.746	19.839	4.083	0.484
1291.000	734.932	80.008	19.994	103.744	19.838	4.196	0.508
1291.500	735.179	80.009	19.996	103.739	19.839	4.107	0.536
1292.000	735.400	80.009	19.995	103.740	19.840	4.042	0.502
1292.500	735.664	80.008	19.994	103.740	19.839	4.095	0.477
1293.000	735.915	80.009	19.994	103.740	19.840	4.028	0.500
1293.500	736.155	80.008	19.993	103.742	19.840	4.019	0.503
1294.000	736.405	80.008	19.995	103.743	19.840	4.052	0.490
1294.500	736.683	80.009	19.995	103.737	19.839	4.073	0.509
1295.000	736.906	80.008	19.995	103.729	19.840	4.025	0.514
1295.500	737.191	80.009	19.993	103.724	19.837	4.276	0.504
1296.000	737.406	80.009	19.995	103.723	19.839	4.077	0.504
1296.500	737.646	80.008	19.994	103.725	19.842	3.900	0.478
1297.000	737.921	80.009	19.996	103.731	19.841	3.982	0.485
1297.500	738.170	80.010	19.993	103.739	19.840	4.050	0.520
1298.000	738.417	80.009	19.993	103.744	19.841	3.973	0.510
1298.500	738.666	80.011	19.995	103.745	19.843	3.853	0.496
1299.000	738.943	80.009	19.995	103.746	19.840	4.002	0.511
1299.500	739.181	80.009	19.995	103.744	19.842	3.858	0.520
1300.000	739.445	80.009	19.995	103.740	19.841	3.959	0.508
1300.501	739.657	80.009	19.994	103.738	19.840	4.018	0.489
1301.001	739.907	80.010	19.994	103.733	19.841	3.985	0.469
1301.500	740.212	80.009	19.994	103.732	19.842	3.917	0.508
1302.000	740.463	80.008	19.995	103.735	19.840	4.026	0.555
1302.500	740.711	80.010	19.994	103.739	19.837	4.263	0.527
1303.000	740.911	80.010	19.992	103.737	19.838	4.162	0.474
1303.500	741.199	80.010	19.994	103.737	19.836	4.314	0.468
1304.000	741.488	80.008	19.994	103.731	19.838	4.157	0.532
1304.500	741.740	80.010	19.993	103.731	19.839	4.134	0.559
1305.000	741.996	80.009	19.993	103.731	19.841	3.984	0.525
1305.500	742.201	80.009	19.994	103.736	19.838	4.149	0.485
1306.000	742.471	80.009	19.994	103.739	19.840	4.064	0.468
1306.500	742.715	80.009	19.994	103.745	19.839	4.110	0.494
1307.000	742.983	80.010	19.994	103.740	19.839	4.110	0.513
1307.500	743.220	80.010	19.994	103.737	19.842	3.923	0.509
1308.000	743.470	80.010	19.995	103.733	19.840	4.009	0.496
