Sample ID:	C:\MCC\MCC Cal\Test\Tyvek_Wrap_MCC_30K_min_220210_R1.txt
Sample Weight (mg):	4.23
Heating Rate (C/s):	0.5
Combustor Temp (C):	900
N2 Flow Rate (cc/min):	80
O2 Flow Rate (cc/min):	20
Calibration File:	C:\MCC\MCC Cal\Coeff1 JN10440_30_210304.txt.txt
T Correction Coefficients:	0	1.024463	0
Time Shift (s):	14
*
Time (s)	Temperature (C)	N2 flow rate (cc/min)	O2 flow rate (cc/min)	Flow Rate (cc/min)	Oxygen (%)	HRR (W/g)	Heating rate (C/s)
0.000	111.151	80.005	19.993	103.673	20.069	0.111	-0.028
0.500	111.194	80.012	19.992	103.671	20.068	0.155	0.005
1.000	111.173	80.006	19.996	103.674	20.070	0.044	0.026
1.500	111.191	80.009	19.992	103.674	20.067	0.276	0.009
2.000	111.183	80.001	19.994	103.674	20.065	0.359	0.003
2.500	111.148	79.983	19.994	103.671	20.069	0.052	-0.016
3.000	111.131	80.004	19.994	103.674	20.071	-0.075	-0.047
3.500	111.182	80.004	19.994	103.672	20.068	0.159	-0.009
4.000	111.152	80.001	19.995	103.677	20.069	0.088	0.028
4.500	111.142	79.998	19.993	103.673	20.071	-0.027	-0.010
5.000	111.122	79.995	19.994	103.675	20.069	0.100	-0.035
5.500	111.130	80.007	19.993	103.673	20.070	0.031	-0.021
6.000	111.122	80.007	19.994	103.675	20.067	0.234	-0.006
6.500	111.128	80.003	19.993	103.672	20.068	0.194	-0.001
7.000	111.181	80.018	19.993	103.675	20.068	0.180	0.028
7.500	111.179	80.011	19.992	103.676	20.071	-0.081	0.055
8.000	111.150	80.000	19.996	103.678	20.070	0.000	0.010
8.500	111.157	80.005	19.990	103.673	20.066	0.284	-0.027
9.000	111.166	79.997	19.992	103.673	20.069	0.084	-0.003
9.500	111.165	80.013	19.989	103.676	20.067	0.221	0.012
10.000	111.163	80.002	19.992	103.678	20.073	-0.215	0.002
10.500	111.176	80.007	19.991	103.678	20.068	0.194	0.004
11.000	111.135	80.001	19.994	103.682	20.076	-0.451	-0.009
11.500	111.137	80.004	19.994	103.680	20.068	0.140	-0.034
12.000	111.155	80.009	19.994	103.676	20.070	0.023	-0.009
12.501	111.186	80.002	19.994	103.674	20.073	-0.226	0.035
13.001	111.107	79.993	19.991	103.675	20.071	-0.048	0.000
13.500	111.186	80.007	19.994	103.671	20.069	0.050	-0.024
14.000	111.142	80.014	19.992	103.673	20.070	0.027	0.018
14.500	111.114	80.001	19.996	103.678	20.068	0.142	-0.018
15.000	111.166	80.015	19.994	103.681	20.071	-0.086	-0.024
15.500	111.158	80.010	19.993	103.682	20.071	-0.088	0.033
16.000	111.122	80.016	19.992	103.684	20.070	0.038	-0.000
16.500	111.156	80.016	19.991	103.686	20.068	0.157	-0.023
17.000	111.131	80.002	19.994	103.686	20.073	-0.199	0.004
17.500	111.170	79.995	19.995	103.678	20.064	0.447	0.012
18.000	111.156	79.997	19.991	103.675	20.064	0.433	0.019
18.500	111.158	79.996	19.994	103.681	20.068	0.138	0.006
19.000	111.104	80.006	19.994	103.680	20.064	0.468	-0.032
19.500	111.162	80.006	19.994	103.680	20.065	0.359	-0.023
20.000	111.137	79.987	19.996	103.691	20.064	0.458	0.019
20.500	111.184	80.004	19.993	103.692	20.063	0.577	0.028
21.000	111.127	79.997	19.995	103.686	20.064	0.479	0.006
21.500	111.180	80.003	19.993	103.681	20.062	0.629	-0.008
22.000	111.175	80.011	19.993	103.679	20.063	0.533	0.022
22.500	111.164	80.004	19.993	103.681	20.063	0.571	0.017
23.000	111.174	80.003	19.993	103.686	20.059	0.887	-0.009
23.500	111.188	80.003	19.992	103.692	20.060	0.795	0.011
24.000	111.180	80.019	19.991	103.704	20.061	0.673	0.015
24.500	111.225	79.997	19.992	103.713	20.063	0.523	0.021
25.000	111.184	80.021	19.994	103.715	20.060	0.789	0.021
25.500	111.204	80.009	19.996	103.723	20.058	0.960	-0.009
26.000	111.217	79.998	19.995	103.728	20.062	0.644	0.005
26.500	111.228	80.021	19.991	103.733	20.058	0.910	0.029
27.000	111.254	79.997	19.993	103.740	20.057	1.040	0.031
27.500	111.210	79.994	19.995	103.746	20.058	0.952	0.010
28.000	111.257	80.004	19.993	103.745	20.057	0.973	-0.008
28.500	111.269	80.004	19.997	103.752	20.056	1.092	0.031
29.000	111.281	80.013	19.995	103.753	20.056	1.113	0.042
29.500	111.291	80.013	19.994	103.750	20.056	1.113	0.023
30.000	111.282	80.001	19.996	103.747	20.052	1.368	0.011
30.501	111.286	80.001	19.997	103.750	20.053	1.303	-0.002
31.001	111.325	80.015	19.996	103.748	20.049	1.615	0.019
31.500	111.319	79.977	19.997	103.750	20.050	1.548	0.038
32.000	111.339	79.998	19.991	103.754	20.050	1.514	0.023
32.500	111.351	80.005	19.994	103.762	20.048	1.713	0.023
33.001	111.359	79.984	19.998	103.768	20.046	1.881	0.027
33.501	111.401	80.005	19.992	103.774	20.044	1.983	0.035
34.001	111.434	79.998	19.995	103.790	20.044	2.034	0.062
34.500	111.430	80.005	19.996	103.798	20.045	1.936	0.052
35.000	111.454	80.010	19.996	103.807	20.042	2.178	0.024
35.500	111.531	80.008	19.993	103.814	20.042	2.187	0.061
36.000	111.513	79.999	19.996	103.825	20.041	2.203	0.080
36.500	111.515	80.004	19.997	103.822	20.040	2.274	0.022
37.000	111.562	79.996	19.998	103.827	20.040	2.285	0.017
37.500	111.618	80.004	19.994	103.829	20.039	2.398	0.076
38.001	111.653	80.014	19.994	103.836	20.037	2.519	0.097
38.501	111.726	80.004	19.993	103.841	20.036	2.588	0.099
39.001	111.743	80.001	19.993	103.851	20.036	2.643	0.099
39.500	111.817	79.985	19.995	103.856	20.037	2.553	0.091
40.000	111.868	80.008	19.993	103.860	20.033	2.810	0.108
40.500	111.864	80.005	19.994	103.861	20.034	2.739	0.086
41.000	111.941	79.990	19.994	103.855	20.032	2.887	0.060
41.500	111.958	80.025	19.990	103.846	20.034	2.758	0.084
42.000	112.009	80.003	19.994	103.842	20.032	2.923	0.081
42.500	112.079	80.011	19.992	103.838	20.030	3.113	0.094
43.000	112.133	80.009	19.993	103.836	20.030	3.099	0.123
43.500	112.160	80.004	19.994	103.843	20.028	3.203	0.103
44.000	112.253	80.006	19.995	103.850	20.031	2.967	0.100
44.500	112.319	80.022	19.990	103.855	20.031	2.990	0.140
45.000	112.348	79.994	19.992	103.865	20.025	3.428	0.127
45.500	112.394	80.010	19.991	103.874	20.030	3.103	0.084
46.000	112.481	80.012	19.993	103.876	20.025	3.470	0.104
46.500	112.508	79.999	19.995	103.875	20.024	3.507	0.124
47.000	112.615	80.013	19.994	103.871	20.028	3.214	0.125
47.501	112.657	80.003	19.994	103.867	20.026	3.411	0.142
48.001	112.770	80.004	19.993	103.863	20.025	3.424	0.152
48.501	112.843	80.017	19.993	103.865	20.027	3.328	0.170
49.000	112.855	80.011	19.996	103.872	20.028	3.266	0.135
49.500	112.961	79.998	19.995	103.874	20.031	2.970	0.102
50.000	113.041	80.005	19.994	103.874	20.028	3.259	0.152
50.500	113.126	80.016	19.994	103.873	20.027	3.345	0.175
51.000	113.217	80.006	19.993	103.869	20.027	3.332	0.171
51.500	113.272	79.998	19.996	103.864	20.025	3.477	0.162
52.000	113.333	79.997	19.996	103.863	20.026	3.395	0.131
52.501	113.395	80.021	19.992	103.857	20.027	3.322	0.119
53.001	113.541	80.010	19.991	103.858	20.023	3.584	0.165
53.501	113.628	80.023	19.992	103.860	20.025	3.480	0.221
54.000	113.733	80.008	19.993	103.861	20.025	3.492	0.213
54.500	113.809	80.006	19.993	103.865	20.024	3.536	0.186
55.000	113.887	80.001	19.995	103.870	20.025	3.480	0.167
55.501	113.976	80.016	19.993	103.874	20.022	3.676	0.161
56.001	114.074	80.006	19.994	103.878	20.022	3.712	0.177
56.500	114.155	80.004	19.994	103.879	20.025	3.494	0.183
57.000	114.265	80.002	19.995	103.880	20.022	3.659	0.186
57.500	114.353	79.999	19.994	103.879	20.023	3.622	0.195
58.000	114.441	80.025	19.991	103.880	20.022	3.708	0.187
58.500	114.571	80.026	19.991	103.884	20.022	3.729	0.197
59.000	114.657	80.008	19.993	103.892	20.020	3.876	0.217
59.500	114.787	80.002	19.994	103.901	20.019	3.920	0.216
60.000	114.867	80.006	19.994	103.909	20.020	3.828	0.213
60.501	115.004	80.010	19.993	103.911	20.018	3.991	0.213
61.001	115.072	80.004	19.995	103.906	20.016	4.152	0.211
61.500	115.224	80.005	19.995	103.904	20.018	4.006	0.213
62.000	115.279	80.027	19.991	103.901	20.019	3.914	0.214
62.500	115.405	80.017	19.994	103.904	20.019	3.930	0.194
63.000	115.517	80.006	19.994	103.908	20.018	3.985	0.209
63.500	115.639	80.013	19.994	103.915	20.019	3.903	0.236
64.000	115.742	80.006	19.993	103.920	20.014	4.313	0.230
64.500	115.880	80.016	19.992	103.924	20.017	4.104	0.233
65.000	115.981	80.007	19.995	103.929	20.019	3.926	0.240
65.500	116.106	79.991	19.993	103.930	20.014	4.278	0.232
66.000	116.201	80.007	19.993	103.925	20.014	4.322	0.223
66.500	116.334	80.016	19.991	103.922	20.015	4.194	0.224
67.000	116.439	80.007	19.993	103.921	20.017	4.094	0.233
67.500	116.623	80.010	19.994	103.913	20.013	4.351	0.264
68.001	116.726	80.006	19.992	103.914	20.014	4.297	0.288
68.501	116.826	80.003	19.994	103.918	20.015	4.198	0.245
69.000	116.984	80.007	19.993	103.923	20.014	4.305	0.231
69.500	117.097	80.005	19.994	103.929	20.013	4.383	0.265
70.000	117.213	80.003	19.993	103.936	20.013	4.345	0.250
70.500	117.352	80.006	19.993	103.939	20.016	4.163	0.242
71.000	117.503	80.004	19.994	103.941	20.012	4.460	0.272
71.501	117.645	80.005	19.993	103.941	20.015	4.196	0.291
72.001	117.767	80.008	19.993	103.941	20.013	4.377	0.278
72.500	117.916	80.011	19.993	103.941	20.014	4.327	0.267
73.000	118.094	80.006	19.993	103.942	20.012	4.440	0.299
73.500	118.169	80.000	19.994	103.941	20.011	4.542	0.290
74.000	118.330	80.008	19.992	103.942	20.010	4.649	0.245
74.500	118.441	80.002	19.994	103.942	20.009	4.699	0.254
75.000	118.611	80.000	19.993	103.938	20.009	4.689	0.276
75.501	118.754	80.004	19.992	103.936	20.011	4.517	0.297
76.001	118.873	80.000	19.993	103.936	20.010	4.621	0.287
76.500	119.065	80.005	19.993	103.935	20.008	4.766	0.287
77.001	119.226	79.999	19.995	103.935	20.008	4.739	0.332
77.501	119.344	80.004	19.993	103.938	20.009	4.697	0.316
78.001	119.515	79.997	19.992	103.939	20.011	4.523	0.284
78.500	119.673	80.004	19.994	103.938	20.009	4.699	0.309
79.000	119.825	80.013	19.991	103.937	20.010	4.592	0.319
79.500	119.959	79.996	19.995	103.936	20.009	4.663	0.298
80.001	120.106	80.010	19.992	103.939	20.008	4.776	0.284
80.501	120.284	80.004	19.994	103.940	20.010	4.613	0.303
81.000	120.428	80.001	19.993	103.941	20.005	5.009	0.324
81.500	120.621	80.006	19.993	103.944	20.008	4.745	0.329
82.000	120.753	80.001	19.993	103.946	20.006	4.938	0.331
82.500	120.957	80.017	19.990	103.942	20.006	4.904	0.331
83.000	121.096	80.003	19.993	103.946	20.010	4.607	0.340
83.500	121.267	80.006	19.992	103.954	20.009	4.726	0.326
84.000	121.418	80.005	19.993	103.956	20.007	4.864	0.316
84.500	121.602	80.012	19.991	103.955	20.007	4.848	0.329
85.000	121.771	80.007	19.992	103.960	20.007	4.865	0.344
85.500	121.926	80.006	19.994	103.955	20.006	4.905	0.339
86.000	122.126	80.003	19.994	103.947	20.006	4.934	0.339
86.500	122.308	80.013	19.994	103.944	20.007	4.825	0.368
87.000	122.474	80.005	19.993	103.945	20.006	4.907	0.365
87.500	122.643	80.007	19.994	103.941	20.006	4.909	0.342
88.000	122.817	79.996	19.994	103.941	20.006	4.898	0.339
88.500	123.004	80.006	19.995	103.939	20.008	4.791	0.352
89.000	123.141	80.014	19.992	103.936	20.008	4.785	0.343
89.500	123.364	80.016	19.992	103.936	20.008	4.747	0.342
90.000	123.522	80.002	19.994	103.938	20.008	4.792	0.371
90.501	123.692	80.013	19.992	103.936	20.009	4.710	0.355
91.001	123.896	79.995	19.993	103.939	20.010	4.604	0.351
91.501	124.075	80.001	19.994	103.943	20.007	4.870	0.378
92.000	124.286	80.017	19.991	103.942	20.007	4.804	0.386
92.500	124.434	79.995	19.993	103.944	20.008	4.760	0.375
93.000	124.657	80.010	19.992	103.945	20.003	5.116	0.366
93.501	124.807	80.001	19.992	103.947	20.005	4.984	0.372
94.001	125.024	80.013	19.991	103.944	20.007	4.834	0.370
94.501	125.198	80.011	19.993	103.945	20.007	4.851	0.379
95.001	125.388	80.010	19.992	103.944	20.005	4.964	0.378
95.501	125.572	80.014	19.998	103.947	20.006	4.889	0.369
96.001	125.760	79.999	19.994	103.949	20.007	4.878	0.373
96.501	125.982	79.999	19.996	103.958	20.006	4.897	0.391
97.000	126.178	80.015	19.994	103.956	20.007	4.856	0.414
97.500	126.401	80.013	19.994	103.958	20.008	4.752	0.419
98.000	126.585	79.996	19.994	103.956	20.006	4.911	0.413
98.500	126.826	80.013	19.992	103.952	20.005	4.997	0.416
99.001	127.027	80.004	19.994	103.945	20.005	4.999	0.433
99.501	127.133	80.004	19.994	103.948	20.006	4.901	0.374
100.000	127.385	79.991	19.994	103.950	20.005	4.959	0.333
100.500	127.606	80.003	19.994	103.954	20.005	5.003	0.415
101.000	127.805	80.000	19.993	103.957	20.006	4.911	0.446
101.500	128.008	80.005	19.993	103.961	20.004	5.108	0.411
102.000	128.180	80.014	19.992	103.966	20.006	4.890	0.388
102.500	128.415	79.989	19.995	103.966	20.005	4.969	0.391
103.000	128.632	80.003	19.993	103.959	20.006	4.892	0.430
103.500	128.833	80.007	19.994	103.959	20.004	5.048	0.435
104.000	129.051	80.010	19.992	103.954	20.007	4.860	0.419
104.500	129.258	79.998	19.993	103.955	20.007	4.841	0.422
105.000	129.475	80.015	19.991	103.958	20.008	4.752	0.424
105.500	129.656	79.986	19.994	103.971	20.006	4.888	0.411
106.000	129.893	79.997	19.994	103.972	20.011	4.566	0.408
106.500	130.101	80.012	19.992	103.972	20.006	4.918	0.432
107.000	130.343	80.006	19.993	103.965	20.005	5.006	0.448
107.500	130.524	79.981	19.996	103.963	20.008	4.738	0.437
108.001	130.765	80.006	19.995	103.955	20.005	5.003	0.423
108.501	130.957	80.023	19.989	103.957	20.007	4.848	0.427
109.001	131.201	80.004	19.993	103.963	20.005	4.997	0.434
109.501	131.473	79.999	19.994	103.966	20.006	4.892	0.476
110.000	131.631	80.009	19.993	103.963	20.009	4.661	0.473
110.500	131.883	80.025	19.991	103.963	20.006	4.888	0.420
111.000	132.070	80.000	19.993	103.962	20.005	5.003	0.424
111.500	132.290	80.009	19.991	103.956	20.004	5.055	0.423
112.000	132.531	80.005	19.994	103.958	20.006	4.932	0.434
112.500	132.756	80.002	19.995	103.957	20.012	4.444	0.464
113.001	132.987	80.014	19.993	103.953	20.008	4.775	0.461
113.501	133.235	80.008	19.994	103.948	20.006	4.917	0.467
114.000	133.454	80.004	19.993	103.947	20.007	4.835	0.473
114.500	133.646	80.010	19.990	103.942	20.005	5.015	0.439
115.000	133.914	80.005	19.994	103.943	20.005	4.961	0.436
115.500	134.137	80.001	19.990	103.949	20.003	5.120	0.476
116.000	134.361	80.017	19.992	103.954	20.004	5.062	0.469
116.500	134.597	80.000	19.993	103.963	20.006	4.924	0.454
117.000	134.830	80.009	19.995	103.970	20.008	4.792	0.464
117.500	135.094	80.009	19.992	103.968	20.002	5.188	0.483
118.000	135.327	80.016	19.992	103.971	20.008	4.798	0.497
118.500	135.530	80.006	19.993	103.972	20.008	4.746	0.467
119.000	135.750	80.011	19.993	103.962	20.004	5.054	0.429
119.500	136.009	80.011	19.991	103.957	20.006	4.909	0.451
120.000	136.232	80.009	19.993	103.960	20.005	4.957	0.480
120.500	136.485	80.009	19.992	103.953	20.005	4.975	0.479
121.000	136.697	80.003	19.994	103.950	20.005	5.005	0.471
121.500	136.974	80.014	19.994	103.954	20.005	4.990	0.477
122.000	137.219	80.008	19.994	103.955	20.005	4.967	0.506
122.500	137.415	80.003	19.994	103.956	20.004	5.059	0.481
123.001	137.673	79.996	19.994	103.956	20.004	5.046	0.447
123.501	137.891	80.014	19.993	103.956	20.005	4.971	0.465
124.000	138.158	80.014	19.993	103.954	20.007	4.864	0.480
124.500	138.403	80.013	19.992	103.956	20.008	4.749	0.498
125.000	138.603	79.999	19.995	103.952	20.008	4.749	0.479
125.500	138.838	79.991	19.995	103.950	20.005	4.986	0.440
126.000	139.096	79.989	19.995	103.948	20.004	5.051	0.464
126.500	139.395	80.003	19.993	103.950	20.004	5.065	0.525
127.000	139.574	80.005	19.996	103.954	20.004	5.036	0.518
127.500	139.795	80.001	19.992	103.957	20.005	4.961	0.439
128.000	140.061	80.007	19.993	103.962	20.004	5.088	0.443
128.500	140.259	80.008	19.993	103.966	20.004	5.105	0.475
129.000	140.551	80.002	19.994	103.966	20.003	5.111	0.477
129.500	140.776	80.007	19.993	103.961	19.999	5.434	0.503
130.000	141.012	80.009	19.992	103.960	20.000	5.352	0.489
130.500	141.282	80.005	19.994	103.957	20.001	5.269	0.484
131.000	141.505	80.007	19.994	103.951	20.004	5.039	0.500
131.500	141.771	80.010	19.993	103.947	20.004	5.054	0.491
132.000	142.014	80.006	19.994	103.945	20.001	5.288	0.499
132.500	142.242	80.011	19.993	103.940	20.003	5.173	0.490
133.000	142.523	79.991	19.995	103.939	20.005	5.013	0.490
133.500	142.717	80.006	19.992	103.939	20.002	5.233	0.492
134.000	142.972	80.006	19.994	103.941	20.001	5.327	0.462
134.500	143.201	80.006	19.993	103.942	20.001	5.340	0.467
135.000	143.467	80.007	19.993	103.943	20.003	5.170	0.490
135.500	143.741	80.005	19.992	103.946	20.002	5.210	0.518
136.000	143.987	80.012	19.991	103.947	20.000	5.380	0.530
136.500	144.259	80.008	19.995	103.947	20.007	4.877	0.519
137.000	144.492	80.014	19.992	103.944	20.002	5.212	0.511
137.500	144.715	80.018	19.991	103.946	20.002	5.217	0.480
138.000	144.960	80.013	19.992	103.946	20.002	5.204	0.462
138.500	145.228	80.005	19.993	103.946	20.002	5.189	0.490
139.000	145.516	80.014	19.992	103.943	20.004	5.049	0.535
139.500	145.739	80.012	19.994	103.946	20.001	5.298	0.534
140.000	145.974	80.015	19.991	103.943	20.003	5.134	0.485
140.500	146.234	80.019	19.992	103.943	20.002	5.233	0.476
141.000	146.473	80.011	19.992	103.947	20.000	5.361	0.497
141.500	146.720	80.016	19.991	103.950	20.006	4.923	0.492
142.000	146.955	80.008	19.993	103.957	20.001	5.298	0.484
142.501	147.228	80.009	19.993	103.960	20.002	5.222	0.495
143.000	147.453	80.009	19.995	103.959	20.005	5.028	0.503
143.500	147.677	80.003	19.993	103.953	20.004	5.050	0.473
144.000	147.976	80.013	19.992	103.950	20.007	4.843	0.486
144.500	148.192	80.006	19.993	103.944	20.005	4.964	0.520
145.000	148.482	80.018	19.991	103.941	20.003	5.138	0.510
145.500	148.719	80.020	19.993	103.945	20.002	5.258	0.516
146.000	149.013	80.004	19.992	103.948	20.005	4.958	0.529
146.500	149.234	80.011	19.992	103.953	20.006	4.898	0.523
147.000	149.464	80.014	19.994	103.953	20.007	4.833	0.483
147.500	149.747	80.007	19.992	103.955	20.006	4.931	0.482
148.001	149.999	79.999	19.993	103.954	20.006	4.929	0.524
148.500	150.276	79.995	19.994	103.953	20.007	4.803	0.532
149.000	150.461	80.013	19.993	103.948	20.008	4.753	0.496
149.500	150.745	80.011	19.992	103.944	20.007	4.832	0.466
150.000	151.025	80.005	19.992	103.944	20.009	4.656	0.517
150.500	151.305	80.014	19.992	103.941	20.011	4.554	0.562
151.000	151.474	80.006	19.993	103.940	20.007	4.826	0.504
151.500	151.761	80.004	19.994	103.942	20.007	4.851	0.452
152.000	152.021	80.007	19.992	103.943	20.007	4.818	0.502
152.500	152.309	80.006	19.995	103.944	20.007	4.822	0.548
153.000	152.560	80.008	19.993	103.944	20.004	5.036	0.543
153.500	152.750	80.000	19.995	103.943	20.005	4.967	0.489
154.000	153.039	80.003	19.995	103.943	20.007	4.808	0.460
154.500	153.285	80.006	19.993	103.939	20.007	4.835	0.507
155.001	153.522	80.002	19.992	103.937	20.004	5.046	0.509
155.500	153.789	80.007	19.996	103.936	20.007	4.826	0.493
156.000	154.031	80.004	19.996	103.936	20.008	4.795	0.506
156.500	154.295	80.007	19.994	103.936	20.012	4.476	0.507
157.000	154.532	80.009	19.996	103.939	20.006	4.890	0.504
157.500	154.808	80.004	19.996	103.939	20.009	4.658	0.508
158.000	155.087	80.017	19.994	103.937	20.009	4.721	0.534
158.500	155.295	80.019	19.994	103.939	20.008	4.740	0.520
159.000	155.572	80.003	19.994	103.942	20.007	4.862	0.486
159.500	155.818	79.994	19.995	103.940	20.007	4.839	0.504
160.000	156.044	80.005	19.996	103.935	20.006	4.925	0.497
160.500	156.331	80.004	19.994	103.935	20.005	4.977	0.492
161.000	156.576	80.009	19.994	103.931	20.004	5.109	0.523
161.500	156.824	80.006	19.993	103.929	20.007	4.839	0.513
162.000	157.090	80.006	19.994	103.932	20.002	5.222	0.504
162.500	157.376	80.005	19.993	103.937	20.006	4.949	0.533
163.000	157.624	80.003	19.995	103.938	20.007	4.861	0.542
163.500	157.878	80.013	19.992	103.937	20.006	4.940	0.518
164.000	158.148	80.016	19.993	103.938	20.006	4.905	0.514
164.500	158.397	80.000	19.994	103.940	20.009	4.708	0.522
165.000	158.633	80.021	19.990	103.942	20.006	4.913	0.502
165.500	158.878	80.007	19.993	103.945	20.005	4.997	0.483
166.000	159.132	80.016	19.994	103.940	20.006	4.899	0.489
166.500	159.376	80.002	19.992	103.936	20.007	4.878	0.499
167.000	159.584	79.999	19.994	103.932	20.007	4.809	0.476
167.500	159.850	80.016	19.995	103.927	20.007	4.857	0.463
168.000	160.141	80.010	19.994	103.919	20.007	4.805	0.515
168.500	160.371	80.004	19.993	103.927	20.006	4.892	0.539
169.000	160.641	79.984	19.993	103.931	20.010	4.616	0.510
169.500	160.901	80.008	19.992	103.934	20.005	5.001	0.515
170.000	161.172	80.007	19.993	103.938	20.007	4.851	0.531
170.500	161.453	80.015	19.991	103.938	20.009	4.698	0.541
171.000	161.647	80.005	19.991	103.938	20.005	4.984	0.513
171.500	161.932	80.025	19.993	103.938	20.006	4.907	0.477
172.000	162.181	80.015	19.992	103.937	20.006	4.898	0.506
172.500	162.417	80.001	19.994	103.936	20.004	5.055	0.509
173.000	162.653	80.004	19.993	103.934	20.004	5.055	0.478
173.500	162.910	79.999	19.994	103.927	20.005	5.003	0.483
174.000	163.156	80.006	19.991	103.918	20.004	5.041	0.498
174.500	163.439	80.011	19.993	103.914	20.005	5.009	0.516
175.000	163.645	80.017	19.991	103.916	20.007	4.871	0.509
175.500	163.940	80.011	19.993	103.920	20.004	5.049	0.495
176.000	164.190	79.994	19.994	103.921	20.008	4.767	0.523
176.500	164.476	80.010	19.993	103.919	20.006	4.909	0.541
177.000	164.698	80.010	19.995	103.924	20.009	4.695	0.522
177.500	164.961	80.011	19.992	103.921	20.009	4.700	0.496
178.000	165.235	79.985	19.994	103.919	20.008	4.769	0.512
178.500	165.503	80.012	19.993	103.918	20.007	4.849	0.540
179.000	165.699	80.015	19.993	103.921	20.006	4.883	0.502
179.500	165.971	80.008	19.992	103.918	20.007	4.814	0.466
180.000	166.222	80.019	19.993	103.916	20.007	4.813	0.496
180.500	166.492	80.014	19.993	103.918	20.005	4.984	0.522
181.000	166.760	80.007	19.993	103.919	20.004	5.064	0.529
181.501	166.991	80.007	19.995	103.917	20.006	4.928	0.519
182.000	167.208	80.002	19.993	103.914	20.005	4.982	0.474
182.500	167.534	80.010	19.993	103.909	20.010	4.618	0.495
183.000	167.776	80.000	19.993	103.905	20.007	4.832	0.555
183.500	167.971	79.986	19.995	103.908	20.009	4.654	0.502
184.000	168.246	80.005	19.995	103.905	20.008	4.786	0.454
184.500	168.509	80.005	19.995	103.906	20.007	4.851	0.504
185.000	168.762	80.014	19.993	103.908	20.006	4.913	0.527
185.500	169.021	80.005	19.993	103.911	20.008	4.752	0.514
186.000	169.253	80.000	19.994	103.910	20.006	4.916	0.501
186.500	169.502	80.009	19.992	103.911	20.010	4.591	0.486
187.000	169.736	80.006	19.995	103.912	20.006	4.937	0.483
187.500	170.034	80.015	19.992	103.911	20.006	4.919	0.508
188.000	170.286	80.004	19.993	103.913	20.020	3.817	0.541
188.500	170.478	80.011	19.992	103.914	20.016	4.162	0.497
189.000	170.740	80.005	19.993	103.924	20.006	4.914	0.449
189.500	171.006	79.995	19.994	103.930	20.002	5.261	0.491
190.000	171.280	80.015	19.993	103.935	20.003	5.116	0.534
190.500	171.533	79.993	19.995	103.933	20.004	5.085	0.533
191.000	171.763	79.993	19.996	103.927	20.008	4.766	0.505
191.500	172.032	80.014	19.992	103.915	20.005	4.965	0.491
192.000	172.231	79.993	19.994	103.910	20.005	5.022	0.484
192.500	172.581	80.023	19.990	103.909	20.004	5.032	0.508
193.000	172.802	80.018	19.992	103.915	20.006	4.893	0.560
193.500	173.027	80.004	19.993	103.924	20.006	4.888	0.509
194.000	173.266	79.999	19.992	103.931	20.006	4.947	0.455
194.500	173.566	80.015	19.994	103.930	20.005	4.976	0.501
195.000	173.790	80.014	19.991	103.928	20.008	4.768	0.531
195.500	174.046	80.013	19.994	103.922	20.006	4.881	0.501
196.000	174.290	80.004	19.993	103.914	20.008	4.739	0.490
196.500	174.569	80.003	19.992	103.914	20.006	4.926	0.512
197.000	174.786	80.011	19.992	103.921	20.007	4.861	0.509
197.500	175.020	79.995	19.993	103.927	20.006	4.911	0.474
198.000	175.237	80.005	19.992	103.932	20.008	4.754	0.451
198.500	175.544	80.010	19.995	103.939	20.005	4.993	0.487
199.000	175.732	80.014	19.993	103.935	20.009	4.685	0.510
199.500	176.004	80.010	19.993	103.926	20.007	4.827	0.478
200.000	176.276	80.008	19.993	103.923	20.008	4.762	0.502
200.500	176.510	80.015	19.994	103.918	20.007	4.838	0.525
201.000	176.744	80.005	19.993	103.910	20.005	4.961	0.487
201.500	176.932	80.008	19.992	103.911	20.007	4.844	0.445
202.000	177.228	80.008	19.992	103.910	20.006	4.920	0.453
202.500	177.448	80.012	19.992	103.906	20.006	4.944	0.500
203.000	177.716	79.997	19.993	103.910	20.006	4.915	0.502
203.500	177.995	80.018	19.991	103.914	20.006	4.911	0.517
204.000	178.232	80.013	19.993	103.921	20.006	4.900	0.531
204.500	178.537	79.998	19.994	103.920	20.007	4.810	0.529
205.000	178.739	80.010	19.993	103.914	20.006	4.890	0.525
205.500	179.015	80.014	19.990	103.906	20.007	4.850	0.492
206.000	179.263	80.012	19.990	103.904	20.007	4.861	0.501
206.500	179.455	80.005	19.993	103.900	20.004	5.062	0.483
207.000	179.759	80.019	19.991	103.901	20.007	4.815	0.468
207.500	180.027	80.014	19.990	103.910	20.010	4.605	0.534
208.000	180.283	80.019	19.993	103.917	20.007	4.841	0.548
208.500	180.501	80.002	19.993	103.917	20.010	4.617	0.498
209.000	180.764	80.012	19.992	103.916	20.011	4.525	0.478
209.500	181.018	80.005	19.993	103.919	20.007	4.875	0.500
210.000	181.244	80.009	19.994	103.914	20.005	4.955	0.498
210.500	181.505	80.008	19.992	103.910	20.007	4.837	0.483
211.000	181.746	80.007	19.992	103.910	20.005	5.009	0.494
211.500	181.986	80.002	19.994	103.912	20.003	5.118	0.492
212.000	182.239	80.005	19.992	103.911	20.005	4.988	0.487
212.500	182.484	79.997	19.992	103.915	20.003	5.109	0.496
213.000	182.726	80.013	19.993	103.916	20.002	5.201	0.493
213.500	182.986	80.013	19.993	103.913	20.006	4.952	0.495
214.000	183.222	80.010	19.992	103.909	20.005	4.958	0.499
214.500	183.492	80.001	19.993	103.910	20.007	4.870	0.501
215.000	183.760	80.015	19.991	103.906	20.005	5.015	0.522
215.500	183.969	80.012	19.994	103.906	20.006	4.931	0.507
216.000	184.225	80.011	19.994	103.908	20.003	5.130	0.471
216.500	184.486	80.007	19.997	103.914	20.004	5.076	0.491
217.000	184.716	80.006	19.994	103.912	20.001	5.289	0.504
217.500	184.981	80.000	19.994	103.913	20.004	5.095	0.493
218.000	185.214	80.004	19.993	103.910	20.004	5.051	0.497
218.500	185.472	80.007	19.996	103.908	20.004	5.040	0.495
219.001	185.728	80.006	19.994	103.901	20.004	5.088	0.503
219.500	186.023	80.005	19.994	103.902	20.003	5.114	0.533
220.000	186.240	80.002	19.993	103.899	20.001	5.268	0.531
220.500	186.540	79.993	19.994	103.901	20.004	5.063	0.515
221.000	186.762	80.007	19.993	103.904	20.002	5.185	0.519
221.500	186.979	80.009	19.995	103.905	20.000	5.373	0.480
222.000	187.263	80.005	19.992	103.904	20.001	5.298	0.470
222.500	187.523	80.011	19.993	103.905	20.003	5.122	0.523
223.000	187.751	80.017	19.994	103.904	20.003	5.149	0.516
223.500	188.001	80.010	19.994	103.902	20.002	5.241	0.483
224.000	188.253	80.003	19.994	103.898	20.000	5.344	0.490
224.500	188.452	80.005	19.995	103.899	20.003	5.132	0.477
225.000	188.738	80.005	19.994	103.897	20.003	5.130	0.468
225.500	188.956	80.007	19.994	103.897	20.005	5.012	0.495
226.000	189.189	80.000	19.994	103.898	20.002	5.240	0.477
226.500	189.440	80.011	19.992	103.900	20.000	5.376	0.467
227.000	189.681	80.005	19.994	103.903	20.002	5.190	0.488
227.500	189.951	80.009	19.993	103.902	20.002	5.234	0.502
228.000	190.191	80.010	19.994	103.902	20.000	5.362	0.510
228.500	190.455	80.014	19.994	103.900	20.000	5.340	0.507
229.000	190.688	80.006	19.992	103.901	20.002	5.224	0.501
229.500	190.910	80.012	19.992	103.900	20.003	5.120	0.477
230.000	191.161	80.014	19.992	103.900	20.001	5.306	0.464
230.500	191.400	80.014	19.992	103.902	20.002	5.208	0.481
231.000	191.656	80.005	19.994	103.903	20.002	5.208	0.492
231.500	191.853	80.016	19.992	103.902	20.003	5.115	0.474
232.000	192.132	80.019	19.994	103.902	20.003	5.141	0.465
232.500	192.384	80.014	19.991	103.903	20.003	5.164	0.503
233.000	192.630	79.992	19.995	103.904	20.005	5.021	0.514
233.500	192.886	80.004	19.994	103.899	20.002	5.226	0.500
234.000	193.125	80.018	19.993	103.900	20.005	5.025	0.498
234.500	193.398	80.016	19.992	103.900	20.004	5.100	0.504
235.000	193.594	80.008	19.995	103.904	20.003	5.172	0.491
235.500	193.868	80.002	19.994	103.900	20.003	5.142	0.470
236.000	194.055	80.003	19.993	103.898	20.005	4.996	0.465
236.500	194.354	80.003	19.994	103.890	20.007	4.862	0.473
237.000	194.574	80.004	19.994	103.887	20.003	5.147	0.503
237.500	194.811	80.003	19.995	103.883	20.001	5.279	0.488
238.000	195.110	80.003	19.994	103.885	20.003	5.124	0.497
238.500	195.320	80.022	19.991	103.891	20.002	5.260	0.523
239.000	195.581	80.005	19.995	103.900	20.003	5.139	0.490
239.500	195.815	80.005	19.994	103.901	20.005	5.015	0.483
240.000	196.057	80.014	19.994	103.902	20.003	5.182	0.486
240.500	196.326	80.000	19.994	103.902	20.002	5.218	0.493
241.000	196.532	80.016	19.994	103.901	20.005	4.969	0.493
241.500	196.831	80.005	19.994	103.898	20.003	5.109	0.490
242.000	197.073	80.009	19.995	103.898	20.004	5.069	0.523
242.500	197.325	80.020	19.992	103.899	20.003	5.142	0.518
243.000	197.564	80.012	19.994	103.902	20.006	4.950	0.493
243.500	197.765	80.005	19.996	103.903	20.002	5.256	0.466
244.000	198.063	79.996	19.995	103.901	20.004	5.103	0.469
244.500	198.307	80.017	19.993	103.901	20.001	5.304	0.520
245.000	198.539	80.005	19.996	103.900	20.003	5.145	0.509
245.500	198.799	80.002	19.994	103.893	20.001	5.285	0.484
246.000	199.059	80.005	19.995	103.893	20.003	5.147	0.505
246.500	199.290	80.010	19.994	103.894	20.002	5.202	0.505
247.000	199.550	80.005	19.995	103.896	20.000	5.365	0.491
247.500	199.755	80.002	19.996	103.896	20.002	5.237	0.478
248.000	200.074	80.012	19.993	103.897	20.003	5.143	0.495
248.500	200.311	80.004	19.996	103.900	19.999	5.444	0.540
249.000	200.543	80.000	19.996	103.900	20.000	5.385	0.512
249.500	200.766	80.006	19.997	103.900	20.003	5.143	0.462
250.000	201.050	80.009	19.994	103.900	20.003	5.122	0.481
250.500	201.295	80.008	19.995	103.902	19.999	5.438	0.517
251.000	201.542	80.003	19.994	103.899	20.001	5.283	0.510
251.500	201.797	80.003	19.994	103.897	20.002	5.203	0.497
252.000	202.040	80.006	19.995	103.894	20.001	5.327	0.500
252.500	202.259	80.006	19.994	103.895	20.001	5.310	0.480
253.000	202.523	79.997	19.995	103.894	20.002	5.249	0.472
253.500	202.754	80.016	19.996	103.892	20.003	5.159	0.489
254.000	202.997	80.007	19.994	103.896	20.003	5.111	0.484
254.500	203.294	79.997	19.996	103.899	20.005	5.004	0.507
255.000	203.504	80.008	19.995	103.896	20.003	5.149	0.524
255.500	203.793	80.009	19.995	103.897	20.003	5.147	0.503
256.000	204.045	80.003	19.993	103.898	20.002	5.256	0.520
256.500	204.277	80.010	19.993	103.898	20.000	5.342	0.513
257.000	204.525	80.013	19.993	103.897	20.000	5.356	0.482
257.500	204.777	80.001	19.994	103.904	20.000	5.392	0.490
258.000	205.016	80.010	19.994	103.904	20.005	4.979	0.495
258.500	205.258	79.999	19.994	103.905	20.000	5.377	0.486
259.000	205.483	80.006	19.993	103.904	20.004	5.048	0.474
259.500	205.728	80.006	19.994	103.904	20.000	5.406	0.469
260.000	206.036	80.015	19.992	103.899	20.005	5.030	0.512
260.500	206.283	79.989	19.994	103.902	20.003	5.126	0.554
261.000	206.516	80.010	19.994	103.899	20.005	4.969	0.517
261.500	206.788	80.013	19.994	103.900	20.002	5.193	0.493
262.000	207.058	80.005	19.994	103.899	20.003	5.122	0.523
262.500	207.271	80.004	19.993	103.900	20.005	5.030	0.513
263.000	207.531	80.003	19.995	103.897	20.000	5.344	0.479
263.500	207.765	80.005	19.993	103.898	19.999	5.421	0.483
264.000	208.020	80.011	19.993	103.899	20.003	5.170	0.491
264.500	208.299	79.998	19.996	103.900	20.002	5.220	0.512
265.000	208.499	79.999	19.994	103.899	20.001	5.295	0.506
265.500	208.758	80.003	19.995	103.898	20.002	5.249	0.469
266.000	209.046	80.007	19.994	103.899	20.001	5.316	0.503
266.500	209.242	80.008	19.993	103.897	19.999	5.465	0.516
267.000	209.510	80.004	19.994	103.899	20.001	5.289	0.474
267.500	209.795	80.008	19.994	103.902	19.999	5.476	0.508
268.000	210.043	80.003	19.994	103.902	19.995	5.724	0.543
268.500	210.292	80.001	19.994	103.903	20.001	5.308	0.515
269.000	210.563	80.006	19.993	103.900	19.998	5.494	0.508
269.500	210.823	80.011	19.993	103.896	19.999	5.427	0.525
270.000	211.028	80.005	19.994	103.898	20.000	5.394	0.498
270.500	211.299	80.005	19.993	103.897	20.002	5.233	0.471
271.000	211.534	80.006	19.994	103.896	19.999	5.480	0.491
271.500	211.796	80.008	19.994	103.900	19.999	5.458	0.502
272.000	212.073	80.011	19.994	103.902	19.998	5.544	0.518
272.500	212.283	80.000	19.994	103.902	19.999	5.428	0.513
273.000	212.519	80.007	19.995	103.904	20.003	5.162	0.467
273.500	212.766	79.993	19.996	103.903	20.001	5.271	0.464
274.000	213.082	80.006	19.995	103.900	20.001	5.309	0.522
274.500	213.294	80.005	19.994	103.901	19.996	5.671	0.545
275.000	213.539	80.007	19.994	103.899	20.000	5.345	0.493
275.500	213.773	79.989	19.997	103.897	19.999	5.481	0.468
276.000	214.105	80.003	19.998	103.892	20.001	5.325	0.522
276.500	214.307	80.009	19.993	103.895	19.996	5.647	0.550
277.000	214.539	80.003	19.995	103.896	19.999	5.471	0.485
277.500	214.808	80.006	19.996	103.896	19.998	5.502	0.468
278.000	215.060	80.012	19.991	103.897	19.998	5.535	0.511
278.500	215.266	80.006	19.995	103.902	19.997	5.629	0.489
279.000	215.556	80.010	19.993	103.898	19.997	5.566	0.477
279.500	215.800	80.015	19.993	103.895	19.998	5.510	0.515
280.000	216.045	80.008	19.993	103.894	20.000	5.401	0.512
280.500	216.249	80.004	19.996	103.895	19.998	5.523	0.469
281.000	216.533	80.012	19.992	103.894	19.998	5.515	0.468
281.500	216.807	80.014	19.993	103.899	19.997	5.621	0.523
282.000	217.040	80.008	19.992	103.898	19.996	5.646	0.533
282.500	217.291	80.016	19.994	103.891	19.999	5.439	0.496
283.000	217.533	80.005	19.994	103.885	19.999	5.482	0.488
283.500	217.789	80.011	19.993	103.878	19.998	5.564	0.496
284.000	218.029	80.007	19.994	103.872	20.000	5.370	0.498
284.500	218.270	80.011	19.994	103.871	19.997	5.623	0.489
285.000	218.515	80.010	19.992	103.878	19.997	5.628	0.483
285.500	218.754	80.011	19.992	103.883	19.999	5.423	0.485
286.000	218.991	79.999	19.994	103.890	19.997	5.569	0.480
286.500	219.278	79.994	19.993	103.892	19.999	5.473	0.500
287.000	219.523	80.023	19.992	103.896	19.996	5.705	0.528
287.500	219.761	80.011	19.992	103.892	19.998	5.544	0.508
288.000	220.027	80.013	19.992	103.885	20.000	5.372	0.493
288.500	220.253	80.006	19.993	103.879	19.998	5.558	0.498
289.000	220.554	80.013	19.993	103.877	20.002	5.244	0.510
289.500	220.739	80.008	19.994	103.871	19.998	5.505	0.507
290.000	221.010	80.016	19.992	103.871	20.000	5.399	0.471
290.500	221.241	80.009	19.992	103.878	20.001	5.321	0.479
291.000	221.488	80.005	19.993	103.884	20.000	5.382	0.490
291.500	221.770	80.005	19.993	103.889	19.998	5.533	0.504
292.000	222.041	79.999	19.993	103.888	19.999	5.474	0.541
292.500	222.247	79.977	19.996	103.888	20.001	5.336	0.514
293.000	222.489	80.008	19.993	103.881	19.997	5.581	0.463
293.500	222.753	80.008	19.994	103.875	19.995	5.782	0.477
294.000	223.015	80.001	19.992	103.873	19.995	5.775	0.516
294.500	223.282	80.008	19.994	103.877	19.998	5.516	0.528
295.000	223.521	80.003	19.994	103.879	19.996	5.662	0.518
295.500	223.750	80.006	19.993	103.887	19.995	5.786	0.487
296.000	223.984	80.003	19.994	103.892	19.996	5.704	0.465
296.500	224.269	79.998	19.994	103.894	19.997	5.589	0.491
297.000	224.534	80.013	19.993	103.892	19.997	5.570	0.534
297.500	224.818	80.005	19.993	103.894	19.999	5.430	0.549
298.000	225.010	80.004	19.995	103.893	19.998	5.553	0.512
298.500	225.288	80.007	19.993	103.887	19.999	5.446	0.473
299.000	225.512	80.004	19.994	103.887	20.000	5.409	0.486
299.500	225.787	80.012	19.993	103.883	19.998	5.563	0.500
300.000	226.069	80.003	19.993	103.875	20.002	5.254	0.528
300.500	226.291	80.009	19.994	103.870	19.999	5.469	0.531
301.000	226.544	79.988	19.994	103.870	19.998	5.562	0.489
301.500	226.753	79.995	19.993	103.869	19.998	5.493	0.468
302.000	227.055	80.013	19.992	103.870	19.999	5.480	0.487
302.500	227.297	80.000	19.992	103.871	19.999	5.461	0.528
303.000	227.496	80.012	19.993	103.870	20.000	5.373	0.493
303.500	227.817	80.015	19.991	103.867	19.998	5.501	0.481
304.000	228.054	80.007	19.994	103.869	19.998	5.511	0.539
304.500	228.296	80.019	19.993	103.871	19.997	5.613	0.518
305.000	228.572	80.005	19.994	103.873	19.996	5.689	0.499
305.500	228.798	80.004	19.994	103.872	19.998	5.551	0.510
306.000	229.033	80.015	19.992	103.873	19.998	5.501	0.481
306.500	229.302	80.005	19.994	103.874	19.996	5.704	0.483
307.000	229.564	80.014	19.993	103.873	19.998	5.558	0.518
307.500	229.808	80.008	19.992	103.869	19.995	5.734	0.518
308.000	230.061	80.008	19.995	103.867	20.000	5.384	0.501
308.500	230.295	80.020	19.991	103.866	19.999	5.476	0.491
309.000	230.519	80.011	19.994	103.863	19.996	5.660	0.472
309.500	230.802	80.015	19.993	103.861	19.999	5.448	0.483
310.000	231.055	79.996	19.994	103.861	20.001	5.329	0.522
310.500	231.349	80.013	19.992	103.859	19.998	5.538	0.542
311.000	231.561	80.007	19.993	103.864	20.003	5.107	0.527
311.500	231.836	80.014	19.995	103.863	20.000	5.404	0.497
312.000	232.089	80.011	19.993	103.865	19.998	5.509	0.507
312.500	232.304	80.008	19.994	103.867	20.001	5.288	0.498
313.000	232.551	80.010	19.995	103.870	19.998	5.522	0.465
313.500	232.812	80.007	19.994	103.863	19.999	5.472	0.485
314.000	233.108	80.007	19.993	103.860	19.998	5.531	0.533
314.500	233.347	80.009	19.994	103.860	19.995	5.751	0.546
315.000	233.573	80.013	19.993	103.859	19.997	5.589	0.500
315.500	233.835	80.010	19.994	103.858	19.997	5.568	0.477
316.000	234.060	80.006	19.994	103.861	19.996	5.689	0.488
316.500	234.324	80.013	19.992	103.863	19.998	5.547	0.488
317.000	234.585	80.008	19.993	103.868	19.998	5.562	0.507
317.500	234.833	80.000	19.994	103.871	19.998	5.549	0.517
318.000	235.077	80.013	19.992	103.875	19.996	5.714	0.500
318.500	235.347	80.006	19.994	103.878	19.994	5.827	0.503
319.000	235.569	79.997	19.996	103.879	19.994	5.857	0.503
319.500	235.839	80.014	19.994	103.872	19.996	5.687	0.492
320.000	236.079	80.001	19.995	103.868	19.996	5.675	0.500
320.500	236.359	80.008	19.994	103.863	19.995	5.773	0.515
321.000	236.587	80.010	19.993	103.860	19.996	5.649	0.515
321.500	236.858	80.007	19.994	103.860	19.997	5.589	0.504
322.000	237.094	80.005	19.995	103.862	19.998	5.507	0.503
322.500	237.385	80.017	19.991	103.862	19.995	5.733	0.517
323.000	237.607	79.996	19.993	103.868	19.994	5.870	0.520
323.500	237.821	80.005	19.995	103.871	19.994	5.807	0.474
324.000	238.088	80.007	19.994	103.878	19.993	5.886	0.459
324.500	238.374	80.008	19.993	103.879	19.993	5.903	0.517
325.000	238.608	80.016	19.993	103.879	19.995	5.763	0.537
325.500	238.829	80.001	19.995	103.878	19.997	5.599	0.487
326.000	239.094	80.007	19.995	103.874	19.996	5.658	0.471
326.500	239.371	80.008	19.994	103.869	19.995	5.746	0.514
327.000	239.576	80.008	19.994	103.868	19.996	5.698	0.512
327.500	239.825	80.009	19.994	103.867	19.996	5.643	0.468
328.000	240.081	80.006	19.994	103.864	19.994	5.846	0.480
328.500	240.311	80.006	19.994	103.864	19.993	5.903	0.496
329.000	240.524	80.009	19.994	103.863	19.993	5.915	0.464
329.500	240.782	80.008	19.993	103.864	19.994	5.867	0.457
330.000	241.041	80.003	19.992	103.864	19.992	5.979	0.494
330.500	241.291	80.005	19.993	103.866	19.991	6.048	0.513
331.000	241.521	80.008	19.993	103.865	19.997	5.631	0.494
331.500	241.753	80.008	19.994	103.866	19.996	5.713	0.471
332.000	242.062	80.006	19.994	103.865	19.994	5.851	0.502
332.500	242.308	80.010	19.993	103.865	19.993	5.907	0.548
333.000	242.543	80.006	19.994	103.865	19.993	5.905	0.518
333.500	242.797	80.009	19.994	103.868	19.991	6.083	0.485
334.000	243.042	80.010	19.994	103.873	19.995	5.777	0.494
334.500	243.281	80.007	19.994	103.873	19.995	5.758	0.492
335.000	243.520	80.002	19.993	103.872	19.995	5.764	0.481
335.500	243.803	80.004	19.996	103.870	19.995	5.754	0.499
336.000	244.046	80.005	19.996	103.868	19.993	5.900	0.524
336.500	244.298	80.005	19.994	103.863	19.995	5.754	0.511
337.000	244.559	80.005	19.994	103.862	19.995	5.739	0.504
337.500	244.764	80.005	19.996	103.864	19.993	5.932	0.490
338.000	245.023	80.005	19.994	103.864	19.991	6.078	0.465
338.500	245.254	80.008	19.993	103.864	19.993	5.890	0.477
339.000	245.529	80.003	19.994	103.866	19.992	6.007	0.498
339.500	245.777	80.008	19.994	103.867	19.990	6.132	0.514
340.000	246.021	80.005	19.996	103.869	19.992	5.961	0.507
340.500	246.272	80.009	19.995	103.872	19.989	6.227	0.493
341.000	246.524	80.005	19.995	103.875	19.990	6.170	0.499
341.500	246.756	80.005	19.995	103.875	19.987	6.350	0.494
342.000	247.002	80.007	19.994	103.873	19.992	6.023	0.481
342.500	247.267	80.005	19.994	103.872	19.989	6.197	0.495
343.000	247.526	80.004	19.995	103.868	19.988	6.314	0.518
343.500	247.739	80.005	19.994	103.866	19.990	6.172	0.498
344.000	247.979	80.003	19.994	103.865	19.990	6.137	0.462
344.500	248.275	80.006	19.995	103.865	19.990	6.126	0.494
345.000	248.483	80.006	19.994	103.865	19.992	6.001	0.520
345.500	248.729	80.004	19.994	103.864	19.987	6.350	0.479
346.000	249.010	80.005	19.994	103.862	19.990	6.128	0.491
346.500	249.259	80.006	19.995	103.861	19.990	6.122	0.529
347.000	249.537	80.004	19.995	103.861	19.989	6.218	0.529
347.500	249.765	80.005	19.995	103.861	19.985	6.542	0.516
348.000	250.041	80.005	19.995	103.861	19.989	6.203	0.505
348.500	250.289	80.005	19.995	103.863	19.989	6.189	0.514
349.000	250.541	80.006	19.993	103.859	19.991	6.059	0.512
349.500	250.789	80.004	19.994	103.859	19.989	6.224	0.500
350.000	251.022	80.006	19.995	103.857	19.989	6.187	0.491
350.500	251.306	80.005	19.994	103.857	19.988	6.256	0.499
351.000	251.550	80.007	19.994	103.856	19.987	6.385	0.522
351.500	251.767	80.006	19.994	103.858	19.987	6.398	0.495
352.000	252.015	80.006	19.995	103.856	19.988	6.258	0.463
352.500	252.270	80.005	19.994	103.856	19.988	6.274	0.484
353.000	252.532	80.006	19.993	103.857	19.987	6.394	0.510
353.500	252.763	80.003	19.993	103.859	19.987	6.373	0.505
354.000	252.991	80.006	19.993	103.859	19.987	6.384	0.475
354.500	253.233	80.007	19.994	103.861	19.986	6.423	0.465
355.000	253.480	80.005	19.993	103.862	19.989	6.181	0.480
355.500	253.727	80.009	19.994	103.862	19.988	6.325	0.492
356.000	253.985	80.003	19.994	103.862	19.992	5.974	0.499
356.500	254.229	80.008	19.994	103.862	19.987	6.346	0.503
357.000	254.501	80.008	19.992	103.862	19.987	6.352	0.509
357.500	254.736	80.012	19.992	103.861	19.988	6.329	0.512
358.000	254.983	80.006	19.993	103.861	19.991	6.082	0.495
358.500	255.270	80.008	19.993	103.859	19.989	6.241	0.508
359.000	255.496	80.009	19.993	103.858	19.990	6.107	0.523
359.500	255.729	80.010	19.993	103.858	19.986	6.477	0.486
360.000	256.027	80.008	19.993	103.858	19.987	6.388	0.495
360.500	256.247	80.010	19.993	103.859	19.987	6.403	0.524
361.000	256.499	80.009	19.993	103.861	19.987	6.338	0.495
361.500	256.725	80.013	19.992	103.859	19.982	6.718	0.475
362.000	256.970	80.008	19.993	103.857	19.985	6.553	0.475
362.500	257.219	80.008	19.992	103.857	19.985	6.541	0.483
363.000	257.463	80.012	19.993	103.856	19.985	6.538	0.494
363.500	257.732	80.008	19.993	103.855	19.985	6.553	0.503
364.000	258.000	80.007	19.992	103.857	19.983	6.691	0.525
364.500	258.230	80.010	19.993	103.859	19.982	6.727	0.517
365.000	258.476	80.007	19.993	103.859	19.984	6.576	0.487
365.500	258.732	80.009	19.993	103.858	19.986	6.473	0.489
366.000	258.998	80.010	19.993	103.860	19.983	6.686	0.512
366.500	259.233	80.009	19.992	103.861	19.983	6.707	0.511
367.000	259.470	80.008	19.993	103.862	19.984	6.568	0.486
367.500	259.696	80.008	19.992	103.862	19.983	6.662	0.467
368.000	259.964	80.008	19.993	103.858	19.983	6.650	0.478
368.500	260.198	80.011	19.992	103.852	19.982	6.729	0.498
369.000	260.473	80.009	19.992	103.848	19.981	6.854	0.506
369.500	260.714	80.006	19.993	103.848	19.982	6.735	0.512
370.000	260.946	80.009	19.993	103.849	19.984	6.603	0.494
370.500	261.210	80.009	19.993	103.853	19.982	6.752	0.485
371.001	261.462	80.008	19.993	103.859	19.981	6.810	0.507
371.500	261.706	80.010	19.993	103.862	19.983	6.641	0.506
372.000	261.954	80.008	19.993	103.861	19.982	6.720	0.494
372.500	262.178	80.007	19.994	103.861	19.984	6.578	0.482
373.000	262.461	80.010	19.993	103.860	19.980	6.896	0.490
373.501	262.700	80.009	19.993	103.861	19.983	6.656	0.514
374.000	262.946	80.011	19.992	103.862	19.982	6.768	0.503
374.500	263.142	80.007	19.993	103.862	19.981	6.837	0.463
375.000	263.418	80.008	19.993	103.861	19.981	6.820	0.457
375.500	263.686	80.007	19.993	103.859	19.984	6.596	0.508
376.000	263.912	80.008	19.993	103.853	19.982	6.786	0.519
376.500	264.161	80.006	19.994	103.851	19.983	6.712	0.484
377.000	264.439	80.008	19.993	103.851	19.983	6.670	0.501
377.500	264.672	80.007	19.993	103.853	19.983	6.699	0.519
378.000	264.891	80.006	19.993	103.859	19.982	6.737	0.482
378.500	265.164	80.004	19.993	103.865	19.984	6.626	0.472
379.000	265.386	80.006	19.994	103.864	19.979	7.011	0.493
379.500	265.631	80.008	19.992	103.863	19.982	6.728	0.481
380.000	265.892	80.007	19.993	103.862	19.983	6.663	0.487
380.500	266.140	80.006	19.994	103.857	19.984	6.620	0.507
381.000	266.392	80.010	19.993	103.855	19.981	6.806	0.505
381.500	266.682	80.009	19.993	103.858	19.983	6.708	0.522
382.000	266.868	80.006	19.993	103.858	19.987	6.335	0.509
382.500	267.164	80.007	19.994	103.858	19.984	6.593	0.479
383.000	267.408	80.011	19.993	103.860	19.981	6.806	0.511
383.500	267.664	80.010	19.993	103.861	19.980	6.870	0.519
384.000	267.876	80.007	19.994	103.862	19.982	6.759	0.484
384.500	268.137	80.009	19.993	103.860	19.982	6.726	0.471
385.000	268.394	80.006	19.993	103.853	19.980	6.897	0.495
385.500	268.681	80.009	19.992	103.845	19.979	6.956	0.531
386.000	268.905	80.008	19.992	103.844	19.981	6.794	0.528
386.500	269.140	80.009	19.993	103.842	19.982	6.741	0.485
387.000	269.394	80.009	19.995	103.845	19.983	6.697	0.474
387.500	269.659	80.011	19.992	103.852	19.981	6.808	0.504
388.000	269.907	80.011	19.992	103.859	19.981	6.843	0.516
388.500	270.164	80.010	19.993	103.859	19.983	6.682	0.509
389.000	270.403	80.010	19.993	103.852	19.982	6.740	0.500
389.500	270.687	80.008	19.993	103.849	19.984	6.573	0.509
390.000	270.925	80.010	19.992	103.850	19.985	6.523	0.522
390.500	271.229	80.009	19.993	103.851	19.982	6.772	0.532
391.000	271.443	80.011	19.992	103.853	19.985	6.536	0.531
391.500	271.721	80.011	19.992	103.858	19.983	6.712	0.505
392.000	271.938	80.009	19.993	103.861	19.982	6.735	0.493
392.500	272.203	80.010	19.993	103.861	19.986	6.455	0.489
393.000	272.477	80.008	19.992	103.861	19.985	6.492	0.510
393.500	272.733	80.009	19.992	103.859	19.983	6.653	0.535
394.000	272.973	80.010	19.992	103.855	19.983	6.666	0.513
394.500	273.207	80.008	19.993	103.847	19.985	6.553	0.485
395.000	273.444	80.008	19.992	103.846	19.982	6.739	0.472
395.500	273.713	80.007	19.995	103.845	19.982	6.764	0.489
396.000	273.969	80.010	19.993	103.847	19.981	6.867	0.516
396.500	274.205	80.009	19.994	103.853	19.983	6.691	0.508
397.000	274.429	80.007	19.993	103.858	19.980	6.901	0.476
397.500	274.698	80.007	19.994	103.856	19.982	6.716	0.477
398.000	274.960	80.004	19.993	103.855	19.983	6.706	0.512
398.500	275.218	80.007	19.994	103.852	19.981	6.848	0.525
399.000	275.486	80.007	19.993	103.848	19.981	6.835	0.523
399.500	275.748	80.011	19.993	103.845	19.982	6.789	0.528
400.000	275.925	80.006	19.993	103.847	19.982	6.753	0.484
400.501	276.247	80.007	19.993	103.849	19.986	6.464	0.469
401.001	276.493	80.007	19.993	103.851	19.981	6.841	0.533
401.500	276.725	80.006	19.993	103.855	19.981	6.843	0.523
402.000	276.971	80.006	19.994	103.860	19.979	6.946	0.478
402.500	277.232	80.008	19.994	103.859	19.978	7.029	0.493
403.000	277.486	80.005	19.994	103.859	19.981	6.837	0.511
403.500	277.713	80.007	19.993	103.861	19.983	6.701	0.498
404.000	277.987	80.007	19.994	103.857	19.982	6.753	0.491
404.500	278.257	80.007	19.994	103.856	19.980	6.886	0.523
405.000	278.484	80.007	19.993	103.856	19.979	6.953	0.521
405.500	278.746	80.005	19.993	103.857	19.978	7.085	0.493
406.000	279.016	80.007	19.993	103.857	19.978	7.038	0.510
406.500	279.271	80.005	19.993	103.859	19.978	7.092	0.528
407.000	279.501	80.007	19.994	103.862	19.977	7.112	0.505
407.500	279.750	80.006	19.993	103.866	19.976	7.210	0.482
408.000	280.014	80.006	19.993	103.864	19.976	7.203	0.496
408.500	280.228	80.007	19.993	103.863	19.980	6.870	0.496
409.000	280.511	80.005	19.994	103.862	19.981	6.857	0.488
409.500	280.730	80.008	19.994	103.861	19.979	6.993	0.499
410.000	281.005	80.006	19.994	103.860	19.976	7.229	0.497
410.500	281.288	80.009	19.994	103.854	19.977	7.121	0.526
411.000	281.512	80.008	19.993	103.847	19.978	7.075	0.532
411.500	281.745	80.006	19.993	103.844	19.977	7.169	0.482
412.000	281.995	80.009	19.994	103.844	19.978	7.094	0.471
412.500	282.243	80.006	19.993	103.844	19.978	7.083	0.490
413.000	282.538	80.009	19.994	103.847	19.977	7.118	0.520
413.500	282.715	80.007	19.993	103.850	19.979	7.007	0.507
414.000	283.003	80.006	19.993	103.850	19.977	7.108	0.469
414.500	283.276	80.008	19.994	103.843	19.978	7.041	0.513
415.000	283.510	80.007	19.994	103.840	19.976	7.175	0.534
415.500	283.785	80.010	19.992	103.836	19.977	7.106	0.508
416.000	284.044	80.006	19.994	103.839	19.977	7.137	0.522
416.500	284.251	80.007	19.995	103.842	19.980	6.872	0.500
417.000	284.566	80.008	19.994	103.849	19.975	7.251	0.494
417.500	284.765	80.008	19.994	103.852	19.976	7.173	0.518
418.000	284.997	80.006	19.994	103.860	19.976	7.195	0.472
418.500	285.216	80.010	19.992	103.859	19.978	7.048	0.441
419.000	285.513	80.009	19.993	103.852	19.978	7.031	0.484
419.500	285.746	80.008	19.993	103.845	19.976	7.194	0.523
420.000	285.971	80.008	19.993	103.841	19.973	7.406	0.493
420.500	286.218	80.008	19.993	103.839	19.977	7.146	0.465
421.000	286.506	80.007	19.993	103.837	19.977	7.136	0.504
421.501	286.762	80.009	19.993	103.838	19.976	7.181	0.540
422.000	286.983	80.007	19.992	103.841	19.975	7.279	0.511
422.500	287.256	80.006	19.993	103.842	19.978	7.078	0.485
423.000	287.481	80.006	19.994	103.840	19.980	6.884	0.496
423.500	287.742	80.009	19.994	103.837	19.979	6.987	0.492
424.000	288.008	80.007	19.993	103.836	19.978	7.083	0.506
424.500	288.226	80.007	19.994	103.834	19.977	7.110	0.505
425.000	288.498	80.007	19.994	103.833	19.977	7.123	0.487
425.500	288.716	80.008	19.994	103.834	19.977	7.171	0.490
426.000	289.007	80.007	19.993	103.835	19.975	7.306	0.500
426.501	289.248	80.008	19.994	103.835	19.978	7.057	0.521
427.001	289.527	80.006	19.993	103.839	19.979	7.005	0.526
427.500	289.769	80.008	19.993	103.841	19.979	6.974	0.520
428.000	289.996	80.006	19.993	103.843	19.976	7.215	0.495
428.500	290.246	80.007	19.993	103.843	19.975	7.289	0.473
429.000	290.522	80.007	19.993	103.847	19.973	7.431	0.502
429.500	290.770	80.006	19.994	103.848	19.975	7.299	0.526
430.000	291.013	80.007	19.995	103.846	19.974	7.401	0.508
430.500	291.283	80.006	19.994	103.845	19.973	7.449	0.502
431.000	291.546	80.007	19.994	103.847	19.975	7.294	0.523
431.500	291.765	80.006	19.994	103.847	19.973	7.476	0.507
432.000	292.027	80.007	19.994	103.842	19.977	7.137	0.481
432.500	292.305	80.008	19.994	103.838	19.974	7.386	0.511
433.000	292.530	80.007	19.995	103.836	19.975	7.250	0.522
433.500	292.809	80.006	19.995	103.832	19.974	7.388	0.504
434.000	293.028	80.008	19.995	103.831	19.975	7.294	0.501
434.500	293.306	80.006	19.995	103.838	19.970	7.651	0.497
435.000	293.569	80.005	19.994	103.843	19.974	7.383	0.519
435.500	293.792	80.008	19.994	103.841	19.974	7.348	0.514
436.000	294.045	80.006	19.994	103.840	19.977	7.146	0.481
436.500	294.296	80.005	19.995	103.836	19.972	7.522	0.490
437.000	294.578	80.006	19.994	103.830	19.974	7.332	0.518
437.500	294.828	80.003	19.994	103.830	19.972	7.498	0.532
438.000	295.109	80.007	19.994	103.835	19.973	7.446	0.531
438.500	295.328	80.006	19.995	103.839	19.971	7.596	0.516
439.000	295.571	80.008	19.994	103.843	19.973	7.412	0.481
439.500	295.866	80.006	19.994	103.846	19.974	7.374	0.500
440.000	296.090	80.007	19.995	103.844	19.976	7.249	0.529
440.500	296.305	80.008	19.995	103.845	19.973	7.437	0.479
441.000	296.572	80.007	19.994	103.843	19.975	7.297	0.461
441.500	296.813	80.005	19.995	103.844	19.974	7.332	0.495
442.000	297.074	80.007	19.994	103.840	19.973	7.464	0.505
442.500	297.311	80.007	19.995	103.838	19.975	7.274	0.500
443.000	297.545	80.008	19.994	103.837	19.976	7.228	0.485
443.500	297.801	80.007	19.995	103.836	19.975	7.282	0.481
444.000	298.089	80.011	19.993	103.832	19.975	7.257	0.517
444.500	298.341	80.009	19.994	103.830	19.973	7.427	0.542
445.000	298.596	80.009	19.994	103.830	19.973	7.477	0.523
445.501	298.811	80.007	19.994	103.828	19.972	7.513	0.488
446.001	299.111	80.009	19.993	103.828	19.974	7.342	0.492
446.500	299.375	80.009	19.994	103.831	19.973	7.432	0.540
447.000	299.588	80.009	19.993	103.836	19.972	7.519	0.521
447.500	299.820	80.007	19.994	103.840	19.970	7.634	0.461
448.000	300.095	80.007	19.995	103.842	19.971	7.567	0.476
448.500	300.369	80.008	19.993	103.845	19.973	7.405	0.528
449.000	300.617	80.008	19.994	103.847	19.975	7.276	0.535
449.500	300.856	80.007	19.994	103.847	19.977	7.156	0.504
450.000	301.110	80.009	19.993	103.846	19.974	7.338	0.490
450.500	301.365	80.010	19.994	103.848	19.974	7.376	0.501
451.000	301.617	80.005	19.992	103.849	19.972	7.486	0.508
451.501	301.852	80.007	19.993	103.850	19.973	7.425	0.497
452.000	302.115	80.009	19.994	103.845	19.974	7.390	0.492
452.500	302.383	80.007	19.994	103.846	19.971	7.610	0.514
453.000	302.615	80.008	19.992	103.846	19.974	7.390	0.515
453.500	302.898	80.007	19.992	103.842	19.971	7.581	0.508
454.001	303.172	80.007	19.992	103.841	19.973	7.420	0.537
454.500	303.386	80.006	19.994	103.845	19.970	7.659	0.523
455.000	303.628	80.009	19.992	103.847	19.972	7.527	0.472
455.500	303.880	80.008	19.993	103.847	19.970	7.652	0.475
456.000	304.150	80.009	19.995	103.853	19.971	7.625	0.508
456.500	304.393	80.008	19.994	103.857	19.969	7.711	0.517
457.000	304.685	80.008	19.994	103.859	19.968	7.828	0.524
457.500	304.927	80.009	19.994	103.857	19.968	7.788	0.534
458.000	305.160	80.005	19.994	103.851	19.970	7.643	0.504
458.500	305.403	80.008	19.993	103.846	19.969	7.766	0.475
459.000	305.655	80.008	19.993	103.844	19.972	7.536	0.486
459.500	305.946	80.009	19.993	103.843	19.966	7.984	0.519
460.000	306.167	80.008	19.993	103.840	19.967	7.879	0.527
460.500	306.425	80.007	19.993	103.840	19.972	7.535	0.495
461.000	306.689	80.010	19.993	103.836	19.969	7.784	0.500
461.500	306.936	80.008	19.994	103.834	19.968	7.838	0.516
462.000	307.172	80.008	19.993	103.829	19.968	7.862	0.497
462.500	307.460	80.008	19.992	103.830	19.973	7.427	0.504
463.000	307.711	80.008	19.993	103.831	19.967	7.915	0.531
463.500	307.981	80.008	19.994	103.838	19.969	7.745	0.530
464.000	308.258	80.010	19.993	103.838	19.970	7.636	0.534
464.500	308.511	80.008	19.992	103.843	19.969	7.723	0.538
465.000	308.698	80.008	19.993	103.847	19.968	7.811	0.485
465.500	308.966	80.007	19.993	103.850	19.972	7.526	0.448
466.000	309.204	80.008	19.993	103.843	19.969	7.754	0.480
466.500	309.479	80.009	19.994	103.842	19.970	7.635	0.510
467.000	309.764	80.007	19.993	103.843	19.968	7.796	0.537
467.500	309.961	80.010	19.994	103.842	19.968	7.838	0.521
468.000	310.221	80.009	19.993	103.837	19.969	7.779	0.469
468.500	310.483	80.007	19.993	103.837	19.967	7.894	0.489
469.000	310.747	80.010	19.992	103.835	19.969	7.773	0.524
469.500	310.971	80.010	19.992	103.830	19.968	7.852	0.507
470.000	311.261	80.009	19.993	103.829	19.967	7.936	0.501
470.500	311.451	80.010	19.992	103.830	19.966	7.971	0.498
471.000	311.746	80.009	19.994	103.831	19.966	7.974	0.483
471.500	311.970	80.010	19.993	103.835	19.966	7.942	0.502
472.000	312.267	80.009	19.993	103.836	19.966	7.938	0.520
472.500	312.530	80.010	19.993	103.840	19.969	7.765	0.541
473.000	312.791	80.009	19.994	103.847	19.967	7.930	0.542
473.500	313.041	80.010	19.992	103.852	19.970	7.686	0.517
474.000	313.302	80.008	19.993	103.852	19.967	7.874	0.511
474.500	313.574	80.011	19.992	103.855	19.967	7.880	0.522
475.000	313.813	80.008	19.992	103.850	19.969	7.783	0.522
475.500	314.035	80.007	19.992	103.841	19.967	7.876	0.486
476.000	314.332	80.007	19.993	103.835	19.972	7.480	0.490
476.500	314.578	80.008	19.993	103.830	19.967	7.916	0.531
477.000	314.808	80.006	19.993	103.830	19.967	7.928	0.510
477.501	315.081	80.011	19.991	103.828	19.968	7.844	0.489
478.000	315.331	80.006	19.992	103.831	19.967	7.878	0.512
478.500	315.589	80.009	19.994	103.831	19.969	7.729	0.516
479.000	315.830	80.008	19.993	103.831	19.965	8.065	0.504
479.500	316.092	80.007	19.993	103.827	19.968	7.833	0.501
480.000	316.314	80.009	19.992	103.829	19.967	7.881	0.493
480.500	316.608	80.008	19.993	103.829	19.969	7.718	0.500
481.000	316.885	80.008	19.994	103.830	19.970	7.701	0.544
481.500	317.105	80.009	19.993	103.830	19.968	7.850	0.534
482.000	317.334	80.010	19.992	103.830	19.966	7.947	0.473
482.500	317.599	80.008	19.993	103.830	19.967	7.867	0.471
483.000	317.871	80.008	19.993	103.835	19.968	7.820	0.516
483.500	318.083	80.006	19.993	103.839	19.971	7.602	0.511
484.000	318.354	80.008	19.993	103.838	19.970	7.657	0.483
484.500	318.595	80.006	19.992	103.842	19.969	7.732	0.497
485.000	318.877	80.009	19.993	103.840	19.970	7.677	0.517
485.500	319.140	80.007	19.993	103.833	19.966	7.963	0.534
486.000	319.369	80.007	19.992	103.831	19.966	7.948	0.518
486.500	319.622	80.006	19.993	103.836	19.966	7.964	0.487
487.000	319.887	80.005	19.993	103.835	19.967	7.892	0.500
487.500	320.126	80.008	19.992	103.838	19.965	8.015	0.511
488.000	320.379	80.008	19.993	103.841	19.967	7.898	0.498
488.500	320.665	80.007	19.992	103.838	19.966	7.966	0.515
489.000	320.904	80.010	19.993	103.836	19.964	8.163	0.531
489.500	321.172	80.007	19.994	103.833	19.965	8.075	0.516
490.000	321.402	80.007	19.993	103.829	19.963	8.183	0.503
490.500	321.674	80.010	19.993	103.826	19.965	8.043	0.501
491.000	321.898	80.008	19.994	103.826	19.963	8.203	0.499
491.500	322.172	80.008	19.993	103.825	19.963	8.203	0.497
492.000	322.404	80.009	19.993	103.827	19.965	8.015	0.502
492.500	322.681	80.009	19.993	103.829	19.965	8.032	0.507
493.000	322.909	80.006	19.993	103.834	19.964	8.118	0.507
493.500	323.164	80.007	19.993	103.838	19.966	7.963	0.494
494.000	323.422	80.007	19.993	103.843	19.962	8.275	0.498
494.500	323.696	80.009	19.992	103.844	19.965	8.030	0.522
495.000	323.940	80.009	19.993	103.843	19.964	8.107	0.525
495.500	324.229	80.007	19.994	103.839	19.963	8.182	0.526
496.000	324.440	80.003	19.993	103.835	19.963	8.207	0.516
496.500	324.709	79.997	19.994	103.827	19.963	8.232	0.490
497.000	324.963	80.008	19.993	103.822	19.964	8.157	0.502
497.500	325.243	80.009	19.993	103.822	19.965	8.071	0.529
498.000	325.502	80.008	19.993	103.825	19.966	7.954	0.537
498.500	325.758	80.006	19.995	103.826	19.966	8.000	0.527
499.000	325.981	80.007	19.994	103.833	19.964	8.151	0.497
499.500	326.271	80.008	19.994	103.838	19.965	8.051	0.496
500.000	326.475	80.004	19.993	103.843	19.962	8.273	0.503
500.500	326.756	80.006	19.993	103.839	19.963	8.192	0.490
501.000	326.993	80.006	19.994	103.836	19.963	8.236	0.502
501.500	327.279	80.007	19.995	103.831	19.964	8.160	0.520
502.000	327.520	80.010	19.994	103.829	19.961	8.325	0.525
502.500	327.789	80.006	19.994	103.823	19.963	8.200	0.518
503.000	328.010	80.006	19.995	103.826	19.965	8.055	0.500
503.500	328.257	80.008	19.993	103.828	19.965	8.053	0.480
504.000	328.552	80.008	19.994	103.830	19.961	8.348	0.505
504.500	328.752	80.007	19.994	103.831	19.964	8.111	0.518
505.000	329.011	80.008	19.994	103.831	19.967	7.904	0.477
505.500	329.291	80.008	19.994	103.829	19.964	8.163	0.499
506.000	329.549	80.007	19.995	103.829	19.962	8.283	0.538
506.501	329.765	80.006	19.994	103.827	19.964	8.124	0.506
507.001	330.031	80.007	19.994	103.826	19.965	8.083	0.478
507.500	330.277	80.008	19.993	103.825	19.964	8.148	0.497
508.000	330.492	80.008	19.995	103.824	19.962	8.250	0.487
508.500	330.742	80.009	19.994	103.821	19.964	8.152	0.463
509.000	331.032	80.006	19.994	103.821	19.963	8.231	0.502
509.500	331.305	80.007	19.995	103.821	19.965	8.039	0.551
510.000	331.532	80.006	19.994	103.825	19.965	8.028	0.531
510.500	331.783	80.006	19.994	103.830	19.961	8.383	0.489
511.000	332.050	80.007	19.994	103.836	19.963	8.181	0.498
511.500	332.355	80.008	19.994	103.839	19.963	8.197	0.545
512.000	332.604	80.006	19.996	103.839	19.964	8.151	0.563
512.500	332.828	80.007	19.994	103.835	19.959	8.507	0.513
513.000	333.098	80.005	19.994	103.835	19.963	8.226	0.483
513.500	333.310	80.006	19.994	103.837	19.967	7.892	0.488
514.000	333.580	80.006	19.995	103.834	19.965	8.036	0.482
514.500	333.819	80.007	19.994	103.833	19.965	8.080	0.496
515.000	334.092	80.006	19.993	103.831	19.966	7.980	0.511
515.500	334.339	80.007	19.993	103.826	19.966	7.950	0.516
516.000	334.615	80.006	19.995	103.820	19.965	8.051	0.521
516.500	334.880	80.006	19.996	103.824	19.962	8.258	0.532
517.000	335.126	80.007	19.994	103.827	19.963	8.193	0.526
517.500	335.379	80.006	19.995	103.831	19.964	8.159	0.505
518.000	335.624	80.006	19.995	103.836	19.965	8.063	0.498
518.500	335.866	80.004	19.994	103.843	19.961	8.333	0.492
519.000	336.149	80.007	19.993	103.840	19.964	8.143	0.506
519.500	336.376	80.006	19.995	103.838	19.966	8.011	0.518
520.000	336.634	80.006	19.993	103.838	19.965	8.049	0.498
520.500	336.870	80.005	19.994	103.833	19.966	7.955	0.489
521.000	337.152	80.005	19.994	103.827	19.965	8.020	0.505
521.500	337.407	80.007	19.994	103.828	19.966	7.942	0.528
522.000	337.671	80.005	19.993	103.831	19.966	7.938	0.529
522.500	337.954	80.007	19.994	103.832	19.963	8.218	0.533
523.000	338.179	80.006	19.995	103.832	19.964	8.116	0.527
523.500	338.445	80.004	19.994	103.832	19.963	8.178	0.499
524.000	338.683	80.007	19.994	103.829	19.962	8.285	0.497
524.500	338.922	80.007	19.994	103.826	19.963	8.237	0.491
525.000	339.179	80.007	19.993	103.827	19.965	8.071	0.486
525.500	339.424	80.006	19.995	103.827	19.963	8.180	0.498
526.000	339.674	80.007	19.995	103.827	19.965	8.030	0.499
526.500	339.947	80.007	19.994	103.827	19.963	8.214	0.509
527.001	340.213	80.006	19.994	103.828	19.964	8.099	0.531
527.501	340.448	80.008	19.993	103.827	19.962	8.258	0.520
528.000	340.719	80.010	19.994	103.827	19.963	8.231	0.504
528.500	340.968	80.007	19.993	103.827	19.963	8.222	0.513
529.000	341.223	80.007	19.994	103.828	19.963	8.214	0.512
529.500	341.495	80.009	19.993	103.828	19.963	8.232	0.515
530.000	341.711	80.007	19.993	103.828	19.962	8.312	0.507
530.500	341.972	80.008	19.995	103.827	19.963	8.228	0.482
531.000	342.211	80.009	19.995	103.829	19.960	8.442	0.488
531.500	342.487	80.010	19.994	103.831	19.962	8.291	0.507
532.000	342.732	80.009	19.993	103.833	19.963	8.193	0.519
532.500	342.977	80.008	19.994	103.833	19.963	8.218	0.506
533.000	343.252	80.008	19.994	103.833	19.963	8.180	0.505
533.500	343.489	80.005	19.994	103.831	19.961	8.354	0.515
534.000	343.715	80.008	19.994	103.827	19.961	8.366	0.487
534.500	343.983	80.008	19.994	103.825	19.963	8.209	0.479
535.000	344.243	80.006	19.995	103.825	19.958	8.590	0.511
535.500	344.487	80.008	19.994	103.825	19.959	8.534	0.516
536.000	344.723	80.006	19.994	103.825	19.957	8.674	0.492
536.500	344.986	80.005	19.993	103.825	19.960	8.433	0.490
537.000	345.236	80.008	19.994	103.824	19.957	8.700	0.506
537.500	345.464	80.007	19.994	103.826	19.957	8.696	0.496
538.000	345.735	80.007	19.994	103.827	19.957	8.665	0.488
538.500	346.000	80.006	19.995	103.827	19.959	8.512	0.517
539.000	346.242	80.007	19.994	103.828	19.958	8.611	0.522
539.500	346.476	80.008	19.993	103.828	19.958	8.582	0.491
540.000	346.764	80.007	19.993	103.827	19.959	8.498	0.499
540.500	347.025	80.006	19.994	103.825	19.957	8.648	0.536
541.000	347.246	80.005	19.995	103.826	19.955	8.799	0.515
541.500	347.487	80.006	19.994	103.826	19.954	8.891	0.472
542.000	347.763	80.009	19.993	103.827	19.951	9.151	0.489
542.500	347.994	80.007	19.995	103.827	19.955	8.782	0.511
543.000	348.276	80.007	19.993	103.827	19.957	8.634	0.510
543.501	348.514	80.008	19.995	103.825	19.955	8.852	0.517
544.000	348.794	80.008	19.993	103.824	19.953	8.998	0.519
544.500	349.059	80.009	19.993	103.823	19.954	8.904	0.531
545.000	349.294	80.008	19.993	103.822	19.956	8.738	0.522
545.500	349.553	80.008	19.993	103.825	19.953	9.004	0.497
546.000	349.786	80.009	19.993	103.826	19.956	8.740	0.493
546.500	350.030	80.009	19.994	103.826	19.953	8.939	0.485
547.000	350.319	80.010	19.992	103.823	19.955	8.805	0.505
547.500	350.543	80.010	19.993	103.822	19.954	8.931	0.523
548.000	350.792	80.011	19.993	103.817	19.953	9.000	0.494
548.500	351.039	80.010	19.993	103.818	19.954	8.885	0.485
549.000	351.279	80.011	19.993	103.819	19.958	8.615	0.491
549.501	351.546	80.009	19.993	103.821	19.957	8.657	0.497
550.001	351.753	80.010	19.992	103.823	19.956	8.742	0.490
550.500	352.012	80.011	19.994	103.824	19.956	8.749	0.470
551.000	352.265	80.010	19.993	103.823	19.954	8.872	0.489
551.500	352.524	80.009	19.993	103.823	19.956	8.768	0.512
552.000	352.764	80.010	19.993	103.823	19.957	8.701	0.506
552.500	353.027	80.012	19.993	103.823	19.954	8.879	0.501
553.000	353.306	80.012	19.993	103.824	19.956	8.755	0.523
553.500	353.563	80.012	19.993	103.823	19.953	8.964	0.539
554.000	353.823	80.011	19.993	103.823	19.956	8.749	0.527
554.500	354.050	80.010	19.992	103.824	19.954	8.870	0.502
555.000	354.303	80.010	19.992	103.824	19.953	8.973	0.483
555.500	354.551	80.010	19.992	103.823	19.955	8.847	0.491
556.000	354.806	80.012	19.993	103.823	19.955	8.830	0.502
556.500	355.048	80.010	19.993	103.823	19.956	8.707	0.500
557.000	355.290	80.010	19.994	103.821	19.954	8.912	0.490
557.500	355.542	80.009	19.993	103.821	19.954	8.925	0.489
558.000	355.811	80.011	19.993	103.821	19.955	8.796	0.507
558.500	356.052	80.010	19.993	103.821	19.955	8.826	0.516
559.000	356.298	80.010	19.992	103.821	19.952	9.026	0.498
559.500	356.573	80.011	19.993	103.821	19.952	9.011	0.504
560.000	356.844	80.011	19.994	103.820	19.953	8.948	0.534
560.500	357.065	80.010	19.993	103.821	19.953	8.993	0.519
561.000	357.297	80.009	19.993	103.821	19.953	9.005	0.473
561.500	357.582	80.008	19.994	103.820	19.951	9.093	0.486
562.000	357.810	80.010	19.994	103.821	19.952	9.064	0.515
562.500	358.044	80.008	19.993	103.822	19.951	9.121	0.487
563.000	358.319	80.009	19.993	103.822	19.952	9.061	0.485
563.500	358.600	80.007	19.993	103.823	19.951	9.102	0.532
564.000	358.854	80.008	19.993	103.823	19.949	9.284	0.545
564.500	359.107	80.007	19.993	103.824	19.949	9.241	0.521
565.000	359.336	80.008	19.995	103.823	19.953	8.948	0.494
565.500	359.599	80.007	19.994	103.823	19.950	9.182	0.487
566.000	359.853	80.007	19.993	103.823	19.951	9.115	0.504
566.500	360.089	80.009	19.995	103.823	19.950	9.172	0.503
567.000	360.356	80.007	19.994	103.822	19.952	9.072	0.497
567.500	360.616	80.007	19.994	103.823	19.954	8.884	0.516
568.000	360.874	80.007	19.993	103.824	19.953	8.984	0.523
568.500	361.104	80.008	19.993	103.831	19.955	8.802	0.503
569.000	361.361	80.006	19.993	103.837	19.954	8.891	0.488
569.500	361.605	80.008	19.993	103.838	19.952	9.080	0.494
570.000	361.895	80.006	19.994	103.839	19.953	8.965	0.518
570.500	362.135	80.008	19.993	103.834	19.955	8.845	0.532
571.000	362.391	80.006	19.994	103.823	19.956	8.705	0.513
571.500	362.640	80.009	19.993	103.815	19.956	8.711	0.501
572.000	362.887	80.006	19.994	103.813	19.954	8.887	0.500
572.500	363.105	80.008	19.994	103.810	19.953	8.971	0.480
573.000	363.356	80.009	19.994	103.814	19.952	9.079	0.467
573.500	363.600	80.008	19.995	103.821	19.951	9.096	0.482
574.000	363.883	80.007	19.992	103.823	19.952	9.059	0.511
574.500	364.100	80.008	19.993	103.823	19.953	8.996	0.514
575.000	364.340	80.007	19.992	103.824	19.949	9.253	0.479
575.500	364.613	80.008	19.994	103.825	19.950	9.217	0.485
576.000	364.852	80.015	19.997	103.822	19.948	9.361	0.512
576.500	365.114	80.007	19.995	103.823	19.948	9.390	0.507
577.000	365.355	80.009	19.997	103.827	19.947	9.430	0.502
577.500	365.603	80.008	19.996	103.833	19.947	9.447	0.496
578.000	365.868	80.007	19.994	103.833	19.946	9.472	0.501
578.500	366.137	80.007	19.996	103.834	19.947	9.439	0.524
579.000	366.349	80.010	19.993	103.833	19.949	9.277	0.508
579.500	366.684	80.007	19.993	103.829	19.948	9.341	0.514
580.000	366.871	80.009	19.994	103.824	19.949	9.259	0.534
580.500	367.098	80.008	19.992	103.824	19.945	9.572	0.468
581.000	367.402	80.008	19.993	103.825	19.946	9.518	0.472
581.500	367.648	80.007	19.994	103.825	19.944	9.685	0.540
582.000	367.890	80.007	19.994	103.825	19.943	9.731	0.519
582.500	368.142	80.008	19.992	103.822	19.943	9.769	0.491
583.000	368.407	80.009	19.993	103.822	19.944	9.636	0.506
583.500	368.686	80.009	19.993	103.822	19.946	9.525	0.531
584.000	368.958	80.008	19.994	103.822	19.943	9.701	0.548
584.500	369.175	80.007	19.993	103.822	19.946	9.533	0.520
585.000	369.408	80.009	19.993	103.825	19.945	9.577	0.469
585.500	369.679	80.010	19.993	103.826	19.944	9.688	0.477
586.000	369.938	80.008	19.994	103.825	19.944	9.695	0.517
586.500	370.164	80.008	19.995	103.823	19.943	9.766	0.507
587.000	370.405	80.002	19.993	103.820	19.939	10.042	0.476
587.500	370.663	80.009	19.993	103.815	19.942	9.814	0.483
588.000	370.900	80.009	19.992	103.814	19.943	9.718	0.497
588.500	371.131	80.008	19.993	103.814	19.942	9.826	0.481
589.000	371.419	80.008	19.993	103.817	19.941	9.885	0.494
589.500	371.650	80.009	19.993	103.821	19.942	9.797	0.519
590.000	371.904	80.007	19.994	103.829	19.944	9.688	0.502
590.500	372.175	80.006	19.994	103.828	19.944	9.659	0.505
591.000	372.434	80.007	19.994	103.821	19.942	9.785	0.527
591.500	372.701	80.007	19.994	103.817	19.941	9.866	0.528
592.000	372.944	80.006	19.994	103.814	19.942	9.816	0.519
592.500	373.190	80.009	19.993	103.812	19.940	9.933	0.500
593.000	373.433	80.007	19.994	103.813	19.943	9.742	0.489
593.500	373.709	80.007	19.992	103.818	19.942	9.841	0.504
594.000	373.938	80.006	19.993	103.822	19.941	9.918	0.512
594.500	374.171	80.007	19.994	103.823	19.939	10.048	0.484
595.000	374.449	80.008	19.993	103.823	19.938	10.129	0.487
595.500	374.718	80.005	19.994	103.824	19.939	10.077	0.529
596.000	374.956	80.007	19.995	103.824	19.940	9.958	0.527
596.500	375.174	80.007	19.992	103.825	19.940	9.935	0.482
597.000	375.425	80.008	19.993	103.825	19.939	10.029	0.462
597.500	375.703	80.006	19.993	103.824	19.939	10.037	0.499
598.000	375.964	80.008	19.995	103.826	19.938	10.123	0.534
598.500	376.221	80.007	19.994	103.827	19.940	9.998	0.528
599.000	376.478	80.005	19.993	103.827	19.938	10.132	0.516
599.500	376.710	80.007	19.993	103.827	19.938	10.100	0.501
600.000	376.983	80.007	19.994	103.828	19.938	10.134	0.497
600.500	377.230	80.006	19.993	103.827	19.938	10.100	0.513
601.000	377.461	80.007	19.995	103.826	19.936	10.251	0.499
601.500	377.730	80.006	19.994	103.826	19.935	10.378	0.489
602.000	377.975	80.006	19.993	103.826	19.936	10.307	0.507
602.500	378.238	80.007	19.994	103.826	19.936	10.292	0.511
603.000	378.489	80.007	19.993	103.826	19.936	10.253	0.511
603.500	378.701	80.009	19.994	103.825	19.935	10.311	0.488
604.000	378.986	80.007	19.993	103.821	19.937	10.192	0.480
604.500	379.243	80.008	19.994	103.821	19.936	10.253	0.520
605.000	379.516	80.007	19.995	103.821	19.934	10.407	0.536
605.500	379.761	80.006	19.994	103.822	19.933	10.466	0.524
606.000	380.005	80.007	19.994	103.824	19.933	10.510	0.504
606.500	380.330	80.007	19.994	103.827	19.934	10.441	0.529
607.000	380.562	80.006	19.995	103.826	19.936	10.280	0.563
607.500	380.788	80.009	19.995	103.825	19.938	10.135	0.508
608.000	381.068	80.008	19.994	103.824	19.937	10.175	0.482
608.500	381.288	80.009	19.994	103.823	19.936	10.305	0.503
609.000	381.589	80.008	19.995	103.824	19.936	10.269	0.511
609.500	381.794	80.009	19.994	103.824	19.932	10.556	0.514
610.000	382.093	80.008	19.994	103.825	19.935	10.330	0.505
610.500	382.326	80.010	19.993	103.825	19.932	10.587	0.517
611.000	382.599	80.009	19.993	103.824	19.934	10.393	0.519
611.500	382.849	80.009	19.994	103.823	19.935	10.328	0.515
612.000	383.077	80.009	19.994	103.823	19.934	10.430	0.500
612.500	383.362	80.011	19.994	103.823	19.933	10.506	0.496
613.000	383.607	80.009	19.995	103.821	19.933	10.485	0.522
613.500	383.889	80.011	19.993	103.822	19.933	10.470	0.528
614.000	384.116	80.009	19.993	103.822	19.932	10.595	0.518
614.500	384.387	80.010	19.994	103.822	19.932	10.604	0.503
615.000	384.635	80.009	19.994	103.821	19.930	10.725	0.509
615.500	384.877	80.010	19.994	103.821	19.930	10.719	0.505
616.000	385.139	80.007	19.993	103.821	19.928	10.882	0.497
616.500	385.413	80.008	19.994	103.820	19.930	10.702	0.520
617.000	385.646	80.010	19.994	103.821	19.927	10.972	0.521
617.500	385.909	80.008	19.993	103.821	19.927	10.924	0.501
618.000	386.169	80.009	19.994	103.821	19.929	10.807	0.509
618.500	386.417	80.009	19.993	103.821	19.927	10.957	0.516
619.000	386.662	80.009	19.993	103.820	19.929	10.802	0.500
619.500	386.930	80.008	19.994	103.818	19.923	11.260	0.503
620.000	387.203	80.009	19.994	103.818	19.928	10.911	0.527
620.500	387.413	80.008	19.994	103.819	19.928	10.896	0.512
621.000	387.737	80.011	19.994	103.819	19.928	10.873	0.508
621.500	388.002	80.007	19.994	103.819	19.923	11.262	0.562
622.000	388.269	80.009	19.994	103.822	19.923	11.267	0.561
622.500	388.538	80.008	19.993	103.821	19.927	10.930	0.534
623.000	388.805	80.009	19.994	103.820	19.925	11.082	0.536
623.500	389.029	80.008	19.994	103.821	19.925	11.109	0.513
624.000	389.311	80.009	19.994	103.821	19.925	11.140	0.499
624.500	389.541	80.009	19.994	103.820	19.925	11.142	0.509
625.000	389.804	80.009	19.995	103.819	19.924	11.197	0.502
625.500	390.066	80.009	19.995	103.819	19.923	11.232	0.509
626.000	390.339	80.007	19.995	103.819	19.926	11.040	0.531
626.500	390.591	80.009	19.994	103.819	19.922	11.369	0.530
627.000	390.810	80.008	19.995	103.818	19.924	11.183	0.498
627.500	391.106	80.007	19.996	103.819	19.922	11.367	0.493
628.000	391.359	80.009	19.995	103.819	19.923	11.248	0.532
628.500	391.600	80.009	19.996	103.819	19.922	11.379	0.522
629.000	391.852	80.009	19.995	103.819	19.920	11.470	0.493
629.500	392.074	80.007	19.996	103.819	19.922	11.365	0.484
630.000	392.366	80.009	19.995	103.819	19.917	11.704	0.494
630.500	392.604	80.009	19.995	103.819	19.919	11.551	0.522
631.000	392.877	80.008	19.993	103.817	19.921	11.412	0.520
631.500	393.128	80.008	19.996	103.817	19.916	11.791	0.517
632.000	393.410	80.008	19.995	103.818	19.916	11.773	0.529
632.500	393.694	80.008	19.995	103.818	19.917	11.706	0.550
633.000	393.921	80.008	19.995	103.818	19.917	11.718	0.539
633.500	394.184	80.008	19.994	103.819	19.915	11.899	0.500
634.000	394.451	80.009	19.994	103.817	19.912	12.085	0.510
634.500	394.687	80.009	19.995	103.815	19.912	12.126	0.516
635.000	394.932	80.009	19.993	103.811	19.916	11.788	0.492
635.500	395.201	80.009	19.996	103.809	19.915	11.878	0.498
636.000	395.485	80.009	19.996	103.809	19.912	12.088	0.534
636.500	395.744	80.010	19.996	103.811	19.913	12.055	0.548
637.000	396.004	80.009	19.996	103.814	19.914	11.982	0.531
637.500	396.239	80.011	19.994	103.818	19.911	12.189	0.507
638.000	396.482	80.008	19.995	103.818	19.910	12.242	0.487
638.500	396.764	80.010	19.994	103.817	19.911	12.215	0.502
639.000	397.001	80.010	19.994	103.817	19.908	12.399	0.522
639.500	397.247	80.011	19.996	103.812	19.908	12.449	0.501
640.000	397.507	80.009	19.996	103.805	19.909	12.349	0.494
640.500	397.791	80.008	19.996	103.802	19.910	12.271	0.525
641.000	398.028	80.009	19.995	103.800	19.910	12.285	0.532
641.500	398.295	80.009	19.994	103.800	19.908	12.427	0.513
642.000	398.563	80.011	19.993	103.805	19.905	12.617	0.520
642.500	398.819	80.011	19.994	103.812	19.908	12.431	0.529
643.000	399.043	80.008	19.993	103.818	19.907	12.511	0.501
643.500	399.278	80.007	19.993	103.818	19.906	12.602	0.470
644.000	399.551	80.006	19.992	103.814	19.906	12.568	0.484
644.500	399.805	80.009	19.995	103.808	19.903	12.773	0.518
645.000	400.104	80.008	19.994	103.804	19.906	12.574	0.540
645.500	400.327	80.009	19.993	103.801	19.902	12.865	0.537
646.000	400.520	80.006	19.994	103.803	19.900	13.032	0.469
646.500	400.808	80.006	19.995	103.805	19.901	12.963	0.449
647.001	401.046	80.007	19.993	103.811	19.899	13.076	0.504
647.500	401.331	80.007	19.995	103.817	19.898	13.148	0.525
648.000	401.567	80.008	19.994	103.820	19.897	13.262	0.522
648.501	401.806	80.006	19.993	103.822	19.901	12.963	0.498
649.000	402.075	80.009	19.993	103.825	19.899	13.082	0.491
649.500	402.329	80.006	19.994	103.825	19.898	13.155	0.515
650.000	402.601	80.007	19.994	103.825	19.899	13.076	0.525
650.500	402.870	80.006	19.993	103.826	19.898	13.157	0.534
651.000	403.103	80.007	19.993	103.824	19.895	13.381	0.521
651.500	403.360	80.009	19.994	103.821	19.894	13.481	0.496
652.000	403.601	80.007	19.994	103.816	19.895	13.410	0.494
652.500	403.840	80.008	19.994	103.816	19.894	13.510	0.489
653.000	404.159	80.008	19.994	103.815	19.893	13.526	0.519
653.500	404.388	80.007	19.994	103.817	19.892	13.673	0.553
654.000	404.629	80.008	19.993	103.819	19.894	13.454	0.509
654.500	404.934	80.007	19.994	103.824	19.892	13.662	0.508
655.000	405.145	80.008	19.993	103.823	19.891	13.743	0.531
655.500	405.399	80.007	19.994	103.821	19.890	13.774	0.490
656.000	405.626	80.007	19.994	103.820	19.887	14.000	0.473
656.500	405.886	80.008	19.994	103.821	19.888	13.948	0.484
657.000	406.155	80.008	19.994	103.820	19.889	13.899	0.508
657.500	406.400	80.006	19.995	103.822	19.886	14.100	0.522
658.000	406.629	80.008	19.993	103.824	19.891	13.751	0.494
658.500	406.891	80.009	19.993	103.824	19.889	13.843	0.482
659.000	407.168	80.008	19.993	103.820	19.886	14.077	0.515
659.500	407.446	80.009	19.994	103.819	19.887	14.001	0.547
660.000	407.719	80.008	19.995	103.817	19.886	14.066	0.553
660.500	407.945	80.007	19.993	103.816	19.886	14.111	0.525
661.000	408.196	80.010	19.993	103.817	19.887	14.033	0.488
661.500	408.441	80.008	19.993	103.819	19.886	14.126	0.487
662.000	408.686	80.008	19.994	103.819	19.884	14.228	0.493
662.500	408.931	80.008	19.993	103.819	19.884	14.272	0.490
663.000	409.231	80.008	19.994	103.813	19.884	14.284	0.518
663.500	409.457	80.009	19.992	103.810	19.885	14.202	0.536
664.000	409.708	80.007	19.993	103.804	19.883	14.340	0.501
664.500	409.970	80.008	19.993	103.799	19.883	14.346	0.494
665.000	410.206	80.009	19.993	103.801	19.883	14.313	0.505
665.500	410.456	80.007	19.993	103.806	19.880	14.532	0.493
666.000	410.719	80.006	19.994	103.807	19.880	14.572	0.500
666.500	410.988	80.007	19.993	103.814	19.877	14.758	0.522
667.000	411.256	80.007	19.994	103.818	19.877	14.820	0.535
667.501	411.512	80.008	19.993	103.818	19.876	14.873	0.531
668.000	411.739	80.007	19.993	103.816	19.874	14.982	0.503
668.500	412.018	80.009	19.993	103.817	19.876	14.870	0.494
669.000	412.253	80.007	19.993	103.817	19.877	14.803	0.510
669.500	412.518	80.009	19.993	103.816	19.873	15.056	0.507
670.000	412.770	80.007	19.992	103.812	19.873	15.117	0.508
670.500	412.990	80.008	19.994	103.812	19.873	15.063	0.494
671.000	413.251	80.008	19.994	103.809	19.869	15.400	0.477
671.500	413.491	80.008	19.993	103.804	19.869	15.383	0.491
672.000	413.742	80.008	19.993	103.800	19.869	15.432	0.496
672.500	413.974	80.008	19.993	103.803	19.867	15.541	0.487
673.000	414.219	80.008	19.993	103.802	19.867	15.577	0.480
673.500	414.524	80.008	19.992	103.802	19.863	15.823	0.513
674.000	414.757	80.007	19.993	103.800	19.862	15.938	0.544
674.500	414.992	80.008	19.994	103.799	19.863	15.885	0.503
675.000	415.239	80.008	19.994	103.793	19.860	16.077	0.475
675.500	415.506	80.010	19.993	103.793	19.860	16.104	0.498
676.000	415.762	80.008	19.992	103.799	19.858	16.238	0.519
676.500	416.011	80.009	19.993	103.805	19.859	16.182	0.514
677.000	416.267	80.008	19.993	103.809	19.855	16.439	0.504
677.500	416.510	80.007	19.993	103.810	19.857	16.295	0.502
678.000	416.756	80.008	19.993	103.805	19.853	16.647	0.494
678.500	417.080	80.008	19.994	103.797	19.854	16.545	0.530
679.000	417.294	80.008	19.993	103.793	19.855	16.451	0.554
679.500	417.519	80.007	19.994	103.791	19.853	16.657	0.489
680.000	417.783	80.008	19.992	103.789	19.850	16.841	0.464
680.500	418.013	80.007	19.994	103.789	19.847	17.047	0.491
681.000	418.272	80.009	19.992	103.790	19.848	17.028	0.491
681.500	418.520	80.007	19.994	103.789	19.847	17.112	0.498
682.000	418.787	80.006	19.992	103.793	19.845	17.227	0.511
682.500	419.015	80.008	19.993	103.793	19.846	17.194	0.505
683.000	419.287	80.007	19.994	103.797	19.840	17.614	0.498
683.500	419.541	80.009	19.994	103.802	19.841	17.535	0.513
684.000	419.787	80.007	19.992	103.802	19.840	17.590	0.513
684.500	420.045	80.009	19.995	103.797	19.837	17.879	0.502
685.000	420.301	80.007	19.994	103.796	19.838	17.780	0.509
685.500	420.559	80.007	19.993	103.796	19.834	18.109	0.514
686.000	420.800	80.008	19.993	103.793	19.835	17.980	0.506
686.500	421.062	80.008	19.992	103.793	19.832	18.250	0.501
687.000	421.311	80.009	19.993	103.792	19.831	18.299	0.506
687.500	421.542	80.010	19.993	103.794	19.829	18.453	0.495
688.000	421.795	80.008	19.994	103.793	19.825	18.751	0.482
688.500	422.057	80.008	19.994	103.797	19.827	18.593	0.500
689.000	422.297	80.009	19.994	103.802	19.828	18.514	0.509
689.500	422.540	80.008	19.994	103.804	19.824	18.866	0.493
690.000	422.799	80.010	19.994	103.802	19.823	18.891	0.493
690.500	423.051	80.008	19.994	103.800	19.823	18.922	0.506
691.000	423.299	80.008	19.994	103.796	19.823	18.922	0.505
691.500	423.547	80.009	19.994	103.792	19.823	18.948	0.498
692.000	423.789	80.010	19.993	103.790	19.818	19.264	0.493
692.500	424.078	80.010	19.993	103.792	19.816	19.452	0.510
693.000	424.304	80.009	19.993	103.793	19.814	19.630	0.523
693.500	424.565	80.009	19.993	103.792	19.815	19.494	0.501
694.000	424.822	80.010	19.994	103.792	19.811	19.856	0.502
694.500	425.097	80.009	19.994	103.793	19.805	20.261	0.525
695.000	425.297	80.009	19.992	103.797	19.804	20.395	0.504
695.500	425.565	80.009	19.994	103.803	19.807	20.146	0.471
696.000	425.815	80.010	19.995	103.808	19.800	20.658	0.493
696.500	426.058	80.009	19.994	103.813	19.801	20.604	0.506
697.000	426.286	80.010	19.995	103.817	19.797	20.896	0.483
697.500	426.580	80.009	19.995	103.818	19.795	21.097	0.496
698.000	426.819	80.009	19.995	103.814	19.794	21.152	0.527
698.500	427.078	80.009	19.994	103.807	19.788	21.595	0.515
699.000	427.320	80.009	19.994	103.802	19.787	21.660	0.500
699.500	427.605	80.009	19.994	103.797	19.787	21.701	0.514
700.000	427.849	80.009	19.993	103.797	19.782	22.035	0.528
700.500	428.131	80.009	19.994	103.800	19.783	22.006	0.527
701.000	428.349	80.008	19.993	103.801	19.779	22.322	0.513
701.500	428.594	80.009	19.994	103.799	19.776	22.510	0.481
702.000	428.856	80.009	19.995	103.799	19.773	22.738	0.485
702.500	429.149	80.009	19.994	103.792	19.770	22.949	0.531
703.000	429.369	80.010	19.994	103.785	19.768	23.131	0.534
703.500	429.637	80.009	19.995	103.784	19.767	23.182	0.501
704.000	429.901	80.009	19.994	103.785	19.765	23.384	0.510
704.500	430.144	80.008	19.995	103.783	19.759	23.810	0.519
705.000	430.399	80.009	19.994	103.783	19.763	23.547	0.502
705.500	430.651	80.009	19.994	103.782	19.758	23.907	0.503
706.000	430.892	80.009	19.994	103.783	19.754	24.183	0.500
706.500	431.135	80.009	19.995	103.782	19.750	24.523	0.489
707.000	431.439	80.010	19.995	103.782	19.750	24.476	0.516
707.500	431.685	80.010	19.993	103.783	19.748	24.637	0.548
708.000	431.929	80.007	19.994	103.789	19.744	24.971	0.520
708.500	432.138	80.008	19.994	103.792	19.742	25.083	0.471
709.000	432.416	80.007	19.994	103.793	19.738	25.390	0.470
709.500	432.680	80.010	19.993	103.793	19.738	25.409	0.515
710.000	432.898	80.008	19.994	103.792	19.736	25.564	0.512
710.500	433.176	80.009	19.993	103.791	19.733	25.824	0.489
711.000	433.453	80.008	19.994	103.788	19.728	26.219	0.525
711.500	433.664	80.008	19.995	103.788	19.725	26.441	0.522
712.000	433.960	80.007	19.993	103.788	19.721	26.733	0.498
712.500	434.216	80.009	19.995	103.790	19.714	27.262	0.529
713.000	434.489	80.008	19.992	103.787	19.710	27.551	0.540
713.500	434.735	80.008	19.995	103.787	19.706	27.902	0.524
714.000	434.975	80.010	19.993	103.788	19.703	28.084	0.502
714.500	435.245	80.009	19.993	103.790	19.699	28.416	0.498
715.000	435.516	80.009	19.993	103.789	19.696	28.612	0.525
715.500	435.760	80.009	19.994	103.788	19.694	28.781	0.528
716.000	435.991	80.009	19.993	103.788	19.687	29.290	0.495
716.500	436.281	80.009	19.993	103.788	19.683	29.596	0.498
717.000	436.502	80.010	19.992	103.792	19.680	29.871	0.516
717.500	436.783	80.009	19.994	103.793	19.677	30.103	0.506
718.000	437.027	80.008	19.994	103.793	19.672	30.486	0.513
718.500	437.293	80.010	19.993	103.792	19.664	31.043	0.518
719.000	437.540	80.009	19.994	103.790	19.657	31.652	0.511
719.500	437.814	80.010	19.992	103.784	19.655	31.764	0.517
720.000	438.079	80.011	19.993	103.784	19.647	32.421	0.530
720.500	438.349	80.010	19.994	103.783	19.640	32.931	0.537
721.000	438.655	80.010	19.993	103.783	19.632	33.565	0.555
721.500	438.900	80.009	19.994	103.788	19.629	33.782	0.563
722.000	439.156	80.010	19.994	103.794	19.623	34.233	0.526
722.500	439.392	80.010	19.992	103.799	19.620	34.478	0.497
723.000	439.668	80.009	19.992	103.801	19.612	35.073	0.503
723.500	439.930	80.009	19.994	103.801	19.609	35.326	0.525
724.000	440.217	80.010	19.994	103.798	19.608	35.403	0.543
724.500	440.467	80.011	19.993	103.789	19.606	35.520	0.543
725.000	440.703	80.009	19.994	103.780	19.604	35.716	0.511
725.500	440.999	80.009	19.994	103.770	19.600	35.957	0.509
726.000	441.206	80.009	19.994	103.761	19.599	36.040	0.518
726.500	441.445	80.010	19.994	103.753	19.596	36.305	0.474
727.000	441.723	80.009	19.994	103.748	19.595	36.383	0.481
727.500	441.972	80.008	19.993	103.743	19.591	36.648	0.522
728.000	442.226	80.009	19.994	103.743	19.594	36.485	0.515
728.500	442.474	80.009	19.994	103.743	19.589	36.867	0.502
729.000	442.743	80.008	19.994	103.743	19.588	36.936	0.510
729.500	443.017	80.008	19.994	103.747	19.586	37.092	0.530
730.000	443.276	80.007	19.994	103.749	19.579	37.587	0.538
730.500	443.517	80.008	19.993	103.754	19.575	37.867	0.516
731.000	443.777	80.008	19.995	103.762	19.573	38.063	0.500
731.500	444.028	80.007	19.994	103.771	19.571	38.200	0.506
732.000	444.297	80.007	19.993	103.777	19.566	38.552	0.516
732.500	444.541	80.006	19.994	103.784	19.564	38.734	0.517
733.000	444.791	80.005	19.994	103.788	19.557	39.271	0.504
733.500	445.047	80.007	19.994	103.789	19.554	39.520	0.500
734.000	445.309	80.007	19.995	103.792	19.546	40.088	0.512
734.500	445.572	80.008	19.994	103.791	19.547	40.043	0.521
735.000	445.815	80.007	19.994	103.790	19.539	40.646	0.516
735.500	446.054	80.008	19.994	103.789	19.530	41.331	0.494
736.000	446.289	80.007	19.994	103.789	19.524	41.772	0.478
736.500	446.564	80.007	19.994	103.785	19.519	42.215	0.492
737.000	446.819	80.007	19.994	103.788	19.513	42.611	0.520
737.500	447.036	80.007	19.994	103.788	19.510	42.892	0.501
738.000	447.347	80.006	19.993	103.789	19.501	43.572	0.500
738.500	447.574	80.007	19.994	103.788	19.492	44.221	0.533
739.000	447.837	80.007	19.993	103.788	19.487	44.633	0.514
739.500	448.117	80.008	19.994	103.785	19.479	45.275	0.517
740.000	448.359	80.007	19.993	103.781	19.472	45.750	0.532
740.500	448.604	80.008	19.993	103.777	19.466	46.237	0.505
741.000	448.834	80.008	19.994	103.776	19.455	47.102	0.481
741.500	449.099	80.008	19.992	103.775	19.448	47.656	0.485
742.000	449.335	80.007	19.993	103.774	19.439	48.298	0.498
742.500	449.601	80.008	19.993	103.772	19.429	49.050	0.502
743.000	449.867	80.008	19.992	103.770	19.423	49.543	0.517
743.500	450.141	80.007	19.993	103.763	19.410	50.555	0.536
744.001	450.337	80.008	19.993	103.757	19.403	51.023	0.505
744.500	450.615	80.008	19.993	103.758	19.394	51.713	0.472
745.000	450.865	80.008	19.993	103.761	19.379	52.886	0.501
745.500	451.113	80.008	19.993	103.764	19.369	53.651	0.513
746.000	451.367	80.008	19.993	103.766	19.361	54.287	0.500
746.500	451.637	80.009	19.993	103.767	19.351	55.070	0.513
747.000	451.889	80.009	19.994	103.765	19.337	56.067	0.523
747.500	452.127	80.008	19.993	103.764	19.317	57.591	0.506
748.000	452.352	80.008	19.994	103.761	19.309	58.239	0.477
748.500	452.588	80.009	19.993	103.765	19.298	59.057	0.462
749.000	452.878	80.008	19.993	103.771	19.281	60.394	0.493
749.500	453.103	80.008	19.993	103.773	19.266	61.507	0.521
750.000	453.361	80.007	19.994	103.773	19.252	62.585	0.499
750.500	453.612	80.008	19.994	103.779	19.239	63.564	0.496
751.000	453.883	80.008	19.993	103.779	19.223	64.795	0.516
751.500	454.130	80.008	19.993	103.780	19.208	65.949	0.520
752.000	454.378	80.008	19.993	103.774	19.192	67.167	0.506
752.501	454.634	80.008	19.994	103.769	19.174	68.526	0.499
753.000	454.878	80.008	19.993	103.765	19.159	69.710	0.502
753.500	455.157	80.010	19.993	103.759	19.143	70.951	0.512
754.000	455.395	80.009	19.992	103.754	19.125	72.322	0.520
754.500	455.664	80.008	19.993	103.752	19.109	73.530	0.512
755.000	455.891	80.008	19.993	103.751	19.091	74.928	0.502
755.500	456.161	80.009	19.993	103.751	19.076	76.048	0.496
756.000	456.416	80.009	19.994	103.752	19.057	77.495	0.511
756.500	456.663	80.009	19.994	103.751	19.038	78.980	0.514
757.000	456.907	80.008	19.994	103.752	19.022	80.225	0.496
757.500	457.099	80.009	19.994	103.752	19.004	81.565	0.463
758.000	457.453	80.007	19.994	103.748	18.990	82.617	0.491
758.500	457.657	80.007	19.993	103.740	18.971	84.086	0.552
759.000	457.994	80.007	19.993	103.734	18.951	85.622	0.550
759.501	458.131	80.007	19.993	103.731	18.932	87.103	0.508
760.000	458.416	80.009	19.993	103.731	18.915	88.390	0.448
760.500	458.680	80.007	19.992	103.730	18.897	89.790	0.485
761.000	458.914	80.007	19.993	103.732	18.876	91.375	0.523
761.500	459.125	80.007	19.993	103.734	18.858	92.721	0.471
762.000	459.427	80.006	19.994	103.734	18.839	94.129	0.479
762.500	459.676	80.006	19.994	103.731	18.821	95.487	0.532
763.000	459.902	80.008	19.995	103.731	18.806	96.638	0.513
763.500	460.208	80.008	19.993	103.730	18.786	98.189	0.503
764.000	460.451	80.007	19.994	103.724	18.769	99.454	0.540
764.500	460.694	80.008	19.993	103.718	18.747	101.159	0.518
765.000	460.952	80.007	19.993	103.713	18.730	102.484	0.494
765.500	461.201	80.007	19.994	103.708	18.708	104.172	0.504
766.000	461.411	80.008	19.994	103.705	18.682	106.113	0.483
766.500	461.671	80.007	19.994	103.708	18.660	107.800	0.465
767.000	461.954	80.007	19.994	103.716	18.634	109.798	0.506
767.501	462.180	80.007	19.994	103.723	18.610	111.670	0.526
768.000	462.435	80.007	19.994	103.730	18.585	113.582	0.495
768.500	462.711	80.007	19.992	103.737	18.554	115.910	0.507
769.000	462.921	80.006	19.994	103.742	18.529	117.818	0.509
769.500	463.182	80.007	19.993	103.743	18.505	119.711	0.478
770.000	463.459	80.008	19.993	103.745	18.481	121.495	0.504
770.500	463.693	80.007	19.994	103.741	18.455	123.473	0.524
771.000	463.956	80.009	19.993	103.734	18.431	125.280	0.504
771.500	464.178	80.008	19.993	103.724	18.407	127.104	0.491
772.000	464.456	80.008	19.993	103.709	18.383	128.995	0.493
772.500	464.681	80.009	19.994	103.693	18.355	131.106	0.501
773.000	464.949	80.009	19.994	103.681	18.325	133.426	0.498
773.500	465.216	80.008	19.993	103.673	18.299	135.388	0.514
774.000	465.472	80.010	19.993	103.660	18.269	137.642	0.529
774.500	465.660	80.008	19.994	103.654	18.239	139.980	0.483
775.000	465.911	80.009	19.994	103.654	18.203	142.712	0.441
775.500	466.180	80.009	19.993	103.656	18.170	145.247	0.480
776.000	466.387	80.009	19.993	103.657	18.142	147.400	0.498
776.500	466.665	80.010	19.992	103.664	18.106	150.146	0.481
777.000	466.947	80.009	19.992	103.671	18.075	152.468	0.522
777.500	467.133	80.009	19.992	103.676	18.043	154.897	0.514
778.000	467.405	80.008	19.993	103.677	18.009	157.511	0.463
778.500	467.667	80.011	19.993	103.676	17.971	160.382	0.496
779.000	467.939	80.010	19.992	103.676	17.936	163.052	0.534
779.500	468.200	80.010	19.992	103.676	17.898	165.998	0.534
780.000	468.447	80.009	19.993	103.671	17.863	168.601	0.521
780.500	468.652	80.009	19.992	103.665	17.826	171.468	0.480
781.000	468.941	80.009	19.992	103.660	17.787	174.400	0.472
781.500	469.183	80.009	19.992	103.653	17.747	177.439	0.512
782.000	469.452	80.009	19.993	103.644	17.712	180.120	0.521
782.500	469.673	80.009	19.992	103.636	17.670	183.368	0.500
783.000	469.932	80.009	19.992	103.632	17.624	186.887	0.485
783.500	470.219	80.008	19.993	103.630	17.584	189.875	0.513
784.000	470.446	80.008	19.992	103.629	17.542	193.095	0.530
784.500	470.700	80.009	19.992	103.629	17.499	196.330	0.498
785.000	470.960	80.008	19.992	103.628	17.457	199.493	0.498
785.500	471.210	80.010	19.992	103.623	17.413	202.808	0.512
786.000	471.469	80.009	19.993	103.621	17.365	206.440	0.509
786.500	471.696	80.009	19.993	103.620	17.317	210.085	0.498
787.000	471.955	80.007	19.992	103.620	17.268	213.822	0.486
787.500	472.230	80.008	19.993	103.617	17.221	217.349	0.510
788.000	472.476	80.008	19.992	103.612	17.167	221.440	0.527
788.500	472.719	80.008	19.993	103.608	17.113	225.516	0.505
789.000	472.956	80.008	19.992	103.601	17.061	229.443	0.484
789.500	473.221	80.008	19.993	103.591	17.004	233.785	0.491
790.000	473.471	80.009	19.993	103.593	16.946	238.145	0.509
790.500	473.738	80.007	19.994	103.592	16.888	242.564	0.516
791.000	473.987	80.009	19.993	103.588	16.829	246.985	0.516
791.500	474.229	80.010	19.993	103.584	16.768	251.546	0.504
792.000	474.503	80.008	19.994	103.584	16.713	255.737	0.504
792.500	474.792	80.008	19.993	103.575	16.647	260.667	0.539
793.000	474.992	80.008	19.995	103.575	16.587	265.232	0.525
793.500	475.255	80.009	19.994	103.570	16.524	270.034	0.476
794.000	475.529	80.008	19.994	103.566	16.461	274.838	0.500
794.500	475.729	80.010	19.992	103.551	16.398	279.584	0.506
795.000	476.001	80.009	19.993	103.537	16.333	284.501	0.473
795.500	476.270	80.008	19.994	103.518	16.265	289.614	0.506
796.000	476.557	80.009	19.993	103.501	16.196	294.730	0.548
796.500	476.769	80.008	19.993	103.484	16.125	300.017	0.528
797.000	477.045	80.010	19.994	103.468	16.060	304.907	0.494
797.500	477.259	80.008	19.994	103.451	15.986	310.514	0.489
798.000	477.535	80.008	19.994	103.438	15.914	315.980	0.489
798.500	477.747	80.007	19.993	103.428	15.841	321.489	0.489
799.000	478.049	80.010	19.993	103.415	15.768	326.985	0.501
799.500	478.253	80.009	19.994	103.401	15.695	332.531	0.510
800.000	478.555	80.009	19.992	103.392	15.620	338.227	0.506
800.500	478.763	80.009	19.993	103.378	15.542	344.118	0.508
801.000	479.055	80.008	19.993	103.356	15.465	349.860	0.505
801.500	479.266	80.010	19.993	103.338	15.388	355.652	0.501
802.000	479.515	80.011	19.993	103.317	15.313	361.296	0.481
802.500	479.797	80.010	19.992	103.291	15.233	367.335	0.495
803.000	480.017	80.010	19.994	103.267	15.153	373.384	0.516
803.500	480.282	80.010	19.992	103.249	15.073	379.365	0.494
804.000	480.531	80.011	19.993	103.234	14.994	385.350	0.500
804.500	480.742	80.009	19.993	103.241	14.911	391.685	0.487
805.000	481.021	80.010	19.993	103.238	14.830	397.874	0.475
805.500	481.287	80.011	19.993	103.224	14.748	404.236	0.517
806.000	481.514	80.010	19.992	103.203	14.665	410.561	0.519
806.500	481.785	80.010	19.993	103.182	14.581	417.052	0.495
807.000	482.047	80.011	19.993	103.140	14.499	423.235	0.515
807.500	482.286	80.010	19.992	103.113	14.416	429.385	0.517
808.000	482.553	80.010	19.993	103.097	14.332	435.596	0.504
808.500	482.785	80.009	19.993	103.086	14.247	441.810	0.503
809.000	483.006	80.009	19.993	103.072	14.165	447.699	0.476
809.500	483.299	80.009	19.993	103.063	14.080	453.760	0.483
810.000	483.523	80.011	19.993	103.054	13.989	460.254	0.515
810.500	483.745	80.009	19.993	103.046	13.902	466.582	0.482
811.000	484.023	80.011	19.993	103.035	13.815	472.960	0.473
811.500	484.254	80.009	19.992	103.025	13.727	479.465	0.505
812.000	484.509	80.010	19.993	103.010	13.632	486.571	0.498
812.500	484.738	80.009	19.994	102.993	13.541	493.471	0.485
813.000	485.014	80.008	19.992	102.976	13.441	501.029	0.494
813.500	485.250	80.009	19.992	102.959	13.334	509.253	0.508
814.000	485.493	80.009	19.993	102.945	13.223	517.733	0.496
814.500	485.703	80.008	19.993	102.933	13.108	526.527	0.466
815.000	486.006	80.007	19.993	102.925	13.001	534.645	0.483
815.500	486.230	80.006	19.994	102.930	12.887	543.337	0.520
816.000	486.534	80.009	19.995	102.951	12.775	551.765	0.527
816.500	486.721	80.008	19.994	102.973	12.668	559.798	0.509
817.000	487.016	80.008	19.995	102.990	12.562	567.675	0.487
817.500	487.282	80.007	19.994	102.999	12.463	574.969	0.521
818.000	487.550	80.009	19.994	102.993	12.365	582.230	0.548
818.500	487.757	80.010	19.994	102.967	12.266	589.592	0.505
819.001	488.091	80.008	19.995	102.922	12.174	596.424	0.508
819.500	488.279	80.008	19.993	102.859	12.080	603.470	0.531
820.000	488.515	80.007	19.995	102.784	11.993	610.030	0.473
820.500	488.805	80.007	19.994	102.696	11.897	617.227	0.475
821.000	489.064	80.006	19.995	102.614	11.805	624.162	0.538
821.500	489.313	80.008	19.993	102.551	11.718	630.626	0.529
822.000	489.568	80.008	19.993	102.508	11.630	637.273	0.506
822.500	489.858	80.008	19.993	102.482	11.540	643.942	0.524
823.000	490.032	80.007	19.995	102.472	11.458	650.171	0.505
823.500	490.346	80.008	19.995	102.470	11.376	656.327	0.476
824.000	490.585	80.008	19.995	102.475	11.300	662.123	0.520
824.500	490.807	80.007	19.996	102.493	11.224	667.935	0.507
825.000	491.103	80.007	19.994	102.517	11.157	672.976	0.489
825.500	491.338	80.007	19.995	102.532	11.079	678.909	0.525
826.000	491.583	80.007	19.995	102.543	11.019	683.341	0.506
826.500	491.898	80.008	19.994	102.550	10.957	687.937	0.520
827.000	492.140	80.009	19.995	102.543	10.890	692.844	0.559
827.500	492.369	80.008	19.994	102.527	10.829	697.204	0.514
828.000	492.621	80.008	19.994	102.507	10.775	701.107	0.476
828.500	492.868	80.007	19.995	102.479	10.723	704.907	0.490
829.000	493.131	80.007	19.994	102.451	10.683	707.787	0.504
829.500	493.392	80.008	19.995	102.431	10.641	710.977	0.517
830.000	493.594	80.008	19.994	102.412	10.603	713.919	0.493
830.500	493.878	80.009	19.994	102.399	10.566	716.805	0.475
831.000	494.223	80.008	19.994	102.396	10.525	720.010	0.558
831.500	494.399	80.008	19.995	102.387	10.500	722.058	0.575
832.000	494.608	80.008	19.994	102.379	10.468	724.674	0.453
832.500	494.953	80.007	19.995	102.371	10.448	726.322	0.469
833.000	495.196	80.008	19.993	102.362	10.428	728.022	0.571
833.500	495.396	80.008	19.995	102.354	10.414	729.258	0.516
834.000	495.716	80.008	19.993	102.352	10.406	730.030	0.482
834.500	495.951	80.009	19.994	102.352	10.403	730.408	0.538
835.000	496.155	80.008	19.993	102.355	10.411	729.958	0.496
835.500	496.455	80.009	19.994	102.363	10.424	729.145	0.471
836.000	496.719	80.008	19.993	102.371	10.443	727.776	0.535
836.500	496.973	80.007	19.992	102.371	10.473	725.657	0.541
837.000	497.288	80.009	19.992	102.360	10.512	722.799	0.543
837.500	497.337	80.009	19.993	102.342	10.560	719.349	0.466
838.000	497.808	80.007	19.994	102.320	10.609	715.823	0.442
838.500	497.946	80.008	19.993	102.292	10.664	711.897	0.564
839.000	498.524	80.008	19.993	102.262	10.727	707.392	0.662
839.500	498.293	80.008	19.992	102.240	10.800	702.100	0.532
840.000	498.914	80.008	19.995	102.228	10.876	696.548	0.369
840.500	499.050	80.007	19.993	102.228	10.962	690.256	0.574
841.000	499.382	80.008	19.993	102.234	11.059	683.112	0.612
841.500	499.135	80.006	19.993	102.251	11.158	675.782	0.276
842.000	499.832	80.007	19.993	102.272	11.266	667.842	0.267
842.500	499.955	80.008	19.992	102.295	11.380	659.511	0.635
843.000	500.348	80.007	19.993	102.318	11.500	650.729	0.667
843.500	500.397	80.007	19.992	102.343	11.632	641.154	0.479
844.000	501.139	80.007	19.993	102.367	11.770	631.039	0.617
844.500	501.033	80.008	19.993	102.391	11.911	620.604	0.714
845.000	501.284	80.008	19.993	102.416	12.057	609.793	0.391
845.500	501.601	80.009	19.992	102.439	12.211	598.260	0.356
846.000	501.824	80.008	19.992	102.460	12.371	586.274	0.554
846.500	502.119	80.007	19.993	102.479	12.540	573.660	0.529
847.000	502.473	80.008	19.993	102.497	12.713	560.657	0.584
847.500	502.710	80.007	19.993	102.512	12.888	547.547	0.620
848.000	502.871	80.008	19.993	102.529	13.072	533.750	0.494
848.500	503.141	80.007	19.993	102.552	13.262	519.469	0.414
849.000	503.539	80.008	19.993	102.579	13.451	505.207	0.549
849.500	503.713	80.008	19.993	102.610	13.646	490.493	0.620
850.000	503.966	80.008	19.992	102.644	13.840	475.915	0.500
850.500	504.210	80.008	19.993	102.681	14.036	461.053	0.462
851.000	504.423	80.008	19.993	102.714	14.229	446.485	0.477
851.500	504.755	80.009	19.993	102.751	14.427	431.500	0.501
852.001	505.064	80.008	19.992	102.777	14.622	416.733	0.593
852.500	505.278	80.007	19.993	102.808	14.823	401.470	0.582
853.000	505.534	80.008	19.993	102.844	15.016	386.744	0.497
853.500	505.786	80.008	19.994	102.893	15.210	371.949	0.489
854.000	506.046	80.008	19.992	102.945	15.407	357.000	0.509
854.500	506.316	80.008	19.992	103.011	15.595	342.662	0.521
855.000	506.627	80.008	19.992	103.071	15.786	328.074	0.555
855.500	506.802	80.008	19.993	103.128	15.970	314.003	0.534
856.000	507.153	80.009	19.993	103.171	16.150	300.274	0.506
856.500	507.391	80.008	19.993	103.209	16.325	286.885	0.558
857.000	507.646	80.009	19.993	103.246	16.502	273.359	0.541
857.500	507.909	80.009	19.992	103.285	16.671	260.424	0.505
858.000	508.178	80.008	19.994	103.322	16.836	247.793	0.525
858.500	508.440	80.009	19.993	103.364	17.002	235.050	0.532
859.000	508.732	80.009	19.994	103.406	17.153	223.511	0.543
859.500	508.992	80.010	19.993	103.443	17.305	211.838	0.553
860.000	509.245	80.010	19.993	103.481	17.453	200.548	0.532
860.500	509.498	80.009	19.993	103.521	17.592	189.862	0.509
861.000	509.737	80.010	19.992	103.559	17.726	179.552	0.499
861.500	510.028	80.008	19.994	103.597	17.854	169.801	0.511
862.000	510.257	80.011	19.993	103.636	17.977	160.377	0.525
862.500	510.555	80.009	19.992	103.671	18.097	151.163	0.523
863.000	510.772	80.010	19.993	103.699	18.207	142.736	0.521
863.500	511.102	80.009	19.994	103.724	18.314	134.550	0.532
864.000	511.304	80.010	19.993	103.747	18.417	126.616	0.539
864.500	511.555	80.010	19.993	103.768	18.516	119.077	0.492
865.000	511.788	80.010	19.993	103.790	18.609	111.911	0.469
865.500	512.069	80.009	19.993	103.809	18.700	104.982	0.499
866.000	512.302	80.009	19.994	103.826	18.782	98.671	0.514
866.500	512.585	80.009	19.993	103.839	18.861	92.603	0.515
867.000	512.793	80.009	19.993	103.848	18.933	87.108	0.503
867.500	513.068	80.010	19.993	103.857	19.002	81.818	0.487
868.000	513.337	80.009	19.994	103.865	19.067	76.821	0.514
868.500	513.591	80.008	19.992	103.873	19.131	71.902	0.533
869.000	513.896	80.009	19.994	103.878	19.185	67.801	0.541
869.500	514.185	80.009	19.992	103.881	19.238	63.716	0.576
870.000	514.397	80.009	19.993	103.881	19.288	59.905	0.548
870.501	514.677	80.009	19.993	103.879	19.336	56.256	0.496
871.000	514.931	80.010	19.994	103.872	19.379	52.962	0.512
871.500	515.162	80.009	19.994	103.869	19.421	49.748	0.509
872.000	515.433	80.009	19.994	103.867	19.457	46.942	0.494
872.500	515.708	80.010	19.992	103.866	19.494	44.148	0.524
873.000	515.923	80.009	19.993	103.865	19.524	41.818	0.518
873.500	516.233	80.009	19.993	103.865	19.554	39.521	0.507
874.000	516.474	80.010	19.993	103.863	19.579	37.572	0.538
874.500	516.757	80.010	19.994	103.861	19.608	35.416	0.537
875.000	516.968	80.009	19.992	103.861	19.629	33.763	0.509
875.500	517.217	80.009	19.994	103.861	19.648	32.304	0.477
876.000	517.497	80.010	19.995	103.860	19.667	30.854	0.494
876.500	517.790	80.009	19.993	103.862	19.686	29.421	0.551
877.000	517.942	80.009	19.993	103.863	19.702	28.210	0.509
877.500	518.279	80.009	19.993	103.858	19.715	27.156	0.467
878.000	518.528	80.009	19.993	103.852	19.732	25.910	0.537
878.500	518.738	80.010	19.993	103.851	19.740	25.251	0.522
879.000	518.993	80.009	19.994	103.849	19.752	24.376	0.462
879.500	519.280	80.009	19.993	103.846	19.761	23.671	0.504
880.000	519.487	80.011	19.994	103.847	19.768	23.097	0.517
880.500	519.780	80.008	19.994	103.849	19.775	22.609	0.497
881.000	520.053	80.010	19.992	103.844	19.784	21.890	0.533
881.500	520.302	80.010	19.993	103.839	19.794	21.173	0.544
882.000	520.538	80.010	19.993	103.835	19.796	20.984	0.503
882.500	520.796	80.009	19.993	103.829	19.803	20.422	0.489
883.000	521.059	80.012	19.994	103.822	19.808	20.085	0.508
883.500	521.328	80.009	19.993	103.817	19.809	19.978	0.527
884.000	521.553	80.011	19.992	103.816	19.818	19.271	0.513
884.500	521.806	80.010	19.992	103.815	19.822	19.024	0.486
885.000	522.076	80.011	19.992	103.815	19.826	18.691	0.501
885.500	522.316	80.011	19.994	103.817	19.829	18.428	0.516
886.000	522.578	80.011	19.993	103.819	19.833	18.138	0.506
886.500	522.823	80.011	19.993	103.818	19.834	18.095	0.504
887.000	523.079	80.011	19.993	103.815	19.835	17.967	0.504
887.500	523.334	80.011	19.994	103.812	19.838	17.775	0.506
888.000	523.620	80.010	19.992	103.812	19.843	17.397	0.526
888.500	523.843	80.011	19.993	103.811	19.842	17.492	0.525
889.000	524.151	80.011	19.993	103.807	19.842	17.440	0.520
889.500	524.366	80.010	19.993	103.803	19.847	17.101	0.527
890.000	524.608	80.011	19.994	103.799	19.846	17.147	0.490
890.500	524.866	80.009	19.994	103.792	19.850	16.837	0.479
891.000	525.159	80.011	19.994	103.784	19.847	17.039	0.525
891.500	525.374	80.010	19.993	103.782	19.853	16.609	0.529
892.000	525.697	80.011	19.993	103.782	19.851	16.762	0.523
892.500	525.897	80.010	19.993	103.782	19.852	16.709	0.531
893.000	526.176	80.010	19.994	103.782	19.852	16.633	0.501
893.500	526.430	80.009	19.993	103.782	19.855	16.445	0.506
894.000	526.617	80.010	19.994	103.781	19.854	16.524	0.487
894.500	526.905	80.009	19.993	103.777	19.856	16.318	0.458
895.000	527.159	80.009	19.994	103.774	19.856	16.327	0.509
895.500	527.394	80.009	19.993	103.773	19.853	16.559	0.516
896.000	527.679	80.007	19.995	103.772	19.856	16.323	0.504
896.500	527.949	80.008	19.994	103.772	19.855	16.438	0.537
897.000	528.204	80.009	19.994	103.774	19.857	16.272	0.540
897.500	528.459	80.008	19.994	103.770	19.853	16.581	0.518
898.000	528.743	80.006	19.993	103.768	19.855	16.473	0.525
898.500	528.996	80.008	19.994	103.769	19.852	16.677	0.538
899.000	529.225	80.008	19.993	103.768	19.856	16.344	0.509
899.500	529.486	80.008	19.994	103.765	19.858	16.256	0.486
900.000	529.762	80.008	19.994	103.763	19.857	16.316	0.513
900.500	530.017	80.009	19.994	103.752	19.858	16.251	0.534
901.000	530.281	80.007	19.994	103.737	19.858	16.213	0.525
901.500	530.536	80.009	19.994	103.721	19.858	16.197	0.519
902.000	530.772	80.007	19.993	103.703	19.857	16.318	0.505
902.501	531.038	80.008	19.993	103.681	19.858	16.253	0.496
903.000	531.318	80.009	19.994	103.658	19.857	16.317	0.524
903.500	531.560	80.009	19.993	103.636	19.857	16.283	0.534
904.000	531.850	80.009	19.994	103.608	19.859	16.166	0.528
904.500	532.087	80.008	19.994	103.579	19.860	16.095	0.529
905.000	532.351	80.009	19.995	103.556	19.861	15.982	0.514
905.500	532.604	80.008	19.993	103.532	19.861	16.045	0.509
906.000	532.838	80.009	19.993	103.508	19.861	16.027	0.502
906.500	533.143	80.009	19.993	103.495	19.861	16.018	0.513
907.000	533.362	80.009	19.993	103.493	19.859	16.165	0.532
907.500	533.644	80.008	19.992	103.499	19.861	15.977	0.512
908.001	533.890	80.009	19.993	103.517	19.860	16.076	0.514
908.500	534.175	80.008	19.994	103.546	19.859	16.177	0.529
909.000	534.391	80.008	19.994	103.575	19.860	16.070	0.516
909.500	534.652	80.008	19.993	103.609	19.858	16.204	0.489
910.000	534.906	80.009	19.994	103.642	19.860	16.077	0.496
910.501	535.174	80.009	19.993	103.669	19.856	16.407	0.518
911.000	535.432	80.010	19.993	103.690	19.862	15.972	0.525
911.500	535.659	80.008	19.994	103.713	19.858	16.230	0.506
912.000	535.916	80.009	19.993	103.725	19.860	16.078	0.484
912.500	536.226	80.007	19.993	103.740	19.859	16.183	0.525
913.000	536.468	80.008	19.994	103.755	19.859	16.159	0.559
913.500	536.704	80.008	19.993	103.767	19.859	16.165	0.515
914.000	536.959	80.008	19.993	103.775	19.858	16.275	0.484
914.501	537.261	80.009	19.994	103.783	19.858	16.272	0.524
915.000	537.483	80.008	19.994	103.785	19.857	16.311	0.541
915.500	537.745	80.008	19.993	103.785	19.858	16.250	0.504
916.000	538.022	80.008	19.993	103.785	19.859	16.135	0.511
916.500	538.266	80.008	19.993	103.785	19.857	16.282	0.530
917.000	538.537	80.008	19.993	103.791	19.857	16.297	0.518
917.500	538.784	80.009	19.995	103.792	19.863	15.885	0.517
918.000	539.048	80.008	19.994	103.792	19.860	16.125	0.515
918.500	539.322	80.007	19.993	103.796	19.860	16.069	0.525
919.000	539.591	80.007	19.995	103.796	19.860	16.122	0.540
919.500	539.855	80.008	19.994	103.791	19.860	16.108	0.538
920.000	540.128	80.008	19.995	103.789	19.861	16.047	0.535
920.500	540.406	80.008	19.993	103.789	19.860	16.122	0.544
921.000	540.617	80.007	19.993	103.789	19.860	16.127	0.521
921.500	540.871	80.006	19.993	103.789	19.861	16.015	0.477
922.000	541.117	80.008	19.995	103.790	19.856	16.412	0.482
922.500	541.391	80.007	19.995	103.792	19.857	16.284	0.509
923.000	541.598	80.008	19.994	103.798	19.856	16.422	0.500
923.500	541.866	80.008	19.994	103.800	19.858	16.232	0.478
924.000	542.106	80.007	19.992	103.805	19.858	16.215	0.492
924.500	542.432	80.008	19.995	103.809	19.856	16.399	0.538
925.000	542.659	80.007	19.993	103.811	19.856	16.404	0.560
925.500	542.899	80.007	19.994	103.808	19.857	16.311	0.510
926.000	543.182	80.008	19.994	103.807	19.861	16.035	0.495
926.500	543.416	80.007	19.995	103.801	19.860	16.073	0.520
927.000	543.678	80.007	19.993	103.798	19.858	16.208	0.506
927.500	543.947	80.007	19.995	103.795	19.860	16.067	0.513
928.000	544.165	80.007	19.994	103.795	19.858	16.247	0.509
928.500	544.404	80.007	19.994	103.795	19.860	16.063	0.472
929.000	544.669	80.007	19.995	103.802	19.860	16.071	0.481
929.500	544.940	80.006	19.994	103.808	19.859	16.173	0.520
930.000	545.182	80.007	19.994	103.814	19.858	16.278	0.525
930.500	545.461	80.007	19.994	103.818	19.859	16.138	0.517
931.000	545.702	80.007	19.994	103.817	19.862	15.950	0.520
931.500	545.951	80.007	19.993	103.811	19.855	16.437	0.505
932.000	546.217	80.007	19.994	103.807	19.858	16.261	0.502
932.500	546.480	80.007	19.992	103.807	19.860	16.096	0.522
933.000	546.730	80.008	19.993	103.807	19.860	16.094	0.521
933.500	546.996	80.007	19.994	103.805	19.860	16.071	0.515
934.000	547.272	80.008	19.993	103.808	19.859	16.174	0.529
934.500	547.515	80.008	19.994	103.810	19.859	16.152	0.530
935.000	547.766	80.007	19.991	103.807	19.857	16.324	0.506
935.500	548.025	80.006	19.993	103.807	19.858	16.232	0.502
936.000	548.288	80.007	19.993	103.813	19.857	16.345	0.516
936.500	548.511	80.007	19.993	103.817	19.857	16.351	0.504
937.000	548.769	80.007	19.994	103.817	19.856	16.400	0.483
937.500	549.002	80.008	19.993	103.817	19.856	16.421	0.486
938.000	549.245	80.008	19.994	103.812	19.856	16.410	0.484
938.500	549.585	80.008	19.994	103.806	19.858	16.268	0.530
939.000	549.804	80.008	19.994	103.799	19.855	16.461	0.571
939.500	550.080	80.010	19.992	103.794	19.855	16.450	0.526
940.000	550.299	80.008	19.994	103.791	19.857	16.348	0.495
940.500	550.612	80.008	19.994	103.791	19.853	16.603	0.514
941.000	550.815	80.009	19.992	103.794	19.857	16.297	0.524
941.500	551.095	80.009	19.992	103.795	19.852	16.715	0.500
942.000	551.349	80.009	19.994	103.795	19.855	16.487	0.509
942.500	551.611	80.009	19.993	103.792	19.853	16.607	0.525
943.000	551.871	80.010	19.993	103.791	19.854	16.538	0.518
943.500	552.107	80.008	19.992	103.790	19.853	16.602	0.509
944.000	552.356	80.010	19.993	103.790	19.852	16.713	0.491
944.500	552.614	80.010	19.994	103.794	19.851	16.761	0.496
945.000	552.891	80.010	19.993	103.796	19.854	16.569	0.521
945.500	553.126	80.009	19.993	103.803	19.852	16.677	0.523
946.000	553.388	80.010	19.993	103.806	19.854	16.579	0.505
946.500	553.645	80.009	19.993	103.810	19.852	16.734	0.508
947.000	553.915	80.010	19.993	103.806	19.850	16.828	0.523
947.500	554.193	80.008	19.994	103.803	19.852	16.730	0.537
948.000	554.450	80.009	19.993	103.795	19.854	16.554	0.542
948.500	554.656	80.009	19.993	103.788	19.853	16.595	0.499
949.000	554.940	80.008	19.993	103.783	19.853	16.626	0.477
949.501	555.212	80.010	19.993	103.783	19.851	16.785	0.523
950.000	555.462	80.009	19.992	103.784	19.849	16.910	0.538
950.500	555.705	80.009	19.993	103.784	19.851	16.810	0.507
951.000	555.992	80.009	19.993	103.784	19.850	16.871	0.512
951.500	556.231	80.009	19.992	103.784	19.849	16.903	0.528
952.000	556.495	80.010	19.991	103.784	19.851	16.793	0.514
952.500	556.778	80.010	19.993	103.783	19.854	16.540	0.525
953.000	557.029	80.009	19.993	103.783	19.854	16.563	0.541
953.500	557.263	80.009	19.994	103.782	19.855	16.473	0.510
954.000	557.518	80.010	19.994	103.782	19.855	16.492	0.487
954.500	557.765	80.008	19.993	103.781	19.854	16.550	0.495
955.000	558.021	80.008	19.993	103.781	19.854	16.571	0.503
955.500	558.299	80.009	19.993	103.781	19.857	16.326	0.519
956.000	558.521	80.009	19.994	103.781	19.855	16.458	0.517
956.500	558.807	80.008	19.994	103.781	19.852	16.667	0.504
957.000	559.032	80.009	19.993	103.781	19.853	16.634	0.509
957.500	559.283	80.010	19.994	103.782	19.854	16.521	0.493
958.000	559.548	80.009	19.994	103.782	19.854	16.532	0.496
958.500	559.791	80.009	19.993	103.782	19.855	16.498	0.512
959.000	560.057	80.009	19.992	103.782	19.858	16.256	0.508
959.500	560.319	80.009	19.993	103.778	19.855	16.472	0.519
960.000	560.574	80.009	19.993	103.775	19.855	16.459	0.523
960.500	560.813	80.009	19.993	103.774	19.856	16.388	0.505
961.001	561.094	80.010	19.992	103.773	19.853	16.612	0.507
961.501	561.315	80.010	19.994	103.773	19.855	16.507	0.511
962.000	561.582	80.008	19.993	103.778	19.858	16.215	0.495
962.500	561.864	80.010	19.993	103.781	19.858	16.257	0.518
963.000	562.109	80.008	19.993	103.782	19.859	16.163	0.538
963.500	562.357	80.010	19.994	103.783	19.857	16.345	0.510
964.000	562.615	80.011	19.994	103.783	19.855	16.454	0.500
964.500	562.869	80.010	19.993	103.782	19.856	16.382	0.510
965.000	563.130	80.010	19.992	103.783	19.858	16.218	0.513
965.500	563.371	80.011	19.992	103.782	19.859	16.174	0.508
966.000	563.631	80.010	19.991	103.781	19.857	16.354	0.501
966.500	563.881	80.011	19.993	103.781	19.857	16.284	0.506
967.000	564.166	80.011	19.994	103.781	19.858	16.256	0.523
967.500	564.412	80.010	19.993	103.780	19.856	16.359	0.533
968.000	564.656	80.010	19.993	103.781	19.853	16.601	0.511
968.500	564.932	80.011	19.992	103.781	19.856	16.417	0.505
969.001	565.171	80.011	19.992	103.784	19.858	16.223	0.517
969.500	565.418	80.011	19.992	103.784	19.855	16.433	0.501
970.000	565.641	80.010	19.992	103.788	19.855	16.454	0.478
970.500	565.951	80.011	19.992	103.788	19.854	16.575	0.501
971.000	566.218	80.010	19.993	103.788	19.854	16.513	0.555
971.500	566.445	80.011	19.994	103.787	19.853	16.659	0.536
972.000	566.724	80.011	19.993	103.789	19.853	16.625	0.500
972.500	566.954	80.012	19.993	103.789	19.856	16.395	0.507
973.000	567.231	80.012	19.993	103.789	19.853	16.621	0.508
973.500	567.446	80.010	19.993	103.791	19.852	16.722	0.500
974.000	567.691	80.010	19.992	103.793	19.851	16.810	0.476
974.500	567.991	80.011	19.993	103.793	19.852	16.688	0.502
975.000	568.218	80.010	19.992	103.797	19.854	16.517	0.536
975.500	568.484	80.011	19.992	103.803	19.854	16.537	0.511
976.000	568.713	80.010	19.992	103.808	19.850	16.881	0.494
976.500	569.024	80.011	19.992	103.812	19.852	16.734	0.517
977.000	569.285	80.010	19.992	103.812	19.853	16.624	0.556
977.500	569.500	80.011	19.992	103.806	19.856	16.417	0.524
978.000	569.786	80.009	19.993	103.800	19.852	16.711	0.489
978.500	570.012	80.010	19.993	103.793	19.853	16.636	0.507
979.000	570.292	80.008	19.993	103.788	19.856	16.379	0.509
979.500	570.582	80.010	19.993	103.789	19.853	16.598	0.538
980.000	570.815	80.008	19.991	103.792	19.855	16.471	0.547
980.500	571.080	80.009	19.992	103.793	19.856	16.423	0.510
981.000	571.312	80.009	19.992	103.794	19.855	16.484	0.497
981.500	571.563	80.009	19.993	103.796	19.854	16.576	0.489
982.000	571.836	80.008	19.994	103.796	19.856	16.398	0.503
982.500	572.094	80.008	19.993	103.796	19.850	16.873	0.528
983.000	572.348	80.008	19.993	103.795	19.851	16.791	0.522
983.500	572.622	80.008	19.993	103.795	19.854	16.569	0.520
984.000	572.886	80.008	19.993	103.794	19.852	16.682	0.532
984.500	573.116	80.008	19.993	103.798	19.853	16.613	0.516
985.000	573.385	80.008	19.994	103.802	19.853	16.649	0.497
985.500	573.630	80.007	19.994	103.809	19.852	16.722	0.507
986.000	573.907	80.007	19.993	103.810	19.851	16.800	0.518
986.500	574.137	80.007	19.992	103.806	19.852	16.733	0.514
987.000	574.428	80.008	19.994	103.799	19.849	16.906	0.514
987.500	574.715	80.008	19.993	103.793	19.849	16.896	0.550
988.000	574.942	80.008	19.993	103.786	19.855	16.494	0.547
988.500	575.199	80.008	19.993	103.784	19.847	17.082	0.499
989.000	575.498	80.007	19.994	103.784	19.847	17.086	0.519
989.500	575.732	80.008	19.992	103.784	19.850	16.854	0.544
990.000	575.977	80.008	19.993	103.784	19.852	16.732	0.506
990.500	576.224	80.008	19.993	103.784	19.851	16.768	0.486
991.000	576.489	80.008	19.993	103.784	19.849	16.931	0.503
991.500	576.755	80.008	19.992	103.786	19.851	16.807	0.522
992.000	577.024	80.008	19.993	103.787	19.849	16.916	0.533
992.500	577.254	80.008	19.993	103.787	19.846	17.143	0.517
993.000	577.519	80.007	19.993	103.787	19.852	16.715	0.497
993.500	577.782	80.008	19.994	103.787	19.848	16.972	0.511
994.000	578.036	80.008	19.994	103.784	19.854	16.536	0.522
994.500	578.276	80.007	19.994	103.784	19.848	17.034	0.506
995.000	578.569	80.008	19.992	103.785	19.850	16.871	0.514
995.500	578.833	80.008	19.994	103.785	19.853	16.656	0.545
996.000	579.086	80.008	19.993	103.786	19.853	16.628	0.537
996.500	579.332	80.009	19.994	103.786	19.850	16.873	0.508
997.000	579.610	80.008	19.993	103.787	19.848	16.979	0.511
997.500	579.820	80.009	19.994	103.786	19.850	16.883	0.506
998.000	580.111	80.008	19.994	103.786	19.850	16.816	0.495
998.500	580.336	80.008	19.993	103.785	19.846	17.155	0.509
999.000	580.585	80.009	19.996	103.785	19.849	16.891	0.495
999.500	580.821	80.008	19.993	103.784	19.851	16.753	0.480
1000.000	581.083	80.007	19.992	103.784	19.848	17.006	0.492
1000.500	581.323	80.008	19.993	103.784	19.854	16.543	0.500
1001.000	581.605	80.007	19.993	103.784	19.852	16.695	0.511
1001.500	581.837	80.007	19.994	103.785	19.846	17.128	0.518
1002.000	582.115	80.009	19.993	103.785	19.852	16.683	0.512
1002.500	582.357	80.008	19.993	103.779	19.850	16.857	0.515
1003.000	582.596	80.008	19.993	103.780	19.849	16.947	0.500
1003.500	582.856	80.009	19.993	103.779	19.847	17.114	0.490
1004.000	583.104	80.008	19.994	103.780	19.846	17.192	0.504
1004.500	583.405	80.008	19.993	103.780	19.847	17.045	0.528
1005.000	583.598	80.009	19.993	103.786	19.847	17.069	0.521
1005.500	583.881	80.008	19.993	103.788	19.850	16.839	0.486
1006.000	584.132	80.009	19.992	103.788	19.850	16.839	0.505
1006.500	584.367	80.008	19.992	103.788	19.848	17.012	0.509
1007.000	584.612	80.008	19.992	103.788	19.848	16.983	0.483
1007.500	584.911	80.009	19.993	103.788	19.847	17.088	0.512
1008.000	585.160	80.009	19.993	103.785	19.849	16.917	0.546
1008.500	585.405	80.009	19.993	103.786	19.848	17.030	0.521
1009.000	585.663	80.009	19.992	103.785	19.848	17.042	0.498
1009.500	585.911	80.008	19.992	103.783	19.847	17.111	0.505
1010.000	586.174	80.009	19.993	103.783	19.847	17.096	0.509
1010.500	586.425	80.009	19.993	103.782	19.848	17.016	0.513
1011.000	586.666	80.007	19.993	103.786	19.846	17.190	0.503
1011.500	586.962	80.009	19.993	103.787	19.843	17.416	0.514
1012.000	587.186	80.007	19.993	103.788	19.849	16.962	0.528
1012.500	587.435	80.008	19.993	103.788	19.845	17.271	0.496
1013.000	587.689	80.008	19.994	103.788	19.845	17.198	0.488
1013.500	587.936	80.006	19.995	103.781	19.843	17.418	0.502
1014.000	588.203	80.006	19.994	103.780	19.845	17.232	0.508
1014.500	588.446	80.008	19.994	103.780	19.844	17.275	0.512
1015.000	588.677	80.008	19.993	103.780	19.845	17.208	0.492
1015.500	588.943	80.007	19.994	103.780	19.844	17.321	0.485
1016.000	589.224	80.007	19.994	103.782	19.843	17.365	0.523
1016.500	589.474	80.007	19.995	103.781	19.845	17.272	0.540
1017.000	589.740	80.008	19.994	103.782	19.845	17.240	0.523
1017.500	589.976	80.006	19.994	103.782	19.845	17.259	0.509
1018.000	590.239	80.007	19.994	103.784	19.844	17.278	0.500
1018.500	590.486	80.006	19.994	103.787	19.847	17.052	0.505
1019.000	590.715	80.007	19.994	103.787	19.842	17.464	0.493
1019.500	590.974	80.008	19.994	103.788	19.842	17.470	0.482
1020.000	591.232	80.007	19.993	103.787	19.846	17.196	0.502
1020.500	591.496	80.007	19.995	103.785	19.841	17.577	0.520
1021.000	591.767	80.008	19.994	103.783	19.845	17.257	0.529
1021.500	592.008	80.007	19.995	103.783	19.846	17.194	0.523
1022.000	592.269	80.007	19.994	103.782	19.843	17.357	0.507
1022.500	592.549	80.008	19.993	103.782	19.845	17.203	0.522
1023.000	592.770	80.007	19.995	103.782	19.844	17.345	0.521
1023.500	593.017	80.007	19.996	103.782	19.847	17.073	0.484
1024.000	593.256	80.007	19.994	103.782	19.845	17.244	0.477
1024.500	593.548	80.008	19.994	103.782	19.845	17.221	0.509
1025.000	593.800	80.010	19.994	103.786	19.845	17.215	0.537
1025.501	594.051	80.009	19.994	103.791	19.843	17.382	0.523
1026.001	594.329	80.009	19.994	103.791	19.844	17.292	0.515
1026.500	594.584	80.010	19.994	103.791	19.844	17.322	0.531
1027.000	594.824	80.010	19.994	103.791	19.843	17.351	0.514
1027.500	595.090	80.009	19.993	103.788	19.842	17.431	0.501
1028.000	595.359	80.009	19.994	103.782	19.844	17.286	0.521
1028.500	595.617	80.010	19.993	103.782	19.843	17.413	0.531
1029.000	595.863	80.009	19.993	103.781	19.843	17.395	0.516
1029.500	596.108	80.009	19.994	103.782	19.847	17.055	0.497
1030.000	596.369	80.010	19.994	103.781	19.843	17.385	0.498
1030.500	596.639	80.010	19.994	103.781	19.842	17.425	0.519
1031.000	596.873	80.010	19.992	103.782	19.844	17.332	0.517
1031.500	597.141	80.009	19.994	103.782	19.842	17.426	0.503
1032.000	597.431	80.011	19.994	103.782	19.845	17.247	0.530
1032.500	597.659	80.009	19.993	103.784	19.842	17.425	0.538
1033.000	597.890	80.010	19.993	103.784	19.842	17.440	0.489
1033.500	598.154	80.010	19.993	103.784	19.841	17.509	0.477
1034.000	598.396	80.010	19.993	103.783	19.842	17.488	0.500
1034.500	598.670	80.010	19.993	103.783	19.841	17.529	0.511
1035.000	598.943	80.010	19.993	103.781	19.843	17.381	0.531
1035.500	599.186	80.010	19.992	103.780	19.842	17.431	0.532
1036.000	599.428	80.009	19.994	103.780	19.841	17.509	0.501
1036.500	599.702	80.010	19.992	103.781	19.842	17.491	0.500
1037.000	599.924	80.011	19.993	103.782	19.841	17.533	0.506
1037.500	600.218	80.009	19.993	103.783	19.843	17.351	0.506
1038.000	600.410	80.009	19.994	103.785	19.841	17.549	0.501
1038.500	600.721	80.010	19.993	103.785	19.841	17.540	0.494
1039.000	600.974	80.010	19.993	103.782	19.840	17.647	0.533
1039.501	601.241	80.008	19.993	103.777	19.839	17.726	0.542
1040.001	601.491	80.011	19.992	103.770	19.841	17.574	0.519
1040.500	601.769	80.009	19.993	103.765	19.840	17.606	0.523
1041.000	601.976	80.011	19.993	103.762	19.843	17.418	0.506
1041.501	602.279	80.009	19.993	103.763	19.840	17.598	0.497
1042.001	602.515	80.009	19.993	103.767	19.838	17.782	0.524
1042.500	602.764	80.010	19.993	103.770	19.839	17.702	0.512
1043.000	603.023	80.009	19.993	103.772	19.839	17.681	0.497
1043.500	603.274	80.009	19.994	103.775	19.839	17.684	0.509
1044.000	603.552	80.009	19.994	103.777	19.839	17.667	0.519
1044.500	603.813	80.008	19.992	103.775	19.839	17.692	0.534
1045.000	604.046	80.009	19.994	103.775	19.840	17.621	0.516
1045.500	604.307	80.009	19.994	103.775	19.841	17.527	0.494
1046.000	604.535	80.010	19.992	103.775	19.841	17.504	0.492
1046.500	604.831	80.009	19.994	103.775	19.839	17.719	0.507
1047.000	605.048	80.009	19.994	103.777	19.843	17.420	0.518
1047.500	605.353	80.009	19.994	103.781	19.840	17.590	0.518
1048.000	605.540	80.010	19.993	103.783	19.840	17.640	0.507
1048.500	605.856	80.009	19.994	103.783	19.838	17.786	0.497
1049.000	606.105	80.009	19.991	103.779	19.841	17.554	0.534
1049.500	606.379	80.009	19.992	103.776	19.840	17.588	0.544
1050.000	606.576	80.010	19.994	103.775	19.841	17.550	0.497
1050.500	606.827	80.008	19.993	103.776	19.840	17.594	0.459
1051.000	607.122	80.010	19.992	103.776	19.840	17.585	0.497
1051.501	607.331	80.009	19.993	103.780	19.839	17.698	0.525
1052.001	607.597	80.009	19.992	103.782	19.839	17.684	0.490
1052.500	607.851	80.009	19.993	103.783	19.840	17.613	0.497
1053.000	608.113	80.010	19.993	103.783	19.842	17.449	0.518
1053.501	608.363	80.010	19.992	103.783	19.838	17.784	0.514
1054.001	608.610	80.011	19.993	103.784	19.839	17.731	0.504
1054.500	608.874	80.010	19.993	103.784	19.840	17.636	0.504
1055.000	609.159	80.009	19.991	103.784	19.842	17.501	0.530
1055.500	609.385	80.009	19.993	103.783	19.843	17.411	0.530
1056.000	609.615	80.009	19.993	103.784	19.839	17.697	0.483
1056.500	609.878	80.009	19.993	103.784	19.842	17.490	0.475
1057.000	610.115	80.010	19.992	103.783	19.838	17.805	0.496
1057.500	610.426	80.010	19.993	103.783	19.837	17.873	0.524
1058.000	610.658	80.011	19.994	103.783	19.840	17.620	0.546
1058.500	610.890	80.010	19.993	103.784	19.839	17.702	0.504
1059.000	611.146	80.010	19.993	103.784	19.839	17.710	0.476
1059.500	611.447	80.011	19.993	103.785	19.841	17.579	0.522
1060.000	611.703	80.009	19.993	103.785	19.840	17.641	0.557
1060.501	611.953	80.011	19.993	103.785	19.841	17.514	0.532
1061.001	612.186	80.010	19.993	103.784	19.838	17.758	0.495
1061.500	612.455	80.009	19.993	103.784	19.839	17.733	0.492
1062.000	612.715	80.009	19.993	103.783	19.842	17.487	0.515
1062.500	612.919	80.009	19.993	103.784	19.840	17.590	0.497
1063.000	613.183	80.009	19.993	103.784	19.841	17.575	0.466
1063.500	613.439	80.010	19.995	103.787	19.844	17.350	0.494
1064.000	613.711	80.009	19.993	103.791	19.843	17.406	0.524
1064.500	613.982	80.007	19.993	103.795	19.842	17.503	0.535
1065.001	614.247	80.009	19.995	103.795	19.842	17.475	0.540
1065.501	614.506	80.008	19.994	103.800	19.841	17.542	0.530
1066.001	614.754	80.006	19.993	103.805	19.840	17.653	0.516
1066.500	615.051	80.008	19.993	103.803	19.839	17.689	0.526
1067.000	615.274	80.008	19.993	103.801	19.842	17.451	0.532
1067.500	615.519	80.008	19.993	103.802	19.839	17.708	0.494
1068.000	615.822	80.008	19.992	103.799	19.838	17.758	0.508
1068.500	616.074	80.010	19.993	103.792	19.841	17.546	0.551
1069.000	616.319	80.009	19.993	103.791	19.838	17.740	0.526
1069.500	616.608	80.008	19.993	103.791	19.839	17.717	0.515
1070.000	616.859	80.008	19.993	103.793	19.840	17.623	0.537
1070.500	617.102	80.008	19.993	103.798	19.842	17.442	0.517
1071.000	617.340	80.009	19.993	103.805	19.838	17.785	0.488
1071.500	617.612	80.008	19.994	103.805	19.841	17.557	0.496
1072.000	617.854	80.007	19.993	103.804	19.838	17.779	0.512
1072.500	618.065	80.008	19.993	103.802	19.840	17.639	0.483
1073.001	618.342	80.008	19.993	103.795	19.838	17.760	0.470
1073.501	618.636	80.008	19.993	103.788	19.838	17.761	0.529
1074.000	618.878	80.008	19.992	103.787	19.837	17.813	0.554
1074.500	619.150	80.009	19.992	103.788	19.837	17.836	0.525
1075.000	619.389	80.008	19.993	103.788	19.837	17.813	0.513
1075.500	619.659	80.007	19.993	103.793	19.839	17.684	0.510
1076.000	619.922	80.008	19.993	103.797	19.839	17.665	0.521
1076.500	620.167	80.008	19.993	103.799	19.840	17.603	0.521
1077.001	620.431	80.008	19.992	103.800	19.837	17.876	0.509
1077.501	620.684	80.008	19.992	103.801	19.837	17.826	0.513
1078.001	620.951	80.008	19.993	103.795	19.837	17.871	0.518
1078.501	621.238	80.008	19.994	103.791	19.835	17.998	0.537
1079.000	621.488	80.008	19.993	103.789	19.842	17.463	0.545
1079.500	621.715	80.010	19.993	103.786	19.841	17.578	0.507
1080.000	621.987	80.008	19.994	103.786	19.837	17.817	0.488
1080.500	622.252	80.008	19.994	103.786	19.836	17.908	0.518
1081.000	622.486	80.009	19.992	103.787	19.837	17.819	0.519
1081.500	622.733	80.008	19.993	103.790	19.834	18.085	0.490
1082.000	623.007	80.008	19.994	103.790	19.839	17.711	0.501
1082.500	623.267	80.008	19.993	103.789	19.833	18.125	0.528
1083.000	623.479	80.008	19.993	103.789	19.836	17.907	0.503
1083.500	623.758	80.009	19.993	103.791	19.837	17.823	0.481
1084.000	624.031	80.009	19.994	103.791	19.836	17.948	0.521
1084.500	624.299	80.008	19.994	103.795	19.834	18.108	0.547
1085.000	624.534	80.009	19.994	103.794	19.835	17.985	0.522
1085.500	624.800	80.007	19.994	103.794	19.836	17.904	0.502
1086.000	625.073	80.008	19.994	103.793	19.834	18.052	0.520
1086.500	625.293	80.008	19.993	103.797	19.835	17.998	0.516
1087.000	625.564	80.009	19.993	103.799	19.832	18.208	0.492
1087.500	625.833	80.009	19.994	103.804	19.834	18.079	0.515
1088.000	626.057	80.010	19.993	103.809	19.835	17.975	0.517
1088.500	626.329	80.009	19.994	103.810	19.836	17.924	0.495
1089.000	626.600	80.009	19.994	103.803	19.835	17.991	0.520
1089.500	626.850	80.008	19.994	103.798	19.833	18.146	0.532
1090.000	627.100	80.008	19.993	103.793	19.833	18.183	0.510
1090.500	627.351	80.008	19.994	103.788	19.833	18.125	0.500
1091.000	627.636	80.009	19.994	103.784	19.835	17.983	0.518
1091.500	627.903	80.008	19.994	103.787	19.830	18.351	0.544
1092.000	628.172	80.009	19.994	103.791	19.831	18.292	0.545
1092.500	628.369	80.009	19.994	103.793	19.830	18.359	0.501
1093.000	628.651	80.009	19.993	103.796	19.834	18.098	0.472
1093.500	628.930	80.008	19.993	103.796	19.831	18.341	0.520
1094.000	629.158	80.009	19.993	103.793	19.832	18.232	0.534
1094.500	629.468	80.008	19.995	103.790	19.830	18.352	0.522
1095.000	629.703	80.009	19.994	103.787	19.829	18.486	0.541
1095.500	629.909	80.009	19.994	103.786	19.833	18.194	0.493
1096.000	630.155	80.008	19.994	103.786	19.832	18.231	0.446
1096.500	630.411	80.009	19.994	103.787	19.829	18.473	0.477
1097.000	630.702	80.008	19.994	103.788	19.828	18.555	0.525
1097.501	630.938	80.008	19.994	103.790	19.831	18.328	0.537
1098.001	631.191	80.008	19.994	103.792	19.832	18.270	0.508
1098.501	631.440	80.008	19.994	103.797	19.832	18.222	0.495
1099.000	631.710	80.008	19.993	103.798	19.830	18.393	0.511
1099.500	631.956	80.008	19.994	103.798	19.828	18.569	0.518
1100.001	632.251	80.008	19.994	103.799	19.830	18.356	0.528
1100.501	632.477	80.009	19.994	103.796	19.829	18.442	0.531
1101.000	632.727	80.007	19.994	103.795	19.829	18.440	0.499
1101.500	632.995	80.007	19.993	103.800	19.828	18.519	0.498
1102.001	633.240	80.008	19.994	103.799	19.830	18.419	0.516
1102.501	633.501	80.008	19.993	103.796	19.828	18.575	0.509
1103.000	633.784	80.009	19.993	103.797	19.829	18.457	0.524
1103.500	634.062	80.008	19.993	103.796	19.828	18.575	0.553
1104.000	634.284	80.009	19.994	103.797	19.828	18.525	0.531
1104.500	634.561	80.008	19.994	103.803	19.830	18.380	0.500
1105.000	634.798	80.008	19.994	103.810	19.824	18.856	0.506
1105.500	635.070	80.009	19.993	103.813	19.827	18.596	0.511
1106.000	635.276	80.009	19.994	103.815	19.827	18.634	0.493
1106.500	635.567	80.009	19.995	103.808	19.827	18.597	0.488
1107.000	635.810	80.008	19.994	103.805	19.828	18.506	0.516
1107.501	636.076	80.008	19.995	103.804	19.826	18.660	0.522
1108.001	636.360	80.009	19.994	103.802	19.827	18.607	0.530
1108.500	636.593	80.009	19.993	103.799	19.825	18.743	0.533
1109.001	636.856	80.009	19.994	103.804	19.828	18.576	0.506
1109.501	637.089	80.008	19.995	103.803	19.827	18.624	0.495
1110.000	637.338	80.009	19.993	103.802	19.826	18.728	0.489
1110.500	637.583	80.009	19.993	103.799	19.826	18.673	0.488
1111.001	637.825	80.009	19.993	103.802	19.824	18.811	0.491
1111.501	638.098	80.009	19.993	103.804	19.826	18.703	0.501
1112.000	638.352	80.009	19.994	103.808	19.823	18.886	0.521
1112.500	638.615	80.008	19.994	103.804	19.825	18.805	0.522
1113.000	638.846	80.009	19.994	103.804	19.828	18.577	0.506
1113.500	639.091	80.009	19.994	103.800	19.822	18.987	0.485
1114.000	639.369	80.009	19.994	103.792	19.823	18.910	0.500
1114.500	639.624	80.008	19.994	103.785	19.823	18.910	0.528
1115.000	639.895	80.008	19.992	103.790	19.821	19.060	0.529
1115.501	640.129	80.007	19.994	103.796	19.822	18.972	0.516
1116.001	640.395	80.009	19.996	103.803	19.824	18.872	0.502
1116.501	640.635	80.009	19.995	103.810	19.821	19.041	0.503
1117.001	640.904	80.010	19.995	103.812	19.824	18.821	0.508
1117.501	641.098	80.007	19.996	103.807	19.820	19.165	0.486
1118.001	641.380	80.009	19.995	103.802	19.822	19.001	0.469
1118.501	641.613	80.009	19.994	103.795	19.824	18.870	0.496
1119.000	641.887	80.009	19.994	103.793	19.823	18.929	0.511
1119.500	642.114	80.009	19.994	103.793	19.822	19.036	0.504
1120.000	642.384	80.009	19.994	103.793	19.823	18.919	0.499
1120.500	642.651	80.007	19.994	103.792	19.825	18.789	0.517
1121.000	642.905	80.008	19.994	103.792	19.824	18.824	0.529
1121.500	643.126	80.009	19.994	103.787	19.819	19.220	0.498
1122.001	643.422	80.009	19.994	103.785	19.820	19.167	0.496
1122.501	643.670	80.009	19.994	103.789	19.823	18.955	0.530
1123.000	643.890	80.009	19.994	103.796	19.820	19.122	0.507
1123.500	644.154	80.009	19.995	103.800	19.821	19.108	0.476
1124.000	644.395	80.007	19.994	103.801	19.822	19.032	0.494
1124.501	644.654	80.009	19.995	103.802	19.825	18.737	0.502
1125.001	644.903	80.009	19.994	103.802	19.824	18.842	0.504
1125.501	645.138	80.008	19.994	103.801	19.824	18.840	0.496
1126.001	645.379	80.009	19.994	103.797	19.824	18.837	0.480
1126.500	645.654	80.007	19.994	103.797	19.822	19.024	0.496
1127.000	645.856	80.008	19.994	103.798	19.821	19.077	0.497
1127.500	646.141	80.008	19.994	103.796	19.821	19.104	0.482
1128.001	646.414	80.009	19.993	103.794	19.821	19.100	0.522
1128.501	646.620	80.010	19.994	103.800	19.820	19.139	0.518
1129.000	646.870	80.008	19.994	103.807	19.823	18.914	0.467
1129.500	647.130	80.008	19.994	103.812	19.823	18.943	0.483
1130.000	647.409	80.008	19.994	103.814	19.821	19.070	0.525
1130.500	647.635	80.009	19.994	103.816	19.824	18.837	0.522
1131.000	647.890	80.009	19.993	103.817	19.823	18.951	0.493
1131.500	648.134	80.009	19.993	103.816	19.824	18.854	0.489
1132.000	648.386	80.010	19.993	103.810	19.819	19.250	0.497
1132.500	648.606	80.009	19.993	103.807	19.823	18.960	0.484
1133.000	648.912	80.009	19.993	103.802	19.823	18.929	0.499
1133.500	649.154	80.009	19.993	103.798	19.820	19.124	0.537
1134.000	649.432	80.009	19.993	103.795	19.820	19.156	0.534
1134.500	649.674	80.010	19.992	103.800	19.822	18.980	0.520
1135.000	649.932	80.011	19.993	103.808	19.819	19.203	0.510
1135.500	650.201	80.010	19.993	103.815	19.824	18.826	0.513
1136.000	650.414	80.009	19.992	103.818	19.822	19.011	0.505
1136.500	650.719	80.010	19.993	103.820	19.822	19.018	0.500
1137.000	650.976	80.010	19.994	103.814	19.819	19.202	0.540
1137.500	651.181	80.011	19.993	103.807	19.820	19.147	0.512
1138.000	651.481	80.011	19.993	103.801	19.820	19.151	0.484
1138.500	651.719	80.011	19.993	103.799	19.821	19.082	0.521
1139.000	651.996	80.011	19.991	103.802	19.821	19.109	0.526
1139.500	652.262	80.010	19.993	103.808	19.820	19.160	0.529
1140.000	652.501	80.011	19.993	103.815	19.819	19.243	0.524
1140.500	652.749	80.010	19.992	103.813	19.817	19.372	0.496
1141.000	653.009	80.010	19.991	103.810	19.815	19.508	0.497
1141.501	653.262	80.010	19.992	103.802	19.818	19.267	0.511
1142.000	653.523	80.011	19.993	103.796	19.816	19.450	0.513
1142.500	653.766	80.011	19.993	103.793	19.818	19.267	0.509
1143.000	654.038	80.011	19.992	103.795	19.818	19.307	0.510
1143.500	654.269	80.011	19.994	103.800	19.817	19.365	0.509
1144.000	654.542	80.010	19.993	103.805	19.820	19.156	0.503
1144.500	654.803	80.011	19.992	103.804	19.817	19.374	0.519
1145.001	655.073	80.013	19.992	103.800	19.818	19.318	0.532
1145.500	655.291	80.011	19.993	103.796	19.819	19.248	0.509
1146.000	655.575	80.010	19.993	103.793	19.821	19.097	0.495
1146.500	655.813	80.010	19.994	103.791	19.817	19.413	0.512
1147.000	656.094	80.010	19.992	103.794	19.817	19.409	0.520
1147.500	656.329	80.010	19.993	103.799	19.816	19.462	0.517
1148.000	656.601	80.010	19.994	103.800	19.815	19.500	0.512
1148.500	656.842	80.009	19.992	103.797	19.818	19.297	0.510
1149.000	657.090	80.008	19.993	103.794	19.816	19.477	0.501
1149.500	657.359	80.008	19.994	103.791	19.818	19.307	0.503
1150.000	657.594	80.008	19.994	103.793	19.816	19.465	0.511
1150.500	657.848	80.008	19.994	103.799	19.816	19.464	0.497
1151.000	658.104	80.008	19.993	103.804	19.818	19.303	0.500
1151.500	658.334	80.010	19.993	103.804	19.814	19.577	0.498
1152.000	658.557	80.009	19.992	103.803	19.818	19.315	0.470
1152.500	658.845	80.009	19.994	103.797	19.816	19.474	0.482
1153.000	659.061	80.008	19.993	103.792	19.818	19.331	0.507
1153.500	659.330	80.008	19.994	103.789	19.814	19.583	0.495
1154.000	659.608	80.010	19.993	103.790	19.818	19.275	0.516
1154.500	659.892	80.008	19.994	103.796	19.819	19.263	0.555
1155.000	660.134	80.008	19.994	103.799	19.818	19.326	0.544
1155.500	660.281	80.008	19.994	103.802	19.815	19.524	0.457
1156.000	660.664	80.009	19.993	103.805	19.816	19.485	0.460
1156.500	660.856	80.009	19.994	103.807	19.814	19.599	0.553
1157.000	661.189	80.009	19.994	103.809	19.815	19.553	0.550
1157.500	661.421	80.009	19.993	103.811	19.816	19.437	0.545
1158.000	661.625	80.009	19.994	103.809	19.816	19.463	0.500
1158.500	661.893	80.009	19.993	103.811	19.816	19.432	0.454
1159.000	662.149	80.008	19.994	103.815	19.816	19.419	0.498
1159.500	662.401	80.008	19.993	103.814	19.814	19.643	0.516
1160.000	662.628	80.009	19.994	103.814	19.818	19.320	0.494
1160.500	662.921	80.010	19.994	103.811	19.818	19.333	0.500
1161.000	663.148	80.009	19.993	103.806	19.817	19.344	0.520
1161.500	663.396	80.009	19.993	103.804	19.818	19.327	0.497
1162.000	663.661	80.008	19.993	103.802	19.817	19.355	0.494
1162.500	663.914	80.009	19.993	103.800	19.817	19.395	0.516
1163.000	664.186	80.009	19.993	103.799	19.815	19.500	0.521
1163.500	664.402	80.010	19.994	103.798	19.815	19.516	0.506
1164.000	664.668	80.009	19.993	103.794	19.817	19.372	0.485
1164.500	664.903	80.009	19.995	103.790	19.817	19.390	0.492
1165.000	665.168	80.010	19.993	103.788	19.816	19.469	0.501
1165.500	665.420	80.010	19.992	103.787	19.816	19.496	0.508
1166.000	665.691	80.009	19.994	103.789	19.815	19.500	0.520
1166.500	665.964	80.009	19.993	103.795	19.812	19.729	0.533
1167.000	666.163	80.010	19.993	103.802	19.814	19.648	0.508
1167.500	666.453	80.010	19.994	103.805	19.813	19.711	0.481
1168.001	666.731	80.009	19.993	103.805	19.814	19.651	0.529
1168.500	666.932	80.010	19.993	103.803	19.812	19.733	0.524
1169.000	667.242	80.009	19.993	103.798	19.814	19.632	0.495
1169.500	667.465	80.010	19.993	103.796	19.811	19.818	0.522
1170.000	667.722	80.010	19.993	103.795	19.813	19.714	0.507
1170.500	667.990	80.010	19.993	103.798	19.811	19.808	0.502
1171.000	668.202	80.009	19.993	103.804	19.815	19.504	0.503
1171.500	668.484	80.010	19.993	103.804	19.813	19.704	0.487
1172.000	668.743	80.010	19.993	103.798	19.810	19.957	0.517
1172.500	668.989	80.010	19.994	103.797	19.812	19.748	0.523
1173.000	669.239	80.009	19.993	103.801	19.810	19.930	0.501
1173.500	669.530	80.010	19.994	103.802	19.810	19.924	0.519
1174.000	669.750	80.009	19.993	103.806	19.809	20.032	0.526
1174.500	670.032	80.010	19.993	103.810	19.811	19.820	0.507
1175.000	670.267	80.008	19.994	103.811	19.811	19.865	0.510
1175.500	670.532	80.011	19.995	103.806	19.811	19.820	0.508
1176.000	670.800	80.011	19.996	103.806	19.810	19.943	0.516
1176.500	671.049	80.010	19.994	103.803	19.812	19.766	0.525
1177.001	671.285	80.009	19.995	103.803	19.809	19.979	0.501
1177.501	671.549	80.009	19.995	103.808	19.809	19.960	0.492
1178.000	671.779	80.008	19.996	103.813	19.809	20.010	0.496
1178.500	672.069	80.009	19.995	103.813	19.808	20.048	0.507
1179.000	672.313	80.008	19.995	103.815	19.807	20.142	0.528
1179.500	672.537	80.009	19.995	103.810	19.808	20.097	0.501
1180.000	672.829	80.009	19.995	103.806	19.808	20.072	0.492
1180.500	673.053	80.008	19.994	103.804	19.808	20.049	0.516
1181.000	673.369	80.008	19.995	103.806	19.809	19.979	0.528
1181.500	673.554	80.008	19.994	103.809	19.810	19.887	0.520
1182.000	673.857	80.009	19.994	103.816	19.806	20.193	0.495
1182.500	674.109	80.009	19.994	103.820	19.808	20.086	0.521
1183.000	674.326	80.008	19.993	103.821	19.809	19.964	0.512
1183.500	674.648	80.008	19.994	103.821	19.809	19.982	0.504
1184.000	674.899	80.007	19.995	103.821	19.808	20.091	0.556
1184.500	675.126	80.007	19.993	103.821	19.806	20.191	0.525
1185.000	675.384	80.008	19.995	103.821	19.808	20.066	0.482
1185.500	675.652	80.008	19.993	103.817	19.811	19.868	0.506
1186.000	675.903	80.009	19.993	103.810	19.810	19.955	0.522
1186.500	676.158	80.007	19.994	103.806	19.807	20.126	0.512
1187.000	676.429	80.009	19.995	103.804	19.808	20.075	0.516
1187.500	676.681	80.009	19.994	103.803	19.807	20.132	0.525
1188.000	676.897	80.009	19.994	103.803	19.810	19.900	0.496
1188.500	677.138	80.008	19.995	103.803	19.810	19.922	0.463
1189.000	677.414	80.009	19.994	103.804	19.807	20.119	0.487
1189.500	677.714	80.008	19.995	103.806	19.808	20.093	0.546
1190.000	677.942	80.008	19.994	103.805	19.807	20.114	0.552
1190.500	678.225	80.011	19.994	103.809	19.810	19.913	0.519
1191.000	678.490	80.007	19.994	103.811	19.812	19.796	0.529
1191.500	678.720	80.009	19.994	103.810	19.807	20.169	0.522
1192.000	678.985	80.008	19.993	103.805	19.808	20.050	0.495
1192.500	679.233	80.010	19.994	103.802	19.810	19.903	0.504
1193.000	679.508	80.010	19.994	103.796	19.807	20.187	0.518
1193.500	679.756	80.010	19.994	103.794	19.810	19.927	0.523
1194.000	679.982	80.010	19.994	103.793	19.807	20.116	0.499
1194.500	680.308	80.010	19.994	103.797	19.803	20.426	0.513
1195.000	680.475	80.010	19.993	103.800	19.803	20.445	0.522
1195.500	680.819	80.011	19.993	103.807	19.807	20.169	0.502
1196.000	680.982	80.010	19.994	103.808	19.804	20.382	0.509
1196.500	681.288	80.011	19.994	103.806	19.809	20.004	0.488
1197.000	681.545	80.011	19.993	103.801	19.808	20.077	0.516
1197.500	681.787	80.011	19.993	103.797	19.805	20.266	0.531
1198.000	682.029	80.010	19.993	103.791	19.806	20.248	0.491
1198.500	682.300	80.010	19.993	103.794	19.804	20.398	0.498
1199.000	682.562	80.010	19.993	103.798	19.807	20.147	0.523
1199.501	682.795	80.011	19.994	103.801	19.805	20.274	0.514
1200.000	683.084	80.010	19.992	103.805	19.804	20.392	0.508
1200.500	683.345	80.012	19.992	103.810	19.805	20.337	0.536
1201.000	683.612	80.009	19.993	103.811	19.805	20.329	0.539
1201.500	683.837	80.010	19.993	103.809	19.800	20.660	0.510
1202.000	684.090	80.010	19.993	103.811	19.804	20.397	0.485
1202.500	684.366	80.011	19.993	103.813	19.805	20.281	0.503
1203.000	684.598	80.009	19.993	103.813	19.804	20.415	0.518
1203.500	684.844	80.010	19.993	103.810	19.802	20.535	0.493
1204.000	685.106	80.009	19.993	103.808	19.804	20.392	0.493
1204.500	685.348	80.010	19.995	103.804	19.805	20.290	0.506
1205.000	685.626	80.010	19.993	103.799	19.805	20.311	0.512
1205.500	685.860	80.009	19.994	103.793	19.805	20.297	0.516
1206.000	686.136	80.010	19.993	103.791	19.804	20.378	0.510
1206.500	686.413	80.009	19.993	103.791	19.805	20.294	0.531
1207.000	686.629	80.010	19.993	103.791	19.804	20.358	0.523
1207.500	686.891	80.009	19.994	103.795	19.804	20.343	0.486
1208.000	687.164	80.009	19.993	103.802	19.803	20.463	0.507
1208.500	687.404	80.009	19.994	103.808	19.805	20.327	0.524
1209.000	687.645	80.009	19.994	103.809	19.803	20.488	0.497
1209.500	687.919	80.010	19.994	103.809	19.805	20.265	0.498
1210.000	688.133	80.009	19.994	103.809	19.802	20.562	0.501
1210.500	688.394	80.009	19.993	103.804	19.803	20.445	0.481
1211.000	688.667	80.010	19.994	103.800	19.806	20.221	0.505
1211.500	688.906	80.009	19.994	103.806	19.806	20.212	0.524
1212.000	689.189	80.009	19.994	103.811	19.804	20.348	0.517
1212.500	689.419	80.009	19.995	103.813	19.804	20.394	0.517
1213.000	689.672	80.009	19.995	103.813	19.805	20.268	0.498
1213.500	689.922	80.010	19.995	103.810	19.805	20.325	0.493
1214.000	690.173	80.010	19.994	103.810	19.802	20.502	0.502
1214.500	690.435	80.010	19.996	103.804	19.808	20.101	0.507
1215.000	690.638	80.008	19.995	103.800	19.806	20.238	0.489
1215.500	690.920	80.011	19.995	103.800	19.802	20.506	0.475
1216.000	691.195	80.010	19.995	103.800	19.807	20.174	0.521
1216.500	691.443	80.011	19.995	103.793	19.801	20.575	0.540
1217.000	691.689	80.009	19.994	103.791	19.800	20.671	0.509
1217.500	691.946	80.010	19.994	103.790	19.802	20.569	0.498
1218.000	692.168	80.010	19.995	103.787	19.803	20.448	0.491
1218.500	692.461	80.010	19.995	103.786	19.803	20.450	0.497
1219.000	692.701	80.010	19.994	103.787	19.801	20.629	0.524
1219.500	692.958	80.010	19.994	103.787	19.803	20.449	0.515
1220.000	693.197	80.010	19.994	103.788	19.803	20.458	0.496
1220.500	693.448	80.012	19.994	103.789	19.803	20.490	0.494
1221.000	693.712	80.011	19.994	103.791	19.799	20.735	0.503
1221.500	693.954	80.013	19.994	103.791	19.802	20.538	0.510
1222.000	694.219	80.010	19.994	103.792	19.803	20.426	0.506
1222.500	694.437	80.013	19.995	103.788	19.799	20.769	0.495
1223.000	694.768	80.012	19.994	103.785	19.801	20.586	0.516
1223.500	694.960	80.013	19.994	103.786	19.801	20.597	0.536
1224.000	695.201	80.012	19.993	103.786	19.799	20.741	0.478
1224.500	695.469	80.012	19.993	103.787	19.800	20.692	0.471
1225.000	695.765	80.011	19.993	103.794	19.803	20.474	0.537
1225.500	696.010	80.011	19.994	103.799	19.801	20.586	0.553
1226.000	696.270	80.011	19.993	103.801	19.800	20.690	0.523
1226.500	696.496	80.013	19.992	103.805	19.799	20.780	0.495
1227.000	696.757	80.011	19.993	103.809	19.800	20.683	0.486
1227.500	697.030	80.012	19.993	103.804	19.798	20.862	0.511
1228.000	697.220	80.011	19.992	103.805	19.800	20.649	0.499
1228.500	697.592	80.012	19.992	103.808	19.799	20.775	0.513
1229.000	697.796	80.010	19.992	103.808	19.798	20.839	0.569
1229.500	698.009	80.012	19.993	103.809	19.798	20.802	0.496
1230.000	698.301	80.009	19.993	103.813	19.793	21.198	0.461
1230.500	698.522	80.010	19.995	103.814	19.798	20.803	0.509
1231.000	698.753	80.011	19.993	103.815	19.793	21.182	0.482
1231.500	699.029	80.010	19.994	103.817	19.798	20.868	0.479
1232.000	699.262	80.010	19.993	103.811	19.796	20.990	0.508
1232.500	699.511	80.009	19.993	103.807	19.796	21.013	0.496
1233.000	699.752	80.009	19.993	103.800	19.798	20.831	0.486
1233.500	700.035	80.009	19.993	103.793	19.797	20.922	0.507
1234.000	700.306	80.010	19.993	103.786	19.799	20.760	0.539
1234.500	700.485	80.009	19.993	103.787	19.794	21.118	0.502
1235.000	700.772	80.008	19.992	103.788	19.797	20.939	0.458
1235.500	701.026	80.010	19.993	103.793	19.795	21.045	0.503
1236.000	701.276	80.009	19.994	103.802	19.797	20.895	0.522
1236.500	701.541	80.009	19.994	103.809	19.795	21.034	0.509
1237.000	701.778	80.009	19.993	103.814	19.797	20.884	0.509
1237.500	702.002	80.009	19.994	103.817	19.795	21.031	0.482
1238.000	702.283	80.009	19.995	103.813	19.796	20.981	0.483
1238.500	702.517	80.010	19.992	103.806	19.798	20.830	0.510
1239.000	702.783	80.009	19.993	103.798	19.794	21.149	0.507
1239.500	703.013	80.009	19.993	103.792	19.798	20.808	0.498
1240.000	703.273	80.008	19.993	103.787	19.796	20.992	0.493
1240.500	703.557	80.009	19.993	103.789	19.794	21.109	0.517
1241.000	703.793	80.010	19.994	103.795	19.799	20.795	0.532
1241.500	704.032	80.009	19.992	103.802	19.798	20.832	0.497
1242.000	704.310	80.007	19.993	103.810	19.794	21.128	0.496
1242.500	704.544	80.008	19.993	103.816	19.797	20.920	0.514
1243.000	704.759	80.008	19.994	103.819	19.796	21.025	0.481
1243.500	705.041	80.010	19.993	103.820	19.798	20.798	0.474
1244.000	705.265	80.009	19.995	103.820	19.796	20.965	0.502
1244.500	705.528	80.009	19.995	103.815	19.796	20.972	0.496
1245.000	705.793	80.009	19.994	103.807	19.797	20.887	0.507
1245.500	706.044	80.010	19.994	103.803	19.797	20.935	0.522
1246.000	706.258	80.009	19.992	103.804	19.799	20.754	0.490
1246.500	706.529	80.010	19.993	103.804	19.794	21.106	0.475
1247.000	706.784	80.008	19.993	103.805	19.795	21.100	0.506
1247.500	707.021	80.008	19.994	103.808	19.792	21.284	0.509
1248.000	707.285	80.009	19.994	103.810	19.794	21.124	0.496
1248.500	707.532	80.009	19.994	103.807	19.795	21.067	0.506
1249.001	707.787	80.010	19.994	103.806	19.794	21.137	0.506
1249.500	708.044	80.011	19.994	103.803	19.795	21.090	0.507
1250.000	708.287	80.010	19.995	103.800	19.795	21.077	0.506
1250.500	708.552	80.010	19.994	103.799	19.794	21.170	0.504
1251.000	708.828	80.009	19.994	103.800	19.793	21.235	0.525
1251.500	709.074	80.010	19.993	103.798	19.799	20.728	0.532
1252.000	709.323	80.009	19.995	103.806	19.796	21.028	0.508
1252.500	709.565	80.009	19.994	103.812	19.794	21.164	0.493
1253.000	709.838	80.009	19.994	103.810	19.794	21.181	0.503
1253.500	710.054	80.010	19.993	103.805	19.793	21.214	0.502
1254.000	710.334	80.009	19.993	103.806	19.795	21.051	0.493
1254.500	710.611	80.010	19.993	103.802	19.792	21.294	0.527
1255.000	710.826	80.010	19.993	103.797	19.798	20.869	0.524
1255.500	711.063	80.010	19.992	103.802	19.792	21.307	0.472
1256.000	711.340	80.010	19.995	103.808	19.793	21.245	0.483
1256.500	711.588	80.008	19.994	103.806	19.790	21.434	0.519
1257.000	711.843	80.010	19.993	103.803	19.787	21.673	0.514
1257.500	712.130	80.009	19.993	103.805	19.786	21.734	0.522
1258.000	712.396	80.009	19.993	103.804	19.787	21.668	0.547
1258.500	712.636	80.010	19.994	103.805	19.789	21.542	0.530
1259.000	712.906	80.009	19.993	103.810	19.793	21.255	0.508
1259.500	713.135	80.009	19.993	103.815	19.791	21.350	0.504
1260.001	713.362	80.009	19.992	103.813	19.790	21.450	0.477
1260.500	713.627	80.009	19.993	103.809	19.792	21.268	0.474
1261.000	713.915	80.008	19.993	103.803	19.792	21.313	0.523
1261.500	714.112	80.009	19.993	103.800	19.787	21.650	0.519
1262.000	714.371	80.008	19.993	103.799	19.791	21.394	0.471
1262.500	714.623	80.009	19.993	103.806	19.791	21.361	0.484
1263.000	714.925	80.008	19.992	103.813	19.791	21.405	0.533
1263.500	715.174	80.008	19.993	103.819	19.790	21.490	0.552
1264.000	715.433	80.007	19.994	103.822	19.790	21.469	0.529
1264.500	715.651	80.008	19.993	103.819	19.789	21.515	0.493
1265.000	715.936	80.008	19.993	103.813	19.789	21.543	0.490
1265.500	716.188	80.009	19.993	103.812	19.788	21.625	0.520
1266.000	716.456	80.008	19.994	103.813	19.789	21.505	0.528
1266.500	716.729	80.009	19.993	103.813	19.786	21.775	0.530
1267.000	716.965	80.008	19.994	103.819	19.786	21.782	0.526
1267.500	717.226	80.008	19.994	103.825	19.786	21.765	0.503
1268.000	717.501	80.008	19.994	103.826	19.786	21.739	0.516
1268.500	717.720	80.009	19.994	103.825	19.785	21.849	0.515
1269.000	717.927	80.008	19.993	103.822	19.787	21.647	0.460
1269.500	718.241	80.007	19.993	103.819	19.785	21.859	0.473
1270.000	718.419	80.007	19.994	103.818	19.787	21.694	0.506
1270.500	718.736	80.009	19.993	103.818	19.787	21.654	0.494
1271.000	718.953	80.008	19.994	103.818	19.788	21.588	0.515
1271.501	719.173	80.008	19.993	103.818	19.786	21.776	0.486
1272.000	719.491	80.007	19.993	103.815	19.785	21.804	0.488
1272.500	719.720	80.009	19.993	103.814	19.787	21.664	0.543
1273.000	720.054	80.008	19.994	103.812	19.783	22.011	0.555
1273.500	720.282	80.007	19.994	103.812	19.785	21.798	0.562
1274.000	720.497	80.008	19.994	103.816	19.786	21.790	0.502
1274.500	720.752	80.008	19.993	103.818	19.785	21.802	0.457
1275.000	721.041	80.009	19.993	103.820	19.784	21.940	0.507
1275.500	721.266	80.008	19.994	103.818	19.783	21.956	0.529
1276.000	721.519	80.009	19.993	103.812	19.785	21.808	0.496
1276.500	721.776	80.009	19.993	103.805	19.783	21.952	0.494
1277.000	721.980	80.009	19.994	103.803	19.782	22.057	0.485
1277.500	722.253	80.010	19.993	103.803	19.786	21.789	0.468
1278.000	722.479	80.010	19.994	103.804	19.784	21.937	0.488
1278.500	722.746	80.011	19.993	103.807	19.782	22.068	0.496
1279.000	722.984	80.010	19.994	103.812	19.787	21.684	0.499
1279.500	723.227	80.010	19.994	103.809	19.783	21.965	0.493
1280.000	723.504	80.009	19.994	103.801	19.783	21.994	0.500
1280.500	723.731	80.009	19.995	103.795	19.783	21.995	0.512
1281.000	723.973	80.010	19.994	103.793	19.780	22.184	0.487
1281.500	724.242	80.010	19.992	103.793	19.782	22.088	0.490
1282.000	724.453	80.011	19.993	103.796	19.783	21.991	0.495
1282.500	724.716	80.010	19.994	103.797	19.785	21.840	0.477
1283.000	724.975	80.010	19.994	103.800	19.781	22.119	0.499
1283.500	725.259	80.011	19.994	103.800	19.783	21.982	0.533
1284.000	725.500	80.009	19.995	103.800	19.780	22.226	0.534
1284.500	725.758	80.011	19.994	103.801	19.783	22.012	0.512
1285.000	726.009	80.011	19.994	103.807	19.781	22.175	0.504
1285.500	726.229	80.010	19.993	103.811	19.778	22.355	0.490
1286.000	726.461	80.010	19.995	103.812	19.784	21.894	0.461
1286.500	726.694	80.011	19.994	103.809	19.780	22.179	0.458
1287.000	726.996	80.009	19.994	103.811	19.786	21.746	0.500
1287.500	727.238	80.009	19.994	103.811	19.785	21.862	0.540
1288.000	727.468	80.010	19.995	103.811	19.779	22.312	0.508
1288.500	727.704	80.010	19.993	103.811	19.781	22.153	0.468
1289.000	727.963	80.010	19.993	103.816	19.784	21.870	0.480
1289.500	728.211	80.009	19.992	103.816	19.781	22.158	0.501
1290.000	728.481	80.010	19.994	103.817	19.780	22.208	0.512
1290.500	728.723	80.010	19.993	103.811	19.780	22.196	0.515
1291.000	728.980	80.010	19.993	103.811	19.780	22.239	0.506
1291.500	729.235	80.010	19.994	103.805	19.785	21.860	0.506
1292.000	729.431	80.010	19.993	103.798	19.782	22.060	0.482
1292.500	729.721	80.009	19.994	103.799	19.781	22.132	0.469
1293.000	729.961	80.010	19.994	103.804	19.781	22.116	0.508
1293.500	730.245	80.010	19.994	103.805	19.776	22.501	0.527
1294.000	730.484	80.010	19.993	103.809	19.783	22.000	0.524
1294.500	730.722	80.010	19.994	103.812	19.783	21.966	0.500
1295.000	730.971	80.009	19.993	103.811	19.782	22.046	0.482
1295.500	731.236	80.010	19.993	103.805	19.783	21.983	0.501
1296.000	731.480	80.010	19.994	103.806	19.782	22.069	0.511
1296.500	731.714	80.010	19.993	103.808	19.781	22.138	0.493
1297.000	731.945	80.010	19.995	103.812	19.782	22.081	0.472
1297.500	732.219	80.010	19.994	103.814	19.781	22.123	0.485
1298.000	732.481	80.010	19.993	103.815	19.781	22.162	0.520
1298.500	732.697	80.010	19.993	103.809	19.784	21.931	0.507
1299.000	732.981	80.010	19.993	103.801	19.779	22.327	0.489
1299.500	733.205	80.011	19.994	103.793	19.779	22.296	0.504
1300.000	733.455	80.009	19.994	103.786	19.783	21.994	0.491
1300.500	733.742	80.009	19.994	103.783	19.783	22.021	0.505
1301.000	733.968	80.009	19.994	103.783	19.781	22.134	0.525
1301.500	734.242	80.011	19.993	103.788	19.783	21.975	0.507
1302.000	734.457	80.011	19.993	103.792	19.779	22.278	0.494
1302.500	734.711	80.010	19.994	103.797	19.781	22.133	0.479
1303.000	734.988	80.010	19.993	103.805	19.785	21.810	0.500
1303.500	735.230	80.010	19.994	103.811	19.783	22.021	0.525
1304.000	735.477	80.009	19.993	103.813	19.781	22.131	0.504
1304.500	735.719	80.010	19.993	103.814	19.781	22.118	0.489
1305.000	735.954	80.011	19.993	103.809	19.781	22.126	0.484
1305.500	736.217	80.011	19.993	103.804	19.777	22.476	0.488
1306.000	736.502	80.011	19.993	103.800	19.782	22.086	0.522
1306.500	736.705	80.010	19.994	103.799	19.783	21.997	0.518
1307.000	736.966	80.012	19.994	103.800	19.778	22.344	0.476
1307.500	737.231	80.011	19.993	103.807	19.780	22.197	0.495
1308.000	737.473	80.011	19.993	103.808	19.778	22.393	0.517
1308.500	737.734	80.012	19.994	103.807	19.780	22.201	0.505
1309.000	737.990	80.010	19.994	103.802	19.780	22.225	0.510
1309.500	738.246	80.011	19.993	103.801	19.780	22.250	0.514
1310.000	738.511	80.011	19.994	103.801	19.778	22.372	0.516
1310.500	738.746	80.011	19.993	103.805	19.777	22.461	0.510
1311.000	738.992	80.012	19.995	103.810	19.779	22.252	0.491
1311.500	739.240	80.010	19.994	103.817	19.780	22.195	0.488
1312.000	739.481	80.011	19.994	103.818	19.783	21.987	0.492
1312.500	739.763	80.011	19.994	103.818	19.778	22.397	0.506
1313.000	740.023	80.010	19.994	103.817	19.781	22.106	0.532
1313.500	740.278	80.011	19.994	103.816	19.776	22.507	0.529
1314.000	740.520	80.010	19.994	103.810	19.779	22.257	0.506
1314.500	740.771	80.011	19.994	103.807	19.779	22.321	0.495
1315.000	741.016	80.010	19.994	103.804	19.779	22.326	0.494
1315.500	741.304	80.010	19.994	103.802	19.781	22.123	0.515
1316.000	741.501	80.009	19.994	103.800	19.780	22.249	0.509
1316.500	741.771	80.008	19.994	103.803	19.779	22.302	0.476
1317.000	742.048	80.009	19.994	103.802	19.777	22.416	0.507
1317.500	742.294	80.007	19.993	103.802	19.777	22.479	0.534
1318.000	742.542	80.008	19.994	103.802	19.779	22.257	0.508
1318.500	742.760	80.010	19.994	103.800	19.776	22.549	0.481
1319.000	743.020	80.007	19.993	103.801	19.777	22.454	0.472
1319.500	743.321	80.008	19.995	103.799	19.777	22.428	0.520
1320.000	743.585	80.009	19.995	103.796	19.777	22.414	0.562
1320.500	743.822	80.009	19.995	103.792	19.778	22.402	0.532
1321.000	744.061	80.008	19.994	103.790	19.777	22.408	0.489
1321.500	744.277	80.010	19.994	103.786	19.778	22.372	0.466
1322.000	744.555	80.008	19.993	103.785	19.778	22.406	0.475
1322.500	744.830	80.009	19.994	103.790	19.780	22.242	0.524
1323.000	745.052	80.009	19.994	103.794	19.784	21.938	0.525
1323.500	745.303	80.010	19.993	103.797	19.777	22.478	0.485
