Sample ID:	C:\MCC\MCC Cal\Test\LW_GypBoard_Unpainted_Paper_MCC_30K_min_211130_R2.txt
Sample Weight (mg):	4.81
Heating Rate (C/s):	0.5
Combustor Temp (C):	900
N2 Flow Rate (cc/min):	80
O2 Flow Rate (cc/min):	20
Calibration File:	C:\MCC\MCC Cal\Coeff1 JN10440_30_210304.txt.txt
T Correction Coefficients:	0	1.024463	0
Time Shift (s):	14
*
Time (s)	Temperature (C)	N2 flow rate (cc/min)	O2 flow rate (cc/min)	Flow Rate (cc/min)	Oxygen (%)	HRR (W/g)	Heating rate (C/s)
-0.001	109.419	80.008	19.993	103.122	20.074	0.092	0.009
0.499	109.423	80.007	19.994	103.122	20.073	0.187	0.009
1.000	109.407	80.006	19.994	103.123	20.071	0.296	-0.007
1.500	109.404	80.007	19.994	103.125	20.072	0.248	-0.016
2.000	109.414	80.007	19.995	103.125	20.068	0.518	-0.006
2.500	109.407	80.007	19.994	103.127	20.068	0.468	0.005
3.000	109.442	80.007	19.995	103.129	20.069	0.432	0.016
3.500	109.390	80.007	19.993	103.130	20.070	0.336	0.006
4.000	109.378	80.006	19.994	103.130	20.072	0.217	-0.041
4.500	109.387	80.006	19.993	103.131	20.070	0.364	-0.033
5.000	109.387	80.007	19.994	103.132	20.072	0.219	0.003
5.500	109.400	80.006	19.994	103.134	20.075	0.051	0.011
6.000	109.354	80.005	19.994	103.134	20.067	0.597	-0.010
6.500	109.387	80.005	19.994	103.137	20.069	0.410	-0.023
7.000	109.416	80.007	19.995	103.145	20.065	0.716	0.024
7.500	109.407	80.006	19.994	103.152	20.068	0.531	0.041
8.000	109.411	80.007	19.994	103.158	20.067	0.551	0.007
8.500	109.423	80.006	19.993	103.162	20.069	0.425	0.006
9.000	109.412	80.006	19.994	103.164	20.069	0.419	0.009
9.500	109.421	80.007	19.994	103.165	20.063	0.853	-0.000
10.000	109.438	80.007	19.994	103.167	20.066	0.625	0.012
10.500	109.407	80.006	19.994	103.168	20.066	0.605	0.005
11.000	109.406	80.007	19.994	103.173	20.066	0.643	-0.023
11.500	109.427	80.006	19.995	103.176	20.062	0.921	-0.006
12.000	109.455	80.006	19.994	103.182	20.056	1.274	0.035
12.500	109.461	80.006	19.994	103.189	20.062	0.875	0.042
13.000	109.458	80.007	19.994	103.196	20.058	1.171	0.019
13.500	109.474	80.007	19.994	103.209	20.063	0.811	0.008
14.000	109.497	80.007	19.994	103.223	20.059	1.088	0.026
14.500	109.496	80.006	19.993	103.228	20.057	1.241	0.030
15.000	109.507	80.009	19.994	103.228	20.059	1.073	0.015
15.500	109.508	80.007	19.995	103.233	20.058	1.167	0.011
16.000	109.497	80.009	19.994	103.235	20.053	1.528	0.001
16.500	109.523	80.008	19.994	103.230	20.052	1.603	0.003
17.000	109.549	80.009	19.995	103.231	20.052	1.555	0.034
17.500	109.576	80.007	19.994	103.238	20.049	1.783	0.053
18.000	109.586	80.007	19.995	103.246	20.051	1.636	0.045
18.500	109.636	80.007	19.993	103.255	20.052	1.542	0.049
19.000	109.651	80.008	19.994	103.274	20.049	1.792	0.062
19.500	109.674	80.009	19.994	103.286	20.048	1.831	0.051
20.000	109.710	80.007	19.993	103.294	20.050	1.706	0.049
20.500	109.748	80.010	19.995	103.296	20.048	1.866	0.067
21.000	109.762	80.009	19.995	103.296	20.046	2.002	0.063
21.500	109.844	80.008	19.995	103.290	20.043	2.160	0.074
22.000	109.821	80.009	19.995	103.289	20.043	2.155	0.077
22.500	109.891	80.007	19.995	103.289	20.039	2.412	0.053
23.000	109.946	80.007	19.994	103.290	20.048	1.868	0.086
23.500	110.014	80.008	19.994	103.291	20.041	2.274	0.124
24.000	110.024	80.007	19.995	103.293	20.041	2.324	0.101
24.500	110.084	80.008	19.994	103.297	20.041	2.300	0.074
25.000	110.129	80.008	19.994	103.299	20.042	2.263	0.088
25.500	110.159	80.007	19.994	103.304	20.045	2.013	0.089
26.000	110.205	80.007	19.993	103.309	20.042	2.230	0.075
26.500	110.266	80.009	19.995	103.311	20.041	2.328	0.091
27.000	110.362	80.009	19.995	103.315	20.044	2.083	0.132
27.500	110.363	80.007	19.996	103.320	20.037	2.579	0.127
28.000	110.466	80.008	19.996	103.323	20.044	2.134	0.101
28.500	110.550	80.006	19.995	103.321	20.038	2.480	0.145
29.000	110.587	80.008	19.996	103.323	20.040	2.353	0.154
29.500	110.690	80.007	19.996	103.321	20.035	2.717	0.131
30.000	110.744	80.006	19.995	103.318	20.038	2.511	0.149
30.500	110.807	80.006	19.994	103.318	20.040	2.407	0.137
31.000	110.855	80.009	19.995	103.319	20.039	2.414	0.114
31.500	110.964	80.008	19.995	103.316	20.038	2.478	0.134
32.000	111.014	80.007	19.995	103.319	20.038	2.511	0.158
32.500	111.071	80.007	19.995	103.321	20.038	2.504	0.133
33.000	111.192	80.008	19.994	103.321	20.037	2.568	0.142
33.500	111.285	80.008	19.996	103.322	20.036	2.620	0.195
34.000	111.348	80.008	19.994	103.322	20.034	2.785	0.185
34.499	111.403	80.008	19.995	103.323	20.037	2.550	0.137
35.000	111.494	80.009	19.996	103.323	20.039	2.473	0.132
35.500	111.576	80.008	19.996	103.323	20.035	2.719	0.160
35.999	111.690	80.008	19.994	103.324	20.039	2.430	0.185
36.500	111.784	80.008	19.996	103.327	20.039	2.449	0.201
37.000	111.893	80.009	19.994	103.327	20.032	2.943	0.205
37.499	111.954	80.010	19.995	103.327	20.035	2.719	0.187
38.000	112.029	80.008	19.995	103.326	20.037	2.605	0.153
38.500	112.159	80.009	19.995	103.326	20.033	2.833	0.170
38.999	112.252	80.009	19.995	103.327	20.037	2.600	0.214
39.499	112.334	80.010	19.995	103.327	20.034	2.750	0.199
39.999	112.399	80.008	19.994	103.327	20.037	2.555	0.161
40.499	112.530	80.008	19.994	103.327	20.032	2.923	0.172
40.999	112.635	80.009	19.994	103.327	20.036	2.635	0.216
41.499	112.737	80.009	19.994	103.326	20.031	2.990	0.221
41.999	112.819	80.010	19.996	103.325	20.033	2.865	0.195
42.500	112.975	80.010	19.994	103.325	20.035	2.743	0.211
43.000	113.016	80.009	19.994	103.326	20.035	2.736	0.218
43.500	113.138	80.011	19.995	103.326	20.037	2.574	0.180
44.000	113.276	80.009	19.995	103.326	20.036	2.617	0.212
44.499	113.377	80.010	19.994	103.325	20.032	2.880	0.249
44.999	113.489	80.009	19.995	103.325	20.035	2.733	0.226
45.500	113.588	80.011	19.995	103.324	20.030	3.067	0.212
46.000	113.713	80.010	19.994	103.324	20.033	2.854	0.218
46.500	113.824	80.010	19.995	103.325	20.033	2.870	0.230
47.001	113.960	80.010	19.995	103.325	20.031	3.004	0.242
47.500	114.057	80.010	19.996	103.326	20.028	3.183	0.239
47.999	114.179	80.008	19.995	103.325	20.030	3.017	0.225
48.499	114.312	80.008	19.994	103.325	20.030	3.069	0.237
48.999	114.433	80.010	19.996	103.325	20.032	2.889	0.255
49.499	114.544	80.009	19.996	103.325	20.030	3.047	0.243
49.999	114.671	80.009	19.995	103.324	20.029	3.139	0.235
50.499	114.799	80.008	19.996	103.325	20.033	2.829	0.247
50.999	114.936	80.010	19.995	103.327	20.033	2.849	0.260
51.499	115.042	80.009	19.995	103.330	20.032	2.882	0.254
51.999	115.164	80.008	19.996	103.331	20.028	3.165	0.236
52.499	115.265	80.007	19.995	103.335	20.031	2.955	0.225
52.999	115.426	80.008	19.996	103.335	20.034	2.773	0.242
53.499	115.537	80.007	19.996	103.333	20.033	2.825	0.267
54.000	115.671	80.007	19.995	103.336	20.036	2.650	0.259
54.500	115.784	80.008	19.996	103.341	20.032	2.902	0.246
54.999	115.929	80.007	19.996	103.345	20.030	3.023	0.252
55.499	116.058	80.005	19.995	103.352	20.027	3.255	0.266
55.999	116.167	80.007	19.996	103.357	20.031	2.988	0.256
56.499	116.323	80.006	19.996	103.354	20.032	2.880	0.251
56.999	116.451	80.006	19.996	103.348	20.032	2.942	0.275
57.499	116.625	80.006	19.995	103.343	20.034	2.790	0.293
57.999	116.807	80.007	19.997	103.338	20.030	3.064	0.329
58.499	116.879	80.007	19.996	103.338	20.037	2.586	0.305
59.000	117.048	80.005	19.997	103.342	20.034	2.810	0.247
59.500	117.224	80.006	19.995	103.350	20.028	3.163	0.293
59.999	117.314	80.006	19.996	103.356	20.030	3.027	0.306
60.499	117.475	80.006	19.995	103.361	20.029	3.137	0.258
61.000	117.619	80.006	19.996	103.363	20.030	3.034	0.278
61.500	117.735	80.007	19.995	103.362	20.033	2.863	0.283
62.000	117.877	80.007	19.996	103.361	20.036	2.650	0.259
62.500	118.020	80.007	19.996	103.361	20.032	2.892	0.271
62.999	118.172	80.006	19.995	103.360	20.030	3.058	0.290
63.499	118.367	80.006	19.994	103.359	20.031	2.960	0.321
63.999	118.473	80.007	19.995	103.359	20.031	2.964	0.324
64.499	118.659	80.008	19.996	103.360	20.032	2.905	0.297
65.000	118.783	80.007	19.996	103.360	20.027	3.269	0.301
65.501	118.964	80.006	19.995	103.360	20.030	3.034	0.308
66.000	119.148	80.005	19.995	103.359	20.030	3.079	0.335
66.500	119.272	80.007	19.996	103.358	20.036	2.659	0.337
67.001	119.409	80.007	19.996	103.357	20.032	2.920	0.284
67.501	119.617	80.007	19.995	103.357	20.032	2.933	0.303
68.000	119.748	80.008	19.995	103.357	20.025	3.358	0.342
68.499	119.911	80.005	19.995	103.359	20.030	3.056	0.317
69.000	120.059	80.007	19.994	103.359	20.032	2.941	0.302
69.500	120.217	80.006	19.995	103.358	20.027	3.224	0.309
69.999	120.377	80.007	19.995	103.356	20.026	3.281	0.312
70.499	120.555	80.006	19.995	103.356	20.027	3.255	0.328
71.000	120.707	80.007	19.995	103.351	20.026	3.290	0.333
71.500	120.896	80.007	19.994	103.349	20.026	3.298	0.336
71.999	121.036	80.006	19.994	103.348	20.030	3.048	0.336
72.499	121.211	80.007	19.996	103.346	20.031	2.972	0.322
73.000	121.366	80.007	19.995	103.342	20.031	2.985	0.322
73.500	121.560	80.005	19.994	103.344	20.031	2.957	0.339
74.000	121.725	80.007	19.995	103.340	20.030	3.055	0.354
74.500	121.889	80.007	19.995	103.337	20.029	3.138	0.344
74.999	122.067	80.008	19.995	103.338	20.030	3.020	0.335
75.499	122.237	80.008	19.995	103.342	20.036	2.636	0.345
75.999	122.403	80.008	19.995	103.345	20.029	3.108	0.342
76.499	122.568	80.007	19.996	103.353	20.029	3.088	0.334
77.000	122.750	80.007	19.993	103.359	20.024	3.454	0.339
77.500	122.931	80.008	19.994	103.361	20.025	3.351	0.355
78.000	123.100	80.006	19.994	103.360	20.027	3.228	0.356
78.501	123.283	80.008	19.995	103.359	20.035	2.722	0.351
79.000	123.425	80.005	19.994	103.357	20.028	3.165	0.339
79.499	123.568	80.007	19.994	103.357	20.028	3.178	0.305
79.999	123.800	80.007	19.994	103.357	20.029	3.114	0.330
80.499	123.964	80.006	19.996	103.359	20.033	2.856	0.385
80.999	124.137	80.007	19.995	103.360	20.030	3.042	0.366
81.499	124.329	80.008	19.995	103.362	20.035	2.726	0.351
81.999	124.462	80.006	19.994	103.363	20.028	3.169	0.346
82.500	124.640	80.007	19.994	103.367	20.028	3.160	0.318
83.001	124.870	80.007	19.995	103.367	20.031	3.011	0.359
83.501	125.021	80.006	19.994	103.366	20.033	2.832	0.394
84.001	125.190	80.006	19.994	103.366	20.031	3.009	0.350
84.500	125.395	80.008	19.994	103.366	20.031	2.970	0.347
85.000	125.578	80.006	19.995	103.366	20.029	3.123	0.381
85.500	125.745	80.007	19.994	103.366	20.031	2.978	0.369
85.999	125.931	80.006	19.994	103.367	20.026	3.296	0.352
86.499	126.092	80.006	19.996	103.367	20.028	3.209	0.350
86.999	126.265	80.007	19.996	103.368	20.034	2.759	0.341
87.500	126.444	80.006	19.995	103.369	20.030	3.079	0.343
88.000	126.636	80.004	19.995	103.369	20.028	3.189	0.361
88.499	126.847	80.006	19.996	103.369	20.025	3.406	0.387
88.999	127.027	80.006	19.995	103.370	20.029	3.145	0.397
89.499	127.253	80.008	19.995	103.368	20.029	3.136	0.399
89.999	127.441	80.005	19.994	103.368	20.029	3.119	0.410
90.499	127.580	80.005	19.994	103.368	20.029	3.145	0.370
90.999	127.771	80.005	19.994	103.368	20.030	3.064	0.328
91.499	127.986	80.003	19.994	103.369	20.028	3.198	0.368
91.999	128.133	80.005	19.994	103.370	20.028	3.165	0.384
92.499	128.340	80.005	19.994	103.370	20.025	3.382	0.358
92.999	128.526	80.005	19.994	103.370	20.031	2.959	0.373
93.500	128.746	80.005	19.994	103.371	20.027	3.226	0.400
94.000	128.954	80.005	19.994	103.370	20.026	3.281	0.417
94.499	129.118	80.006	19.993	103.369	20.027	3.246	0.400
95.000	129.295	80.005	19.994	103.369	20.031	2.974	0.356
95.500	129.504	80.007	19.994	103.368	20.024	3.441	0.364
95.999	129.690	80.005	19.993	103.368	20.025	3.414	0.391
96.499	129.943	80.006	19.995	103.367	20.029	3.114	0.417
96.999	130.109	80.006	19.995	103.368	20.028	3.163	0.429
97.499	130.300	80.007	19.995	103.368	20.025	3.401	0.388
97.999	130.505	80.006	19.993	103.369	20.023	3.489	0.376
98.499	130.721	80.008	19.995	103.369	20.024	3.439	0.408
99.000	130.872	80.006	19.993	103.370	20.029	3.136	0.394
99.500	131.120	80.008	19.994	103.370	20.028	3.167	0.383
99.999	131.308	80.007	19.995	103.370	20.024	3.417	0.418
100.499	131.497	80.007	19.993	103.369	20.029	3.082	0.407
100.999	131.700	80.008	19.994	103.369	20.025	3.386	0.385
101.499	131.897	80.008	19.994	103.367	20.030	3.059	0.396
101.999	132.090	80.008	19.994	103.366	20.026	3.285	0.395
102.499	132.283	80.009	19.994	103.364	20.032	2.924	0.388
102.999	132.515	80.009	19.994	103.364	20.030	3.013	0.406
103.499	132.683	80.008	19.994	103.364	20.030	3.077	0.413
103.999	132.905	80.009	19.993	103.364	20.028	3.151	0.395
104.499	133.133	80.008	19.993	103.365	20.033	2.855	0.420
105.000	133.309	80.009	19.994	103.366	20.030	3.075	0.427
105.500	133.564	80.009	19.992	103.366	20.025	3.395	0.417
105.999	133.709	80.008	19.995	103.366	20.030	3.073	0.416
106.500	133.934	80.008	19.994	103.366	20.033	2.866	0.385
107.001	134.116	80.009	19.995	103.366	20.030	3.037	0.388
107.500	134.355	80.009	19.993	103.367	20.030	3.077	0.414
108.000	134.551	80.008	19.994	103.367	20.034	2.770	0.428
108.500	134.767	80.010	19.993	103.368	20.031	2.950	0.423
109.000	134.958	80.008	19.994	103.367	20.033	2.821	0.410
109.500	135.176	80.009	19.992	103.367	20.032	2.900	0.408
109.999	135.392	80.008	19.993	103.366	20.033	2.871	0.421
110.499	135.574	80.008	19.994	103.366	20.027	3.250	0.416
110.999	135.783	80.007	19.994	103.366	20.031	2.965	0.394
111.499	136.007	80.007	19.993	103.367	20.029	3.097	0.412
111.999	136.187	80.008	19.994	103.367	20.033	2.847	0.419
112.500	136.430	80.008	19.993	103.367	20.033	2.851	0.413
113.000	136.598	80.009	19.996	103.368	20.026	3.312	0.416
113.499	136.865	80.007	19.994	103.371	20.030	3.015	0.423
114.000	137.092	80.007	19.994	103.370	20.030	3.015	0.465
114.500	137.306	80.008	19.996	103.371	20.028	3.154	0.467
114.999	137.487	80.007	19.994	103.371	20.024	3.460	0.418
115.499	137.715	80.007	19.995	103.371	20.028	3.186	0.403
115.999	137.953	80.009	19.993	103.367	20.032	2.880	0.438
116.499	138.170	80.007	19.996	103.367	20.027	3.272	0.460
116.999	138.400	80.008	19.994	103.367	20.031	2.976	0.451
117.499	138.590	80.007	19.995	103.369	20.029	3.112	0.433
117.999	138.831	80.007	19.994	103.372	20.029	3.101	0.426
118.499	139.026	80.009	19.995	103.372	20.025	3.382	0.434
118.999	139.233	80.008	19.995	103.373	20.024	3.463	0.419
119.499	139.507	80.008	19.995	103.372	20.028	3.193	0.441
120.000	139.705	80.008	19.996	103.369	20.027	3.219	0.476
120.500	139.926	80.008	19.995	103.368	20.031	2.998	0.445
120.999	140.107	80.007	19.995	103.370	20.028	3.199	0.411
121.500	140.369	80.007	19.995	103.369	20.025	3.406	0.423
122.000	140.626	80.008	19.995	103.370	20.032	2.923	0.481
122.500	140.818	80.008	19.995	103.370	20.030	3.035	0.484
123.000	140.987	80.008	19.995	103.369	20.031	2.989	0.405
123.499	141.233	80.008	19.995	103.368	20.028	3.195	0.388
123.999	141.481	80.009	19.994	103.370	20.028	3.187	0.455
124.500	141.722	80.009	19.994	103.371	20.031	2.948	0.492
125.000	141.945	80.008	19.995	103.372	20.029	3.086	0.476
125.499	142.189	80.008	19.995	103.373	20.031	2.978	0.466
125.999	142.363	80.009	19.995	103.372	20.032	2.928	0.443
126.499	142.615	80.008	19.994	103.371	20.031	3.000	0.422
126.999	142.834	80.009	19.994	103.372	20.027	3.220	0.448
127.499	143.039	80.007	19.995	103.373	20.027	3.266	0.447
127.999	143.326	80.010	19.994	103.372	20.025	3.369	0.458
128.500	143.521	80.009	19.995	103.373	20.030	3.020	0.487
129.000	143.753	80.009	19.994	103.371	20.027	3.259	0.455
129.500	144.007	80.010	19.994	103.369	20.024	3.427	0.457
130.000	144.166	80.010	19.995	103.369	20.027	3.224	0.449
130.500	144.411	80.010	19.995	103.373	20.031	3.007	0.408
131.000	144.661	80.009	19.997	103.376	20.032	2.941	0.449
131.500	144.870	80.011	19.993	103.378	20.029	3.134	0.477
132.000	145.120	80.011	19.995	103.377	20.032	2.926	0.459
132.500	145.329	80.008	19.993	103.375	20.026	3.292	0.459
133.000	145.559	80.011	19.994	103.371	20.029	3.114	0.449
133.500	145.814	80.010	19.995	103.369	20.031	2.987	0.462
134.000	146.055	80.009	19.994	103.368	20.033	2.812	0.490
134.500	146.255	80.009	19.995	103.368	20.030	3.037	0.469
135.000	146.521	80.009	19.994	103.368	20.027	3.221	0.453
135.500	146.746	80.008	19.996	103.369	20.033	2.871	0.478
136.000	146.955	80.010	19.995	103.367	20.028	3.182	0.462
136.500	147.158	80.007	19.994	103.367	20.030	3.075	0.423
137.000	147.421	80.008	19.994	103.368	20.032	2.936	0.439
137.500	147.643	80.007	19.994	103.369	20.028	3.182	0.476
138.000	147.875	80.007	19.995	103.368	20.030	3.050	0.469
138.500	148.113	80.006	19.995	103.368	20.027	3.241	0.462
139.000	148.394	80.006	19.995	103.368	20.029	3.096	0.495
139.500	148.592	80.006	19.995	103.371	20.027	3.256	0.499
140.000	148.809	80.007	19.995	103.370	20.033	2.851	0.447
140.500	149.081	80.006	19.995	103.371	20.030	3.046	0.453
141.000	149.298	80.007	19.995	103.372	20.030	3.046	0.489
141.500	149.554	80.007	19.996	103.373	20.036	2.639	0.481
142.000	149.792	80.007	19.995	103.370	20.032	2.880	0.484
142.500	150.025	80.004	19.994	103.370	20.027	3.270	0.482
143.000	150.293	80.006	19.995	103.371	20.029	3.116	0.486
143.500	150.505	80.007	19.995	103.370	20.028	3.176	0.491
144.000	150.726	80.006	19.994	103.370	20.027	3.245	0.456
144.500	150.980	80.007	19.995	103.369	20.031	2.998	0.454
145.000	151.230	80.005	19.994	103.370	20.030	3.062	0.490
145.500	151.433	80.007	19.996	103.370	20.026	3.311	0.479
146.000	151.696	80.004	19.992	103.370	20.025	3.359	0.459
146.500	151.897	80.005	19.995	103.370	20.027	3.243	0.465
147.000	152.139	80.006	19.996	103.374	20.028	3.154	0.454
147.500	152.395	80.007	19.994	103.375	20.029	3.119	0.471
148.000	152.626	80.007	19.998	103.374	20.031	3.007	0.492
148.500	152.885	80.007	19.996	103.375	20.029	3.086	0.488
149.000	153.138	80.005	19.997	103.375	20.028	3.175	0.501
149.500	153.371	80.007	19.998	103.371	20.032	2.939	0.499
150.000	153.573	80.006	19.996	103.373	20.029	3.092	0.461
150.500	153.883	80.007	19.995	103.373	20.032	2.906	0.474
151.000	154.066	80.007	19.997	103.372	20.032	2.917	0.502
151.500	154.321	80.007	19.995	103.373	20.029	3.092	0.465
152.001	154.547	80.007	19.995	103.374	20.033	2.864	0.459
152.501	154.789	80.006	19.997	103.372	20.030	3.038	0.474
153.000	155.023	80.006	19.995	103.372	20.033	2.821	0.472
153.500	155.279	80.006	19.996	103.372	20.025	3.382	0.483
154.000	155.506	80.006	19.996	103.372	20.033	2.867	0.487
154.500	155.740	80.005	19.996	103.371	20.031	2.972	0.472
155.000	155.974	80.005	19.996	103.372	20.029	3.112	0.465
155.500	156.199	80.005	19.995	103.373	20.025	3.375	0.464
156.000	156.511	80.007	19.995	103.373	20.033	2.862	0.498
156.500	156.754	80.005	19.994	103.373	20.026	3.320	0.545
157.000	157.001	80.005	19.995	103.371	20.028	3.169	0.522
157.500	157.178	80.005	19.995	103.370	20.030	3.033	0.457
158.000	157.489	80.006	19.994	103.369	20.027	3.215	0.456
158.500	157.748	80.007	19.993	103.369	20.028	3.158	0.529
159.000	157.934	80.006	19.996	103.368	20.030	3.040	0.508
159.500	158.172	80.006	19.994	103.370	20.029	3.084	0.435
160.000	158.430	80.006	19.994	103.369	20.028	3.178	0.460
160.500	158.678	80.005	19.994	103.369	20.026	3.340	0.501
161.000	158.930	80.005	19.994	103.369	20.026	3.287	0.503
161.500	159.169	80.005	19.994	103.369	20.030	3.060	0.495
162.000	159.434	80.007	19.995	103.369	20.028	3.200	0.497
162.500	159.664	80.006	19.994	103.369	20.026	3.311	0.500
163.000	159.933	80.006	19.994	103.370	20.032	2.933	0.497
163.500	160.183	80.007	19.995	103.369	20.026	3.323	0.509
164.000	160.395	80.008	19.995	103.370	20.030	3.014	0.491
164.500	160.681	80.008	19.995	103.370	20.029	3.134	0.480
165.000	160.925	80.005	19.995	103.370	20.031	2.965	0.514
165.500	161.185	80.007	19.994	103.370	20.025	3.355	0.517
166.000	161.389	80.008	19.995	103.370	20.030	3.029	0.484
166.500	161.675	80.008	19.994	103.370	20.033	2.851	0.477
167.000	161.927	80.007	19.994	103.370	20.025	3.399	0.514
167.500	162.173	80.006	19.994	103.370	20.035	2.693	0.518
168.000	162.374	80.006	19.996	103.372	20.034	2.808	0.472
168.500	162.657	80.006	19.994	103.372	20.028	3.209	0.465
169.000	162.898	80.008	19.994	103.371	20.029	3.139	0.504
169.500	163.132	80.007	19.993	103.371	20.029	3.121	0.499
170.000	163.401	80.008	19.995	103.370	20.027	3.217	0.489
170.500	163.645	80.007	19.994	103.367	20.035	2.716	0.508
171.000	163.907	80.007	19.995	103.366	20.038	2.492	0.510
171.500	164.171	80.006	19.995	103.367	20.028	3.187	0.516
172.000	164.421	80.007	19.994	103.366	20.025	3.360	0.520
172.500	164.670	80.006	19.994	103.367	20.027	3.224	0.507
173.000	164.953	80.006	19.995	103.367	20.031	3.009	0.516
173.500	165.156	80.007	19.994	103.367	20.031	3.007	0.509
174.000	165.439	80.007	19.994	103.366	20.035	2.724	0.486
174.500	165.700	80.005	19.994	103.366	20.028	3.171	0.515
175.000	165.916	80.006	19.994	103.366	20.025	3.373	0.510
175.500	166.211	80.006	19.994	103.365	20.034	2.807	0.494
176.000	166.455	80.007	19.996	103.364	20.033	2.865	0.525
176.500	166.700	80.006	19.994	103.365	20.038	2.507	0.514
177.000	166.950	80.006	19.996	103.366	20.029	3.084	0.492
177.500	167.227	80.005	19.994	103.364	20.033	2.847	0.511
178.000	167.447	80.006	19.995	103.364	20.027	3.248	0.512
178.500	167.701	80.006	19.994	103.365	20.035	2.722	0.485
179.001	167.969	80.008	19.996	103.365	20.030	3.038	0.498
179.501	168.211	80.006	19.994	103.364	20.035	2.685	0.516
180.000	168.432	80.005	19.994	103.365	20.034	2.805	0.487
180.500	168.723	80.007	19.996	103.366	20.029	3.082	0.487
181.000	168.966	80.007	19.994	103.366	20.026	3.283	0.523
181.500	169.214	80.007	19.994	103.365	20.033	2.843	0.513
182.000	169.473	80.007	19.995	103.366	20.031	2.964	0.499
182.500	169.745	80.006	19.994	103.366	20.025	3.408	0.519
183.000	169.990	80.008	19.995	103.366	20.028	3.213	0.523
183.500	170.249	80.006	19.993	103.366	20.034	2.766	0.511
184.000	170.485	80.008	19.994	103.367	20.037	2.587	0.500
184.500	170.738	80.008	19.994	103.366	20.035	2.709	0.492
185.000	170.984	80.008	19.996	103.366	20.038	2.503	0.494
185.500	171.229	80.007	19.994	103.366	20.035	2.725	0.495
186.000	171.462	80.008	19.995	103.366	20.030	3.045	0.484
186.500	171.734	80.007	19.995	103.365	20.032	2.882	0.491
187.000	172.002	80.007	19.994	103.365	20.035	2.679	0.523
187.500	172.266	80.008	19.995	103.364	20.034	2.746	0.537
188.000	172.504	80.008	19.994	103.362	20.031	3.008	0.517
188.500	172.749	80.010	19.996	103.362	20.036	2.648	0.492
189.000	172.989	80.007	19.994	103.363	20.036	2.615	0.483
189.500	173.268	80.009	19.995	103.363	20.033	2.852	0.502
190.000	173.492	80.007	19.994	103.365	20.028	3.167	0.511
190.500	173.768	80.008	19.993	103.363	20.028	3.156	0.501
191.000	174.052	80.007	19.994	103.360	20.030	3.041	0.530
191.500	174.253	80.008	19.994	103.359	20.036	2.613	0.523
192.000	174.519	80.007	19.994	103.358	20.038	2.512	0.476
192.500	174.805	80.008	19.993	103.352	20.034	2.793	0.509
193.000	175.037	80.009	19.995	103.351	20.038	2.490	0.535
193.500	175.280	80.009	19.995	103.354	20.036	2.630	0.496
194.000	175.564	80.009	19.995	103.354	20.030	3.041	0.501
194.500	175.758	80.007	19.995	103.353	20.037	2.584	0.503
195.000	176.063	80.008	19.994	103.357	20.033	2.819	0.488
195.500	176.268	80.009	19.994	103.356	20.036	2.675	0.504
196.000	176.513	80.007	19.994	103.356	20.034	2.762	0.480
196.500	176.791	80.006	19.993	103.357	20.032	2.918	0.487
197.000	177.028	80.008	19.994	103.357	20.037	2.575	0.519
197.500	177.314	80.007	19.995	103.353	20.038	2.486	0.519
198.000	177.587	80.008	19.995	103.356	20.039	2.428	0.540
198.500	177.853	80.009	19.995	103.354	20.036	2.613	0.549
199.000	178.060	80.008	19.993	103.352	20.034	2.784	0.506
199.500	178.338	80.007	19.994	103.351	20.029	3.093	0.479
200.000	178.584	80.006	19.994	103.353	20.034	2.795	0.505
200.500	178.862	80.007	19.993	103.349	20.032	2.889	0.524
201.000	179.093	80.006	19.993	103.349	20.031	2.979	0.517
201.500	179.313	80.008	19.994	103.350	20.034	2.757	0.480
202.000	179.594	80.006	19.993	103.346	20.033	2.832	0.476
202.500	179.825	80.008	19.995	103.344	20.033	2.845	0.506
203.000	180.098	80.007	19.996	103.344	20.035	2.740	0.508
203.500	180.330	80.006	19.994	103.345	20.036	2.630	0.505
204.000	180.607	80.008	19.992	103.345	20.034	2.810	0.507
204.500	180.815	80.007	19.993	103.348	20.037	2.584	0.497
205.000	181.116	80.007	19.992	103.348	20.039	2.457	0.497
205.500	181.354	80.008	19.994	103.347	20.033	2.865	0.524
206.000	181.623	80.007	19.993	103.344	20.035	2.696	0.523
206.500	181.861	80.008	19.995	103.344	20.040	2.405	0.507
207.000	182.111	80.010	19.995	103.345	20.035	2.695	0.498
207.500	182.380	80.009	19.994	103.353	20.039	2.473	0.503
208.000	182.645	80.007	19.992	103.359	20.036	2.626	0.527
208.500	182.892	80.009	19.995	103.360	20.038	2.479	0.523
209.000	183.147	80.009	19.995	103.361	20.036	2.640	0.507
209.500	183.373	80.008	19.993	103.359	20.037	2.559	0.492
210.000	183.636	80.009	19.995	103.357	20.039	2.451	0.485
210.500	183.927	80.009	19.994	103.357	20.038	2.515	0.521
211.000	184.140	80.010	19.994	103.358	20.038	2.502	0.529
211.500	184.399	80.010	19.994	103.360	20.034	2.808	0.488
212.000	184.661	80.009	19.993	103.360	20.037	2.593	0.497
212.500	184.918	80.010	19.995	103.361	20.040	2.396	0.520
213.000	185.169	80.008	19.995	103.359	20.038	2.482	0.514
213.500	185.406	80.009	19.993	103.356	20.038	2.510	0.498
214.000	185.675	80.010	19.994	103.353	20.035	2.686	0.497
214.500	185.917	80.009	19.995	103.354	20.030	3.017	0.508
215.000	186.199	80.009	19.994	103.349	20.037	2.565	0.518
215.500	186.438	80.009	19.995	103.347	20.037	2.589	0.523
216.000	186.718	80.010	19.994	103.345	20.037	2.591	0.520
216.500	186.936	80.009	19.994	103.342	20.033	2.830	0.508
217.000	187.218	80.009	19.995	103.338	20.036	2.629	0.499
217.500	187.493	80.009	19.995	103.338	20.034	2.752	0.528
218.000	187.766	80.011	19.994	103.335	20.032	2.896	0.553
218.500	187.991	80.009	19.994	103.336	20.037	2.576	0.523
219.000	188.218	80.010	19.994	103.338	20.034	2.800	0.475
219.500	188.508	80.007	19.994	103.339	20.036	2.614	0.485
220.000	188.761	80.007	19.995	103.338	20.037	2.557	0.530
220.500	189.007	80.008	19.994	103.337	20.039	2.449	0.521
221.000	189.230	80.007	19.994	103.336	20.037	2.552	0.484
221.500	189.511	80.008	19.995	103.336	20.034	2.796	0.487
222.000	189.758	80.007	19.994	103.339	20.034	2.760	0.516
222.500	190.009	80.008	19.994	103.338	20.041	2.282	0.513
223.000	190.271	80.005	19.994	103.337	20.038	2.476	0.505
223.500	190.545	80.007	19.994	103.336	20.038	2.506	0.524
224.000	190.810	80.006	19.993	103.335	20.038	2.476	0.537
224.500	191.063	80.006	19.995	103.333	20.041	2.305	0.528
225.000	191.265	80.006	19.994	103.333	20.032	2.905	0.487
225.500	191.508	80.006	19.994	103.334	20.032	2.938	0.450
226.000	191.738	80.006	19.994	103.334	20.034	2.782	0.459
226.500	192.013	80.008	19.994	103.333	20.031	2.969	0.489
227.000	192.298	80.007	19.994	103.331	20.038	2.486	0.533
227.500	192.512	80.006	19.993	103.332	20.040	2.385	0.529
228.000	192.813	80.007	19.995	103.331	20.037	2.579	0.507
228.500	193.023	80.005	19.994	103.332	20.040	2.392	0.513
229.000	193.250	80.007	19.995	103.332	20.033	2.818	0.474
229.500	193.518	80.006	19.994	103.333	20.036	2.640	0.466
230.000	193.800	80.007	19.995	103.333	20.036	2.631	0.523
230.500	194.017	80.007	19.993	103.333	20.036	2.614	0.525
231.000	194.270	80.007	19.995	103.332	20.037	2.548	0.485
231.500	194.503	80.007	19.994	103.331	20.042	2.252	0.478
232.000	194.763	80.007	19.994	103.330	20.035	2.734	0.489
232.500	194.984	80.007	19.994	103.329	20.041	2.298	0.487
233.000	195.275	80.005	19.994	103.329	20.034	2.752	0.496
233.500	195.491	80.006	19.994	103.329	20.039	2.429	0.510
234.000	195.770	80.006	19.994	103.328	20.036	2.664	0.501
234.500	195.968	80.007	19.994	103.328	20.040	2.366	0.486
235.000	196.273	80.006	19.994	103.329	20.038	2.480	0.490
235.500	196.497	80.006	19.994	103.329	20.040	2.399	0.516
236.000	196.773	80.006	19.994	103.329	20.034	2.794	0.515
236.500	197.001	80.006	19.994	103.329	20.038	2.533	0.502
237.000	197.284	80.007	19.996	103.328	20.036	2.625	0.507
237.500	197.516	80.008	19.994	103.327	20.040	2.381	0.513
238.000	197.792	80.006	19.995	103.326	20.038	2.513	0.512
238.500	198.027	80.006	19.995	103.327	20.041	2.307	0.509
239.000	198.275	80.006	19.994	103.330	20.035	2.691	0.497
239.500	198.485	80.006	19.995	103.330	20.034	2.749	0.471
240.000	198.739	80.007	19.994	103.331	20.040	2.405	0.461
240.500	198.980	80.007	19.995	103.330	20.040	2.407	0.480
241.000	199.212	80.006	19.996	103.329	20.038	2.524	0.485
241.500	199.453	80.005	19.995	103.328	20.037	2.581	0.473
242.000	199.689	80.006	19.995	103.328	20.032	2.905	0.475
242.500	199.954	80.005	19.995	103.328	20.035	2.732	0.489
243.000	200.201	80.006	19.995	103.328	20.040	2.353	0.507
243.500	200.469	80.006	19.996	103.328	20.038	2.522	0.514
244.000	200.706	80.005	19.995	103.326	20.037	2.566	0.510
244.500	200.933	80.006	19.994	103.325	20.033	2.831	0.485
245.000	201.187	80.006	19.996	103.326	20.038	2.535	0.472
245.500	201.447	80.005	19.995	103.325	20.039	2.438	0.497
246.000	201.674	80.006	19.996	103.325	20.041	2.298	0.500
246.500	201.935	80.005	19.995	103.324	20.036	2.646	0.487
247.000	202.215	80.006	19.995	103.324	20.039	2.434	0.514
247.500	202.438	80.006	19.996	103.324	20.032	2.896	0.522
248.000	202.668	80.005	19.994	103.324	20.035	2.682	0.478
248.500	202.931	80.008	19.996	103.325	20.036	2.612	0.473
249.000	203.162	80.006	19.995	103.325	20.036	2.673	0.494
249.500	203.425	80.005	19.995	103.325	20.033	2.862	0.494
250.000	203.651	80.007	19.995	103.325	20.034	2.802	0.492
250.500	203.931	80.005	19.996	103.326	20.038	2.519	0.498
251.000	204.176	80.005	19.996	103.326	20.031	2.956	0.516
251.500	204.422	80.005	19.995	103.326	20.033	2.824	0.508
252.000	204.700	80.006	19.997	103.326	20.034	2.745	0.507
252.500	204.946	80.007	19.997	103.326	20.033	2.855	0.524
253.000	205.148	80.006	19.995	103.326	20.035	2.697	0.486
253.500	205.400	80.006	19.995	103.327	20.037	2.552	0.451
254.000	205.644	80.007	19.996	103.326	20.038	2.539	0.475
254.500	205.942	80.006	19.995	103.326	20.031	3.000	0.519
255.000	206.171	80.006	19.996	103.326	20.032	2.919	0.535
255.500	206.428	80.006	19.996	103.326	20.031	2.991	0.507
256.000	206.641	80.006	19.995	103.327	20.031	2.954	0.478
256.500	206.878	80.006	19.995	103.327	20.029	3.125	0.460
257.000	207.139	80.007	19.996	103.327	20.025	3.408	0.474
257.500	207.411	80.006	19.995	103.327	20.028	3.203	0.515
258.000	207.643	80.007	19.995	103.327	20.028	3.147	0.519
258.500	207.888	80.006	19.995	103.327	20.032	2.940	0.491
259.000	208.147	80.008	19.995	103.327	20.031	2.982	0.491
259.500	208.416	80.006	19.994	103.327	20.032	2.881	0.516
260.000	208.654	80.008	19.995	103.327	20.033	2.862	0.517
260.500	208.911	80.005	19.994	103.324	20.029	3.085	0.501
261.000	209.155	80.007	19.995	103.324	20.026	3.315	0.498
261.500	209.385	80.006	19.993	103.325	20.028	3.148	0.488
262.000	209.598	80.007	19.995	103.324	20.027	3.234	0.459
262.500	209.891	80.005	19.994	103.323	20.030	3.039	0.474
263.000	210.147	80.007	19.995	103.326	20.027	3.214	0.527
263.500	210.358	80.007	19.995	103.326	20.031	3.006	0.508
264.000	210.632	80.006	19.994	103.326	20.030	3.072	0.476
264.500	210.864	80.007	19.995	103.327	20.031	2.982	0.495
265.000	211.101	80.006	19.994	103.327	20.029	3.109	0.488
265.500	211.360	80.008	19.994	103.327	20.032	2.914	0.483
266.000	211.613	80.006	19.993	103.326	20.032	2.881	0.504
266.500	211.831	80.008	19.995	103.326	20.030	3.037	0.491
267.000	212.103	80.007	19.995	103.326	20.030	3.022	0.481
267.500	212.325	80.009	19.996	103.325	20.031	2.977	0.492
268.000	212.560	80.008	19.994	103.325	20.027	3.214	0.475
268.500	212.817	80.007	19.994	103.326	20.027	3.252	0.475
269.000	213.019	80.006	19.994	103.323	20.023	3.488	0.476
269.500	213.320	80.007	19.995	103.323	20.030	3.048	0.481
270.000	213.560	80.008	19.993	103.324	20.036	2.660	0.522
270.500	213.802	80.006	19.994	103.325	20.032	2.943	0.512
271.000	214.022	80.008	19.994	103.325	20.027	3.223	0.472
271.500	214.272	80.008	19.995	103.328	20.033	2.835	0.466
272.000	214.514	80.006	19.994	103.328	20.022	3.563	0.481
272.500	214.750	80.007	19.994	103.328	20.027	3.272	0.485
273.000	215.000	80.008	19.994	103.328	20.029	3.125	0.482
273.500	215.259	80.008	19.994	103.327	20.023	3.486	0.497
274.000	215.485	80.009	19.994	103.327	20.031	2.997	0.497
274.500	215.781	80.008	19.994	103.327	20.032	2.943	0.504
275.000	215.976	80.007	19.993	103.327	20.031	2.993	0.507
275.500	216.221	80.007	19.995	103.324	20.028	3.201	0.465
276.000	216.477	80.008	19.995	103.321	20.033	2.822	0.471
276.500	216.718	80.008	19.994	103.323	20.026	3.333	0.499
277.000	216.971	80.006	19.993	103.323	20.033	2.855	0.495
277.500	217.207	80.006	19.994	103.321	20.029	3.126	0.491
278.000	217.475	80.006	19.994	103.324	20.029	3.080	0.497
278.500	217.729	80.007	19.994	103.328	20.027	3.265	0.513
279.000	217.956	80.008	19.995	103.328	20.030	3.032	0.501
279.500	218.205	80.007	19.995	103.328	20.029	3.100	0.478
280.000	218.471	80.006	19.994	103.329	20.030	3.059	0.495
280.500	218.726	80.008	19.994	103.329	20.033	2.817	0.518
281.000	218.961	80.006	19.993	103.328	20.029	3.081	0.506
281.500	219.168	80.007	19.996	103.328	20.025	3.388	0.466
282.000	219.444	80.007	19.994	103.326	20.024	3.431	0.462
282.500	219.653	80.007	19.995	103.326	20.031	3.008	0.484
283.000	219.908	80.008	19.994	103.327	20.029	3.125	0.474
283.500	220.147	80.007	19.995	103.326	20.026	3.285	0.479
284.000	220.454	80.007	19.994	103.326	20.025	3.405	0.520
284.500	220.693	80.007	19.994	103.328	20.026	3.300	0.546
285.000	220.891	80.009	19.994	103.328	20.026	3.339	0.492
285.500	221.137	80.006	19.994	103.328	20.024	3.434	0.441
286.000	221.406	80.008	19.994	103.329	20.023	3.523	0.480
286.500	221.627	80.008	19.995	103.331	20.027	3.217	0.503
287.000	221.900	80.008	19.994	103.330	20.027	3.271	0.492
287.500	222.161	80.008	19.994	103.330	20.030	3.070	0.514
288.000	222.397	80.007	19.994	103.330	20.026	3.300	0.516
288.500	222.644	80.008	19.994	103.330	20.026	3.307	0.490
289.000	222.897	80.008	19.995	103.330	20.029	3.142	0.491
289.500	223.144	80.008	19.994	103.330	20.022	3.605	0.499
290.000	223.364	80.008	19.994	103.330	20.027	3.258	0.484
290.500	223.640	80.008	19.993	103.331	20.025	3.379	0.482
291.000	223.904	80.008	19.994	103.329	20.022	3.565	0.518
291.500	224.158	80.008	19.993	103.329	20.028	3.155	0.529
292.000	224.381	80.008	19.993	103.329	20.023	3.495	0.498
292.500	224.679	80.007	19.993	103.328	20.022	3.579	0.499
293.000	224.911	80.008	19.993	103.328	20.022	3.603	0.526
293.500	225.119	80.008	19.993	103.329	20.022	3.581	0.485
294.000	225.375	80.010	19.994	103.329	20.023	3.493	0.452
294.500	225.624	80.008	19.994	103.329	20.026	3.331	0.484
295.000	225.831	80.010	19.994	103.329	20.022	3.561	0.480
295.500	226.138	80.006	19.994	103.329	20.024	3.421	0.485
296.000	226.342	80.009	19.994	103.330	20.024	3.466	0.513
296.500	226.588	80.010	19.994	103.330	20.020	3.736	0.481
297.000	226.877	80.011	19.994	103.330	20.020	3.705	0.492
297.500	227.101	80.009	19.993	103.329	20.023	3.532	0.524
298.000	227.366	80.010	19.993	103.329	20.021	3.668	0.501
298.500	227.595	80.009	19.994	103.328	20.023	3.504	0.492
299.000	227.835	80.008	19.994	103.328	20.019	3.811	0.481
299.500	228.106	80.009	19.993	103.327	20.024	3.456	0.490
300.000	228.325	80.009	19.995	103.327	20.024	3.465	0.500
300.500	228.580	80.009	19.994	103.327	20.020	3.734	0.482
301.000	228.864	80.007	19.993	103.327	20.019	3.756	0.507
301.500	229.082	80.009	19.994	103.326	20.026	3.346	0.521
302.000	229.376	80.008	19.994	103.326	20.020	3.705	0.507
302.500	229.603	80.008	19.994	103.325	20.022	3.613	0.516
303.000	229.851	80.008	19.994	103.325	20.020	3.738	0.497
303.500	230.080	80.006	19.993	103.324	20.023	3.537	0.476
304.000	230.342	80.007	19.995	103.324	20.022	3.598	0.484
304.500	230.563	80.006	19.994	103.324	20.021	3.664	0.487
305.000	230.833	80.005	19.994	103.324	20.020	3.706	0.487
305.500	231.063	80.006	19.995	103.324	20.017	3.932	0.496
306.000	231.275	80.007	19.994	103.325	20.016	3.956	0.471
306.500	231.594	80.007	19.994	103.327	20.015	4.078	0.487
307.000	231.832	80.007	19.993	103.327	20.016	3.960	0.544
307.500	232.075	80.006	19.996	103.327	20.016	3.958	0.519
308.000	232.317	80.006	19.995	103.326	20.015	4.017	0.483
308.500	232.557	80.004	19.995	103.326	20.013	4.181	0.484
309.000	232.815	80.007	19.996	103.326	20.018	3.872	0.490
309.500	233.094	80.006	19.996	103.326	20.014	4.085	0.517
310.000	233.312	80.007	19.995	103.326	20.018	3.866	0.517
310.500	233.550	80.005	19.995	103.326	20.016	3.976	0.477
311.000	233.767	80.006	19.996	103.326	20.017	3.920	0.455
311.500	234.067	80.007	19.995	103.326	20.017	3.918	0.486
312.000	234.348	80.007	19.995	103.326	20.016	3.966	0.549
312.500	234.566	80.007	19.994	103.326	20.013	4.173	0.540
313.000	234.814	80.006	19.995	103.326	20.017	3.885	0.483
313.500	235.044	80.006	19.995	103.326	20.016	4.015	0.472
314.000	235.291	80.006	19.994	103.326	20.013	4.205	0.478
314.500	235.543	80.007	19.995	103.326	20.009	4.466	0.488
315.000	235.856	80.006	19.995	103.326	20.014	4.149	0.532
315.500	236.065	80.007	19.995	103.324	20.014	4.144	0.544
316.000	236.339	80.005	19.995	103.324	20.010	4.364	0.502
316.500	236.580	80.006	19.995	103.324	20.010	4.361	0.498
317.000	236.815	80.006	19.995	103.324	20.006	4.670	0.495
317.500	237.081	80.004	19.995	103.325	20.011	4.295	0.489
318.000	237.306	80.007	19.996	103.326	20.017	3.940	0.496
318.500	237.511	80.006	19.997	103.327	20.005	4.694	0.460
319.000	237.732	80.008	19.996	103.328	20.013	4.153	0.428
319.500	237.981	80.006	19.996	103.328	20.006	4.677	0.448
320.000	238.303	80.007	19.996	103.328	20.010	4.363	0.520
320.500	238.498	80.007	19.995	103.325	20.011	4.335	0.544
321.000	238.756	80.007	19.994	103.324	20.009	4.455	0.485
321.500	238.981	80.008	19.995	103.324	20.007	4.556	0.468
322.000	239.249	80.007	19.996	103.323	20.010	4.418	0.488
322.500	239.535	80.007	19.995	103.323	20.008	4.539	0.524
323.000	239.762	80.007	19.996	103.325	20.010	4.374	0.534
323.500	240.010	80.006	19.995	103.326	20.007	4.605	0.494
324.000	240.261	80.005	19.995	103.327	20.007	4.591	0.487
324.500	240.466	80.007	19.995	103.326	20.003	4.848	0.478
325.000	240.740	80.006	19.995	103.326	20.003	4.843	0.468
325.500	240.953	80.007	19.994	103.325	20.001	5.017	0.483
326.000	241.241	80.006	19.994	103.324	20.001	4.971	0.494
326.500	241.523	80.007	19.996	103.324	20.005	4.697	0.535
327.000	241.723	80.007	19.996	103.324	20.006	4.668	0.526
327.500	241.967	80.007	19.996	103.329	20.004	4.773	0.463
328.000	242.234	80.006	19.995	103.333	20.002	4.889	0.478
328.500	242.471	80.006	19.995	103.334	20.003	4.878	0.508
329.000	242.769	80.006	19.996	103.334	20.006	4.679	0.520
329.500	243.019	80.004	19.995	103.334	20.002	4.953	0.541
330.000	243.225	80.006	19.996	103.329	20.002	4.935	0.502
330.500	243.463	80.006	19.995	103.326	20.003	4.865	0.450
331.000	243.752	80.006	19.996	103.326	20.006	4.672	0.486
331.500	243.993	80.006	19.995	103.326	20.001	4.979	0.529
332.000	244.277	80.007	19.995	103.326	20.002	4.911	0.527
332.500	244.505	80.005	19.995	103.326	20.002	4.929	0.518
333.000	244.714	80.007	19.995	103.326	20.001	4.968	0.475
333.500	244.958	80.006	19.995	103.326	20.003	4.867	0.445
334.000	245.232	80.006	19.994	103.326	20.002	4.929	0.486
334.500	245.486	80.004	19.994	103.327	20.003	4.824	0.523
335.000	245.741	80.005	19.995	103.327	19.999	5.098	0.519
335.500	245.941	80.005	19.995	103.327	19.994	5.435	0.482
336.000	246.268	80.004	19.995	103.328	20.001	5.008	0.491
336.500	246.463	80.006	19.995	103.329	19.997	5.243	0.524
337.000	246.700	80.005	19.996	103.329	19.994	5.462	0.477
337.500	246.958	80.006	19.995	103.329	19.995	5.398	0.463
338.000	247.202	80.004	19.995	103.330	20.001	5.014	0.498
338.500	247.453	80.004	19.995	103.330	19.996	5.304	0.499
339.000	247.695	80.004	19.995	103.330	19.990	5.729	0.494
339.500	247.909	80.004	19.996	103.330	19.994	5.475	0.475
340.000	248.138	80.004	19.995	103.330	19.995	5.396	0.450
340.500	248.387	80.004	19.995	103.330	19.991	5.633	0.460
341.000	248.718	80.005	19.996	103.330	19.989	5.797	0.529
341.500	248.954	80.002	19.995	103.330	19.988	5.828	0.573
342.000	249.192	80.004	19.995	103.330	19.993	5.527	0.521
342.500	249.461	80.005	19.995	103.332	19.991	5.677	0.491
343.000	249.728	80.006	19.995	103.332	19.989	5.819	0.522
343.500	249.980	80.006	19.996	103.332	19.988	5.870	0.527
344.000	250.233	80.005	19.995	103.331	19.985	6.034	0.512
344.500	250.478	80.005	19.995	103.331	19.985	6.089	0.502
345.000	250.714	80.006	19.995	103.329	19.987	5.905	0.489
345.500	250.964	80.006	19.995	103.329	19.986	6.014	0.483
346.000	251.233	80.007	19.995	103.329	19.988	5.841	0.503
346.500	251.488	80.005	19.994	103.329	19.982	6.244	0.522
347.000	251.778	80.004	19.995	103.330	19.986	5.994	0.534
347.500	251.985	80.007	19.995	103.329	19.982	6.285	0.521
348.000	252.242	80.005	19.995	103.329	19.982	6.296	0.481
348.500	252.519	80.006	19.995	103.330	19.979	6.463	0.499
349.000	252.701	80.006	19.995	103.332	19.983	6.211	0.496
349.500	252.991	80.006	19.994	103.333	19.985	6.067	0.465
350.000	253.241	80.007	19.994	103.333	19.979	6.446	0.506
350.500	253.440	80.006	19.996	103.333	19.978	6.555	0.495
351.000	253.770	80.008	19.995	103.333	19.980	6.393	0.489
351.500	253.987	80.006	19.994	103.330	19.975	6.744	0.538
352.000	254.226	80.008	19.993	103.329	19.973	6.868	0.502
352.500	254.445	80.009	19.994	103.330	19.972	6.928	0.457
353.000	254.746	80.007	19.994	103.329	19.973	6.869	0.489
353.500	254.960	80.007	19.995	103.329	19.974	6.801	0.517
354.000	255.219	80.009	19.995	103.329	19.973	6.890	0.494
354.500	255.456	80.008	19.994	103.330	19.972	6.958	0.485
355.000	255.688	80.007	19.993	103.330	19.973	6.835	0.483
355.500	255.957	80.007	19.992	103.330	19.971	6.979	0.485
356.000	256.229	80.006	19.994	103.331	19.968	7.199	0.521
356.500	256.508	80.007	19.994	103.333	19.968	7.232	0.546
357.000	256.736	80.008	19.994	103.337	19.967	7.294	0.530
357.500	256.982	80.008	19.994	103.337	19.966	7.368	0.491
358.000	257.243	80.007	19.993	103.338	19.967	7.250	0.490
358.500	257.512	80.008	19.993	103.339	19.965	7.404	0.519
359.000	257.735	80.006	19.995	103.337	19.963	7.559	0.511
359.500	257.991	80.007	19.994	103.334	19.968	7.204	0.486
360.000	258.232	80.007	19.995	103.335	19.970	7.079	0.488
360.500	258.498	80.007	19.994	103.335	19.965	7.400	0.502
361.000	258.744	80.008	19.993	103.334	19.959	7.825	0.510
361.500	258.982	80.007	19.994	103.335	19.962	7.589	0.498
362.000	259.227	80.005	19.995	103.337	19.961	7.663	0.483
362.500	259.457	80.006	19.994	103.340	19.964	7.503	0.479
363.000	259.735	80.008	19.994	103.340	19.961	7.649	0.492
363.500	260.008	80.008	19.995	103.339	19.960	7.769	0.529
364.000	260.212	80.008	19.994	103.338	19.954	8.112	0.514
364.500	260.510	80.007	19.994	103.339	19.956	8.037	0.490
365.000	260.724	80.008	19.994	103.340	19.954	8.125	0.507
365.500	260.988	80.007	19.994	103.343	19.958	7.903	0.494
366.000	261.207	80.008	19.995	103.344	19.951	8.317	0.480
366.500	261.440	80.007	19.994	103.349	19.952	8.259	0.468
367.000	261.685	80.007	19.995	103.346	19.955	8.094	0.464
367.500	261.966	80.008	19.994	103.343	19.947	8.601	0.502
368.000	262.208	80.007	19.994	103.341	19.948	8.546	0.525
368.500	262.451	80.008	19.994	103.341	19.945	8.756	0.505
369.000	262.724	80.007	19.994	103.335	19.949	8.500	0.501
369.500	262.926	80.008	19.994	103.339	19.943	8.870	0.495
370.000	263.200	80.008	19.994	103.341	19.947	8.634	0.475
370.500	263.519	80.008	19.995	103.340	19.940	9.046	0.535
371.000	263.724	80.008	19.995	103.342	19.941	9.010	0.559
371.500	264.004	80.008	19.994	103.350	19.942	8.925	0.504
372.000	264.236	80.007	19.994	103.352	19.939	9.140	0.499
372.500	264.461	80.009	19.995	103.354	19.937	9.304	0.485
373.000	264.722	80.009	19.994	103.355	19.938	9.242	0.471
373.500	265.020	80.010	19.994	103.352	19.933	9.543	0.522
374.000	265.251	80.008	19.994	103.346	19.938	9.194	0.544
374.500	265.486	80.009	19.994	103.341	19.936	9.372	0.498
375.000	265.744	80.008	19.993	103.337	19.933	9.532	0.480
375.500	265.965	80.010	19.994	103.337	19.929	9.786	0.486
376.000	266.218	80.009	19.995	103.342	19.937	9.297	0.476
376.500	266.503	80.008	19.994	103.347	19.932	9.593	0.506
377.000	266.692	80.009	19.994	103.350	19.933	9.533	0.506
377.500	266.972	80.010	19.995	103.354	19.934	9.516	0.472
378.000	267.167	80.009	19.994	103.359	19.925	10.119	0.472
378.500	267.482	80.011	19.994	103.359	19.923	10.250	0.492
379.000	267.741	80.009	19.995	103.358	19.928	9.877	0.542
379.500	267.967	80.010	19.993	103.359	19.921	10.388	0.530
380.000	268.217	80.009	19.993	103.358	19.924	10.145	0.480
380.500	268.455	80.009	19.995	103.358	19.922	10.272	0.482
381.000	268.730	80.008	19.994	103.359	19.916	10.675	0.501
381.500	268.939	80.009	19.994	103.361	19.922	10.301	0.499
382.000	269.212	80.009	19.994	103.361	19.919	10.495	0.483
382.500	269.431	80.009	19.994	103.362	19.919	10.508	0.487
383.000	269.735	80.009	19.994	103.362	19.909	11.190	0.507
383.500	269.997	80.008	19.994	103.362	19.912	10.991	0.544
384.000	270.236	80.011	19.993	103.362	19.912	10.977	0.534
384.500	270.472	80.010	19.995	103.363	19.907	11.320	0.488
385.000	270.777	80.009	19.994	103.364	19.906	11.370	0.508
385.500	270.998	80.007	19.994	103.364	19.903	11.565	0.534
386.000	271.274	80.009	19.993	103.365	19.908	11.193	0.512
386.500	271.497	80.007	19.993	103.365	19.904	11.480	0.498
387.000	271.742	80.007	19.995	103.367	19.902	11.633	0.483
387.500	272.059	80.007	19.994	103.369	19.901	11.677	0.515
388.000	272.277	80.008	19.995	103.368	19.900	11.753	0.549
388.500	272.547	80.006	19.995	103.368	19.899	11.847	0.512
389.000	272.817	80.008	19.995	103.368	19.897	11.948	0.514
389.500	273.062	80.008	19.995	103.370	19.894	12.183	0.527
390.000	273.252	80.009	19.994	103.369	19.896	12.014	0.474
390.500	273.577	80.008	19.994	103.368	19.892	12.274	0.475
391.000	273.826	80.007	19.995	103.369	19.895	12.128	0.544
391.500	274.059	80.007	19.995	103.368	19.890	12.434	0.528
392.000	274.287	80.006	19.994	103.366	19.884	12.866	0.472
392.500	274.532	80.006	19.994	103.366	19.884	12.859	0.467
393.000	274.819	80.007	19.995	103.370	19.886	12.688	0.502
393.500	275.026	80.008	19.994	103.372	19.882	12.940	0.513
394.000	275.291	80.006	19.994	103.371	19.878	13.222	0.483
394.500	275.555	80.007	19.994	103.371	19.879	13.196	0.501
395.000	275.792	80.006	19.994	103.371	19.877	13.299	0.515
395.500	276.027	80.008	19.994	103.369	19.877	13.314	0.487
396.000	276.288	80.007	19.994	103.366	19.873	13.594	0.484
396.500	276.558	80.006	19.994	103.367	19.867	13.964	0.513
397.000	276.829	80.007	19.994	103.368	19.866	14.034	0.536
397.500	277.023	80.006	19.993	103.368	19.870	13.800	0.503
398.000	277.306	80.007	19.993	103.368	19.865	14.099	0.471
398.500	277.580	80.006	19.995	103.369	19.866	14.048	0.517
399.000	277.800	80.006	19.994	103.371	19.860	14.452	0.525
399.500	278.058	80.006	19.995	103.371	19.860	14.477	0.486
400.000	278.304	80.007	19.994	103.370	19.859	14.496	0.491
400.500	278.532	80.007	19.994	103.372	19.855	14.763	0.489
401.000	278.821	80.006	19.994	103.372	19.852	14.967	0.496
401.500	279.026	80.007	19.994	103.373	19.855	14.759	0.505
402.000	279.318	80.008	19.994	103.372	19.851	15.024	0.495
402.500	279.574	80.005	19.994	103.374	19.848	15.283	0.523
403.000	279.782	80.007	19.994	103.377	19.846	15.366	0.506
403.500	280.054	80.006	19.994	103.378	19.847	15.303	0.472
404.000	280.317	80.007	19.994	103.376	19.840	15.815	0.508
404.500	280.550	80.008	19.993	103.377	19.844	15.490	0.516
405.000	280.823	80.008	19.994	103.379	19.840	15.796	0.501
405.500	281.015	80.007	19.995	103.379	19.838	15.915	0.485
406.000	281.280	80.007	19.995	103.379	19.835	16.145	0.461
406.500	281.566	80.007	19.995	103.381	19.838	15.945	0.504
407.000	281.820	80.006	19.995	103.385	19.837	15.976	0.545
407.500	282.044	80.007	19.995	103.387	19.832	16.318	0.509
408.000	282.278	80.007	19.996	103.387	19.828	16.622	0.469
408.500	282.583	80.006	19.995	103.387	19.823	16.904	0.499
409.000	282.838	80.006	19.994	103.390	19.824	16.889	0.550
409.500	283.051	80.008	19.996	103.393	19.822	16.983	0.514
410.000	283.302	80.007	19.995	103.393	19.819	17.228	0.466
410.500	283.534	80.007	19.994	103.397	19.821	17.095	0.474
411.000	283.794	80.007	19.994	103.401	19.816	17.386	0.488
411.500	284.069	80.007	19.994	103.403	19.814	17.553	0.514
412.000	284.298	80.006	19.994	103.403	19.813	17.610	0.519
412.500	284.577	80.008	19.996	103.403	19.811	17.769	0.505
413.000	284.818	80.006	19.995	103.400	19.811	17.754	0.514
413.500	285.102	80.006	19.995	103.400	19.807	18.030	0.523
414.000	285.357	80.006	19.996	103.400	19.799	18.543	0.532
414.500	285.598	80.006	19.996	103.401	19.802	18.354	0.517
415.000	285.875	80.004	19.995	103.403	19.798	18.633	0.507
415.500	286.124	80.007	19.996	103.406	19.799	18.540	0.522
416.000	286.370	80.007	19.995	103.408	19.792	18.999	0.511
416.500	286.610	80.006	19.995	103.409	19.790	19.144	0.491
417.000	286.840	80.006	19.995	103.409	19.788	19.253	0.478
417.500	287.109	80.007	19.995	103.408	19.788	19.314	0.484
418.000	287.381	80.006	19.993	103.408	19.786	19.439	0.520
418.500	287.617	80.005	19.996	103.407	19.787	19.376	0.525
419.000	287.842	80.005	19.995	103.408	19.775	20.128	0.485
419.500	288.082	80.006	19.994	103.409	19.776	20.052	0.463
420.000	288.330	80.006	19.995	103.410	19.778	19.928	0.476
420.500	288.639	80.005	19.995	103.411	19.776	20.101	0.522
421.000	288.824	80.006	19.994	103.411	19.772	20.368	0.525
421.500	289.134	80.006	19.994	103.410	19.768	20.611	0.495
422.000	289.349	80.006	19.993	103.411	19.776	20.068	0.510
422.500	289.597	80.007	19.995	103.410	19.765	20.847	0.495
423.000	289.807	80.007	19.995	103.410	19.763	20.951	0.461
423.500	290.122	80.006	19.994	103.411	19.762	21.031	0.491
424.000	290.373	80.006	19.994	103.411	19.759	21.243	0.545
424.500	290.612	80.006	19.994	103.410	19.751	21.751	0.528
425.000	290.866	80.007	19.995	103.410	19.758	21.289	0.492
425.500	291.114	80.006	19.994	103.411	19.752	21.686	0.498
426.000	291.351	80.006	19.994	103.411	19.750	21.854	0.493
426.500	291.638	80.006	19.995	103.413	19.746	22.107	0.504
427.000	291.891	80.006	19.994	103.416	19.746	22.120	0.532
427.500	292.105	80.007	19.994	103.419	19.740	22.523	0.503
428.000	292.388	80.004	19.994	103.419	19.740	22.481	0.482
428.500	292.739	80.007	19.994	103.420	19.737	22.690	0.565
429.000	292.862	80.006	19.994	103.419	19.738	22.618	0.554
429.500	293.186	80.007	19.994	103.416	19.732	23.010	0.461
430.000	293.443	80.007	19.994	103.414	19.727	23.366	0.514
430.500	293.665	80.007	19.994	103.413	19.727	23.408	0.530
431.000	293.888	80.008	19.995	103.415	19.725	23.523	0.462
431.500	294.173	80.007	19.995	103.418	19.724	23.593	0.476
432.000	294.406	80.007	19.995	103.425	19.722	23.686	0.513
432.500	294.687	80.006	19.995	103.429	19.721	23.756	0.516
433.000	294.920	80.006	19.996	103.435	19.716	24.148	0.514
433.500	295.222	80.008	19.995	103.437	19.712	24.411	0.525
434.000	295.440	80.008	19.996	103.436	19.711	24.439	0.527
434.500	295.711	80.008	19.994	103.432	19.709	24.576	0.504
435.000	295.967	80.008	19.995	103.430	19.706	24.782	0.508
435.500	296.253	80.008	19.996	103.430	19.702	25.088	0.535
436.000	296.451	80.008	19.996	103.430	19.701	25.123	0.512
436.500	296.484	80.008	19.996	103.430	19.698	25.341	0.357
437.000	297.112	80.008	19.995	103.432	19.688	25.979	0.446
437.500	297.380	80.008	19.995	103.435	19.690	25.880	0.779
438.000	297.632	80.008	19.995	103.436	19.690	25.878	0.708
438.500	297.657	80.007	19.994	103.437	19.689	25.959	0.398
439.000	297.850	80.007	19.997	103.439	19.685	26.205	0.247
439.500	298.447	80.007	19.994	103.441	19.680	26.561	0.504
440.000	298.364	80.007	19.995	103.442	19.678	26.674	0.652
440.500	298.796	80.008	19.994	103.442	19.675	26.885	0.431
441.000	299.064	80.008	19.995	103.444	19.673	27.004	0.525
441.500	299.136	80.007	19.996	103.445	19.669	27.269	0.520
442.000	299.453	80.007	19.996	103.445	19.666	27.477	0.365
442.500	299.760	80.009	19.996	103.445	19.666	27.447	0.507
443.000	300.003	80.007	19.995	103.445	19.660	27.865	0.587
443.500	300.213	80.008	19.996	103.444	19.662	27.778	0.502
444.000	300.432	80.006	19.995	103.444	19.661	27.822	0.441
444.500	300.684	80.006	19.995	103.444	19.655	28.185	0.450
445.000	301.014	80.007	19.995	103.445	19.652	28.399	0.526
445.500	301.168	80.007	19.995	103.447	19.651	28.506	0.532
446.000	301.530	80.007	19.994	103.448	19.646	28.823	0.500
446.500	301.720	80.006	19.995	103.447	19.646	28.819	0.535
447.000	301.893	80.007	19.995	103.450	19.641	29.179	0.457
447.500	302.297	80.007	19.995	103.452	19.641	29.156	0.470
448.000	302.427	80.007	19.995	103.450	19.637	29.414	0.556
448.500	302.745	80.007	19.995	103.453	19.634	29.597	0.491
449.000	303.011	80.006	19.994	103.458	19.633	29.728	0.515
449.500	303.210	80.007	19.995	103.457	19.629	29.937	0.524
450.000	303.487	80.006	19.994	103.457	19.625	30.204	0.471
450.500	303.739	80.007	19.995	103.458	19.622	30.447	0.503
451.000	303.988	80.008	19.994	103.459	19.623	30.399	0.515
451.500	304.249	80.007	19.995	103.456	19.622	30.406	0.506
452.000	304.471	80.008	19.995	103.457	19.616	30.806	0.496
452.500	304.733	80.009	19.995	103.460	19.611	31.167	0.483
453.000	304.998	80.008	19.993	103.462	19.608	31.372	0.506
453.500	305.211	80.008	19.994	103.460	19.606	31.488	0.503
454.000	305.523	80.007	19.994	103.459	19.600	31.908	0.502
454.500	305.697	80.007	19.994	103.457	19.601	31.858	0.506
455.000	306.021	80.009	19.994	103.457	19.598	32.061	0.492
455.500	306.284	80.009	19.994	103.459	19.594	32.346	0.542
456.000	306.469	80.009	19.994	103.461	19.590	32.566	0.517
456.500	306.789	80.009	19.994	103.467	19.589	32.623	0.476
457.000	307.043	80.008	19.993	103.471	19.588	32.691	0.540
457.500	307.270	80.010	19.994	103.473	19.582	33.127	0.528
458.000	307.499	80.009	19.995	103.474	19.582	33.149	0.469
458.500	307.815	80.009	19.994	103.477	19.580	33.232	0.501
459.000	308.056	80.010	19.994	103.477	19.577	33.431	0.551
459.500	308.319	80.009	19.994	103.479	19.574	33.633	0.530
460.000	308.535	80.009	19.993	103.481	19.577	33.461	0.491
460.500	308.799	80.009	19.994	103.483	19.570	33.942	0.479
461.000	309.044	80.009	19.995	103.483	19.571	33.868	0.494
461.500	309.274	80.009	19.995	103.483	19.568	34.052	0.492
462.000	309.552	80.010	19.995	103.483	19.562	34.469	0.492
462.500	309.837	80.008	19.995	103.483	19.556	34.877	0.535
463.000	310.103	80.010	19.994	103.483	19.556	34.868	0.556
463.500	310.313	80.010	19.993	103.482	19.552	35.126	0.514
464.000	310.586	80.010	19.994	103.480	19.552	35.175	0.480
464.500	310.837	80.008	19.995	103.480	19.548	35.387	0.503
465.000	311.107	80.010	19.994	103.480	19.546	35.518	0.523
465.500	311.339	80.009	19.994	103.479	19.544	35.706	0.511
466.000	311.620	80.008	19.994	103.482	19.538	36.075	0.507
466.500	311.837	80.009	19.993	103.485	19.539	36.027	0.506
467.000	312.145	80.008	19.994	103.487	19.535	36.287	0.512
467.500	312.374	80.010	19.994	103.487	19.532	36.471	0.531
468.000	312.658	80.007	19.994	103.487	19.525	36.928	0.525
468.500	312.868	80.009	19.995	103.486	19.523	37.085	0.504
469.000	313.156	80.007	19.994	103.486	19.526	36.923	0.496
469.500	313.411	80.005	19.994	103.487	19.516	37.535	0.520
470.000	313.666	80.007	19.994	103.487	19.520	37.330	0.526
470.500	313.892	80.006	19.993	103.486	19.514	37.721	0.496
471.000	314.181	80.007	19.995	103.487	19.517	37.468	0.498
471.500	314.416	80.006	19.994	103.489	19.509	38.026	0.519
472.000	314.661	80.009	19.994	103.488	19.506	38.232	0.502
472.500	314.938	80.005	19.994	103.489	19.502	38.520	0.501
473.000	315.250	80.007	19.993	103.491	19.505	38.301	0.556
473.500	315.461	80.006	19.994	103.492	19.502	38.515	0.556
474.000	315.705	80.008	19.996	103.493	19.494	39.040	0.489
474.500	315.951	80.005	19.994	103.496	19.497	38.834	0.473
475.000	316.201	80.006	19.995	103.503	19.491	39.225	0.493
475.500	316.491	80.005	19.995	103.509	19.488	39.447	0.518
476.000	316.737	80.006	19.994	103.510	19.486	39.560	0.538
476.500	316.980	80.007	19.994	103.515	19.481	39.932	0.513
477.000	317.249	80.006	19.994	103.518	19.479	40.043	0.501
477.500	317.460	80.006	19.995	103.513	19.478	40.147	0.496
478.000	317.765	80.006	19.995	103.514	19.478	40.140	0.498
478.500	318.020	80.006	19.995	103.518	19.475	40.304	0.538
479.000	318.254	80.006	19.995	103.519	19.471	40.595	0.524
479.500	318.519	80.006	19.994	103.520	19.466	40.898	0.493
480.000	318.772	80.005	19.995	103.525	19.458	41.467	0.508
480.500	319.041	80.007	19.993	103.526	19.461	41.260	0.520
481.000	319.276	80.006	19.994	103.525	19.454	41.734	0.513
481.500	319.533	80.006	19.995	103.525	19.450	42.021	0.498
482.000	319.769	80.007	19.993	103.524	19.453	41.819	0.493
482.500	320.034	80.004	19.995	103.524	19.442	42.571	0.497
483.000	320.297	80.006	19.994	103.524	19.438	42.793	0.514
483.500	320.533	80.007	19.993	103.524	19.440	42.688	0.513
484.000	320.804	80.007	19.995	103.524	19.438	42.835	0.503
484.500	321.114	80.008	19.993	103.525	19.434	43.100	0.544
485.000	321.321	80.007	19.993	103.525	19.429	43.404	0.549
485.500	321.561	80.007	19.993	103.528	19.430	43.377	0.483
486.000	321.853	80.007	19.994	103.529	19.426	43.605	0.489
486.500	322.103	80.006	19.994	103.531	19.416	44.276	0.537
487.000	322.356	80.006	19.994	103.532	19.417	44.227	0.522
487.500	322.600	80.007	19.994	103.537	19.415	44.345	0.500
488.000	322.882	80.007	19.994	103.537	19.413	44.527	0.512
488.500	323.094	80.006	19.994	103.540	19.409	44.759	0.510
489.000	323.362	80.007	19.993	103.541	19.405	45.007	0.486
489.500	323.578	80.007	19.994	103.541	19.404	45.119	0.482
490.000	323.873	80.006	19.993	103.536	19.399	45.444	0.498
490.500	324.127	80.008	19.994	103.539	19.398	45.508	0.529
491.000	324.388	80.007	19.995	103.543	19.391	45.946	0.532
491.500	324.663	80.007	19.994	103.546	19.393	45.820	0.526
492.000	324.903	80.006	19.995	103.553	19.385	46.386	0.526
492.500	325.144	80.007	19.994	103.560	19.382	46.572	0.498
493.000	325.412	80.007	19.994	103.562	19.381	46.682	0.495
493.500	325.676	80.007	19.993	103.562	19.373	47.167	0.520
494.000	325.944	80.008	19.994	103.559	19.371	47.348	0.532
494.500	326.174	80.006	19.994	103.559	19.360	48.040	0.515
495.000	326.441	80.008	19.994	103.559	19.362	47.952	0.498
495.500	326.667	80.008	19.994	103.559	19.359	48.160	0.495
496.000	326.950	80.005	19.995	103.559	19.353	48.510	0.500
496.500	327.158	80.008	19.994	103.563	19.348	48.856	0.500
497.000	327.432	80.007	19.995	103.563	19.340	49.392	0.487
497.500	327.706	80.006	19.995	103.562	19.339	49.500	0.515
498.000	327.957	80.008	19.995	103.562	19.336	49.683	0.537
498.500	328.229	80.008	19.996	103.561	19.331	50.018	0.524
499.000	328.458	80.007	19.994	103.561	19.330	50.103	0.512
499.500	328.692	80.008	19.995	103.560	19.329	50.174	0.482
500.000	328.975	80.007	19.995	103.563	19.322	50.645	0.491
500.500	329.219	80.007	19.995	103.565	19.325	50.437	0.522
501.000	329.443	80.006	19.995	103.566	19.313	51.217	0.497
501.500	329.747	80.007	19.995	103.567	19.312	51.326	0.498
502.000	329.972	80.007	19.995	103.568	19.307	51.634	0.529
502.500	330.241	80.006	19.995	103.567	19.304	51.859	0.512
503.000	330.510	80.006	19.995	103.567	19.298	52.251	0.516
503.500	330.754	80.007	19.997	103.567	19.295	52.436	0.526
504.000	330.984	80.005	19.996	103.570	19.292	52.636	0.494
504.500	331.296	80.007	19.995	103.570	19.285	53.107	0.508
505.000	331.501	80.007	19.994	103.572	19.280	53.484	0.529
505.500	331.758	80.005	19.996	103.570	19.278	53.612	0.489
506.000	332.025	80.005	19.994	103.571	19.273	53.929	0.493
506.500	332.274	80.005	19.995	103.571	19.267	54.323	0.521
507.000	332.562	80.005	19.995	103.574	19.264	54.561	0.527
507.500	332.816	80.005	19.996	103.577	19.257	54.982	0.540
508.000	333.057	80.006	19.996	103.585	19.253	55.254	0.519
508.500	333.296	80.006	19.996	103.590	19.242	56.000	0.487
509.000	333.588	80.007	19.995	103.595	19.242	56.020	0.505
509.500	333.818	80.006	19.994	103.599	19.236	56.450	0.526
510.000	334.040	80.007	19.995	103.599	19.234	56.544	0.487
510.500	334.347	80.006	19.995	103.599	19.227	57.022	0.491
511.000	334.590	80.006	19.995	103.599	19.224	57.210	0.540
511.500	334.841	80.006	19.996	103.600	19.222	57.393	0.521
512.000	335.082	80.007	19.995	103.599	19.212	58.059	0.493
512.500	335.346	80.008	19.995	103.600	19.215	57.819	0.499
513.000	335.628	80.007	19.994	103.600	19.206	58.463	0.526
513.500	335.847	80.007	19.995	103.600	19.198	58.952	0.524
514.000	336.120	80.008	19.996	103.599	19.196	59.111	0.497
514.500	336.368	80.007	19.995	103.602	19.189	59.565	0.506
515.000	336.642	80.008	19.995	103.602	19.186	59.760	0.522
515.500	336.849	80.007	19.994	103.605	19.182	60.085	0.502
516.000	337.101	80.008	19.994	103.609	19.177	60.391	0.470
516.500	337.369	80.009	19.994	103.614	19.165	61.233	0.490
517.000	337.626	80.009	19.996	103.616	19.167	61.053	0.523
517.500	337.917	80.008	19.995	103.621	19.162	61.436	0.537
518.000	338.177	80.009	19.994	103.624	19.153	62.046	0.549
518.500	338.386	80.008	19.995	103.629	19.147	62.390	0.510
519.000	338.624	80.009	19.995	103.630	19.147	62.417	0.458
519.500	338.908	80.009	19.994	103.634	19.140	62.912	0.485
520.000	339.109	80.009	19.995	103.635	19.133	63.346	0.503
520.500	339.336	80.008	19.995	103.636	19.133	63.401	0.456
521.000	339.650	80.009	19.994	103.636	19.128	63.721	0.485
521.500	339.867	80.009	19.995	103.637	19.118	64.375	0.536
522.000	340.148	80.009	19.995	103.638	19.114	64.631	0.515
522.500	340.383	80.010	19.996	103.638	19.106	65.205	0.507
523.000	340.624	80.009	19.996	103.639	19.100	65.607	0.495
523.500	340.832	80.008	19.995	103.638	19.100	65.609	0.462
524.000	341.117	80.008	19.995	103.639	19.097	65.815	0.471
524.500	341.386	80.008	19.995	103.639	19.088	66.366	0.524
525.000	341.605	80.008	19.995	103.640	19.082	66.771	0.521
525.500	341.894	80.007	19.995	103.640	19.076	67.217	0.498
526.000	342.113	80.008	19.994	103.640	19.068	67.712	0.508
526.500	342.368	80.008	19.996	103.640	19.062	68.165	0.491
527.000	342.571	80.008	19.996	103.643	19.060	68.309	0.466
527.500	342.856	80.007	19.995	103.649	19.059	68.372	0.473
528.000	343.078	80.007	19.994	103.656	19.049	69.020	0.498
528.500	343.380	80.007	19.995	103.655	19.046	69.218	0.515
529.000	343.627	80.008	19.996	103.655	19.041	69.545	0.537
529.500	343.857	80.007	19.995	103.652	19.032	70.153	0.513
530.000	344.139	80.006	19.995	103.651	19.031	70.204	0.494
530.500	344.381	80.006	19.995	103.651	19.024	70.692	0.518
531.000	344.634	80.008	19.996	103.657	19.021	70.915	0.510
531.500	344.855	80.007	19.995	103.662	19.016	71.253	0.485
532.000	345.141	80.007	19.995	103.670	19.007	71.818	0.490
532.500	345.392	80.007	19.997	103.671	19.004	72.026	0.522
533.000	345.624	80.007	19.995	103.670	19.001	72.243	0.510
533.500	345.887	80.007	19.995	103.671	18.993	72.794	0.489
534.000	346.162	80.008	19.996	103.670	18.990	72.977	0.517
534.500	346.406	80.006	19.995	103.668	18.986	73.284	0.528
535.000	346.638	80.007	19.995	103.662	18.986	73.296	0.497
535.500	346.947	80.008	19.995	103.661	18.979	73.713	0.508
536.000	347.167	80.008	19.996	103.663	18.976	73.956	0.535
536.500	347.433	80.006	19.995	103.665	18.970	74.315	0.508
537.000	347.630	80.009	19.995	103.669	18.968	74.482	0.474
537.500	347.881	80.008	19.996	103.676	18.960	74.988	0.456
538.000	348.127	80.008	19.996	103.679	18.953	75.445	0.473
538.500	348.447	80.007	19.994	103.680	18.951	75.581	0.531
539.000	348.625	80.009	19.996	103.680	18.952	75.553	0.532
539.500	348.925	80.007	19.995	103.679	18.944	76.058	0.488
540.000	349.170	80.008	19.995	103.679	18.945	75.969	0.511
540.500	349.445	80.009	19.996	103.678	18.938	76.489	0.532
541.000	349.641	80.009	19.996	103.678	18.939	76.417	0.496
541.500	349.904	80.009	19.996	103.678	18.939	76.386	0.465
542.000	350.206	80.010	19.995	103.679	18.935	76.689	0.512
542.500	350.401	80.009	19.995	103.678	18.931	76.927	0.531
543.000	350.673	80.010	19.995	103.677	18.932	76.869	0.482
543.500	350.879	80.009	19.995	103.676	18.927	77.166	0.473
544.000	351.182	80.009	19.993	103.675	18.919	77.710	0.494
544.500	351.380	80.010	19.995	103.675	18.918	77.765	0.505
545.000	351.654	80.010	19.994	103.675	18.919	77.729	0.486
545.500	351.903	80.010	19.994	103.677	18.921	77.594	0.498
546.000	352.163	80.009	19.993	103.677	18.916	77.943	0.516
546.500	352.426	80.009	19.993	103.677	18.919	77.682	0.516
547.000	352.694	80.008	19.994	103.672	18.916	77.935	0.527
547.500	352.932	80.009	19.995	103.666	18.914	78.028	0.519
548.000	353.228	80.010	19.994	103.664	18.910	78.337	0.520
548.500	353.433	80.010	19.994	103.660	18.911	78.230	0.518
549.000	353.698	80.011	19.993	103.654	18.910	78.330	0.486
549.500	353.945	80.009	19.995	103.651	18.914	78.039	0.491
550.000	354.167	80.008	19.994	103.651	18.912	78.181	0.490
550.500	354.460	80.008	19.994	103.646	18.916	77.883	0.492
551.000	354.710	80.009	19.995	103.642	18.916	77.867	0.529
551.500	354.930	80.007	19.994	103.642	18.916	77.866	0.507
552.000	355.186	80.009	19.995	103.641	18.917	77.796	0.473
552.500	355.458	80.008	19.994	103.638	18.919	77.658	0.502
553.000	355.698	80.007	19.995	103.636	18.919	77.649	0.520
553.500	355.950	80.006	19.994	103.633	18.927	77.154	0.502
554.000	356.179	80.007	19.995	103.633	18.928	77.039	0.486
554.500	356.478	80.008	19.994	103.625	18.925	77.276	0.504
555.000	356.721	80.008	19.994	103.620	18.930	76.898	0.535
555.500	356.941	80.006	19.994	103.615	18.937	76.424	0.503
556.000	357.186	80.008	19.994	103.611	18.942	76.115	0.464
556.500	357.420	80.007	19.994	103.603	18.943	76.072	0.472
557.000	357.715	80.006	19.994	103.604	18.948	75.705	0.504
557.500	357.976	80.007	19.994	103.605	18.952	75.431	0.543
558.000	358.234	80.007	19.995	103.605	18.950	75.531	0.537
558.500	358.477	80.007	19.994	103.604	18.960	74.888	0.510
559.000	358.678	80.008	19.995	103.603	18.968	74.328	0.473
559.500	358.928	80.006	19.995	103.598	18.973	73.975	0.448
560.000	359.224	80.007	19.994	103.591	18.976	73.794	0.498
560.500	359.493	80.007	19.995	103.588	18.982	73.368	0.555
561.000	359.713	80.006	19.995	103.585	18.991	72.770	0.527
561.500	359.955	80.007	19.995	103.578	18.996	72.424	0.475
562.000	360.211	80.007	19.996	103.575	19.005	71.821	0.480
562.500	360.426	80.008	19.994	103.570	19.010	71.502	0.485
563.000	360.740	80.007	19.995	103.563	19.021	70.781	0.500
563.500	360.978	80.006	19.993	103.554	19.025	70.476	0.541
564.000	361.212	80.005	19.996	103.549	19.033	69.947	0.512
564.500	361.498	80.005	19.995	103.545	19.038	69.615	0.496
565.000	361.754	80.006	19.994	103.538	19.054	68.533	0.531
565.500	361.984	80.007	19.994	103.533	19.064	67.823	0.514
566.000	362.202	80.008	19.994	103.530	19.073	67.215	0.467
566.500	362.488	80.006	19.995	103.527	19.079	66.806	0.476
567.000	362.749	80.006	19.996	103.522	19.087	66.289	0.525
567.500	363.011	80.007	19.996	103.522	19.098	65.537	0.535
568.000	363.246	80.006	19.996	103.521	19.109	64.838	0.510
568.500	363.524	80.008	19.995	103.519	19.122	63.926	0.505
569.000	363.769	80.008	19.996	103.511	19.128	63.505	0.518
569.500	364.040	80.006	19.996	103.504	19.137	62.928	0.519
570.000	364.234	80.007	19.995	103.496	19.154	61.785	0.491
570.500	364.560	80.007	19.995	103.489	19.162	61.222	0.492
571.000	364.823	80.007	19.994	103.483	19.174	60.445	0.554
571.500	365.038	80.006	19.994	103.482	19.187	59.586	0.534
572.000	365.297	80.007	19.995	103.476	19.201	58.653	0.476
572.500	365.527	80.008	19.995	103.468	19.212	57.886	0.481
573.000	365.835	80.008	19.996	103.460	19.222	57.223	0.513
573.500	366.050	80.006	19.995	103.452	19.235	56.331	0.531
574.000	366.368	80.008	19.995	103.445	19.250	55.326	0.528
574.500	366.572	80.007	19.993	103.437	19.260	54.680	0.527
575.000	366.797	80.007	19.994	103.431	19.274	53.748	0.475
575.500	367.076	80.008	19.994	103.424	19.290	52.651	0.467
576.000	367.349	80.006	19.994	103.415	19.294	52.348	0.528
576.500	367.648	80.007	19.994	103.408	19.316	50.921	0.562
577.000	367.903	80.007	19.994	103.407	19.330	49.944	0.563
577.500	368.114	80.007	19.994	103.405	19.344	49.022	0.509
578.000	368.347	80.008	19.994	103.402	19.354	48.311	0.455
578.500	368.614	80.008	19.996	103.396	19.366	47.568	0.472
579.000	368.870	80.007	19.994	103.390	19.379	46.641	0.512
579.500	369.170	80.007	19.995	103.386	19.392	45.789	0.539
580.000	369.418	80.009	19.995	103.382	19.405	44.902	0.552
580.500	369.666	80.009	19.994	103.376	19.422	43.760	0.522
581.000	369.918	80.007	19.993	103.374	19.434	42.994	0.498
581.500	370.181	80.007	19.994	103.372	19.448	42.066	0.507
582.000	370.416	80.009	19.995	103.367	19.459	41.326	0.507
582.500	370.647	80.008	19.995	103.360	19.476	40.175	0.482
583.000	370.949	80.008	19.996	103.353	19.487	39.401	0.500
583.500	371.210	80.008	19.995	103.352	19.501	38.508	0.548
584.000	371.462	80.007	19.993	103.345	19.515	37.540	0.537
584.500	371.698	80.006	19.994	103.338	19.527	36.748	0.500
585.000	371.952	80.006	19.994	103.335	19.542	35.753	0.489
585.500	372.253	80.006	19.993	103.337	19.549	35.238	0.523
586.000	372.488	80.006	19.994	103.330	19.565	34.195	0.545
586.500	372.751	80.007	19.995	103.329	19.575	33.560	0.517
587.000	373.058	80.006	19.995	103.326	19.588	32.633	0.535
587.500	373.293	80.006	19.994	103.324	19.596	32.113	0.556
588.000	373.535	80.007	19.995	103.319	19.613	31.015	0.509
588.500	373.796	80.007	19.995	103.316	19.621	30.430	0.490
589.000	374.083	80.008	19.995	103.310	19.640	29.146	0.525
589.500	374.329	80.006	19.994	103.304	19.645	28.808	0.541
590.000	374.622	80.006	19.994	103.300	19.661	27.742	0.536
590.500	374.851	80.007	19.995	103.294	19.671	27.064	0.530
591.000	375.085	80.006	19.995	103.290	19.683	26.315	0.493
591.500	375.397	80.005	19.994	103.290	19.693	25.651	0.504
592.000	375.625	80.006	19.995	103.291	19.703	24.923	0.543
592.500	375.889	80.006	19.995	103.290	19.710	24.477	0.516
593.000	376.147	80.005	19.994	103.291	19.723	23.600	0.507
593.500	376.399	80.006	19.995	103.290	19.731	23.059	0.516
594.000	376.642	80.007	19.995	103.290	19.744	22.198	0.502
594.500	376.977	80.008	19.995	103.291	19.750	21.828	0.536
595.000	377.174	80.006	19.994	103.291	19.759	21.226	0.555
595.500	377.426	80.007	19.994	103.291	19.768	20.611	0.490
596.000	377.625	80.006	19.994	103.290	19.780	19.824	0.450
596.500	377.954	80.007	19.994	103.288	19.787	19.315	0.490
597.000	378.169	80.007	19.995	103.287	19.795	18.757	0.536
597.500	378.412	80.007	19.995	103.287	19.806	18.081	0.501
598.000	378.739	80.008	19.995	103.286	19.811	17.728	0.514
598.500	378.967	80.008	19.995	103.287	19.819	17.197	0.563
599.000	379.239	80.008	19.996	103.289	19.826	16.722	0.528
599.500	379.508	80.008	19.996	103.289	19.835	16.106	0.521
600.000	379.703	80.009	19.994	103.288	19.839	15.840	0.503
600.500	379.986	80.008	19.995	103.289	19.847	15.273	0.471
601.000	380.226	80.008	19.996	103.284	19.855	14.753	0.500
601.500	380.520	80.007	19.995	103.282	19.859	14.519	0.528
602.000	380.792	80.007	19.996	103.279	19.864	14.135	0.550
602.500	381.026	80.009	19.995	103.276	19.870	13.741	0.536
603.000	381.297	80.008	19.994	103.274	19.881	13.009	0.506
603.500	381.532	80.009	19.994	103.279	19.877	13.261	0.506
604.000	381.794	80.009	19.995	103.278	19.884	12.842	0.501
604.500	382.058	80.009	19.995	103.281	19.891	12.386	0.511
605.000	382.291	80.008	19.994	103.284	19.893	12.197	0.512
605.500	382.541	80.008	19.994	103.281	19.893	12.212	0.490
606.000	382.800	80.007	19.995	103.278	19.904	11.455	0.496
606.500	383.059	80.009	19.994	103.278	19.907	11.265	0.514
607.000	383.308	80.008	19.995	103.276	19.906	11.333	0.513
607.500	383.576	80.008	19.995	103.276	19.911	11.026	0.512
608.000	383.815	80.009	19.995	103.280	19.918	10.575	0.512
608.500	384.080	80.007	19.994	103.280	19.920	10.394	0.506
609.000	384.308	80.007	19.994	103.280	19.924	10.122	0.499
609.500	384.569	80.006	19.994	103.279	19.928	9.879	0.491
610.000	384.816	80.008	19.994	103.278	19.927	9.910	0.498
610.500	385.090	80.008	19.995	103.277	19.933	9.515	0.514
611.000	385.329	80.008	19.995	103.278	19.936	9.309	0.517
611.500	385.608	80.007	19.995	103.280	19.937	9.271	0.516
612.000	385.878	80.008	19.996	103.281	19.937	9.299	0.534
612.500	386.128	80.007	19.994	103.281	19.941	9.009	0.534
613.000	386.325	80.006	19.995	103.280	19.941	9.034	0.483
613.500	386.603	80.006	19.995	103.275	19.942	8.948	0.461
614.000	386.847	80.008	19.994	103.271	19.949	8.479	0.499
614.500	387.150	80.008	19.995	103.270	19.951	8.332	0.534
615.000	387.370	80.006	19.993	103.268	19.951	8.363	0.535
615.500	387.666	80.007	19.994	103.271	19.955	8.078	0.519
616.000	387.925	80.008	19.995	103.272	19.951	8.325	0.535
616.500	388.165	80.007	19.995	103.273	19.958	7.880	0.527
617.000	388.437	80.007	19.996	103.275	19.955	8.066	0.506
617.500	388.669	80.008	19.995	103.278	19.956	8.020	0.508
618.000	388.931	80.006	19.995	103.278	19.951	8.327	0.499
618.500	389.153	80.008	19.995	103.283	19.959	7.801	0.489
619.000	389.409	80.007	19.994	103.287	19.959	7.779	0.481
619.500	389.618	80.008	19.994	103.284	19.959	7.801	0.471
620.000	389.909	80.007	19.994	103.282	19.960	7.702	0.483
620.500	390.186	80.007	19.994	103.280	19.964	7.490	0.534
621.000	390.427	80.008	19.995	103.275	19.963	7.536	0.543
621.500	390.679	80.006	19.996	103.274	19.963	7.542	0.505
622.000	390.935	80.009	19.995	103.277	19.965	7.424	0.501
622.500	391.195	80.007	19.993	103.280	19.967	7.261	0.513
623.000	391.447	80.007	19.995	103.281	19.969	7.134	0.514
623.500	391.736	80.010	19.995	103.286	19.968	7.216	0.526
624.000	391.984	80.008	19.995	103.285	19.965	7.422	0.538
624.500	392.250	80.008	19.995	103.285	19.969	7.131	0.525
625.000	392.517	80.008	19.995	103.283	19.966	7.348	0.524
625.500	392.747	80.009	19.994	103.282	19.970	7.045	0.515
626.000	393.019	80.008	19.994	103.281	19.970	7.031	0.499
626.500	393.242	80.008	19.996	103.281	19.966	7.354	0.499
627.000	393.493	80.009	19.996	103.281	19.971	7.001	0.485
627.500	393.755	80.010	19.996	103.283	19.967	7.277	0.494
628.000	394.041	80.007	19.995	103.283	19.966	7.308	0.531
628.500	394.309	80.009	19.995	103.284	19.972	6.926	0.551
629.000	394.551	80.007	19.995	103.286	19.969	7.108	0.532
629.500	394.807	80.009	19.995	103.285	19.969	7.158	0.504
630.000	395.082	80.010	19.996	103.284	19.969	7.137	0.515
630.500	395.346	80.008	19.995	103.284	19.971	7.023	0.535
631.000	395.545	80.009	19.996	103.282	19.967	7.297	0.501
631.500	395.839	80.009	19.995	103.280	19.972	6.896	0.478
632.000	396.044	80.009	19.996	103.279	19.971	6.970	0.496
632.500	396.302	80.007	19.996	103.280	19.972	6.952	0.481
633.000	396.565	80.007	19.994	103.281	19.974	6.821	0.492
633.500	396.843	80.007	19.996	103.281	19.972	6.941	0.531
634.000	397.072	80.008	19.995	103.277	19.970	7.056	0.524
634.500	397.352	80.006	19.996	103.272	19.975	6.721	0.508
635.000	397.581	80.009	19.996	103.271	19.973	6.894	0.509
635.500	397.839	80.006	19.995	103.268	19.970	7.042	0.498
636.000	398.096	80.006	19.994	103.267	19.972	6.895	0.501
636.500	398.340	80.005	19.995	103.273	19.973	6.827	0.508
637.000	398.591	80.007	19.996	103.279	19.971	7.020	0.498
637.500	398.860	80.006	19.996	103.281	19.971	7.028	0.508
638.000	399.092	80.006	19.995	103.281	19.975	6.703	0.510
638.500	399.379	80.007	19.995	103.282	19.973	6.858	0.510
639.000	399.617	80.005	19.994	103.281	19.968	7.169	0.522
639.500	399.860	80.007	19.995	103.281	19.970	7.080	0.503
640.000	400.132	80.006	19.995	103.282	19.968	7.183	0.498
640.500	400.369	80.007	19.994	103.282	19.975	6.759	0.512
641.000	400.621	80.007	19.995	103.279	19.971	7.027	0.499
641.500	400.865	80.008	19.995	103.276	19.969	7.101	0.492
642.000	401.087	80.006	19.994	103.274	19.971	6.970	0.481
642.500	401.361	80.007	19.995	103.273	19.976	6.679	0.481
643.000	401.588	80.007	19.993	103.275	19.974	6.784	0.499
643.500	401.868	80.007	19.996	103.278	19.975	6.706	0.504
644.000	402.130	80.007	19.995	103.279	19.975	6.698	0.524
644.500	402.392	80.007	19.995	103.281	19.975	6.749	0.533
645.000	402.660	80.006	19.995	103.275	19.974	6.814	0.527
645.500	402.886	80.007	19.996	103.268	19.973	6.858	0.512
646.000	403.115	80.008	19.995	103.264	19.977	6.564	0.475
646.500	403.379	80.006	19.995	103.261	19.975	6.751	0.474
647.000	403.646	80.007	19.995	103.257	19.977	6.588	0.512
647.500	403.881	80.006	19.994	103.257	19.979	6.487	0.516
648.000	404.153	80.006	19.994	103.263	19.976	6.653	0.504
648.500	404.404	80.008	19.995	103.267	19.976	6.680	0.515
649.000	404.634	80.006	19.994	103.272	19.976	6.640	0.502
649.500	404.845	80.008	19.995	103.274	19.973	6.870	0.462
650.000	405.154	80.006	19.995	103.278	19.977	6.584	0.481
650.500	405.385	80.006	19.995	103.279	19.978	6.529	0.530
651.000	405.663	80.007	19.995	103.280	19.978	6.513	0.524
651.500	405.889	80.006	19.996	103.277	19.975	6.733	0.506
652.000	406.111	80.006	19.994	103.277	19.979	6.449	0.476
652.500	406.393	80.007	19.995	103.278	19.976	6.681	0.476
653.000	406.607	80.007	19.996	103.278	19.979	6.490	0.500
653.500	406.861	80.007	19.995	103.274	19.982	6.282	0.482
654.000	407.078	80.006	19.994	103.277	19.979	6.489	0.469
654.500	407.396	80.007	19.996	103.280	19.981	6.339	0.503
655.000	407.633	80.006	19.996	103.278	19.977	6.576	0.545
655.500	407.878	80.007	19.995	103.275	19.978	6.558	0.519
656.000	408.140	80.008	19.995	103.277	19.978	6.554	0.495
656.500	408.402	80.007	19.994	103.274	19.974	6.784	0.516
657.000	408.651	80.008	19.995	103.274	19.976	6.637	0.517
657.500	408.927	80.008	19.995	103.276	19.976	6.637	0.518
658.000	409.145	80.006	19.995	103.280	19.975	6.723	0.510
658.500	409.386	80.008	19.994	103.283	19.980	6.415	0.476
659.000	409.637	80.008	19.995	103.286	19.980	6.413	0.475
659.500	409.883	80.008	19.995	103.287	19.976	6.651	0.495
660.000	410.165	80.006	19.995	103.287	19.979	6.493	0.513
660.500	410.387	80.008	19.995	103.286	19.978	6.517	0.516
661.000	410.699	80.005	19.995	103.283	19.984	6.145	0.519
661.500	410.930	80.007	19.996	103.282	19.978	6.498	0.539
662.000	411.175	80.007	19.996	103.280	19.979	6.486	0.510
662.500	411.433	80.007	19.995	103.274	19.983	6.177	0.489
663.000	411.648	80.006	19.995	103.270	19.981	6.313	0.488
663.500	411.864	80.006	19.995	103.268	19.980	6.402	0.452
664.000	412.181	80.007	19.995	103.265	19.977	6.571	0.482
664.500	412.414	80.006	19.995	103.262	19.977	6.564	0.542
665.000	412.696	80.007	19.995	103.262	19.980	6.374	0.532
665.500	412.915	80.007	19.995	103.267	19.983	6.203	0.507
666.000	413.164	80.006	19.996	103.270	19.984	6.130	0.484
666.500	413.448	80.006	19.994	103.272	19.982	6.246	0.501
667.000	413.667	80.006	19.994	103.273	19.985	6.069	0.519
667.500	413.899	80.006	19.995	103.274	19.984	6.150	0.477
668.000	414.164	80.004	19.994	103.270	19.983	6.210	0.473
668.500	414.384	80.005	19.995	103.266	19.983	6.220	0.491
669.000	414.634	80.007	19.996	103.269	19.982	6.227	0.478
669.500	414.869	80.007	19.995	103.273	19.985	6.038	0.478
670.000	415.104	80.006	19.995	103.279	19.983	6.170	0.477
670.500	415.381	80.006	19.994	103.283	19.983	6.205	0.491
671.000	415.598	80.006	19.996	103.287	19.979	6.436	0.503
671.500	415.864	80.007	19.995	103.285	19.983	6.168	0.488
672.000	416.095	80.007	19.995	103.281	19.981	6.312	0.490
672.501	416.389	80.005	19.994	103.276	19.983	6.183	0.511
673.000	416.586	80.005	19.994	103.269	19.984	6.102	0.508
673.500	416.864	80.006	19.994	103.264	19.982	6.238	0.483
674.000	417.126	80.006	19.995	103.266	19.986	6.021	0.508
674.500	417.381	80.006	19.994	103.267	19.982	6.244	0.528
675.000	417.592	80.007	19.995	103.268	19.985	6.063	0.492
675.500	417.838	80.006	19.995	103.274	19.981	6.352	0.462
676.000	418.128	80.007	19.996	103.274	19.984	6.142	0.496
676.500	418.391	80.006	19.995	103.273	19.984	6.102	0.544
677.000	418.602	80.007	19.994	103.270	19.982	6.289	0.514
677.500	418.871	80.006	19.994	103.269	19.985	6.029	0.477
678.000	419.118	80.007	19.993	103.270	19.981	6.356	0.498
678.500	419.372	80.008	19.994	103.272	19.986	5.965	0.508
679.000	419.631	80.008	19.994	103.267	19.986	5.961	0.507
679.500	419.864	80.008	19.994	103.269	19.987	5.954	0.503
680.000	420.148	80.008	19.994	103.268	19.985	6.029	0.505
680.500	420.404	80.009	19.994	103.263	19.988	5.884	0.529
681.000	420.660	80.009	19.994	103.262	19.984	6.132	0.526
681.500	420.907	80.010	19.995	103.263	19.984	6.097	0.508
682.000	421.114	80.008	19.994	103.267	19.986	5.977	0.479
682.500	421.367	80.010	19.994	103.271	19.992	5.596	0.457
683.000	421.639	80.008	19.995	103.273	19.991	5.657	0.493
683.500	421.873	80.007	19.993	103.273	19.984	6.118	0.515
684.000	422.150	80.009	19.994	103.274	19.987	5.916	0.508
684.500	422.407	80.009	19.993	103.272	19.989	5.815	0.523
685.000	422.644	80.008	19.996	103.267	19.988	5.853	0.514
685.500	422.883	80.008	19.995	103.267	19.988	5.865	0.485
686.000	423.134	80.008	19.994	103.266	19.987	5.903	0.483
686.500	423.398	80.009	19.994	103.264	19.984	6.102	0.502
687.000	423.633	80.007	19.995	103.264	19.989	5.756	0.507
687.500	423.881	80.008	19.994	103.265	19.988	5.863	0.491
688.000	424.129	80.009	19.994	103.263	19.989	5.793	0.490
688.500	424.358	80.008	19.994	103.267	19.989	5.806	0.487
689.000	424.677	80.008	19.995	103.272	19.990	5.706	0.512
689.500	424.884	80.008	19.994	103.273	19.986	6.004	0.537
690.000	425.177	80.008	19.995	103.275	19.990	5.703	0.513
690.500	425.409	80.008	19.995	103.280	19.992	5.565	0.513
691.000	425.655	80.008	19.995	103.278	19.991	5.653	0.501
691.500	425.877	80.007	19.995	103.277	19.990	5.743	0.473
692.000	426.141	80.007	19.994	103.271	19.987	5.906	0.477
692.500	426.400	80.008	19.995	103.267	19.990	5.699	0.505
693.000	426.633	80.008	19.994	103.262	19.990	5.741	0.508
693.500	426.869	80.007	19.995	103.260	19.991	5.626	0.480
694.000	427.167	80.007	19.994	103.257	19.988	5.833	0.501
694.500	427.414	80.007	19.995	103.257	19.991	5.657	0.540
695.000	427.629	80.007	19.995	103.256	19.991	5.657	0.504
695.500	427.919	80.008	19.996	103.255	19.994	5.444	0.483
696.000	428.154	80.008	19.996	103.254	19.987	5.941	0.515
696.500	428.397	80.007	19.995	103.259	19.990	5.726	0.502
697.000	428.676	80.008	19.995	103.263	19.989	5.802	0.500
697.500	428.918	80.006	19.995	103.264	19.993	5.548	0.522
698.000	429.188	80.009	19.996	103.264	19.996	5.344	0.516
698.500	429.443	80.007	19.996	103.263	19.995	5.401	0.518
699.000	429.667	80.008	19.995	103.256	19.992	5.583	0.502
699.500	429.934	80.008	19.996	103.255	19.993	5.515	0.485
700.000	430.211	80.007	19.995	103.258	19.996	5.350	0.518
700.500	430.420	80.007	19.995	103.260	19.992	5.592	0.515
701.000	430.690	80.007	19.995	103.261	19.992	5.601	0.482
701.500	430.941	80.008	19.995	103.260	19.994	5.469	0.500
702.000	431.247	80.008	19.995	103.258	19.996	5.326	0.539
702.500	431.440	80.009	19.995	103.252	19.994	5.423	0.528
703.000	431.747	80.008	19.995	103.251	19.994	5.473	0.500
703.500	431.974	80.008	19.995	103.250	19.994	5.484	0.517
704.000	432.225	80.009	19.996	103.251	19.995	5.405	0.506
704.500	432.470	80.009	19.994	103.255	19.992	5.572	0.487
705.000	432.746	80.008	19.994	103.258	19.996	5.333	0.508
705.500	432.980	80.009	19.994	103.257	19.998	5.193	0.516
706.000	433.260	80.009	19.995	103.256	19.998	5.212	0.512
706.500	433.500	80.010	19.995	103.256	19.995	5.377	0.517
707.000	433.759	80.011	19.995	103.251	19.990	5.728	0.509
707.500	434.040	80.009	19.995	103.248	19.993	5.517	0.519
708.000	434.270	80.010	19.995	103.248	19.993	5.521	0.526
708.500	434.498	80.010	19.994	103.249	19.995	5.355	0.484
709.000	434.795	80.010	19.994	103.251	19.996	5.335	0.491
709.500	435.078	80.010	19.995	103.251	19.995	5.363	0.553
710.000	435.303	80.011	19.994	103.252	19.991	5.627	0.544
710.500	435.555	80.011	19.994	103.253	19.994	5.434	0.492
711.000	435.805	80.009	19.995	103.253	20.001	4.988	0.490
711.500	436.071	80.011	19.995	103.250	19.996	5.326	0.509
712.000	436.344	80.009	19.996	103.250	19.997	5.227	0.527
712.500	436.567	80.009	19.995	103.249	19.994	5.436	0.517
713.000	436.871	80.010	19.994	103.251	20.000	5.021	0.512
713.500	437.071	80.009	19.994	103.250	19.995	5.377	0.516
714.000	437.343	80.009	19.994	103.250	19.998	5.160	0.488
714.500	437.584	80.009	19.995	103.250	20.001	5.017	0.492
715.000	437.821	80.009	19.994	103.251	19.997	5.260	0.495
715.500	438.084	80.009	19.996	103.249	19.996	5.328	0.489
716.000	438.338	80.010	19.994	103.249	19.997	5.254	0.509
716.500	438.596	80.010	19.995	103.249	19.998	5.205	0.514
717.000	438.857	80.008	19.995	103.250	19.998	5.188	0.515
717.500	439.105	80.007	19.994	103.251	19.997	5.264	0.514
718.000	439.360	80.008	19.996	103.251	20.000	5.049	0.506
718.500	439.578	80.007	19.995	103.251	20.000	5.060	0.489
719.000	439.852	80.008	19.996	103.251	20.002	4.946	0.482
719.500	440.093	80.007	19.997	103.250	20.000	5.034	0.503
720.000	440.357	80.005	19.995	103.250	19.998	5.164	0.510
720.500	440.626	80.007	19.996	103.251	19.999	5.115	0.519
721.000	440.818	80.006	19.996	103.251	20.002	4.892	0.498
721.500	441.097	80.007	19.996	103.251	19.998	5.203	0.466
722.000	441.391	80.008	19.996	103.250	20.003	4.854	0.522
722.500	441.582	80.007	19.996	103.249	19.999	5.126	0.529
723.000	441.861	80.007	19.995	103.249	20.002	4.931	0.477
723.500	442.120	80.006	19.996	103.248	20.002	4.911	0.504
724.000	442.346	80.008	19.996	103.248	20.002	4.896	0.512
724.500	442.629	80.007	19.996	103.249	20.005	4.694	0.497
725.000	442.885	80.005	19.995	103.248	20.002	4.916	0.524
725.500	443.124	80.007	19.995	103.248	20.001	5.008	0.517
726.000	443.352	80.004	19.996	103.248	20.002	4.944	0.481
726.500	443.636	80.006	19.996	103.249	20.004	4.806	0.490
727.000	443.865	80.006	19.995	103.249	20.004	4.760	0.512
727.500	444.115	80.005	19.996	103.250	20.004	4.808	0.495
728.000	444.374	80.007	19.996	103.255	20.004	4.773	0.494
728.500	444.622	80.007	19.995	103.259	20.004	4.773	0.508
729.000	444.889	80.007	19.995	103.258	20.002	4.896	0.511
729.500	445.142	80.006	19.996	103.260	20.002	4.890	0.517
730.000	445.424	80.006	19.997	103.260	20.001	4.973	0.527
730.500	445.626	80.007	19.996	103.255	20.005	4.686	0.510
731.000	445.872	80.007	19.996	103.252	20.006	4.637	0.466
731.500	446.124	80.006	19.995	103.252	20.006	4.681	0.473
732.000	446.397	80.007	19.997	103.250	20.004	4.786	0.511
732.500	446.649	80.005	19.995	103.249	20.005	4.712	0.525
733.000	446.884	80.006	19.995	103.250	20.010	4.356	0.506
733.500	447.171	80.008	19.995	103.249	20.006	4.655	0.504
734.000	447.395	80.007	19.996	103.253	20.006	4.637	0.516
734.500	447.666	80.008	19.995	103.253	20.009	4.437	0.503
735.000	447.911	80.008	19.995	103.254	20.003	4.845	0.506
735.500	448.160	80.007	19.995	103.254	20.008	4.538	0.505
736.000	448.409	80.008	19.994	103.254	20.010	4.371	0.496
736.500	448.670	80.009	19.996	103.252	20.008	4.514	0.504
737.000	448.919	80.007	19.994	103.258	20.009	4.424	0.510
737.500	449.195	80.007	19.994	103.258	20.008	4.488	0.517
738.000	449.456	80.008	19.995	103.258	20.006	4.637	0.531
738.500	449.719	80.007	19.995	103.258	20.009	4.440	0.531
739.000	449.906	80.007	19.995	103.258	20.011	4.312	0.487
739.500	450.180	80.007	19.994	103.251	20.005	4.707	0.456
740.000	450.432	80.008	19.994	103.250	20.009	4.437	0.493
740.500	450.707	80.006	19.995	103.250	20.012	4.224	0.526
741.000	450.960	80.007	19.994	103.250	20.008	4.508	0.527
741.500	451.162	80.007	19.994	103.250	20.008	4.496	0.492
742.000	451.432	80.007	19.994	103.252	20.009	4.466	0.464
742.500	451.700	80.007	19.995	103.253	20.012	4.216	0.505
743.000	451.931	80.006	19.994	103.252	20.014	4.090	0.519
743.500	452.226	80.007	19.993	103.252	20.015	4.040	0.513
744.000	452.445	80.007	19.994	103.252	20.014	4.101	0.520
744.500	452.679	80.008	19.994	103.250	20.017	3.919	0.484
745.000	452.965	80.007	19.994	103.251	20.013	4.187	0.487
745.500	453.230	80.007	19.994	103.251	20.014	4.115	0.535
746.000	453.475	80.007	19.994	103.253	20.014	4.141	0.530
746.500	453.740	80.007	19.996	103.253	20.015	4.042	0.510
747.000	454.007	80.007	19.995	103.254	20.015	4.029	0.521
747.500	454.244	80.007	19.995	103.254	20.014	4.112	0.518
748.000	454.493	80.006	19.994	103.253	20.013	4.189	0.495
748.500	454.774	80.006	19.994	103.253	20.014	4.114	0.508
749.000	454.976	80.006	19.995	103.253	20.013	4.169	0.506
749.500	455.269	80.006	19.994	103.251	20.010	4.408	0.489
750.000	455.523	80.006	19.994	103.251	20.013	4.176	0.521
750.500	455.753	80.006	19.995	103.251	20.011	4.308	0.515
751.000	456.026	80.007	19.994	103.251	20.016	3.953	0.493
751.500	456.257	80.007	19.994	103.252	20.016	3.983	0.504
752.000	456.517	80.006	19.994	103.255	20.018	3.878	0.498
752.500	456.754	80.005	19.994	103.255	20.013	4.154	0.494
753.000	457.003	80.007	19.995	103.255	20.016	3.983	0.491
753.500	457.247	80.008	19.993	103.256	20.018	3.834	0.489
754.000	457.516	80.007	19.995	103.256	20.020	3.731	0.503
754.500	457.781	80.005	19.993	103.255	20.017	3.880	0.523
755.000	458.013	80.005	19.994	103.256	20.018	3.860	0.516
755.500	458.265	80.007	19.994	103.255	20.020	3.739	0.491
756.000	458.514	80.006	19.995	103.255	20.022	3.551	0.492
756.500	458.813	80.006	19.994	103.254	20.018	3.840	0.525
757.000	459.066	80.006	19.994	103.253	20.020	3.680	0.550
757.500	459.320	80.007	19.995	103.252	20.016	4.003	0.530
758.000	459.576	80.006	19.995	103.252	20.019	3.770	0.508
758.500	459.840	80.007	19.994	103.252	20.019	3.788	0.515
759.000	460.054	80.005	19.994	103.254	20.020	3.680	0.499
759.500	460.307	80.006	19.995	103.257	20.021	3.658	0.473
760.000	460.570	80.007	19.995	103.258	20.020	3.737	0.491
760.500	460.863	80.007	19.995	103.257	20.019	3.762	0.536
761.000	461.062	80.007	19.995	103.257	20.021	3.621	0.524
761.500	461.343	80.007	19.996	103.254	20.019	3.749	0.486
762.000	461.603	80.008	19.996	103.250	20.023	3.529	0.510
762.500	461.823	80.008	19.995	103.250	20.025	3.382	0.511
763.000	462.090	80.007	19.994	103.251	20.025	3.354	0.484
763.500	462.350	80.007	19.996	103.251	20.023	3.500	0.507
764.000	462.592	80.006	19.994	103.250	20.021	3.619	0.514
764.500	462.818	80.008	19.994	103.251	20.023	3.535	0.485
765.000	463.108	80.008	19.994	103.251	20.026	3.340	0.492
765.500	463.378	80.009	19.994	103.250	20.021	3.637	0.538
766.000	463.626	80.009	19.996	103.250	20.025	3.397	0.539
766.500	463.833	80.010	19.995	103.250	20.026	3.299	0.486
767.000	464.152	80.010	19.994	103.251	20.025	3.360	0.490
767.500	464.358	80.009	19.993	103.251	20.024	3.445	0.526
768.000	464.604	80.009	19.995	103.251	20.026	3.307	0.489
768.500	464.886	80.008	19.994	103.252	20.028	3.191	0.490
769.000	465.145	80.010	19.993	103.252	20.024	3.417	0.534
769.500	465.387	80.009	19.993	103.250	20.026	3.305	0.521
770.000	465.633	80.010	19.994	103.249	20.031	2.947	0.495
770.500	465.898	80.008	19.994	103.249	20.029	3.118	0.500
771.000	466.147	80.010	19.994	103.248	20.027	3.220	0.512
771.500	466.420	80.010	19.994	103.248	20.027	3.257	0.518
772.000	466.638	80.009	19.995	103.248	20.029	3.094	0.507
772.500	466.888	80.008	19.994	103.248	20.024	3.470	0.479
773.000	467.128	80.007	19.994	103.247	20.026	3.301	0.479
773.500	467.409	80.009	19.994	103.247	20.026	3.285	0.506
774.000	467.645	80.008	19.994	103.247	20.027	3.242	0.519
774.500	467.869	80.008	19.995	103.248	20.027	3.228	0.488
775.000	468.163	80.007	19.993	103.249	20.028	3.149	0.489
775.500	468.440	80.007	19.994	103.250	20.028	3.208	0.545
776.000	468.660	80.007	19.994	103.250	20.030	3.029	0.535
776.500	468.923	80.007	19.993	103.249	20.029	3.132	0.490
777.000	469.180	80.008	19.994	103.249	20.028	3.154	0.501
777.500	469.439	80.008	19.993	103.249	20.027	3.254	0.518
778.000	469.686	80.008	19.995	103.248	20.030	3.072	0.512
778.500	469.990	80.007	19.994	103.249	20.025	3.375	0.529
779.000	470.216	80.006	19.994	103.249	20.031	2.989	0.540
779.500	470.466	80.008	19.995	103.249	20.027	3.232	0.503
780.000	470.730	80.008	19.995	103.249	20.026	3.340	0.495
780.500	470.998	80.007	19.996	103.249	20.026	3.287	0.523
781.000	471.239	80.008	19.996	103.249	20.027	3.257	0.521
781.500	471.502	80.008	19.996	103.250	20.026	3.283	0.507
782.000	471.722	80.008	19.995	103.248	20.027	3.226	0.493
782.500	471.974	80.008	19.995	103.248	20.026	3.307	0.477
783.000	472.240	80.008	19.995	103.247	20.028	3.187	0.495
783.500	472.504	80.008	19.995	103.246	20.031	2.945	0.525
784.000	472.759	80.007	19.996	103.246	20.029	3.084	0.524
784.500	473.045	80.008	19.995	103.247	20.028	3.162	0.530
785.000	473.239	80.008	19.995	103.247	20.028	3.195	0.511
785.500	473.517	80.008	19.994	103.248	20.028	3.152	0.476
786.000	473.788	80.009	19.996	103.248	20.028	3.189	0.511
786.500	474.051	80.007	19.995	103.248	20.028	3.165	0.541
787.000	474.305	80.008	19.995	103.249	20.029	3.114	0.525
787.500	474.587	80.009	19.996	103.250	20.030	3.057	0.527
788.000	474.848	80.009	19.995	103.250	20.032	2.925	0.540
788.500	475.106	80.008	19.994	103.250	20.029	3.136	0.531
789.000	475.317	80.009	19.994	103.250	20.031	2.989	0.494
789.500	475.601	80.010	19.996	103.251	20.030	3.061	0.482
790.000	475.863	80.010	19.996	103.252	20.030	3.011	0.521
790.500	476.141	80.010	19.995	103.252	20.030	3.059	0.543
791.000	476.385	80.008	19.994	103.252	20.030	3.009	0.531
791.500	476.630	80.009	19.995	103.251	20.032	2.877	0.505
792.000	476.889	80.012	19.994	103.249	20.033	2.842	0.496
792.500	477.159	80.009	19.995	103.248	20.034	2.783	0.516
793.000	477.412	80.010	19.995	103.248	20.034	2.752	0.526
793.500	477.640	80.010	19.995	103.248	20.034	2.767	0.502
794.000	477.911	80.010	19.995	103.248	20.034	2.759	0.490
794.500	478.191	80.008	19.995	103.248	20.028	3.156	0.524
795.000	478.408	80.011	19.994	103.248	20.033	2.873	0.524
795.500	478.691	80.010	19.994	103.248	20.030	3.057	0.499
796.000	478.976	80.008	19.993	103.249	20.030	3.051	0.534
796.500	479.215	80.010	19.994	103.249	20.029	3.077	0.547
797.000	479.514	80.009	19.993	103.248	20.033	2.849	0.531
797.500	479.735	80.009	19.995	103.248	20.031	2.976	0.529
798.000	480.025	80.010	19.994	103.248	20.030	3.033	0.515
798.500	480.261	80.009	19.995	103.248	20.032	2.912	0.518
799.000	480.482	80.008	19.995	103.249	20.032	2.923	0.492
799.500	480.789	80.009	19.995	103.249	20.036	2.616	0.493
800.000	481.068	80.008	19.995	103.250	20.033	2.824	0.557
800.500	481.303	80.009	19.994	103.250	20.035	2.693	0.550
801.000	481.571	80.006	19.995	103.248	20.037	2.594	0.508
801.500	481.842	80.008	19.995	103.245	20.035	2.697	0.520
802.000	482.058	80.008	19.994	103.244	20.035	2.682	0.513
802.500	482.320	80.008	19.995	103.245	20.033	2.835	0.483
803.000	482.594	80.009	19.994	103.246	20.036	2.616	0.507
803.500	482.848	80.008	19.995	103.247	20.034	2.778	0.532
804.000	483.115	80.007	19.994	103.254	20.034	2.752	0.525
804.500	483.424	80.008	19.995	103.256	20.033	2.866	0.549
805.000	483.644	80.008	19.995	103.255	20.037	2.598	0.553
805.500	483.934	80.008	19.994	103.255	20.035	2.701	0.519
806.000	484.177	80.008	19.993	103.255	20.036	2.620	0.521
806.500	484.424	80.007	19.996	103.252	20.035	2.726	0.512
807.000	484.726	80.009	19.995	103.251	20.035	2.734	0.520
807.500	484.950	80.006	19.995	103.251	20.037	2.607	0.537
808.000	485.212	80.007	19.994	103.250	20.036	2.653	0.506
808.500	485.462	80.008	19.995	103.250	20.035	2.734	0.499
809.000	485.733	80.007	19.994	103.251	20.033	2.822	0.516
809.500	486.003	80.007	19.995	103.250	20.035	2.682	0.531
810.000	486.246	80.007	19.995	103.250	20.035	2.682	0.527
810.500	486.484	80.007	19.996	103.250	20.031	2.969	0.497
811.000	486.770	80.007	19.996	103.251	20.034	2.759	0.503
811.500	486.977	80.008	19.995	103.250	20.035	2.733	0.509
812.000	487.306	80.007	19.995	103.250	20.037	2.607	0.514
812.500	487.524	80.007	19.995	103.250	20.035	2.706	0.541
813.000	487.797	80.006	19.995	103.250	20.035	2.713	0.519
813.500	488.078	80.006	19.995	103.251	20.033	2.866	0.523
814.000	488.303	80.006	19.995	103.250	20.039	2.410	0.530
814.500	488.601	80.006	19.995	103.250	20.034	2.765	0.515
815.000	488.850	80.005	19.995	103.251	20.036	2.662	0.535
815.500	489.090	80.006	19.995	103.251	20.037	2.564	0.518
816.000	489.393	80.006	19.995	103.250	20.033	2.869	0.516
816.500	489.631	80.006	19.996	103.249	20.035	2.710	0.542
817.000	489.899	80.006	19.996	103.249	20.038	2.526	0.523
817.500	490.139	80.006	19.995	103.249	20.036	2.647	0.507
818.000	490.393	80.007	19.995	103.249	20.038	2.485	0.501
818.500	490.654	80.005	19.996	103.249	20.035	2.741	0.505
819.000	490.937	80.007	19.996	103.251	20.035	2.724	0.530
819.500	491.198	80.006	19.995	103.251	20.037	2.607	0.544
820.000	491.467	80.007	19.997	103.248	20.037	2.563	0.537
820.500	491.684	80.006	19.996	103.247	20.034	2.750	0.508
821.000	491.950	80.005	19.995	103.247	20.041	2.324	0.484
821.500	492.207	80.007	19.995	103.245	20.035	2.704	0.503
822.000	492.439	80.007	19.996	103.244	20.035	2.723	0.506
822.500	492.735	80.007	19.997	103.244	20.040	2.394	0.509
823.000	492.961	80.006	19.998	103.244	20.042	2.252	0.525
823.500	493.250	80.009	19.995	103.241	20.038	2.508	0.518
824.000	493.500	80.007	19.995	103.241	20.036	2.618	0.526
824.500	493.755	80.005	19.995	103.236	20.033	2.857	0.522
825.000	493.993	80.007	19.995	103.237	20.037	2.588	0.499
825.500	494.242	80.007	19.995	103.238	20.037	2.590	0.490
826.000	494.554	80.007	19.996	103.239	20.037	2.594	0.524
826.500	494.781	80.007	19.996	103.240	20.033	2.812	0.549
827.000	495.067	80.008	19.995	103.244	20.036	2.614	0.526
827.500	495.330	80.007	19.996	103.245	20.039	2.428	0.531
828.000	495.574	80.008	19.995	103.245	20.036	2.629	0.528
828.500	495.828	80.007	19.996	103.245	20.034	2.785	0.502
829.000	496.087	80.006	19.995	103.245	20.038	2.508	0.506
829.500	496.330	80.007	19.995	103.246	20.038	2.502	0.508
830.000	496.620	80.008	19.995	103.246	20.037	2.546	0.518
830.500	496.889	80.007	19.996	103.245	20.038	2.484	0.546
831.000	497.154	80.007	19.995	103.246	20.040	2.399	0.546
831.500	497.408	80.008	19.995	103.245	20.039	2.440	0.527
832.000	497.657	80.006	19.995	103.245	20.040	2.355	0.511
832.500	497.915	80.006	19.995	103.246	20.043	2.175	0.504
833.000	498.167	80.007	19.994	103.248	20.041	2.331	0.508
833.500	498.449	80.007	19.995	103.248	20.041	2.280	0.522
834.000	498.679	80.007	19.994	103.248	20.044	2.083	0.523
834.500	498.959	80.008	19.994	103.248	20.042	2.216	0.511
835.000	499.209	80.007	19.995	103.248	20.039	2.416	0.520
835.500	499.484	80.006	19.994	103.248	20.043	2.170	0.527
836.000	499.758	80.007	19.994	103.242	20.045	2.013	0.537
836.500	500.015	80.007	19.995	103.235	20.041	2.318	0.541
837.000	500.304	80.006	19.995	103.233	20.043	2.168	0.539
837.500	500.570	80.008	19.996	103.232	20.042	2.248	0.550
838.000	500.835	80.008	19.995	103.233	20.043	2.202	0.543
838.500	501.070	80.006	19.994	103.239	20.044	2.123	0.515
839.000	501.323	80.007	19.995	103.246	20.044	2.112	0.494
839.500	501.611	80.007	19.994	103.247	20.045	2.061	0.515
840.000	501.894	80.007	19.995	103.249	20.044	2.111	0.556
840.500	502.167	80.007	19.995	103.245	20.044	2.087	0.563
841.000	502.453	80.007	19.995	103.244	20.047	1.909	0.558
841.500	502.628	80.007	19.994	103.243	20.045	2.024	0.510
842.000	502.949	80.006	19.995	103.243	20.044	2.078	0.478
842.500	503.205	80.007	19.994	103.244	20.049	1.754	0.536
843.000	503.471	80.007	19.996	103.242	20.047	1.881	0.550
843.500	503.741	80.007	19.995	103.243	20.048	1.848	0.529
844.000	504.018	80.009	19.995	103.243	20.046	1.947	0.541
844.500	504.275	80.008	19.995	103.242	20.044	2.105	0.541
845.000	504.556	80.008	19.995	103.243	20.042	2.243	0.537
845.500	504.847	80.009	19.996	103.248	20.043	2.199	0.555
846.000	505.065	80.008	19.996	103.248	20.046	1.942	0.540
846.500	505.367	80.009	19.994	103.248	20.044	2.133	0.514
847.000	505.613	80.009	19.995	103.248	20.046	1.965	0.534
847.500	505.893	80.008	19.994	103.248	20.046	1.969	0.537
848.000	506.145	80.010	19.994	103.244	20.044	2.103	0.529
848.500	506.440	80.009	19.995	103.238	20.044	2.103	0.540
849.000	506.686	80.009	19.994	103.236	20.047	1.875	0.544
849.500	506.951	80.009	19.994	103.237	20.044	2.089	0.526
850.000	507.195	80.010	19.994	103.236	20.045	2.041	0.510
850.500	507.513	80.009	19.994	103.239	20.042	2.212	0.535
851.000	507.755	80.010	19.995	103.244	20.044	2.131	0.561
851.500	508.034	80.010	19.994	103.245	20.044	2.107	0.541
852.000	508.308	80.008	19.994	103.244	20.044	2.098	0.536
852.500	508.568	80.009	19.994	103.241	20.045	2.039	0.543
853.000	508.841	80.009	19.995	103.239	20.046	1.947	0.534
853.500	509.093	80.008	19.995	103.237	20.045	2.017	0.529
854.000	509.400	80.009	19.994	103.237	20.043	2.155	0.542
854.500	509.597	80.010	19.994	103.238	20.043	2.146	0.532
855.000	509.904	80.009	19.995	103.243	20.048	1.830	0.504
855.500	510.172	80.009	19.994	103.243	20.047	1.903	0.539
856.000	510.451	80.009	19.995	103.242	20.043	2.175	0.561
856.500	510.712	80.008	19.994	103.242	20.044	2.109	0.544
857.000	510.957	80.009	19.995	103.241	20.042	2.230	0.523
857.500	511.207	80.009	19.995	103.239	20.045	2.024	0.500
858.000	511.490	80.009	19.994	103.236	20.044	2.131	0.514
858.500	511.760	80.009	19.995	103.237	20.043	2.173	0.543
859.000	512.009	80.009	19.994	103.234	20.043	2.160	0.536
859.500	512.257	80.007	19.995	103.234	20.041	2.313	0.508
860.000	512.537	80.007	19.995	103.237	20.046	1.960	0.512
860.500	512.817	80.008	19.995	103.240	20.045	2.052	0.544
861.000	513.078	80.008	19.995	103.242	20.044	2.121	0.551
861.500	513.359	80.008	19.994	103.243	20.042	2.245	0.541
862.000	513.615	80.007	19.995	103.244	20.050	1.727	0.539
862.500	513.879	80.008	19.995	103.242	20.050	1.712	0.528
863.000	514.137	80.009	19.994	103.243	20.048	1.804	0.521
863.500	514.408	80.007	19.995	103.243	20.048	1.831	0.526
864.000	514.702	80.008	19.994	103.242	20.047	1.886	0.547
864.500	514.946	80.008	19.994	103.240	20.049	1.794	0.552
865.000	515.215	80.009	19.994	103.241	20.048	1.842	0.525
865.500	515.489	80.009	19.994	103.242	20.048	1.864	0.528
866.000	515.763	80.006	19.993	103.242	20.047	1.927	0.546
866.500	516.017	80.009	19.995	103.243	20.046	1.962	0.538
867.000	516.299	80.008	19.994	103.245	20.049	1.778	0.532
867.500	516.549	80.009	19.995	103.246	20.047	1.925	0.534
868.000	516.824	80.008	19.995	103.243	20.050	1.721	0.528
868.500	517.089	80.009	19.995	103.242	20.049	1.760	0.532
869.000	517.348	80.010	19.994	103.245	20.049	1.741	0.532
869.500	517.641	80.009	19.994	103.244	20.048	1.842	0.538
870.000	517.887	80.010	19.994	103.240	20.045	2.007	0.546
870.500	518.115	80.010	19.993	103.237	20.050	1.728	0.507
871.000	518.426	80.009	19.994	103.235	20.049	1.780	0.507
871.500	518.689	80.010	19.993	103.232	20.050	1.719	0.556
872.000	518.963	80.010	19.994	103.232	20.050	1.712	0.555
872.500	519.232	80.009	19.995	103.232	20.048	1.807	0.540
873.000	519.493	80.010	19.993	103.233	20.045	2.026	0.536
873.500	519.759	80.010	19.993	103.235	20.048	1.863	0.528
874.000	520.018	80.008	19.993	103.233	20.047	1.879	0.526
874.500	520.293	80.011	19.994	103.227	20.043	2.190	0.530
875.000	520.540	80.010	19.994	103.225	20.045	2.006	0.528
875.500	520.820	80.009	19.994	103.224	20.045	2.052	0.525
876.000	521.030	80.010	19.994	103.221	20.046	1.980	0.508
876.500	521.346	80.009	19.993	103.225	20.047	1.903	0.508
877.000	521.606	80.009	19.994	103.228	20.045	2.009	0.551
877.500	521.860	80.009	19.994	103.230	20.047	1.914	0.545
878.000	522.111	80.009	19.993	103.227	20.048	1.835	0.509
878.500	522.383	80.009	19.993	103.228	20.046	1.969	0.514
879.000	522.652	80.009	19.993	103.226	20.046	1.998	0.532
879.500	522.931	80.008	19.994	103.224	20.049	1.758	0.545
880.000	523.207	80.009	19.994	103.223	20.044	2.081	0.551
880.500	523.430	80.009	19.994	103.222	20.049	1.802	0.527
881.000	523.707	80.007	19.994	103.219	20.047	1.875	0.500
881.500	523.948	80.009	19.994	103.215	20.045	2.007	0.509
882.000	524.243	80.008	19.994	103.215	20.047	1.894	0.526
882.500	524.495	80.007	19.995	103.215	20.051	1.642	0.541
883.000	524.749	80.008	19.995	103.217	20.051	1.635	0.526
883.500	525.019	80.008	19.994	103.222	20.048	1.870	0.515
884.000	525.313	80.006	19.995	103.229	20.049	1.778	0.544
884.500	525.558	80.007	19.996	103.235	20.047	1.901	0.552
885.000	525.825	80.005	19.995	103.237	20.048	1.855	0.526
885.500	526.070	80.005	19.994	103.236	20.047	1.883	0.512
886.000	526.320	80.007	19.996	103.231	20.046	1.938	0.503
886.500	526.552	80.006	19.994	103.223	20.047	1.914	0.489
887.000	526.825	80.006	19.996	103.216	20.048	1.807	0.493
887.500	527.095	80.005	19.994	103.216	20.050	1.699	0.524
888.000	527.335	80.006	19.996	103.218	20.046	1.941	0.526
888.500	527.615	80.006	19.995	103.220	20.050	1.728	0.515
889.000	527.862	80.006	19.996	103.225	20.045	2.053	0.524
889.500	528.143	80.008	19.996	103.229	20.051	1.649	0.528
890.000	528.378	80.007	19.996	103.230	20.050	1.682	0.522
890.500	528.668	80.007	19.995	103.229	20.047	1.916	0.520
891.000	528.930	80.005	19.996	103.226	20.046	1.976	0.538
891.500	529.213	80.007	19.994	103.222	20.048	1.840	0.548
892.000	529.475	80.007	19.996	103.218	20.046	1.967	0.545
892.500	529.711	80.006	19.995	103.217	20.049	1.765	0.522
893.000	529.987	80.006	19.995	103.221	20.049	1.760	0.505
893.500	530.242	80.006	19.994	103.223	20.053	1.534	0.521
894.000	530.504	80.006	19.994	103.224	20.050	1.677	0.524
894.500	530.758	80.006	19.995	103.224	20.050	1.701	0.517
895.000	531.001	80.006	19.995	103.220	20.050	1.705	0.506
895.500	531.287	80.006	19.995	103.216	20.050	1.671	0.513
896.000	531.522	80.007	19.994	103.217	20.048	1.851	0.525
896.500	531.798	80.005	19.995	103.221	20.049	1.791	0.516
897.000	532.067	80.008	19.995	103.223	20.050	1.697	0.527
897.501	532.328	80.007	19.995	103.227	20.047	1.892	0.537
898.000	532.618	80.008	19.995	103.227	20.046	1.987	0.541
898.500	532.824	80.007	19.995	103.225	20.050	1.714	0.524
899.000	533.110	80.008	19.994	103.221	20.055	1.385	0.494
899.500	533.354	80.006	19.994	103.225	20.052	1.545	0.511
900.000	533.570	80.006	19.994	103.224	20.050	1.717	0.495
900.500	533.852	80.007	19.996	103.228	20.052	1.550	0.479
901.000	534.146	80.006	19.995	103.230	20.056	1.315	0.537
901.500	534.377	80.007	19.995	103.229	20.054	1.456	0.551
902.000	534.658	80.007	19.995	103.226	20.056	1.313	0.518
902.500	534.920	80.006	19.995	103.228	20.053	1.471	0.528
903.000	535.176	80.007	19.995	103.224	20.055	1.366	0.531
903.500	535.425	80.007	19.994	103.226	20.054	1.438	0.511
904.000	535.716	80.006	19.996	103.230	20.053	1.506	0.522
904.500	535.941	80.008	19.995	103.229	20.051	1.618	0.528
905.000	536.180	80.007	19.996	103.228	20.053	1.473	0.490
905.500	536.445	80.005	19.995	103.236	20.050	1.671	0.484
906.000	536.664	80.007	19.995	103.237	20.054	1.409	0.494
906.500	536.967	80.006	19.995	103.232	20.055	1.355	0.503
907.000	537.205	80.007	19.995	103.231	20.053	1.523	0.531
907.500	537.465	80.006	19.995	103.230	20.051	1.666	0.519
908.000	537.775	80.007	19.996	103.225	20.051	1.640	0.534
908.500	538.025	80.007	19.995	103.221	20.053	1.506	0.565
909.000	538.259	80.007	19.995	103.222	20.053	1.471	0.522
909.500	538.524	80.006	19.995	103.224	20.053	1.471	0.492
910.000	538.783	80.007	19.995	103.224	20.053	1.491	0.512
910.500	539.044	80.006	19.996	103.223	20.053	1.532	0.522
911.000	539.256	80.006	19.996	103.221	20.051	1.616	0.497
911.500	539.574	80.006	19.998	103.219	20.050	1.670	0.501
912.000	539.837	80.007	19.996	103.216	20.052	1.583	0.555
912.500	540.071	80.006	19.996	103.211	20.054	1.453	0.538
913.000	540.302	80.006	19.995	103.211	20.055	1.365	0.481
913.500	540.577	80.006	19.996	103.212	20.046	1.956	0.486
914.000	540.847	80.007	19.996	103.218	20.051	1.646	0.526
914.500	541.087	80.006	19.995	103.220	20.050	1.686	0.528
915.000	541.346	80.006	19.996	103.222	20.056	1.312	0.505
915.500	541.618	80.007	19.997	103.221	20.050	1.706	0.514
916.000	541.879	80.006	19.995	103.220	20.056	1.322	0.532
916.500	542.123	80.006	19.996	103.216	20.056	1.306	0.519
917.000	542.416	80.006	19.996	103.217	20.055	1.389	0.521
917.500	542.657	80.005	19.995	103.223	20.056	1.315	0.535
918.000	542.891	80.006	19.996	103.225	20.052	1.539	0.504
918.500	543.143	80.006	19.996	103.224	20.055	1.337	0.481
919.000	543.356	80.006	19.995	103.225	20.054	1.416	0.476
919.500	543.681	80.007	19.996	103.227	20.055	1.398	0.501
920.000	543.899	80.005	19.996	103.225	20.049	1.778	0.540
920.500	544.147	80.007	19.995	103.226	20.052	1.539	0.504
921.000	544.397	80.006	19.996	103.230	20.051	1.644	0.482
921.500	544.649	80.007	19.996	103.229	20.053	1.515	0.500
922.000	544.908	80.007	19.995	103.227	20.050	1.728	0.507
922.500	545.170	80.006	19.996	103.227	20.052	1.574	0.516
923.000	545.385	80.007	19.996	103.230	20.052	1.591	0.499
923.500	545.657	80.006	19.996	103.235	20.053	1.497	0.482
924.000	545.916	80.006	19.996	103.241	20.050	1.728	0.509
924.500	546.210	80.007	19.994	103.244	20.052	1.598	0.542
925.000	546.452	80.008	19.996	103.244	20.053	1.499	0.545
925.500	546.670	80.007	19.995	103.241	20.053	1.521	0.498
926.000	546.927	80.007	19.993	103.235	20.052	1.548	0.468
926.500	547.217	80.008	19.995	103.228	20.050	1.701	0.511
927.000	547.429	80.008	19.995	103.224	20.057	1.251	0.524
927.500	547.724	80.007	19.994	103.228	20.053	1.480	0.504
928.000	547.994	80.007	19.996	103.232	20.053	1.470	0.536
928.500	548.190	80.007	19.993	103.235	20.053	1.504	0.516
929.000	548.483	80.007	19.994	103.237	20.052	1.585	0.477
929.500	548.726	80.008	19.994	103.234	20.053	1.484	0.513
930.000	549.005	80.009	19.994	103.233	20.056	1.302	0.529
930.500	549.268	80.009	19.994	103.231	20.052	1.582	0.532
931.000	549.492	80.007	19.994	103.230	20.055	1.337	0.514
931.500	549.783	80.008	19.995	103.235	20.052	1.565	0.501
932.000	550.011	80.009	19.994	103.242	20.056	1.291	0.517
932.500	550.227	80.008	19.995	103.240	20.053	1.510	0.482
933.000	550.485	80.007	19.995	103.235	20.054	1.403	0.460
933.500	550.764	80.008	19.994	103.232	20.053	1.515	0.506
934.000	551.024	80.008	19.994	103.229	20.056	1.280	0.538
934.500	551.302	80.008	19.994	103.223	20.053	1.482	0.538
935.000	551.488	80.008	19.994	103.219	20.050	1.725	0.500
935.500	551.774	80.007	19.994	103.221	20.050	1.694	0.467
936.000	552.048	80.009	19.995	103.224	20.054	1.464	0.516
936.500	552.269	80.007	19.994	103.223	20.051	1.640	0.528
937.000	552.517	80.008	19.994	103.226	20.050	1.684	0.483
937.500	552.743	80.010	19.995	103.228	20.053	1.508	0.471
938.000	553.017	80.008	19.994	103.229	20.051	1.666	0.486
938.500	553.277	80.009	19.994	103.233	20.051	1.624	0.517
939.000	553.528	80.008	19.995	103.238	20.049	1.759	0.523
939.500	553.801	80.008	19.995	103.241	20.053	1.510	0.518
940.000	554.063	80.009	19.995	103.245	20.051	1.636	0.530
940.500	554.306	80.009	19.994	103.249	20.053	1.524	0.520
941.000	554.578	80.007	19.994	103.245	20.055	1.359	0.509
941.500	554.850	80.007	19.995	103.237	20.056	1.293	0.530
942.000	555.074	80.008	19.994	103.231	20.056	1.311	0.521
942.500	555.314	80.007	19.993	103.226	20.052	1.587	0.480
943.000	555.615	80.007	19.994	103.226	20.054	1.403	0.502
943.500	555.854	80.008	19.995	103.230	20.055	1.387	0.540
944.000	556.110	80.009	19.995	103.235	20.055	1.401	0.517
944.500	556.327	80.008	19.993	103.241	20.055	1.383	0.484
945.000	556.572	80.007	19.994	103.244	20.054	1.425	0.468
945.500	556.828	80.008	19.994	103.247	20.050	1.670	0.482
946.000	557.094	80.007	19.994	103.241	20.053	1.484	0.512
946.500	557.340	80.008	19.994	103.236	20.055	1.357	0.517
947.000	557.610	80.007	19.994	103.228	20.054	1.438	0.514
947.500	557.862	80.007	19.994	103.224	20.052	1.548	0.518
948.000	558.092	80.008	19.994	103.216	20.054	1.464	0.502
948.500	558.361	80.007	19.994	103.217	20.052	1.537	0.491
949.000	558.583	80.007	19.995	103.218	20.057	1.249	0.496
949.500	558.837	80.009	19.994	103.218	20.052	1.568	0.484
950.000	559.108	80.007	19.995	103.217	20.050	1.669	0.500
950.500	559.359	80.008	19.994	103.217	20.053	1.534	0.523
951.000	559.601	80.008	19.995	103.218	20.052	1.598	0.508
951.500	559.846	80.008	19.994	103.219	20.053	1.519	0.490
952.000	560.102	80.009	19.995	103.220	20.053	1.515	0.494
952.500	560.359	80.008	19.994	103.220	20.052	1.550	0.507
953.000	560.591	80.009	19.994	103.219	20.053	1.477	0.501
953.500	560.878	80.011	19.995	103.218	20.056	1.311	0.504
954.000	561.134	80.009	19.994	103.217	20.056	1.330	0.531
954.500	561.396	80.009	19.995	103.220	20.053	1.526	0.530
955.000	561.645	80.010	19.995	103.225	20.055	1.377	0.515
955.500	561.870	80.012	19.994	103.226	20.056	1.269	0.493
956.000	562.124	80.010	19.995	103.225	20.055	1.350	0.477
956.500	562.426	80.010	19.994	103.227	20.054	1.427	0.518
957.000	562.632	80.012	19.995	103.227	20.055	1.372	0.532
957.500	562.905	80.011	19.994	103.229	20.055	1.385	0.493
958.000	563.183	80.010	19.994	103.233	20.057	1.218	0.516
958.500	563.409	80.011	19.994	103.234	20.056	1.284	0.527
959.000	563.638	80.011	19.995	103.231	20.056	1.287	0.479
959.500	563.897	80.011	19.994	103.229	20.052	1.543	0.472
960.000	564.135	80.010	19.994	103.222	20.058	1.135	0.492
960.500	564.378	80.010	19.994	103.217	20.058	1.150	0.489
961.000	564.620	80.010	19.994	103.218	20.059	1.100	0.484
961.500	564.874	80.010	19.994	103.220	20.055	1.339	0.491
962.000	565.104	80.009	19.994	103.220	20.059	1.084	0.489
962.500	565.337	80.010	19.994	103.220	20.057	1.236	0.473
963.000	565.569	80.010	19.994	103.222	20.058	1.190	0.465
963.500	565.859	80.009	19.993	103.223	20.057	1.210	0.494
964.000	566.114	80.009	19.994	103.223	20.056	1.293	0.533
964.500	566.333	80.009	19.994	103.223	20.060	1.047	0.509
965.000	566.587	80.009	19.995	103.223	20.057	1.232	0.473
965.500	566.859	80.008	19.993	103.220	20.056	1.332	0.500
966.000	567.108	80.008	19.994	103.217	20.059	1.128	0.524
966.500	567.392	80.008	19.994	103.216	20.058	1.179	0.527
967.000	567.606	80.008	19.994	103.219	20.058	1.192	0.515
967.500	567.896	80.007	19.994	103.218	20.058	1.155	0.501
968.000	568.134	80.008	19.995	103.221	20.059	1.111	0.516
968.500	568.419	80.008	19.994	103.223	20.059	1.128	0.525
969.000	568.659	80.008	19.994	103.224	20.056	1.297	0.524
969.500	568.885	80.008	19.995	103.219	20.056	1.275	0.496
970.000	569.173	80.009	19.995	103.220	20.060	1.010	0.490
970.500	569.388	80.008	19.994	103.221	20.059	1.093	0.509
971.000	569.653	80.007	19.995	103.220	20.055	1.343	0.492
971.500	569.912	80.007	19.994	103.219	20.059	1.100	0.502
972.000	570.133	80.007	19.995	103.219	20.059	1.098	0.501
972.500	570.407	80.008	19.996	103.222	20.060	1.012	0.487
973.000	570.681	80.008	19.995	103.221	20.061	0.977	0.521
973.500	570.940	80.007	19.995	103.223	20.060	1.025	0.540
974.000	571.168	80.008	19.995	103.226	20.060	1.012	0.510
974.500	571.438	80.008	19.995	103.230	20.059	1.073	0.493
975.000	571.702	80.007	19.995	103.229	20.061	0.935	0.516
975.500	571.960	80.008	19.995	103.230	20.061	0.953	0.528
976.000	572.225	80.008	19.994	103.227	20.060	1.021	0.523
976.500	572.477	80.008	19.995	103.226	20.058	1.177	0.520
977.000	572.736	80.008	19.995	103.226	20.058	1.196	0.514
977.500	572.991	80.008	19.995	103.225	20.060	1.030	0.513
978.000	573.252	80.007	19.995	103.225	20.060	1.032	0.515
978.500	573.503	80.006	19.995	103.229	20.060	1.012	0.514
979.000	573.738	80.007	19.994	103.229	20.063	0.849	0.499
979.500	574.009	80.007	19.995	103.226	20.060	1.060	0.496
980.000	574.225	80.007	19.996	103.222	20.058	1.135	0.496
980.500	574.550	80.007	19.996	103.224	20.057	1.203	0.513
981.000	574.779	80.007	19.996	103.221	20.058	1.135	0.547
981.500	575.066	80.007	19.995	103.218	20.059	1.122	0.535
982.000	575.317	80.007	19.996	103.223	20.060	1.007	0.527
982.500	575.534	80.007	19.995	103.231	20.058	1.170	0.503
983.000	575.809	80.007	19.995	103.234	20.057	1.238	0.480
983.500	576.057	80.007	19.995	103.238	20.057	1.212	0.507
984.000	576.315	80.007	19.996	103.240	20.058	1.135	0.514
984.500	576.553	80.008	19.996	103.234	20.059	1.119	0.501
985.000	576.824	80.006	19.996	103.226	20.058	1.199	0.503
985.500	577.122	80.008	19.995	103.220	20.058	1.186	0.539
986.000	577.352	80.006	19.994	103.214	20.059	1.085	0.548
986.500	577.577	80.008	19.996	103.211	20.061	0.938	0.491
987.000	577.837	80.007	19.997	103.211	20.059	1.084	0.470
987.500	578.106	80.008	19.997	103.217	20.056	1.286	0.507
988.000	578.374	80.007	19.996	103.223	20.059	1.073	0.533
988.500	578.624	80.008	19.996	103.228	20.060	1.023	0.527
989.000	578.924	80.008	19.995	103.230	20.058	1.179	0.534
989.500	579.131	80.006	19.995	103.230	20.060	1.028	0.528
990.000	579.381	80.007	19.995	103.226	20.060	1.014	0.482
990.500	579.636	80.006	19.996	103.226	20.058	1.142	0.481
991.000	579.886	80.008	19.994	103.227	20.057	1.236	0.505
991.500	580.188	80.007	19.995	103.233	20.060	1.058	0.528
992.000	580.445	80.006	19.995	103.237	20.060	1.027	0.555
992.500	580.717	80.007	19.994	103.241	20.061	0.942	0.544
993.000	580.974	80.007	19.995	103.242	20.060	1.052	0.529
993.500	581.234	80.006	19.995	103.243	20.063	0.854	0.523
994.000	581.492	80.006	19.995	103.243	20.057	1.266	0.517
994.500	581.734	80.006	19.994	103.241	20.060	1.047	0.509
995.000	581.992	80.006	19.995	103.238	20.060	1.040	0.500
995.500	582.232	80.006	19.995	103.231	20.062	0.889	0.499
996.000	582.546	80.007	19.994	103.226	20.059	1.120	0.526
996.500	582.803	80.007	19.994	103.219	20.056	1.289	0.562
997.000	583.048	80.006	19.995	103.217	20.056	1.317	0.536
997.500	583.261	80.006	19.995	103.218	20.060	1.008	0.481
998.000	583.522	80.006	19.995	103.221	20.056	1.282	0.466
998.500	583.808	80.007	19.995	103.221	20.063	0.850	0.511
999.000	584.098	80.006	19.995	103.223	20.059	1.109	0.561
999.500	584.319	80.006	19.995	103.222	20.057	1.242	0.543
1000.000	584.575	80.007	19.995	103.221	20.060	1.062	0.494
1000.500	584.845	80.006	19.995	103.219	20.057	1.242	0.501
1001.000	585.088	80.006	19.994	103.218	20.056	1.280	0.519
1001.500	585.322	80.005	19.995	103.218	20.058	1.152	0.495
1002.000	585.618	80.005	19.996	103.219	20.058	1.175	0.504
1002.500	585.886	80.007	19.997	103.220	20.056	1.319	0.547
1003.000	586.151	80.005	19.995	103.222	20.060	1.036	0.549
1003.500	586.397	80.007	19.995	103.226	20.060	1.043	0.522
1004.000	586.673	80.004	19.996	103.228	20.060	1.038	0.516
1004.500	586.935	80.006	19.995	103.233	20.060	1.005	0.530
1005.000	587.202	80.006	19.996	103.235	20.063	0.817	0.533
1005.500	587.458	80.005	19.995	103.236	20.061	0.959	0.526
1006.000	587.703	80.006	19.995	103.230	20.062	0.926	0.512
1006.500	587.996	80.007	19.995	103.224	20.058	1.161	0.520
1007.000	588.227	80.006	19.995	103.219	20.058	1.146	0.531
1007.500	588.527	80.005	19.995	103.216	20.056	1.302	0.527
1008.000	588.765	80.007	19.995	103.215	20.057	1.225	0.534
1008.500	589.023	80.007	19.995	103.216	20.057	1.218	0.517
1009.000	589.319	80.005	19.995	103.219	20.057	1.249	0.525
1009.500	589.580	80.005	19.996	103.222	20.054	1.453	0.555
1010.000	589.779	80.006	19.995	103.223	20.057	1.253	0.508
1010.500	590.072	80.006	19.995	103.223	20.058	1.139	0.476
1011.000	590.304	80.005	19.996	103.223	20.059	1.080	0.508
1011.500	590.580	80.005	19.995	103.220	20.056	1.302	0.517
1012.000	590.833	80.007	19.995	103.219	20.055	1.370	0.519
1012.500	591.098	80.007	19.996	103.217	20.057	1.208	0.524
1013.000	591.390	80.006	19.996	103.216	20.058	1.194	0.538
1013.500	591.657	80.007	19.994	103.214	20.056	1.286	0.558
1014.000	591.902	80.007	19.996	103.214	20.058	1.177	0.536
1014.500	592.146	80.007	19.994	103.214	20.055	1.368	0.501
1015.000	592.444	80.005	19.995	103.214	20.059	1.133	0.515
1015.500	592.669	80.008	19.995	103.215	20.055	1.383	0.532
1016.000	592.925	80.008	19.997	103.215	20.058	1.181	0.502
1016.500	593.165	80.007	19.996	103.219	20.056	1.315	0.489
1017.000	593.472	80.008	19.994	103.221	20.055	1.341	0.522
1017.500	593.733	80.007	19.995	103.222	20.057	1.263	0.557
1018.000	593.997	80.008	19.995	103.220	20.057	1.243	0.546
1018.500	594.271	80.007	19.995	103.221	20.057	1.207	0.532
1019.000	594.558	80.008	19.995	103.218	20.056	1.295	0.550
1019.500	594.795	80.007	19.995	103.216	20.061	0.997	0.543
1020.000	595.043	80.008	19.994	103.216	20.057	1.252	0.504
1020.500	595.323	80.007	19.994	103.216	20.057	1.258	0.507
1021.000	595.544	80.007	19.995	103.221	20.057	1.229	0.514
1021.500	595.789	80.009	19.994	103.221	20.061	0.935	0.483
1022.000	596.082	80.008	19.995	103.221	20.056	1.295	0.502
1022.500	596.330	80.007	19.994	103.220	20.060	1.030	0.539
1023.000	596.590	80.006	19.995	103.219	20.057	1.214	0.524
1023.500	596.812	80.008	19.994	103.213	20.059	1.098	0.495
1024.000	597.066	80.007	19.995	103.212	20.056	1.313	0.479
1024.499	597.317	80.008	19.995	103.214	20.060	1.036	0.491
1024.999	597.601	80.009	19.994	103.216	20.061	0.959	0.520
1025.499	597.831	80.008	19.995	103.217	20.060	1.049	0.525
1025.999	598.100	80.008	19.994	103.217	20.054	1.451	0.507
1026.500	598.356	80.007	19.995	103.215	20.058	1.140	0.512
1027.000	598.613	80.006	19.995	103.214	20.057	1.256	0.519
1027.500	598.850	80.008	19.995	103.214	20.057	1.241	0.503
1028.000	599.104	80.008	19.996	103.213	20.057	1.208	0.492
1028.499	599.371	80.007	19.995	103.215	20.056	1.274	0.506
1028.999	599.619	80.009	19.994	103.215	20.054	1.418	0.518
1029.499	599.852	80.007	19.996	103.215	20.059	1.093	0.499
1030.000	600.125	80.007	19.995	103.216	20.057	1.201	0.494
1030.501	600.363	80.008	19.995	103.217	20.059	1.111	0.508
1031.000	600.629	80.007	19.995	103.216	20.059	1.102	0.508
1031.499	600.865	80.009	19.994	103.215	20.057	1.265	0.503
1031.999	601.122	80.007	19.994	103.214	20.058	1.135	0.498
1032.499	601.347	80.008	19.994	103.211	20.059	1.093	0.487
1033.000	601.632	80.008	19.995	103.210	20.058	1.155	0.496
1033.501	601.897	80.008	19.994	103.210	20.057	1.249	0.530
1034.000	602.134	80.008	19.994	103.211	20.060	1.027	0.526
1034.499	602.384	80.007	19.995	103.213	20.060	1.006	0.494
1034.999	602.635	80.008	19.994	103.219	20.059	1.091	0.494
1035.499	602.889	80.009	19.994	103.220	20.061	0.994	0.503
1035.999	603.148	80.008	19.994	103.220	20.061	0.955	0.509
1036.499	603.372	80.009	19.993	103.220	20.059	1.118	0.498
1036.999	603.638	80.010	19.995	103.218	20.061	0.984	0.486
1037.499	603.868	80.008	19.994	103.214	20.062	0.894	0.492
1037.999	604.144	80.008	19.993	103.213	20.062	0.911	0.501
1038.499	604.378	80.009	19.994	103.213	20.063	0.834	0.508
1039.000	604.613	80.009	19.995	103.212	20.061	0.961	0.489
1039.501	604.857	80.010	19.994	103.212	20.061	0.940	0.474
1040.000	605.104	80.010	19.994	103.212	20.059	1.067	0.485
1040.500	605.382	80.009	19.994	103.212	20.061	0.972	0.508
1041.001	605.618	80.008	19.995	103.211	20.060	1.017	0.519
1041.500	605.873	80.009	19.995	103.211	20.058	1.194	0.502
1041.999	606.141	80.010	19.994	103.210	20.058	1.159	0.507
1042.500	606.358	80.009	19.994	103.209	20.061	0.984	0.504
1043.001	606.630	80.009	19.994	103.208	20.060	1.036	0.487
1043.500	606.840	80.008	19.993	103.209	20.061	0.988	0.485
1043.999	607.152	80.010	19.994	103.209	20.060	1.054	0.502
1044.499	607.400	80.008	19.994	103.211	20.060	1.012	0.541
1044.999	607.660	80.009	19.995	103.212	20.061	0.979	0.534
1045.499	607.915	80.009	19.994	103.216	20.064	0.786	0.512
1045.999	608.162	80.008	19.994	103.217	20.062	0.922	0.508
1046.499	608.407	80.009	19.994	103.217	20.063	0.821	0.497
1046.999	608.645	80.008	19.994	103.216	20.062	0.883	0.487
1047.499	608.919	80.008	19.995	103.214	20.061	0.981	0.498
1047.999	609.206	80.008	19.994	103.212	20.064	0.762	0.537
1048.499	609.455	80.007	19.995	103.215	20.061	0.977	0.548
1048.999	609.678	80.008	19.994	103.219	20.061	0.992	0.504
1049.499	609.928	80.007	19.995	103.224	20.062	0.902	0.473
1049.999	610.194	80.007	19.996	103.227	20.062	0.917	0.494
1050.500	610.462	80.007	19.995	103.226	20.058	1.170	0.524
1051.000	610.696	80.007	19.995	103.221	20.058	1.192	0.518
1051.499	610.967	80.007	19.994	103.218	20.063	0.828	0.504
1051.999	611.201	80.010	19.995	103.214	20.058	1.185	0.505
1052.499	611.469	80.008	19.996	103.212	20.056	1.289	0.504
1052.999	611.689	80.007	19.995	103.211	20.057	1.260	0.495
1053.499	611.950	80.008	19.994	103.211	20.060	1.052	0.484
1053.999	612.180	80.007	19.995	103.211	20.058	1.192	0.486
1054.499	612.445	80.007	19.994	103.214	20.056	1.310	0.493
1054.999	612.696	80.008	19.995	103.217	20.057	1.244	0.506
1055.499	612.959	80.007	19.994	103.217	20.057	1.207	0.515
1055.999	613.236	80.008	19.994	103.219	20.057	1.242	0.527
1056.499	613.442	80.006	19.994	103.219	20.056	1.286	0.511
1056.999	613.691	80.007	19.995	103.215	20.057	1.251	0.469
1057.499	613.992	80.007	19.994	103.212	20.055	1.364	0.503
1057.999	614.229	80.007	19.995	103.212	20.058	1.155	0.544
1058.499	614.477	80.006	19.996	103.212	20.059	1.115	0.512
1058.999	614.736	80.007	19.995	103.213	20.056	1.304	0.496
1059.499	614.996	80.008	19.994	103.216	20.058	1.168	0.513
1059.999	615.256	80.008	19.994	103.221	20.062	0.872	0.519
1060.499	615.505	80.007	19.993	103.223	20.061	0.975	0.514
1061.000	615.752	80.007	19.995	103.227	20.057	1.210	0.502
1061.501	615.987	80.006	19.994	103.227	20.059	1.078	0.489
1062.001	616.270	80.006	19.993	103.225	20.059	1.080	0.500
1062.501	616.490	80.006	19.993	103.224	20.063	0.827	0.511
1063.000	616.732	80.007	19.993	103.223	20.061	0.964	0.482
1063.501	616.984	80.006	19.993	103.222	20.062	0.896	0.478
1064.001	617.238	80.007	19.995	103.226	20.062	0.882	0.500
1064.500	617.458	80.006	19.993	103.226	20.063	0.806	0.490
1065.000	617.670	80.007	19.993	103.228	20.058	1.187	0.453
1065.500	617.940	80.008	19.994	103.234	20.057	1.216	0.457
1066.000	618.185	80.007	19.994	103.235	20.061	0.957	0.499
1066.500	618.439	80.008	19.994	103.232	20.060	1.007	0.507
1067.000	618.661	80.008	19.995	103.231	20.059	1.126	0.488
1067.500	618.939	80.008	19.995	103.226	20.060	1.043	0.488
1068.000	619.183	80.008	19.995	103.219	20.062	0.917	0.511
1068.500	619.406	80.009	19.995	103.214	20.056	1.299	0.494
1069.000	619.679	80.007	19.995	103.214	20.059	1.128	0.481
1069.500	619.912	80.007	19.994	103.217	20.059	1.089	0.501
1070.000	620.150	80.007	19.994	103.217	20.057	1.225	0.489
1070.500	620.432	80.005	19.994	103.217	20.059	1.119	0.495
1071.000	620.679	80.007	19.995	103.219	20.059	1.102	0.525
1071.500	620.914	80.006	19.995	103.219	20.062	0.920	0.505
1072.000	621.177	80.007	19.995	103.222	20.061	0.935	0.490
1072.500	621.398	80.007	19.994	103.225	20.063	0.830	0.491
1073.000	621.683	80.007	19.994	103.230	20.059	1.091	0.495
1073.500	621.935	80.007	19.995	103.228	20.059	1.075	0.521
1074.000	622.182	80.005	19.996	103.227	20.059	1.120	0.518
1074.500	622.431	80.007	19.994	103.222	20.060	1.051	0.498
1075.000	622.723	80.006	19.995	103.222	20.062	0.915	0.518
1075.501	622.958	80.006	19.994	103.221	20.055	1.343	0.534
1076.000	623.225	80.005	19.995	103.227	20.059	1.097	0.515
1076.500	623.477	80.007	19.995	103.228	20.058	1.174	0.511
1077.000	623.743	80.007	19.995	103.231	20.058	1.163	0.518
1077.500	623.996	80.006	19.995	103.230	20.058	1.179	0.518
1078.000	624.280	80.005	19.994	103.232	20.058	1.179	0.528
1078.500	624.474	80.005	19.996	103.231	20.056	1.295	0.508
1079.000	624.726	80.007	19.995	103.233	20.056	1.299	0.462
1079.500	624.959	80.006	19.995	103.236	20.061	0.953	0.465
1080.000	625.249	80.006	19.996	103.239	20.056	1.293	0.504
1080.500	625.481	80.007	19.994	103.241	20.057	1.209	0.523
1081.000	625.720	80.006	19.994	103.242	20.060	1.047	0.497
1081.500	625.989	80.006	19.994	103.247	20.059	1.122	0.490
1082.000	626.237	80.005	19.995	103.248	20.058	1.146	0.512
1082.500	626.537	80.006	19.994	103.248	20.059	1.082	0.532
1083.000	626.793	80.006	19.994	103.249	20.056	1.300	0.552
1083.500	627.040	80.007	19.994	103.248	20.056	1.317	0.530
1084.000	627.298	80.007	19.996	103.244	20.055	1.399	0.504
1084.500	627.585	80.007	19.995	103.236	20.056	1.269	0.525
1085.000	627.806	80.006	19.996	103.232	20.056	1.333	0.527
1085.500	628.074	80.008	19.996	103.226	20.057	1.245	0.499
1086.000	628.339	80.007	19.994	103.226	20.055	1.346	0.511
1086.500	628.635	80.006	19.995	103.228	20.058	1.196	0.546
1087.000	628.890	80.007	19.995	103.229	20.055	1.383	0.556
1087.500	629.151	80.007	19.994	103.228	20.052	1.572	0.534
1088.000	629.427	80.007	19.996	103.228	20.055	1.348	0.527
1088.500	629.659	80.006	19.995	103.224	20.057	1.254	0.523
1089.000	629.929	80.006	19.995	103.224	20.056	1.310	0.505
1089.500	630.166	80.008	19.994	103.227	20.057	1.209	0.505
1090.000	630.433	80.006	19.996	103.229	20.056	1.322	0.506
1090.500	630.703	80.007	19.995	103.232	20.056	1.308	0.520
1091.000	630.958	80.007	19.996	103.234	20.056	1.302	0.531
1091.500	631.213	80.007	19.995	103.233	20.059	1.093	0.518
1092.000	631.498	80.007	19.996	103.234	20.059	1.109	0.525
1092.500	631.713	80.008	19.995	103.237	20.058	1.166	0.520
1093.000	631.983	80.006	19.995	103.238	20.056	1.324	0.492
1093.500	632.262	80.008	19.995	103.234	20.060	1.027	0.517
1094.000	632.529	80.008	19.995	103.230	20.058	1.142	0.548
1094.500	632.792	80.009	19.994	103.223	20.058	1.150	0.538
1095.000	633.022	80.009	19.995	103.217	20.060	1.045	0.512
1095.500	633.310	80.008	19.995	103.212	20.062	0.924	0.505
1096.000	633.614	80.007	19.995	103.211	20.062	0.922	0.555
1096.500	633.817	80.008	19.995	103.211	20.061	0.964	0.550
1097.000	634.086	80.010	19.995	103.211	20.059	1.091	0.489
1097.500	634.347	80.008	19.995	103.211	20.058	1.144	0.501
1098.000	634.623	80.008	19.995	103.211	20.059	1.133	0.533
1098.500	634.892	80.008	19.994	103.215	20.058	1.166	0.541
1099.000	635.164	80.009	19.994	103.221	20.062	0.885	0.543
1099.500	635.429	80.008	19.994	103.226	20.061	0.968	0.538
1100.000	635.672	80.008	19.996	103.227	20.061	0.946	0.522
1100.500	635.949	80.008	19.994	103.226	20.059	1.069	0.515
1101.000	636.216	80.007	19.996	103.223	20.057	1.216	0.532
1101.500	636.495	80.009	19.996	103.220	20.058	1.140	0.545
1102.000	636.727	80.007	19.996	103.216	20.059	1.109	0.528
1102.500	637.027	80.008	19.995	103.221	20.061	0.988	0.522
1103.000	637.288	80.008	19.996	103.224	20.056	1.282	0.547
1103.500	637.526	80.008	19.996	103.225	20.061	0.962	0.529
1104.000	637.783	80.008	19.995	103.228	20.062	0.911	0.496
1104.500	638.073	80.007	19.996	103.228	20.056	1.322	0.521
1105.000	638.347	80.008	19.997	103.228	20.060	1.063	0.556
1105.500	638.563	80.006	19.995	103.232	20.060	1.041	0.527
1106.000	638.867	80.007	19.994	103.236	20.059	1.131	0.505
1106.500	639.130	80.008	19.996	103.232	20.058	1.137	0.544
1107.000	639.378	80.009	19.996	103.232	20.061	0.951	0.539
1107.500	639.643	80.006	19.995	103.225	20.060	1.043	0.512
1108.000	639.907	80.007	19.995	103.218	20.061	0.964	0.521
1108.500	640.169	80.007	19.997	103.212	20.059	1.122	0.527
1109.000	640.405	80.007	19.996	103.215	20.060	1.049	0.512
1109.500	640.732	80.007	19.996	103.216	20.060	1.045	0.531
1110.000	640.993	80.008	19.996	103.217	20.066	0.632	0.575
1110.500	641.194	80.008	19.996	103.215	20.059	1.117	0.525
1111.000	641.485	80.008	19.996	103.216	20.063	0.847	0.477
1111.500	641.707	80.008	19.996	103.211	20.061	0.986	0.502
1112.000	642.020	80.008	19.995	103.210	20.058	1.190	0.524
1112.500	642.253	80.008	19.996	103.211	20.060	1.045	0.541
1113.000	642.546	80.009	19.996	103.212	20.061	0.999	0.536
1113.500	642.799	80.008	19.995	103.213	20.058	1.144	0.536
1114.000	643.058	80.008	19.995	103.217	20.057	1.221	0.529
1114.500	643.329	80.009	19.996	103.222	20.056	1.269	0.521
1115.000	643.548	80.010	19.995	103.222	20.059	1.128	0.510
1115.500	643.818	80.008	19.996	103.224	20.061	0.983	0.490
1116.000	644.039	80.008	19.995	103.226	20.058	1.155	0.490
1116.501	644.345	80.009	19.995	103.225	20.062	0.917	0.509
1117.000	644.594	80.010	19.994	103.226	20.062	0.915	0.541
1117.500	644.863	80.009	19.993	103.228	20.062	0.929	0.536
1118.000	645.113	80.010	19.994	103.226	20.061	0.937	0.519
1118.500	645.341	80.009	19.995	103.228	20.061	0.953	0.499
1119.000	645.560	80.010	19.994	103.226	20.058	1.135	0.463
1119.500	645.847	80.010	19.995	103.224	20.058	1.153	0.477
1120.000	646.113	80.010	19.995	103.221	20.060	1.058	0.530
1120.500	646.366	80.008	19.995	103.221	20.060	1.021	0.536
1121.000	646.623	80.010	19.995	103.217	20.061	0.937	0.515
1121.500	646.861	80.009	19.994	103.216	20.064	0.772	0.502
1122.000	647.124	80.009	19.995	103.213	20.059	1.111	0.498
1122.500	647.340	80.011	19.994	103.212	20.060	1.007	0.490
1123.000	647.619	80.010	19.995	103.213	20.060	1.021	0.487
1123.500	647.893	80.009	19.994	103.216	20.060	1.058	0.524
1124.000	648.164	80.011	19.994	103.217	20.056	1.284	0.549
1124.500	648.404	80.010	19.995	103.217	20.055	1.352	0.528
1125.000	648.645	80.010	19.994	103.220	20.057	1.219	0.496
1125.500	648.894	80.010	19.994	103.220	20.058	1.148	0.486
1126.001	649.170	80.009	19.993	103.218	20.061	0.995	0.508
1126.500	649.425	80.011	19.995	103.219	20.058	1.192	0.528
1127.000	649.711	80.008	19.994	103.223	20.063	0.852	0.536
1127.500	649.926	80.009	19.994	103.226	20.057	1.232	0.521
1128.000	650.155	80.011	19.994	103.227	20.059	1.067	0.473
1128.500	650.416	80.009	19.993	103.229	20.059	1.089	0.467
1129.000	650.697	80.009	19.994	103.225	20.059	1.087	0.516
1129.500	650.953	80.008	19.995	103.224	20.061	0.986	0.539
1130.000	651.179	80.008	19.995	103.225	20.059	1.109	0.510
1130.501	651.416	80.007	19.994	103.230	20.053	1.508	0.473
1131.000	651.694	80.008	19.994	103.235	20.059	1.078	0.489
1131.500	651.954	80.007	19.994	103.243	20.059	1.130	0.526
1132.000	652.232	80.007	19.995	103.247	20.057	1.267	0.538
1132.500	652.481	80.006	19.994	103.244	20.059	1.111	0.533
1133.000	652.720	80.007	19.994	103.241	20.060	1.030	0.507
1133.500	652.966	80.007	19.994	103.240	20.058	1.164	0.486
1134.000	653.210	80.007	19.994	103.234	20.057	1.240	0.487
1134.500	653.495	80.007	19.994	103.228	20.058	1.135	0.510
1135.000	653.741	80.008	19.995	103.226	20.060	1.054	0.530
1135.500	654.002	80.007	19.995	103.223	20.060	1.060	0.519
1136.000	654.261	80.007	19.993	103.215	20.061	0.942	0.514
1136.500	654.497	80.007	19.994	103.214	20.058	1.153	0.508
1137.000	654.749	80.007	19.993	103.212	20.058	1.146	0.491
1137.500	655.037	80.005	19.994	103.215	20.057	1.258	0.514
1138.000	655.282	80.005	19.995	103.222	20.058	1.148	0.536
1138.500	655.539	80.007	19.995	103.223	20.060	1.041	0.517
1139.000	655.786	80.007	19.993	103.224	20.063	0.850	0.503
1139.500	656.032	80.006	19.995	103.225	20.060	1.038	0.498
1140.001	656.301	80.006	19.994	103.226	20.059	1.115	0.504
1140.500	656.560	80.007	19.995	103.221	20.059	1.133	0.521
1141.000	656.811	80.007	19.996	103.223	20.057	1.234	0.519
1141.500	657.097	80.007	19.995	103.229	20.059	1.071	0.523
1142.000	657.265	80.007	19.995	103.231	20.056	1.273	0.495
1142.500	657.555	80.007	19.995	103.230	20.059	1.096	0.456
1143.000	657.843	80.008	19.994	103.230	20.060	1.063	0.518
1143.500	658.063	80.007	19.995	103.229	20.059	1.076	0.543
1144.000	658.354	80.006	19.994	103.227	20.058	1.198	0.509
1144.500	658.515	80.008	19.994	103.230	20.055	1.367	0.482
1145.000	658.807	80.008	19.994	103.229	20.060	1.038	0.453
1145.500	659.093	80.007	19.994	103.228	20.059	1.085	0.515
1146.000	659.315	80.006	19.994	103.226	20.060	1.062	0.543
1146.500	659.554	80.006	19.994	103.226	20.060	1.047	0.485
1147.000	659.854	80.007	19.993	103.225	20.057	1.225	0.500
1147.500	660.102	80.007	19.993	103.222	20.059	1.129	0.543
1148.000	660.325	80.008	19.996	103.225	20.060	1.019	0.509
1148.500	660.544	80.008	19.994	103.233	20.059	1.076	0.457
1149.000	660.851	80.008	19.994	103.234	20.058	1.190	0.484
1149.500	661.078	80.008	19.994	103.235	20.058	1.170	0.530
1150.000	661.342	80.008	19.995	103.240	20.063	0.854	0.512
1150.500	661.599	80.009	19.994	103.241	20.062	0.915	0.507
1151.000	661.822	80.008	19.994	103.238	20.059	1.130	0.501
1151.500	662.082	80.009	19.994	103.234	20.061	0.955	0.481
1152.000	662.278	80.009	19.994	103.229	20.060	1.021	0.469
1152.500	662.588	80.009	19.993	103.225	20.063	0.806	0.481
1153.000	662.813	80.008	19.994	103.221	20.061	0.983	0.520
1153.500	663.079	80.007	19.994	103.219	20.060	1.030	0.513
1154.000	663.276	80.008	19.994	103.219	20.065	0.725	0.477
1154.500	663.543	80.009	19.995	103.222	20.060	1.065	0.464
1155.000	663.770	80.009	19.994	103.226	20.061	0.933	0.479
1155.501	664.020	80.008	19.994	103.227	20.064	0.738	0.485
1156.001	664.233	80.008	19.994	103.224	20.061	0.966	0.470
1156.500	664.462	80.009	19.993	103.223	20.059	1.100	0.452
1157.000	664.696	80.009	19.994	103.219	20.058	1.163	0.452
1157.500	664.948	80.007	19.994	103.214	20.060	1.040	0.474
1158.000	665.159	80.008	19.994	103.212	20.061	0.972	0.475
1158.500	665.395	80.007	19.994	103.211	20.063	0.841	0.455
1159.000	665.626	80.009	19.994	103.210	20.060	1.003	0.457
1159.500	665.883	80.009	19.994	103.209	20.062	0.904	0.477
1160.000	666.166	80.007	19.994	103.210	20.061	0.994	0.514
1160.500	666.365	80.007	19.994	103.213	20.057	1.264	0.512
1161.000	666.590	80.007	19.995	103.215	20.061	0.981	0.453
1161.500	666.817	80.008	19.994	103.217	20.061	0.990	0.438
1162.000	667.054	80.008	19.995	103.222	20.061	0.996	0.458
1162.500	667.280	80.008	19.994	103.223	20.064	0.795	0.463
1163.000	667.482	80.007	19.994	103.219	20.061	0.957	0.446
1163.500	667.750	80.009	19.995	103.217	20.063	0.841	0.449
1164.000	667.978	80.009	19.996	103.216	20.064	0.760	0.483
1164.500	668.193	80.007	19.995	103.212	20.062	0.871	0.470
1165.000	668.375	80.007	19.996	103.212	20.064	0.737	0.420
1165.500	668.670	80.007	19.994	103.213	20.059	1.076	0.437
1166.000	668.865	80.005	19.994	103.213	20.062	0.895	0.483
1166.500	669.084	80.008	19.995	103.215	20.062	0.900	0.452
1167.000	669.352	80.006	19.996	103.220	20.062	0.874	0.451
1167.500	669.568	80.007	19.994	103.226	20.062	0.882	0.485
1168.000	669.818	80.006	19.996	103.230	20.067	0.566	0.475
1168.500	669.979	80.007	19.995	103.232	20.065	0.691	0.439
1169.000	670.204	80.006	19.996	103.233	20.062	0.918	0.399
1169.500	670.419	80.007	19.995	103.227	20.065	0.698	0.413
1170.000	670.677	80.008	19.995	103.225	20.061	0.961	0.456
1170.500	670.886	80.007	19.996	103.227	20.062	0.904	0.470
1171.000	671.129	80.007	19.996	103.232	20.061	0.979	0.459
1171.500	671.343	80.005	19.996	103.232	20.061	0.948	0.454
1172.000	671.571	80.007	19.995	103.234	20.061	0.957	0.449
1172.500	671.733	80.008	19.996	103.236	20.061	0.950	0.416
1173.000	671.985	80.008	19.996	103.231	20.059	1.115	0.402
1173.500	672.137	80.008	19.995	103.225	20.062	0.883	0.409
1174.000	672.380	80.008	19.995	103.226	20.065	0.689	0.400
1174.500	672.623	80.007	19.996	103.231	20.060	1.007	0.441
1175.000	672.865	80.008	19.995	103.230	20.065	0.676	0.485
1175.501	673.067	80.008	19.996	103.234	20.060	1.054	0.464
1176.000	673.341	80.009	19.996	103.235	20.063	0.834	0.460
1176.500	673.527	80.009	19.996	103.236	20.062	0.907	0.468
1177.000	673.759	80.007	19.995	103.230	20.059	1.082	0.439
1177.500	673.981	80.010	19.995	103.229	20.061	0.974	0.436
1178.000	674.224	80.009	19.996	103.230	20.060	1.025	0.460
1178.500	674.401	80.010	19.995	103.232	20.060	1.053	0.442
1179.001	674.701	80.008	19.995	103.232	20.061	0.946	0.449
1179.500	674.827	80.008	19.995	103.235	20.061	0.999	0.452
1180.000	675.103	80.010	19.995	103.234	20.061	0.976	0.414
1180.501	675.284	80.008	19.994	103.235	20.061	0.979	0.430
1181.000	675.549	80.009	19.995	103.237	20.059	1.097	0.452
1181.500	675.779	80.010	19.995	103.239	20.057	1.211	0.471
1182.000	676.019	80.009	19.995	103.240	20.058	1.187	0.482
1182.500	676.231	80.009	19.994	103.241	20.056	1.326	0.461
1183.000	676.444	80.008	19.995	103.242	20.059	1.119	0.439
1183.500	676.677	80.009	19.995	103.239	20.059	1.100	0.436
1184.000	676.898	80.010	19.994	103.235	20.061	0.975	0.450
1184.500	677.143	80.008	19.994	103.229	20.057	1.253	0.459
1185.000	677.344	80.008	19.995	103.229	20.059	1.122	0.456
1185.500	677.583	80.009	19.995	103.228	20.060	1.023	0.443
1186.000	677.769	80.008	19.995	103.232	20.056	1.284	0.433
1186.500	678.059	80.008	19.994	103.237	20.059	1.115	0.450
1187.000	678.287	80.007	19.994	103.244	20.056	1.279	0.497
1187.500	678.490	80.007	19.994	103.246	20.060	1.060	0.475
1188.000	678.759	80.008	19.995	103.245	20.058	1.159	0.451
1188.500	679.006	80.008	19.995	103.244	20.056	1.332	0.494
1189.000	679.222	80.009	19.994	103.245	20.060	1.062	0.490
1189.500	679.458	80.007	19.996	103.246	20.061	0.939	0.458
1190.000	679.678	80.008	19.995	103.247	20.060	1.008	0.454
1190.500	679.863	80.008	19.995	103.249	20.059	1.113	0.430
1191.000	680.160	80.005	19.995	103.250	20.059	1.117	0.443
1191.500	680.363	80.007	19.994	103.247	20.058	1.144	0.491
1192.000	680.604	80.007	19.995	103.246	20.059	1.122	0.472
1192.500	680.867	80.008	19.996	103.245	20.060	1.032	0.474
1193.000	681.089	80.006	19.995	103.245	20.059	1.071	0.495
1193.500	681.322	80.007	19.996	103.246	20.060	1.029	0.470
1194.000	681.581	80.007	19.995	103.248	20.063	0.805	0.473
1194.500	681.819	80.007	19.996	103.245	20.063	0.806	0.495
1195.000	682.080	80.007	19.996	103.240	20.060	1.064	0.498
1195.500	682.297	80.008	19.995	103.238	20.060	1.005	0.489
1196.000	682.528	80.007	19.995	103.237	20.062	0.876	0.463
1196.500	682.768	80.007	19.996	103.239	20.058	1.155	0.459
1197.000	683.048	80.007	19.995	103.243	20.060	1.058	0.495
1197.500	683.251	80.007	19.995	103.248	20.057	1.201	0.502
1198.000	683.521	80.007	19.996	103.249	20.061	0.968	0.478
1198.500	683.784	80.007	19.995	103.245	20.056	1.290	0.503
1199.000	683.991	80.007	19.995	103.241	20.060	1.032	0.501
1199.500	684.265	80.009	19.995	103.233	20.057	1.249	0.475
1200.000	684.531	80.007	19.994	103.229	20.058	1.156	0.511
1200.500	684.771	80.008	19.995	103.230	20.061	0.937	0.523
1201.000	685.018	80.007	19.996	103.234	20.056	1.290	0.497
1201.500	685.290	80.007	19.996	103.236	20.060	1.042	0.503
1202.000	685.545	80.008	19.994	103.241	20.060	1.032	0.523
1202.500	685.794	80.008	19.996	103.245	20.057	1.203	0.516
1203.000	686.059	80.008	19.996	103.244	20.057	1.229	0.508
1203.500	686.283	80.009	19.995	103.239	20.061	0.979	0.501
1204.000	686.536	80.009	19.996	103.236	20.061	0.992	0.483
1204.500	686.797	80.008	19.994	103.237	20.059	1.093	0.496
1205.000	687.046	80.009	19.995	103.237	20.061	0.966	0.512
1205.500	687.269	80.008	19.995	103.238	20.057	1.245	0.491
1206.000	687.509	80.009	19.995	103.242	20.059	1.133	0.468
1206.500	687.839	80.009	19.994	103.244	20.057	1.227	0.516
1207.000	688.100	80.008	19.994	103.244	20.056	1.271	0.581
1207.500	688.376	80.009	19.994	103.244	20.058	1.179	0.564
1208.000	688.602	80.008	19.995	103.244	20.059	1.128	0.519
1208.500	688.866	80.009	19.994	103.244	20.061	0.961	0.496
1209.000	689.093	80.009	19.993	103.247	20.057	1.238	0.491
1209.501	689.359	80.009	19.994	103.248	20.058	1.181	0.492
1210.000	689.637	80.008	19.994	103.248	20.057	1.233	0.519
1210.500	689.895	80.007	19.995	103.248	20.060	1.042	0.540
1211.000	690.094	80.008	19.994	103.249	20.057	1.225	0.496
1211.500	690.377	80.007	19.994	103.247	20.059	1.075	0.469
1212.000	690.632	80.007	19.993	103.245	20.057	1.216	0.510
1212.500	690.873	80.007	19.996	103.243	20.057	1.247	0.517
1213.000	691.194	80.006	19.994	103.242	20.057	1.216	0.529
1213.500	691.437	80.005	19.994	103.243	20.058	1.139	0.563
1214.000	691.713	80.006	19.994	103.245	20.059	1.128	0.542
1214.500	691.980	80.006	19.994	103.248	20.058	1.148	0.531
1215.000	692.179	80.006	19.993	103.250	20.057	1.238	0.505
1215.500	692.467	80.007	19.994	103.248	20.059	1.108	0.477
1216.000	692.744	80.007	19.994	103.246	20.061	0.946	0.526
1216.500	693.015	80.009	19.994	103.245	20.059	1.111	0.556
1217.000	693.249	80.005	19.994	103.245	20.059	1.091	0.526
1217.500	693.540	80.008	19.995	103.244	20.060	1.049	0.515
1218.000	693.802	80.007	19.994	103.246	20.060	1.023	0.539
1218.500	694.041	80.006	19.994	103.246	20.058	1.179	0.527
1219.000	694.299	80.008	19.994	103.247	20.060	1.016	0.499
1219.500	694.565	80.008	19.995	103.243	20.060	1.018	0.511
1220.000	694.832	80.006	19.994	103.242	20.058	1.135	0.528
1220.500	695.120	80.006	19.995	103.242	20.059	1.086	0.544
1221.000	695.380	80.006	19.995	103.243	20.059	1.111	0.551
1221.500	695.608	80.006	19.995	103.243	20.061	0.962	0.518
1222.000	695.885	80.006	19.994	103.247	20.061	0.951	0.497
1222.500	696.140	80.007	19.994	103.248	20.060	1.027	0.519
1223.000	696.447	80.007	19.995	103.248	20.057	1.214	0.547
1223.500	696.696	80.006	19.994	103.243	20.057	1.214	0.559
1224.000	696.944	80.005	19.994	103.239	20.061	0.938	0.526
1224.500	697.192	80.006	19.994	103.234	20.059	1.076	0.496
1225.000	697.482	80.006	19.994	103.229	20.060	1.005	0.517
1225.500	697.723	80.007	19.995	103.223	20.058	1.162	0.535
1226.000	697.973	80.005	19.993	103.225	20.062	0.926	0.511
1226.500	698.244	80.006	19.995	103.228	20.061	0.938	0.506
1227.000	698.520	80.008	19.995	103.233	20.061	0.953	0.534
1227.500	698.766	80.005	19.995	103.238	20.062	0.916	0.535
1228.000	699.007	80.007	19.995	103.242	20.060	1.065	0.505
1228.500	699.276	80.007	19.994	103.244	20.061	0.975	0.499
1229.000	699.548	80.007	19.994	103.241	20.060	1.021	0.525
1229.500	699.832	80.006	19.996	103.235	20.057	1.262	0.549
1230.000	700.107	80.007	19.995	103.230	20.058	1.157	0.558
1230.500	700.363	80.006	19.995	103.229	20.060	1.032	0.545
1231.000	700.642	80.009	19.994	103.228	20.059	1.122	0.533
1231.500	700.897	80.004	20.002	103.229	20.062	0.902	0.534
1232.000	701.110	80.008	19.995	103.228	20.060	1.034	0.501
1232.500	701.412	80.006	19.995	103.229	20.061	0.977	0.491
1233.000	701.658	80.007	19.994	103.228	20.064	0.786	0.531
1233.500	701.915	80.006	19.994	103.226	20.062	0.876	0.526
1234.000	702.192	80.006	19.993	103.221	20.058	1.177	0.519
1234.500	702.445	80.006	19.994	103.219	20.060	1.016	0.532
1235.000	702.713	80.007	19.996	103.220	20.063	0.858	0.525
1235.500	702.948	80.007	19.994	103.217	20.060	1.006	0.512
1236.000	703.198	80.008	19.993	103.213	20.062	0.882	0.494
1236.500	703.486	80.006	19.996	103.215	20.063	0.823	0.512
1237.000	703.741	80.008	19.994	103.220	20.062	0.869	0.541
1237.500	703.998	80.007	19.996	103.221	20.060	1.062	0.527
1238.000	704.265	80.008	19.995	103.221	20.061	0.984	0.518
1238.500	704.505	80.007	19.994	103.222	20.062	0.916	0.516
1239.000	704.754	80.006	19.995	103.221	20.062	0.894	0.498
1239.500	705.057	80.007	19.994	103.215	20.061	0.972	0.521
1240.000	705.347	80.008	19.995	103.212	20.063	0.808	0.572
1240.500	705.596	80.008	19.995	103.211	20.059	1.107	0.566
1241.000	705.810	80.006	19.994	103.210	20.062	0.916	0.501
1241.500	706.087	80.007	19.994	103.210	20.063	0.858	0.477
1242.000	706.318	80.006	19.995	103.211	20.061	0.973	0.500
1242.500	706.606	80.008	19.995	103.211	20.063	0.841	0.514
1243.000	706.842	80.007	19.994	103.211	20.061	0.955	0.521
1243.500	707.071	80.006	19.993	103.212	20.059	1.084	0.494
1244.000	707.321	80.007	19.995	103.212	20.062	0.871	0.473
1244.500	707.604	80.006	19.994	103.211	20.062	0.927	0.506
1245.000	707.921	80.007	19.994	103.214	20.062	0.909	0.566
1245.500	708.179	80.006	19.996	103.218	20.062	0.876	0.587
1246.000	708.409	80.007	19.994	103.219	20.061	0.986	0.531
1246.500	708.680	80.007	19.994	103.222	20.060	1.025	0.495
1247.000	708.899	80.006	19.994	103.223	20.063	0.856	0.496
1247.500	709.181	80.007	19.995	103.221	20.062	0.922	0.496
1248.000	709.476	80.008	19.994	103.219	20.060	1.056	0.539
1248.500	709.710	80.006	19.995	103.217	20.059	1.087	0.553
1249.000	709.976	80.006	19.995	103.216	20.061	0.942	0.514
1249.500	710.234	80.007	19.994	103.218	20.063	0.858	0.512
1250.000	710.482	80.006	19.994	103.219	20.061	0.948	0.515
1250.500	710.743	80.006	19.995	103.218	20.065	0.705	0.508
1251.000	710.977	80.007	19.994	103.218	20.061	0.973	0.502
1251.500	711.270	80.005	19.994	103.217	20.062	0.871	0.511
1252.000	711.523	80.008	19.995	103.214	20.062	0.878	0.536
1252.500	711.806	80.008	19.994	103.213	20.063	0.806	0.540
1253.000	712.060	80.009	19.994	103.213	20.060	1.027	0.536
1253.500	712.333	80.007	19.993	103.213	20.057	1.227	0.532
1254.000	712.560	80.008	19.993	103.213	20.061	0.938	0.514
1254.500	712.837	80.007	19.995	103.214	20.062	0.920	0.502
1255.000	713.060	80.007	19.995	103.217	20.061	0.988	0.502
1255.500	713.341	80.007	19.995	103.217	20.063	0.834	0.502
1256.000	713.544	80.007	19.994	103.218	20.064	0.764	0.494
1256.500	713.857	80.007	19.994	103.221	20.062	0.867	0.501
1257.000	714.118	80.007	19.995	103.222	20.064	0.764	0.545
1257.500	714.297	80.009	19.995	103.220	20.059	1.118	0.507
1258.000	714.602	80.006	19.994	103.219	20.061	0.997	0.462
1258.500	714.867	80.008	19.996	103.218	20.064	0.753	0.527
1259.000	715.100	80.006	19.996	103.215	20.063	0.845	0.534
1259.500	715.375	80.008	19.995	103.214	20.062	0.898	0.503
1260.000	715.624	80.009	19.994	103.219	20.060	1.012	0.516
1260.500	715.928	80.007	19.994	103.223	20.063	0.845	0.538
1261.000	716.161	80.009	19.994	103.223	20.059	1.107	0.545
1261.500	716.391	80.009	19.994	103.223	20.062	0.916	0.500
1262.000	716.646	80.007	19.994	103.222	20.062	0.869	0.474
1262.500	716.938	80.007	19.996	103.218	20.064	0.782	0.516
1263.000	717.177	80.010	19.995	103.213	20.065	0.720	0.539
1263.500	717.414	80.008	19.994	103.213	20.064	0.780	0.503
1264.000	717.718	80.009	19.995	103.213	20.063	0.823	0.508
1264.500	717.960	80.008	19.994	103.212	20.066	0.601	0.544
1265.000	718.209	80.007	19.995	103.212	20.064	0.764	0.519
1265.500	718.463	80.008	19.994	103.212	20.063	0.817	0.497
1266.000	718.701	80.008	19.995	103.213	20.064	0.790	0.498
1266.500	718.932	80.009	19.996	103.213	20.065	0.713	0.481
1267.000	719.186	80.007	19.994	103.213	20.065	0.668	0.477
1267.500	719.472	80.007	19.994	103.213	20.062	0.904	0.512
1268.000	719.709	80.006	19.995	103.213	20.062	0.927	0.531
1268.500	719.950	80.006	19.996	103.212	20.062	0.891	0.500
1269.000	720.190	80.007	19.994	103.212	20.064	0.768	0.480
1269.500	720.458	80.007	19.995	103.212	20.065	0.672	0.495
1270.000	720.720	80.007	19.995	103.212	20.065	0.714	0.519
1270.500	720.963	80.006	19.997	103.211	20.066	0.635	0.517
1271.000	721.207	80.008	19.992	103.211	20.063	0.836	0.496
1271.500	721.444	80.006	19.994	103.211	20.064	0.758	0.484
1272.000	721.712	80.006	19.996	103.211	20.064	0.762	0.493
1272.500	721.946	80.007	19.997	103.211	20.064	0.762	0.503
1273.000	722.205	80.009	19.994	103.212	20.064	0.777	0.498
1273.500	722.421	80.008	19.995	103.213	20.063	0.836	0.484
1274.000	722.718	80.007	19.994	103.213	20.063	0.843	0.494
1274.500	722.951	80.007	19.994	103.213	20.064	0.777	0.521
1275.000	723.209	80.007	19.995	103.212	20.062	0.915	0.511
1275.500	723.469	80.007	19.994	103.212	20.060	1.043	0.505
1276.000	723.712	80.006	19.994	103.212	20.066	0.654	0.510
1276.500	723.974	80.006	19.994	103.212	20.066	0.630	0.504
1277.000	724.217	80.008	19.995	103.212	20.064	0.784	0.505
1277.500	724.430	80.006	19.994	103.212	20.063	0.856	0.481
1278.000	724.683	80.008	19.995	103.212	20.061	0.938	0.461
1278.500	724.959	80.008	19.993	103.212	20.064	0.791	0.497
1279.000	725.201	80.008	19.995	103.212	20.065	0.681	0.523
1279.500	725.453	80.007	19.995	103.212	20.065	0.711	0.507
1280.000	725.694	80.008	19.994	103.212	20.064	0.793	0.494
1280.500	725.953	80.007	19.995	103.213	20.064	0.793	0.496
1281.000	726.184	80.008	19.995	103.212	20.062	0.876	0.495
1281.500	726.434	80.009	19.994	103.212	20.062	0.870	0.486
1282.000	726.685	80.009	19.995	103.212	20.063	0.826	0.491
1282.500	726.911	80.010	19.994	103.211	20.063	0.828	0.489
1283.000	727.200	80.009	19.994	103.205	20.064	0.782	0.496
1283.500	727.408	80.008	19.994	103.203	20.065	0.676	0.506
1284.000	727.648	80.009	19.995	103.203	20.064	0.768	0.472
1284.500	727.929	80.010	19.995	103.203	20.063	0.861	0.484
1285.000	728.123	80.009	19.995	103.203	20.066	0.646	0.498
1285.500	728.397	80.008	19.994	103.209	20.064	0.760	0.472
1286.000	728.651	80.009	19.995	103.209	20.062	0.922	0.498
1286.500	728.893	80.008	19.995	103.209	20.061	0.971	0.512
1287.000	729.119	80.009	19.995	103.208	20.061	0.999	0.482
1287.500	729.342	80.009	19.996	103.208	20.062	0.903	0.458
1288.000	729.606	80.010	19.996	103.208	20.061	0.948	0.468
1288.500	729.852	80.008	19.994	103.208	20.059	1.126	0.499
1289.001	730.097	80.009	19.996	103.208	20.060	1.050	0.501
1289.501	730.352	80.011	19.995	103.208	20.059	1.091	0.496
1290.000	730.598	80.010	19.995	103.207	20.060	1.008	0.500
1290.500	730.877	80.010	19.995	103.206	20.060	1.032	0.512
1291.000	731.081	80.009	19.994	103.204	20.059	1.076	0.504
1291.500	731.353	80.010	19.995	103.204	20.060	1.025	0.480
1292.000	731.576	80.007	19.993	103.204	20.061	0.979	0.485
1292.500	731.825	80.008	19.995	103.205	20.061	0.990	0.484
1293.000	732.094	80.009	19.996	103.206	20.059	1.069	0.495
1293.500	732.336	80.008	19.996	103.208	20.059	1.115	0.515
1294.000	732.593	80.007	19.995	103.208	20.059	1.100	0.505
1294.500	732.806	80.007	19.995	103.208	20.061	0.940	0.485
1295.000	733.072	80.008	19.996	103.207	20.062	0.913	0.475
1295.500	733.311	80.007	19.996	103.208	20.062	0.885	0.492
1296.000	733.535	80.005	19.995	103.207	20.060	1.043	0.484
1296.500	733.769	80.006	19.995	103.207	20.059	1.074	0.460
1297.000	734.027	80.005	19.995	103.207	20.059	1.107	0.475
1297.500	734.273	80.006	19.996	103.207	20.061	0.973	0.498
1298.000	734.511	80.007	19.996	103.207	20.060	1.037	0.494
1298.500	734.783	80.007	19.995	103.207	20.059	1.116	0.497
1299.000	735.038	80.007	19.995	103.207	20.059	1.120	0.518
1299.500	735.261	80.007	19.996	103.208	20.060	1.052	0.502
1300.000	735.493	80.007	19.996	103.208	20.061	0.997	0.466
1300.500	735.742	80.006	19.996	103.208	20.059	1.096	0.468
1301.000	735.936	80.006	19.995	103.208	20.060	1.028	0.462
1301.500	736.200	80.007	19.995	103.208	20.058	1.162	0.451
1302.000	736.452	80.007	19.995	103.208	20.058	1.192	0.487
1302.500	736.670	80.008	19.995	103.209	20.058	1.188	0.493
1303.000	736.929	80.007	19.996	103.210	20.061	0.979	0.473
1303.500	737.128	80.006	19.995	103.209	20.060	1.008	0.468
1304.001	737.403	80.006	19.994	103.210	20.059	1.111	0.466
1304.500	737.617	80.007	19.995	103.210	20.063	0.812	0.482
1305.000	737.877	80.007	19.996	103.208	20.067	0.573	0.481
1305.500	738.129	80.008	19.994	103.204	20.060	1.056	0.493
1306.000	738.356	80.008	19.996	103.200	20.064	0.791	0.495
1306.500	738.632	80.009	19.994	103.196	20.064	0.784	0.491
1307.000	738.830	80.007	19.994	103.191	20.059	1.126	0.489
1307.500	739.097	80.007	19.993	103.186	20.063	0.856	0.469
1308.000	739.304	80.007	19.994	103.185	20.061	0.997	0.470
1308.500	739.572	80.007	19.995	103.189	20.061	0.940	0.475
1309.000	739.812	80.007	19.995	103.193	20.061	0.995	0.491
1309.500	740.071	80.008	19.995	103.198	20.061	0.964	0.503
1310.000	740.329	80.008	19.994	103.204	20.063	0.839	0.508
1310.500	740.535	80.007	19.995	103.207	20.062	0.878	0.491
1311.000	740.764	80.009	19.995	103.207	20.059	1.091	0.449
1311.500	741.028	80.007	19.995	103.207	20.061	0.986	0.464
1312.000	741.255	80.008	19.994	103.206	20.065	0.685	0.492
1312.500	741.456	80.007	19.994	103.205	20.063	0.819	0.460
1313.000	741.705	80.007	19.995	103.207	20.060	1.016	0.439
1313.500	741.945	80.008	19.995	103.207	20.059	1.089	0.469
1314.000	742.173	80.007	19.995	103.206	20.060	1.014	0.478
1314.500	742.433	80.007	19.995	103.207	20.060	1.034	0.479
1315.000	742.632	80.007	19.995	103.208	20.059	1.104	0.474
1315.500	742.916	80.007	19.995	103.208	20.060	1.049	0.471
1316.000	743.137	80.006	19.994	103.208	20.062	0.926	0.494
1316.500	743.354	80.008	19.994	103.209	20.057	1.229	0.471
1317.000	743.579	80.008	19.996	103.209	20.060	1.030	0.440
1317.500	743.837	80.008	19.994	103.209	20.060	1.036	0.463
1318.000	744.050	80.008	19.996	103.209	20.058	1.173	0.477
