Sample ID:	C:\MCC\MCC Cal\Test\Gypsum_Wallboard_GypsumCore_MCC_30K_min_211004_R2.txt
Sample Weight (mg):	4.76
Heating Rate (C/s):	0.5
Combustor Temp (C):	900
N2 Flow Rate (cc/min):	80
O2 Flow Rate (cc/min):	20
Calibration File:	C:\MCC\MCC Cal\Coeff1 JN10440_30_210304.txt.txt
T Correction Coefficients:	0	1.024463	0
Time Shift (s):	14
*
Time (s)	Temperature (C)	N2 flow rate (cc/min)	O2 flow rate (cc/min)	Flow Rate (cc/min)	Oxygen (%)	HRR (W/g)	Heating rate (C/s)
0.000	108.320	79.997	19.997	100.640	20.019	0.050	-0.017
0.499	108.344	79.997	19.995	100.640	20.018	0.061	-0.027
1.000	108.364	79.997	19.995	100.642	20.021	-0.090	0.013
1.500	108.340	79.996	19.995	100.638	20.019	0.039	0.020
2.000	108.350	79.996	19.996	100.640	20.022	-0.165	-0.009
2.499	108.341	79.997	19.997	100.636	20.020	-0.059	-0.007
2.999	108.383	79.998	19.997	100.636	20.021	-0.086	0.016
3.499	108.369	79.998	19.995	100.631	20.017	0.185	0.031
3.999	108.368	79.998	19.996	100.634	20.017	0.145	0.007
4.500	108.315	79.996	19.995	100.638	20.019	0.009	-0.035
5.000	108.355	79.997	19.995	100.645	20.020	-0.013	-0.034
5.500	108.361	79.997	19.996	100.649	20.017	0.145	0.016
6.000	108.338	79.997	19.995	100.652	20.019	0.040	0.015
6.500	108.338	79.998	19.995	100.654	20.019	0.025	-0.020
7.000	108.355	79.995	19.995	100.654	20.014	0.329	-0.003
7.500	108.341	79.996	19.996	100.654	20.016	0.241	0.010
8.000	108.301	79.995	19.996	100.654	20.016	0.210	-0.026
8.500	108.317	79.996	19.996	100.655	20.019	0.048	-0.039
9.000	108.339	79.996	19.996	100.651	20.018	0.057	0.007
9.500	108.323	79.996	19.996	100.646	20.019	0.032	0.023
10.000	108.343	79.998	19.995	100.645	20.020	-0.065	0.005
10.500	108.312	79.996	19.996	100.644	20.016	0.205	-0.004
11.000	108.325	79.997	19.994	100.640	20.015	0.305	-0.014
11.500	108.310	79.996	19.995	100.639	20.017	0.131	-0.010
12.000	108.308	79.995	19.996	100.639	20.018	0.099	-0.010
12.500	108.343	79.996	19.995	100.636	20.017	0.156	0.008
13.000	108.309	79.995	19.996	100.636	20.014	0.381	0.017
13.500	108.259	79.997	19.996	100.643	20.017	0.178	-0.042
14.000	108.301	79.996	19.996	100.649	20.019	0.036	-0.046
14.500	108.316	79.996	19.996	100.654	20.018	0.102	0.024
15.000	108.321	79.997	19.996	100.658	20.017	0.158	0.038
15.500	108.329	79.996	19.995	100.661	20.019	0.040	0.016
16.000	108.351	79.996	19.995	100.661	20.018	0.108	0.022
16.500	108.374	79.996	19.996	100.663	20.015	0.304	0.038
17.000	108.356	79.996	19.996	100.663	20.018	0.059	0.025
17.500	108.367	79.997	19.996	100.666	20.020	-0.013	-0.001
18.000	108.354	79.995	19.994	100.666	20.017	0.176	-0.004
18.500	108.337	79.998	19.995	100.668	20.015	0.266	-0.016
19.000	108.345	79.996	19.997	100.666	20.016	0.219	-0.020
19.500	108.322	79.996	19.995	100.667	20.017	0.174	-0.012
20.000	108.321	79.996	19.995	100.671	20.016	0.221	-0.019
20.500	108.337	79.998	19.995	100.679	20.015	0.284	-0.005
21.000	108.359	79.998	19.995	100.686	20.013	0.406	0.026
21.500	108.366	79.996	19.996	100.700	20.012	0.518	0.033
22.000	108.371	79.997	19.995	100.717	20.011	0.570	0.021
22.500	108.396	79.997	19.995	100.731	20.011	0.556	0.021
23.000	108.409	79.998	19.996	100.745	20.009	0.702	0.034
23.500	108.443	79.998	19.995	100.757	20.009	0.680	0.043
24.000	108.451	79.997	19.995	100.762	20.007	0.847	0.044
24.500	108.471	79.999	19.995	100.766	20.003	1.056	0.034
25.000	108.477	79.999	19.995	100.763	20.002	1.121	0.027
25.500	108.490	79.998	19.994	100.756	19.999	1.315	0.023
26.000	108.508	79.998	19.995	100.754	20.002	1.164	0.025
26.500	108.542	79.998	19.995	100.753	19.997	1.457	0.041
27.000	108.535	79.999	19.994	100.750	20.000	1.267	0.039
27.500	108.589	79.998	19.995	100.755	19.998	1.395	0.037
28.000	108.629	79.998	19.995	100.762	19.995	1.611	0.071
28.500	108.651	79.999	19.994	100.769	19.996	1.557	0.078
29.000	108.706	79.999	19.994	100.778	19.996	1.515	0.069
29.500	108.735	79.998	19.994	100.790	19.994	1.656	0.081
30.000	108.779	79.998	19.995	100.797	19.995	1.611	0.079
30.500	108.830	79.997	19.994	100.804	19.994	1.663	0.084
31.000	108.861	79.998	19.995	100.811	19.991	1.859	0.088
31.500	108.903	79.997	19.997	100.816	19.992	1.803	0.077
32.000	108.929	79.996	19.994	100.816	19.992	1.816	0.070
32.499	108.960	79.998	19.996	100.821	19.990	1.911	0.062
32.999	109.048	79.998	19.995	100.828	19.988	2.102	0.088
33.499	109.108	79.996	19.996	100.834	19.986	2.174	0.134
33.999	109.149	79.997	19.996	100.841	19.989	2.039	0.125
34.499	109.221	79.996	19.995	100.849	19.986	2.204	0.107
34.999	109.259	79.995	19.995	100.855	19.984	2.339	0.111
35.499	109.297	79.996	19.995	100.857	19.982	2.465	0.093
35.999	109.375	79.995	19.995	100.860	19.986	2.220	0.096
36.499	109.422	79.995	19.995	100.860	19.980	2.575	0.120
36.999	109.521	79.995	19.995	100.860	19.977	2.793	0.135
37.499	109.561	79.995	19.994	100.864	19.979	2.677	0.143
37.999	109.632	79.994	19.995	100.867	19.979	2.667	0.125
38.499	109.702	79.996	19.995	100.871	19.978	2.713	0.126
39.000	109.773	79.996	19.996	100.873	19.977	2.809	0.141
39.500	109.831	79.993	19.996	100.876	19.978	2.746	0.135
39.999	109.915	79.994	19.996	100.876	19.975	2.910	0.135
40.499	109.993	79.994	19.995	100.873	19.972	3.120	0.152
41.000	110.072	79.995	19.994	100.870	19.974	2.998	0.160
41.500	110.158	79.994	19.996	100.870	19.975	2.956	0.161
42.000	110.241	79.995	19.996	100.869	19.973	3.073	0.167
42.500	110.312	79.994	19.995	100.872	19.972	3.131	0.161
43.000	110.424	79.995	19.995	100.873	19.966	3.534	0.168
43.500	110.535	79.994	19.995	100.874	19.969	3.347	0.203
43.999	110.633	79.994	19.995	100.873	19.970	3.286	0.216
44.499	110.722	79.995	19.995	100.871	19.972	3.156	0.198
44.999	110.802	79.995	19.997	100.864	19.970	3.232	0.178
45.499	110.946	79.995	19.996	100.862	19.971	3.194	0.196
45.999	111.096	79.996	19.996	100.864	19.969	3.313	0.259
46.499	111.177	79.996	19.997	100.866	19.971	3.191	0.262
46.999	111.277	79.996	19.996	100.866	19.973	3.090	0.206
47.499	111.317	79.995	19.995	100.867	19.971	3.171	0.161
47.999	111.478	79.995	19.996	100.867	19.973	3.056	0.171
48.499	111.565	79.996	19.997	100.865	19.971	3.222	0.224
48.999	111.644	79.996	19.997	100.862	19.972	3.134	0.207
49.499	111.753	79.995	19.996	100.862	19.968	3.403	0.177
49.999	111.867	79.993	19.996	100.862	19.971	3.203	0.206
50.499	112.018	79.997	19.995	100.864	19.970	3.252	0.245
50.999	112.113	79.994	19.997	100.863	19.972	3.099	0.256
51.499	112.242	79.995	19.996	100.863	19.973	3.054	0.235
51.999	112.341	79.996	19.997	100.864	19.968	3.424	0.226
52.499	112.485	79.995	19.995	100.866	19.966	3.509	0.236
52.999	112.586	79.995	19.996	100.871	19.971	3.228	0.244
53.499	112.693	79.995	19.998	100.876	19.969	3.327	0.226
53.999	112.862	79.996	19.996	100.877	19.972	3.151	0.242
54.499	112.923	79.997	19.995	100.876	19.972	3.156	0.253
54.999	113.093	79.995	19.996	100.874	19.972	3.149	0.230
55.499	113.199	79.996	19.996	100.870	19.966	3.510	0.253
55.999	113.326	79.996	19.995	100.866	19.969	3.354	0.254
56.499	113.479	79.995	19.996	100.871	19.972	3.106	0.257
56.999	113.571	79.997	19.994	100.878	19.968	3.415	0.263
57.499	113.723	79.995	19.997	100.884	19.969	3.336	0.244
57.999	113.850	79.995	19.995	100.889	19.970	3.296	0.262
58.499	113.997	79.995	19.996	100.896	19.969	3.320	0.277
58.999	114.139	79.996	19.997	100.897	19.970	3.259	0.281
59.499	114.305	79.995	19.996	100.896	19.973	3.057	0.298
59.999	114.466	79.996	19.996	100.894	19.975	2.919	0.317
60.499	114.596	79.996	19.996	100.889	19.975	2.941	0.309
60.999	114.680	79.994	19.996	100.883	19.972	3.110	0.253
61.499	114.864	79.995	19.995	100.876	19.974	2.982	0.241
61.999	115.012	79.995	19.995	100.870	19.977	2.802	0.300
62.499	115.134	79.995	19.995	100.870	19.977	2.809	0.301
62.999	115.323	79.997	19.996	100.873	19.974	3.024	0.291
63.500	115.453	79.995	19.995	100.873	19.973	3.094	0.315
64.000	115.605	79.995	19.995	100.873	19.974	2.978	0.300
64.499	115.766	79.995	19.996	100.873	19.973	3.034	0.297
64.999	115.930	79.995	19.995	100.868	19.975	2.919	0.319
65.499	116.101	79.995	19.996	100.863	19.974	2.973	0.330
65.999	116.208	79.994	19.996	100.861	19.975	2.950	0.307
66.499	116.349	79.996	19.996	100.861	19.973	3.092	0.263
66.999	116.548	79.996	19.996	100.860	19.976	2.878	0.294
67.499	116.679	79.996	19.997	100.859	19.974	2.982	0.335
67.999	116.831	79.995	19.996	100.859	19.971	3.197	0.307
68.499	117.000	79.994	19.996	100.860	19.973	3.078	0.302
69.000	117.173	79.995	19.996	100.863	19.972	3.128	0.332
69.500	117.303	79.994	19.996	100.866	19.972	3.134	0.322
69.999	117.519	79.994	19.996	100.869	19.973	3.087	0.325
70.499	117.626	79.995	19.997	100.876	19.973	3.042	0.334
70.999	117.797	79.995	19.996	100.881	19.975	2.912	0.300
71.499	117.989	79.995	19.997	100.885	19.974	2.995	0.321
71.999	118.156	79.996	19.995	100.889	19.978	2.736	0.361
72.499	118.335	79.994	19.996	100.893	19.977	2.813	0.352
73.000	118.512	79.994	19.996	100.890	19.975	2.957	0.350
73.500	118.684	79.994	19.996	100.889	19.972	3.128	0.352
73.999	118.885	79.995	19.996	100.885	19.970	3.297	0.361
74.499	119.028	79.995	19.999	100.881	19.969	3.348	0.359
74.999	119.195	79.996	19.997	100.877	19.976	2.849	0.327
75.499	119.378	79.994	19.996	100.879	19.976	2.842	0.330
75.999	119.555	79.995	19.996	100.879	19.973	3.076	0.355
76.499	119.726	79.995	19.996	100.883	19.972	3.163	0.354
76.999	119.897	79.995	19.997	100.886	19.970	3.262	0.345
77.499	120.066	79.996	19.997	100.890	19.971	3.199	0.341
77.999	120.218	79.995	19.997	100.891	19.977	2.831	0.331
78.499	120.412	79.996	19.996	100.893	19.976	2.869	0.333
79.000	120.573	79.996	19.995	100.893	19.972	3.132	0.351
79.500	120.741	79.996	19.995	100.894	19.972	3.100	0.342
79.999	120.960	79.996	19.996	100.893	19.970	3.294	0.358
80.500	121.112	79.996	19.996	100.892	19.972	3.152	0.379
81.000	121.325	79.997	19.996	100.891	19.970	3.238	0.368
81.499	121.494	79.995	19.997	100.892	19.974	2.979	0.374
81.999	121.651	79.997	19.995	100.892	19.973	3.040	0.354
82.499	121.865	79.996	19.996	100.894	19.976	2.885	0.348
82.999	122.033	79.996	19.995	100.895	19.976	2.869	0.377
83.499	122.215	79.996	19.995	100.897	19.975	2.961	0.366
83.999	122.400	79.996	19.995	100.896	19.972	3.123	0.359
84.499	122.626	79.997	19.995	100.896	19.974	2.997	0.389
84.999	122.854	79.997	19.996	100.896	19.974	2.995	0.433
85.500	123.004	79.996	19.995	100.896	19.973	3.053	0.416
86.001	123.214	79.997	19.996	100.896	19.971	3.181	0.369
86.501	123.361	79.997	19.995	100.897	19.972	3.159	0.358
86.999	123.602	79.998	19.994	100.899	19.972	3.100	0.372
87.499	123.743	79.997	19.995	100.900	19.971	3.199	0.385
87.999	123.917	79.997	19.996	100.900	19.973	3.092	0.349
88.499	124.149	79.998	19.995	100.900	19.970	3.278	0.361
88.999	124.366	79.998	19.995	100.901	19.972	3.143	0.428
89.499	124.527	79.997	19.996	100.900	19.970	3.296	0.414
89.999	124.711	79.997	19.995	100.899	19.971	3.175	0.361
90.499	124.919	79.996	19.994	100.900	19.971	3.215	0.368
90.999	125.155	79.996	19.995	100.900	19.970	3.289	0.418
91.499	125.342	79.998	19.995	100.899	19.970	3.276	0.434
91.999	125.555	79.998	19.995	100.899	19.969	3.312	0.412
92.499	125.696	79.996	19.996	100.900	19.971	3.181	0.377
92.999	125.940	79.996	19.996	100.899	19.970	3.265	0.369
93.499	126.117	79.997	19.995	100.899	19.972	3.107	0.403
93.999	126.291	79.997	19.996	100.899	19.971	3.215	0.386
94.499	126.549	79.997	19.995	100.900	19.971	3.209	0.391
95.000	126.751	79.996	19.995	100.900	19.973	3.077	0.446
95.500	126.963	79.997	19.994	100.900	19.971	3.188	0.437
95.999	127.190	79.996	19.994	100.900	19.967	3.440	0.427
96.499	127.376	79.996	19.996	100.900	19.970	3.273	0.426
96.999	127.618	79.998	19.996	100.900	19.970	3.257	0.420
97.499	127.789	79.997	19.996	100.900	19.972	3.150	0.420
97.999	128.002	79.996	19.995	100.899	19.972	3.164	0.399
98.499	128.216	79.996	19.996	100.899	19.972	3.166	0.405
98.999	128.460	79.996	19.995	100.898	19.967	3.463	0.442
99.499	128.654	79.995	19.994	100.899	19.968	3.375	0.448
99.999	128.847	79.997	19.994	100.899	19.971	3.190	0.413
100.499	129.065	79.996	19.995	100.900	19.971	3.224	0.399
100.999	129.293	79.998	19.995	100.900	19.970	3.258	0.428
101.499	129.505	79.997	19.996	100.900	19.972	3.152	0.443
101.999	129.703	79.998	19.994	100.900	19.969	3.301	0.425
102.499	129.906	79.997	19.995	100.901	19.968	3.366	0.405
102.999	130.132	79.997	19.995	100.901	19.973	3.082	0.415
103.499	130.341	79.996	19.995	100.902	19.971	3.222	0.432
103.999	130.533	79.997	19.995	100.905	19.972	3.141	0.418
104.499	130.769	79.997	19.995	100.912	19.971	3.224	0.414
104.999	130.961	79.997	19.994	100.912	19.970	3.242	0.428
105.500	131.205	79.998	19.995	100.891	19.973	3.096	0.432
106.000	131.417	79.998	19.995	100.871	19.970	3.297	0.446
106.500	131.627	79.999	19.994	100.856	19.970	3.297	0.439
107.000	131.871	79.999	19.994	100.845	19.966	3.503	0.438
107.499	132.092	79.998	19.996	100.868	19.967	3.451	0.460
107.999	132.326	79.999	19.994	100.914	19.969	3.332	0.460
108.499	132.570	79.998	19.995	100.944	19.968	3.398	0.466
108.999	132.772	79.999	19.995	100.957	19.968	3.380	0.462
109.499	132.968	79.997	19.994	100.961	19.970	3.265	0.422
110.000	133.181	79.999	19.994	100.937	19.971	3.229	0.404
110.500	133.436	79.997	19.994	100.911	19.967	3.447	0.438
110.999	133.665	79.997	19.995	100.900	19.966	3.512	0.476
111.499	133.903	79.997	19.995	100.899	19.967	3.450	0.475
111.999	134.123	79.997	19.995	100.899	19.969	3.362	0.462
112.499	134.335	79.998	19.995	100.899	19.964	3.654	0.445
112.999	134.548	79.998	19.995	100.898	19.968	3.414	0.429
113.499	134.834	79.999	19.994	100.898	19.966	3.524	0.462
113.999	135.020	79.998	19.995	100.898	19.967	3.438	0.485
114.499	135.261	79.998	19.995	100.898	19.966	3.522	0.449
114.999	135.492	79.997	19.994	100.898	19.967	3.440	0.450
115.499	135.727	79.997	19.994	100.897	19.970	3.252	0.470
115.999	135.945	79.998	19.995	100.897	19.968	3.371	0.460
116.500	136.206	79.997	19.995	100.898	19.966	3.503	0.466
117.000	136.432	79.997	19.996	100.897	19.966	3.562	0.483
117.499	136.642	79.996	19.996	100.897	19.970	3.260	0.461
118.000	136.878	79.997	19.995	100.897	19.966	3.512	0.441
118.500	137.125	79.995	19.995	100.899	19.970	3.260	0.465
118.999	137.368	79.996	19.996	100.899	19.969	3.339	0.487
119.500	137.602	79.996	19.996	100.899	19.968	3.418	0.483
120.000	137.803	79.997	19.994	100.899	19.973	3.096	0.456
120.499	138.026	79.996	19.995	100.899	19.971	3.175	0.429
120.999	138.297	79.997	19.995	100.897	19.969	3.321	0.459
121.499	138.541	79.995	19.995	100.897	19.970	3.234	0.505
121.999	138.731	79.997	19.994	100.897	19.972	3.162	0.475
122.499	138.982	79.995	19.996	100.897	19.967	3.472	0.437
122.999	139.222	79.996	19.996	100.897	19.966	3.544	0.466
123.499	139.477	79.996	19.998	100.896	19.968	3.389	0.493
123.999	139.674	79.997	19.996	100.897	19.970	3.290	0.473
124.499	139.946	79.996	19.997	100.897	19.971	3.186	0.461
124.999	140.149	79.996	19.995	100.896	19.970	3.296	0.472
125.499	140.400	79.996	19.995	100.896	19.970	3.265	0.464
125.999	140.630	79.997	19.995	100.896	19.972	3.132	0.468
126.499	140.890	79.996	19.996	100.895	19.969	3.317	0.486
127.000	141.095	79.996	19.995	100.895	19.970	3.272	0.477
127.501	141.343	79.995	19.995	100.896	19.966	3.533	0.459
128.000	141.586	79.995	19.995	100.896	19.970	3.276	0.472
128.500	141.827	79.996	19.996	100.897	19.969	3.319	0.487
129.000	142.049	79.996	19.995	100.897	19.969	3.301	0.473
129.500	142.328	79.996	19.996	100.896	19.968	3.405	0.482
130.000	142.568	79.996	19.996	100.896	19.969	3.321	0.510
130.500	142.827	79.997	19.995	100.896	19.973	3.090	0.509
131.000	143.034	79.996	19.995	100.896	19.971	3.187	0.482
131.500	143.307	79.997	19.995	100.896	19.972	3.106	0.473
132.000	143.579	79.996	19.996	100.896	19.969	3.355	0.513
132.500	143.826	79.995	19.995	100.897	19.971	3.231	0.532
133.000	144.037	79.996	19.995	100.898	19.971	3.182	0.489
133.500	144.286	79.996	19.996	100.898	19.971	3.214	0.459
134.000	144.552	79.996	19.995	100.898	19.973	3.062	0.487
134.500	144.770	79.996	19.996	100.898	19.972	3.108	0.500
135.000	145.032	79.996	19.995	100.897	19.971	3.197	0.482
135.500	145.283	79.995	19.996	100.897	19.973	3.080	0.497
136.000	145.530	79.997	19.995	100.897	19.969	3.330	0.506
136.500	145.755	79.996	19.996	100.897	19.969	3.317	0.485
137.000	146.026	79.996	19.996	100.895	19.971	3.206	0.484
137.500	146.245	79.997	19.996	100.891	19.969	3.301	0.493
138.000	146.513	79.995	19.995	100.891	19.969	3.308	0.488
138.500	146.761	79.996	19.995	100.891	19.973	3.083	0.502
139.000	146.974	79.997	19.996	100.890	19.971	3.180	0.489
139.500	147.242	79.996	19.995	100.889	19.973	3.058	0.471
140.000	147.496	79.998	19.996	100.890	19.969	3.328	0.501
140.500	147.740	79.996	19.996	100.889	19.969	3.301	0.510
141.000	147.968	79.996	19.996	100.888	19.970	3.232	0.485
141.500	148.210	79.995	19.996	100.888	19.971	3.195	0.471
142.000	148.454	79.994	19.997	100.890	19.972	3.105	0.478
142.500	148.690	79.997	19.996	100.890	19.974	2.982	0.483
143.000	148.939	79.995	19.996	100.890	19.970	3.261	0.482
143.500	149.220	79.995	19.995	100.890	19.971	3.216	0.508
144.000	149.457	79.996	19.995	100.891	19.971	3.222	0.524
144.500	149.740	79.996	19.996	100.891	19.971	3.188	0.519
145.000	149.969	79.996	19.996	100.893	19.972	3.105	0.516
145.500	150.233	79.995	19.997	100.893	19.972	3.151	0.502
146.000	150.441	79.996	19.997	100.894	19.974	3.027	0.482
146.500	150.657	79.995	19.995	100.894	19.975	2.930	0.448
147.000	150.961	79.996	19.996	100.894	19.972	3.158	0.472
147.500	151.185	79.995	19.996	100.894	19.975	2.944	0.524
148.000	151.452	79.995	19.996	100.894	19.973	3.096	0.510
148.500	151.679	79.995	19.995	100.895	19.973	3.043	0.493
149.000	151.972	79.994	19.995	100.894	19.974	2.986	0.507
149.500	152.180	79.996	19.997	100.893	19.972	3.146	0.510
150.000	152.443	79.996	19.995	100.890	19.971	3.218	0.486
150.500	152.720	79.995	19.995	100.889	19.973	3.092	0.505
151.000	152.930	79.994	19.996	100.887	19.975	2.950	0.513
151.500	153.186	79.994	19.996	100.885	19.971	3.187	0.477
152.000	153.454	79.995	19.995	100.886	19.974	2.987	0.495
152.500	153.684	79.994	19.996	100.890	19.978	2.748	0.511
153.000	153.936	79.996	19.996	100.892	19.974	2.987	0.490
153.500	154.188	79.994	19.995	100.893	19.975	2.924	0.493
154.000	154.442	79.994	19.996	100.893	19.975	2.933	0.505
154.500	154.647	79.995	19.996	100.894	19.974	3.016	0.483
155.000	154.893	79.995	19.996	100.894	19.975	2.915	0.455
155.500	155.166	79.995	19.996	100.893	19.971	3.176	0.485
156.000	155.416	79.995	19.996	100.890	19.975	2.953	0.521
156.500	155.676	79.996	19.996	100.886	19.972	3.133	0.516
157.000	155.913	79.994	19.996	100.886	19.971	3.225	0.503
157.500	156.168	79.995	19.996	100.883	19.972	3.133	0.495
158.000	156.376	79.996	19.996	100.879	19.971	3.169	0.478
158.500	156.644	79.995	19.997	100.880	19.976	2.872	0.469
159.000	156.910	79.995	19.996	100.886	19.974	3.000	0.505
159.500	157.182	79.996	19.996	100.885	19.973	3.091	0.536
160.000	157.424	79.996	19.997	100.885	19.972	3.163	0.526
160.500	157.655	79.996	19.996	100.888	19.975	2.962	0.494
161.000	157.947	79.996	19.995	100.891	19.972	3.154	0.498
161.500	158.163	79.996	19.996	100.887	19.971	3.196	0.516
162.000	158.371	79.995	19.996	100.885	19.971	3.194	0.466
162.500	158.638	79.996	19.995	100.883	19.971	3.165	0.449
163.000	158.913	79.996	19.995	100.877	19.971	3.206	0.509
163.500	159.163	79.995	19.996	100.872	19.974	3.014	0.534
164.000	159.398	79.996	19.996	100.872	19.972	3.106	0.505
164.500	159.661	79.996	19.996	100.870	19.973	3.089	0.491
165.000	159.916	79.994	19.996	100.867	19.973	3.035	0.508
165.500	160.148	79.994	19.996	100.869	19.974	3.023	0.503
166.000	160.409	79.996	19.995	100.869	19.972	3.161	0.490
166.500	160.641	79.996	19.995	100.870	19.973	3.070	0.493
167.000	160.915	79.995	19.996	100.875	19.972	3.149	0.500
167.500	161.183	79.996	19.996	100.879	19.971	3.228	0.524
168.000	161.437	79.995	19.996	100.878	19.971	3.224	0.532
168.500	161.705	79.996	19.996	100.878	19.971	3.176	0.522
169.000	161.921	79.997	19.996	100.876	19.972	3.141	0.503
169.500	162.175	79.995	19.996	100.872	19.973	3.086	0.477
170.000	162.396	79.996	19.995	100.868	19.971	3.172	0.473
170.500	162.622	79.994	19.996	100.866	19.975	2.938	0.461
171.000	162.894	79.994	19.996	100.864	19.972	3.150	0.472
171.500	163.149	79.995	19.996	100.862	19.973	3.073	0.512
172.000	163.387	79.995	19.996	100.862	19.974	3.023	0.510
172.500	163.635	79.995	19.995	100.863	19.974	3.023	0.490
173.000	163.895	79.993	19.996	100.866	19.971	3.203	0.497
173.500	164.155	79.996	19.996	100.867	19.974	2.990	0.514
174.000	164.390	79.994	19.996	100.866	19.972	3.098	0.507
174.500	164.665	79.994	19.996	100.865	19.974	2.976	0.502
175.000	164.875	79.995	19.995	100.864	19.973	3.059	0.498
175.500	165.154	79.995	19.995	100.861	19.971	3.206	0.487
176.000	165.374	79.995	19.995	100.860	19.970	3.269	0.494
176.500	165.650	79.996	19.996	100.863	19.973	3.068	0.498
177.000	165.901	79.996	19.995	100.863	19.974	3.030	0.511
177.500	166.120	79.995	19.995	100.862	19.975	2.960	0.498
178.000	166.443	79.996	19.995	100.861	19.978	2.755	0.506
178.500	166.696	79.996	19.996	100.861	19.973	3.064	0.559
179.000	166.950	79.995	19.995	100.858	19.977	2.823	0.542
179.500	167.174	79.995	19.995	100.858	19.977	2.792	0.493
180.000	167.441	79.997	19.995	100.859	19.976	2.837	0.485
180.500	167.676	79.997	19.995	100.859	19.976	2.864	0.496
181.000	167.913	79.997	19.995	100.859	19.973	3.051	0.487
181.500	168.185	79.996	19.995	100.859	19.976	2.859	0.491
182.000	168.431	79.997	19.994	100.858	19.974	2.979	0.513
182.500	168.658	79.995	19.996	100.859	19.976	2.884	0.496
183.000	168.942	79.996	19.995	100.859	19.975	2.908	0.492
183.500	169.199	79.996	19.995	100.859	19.975	2.929	0.526
184.000	169.442	79.997	19.995	100.859	19.974	3.001	0.521
184.500	169.732	79.998	19.995	100.860	19.977	2.769	0.516
185.000	169.965	79.997	19.995	100.858	19.979	2.672	0.528
185.500	170.225	79.997	19.995	100.859	19.979	2.666	0.508
186.000	170.461	79.996	19.994	100.859	19.977	2.808	0.494
186.500	170.680	79.998	19.995	100.859	19.976	2.853	0.476
187.000	170.948	79.998	19.994	100.858	19.977	2.794	0.471
187.500	171.185	79.997	19.995	100.858	19.978	2.762	0.495
188.000	171.453	79.997	19.994	100.858	19.976	2.891	0.505
188.500	171.694	79.998	19.996	100.858	19.976	2.889	0.507
189.000	171.961	79.998	19.995	100.858	19.977	2.816	0.509
189.500	172.163	79.998	19.995	100.858	19.976	2.878	0.489
190.000	172.426	79.997	19.995	100.857	19.979	2.668	0.467
190.500	172.651	79.998	19.994	100.857	19.978	2.706	0.476
191.000	172.942	79.997	19.995	100.857	19.979	2.661	0.502
191.500	173.256	79.998	19.995	100.856	19.979	2.645	0.561
192.000	173.460	79.997	19.994	100.856	19.981	2.510	0.562
192.500	173.737	79.999	19.995	100.856	19.980	2.573	0.499
193.000	173.998	79.998	19.996	100.856	19.979	2.690	0.509
193.500	174.236	79.997	19.995	100.856	19.978	2.758	0.518
194.000	174.510	79.997	19.995	100.856	19.978	2.745	0.506
194.500	174.758	79.997	19.996	100.854	19.981	2.529	0.517
195.000	174.984	79.997	19.995	100.853	19.983	2.436	0.498
195.500	175.232	79.999	19.996	100.853	19.979	2.693	0.474
196.000	175.486	79.997	19.996	100.853	19.981	2.555	0.488
196.500	175.759	79.998	19.995	100.851	19.981	2.547	0.514
197.000	176.010	79.996	19.996	100.852	19.980	2.596	0.525
197.500	176.222	79.997	19.995	100.853	19.981	2.553	0.494
198.000	176.476	79.997	19.995	100.853	19.978	2.731	0.465
198.500	176.722	79.997	19.995	100.853	19.979	2.639	0.483
199.000	176.987	79.997	19.996	100.854	19.979	2.639	0.505
199.500	177.260	79.996	19.994	100.852	19.979	2.692	0.524
200.000	177.473	79.995	19.996	100.848	19.978	2.711	0.512
200.500	177.736	79.995	19.995	100.847	19.977	2.790	0.481
201.000	177.982	79.996	19.995	100.846	19.977	2.810	0.493
201.500	178.269	79.996	19.996	100.847	19.979	2.672	0.521
202.000	178.467	79.994	19.996	100.848	19.977	2.819	0.509
202.500	178.703	79.995	19.995	100.851	19.978	2.745	0.460
203.000	178.979	79.995	19.996	100.851	19.978	2.756	0.473
203.500	179.252	79.996	19.995	100.851	19.981	2.542	0.530
204.000	179.480	79.995	19.995	100.850	19.976	2.843	0.525
204.500	179.720	79.995	19.996	100.851	19.980	2.573	0.485
205.000	179.992	79.997	19.996	100.851	19.978	2.710	0.490
205.500	180.216	79.995	19.995	100.847	19.977	2.816	0.504
206.000	180.473	79.996	19.996	100.847	19.979	2.690	0.488
206.500	180.761	79.997	19.995	100.848	19.979	2.650	0.513
207.000	180.970	79.998	19.996	100.846	19.978	2.764	0.521
207.500	181.219	79.997	19.995	100.847	19.976	2.884	0.478
208.000	181.485	79.996	19.995	100.850	19.976	2.841	0.487
208.500	181.758	79.996	19.996	100.851	19.980	2.587	0.526
209.000	181.993	79.994	19.996	100.852	19.977	2.778	0.523
209.500	182.232	79.996	19.995	100.855	19.981	2.564	0.492
210.000	182.481	79.996	19.996	100.854	19.982	2.485	0.481
210.500	182.730	79.996	19.995	100.854	19.979	2.686	0.493
211.000	182.965	79.995	19.996	100.849	19.978	2.702	0.491
211.500	183.236	79.995	19.996	100.846	19.982	2.472	0.495
212.000	183.469	79.995	19.995	100.845	19.980	2.585	0.505
212.500	183.740	79.996	19.995	100.846	19.977	2.770	0.504
213.000	183.970	79.996	19.996	100.847	19.978	2.711	0.502
213.500	184.245	79.995	19.995	100.851	19.978	2.758	0.503
214.000	184.461	79.995	19.995	100.849	19.980	2.574	0.498
214.500	184.699	79.996	19.996	100.850	19.978	2.707	0.472
215.000	184.940	79.997	19.995	100.851	19.979	2.675	0.466
215.500	185.235	79.996	19.996	100.851	19.980	2.612	0.508
216.000	185.463	79.997	19.995	100.853	19.979	2.676	0.529
216.500	185.722	79.997	19.996	100.857	19.978	2.743	0.505
217.000	185.982	79.996	19.994	100.855	19.981	2.513	0.503
217.500	186.241	79.996	19.994	100.855	19.981	2.506	0.519
218.000	186.447	79.996	19.994	100.854	19.981	2.567	0.492
218.500	186.741	79.998	19.994	100.854	19.983	2.434	0.482
219.000	186.986	79.997	19.996	100.855	19.982	2.470	0.519
219.500	187.230	79.997	19.994	100.855	19.980	2.587	0.514
220.000	187.454	79.996	19.994	100.856	19.980	2.572	0.479
220.500	187.724	79.997	19.995	100.856	19.982	2.459	0.481
221.000	187.984	79.997	19.995	100.853	19.986	2.229	0.512
221.500	188.205	79.995	19.995	100.852	19.980	2.585	0.506
222.000	188.438	79.997	19.994	100.853	19.983	2.399	0.467
222.500	188.714	79.996	19.995	100.851	19.983	2.383	0.481
223.000	188.964	79.995	19.995	100.846	19.980	2.585	0.517
223.500	189.202	79.996	19.994	100.842	19.983	2.383	0.507
224.000	189.474	79.997	19.995	100.837	19.981	2.504	0.499
224.500	189.672	79.996	19.995	100.833	19.982	2.461	0.490
225.000	189.915	79.996	19.995	100.827	19.982	2.446	0.456
225.500	190.148	79.996	19.995	100.827	19.982	2.499	0.459
226.000	190.414	79.997	19.996	100.827	19.980	2.630	0.487
226.500	190.680	79.994	19.995	100.827	19.980	2.581	0.515
227.000	190.910	79.994	19.996	100.825	19.980	2.596	0.514
227.500	191.165	79.996	19.995	100.826	19.979	2.660	0.491
228.000	191.401	79.997	19.995	100.828	19.981	2.563	0.488
228.500	191.652	79.994	19.995	100.831	19.978	2.745	0.489
229.000	191.926	79.995	19.994	100.834	19.980	2.582	0.506
229.500	192.140	79.996	19.994	100.835	19.981	2.528	0.507
230.000	192.377	79.993	19.995	100.839	19.979	2.646	0.469
230.500	192.628	79.995	19.996	100.838	19.978	2.705	0.469
231.000	192.860	79.995	19.995	100.835	19.981	2.567	0.486
231.500	193.139	79.995	19.995	100.834	19.980	2.615	0.497
232.000	193.384	79.995	19.996	100.833	19.979	2.696	0.517
232.500	193.645	79.994	19.995	100.828	19.982	2.495	0.515
233.000	193.917	79.994	19.995	100.828	19.980	2.615	0.520
233.500	194.156	79.994	19.996	100.830	19.981	2.549	0.522
234.000	194.395	79.995	19.996	100.832	19.980	2.615	0.494
234.500	194.616	79.994	19.996	100.834	19.979	2.680	0.469
235.000	194.882	79.995	19.995	100.839	19.981	2.552	0.473
235.500	195.122	79.995	19.996	100.841	19.981	2.560	0.497
236.000	195.392	79.996	19.995	100.838	19.980	2.608	0.508
236.500	195.608	79.996	19.996	100.834	19.977	2.799	0.498
237.000	195.850	79.994	19.996	100.832	19.982	2.481	0.473
237.500	196.105	79.995	19.996	100.829	19.977	2.774	0.478
238.000	196.317	79.995	19.995	100.828	19.980	2.603	0.482
238.500	196.586	79.994	19.996	100.835	19.979	2.660	0.474
239.000	196.837	79.994	19.996	100.837	19.979	2.673	0.500
239.500	197.075	79.994	19.995	100.842	19.979	2.667	0.504
240.000	197.329	79.995	19.995	100.847	19.980	2.599	0.490
240.500	197.521	79.995	19.995	100.847	19.979	2.691	0.469
241.000	197.777	79.995	19.997	100.840	19.977	2.784	0.447
241.500	198.022	79.996	19.996	100.837	19.978	2.759	0.475
242.000	198.296	79.995	19.996	100.831	19.977	2.831	0.510
242.500	198.499	79.997	19.996	100.824	19.978	2.754	0.498
243.000	198.761	79.995	19.996	100.821	19.978	2.711	0.471
243.500	198.975	79.996	19.997	100.822	19.979	2.668	0.470
244.000	199.215	79.997	19.996	100.826	19.977	2.786	0.465
244.500	199.508	79.996	19.996	100.827	19.976	2.865	0.494
245.000	199.733	79.996	19.996	100.827	19.981	2.505	0.525
245.500	199.965	79.997	19.995	100.827	19.980	2.574	0.488
246.000	200.223	79.997	19.996	100.828	19.979	2.671	0.474
246.500	200.476	79.998	19.996	100.827	19.977	2.772	0.501
247.000	200.697	79.997	19.995	100.833	19.979	2.696	0.493
247.500	200.993	79.998	19.996	100.838	19.977	2.779	0.496
248.000	201.188	79.997	19.996	100.838	19.978	2.701	0.504
248.500	201.473	79.997	19.995	100.836	19.979	2.655	0.485
249.000	201.697	79.999	19.996	100.833	19.982	2.457	0.495
249.500	201.952	79.998	19.996	100.827	19.979	2.682	0.494
250.000	202.186	79.998	19.996	100.821	19.978	2.741	0.484
250.500	202.428	79.998	19.995	100.821	19.979	2.635	0.482
251.000	202.680	79.998	19.994	100.823	19.980	2.608	0.485
251.500	202.926	79.996	19.995	100.822	19.981	2.513	0.496
252.000	203.179	79.997	19.996	100.821	19.978	2.755	0.499
252.500	203.414	79.997	19.996	100.823	19.977	2.781	0.493
253.000	203.704	79.997	19.996	100.829	19.979	2.698	0.506
253.500	203.935	79.998	19.995	100.828	19.982	2.484	0.523
254.000	204.172	79.996	19.996	100.830	19.979	2.644	0.495
254.500	204.391	79.996	19.996	100.831	19.979	2.640	0.462
255.000	204.633	79.996	19.997	100.829	19.978	2.703	0.459
255.500	204.882	79.995	19.996	100.824	19.980	2.592	0.476
256.000	205.128	79.996	19.996	100.823	19.982	2.498	0.493
256.500	205.366	79.996	19.997	100.822	19.978	2.764	0.489
257.000	205.615	79.997	19.996	100.821	19.978	2.727	0.485
257.500	205.827	79.996	19.996	100.821	19.979	2.694	0.474
258.000	206.102	79.996	19.997	100.821	19.981	2.525	0.474
258.500	206.345	79.995	19.996	100.821	19.980	2.588	0.502
259.000	206.624	79.996	19.996	100.820	19.979	2.642	0.520
259.500	206.876	79.995	19.997	100.820	19.977	2.820	0.527
260.000	207.100	79.996	19.996	100.821	19.976	2.835	0.504
260.500	207.367	79.996	19.996	100.821	19.980	2.584	0.484
261.000	207.636	79.995	19.996	100.821	19.981	2.550	0.513
261.500	207.866	79.996	19.996	100.820	19.977	2.789	0.517
262.000	208.117	79.996	19.997	100.821	19.983	2.401	0.490
262.500	208.400	79.994	19.998	100.819	19.981	2.527	0.508
263.000	208.618	79.997	19.997	100.819	19.978	2.726	0.518
263.500	208.862	79.995	19.996	100.820	19.980	2.588	0.482
264.000	209.092	79.996	19.997	100.820	19.979	2.658	0.468
264.500	209.309	79.995	19.997	100.819	19.981	2.554	0.460
265.000	209.576	79.995	19.997	100.819	19.980	2.628	0.465
265.500	209.800	79.996	19.997	100.818	19.977	2.786	0.488
266.000	210.063	79.995	19.996	100.817	19.978	2.764	0.489
266.500	210.329	79.997	19.996	100.819	19.977	2.786	0.509
267.000	210.551	79.996	19.997	100.820	19.980	2.601	0.509
267.500	210.811	79.995	19.996	100.821	19.978	2.728	0.485
268.000	211.056	79.997	19.996	100.822	19.979	2.635	0.493
268.500	211.272	79.996	19.997	100.822	19.979	2.700	0.483
269.000	211.591	79.996	19.998	100.820	19.982	2.464	0.498
269.500	211.806	79.997	19.997	100.821	19.982	2.453	0.534
270.000	212.021	79.997	19.997	100.821	19.981	2.559	0.482
270.500	212.305	79.997	19.996	100.819	19.983	2.383	0.465
271.000	212.526	79.998	19.996	100.820	19.978	2.719	0.502
271.500	212.769	79.997	19.997	100.819	19.983	2.394	0.484
272.000	213.025	79.998	19.996	100.818	19.983	2.423	0.481
272.500	213.245	79.996	19.997	100.816	19.983	2.428	0.488
273.000	213.518	79.996	19.995	100.816	19.985	2.264	0.484
273.500	213.741	79.997	19.996	100.816	19.983	2.396	0.494
274.000	214.012	79.998	19.994	100.816	19.981	2.532	0.495
274.500	214.225	79.997	19.995	100.816	19.981	2.516	0.489
275.000	214.512	79.998	19.994	100.815	19.984	2.320	0.493
275.500	214.770	79.998	19.993	100.815	19.985	2.264	0.523
276.000	214.992	79.998	19.994	100.815	19.982	2.500	0.512
276.500	215.242	79.998	19.995	100.814	19.983	2.423	0.475
277.000	215.496	79.999	19.993	100.815	19.981	2.545	0.488
277.500	215.718	79.997	19.994	100.815	19.983	2.388	0.490
278.000	215.953	79.999	19.994	100.815	19.984	2.354	0.467
278.500	216.187	79.997	19.995	100.816	19.982	2.478	0.463
279.000	216.489	79.997	19.995	100.817	19.982	2.480	0.503
279.500	216.714	79.997	19.994	100.818	19.985	2.288	0.532
280.000	216.937	79.996	19.994	100.818	19.985	2.288	0.487
280.500	217.174	79.998	19.996	100.818	19.986	2.205	0.453
281.000	217.478	79.996	19.997	100.818	19.982	2.496	0.500
281.500	217.666	79.996	19.997	100.819	19.986	2.207	0.517
282.000	217.946	79.994	19.995	100.819	19.984	2.358	0.480
282.500	218.151	79.996	19.994	100.818	19.985	2.302	0.476
283.000	218.446	79.995	19.995	100.818	19.986	2.221	0.493
283.500	218.697	79.994	19.994	100.818	19.981	2.516	0.523
284.000	218.939	79.995	19.996	100.818	19.982	2.498	0.520
284.500	219.196	79.995	19.995	100.819	19.981	2.545	0.495
285.000	219.420	79.995	19.995	100.820	19.982	2.439	0.490
285.500	219.677	79.994	19.996	100.821	19.982	2.439	0.481
286.000	219.907	79.995	19.995	100.821	19.985	2.273	0.484
286.500	220.171	79.994	19.995	100.821	19.981	2.568	0.490
287.000	220.424	79.995	19.996	100.821	19.981	2.509	0.506
287.500	220.657	79.996	19.996	100.821	19.982	2.473	0.502
288.000	220.905	79.996	19.996	100.821	19.980	2.576	0.483
288.500	221.151	79.995	19.995	100.820	19.980	2.604	0.487
289.000	221.387	79.995	19.995	100.819	19.984	2.340	0.488
289.500	221.651	79.996	19.995	100.818	19.985	2.272	0.491
290.000	221.881	79.995	19.995	100.819	19.982	2.495	0.497
290.500	222.176	79.993	19.996	100.817	19.979	2.662	0.510
291.000	222.413	79.994	19.996	100.818	19.980	2.611	0.529
291.500	222.672	79.995	19.995	100.819	19.980	2.593	0.514
292.000	222.888	79.995	19.995	100.820	19.980	2.615	0.486
292.500	223.148	79.995	19.995	100.820	19.981	2.529	0.476
293.000	223.360	79.994	19.994	100.821	19.981	2.568	0.473
293.500	223.662	79.995	19.995	100.820	19.983	2.397	0.493
294.000	223.879	79.995	19.995	100.820	19.982	2.459	0.517
294.500	224.092	79.995	19.995	100.819	19.981	2.529	0.475
295.000	224.347	79.996	19.994	100.820	19.979	2.680	0.449
295.500	224.618	79.995	19.995	100.819	19.983	2.432	0.496
296.000	224.859	79.995	19.995	100.820	19.979	2.696	0.519
296.500	225.114	79.995	19.996	100.820	19.981	2.549	0.504
297.000	225.385	79.995	19.996	100.820	19.983	2.430	0.510
297.500	225.610	79.995	19.995	100.821	19.987	2.128	0.511
298.000	225.859	79.995	19.995	100.820	19.982	2.450	0.485
298.500	226.083	79.997	19.995	100.820	19.982	2.475	0.474
299.000	226.367	79.995	19.995	100.820	19.977	2.793	0.491
299.500	226.596	79.996	19.996	100.820	19.984	2.327	0.511
300.000	226.806	79.996	19.995	100.819	19.985	2.255	0.476
300.500	227.082	79.996	19.997	100.818	19.983	2.403	0.462
301.000	227.297	79.996	19.996	100.818	19.982	2.493	0.488
301.500	227.574	79.996	19.995	100.818	19.983	2.424	0.492
302.000	227.828	79.996	19.994	100.815	19.984	2.360	0.512
302.500	228.038	79.996	19.994	100.815	19.983	2.394	0.497
303.000	228.319	79.996	19.995	100.817	19.982	2.441	0.477
303.500	228.555	79.996	19.995	100.817	19.979	2.694	0.504
304.000	228.825	79.996	19.995	100.818	19.982	2.469	0.511
304.500	229.035	79.997	19.996	100.820	19.982	2.477	0.493
305.000	229.323	79.996	19.995	100.821	19.980	2.595	0.489
305.500	229.547	79.996	19.995	100.821	19.982	2.450	0.505
306.000	229.842	79.996	19.994	100.821	19.981	2.529	0.516
306.500	230.083	79.995	19.994	100.821	19.979	2.645	0.528
307.000	230.289	79.996	19.994	100.821	19.983	2.397	0.492
307.500	230.572	79.996	19.995	100.821	19.983	2.404	0.468
308.000	230.805	79.996	19.994	100.818	19.980	2.602	0.502
308.500	231.103	79.995	19.994	100.817	19.979	2.683	0.523
309.000	231.314	79.996	19.994	100.816	19.982	2.455	0.520
309.500	231.561	79.995	19.995	100.816	19.982	2.457	0.484
310.000	231.840	79.996	19.996	100.817	19.979	2.640	0.492
310.500	232.081	79.996	19.995	100.819	19.981	2.563	0.523
311.000	232.357	79.997	19.995	100.818	19.980	2.570	0.518
311.500	232.602	79.995	19.996	100.818	19.980	2.608	0.519
312.000	232.820	79.995	19.995	100.818	19.975	2.934	0.492
312.500	233.077	79.995	19.994	100.817	19.977	2.799	0.469
313.000	233.296	79.996	19.995	100.816	19.976	2.835	0.476
313.500	233.530	79.995	19.996	100.817	19.977	2.818	0.464
314.000	233.813	79.995	19.996	100.816	19.979	2.660	0.485
314.500	234.022	79.995	19.995	100.816	19.977	2.780	0.505
315.000	234.272	79.995	19.994	100.817	19.975	2.925	0.476
315.500	234.569	79.995	19.995	100.818	19.980	2.629	0.503
316.000	234.809	79.996	19.996	100.817	19.977	2.785	0.542
316.500	235.047	79.995	19.995	100.816	19.978	2.765	0.508
317.000	235.330	79.996	19.995	100.813	19.979	2.666	0.499
317.500	235.550	79.995	19.995	100.810	19.981	2.554	0.512
318.000	235.755	79.996	19.995	100.808	19.980	2.575	0.464
318.500	236.043	79.996	19.996	100.806	19.978	2.714	0.459
319.000	236.294	79.994	19.996	100.808	19.978	2.750	0.516
319.500	236.538	79.995	19.996	100.811	19.980	2.575	0.517
320.000	236.821	79.994	19.996	100.814	19.980	2.624	0.510
320.500	237.041	79.995	19.995	100.817	19.979	2.690	0.515
321.000	237.272	79.995	19.996	100.819	19.979	2.656	0.477
321.500	237.567	79.996	19.996	100.819	19.976	2.834	0.488
322.000	237.780	79.996	19.996	100.816	19.977	2.815	0.517
322.500	238.010	79.995	19.996	100.809	19.977	2.831	0.476
323.000	238.293	79.996	19.997	100.784	19.977	2.800	0.478
323.500	238.505	79.995	19.998	100.767	19.979	2.699	0.504
324.000	238.742	79.996	19.995	100.760	19.975	2.902	0.472
324.500	239.014	79.997	19.996	100.758	19.979	2.692	0.479
325.000	239.250	79.996	19.996	100.765	19.981	2.557	0.508
325.500	239.460	79.998	19.995	100.799	19.977	2.821	0.476
326.000	239.715	79.996	19.996	100.844	19.979	2.640	0.455
326.500	239.927	79.997	19.996	100.852	19.977	2.789	0.467
327.000	240.226	79.996	19.996	100.856	19.977	2.770	0.489
327.500	240.489	79.997	19.997	100.856	19.980	2.626	0.536
328.000	240.713	79.996	19.995	100.841	19.980	2.618	0.524
328.500	240.950	79.997	19.996	100.811	19.980	2.572	0.474
329.000	241.202	79.996	19.996	100.810	19.980	2.615	0.475
329.500	241.478	79.996	19.997	100.810	19.980	2.620	0.508
330.000	241.697	79.996	19.996	100.809	19.978	2.739	0.511
330.500	241.982	79.998	19.995	100.812	19.980	2.581	0.499
331.000	242.228	79.996	19.995	100.814	19.981	2.512	0.518
331.500	242.456	79.997	19.996	100.813	19.981	2.512	0.502
332.000	242.728	79.997	19.995	100.812	19.978	2.719	0.487
332.500	243.007	79.998	19.996	100.811	19.979	2.692	0.526
333.000	243.238	79.998	19.995	100.812	19.977	2.771	0.531
333.500	243.521	79.997	19.996	100.812	19.980	2.599	0.512
334.000	243.746	79.997	19.996	100.813	19.978	2.752	0.511
334.500	243.982	79.997	19.996	100.811	19.982	2.464	0.485
335.000	244.204	79.997	19.996	100.806	19.982	2.475	0.460
335.500	244.465	79.996	19.995	100.801	19.978	2.761	0.471
336.000	244.696	79.997	19.996	100.802	19.982	2.442	0.487
336.500	244.943	79.998	19.996	100.801	19.979	2.644	0.485
337.000	245.228	79.997	19.995	100.803	19.980	2.618	0.505
337.500	245.413	79.996	19.997	100.809	19.978	2.757	0.501
338.000	245.706	79.997	19.996	100.812	19.977	2.777	0.474
338.500	245.909	79.996	19.996	100.810	19.978	2.753	0.487
339.000	246.232	79.998	19.996	100.811	19.980	2.633	0.511
339.500	246.457	79.996	19.996	100.813	19.979	2.643	0.537
340.000	246.691	79.997	19.994	100.813	19.978	2.730	0.504
340.500	246.963	79.995	19.996	100.813	19.978	2.715	0.483
341.000	247.195	79.997	19.995	100.813	19.977	2.803	0.505
341.500	247.424	79.996	19.995	100.811	19.981	2.526	0.483
342.000	247.686	79.996	19.999	100.809	19.980	2.611	0.476
342.500	247.934	79.996	19.997	100.809	19.977	2.807	0.500
343.000	248.157	79.997	19.998	100.811	19.981	2.523	0.490
343.500	248.416	79.995	19.998	100.811	19.977	2.818	0.477
344.000	248.688	79.995	19.997	100.811	19.979	2.672	0.507
344.500	248.912	79.995	19.996	100.811	19.981	2.503	0.514
345.000	249.217	79.995	19.996	100.810	19.983	2.435	0.513
345.500	249.442	79.996	19.996	100.809	19.980	2.584	0.529
346.000	249.733	79.996	19.995	100.808	19.981	2.555	0.522
346.500	249.981	79.995	19.996	100.811	19.981	2.546	0.527
347.000	250.258	79.996	19.996	100.813	19.979	2.696	0.533
347.500	250.484	79.996	19.996	100.814	19.979	2.672	0.514
348.000	250.769	79.997	19.996	100.812	19.979	2.696	0.506
348.500	251.008	79.996	19.996	100.809	19.981	2.530	0.517
349.000	251.295	79.995	19.995	100.806	19.980	2.613	0.525
349.500	251.486	79.997	19.995	100.802	19.977	2.820	0.502
350.000	251.740	79.996	19.995	100.800	19.976	2.836	0.461
350.500	252.051	79.995	19.996	100.799	19.977	2.771	0.505
351.000	252.268	79.996	19.996	100.801	19.980	2.602	0.547
351.500	252.527	79.995	19.995	100.802	19.976	2.859	0.502
352.000	252.753	79.996	19.996	100.800	19.978	2.715	0.480
352.500	252.961	79.996	19.996	100.798	19.980	2.627	0.459
353.000	253.247	79.996	19.996	100.800	19.979	2.650	0.465
353.500	253.517	79.996	19.996	100.802	19.976	2.874	0.525
354.000	253.752	79.996	19.995	100.802	19.977	2.811	0.530
354.500	254.020	79.998	19.996	100.804	19.978	2.703	0.504
355.000	254.249	79.996	19.995	100.803	19.980	2.600	0.500
355.500	254.534	79.996	19.995	100.799	19.978	2.717	0.505
356.000	254.785	79.997	19.997	100.800	19.978	2.760	0.525
356.500	255.005	79.997	19.996	100.801	19.980	2.633	0.504
357.000	255.220	79.996	19.996	100.802	19.981	2.532	0.453
357.500	255.535	79.996	19.996	100.805	19.981	2.548	0.483
358.000	255.756	79.996	19.996	100.807	19.979	2.680	0.534
358.500	256.020	79.997	19.996	100.808	19.980	2.581	0.511
359.000	256.265	79.996	19.996	100.808	19.979	2.687	0.497
359.500	256.548	79.999	19.996	100.810	19.981	2.563	0.518
360.000	256.730	79.996	19.996	100.813	19.981	2.548	0.496
360.500	257.004	79.997	19.996	100.817	19.979	2.645	0.461
361.000	257.236	79.995	19.997	100.816	19.980	2.579	0.481
361.500	257.487	79.996	19.997	100.812	19.982	2.489	0.495
362.000	257.743	79.996	19.997	100.806	19.982	2.498	0.495
362.500	257.999	79.997	19.996	100.801	19.980	2.633	0.509
363.000	258.250	79.997	19.996	100.795	19.979	2.665	0.509
363.500	258.514	79.995	19.995	100.795	19.980	2.607	0.511
364.000	258.733	79.997	19.995	100.798	19.977	2.792	0.499
364.500	259.000	79.995	19.995	100.801	19.977	2.778	0.485
365.000	259.218	79.996	19.995	100.799	19.978	2.721	0.486
365.500	259.502	79.994	19.996	100.799	19.978	2.715	0.494
366.000	259.738	79.994	19.995	100.795	19.981	2.541	0.511
366.500	259.993	79.995	19.994	100.795	19.978	2.710	0.506
367.000	260.237	79.995	19.996	100.798	19.981	2.556	0.495
367.500	260.472	79.995	19.995	100.802	19.980	2.628	0.489
368.000	260.740	79.994	19.995	100.807	19.977	2.771	0.491
368.500	260.966	79.994	19.995	100.809	19.981	2.539	0.498
369.000	261.246	79.995	19.995	100.809	19.982	2.446	0.500
369.500	261.470	79.995	19.996	100.805	19.981	2.530	0.506
370.000	261.713	79.995	19.995	100.806	19.982	2.453	0.486
370.500	261.954	79.995	19.996	100.803	19.980	2.604	0.475
371.000	262.226	79.995	19.995	100.802	19.983	2.418	0.498
371.500	262.487	79.995	19.996	100.805	19.982	2.469	0.523
372.000	262.742	79.994	19.996	100.809	19.982	2.474	0.525
372.500	262.959	79.994	19.994	100.806	19.982	2.447	0.494
373.000	263.228	79.995	19.995	100.804	19.983	2.420	0.479
373.500	263.467	79.994	19.995	100.801	19.982	2.496	0.497
374.000	263.721	79.995	19.995	100.799	19.983	2.397	0.501
374.500	263.974	79.995	19.996	100.794	19.982	2.472	0.500
375.000	264.222	79.996	19.993	100.792	19.981	2.561	0.503
375.500	264.470	79.994	19.995	100.792	19.983	2.373	0.498
376.000	264.719	79.996	19.995	100.794	19.983	2.381	0.497
376.500	264.947	79.995	19.995	100.793	19.980	2.613	0.488
377.000	265.225	79.995	19.995	100.798	19.981	2.526	0.491
377.500	265.403	79.995	19.994	100.806	19.985	2.264	0.480
378.000	265.677	79.995	19.996	100.811	19.982	2.496	0.454
378.500	265.955	79.994	19.995	100.814	19.981	2.528	0.502
379.000	266.195	79.995	19.995	100.816	19.982	2.501	0.535
379.500	266.419	79.997	19.995	100.810	19.984	2.307	0.491
380.000	266.669	79.995	19.996	100.803	19.984	2.348	0.469
380.500	266.936	79.996	19.996	100.802	19.983	2.391	0.495
381.000	267.200	79.996	19.995	100.801	19.983	2.417	0.524
381.500	267.423	79.995	19.996	100.794	19.981	2.514	0.509
382.000	267.683	79.997	19.996	100.794	19.981	2.524	0.485
382.500	267.896	79.996	19.995	100.796	19.981	2.553	0.478
383.000	268.145	79.997	19.995	100.796	19.984	2.366	0.468
383.500	268.455	79.997	19.995	100.795	19.982	2.485	0.511
384.000	268.708	79.995	19.995	100.803	19.982	2.469	0.561
384.500	268.963	79.998	19.995	100.803	19.981	2.550	0.535
385.000	269.180	79.996	19.995	100.803	19.981	2.519	0.490
385.500	269.394	79.996	19.995	100.798	19.982	2.476	0.451
386.000	269.660	79.996	19.995	100.797	19.978	2.764	0.455
386.500	269.936	79.996	19.995	100.790	19.979	2.690	0.511
387.000	270.200	79.995	19.994	100.792	19.980	2.603	0.541
387.500	270.454	79.995	19.995	100.790	19.980	2.623	0.529
388.000	270.703	79.995	19.995	100.791	19.981	2.553	0.511
388.500	270.952	79.995	19.995	100.790	19.980	2.596	0.500
389.000	271.202	79.995	19.995	100.790	19.976	2.846	0.498
389.500	271.470	79.995	19.995	100.789	19.977	2.772	0.509
390.000	271.684	79.995	19.996	100.791	19.976	2.886	0.500
390.500	271.966	79.996	19.995	100.792	19.977	2.772	0.489
391.000	272.207	79.994	19.996	100.791	19.976	2.869	0.509
391.500	272.473	79.995	19.996	100.791	19.978	2.711	0.515
392.000	272.729	79.996	19.996	100.794	19.981	2.533	0.515
392.500	272.980	79.994	19.996	100.792	19.979	2.693	0.515
393.000	273.212	79.996	19.995	100.792	19.984	2.352	0.495
393.500	273.448	79.997	19.996	100.793	19.983	2.395	0.475
394.000	273.693	79.995	19.995	100.795	19.981	2.506	0.474
394.500	273.948	79.996	19.996	100.791	19.982	2.485	0.490
395.000	274.217	79.996	19.995	100.793	19.984	2.355	0.512
395.500	274.423	79.995	19.996	100.792	19.980	2.569	0.500
396.000	274.692	79.997	19.995	100.791	19.982	2.488	0.475
396.500	274.950	79.995	19.995	100.791	19.981	2.505	0.501
397.000	275.182	79.995	19.995	100.792	19.979	2.661	0.509
397.500	275.446	79.995	19.994	100.788	19.984	2.359	0.493
398.000	275.689	79.996	19.995	100.786	19.981	2.548	0.501
398.500	275.936	79.996	19.996	100.788	19.983	2.375	0.499
399.000	276.188	79.995	19.994	100.787	19.982	2.479	0.495
399.500	276.415	79.995	19.995	100.786	19.984	2.319	0.489
400.000	276.658	79.996	19.996	100.785	19.985	2.300	0.474
400.500	276.906	79.994	19.995	100.786	19.981	2.533	0.480
401.000	277.171	79.995	19.995	100.783	19.983	2.422	0.502
401.500	277.421	79.995	19.995	100.783	19.984	2.327	0.514
402.000	277.649	79.995	19.995	100.782	19.982	2.449	0.497
402.500	277.872	79.995	19.995	100.782	19.981	2.508	0.465
403.000	278.129	79.994	19.995	100.782	19.984	2.318	0.466
403.500	278.392	79.994	19.995	100.781	19.983	2.386	0.500
404.000	278.650	79.995	19.994	100.781	19.985	2.291	0.520
404.500	278.886	79.996	19.995	100.785	19.985	2.278	0.508
405.000	279.125	79.996	19.995	100.787	19.984	2.363	0.485
405.500	279.393	79.996	19.995	100.789	19.986	2.219	0.491
406.000	279.629	79.996	19.995	100.790	19.986	2.183	0.505
406.500	279.895	79.997	19.995	100.791	19.982	2.440	0.503
407.000	280.143	79.997	19.995	100.789	19.981	2.553	0.508
407.500	280.413	79.995	19.995	100.792	19.982	2.453	0.517
408.000	280.647	79.996	19.995	100.794	19.982	2.465	0.511
408.500	280.882	79.996	19.994	100.793	19.984	2.330	0.486
409.000	281.182	79.997	19.995	100.792	19.984	2.363	0.502
409.500	281.386	79.997	19.996	100.790	19.984	2.347	0.520
410.000	281.658	79.996	19.994	100.786	19.983	2.401	0.490
410.500	281.885	79.998	19.996	100.783	19.982	2.451	0.487
411.000	282.156	79.996	19.996	100.787	19.986	2.197	0.498
411.500	282.412	79.995	19.996	100.791	19.985	2.283	0.512
412.000	282.650	79.997	19.995	100.796	19.982	2.447	0.511
412.500	282.920	79.997	19.996	100.796	19.986	2.211	0.501
413.000	283.141	79.998	19.995	100.795	19.984	2.366	0.500
413.500	283.431	79.996	19.997	100.794	19.984	2.366	0.501
414.000	283.661	79.996	19.996	100.791	19.983	2.422	0.515
414.500	283.908	79.997	19.996	100.790	19.985	2.301	0.498
415.000	284.178	79.997	19.995	100.790	19.985	2.253	0.497
415.500	284.389	79.997	19.997	100.793	19.987	2.165	0.499
416.000	284.620	79.997	19.996	100.798	19.985	2.289	0.462
416.500	284.858	79.999	19.997	100.802	19.984	2.343	0.456
417.000	285.145	79.996	19.996	100.799	19.983	2.434	0.497
417.500	285.410	79.998	19.996	100.802	19.983	2.382	0.538
418.000	285.612	79.996	19.995	100.800	19.982	2.443	0.510
418.500	285.926	79.996	19.997	100.795	19.983	2.384	0.492
419.000	286.156	79.997	19.996	100.795	19.984	2.328	0.529
419.500	286.401	79.996	19.996	100.799	19.983	2.429	0.510
420.000	286.690	79.996	19.996	100.800	19.984	2.314	0.505
420.500	286.894	79.996	19.996	100.803	19.985	2.238	0.513
421.000	287.159	79.995	19.997	100.801	19.984	2.321	0.481
421.500	287.388	79.995	19.995	100.796	19.984	2.363	0.482
422.000	287.607	79.995	19.996	100.792	19.986	2.204	0.471
422.500	287.906	79.995	19.995	100.787	19.984	2.348	0.483
423.000	288.131	79.997	19.996	100.784	19.988	2.087	0.521
423.500	288.395	79.996	19.995	100.785	19.983	2.389	0.506
424.000	288.635	79.996	19.997	100.784	19.988	2.080	0.496
424.500	288.891	79.994	19.996	100.785	19.989	1.992	0.500
425.000	289.137	79.995	19.995	100.788	19.983	2.425	0.499
425.500	289.408	79.996	19.995	100.790	19.983	2.388	0.510
426.000	289.646	79.996	19.996	100.789	19.984	2.312	0.513
426.500	289.881	79.995	19.996	100.788	19.984	2.357	0.491
427.000	290.143	79.994	19.996	100.787	19.986	2.172	0.485
427.500	290.431	79.995	19.996	100.784	19.985	2.262	0.523
428.000	290.639	79.996	19.997	100.781	19.984	2.319	0.523
428.500	290.938	79.996	19.995	100.782	19.983	2.397	0.502
429.000	291.152	79.996	19.996	100.782	19.982	2.449	0.510
429.500	291.425	79.996	19.997	100.784	19.983	2.422	0.499
430.000	291.690	79.995	19.996	100.784	19.983	2.416	0.512
430.500	291.967	79.995	19.994	100.785	19.986	2.237	0.540
431.000	292.173	79.997	19.996	100.785	19.984	2.339	0.513
431.500	292.432	79.996	19.995	100.787	19.988	2.078	0.474
432.000	292.683	79.996	19.995	100.786	19.986	2.190	0.487
432.500	292.922	79.997	19.994	100.788	19.986	2.229	0.500
433.000	293.184	79.997	19.995	100.787	19.985	2.276	0.496
433.500	293.412	79.996	19.994	100.787	19.986	2.220	0.495
434.000	293.676	79.997	19.995	100.786	19.984	2.348	0.491
434.500	293.944	79.997	19.995	100.786	19.985	2.256	0.513
435.000	294.199	79.996	19.995	100.785	19.983	2.402	0.528
435.500	294.465	79.996	19.996	100.785	19.988	2.095	0.522
436.000	294.684	79.997	19.995	100.785	19.985	2.246	0.503
436.500	294.951	79.997	19.995	100.786	19.984	2.328	0.486
437.000	295.178	79.998	19.995	100.787	19.982	2.452	0.490
437.500	295.434	79.996	19.995	100.787	19.978	2.745	0.488
438.000	295.723	79.998	19.995	100.786	19.980	2.630	0.514
438.500	295.969	79.998	19.996	100.786	19.983	2.418	0.540
439.000	296.164	79.998	19.996	100.785	19.982	2.443	0.487
439.500	296.448	79.998	19.995	100.782	19.982	2.456	0.460
440.000	296.694	79.999	19.996	100.782	19.980	2.589	0.505
440.500	296.948	79.998	19.995	100.782	19.983	2.370	0.515
441.000	297.158	79.998	19.995	100.781	19.981	2.555	0.482
441.500	297.432	79.996	19.996	100.782	19.982	2.488	0.474
442.000	297.683	79.998	19.995	100.783	19.981	2.517	0.504
442.500	297.921	79.996	19.995	100.782	19.982	2.452	0.507
443.000	298.178	79.997	19.996	100.781	19.981	2.517	0.492
443.500	298.463	79.997	19.996	100.781	19.983	2.395	0.519
444.000	298.708	79.995	19.995	100.780	19.982	2.445	0.536
444.500	298.936	79.997	19.995	100.778	19.984	2.348	0.501
445.000	299.174	79.996	19.996	100.778	19.982	2.477	0.470
445.500	299.435	79.996	19.996	100.780	19.984	2.325	0.482
446.000	299.692	79.994	19.997	100.780	19.983	2.377	0.508
446.500	299.949	79.995	19.995	100.781	19.981	2.521	0.516
447.000	300.201	79.995	19.996	100.782	19.979	2.637	0.512
447.500	300.442	79.995	19.996	100.783	19.984	2.366	0.501
448.000	300.690	79.995	19.995	100.781	19.982	2.492	0.491
448.500	300.919	79.996	19.996	100.781	19.981	2.548	0.483
449.000	301.170	79.994	19.997	100.780	19.981	2.512	0.478
449.500	301.471	79.995	19.996	100.779	19.982	2.465	0.516
450.000	301.675	79.995	19.995	100.784	19.983	2.377	0.529
450.500	301.944	79.994	19.997	100.789	19.983	2.423	0.489
451.000	302.165	79.995	19.996	100.789	19.980	2.614	0.482
451.500	302.410	79.994	19.997	100.790	19.983	2.391	0.478
452.000	302.675	79.995	19.997	100.793	19.979	2.636	0.488
452.500	302.913	79.994	19.998	100.787	19.982	2.488	0.506
453.000	303.167	79.995	19.997	100.782	19.986	2.229	0.497
453.500	303.411	79.995	19.997	100.782	19.986	2.174	0.495
454.000	303.668	79.995	19.996	100.780	19.985	2.256	0.500
454.500	303.906	79.994	19.996	100.777	19.981	2.540	0.498
455.000	304.154	79.994	19.996	100.777	19.984	2.305	0.490
455.500	304.408	79.994	19.995	100.777	19.982	2.445	0.494
456.000	304.672	79.996	19.997	100.777	19.983	2.434	0.510
456.500	304.933	79.996	19.995	100.778	19.982	2.443	0.521
457.000	305.184	79.996	19.996	100.778	19.977	2.828	0.519
457.500	305.437	79.994	19.996	100.779	19.984	2.341	0.508
458.000	305.652	79.996	19.997	100.780	19.982	2.483	0.486
458.500	305.886	79.996	19.995	100.780	19.984	2.321	0.458
459.000	306.171	79.997	19.997	100.780	19.980	2.619	0.484
459.500	306.437	79.995	19.995	100.780	19.984	2.352	0.536
460.000	306.654	79.997	19.996	100.780	19.985	2.251	0.517
460.500	306.932	79.995	19.995	100.780	19.983	2.389	0.488
461.000	307.140	79.996	19.996	100.780	19.979	2.654	0.491
461.500	307.414	79.998	19.996	100.780	19.980	2.576	0.485
462.000	307.634	79.996	19.995	100.781	19.981	2.504	0.488
462.500	307.888	79.996	19.996	100.780	19.980	2.576	0.484
463.000	308.137	79.996	19.995	100.779	19.981	2.551	0.488
463.500	308.407	79.995	19.995	100.779	19.979	2.675	0.510
464.000	308.621	79.996	19.995	100.778	19.979	2.637	0.501
464.500	308.917	79.996	19.995	100.778	19.982	2.494	0.497
465.000	309.160	79.996	19.996	100.778	19.980	2.613	0.524
465.500	309.423	79.995	19.996	100.779	19.977	2.785	0.522
466.000	309.636	79.996	19.995	100.779	19.979	2.637	0.491
466.500	309.921	79.995	19.994	100.779	19.981	2.510	0.488
467.000	310.157	79.995	19.995	100.780	19.979	2.685	0.510
467.500	310.371	79.996	19.996	100.780	19.978	2.707	0.486
468.000	310.754	79.997	19.996	100.780	19.978	2.750	0.523
468.500	310.847	79.996	19.995	100.779	19.981	2.529	0.536
469.000	311.226	79.995	19.995	100.779	19.981	2.523	0.474
469.500	311.398	79.997	19.996	100.779	19.977	2.780	0.512
470.000	311.683	79.995	19.995	100.779	19.978	2.731	0.504
470.500	312.063	79.995	19.995	100.778	19.983	2.386	0.561
471.000	312.024	79.997	19.994	100.779	19.982	2.454	0.503
471.500	312.670	79.997	19.995	100.780	19.980	2.609	0.474
472.000	312.982	79.996	19.996	100.780	19.981	2.506	0.782
472.500	313.113	79.997	19.994	100.780	19.980	2.587	0.700
473.000	312.994	79.996	19.995	100.780	19.979	2.686	0.227
473.500	313.467	79.994	19.994	100.781	19.979	2.690	0.183
474.000	313.979	79.995	19.994	100.781	19.976	2.850	0.670
474.500	313.901	79.996	19.994	100.769	19.978	2.717	0.710
475.000	314.113	79.995	19.995	100.748	19.979	2.648	0.284
475.500	314.577	79.995	19.996	100.736	19.978	2.742	0.404
476.000	314.697	79.994	19.995	100.734	19.981	2.539	0.630
476.500	314.983	79.995	19.995	100.734	19.980	2.618	0.495
477.000	315.159	79.993	19.996	100.748	19.983	2.389	0.434
477.500	315.451	79.995	19.997	100.789	19.983	2.422	0.465
478.000	315.728	79.995	19.996	100.825	19.980	2.594	0.518
478.500	316.008	79.994	19.997	100.832	19.983	2.424	0.563
479.000	316.185	79.994	19.996	100.833	19.983	2.377	0.507
479.500	316.448	79.994	19.995	100.831	19.981	2.521	0.449
480.000	316.732	79.995	19.995	100.810	19.983	2.402	0.494
480.500	316.983	79.993	19.996	100.786	19.984	2.359	0.541
481.000	317.186	79.994	19.995	100.781	19.984	2.357	0.494
481.500	317.432	79.996	19.996	100.781	19.984	2.337	0.451
482.000	317.717	79.994	19.995	100.782	19.983	2.406	0.490
482.500	317.933	79.994	19.995	100.784	19.982	2.440	0.516
483.000	318.268	79.994	19.996	100.785	19.981	2.566	0.526
483.500	318.463	79.994	19.996	100.785	19.981	2.522	0.541
484.000	318.744	79.993	19.995	100.784	19.979	2.648	0.503
484.500	318.975	79.994	19.996	100.784	19.983	2.384	0.494
485.000	319.199	79.994	19.996	100.783	19.981	2.551	0.483
485.500	319.493	79.995	19.995	100.782	19.982	2.440	0.486
486.000	319.715	79.993	19.995	100.782	19.982	2.463	0.517
486.500	319.983	79.995	19.996	100.782	19.979	2.699	0.503
487.000	320.189	79.994	19.995	100.782	19.979	2.636	0.482
487.500	320.468	79.993	19.996	100.782	19.983	2.406	0.480
488.000	320.730	79.994	19.995	100.783	19.981	2.522	0.513
488.500	320.976	79.996	19.996	100.783	19.984	2.312	0.524
489.000	321.231	79.994	19.994	100.783	19.984	2.314	0.504
489.500	321.468	79.996	19.996	100.783	19.983	2.407	0.497
490.000	321.743	79.995	19.996	100.783	19.985	2.269	0.502
490.500	321.993	79.996	19.995	100.783	19.984	2.341	0.519
491.000	322.250	79.995	19.995	100.783	19.982	2.447	0.516
491.500	322.545	79.995	19.994	100.782	19.979	2.673	0.529
492.000	322.719	79.994	19.996	100.782	19.983	2.407	0.511
492.500	323.023	79.995	19.996	100.782	19.983	2.431	0.474
493.000	323.245	79.997	19.995	100.783	19.983	2.407	0.502
493.500	323.490	79.995	19.996	100.783	19.982	2.492	0.497
494.000	323.743	79.996	19.996	100.784	19.982	2.492	0.483
494.500	323.998	79.996	19.997	100.784	19.980	2.587	0.502
495.000	324.275	79.997	19.996	100.783	19.983	2.427	0.520
495.500	324.507	79.997	19.996	100.781	19.982	2.440	0.521
496.000	324.729	79.996	19.996	100.781	19.985	2.290	0.481
496.500	325.019	79.997	19.994	100.780	19.981	2.566	0.483
497.000	325.238	79.997	19.995	100.779	19.984	2.332	0.511
497.500	325.547	79.996	19.995	100.780	19.982	2.463	0.519
498.000	325.774	79.997	19.995	100.781	19.983	2.386	0.532
498.500	326.027	79.996	19.995	100.781	19.981	2.535	0.508
499.000	326.257	79.997	19.995	100.782	19.981	2.522	0.482
499.500	326.521	79.997	19.994	100.783	19.983	2.402	0.489
500.000	326.770	79.997	19.995	100.783	19.984	2.337	0.503
500.500	326.996	79.996	19.994	100.783	19.981	2.565	0.494
501.000	327.249	79.997	19.995	100.783	19.979	2.639	0.477
501.500	327.527	79.996	19.994	100.783	19.981	2.564	0.504
502.000	327.820	79.997	19.994	100.783	19.982	2.466	0.551
502.500	328.058	79.996	19.995	100.783	19.984	2.353	0.552
503.000	328.307	79.995	19.994	100.783	19.983	2.414	0.509
503.500	328.586	79.996	19.995	100.783	19.982	2.468	0.507
504.000	328.783	79.997	19.994	100.783	19.982	2.488	0.502
504.500	329.051	79.996	19.995	100.782	19.979	2.673	0.471
505.000	329.299	79.995	19.995	100.782	19.983	2.425	0.490
505.500	329.548	79.996	19.996	100.781	19.983	2.402	0.507
506.000	329.815	79.996	19.995	100.781	19.985	2.285	0.506
506.500	330.057	79.996	19.994	100.781	19.983	2.396	0.512
507.000	330.295	79.997	19.995	100.781	19.985	2.283	0.495
507.500	330.539	79.996	19.996	100.781	19.980	2.589	0.481
508.000	330.782	79.996	19.996	100.781	19.982	2.463	0.484
508.500	331.044	79.995	19.996	100.780	19.984	2.368	0.496
509.000	331.326	79.996	19.997	100.780	19.983	2.431	0.525
509.500	331.564	79.997	19.995	100.780	19.982	2.481	0.532
510.000	331.824	79.995	19.996	100.780	19.982	2.461	0.509
510.500	332.057	79.996	19.997	100.780	19.981	2.511	0.495
511.000	332.339	79.995	19.994	100.779	19.983	2.423	0.504
511.500	332.590	79.995	19.995	100.779	19.985	2.292	0.524
512.000	332.834	79.996	19.995	100.779	19.984	2.335	0.514
512.500	333.120	79.996	19.995	100.778	19.983	2.375	0.512
513.000	333.320	79.996	19.996	100.774	19.984	2.335	0.508
513.500	333.621	79.996	19.996	100.774	19.984	2.339	0.494
514.000	333.835	79.996	19.995	100.774	19.985	2.254	0.508
514.500	334.134	79.996	19.997	100.774	19.985	2.256	0.514
515.000	334.337	79.997	19.996	100.775	19.987	2.150	0.507
515.500	334.622	79.996	19.996	100.779	19.986	2.186	0.495
516.000	334.845	79.997	19.997	100.780	19.986	2.218	0.498
516.500	335.130	79.998	19.995	100.779	19.986	2.231	0.508
517.000	335.360	79.997	19.996	100.779	19.981	2.533	0.511
517.500	335.631	79.998	19.995	100.778	19.980	2.571	0.508
518.000	335.892	79.996	19.996	100.777	19.985	2.242	0.517
518.500	336.157	79.996	19.996	100.777	19.984	2.362	0.530
519.000	336.388	79.997	19.995	100.777	19.986	2.206	0.511
519.500	336.652	79.998	19.995	100.777	19.986	2.222	0.495
520.000	336.921	79.998	19.995	100.778	19.987	2.154	0.514
520.500	337.138	79.997	19.995	100.777	19.985	2.274	0.510
521.000	337.389	79.997	19.995	100.777	19.982	2.450	0.477
521.500	337.641	79.997	19.996	100.774	19.983	2.369	0.485
522.000	337.871	79.998	19.995	100.774	19.982	2.443	0.492
522.500	338.152	79.997	19.995	100.773	19.986	2.204	0.497
523.000	338.454	79.998	19.995	100.773	19.986	2.216	0.547
523.500	338.639	79.998	19.995	100.772	19.986	2.184	0.535
524.000	338.893	79.997	19.994	100.774	19.985	2.240	0.463
524.500	339.159	79.999	19.995	100.774	19.985	2.260	0.479
525.000	339.449	79.998	19.996	100.774	19.984	2.326	0.538
525.500	339.684	79.996	19.996	100.775	19.983	2.394	0.541
526.000	339.941	79.997	19.995	100.775	19.981	2.508	0.509
526.500	340.227	79.996	19.994	100.776	19.982	2.443	0.518
527.000	340.452	79.996	19.995	100.777	19.982	2.474	0.527
527.500	340.703	79.996	19.996	100.777	19.982	2.492	0.494
528.000	340.993	79.996	19.995	100.777	19.982	2.494	0.509
528.500	341.185	79.996	19.996	100.777	19.983	2.416	0.512
529.000	341.494	79.997	19.997	100.777	19.982	2.501	0.491
529.500	341.719	79.998	19.996	100.777	19.983	2.384	0.517
530.000	342.000	79.996	19.995	100.777	19.985	2.301	0.520
530.500	342.246	79.995	19.997	100.778	19.984	2.341	0.517
531.000	342.443	79.996	19.994	100.778	19.985	2.249	0.484
531.500	342.711	79.997	19.994	100.776	19.983	2.391	0.454
532.000	342.938	79.994	19.995	100.774	19.984	2.364	0.480
532.500	343.213	79.995	19.996	100.771	19.982	2.481	0.499
533.000	343.479	79.995	19.996	100.769	19.983	2.425	0.521
533.500	343.741	79.995	19.996	100.765	19.982	2.474	0.534
534.000	343.967	79.995	19.996	100.765	19.982	2.447	0.508
534.500	344.212	79.993	19.996	100.762	19.980	2.590	0.480
535.000	344.465	79.993	19.996	100.761	19.980	2.605	0.484
535.500	344.699	79.994	19.996	100.763	19.981	2.508	0.493
536.000	344.951	79.994	19.996	100.767	19.983	2.375	0.487
536.500	345.256	79.995	19.997	100.769	19.982	2.459	0.522
537.000	345.454	79.995	19.996	100.775	19.982	2.452	0.530
537.500	345.705	79.994	19.997	100.779	19.982	2.450	0.476
538.000	345.980	79.994	19.997	100.778	19.982	2.440	0.488
538.500	346.234	79.994	19.997	100.777	19.983	2.425	0.528
539.000	346.418	79.993	19.997	100.776	19.982	2.449	0.484
539.500	346.723	79.994	19.996	100.774	19.984	2.328	0.463
540.000	346.928	79.993	19.996	100.773	19.983	2.393	0.499
540.500	347.203	79.994	19.996	100.773	19.985	2.294	0.495
541.000	347.411	79.994	19.997	100.774	19.985	2.296	0.482
541.500	347.705	79.994	19.996	100.774	19.984	2.366	0.493
542.000	347.963	79.994	19.997	100.777	19.985	2.238	0.527
542.500	348.225	79.992	19.996	100.777	19.982	2.436	0.535
543.000	348.457	79.993	19.995	100.777	19.985	2.274	0.507
543.500	348.679	79.993	19.996	100.774	19.984	2.364	0.474
544.000	348.972	79.993	19.996	100.775	19.983	2.382	0.485
544.500	349.238	79.992	19.996	100.775	19.986	2.222	0.537
545.000	349.449	79.994	19.996	100.775	19.984	2.317	0.518
545.500	349.708	79.994	19.996	100.772	19.986	2.204	0.473
546.000	349.987	79.993	19.997	100.773	19.987	2.144	0.504
546.500	350.211	79.994	19.996	100.772	19.987	2.144	0.521
547.000	350.466	79.992	19.996	100.772	19.987	2.164	0.491
547.500	350.714	79.993	19.996	100.773	19.984	2.358	0.491
548.000	350.970	79.993	19.997	100.777	19.984	2.304	0.504
548.500	351.193	79.993	19.996	100.778	19.984	2.330	0.492
549.000	351.409	79.994	19.995	100.778	19.984	2.326	0.459
549.500	351.703	79.994	19.996	100.777	19.986	2.233	0.474
550.000	351.941	79.995	19.996	100.774	19.983	2.429	0.520
550.500	352.210	79.995	19.997	100.774	19.982	2.454	0.519
551.000	352.463	79.995	19.995	100.772	19.984	2.312	0.515
551.500	352.729	79.993	19.997	100.774	19.981	2.504	0.521
552.000	352.955	79.994	19.994	100.775	19.980	2.578	0.505
552.500	353.256	79.995	19.995	100.778	19.982	2.468	0.510
553.000	353.495	79.994	19.996	100.778	19.977	2.768	0.534
553.500	353.736	79.995	19.996	100.781	19.980	2.616	0.510
554.000	354.004	79.995	19.995	100.780	19.981	2.567	0.494
554.500	354.280	79.995	19.996	100.777	19.982	2.468	0.527
555.000	354.509	79.995	19.996	100.777	19.981	2.544	0.525
555.500	354.739	79.995	19.996	100.772	19.979	2.689	0.481
556.000	354.992	79.995	19.995	100.766	19.982	2.436	0.471
556.500	355.231	79.995	19.996	100.760	19.979	2.668	0.488
557.000	355.484	79.996	19.996	100.756	19.980	2.583	0.493
557.500	355.744	79.994	19.995	100.755	19.981	2.551	0.503
558.000	355.982	79.994	19.995	100.758	19.981	2.509	0.505
558.500	356.251	79.995	19.996	100.761	19.980	2.630	0.502
559.000	356.522	79.995	19.994	100.766	19.982	2.490	0.524
559.500	356.745	79.994	19.995	100.772	19.984	2.328	0.517
560.000	357.008	79.995	19.994	100.770	19.984	2.342	0.490
560.500	357.233	79.995	19.995	100.765	19.983	2.373	0.488
561.000	357.511	79.994	19.994	100.768	19.980	2.570	0.496
561.500	357.765	79.994	19.995	100.770	19.978	2.704	0.517
562.000	358.000	79.993	19.996	100.772	19.983	2.420	0.510
562.500	358.242	79.996	19.995	100.773	19.986	2.209	0.483
563.000	358.461	79.995	19.995	100.778	19.986	2.195	0.469
563.500	358.699	79.995	19.995	100.774	19.982	2.464	0.459
564.000	358.974	79.994	19.995	100.773	19.983	2.412	0.486
564.500	359.207	79.995	19.996	100.771	19.982	2.480	0.511
565.000	359.475	79.994	19.995	100.770	19.982	2.491	0.504
565.500	359.723	79.994	19.995	100.768	19.984	2.338	0.509
566.000	359.920	79.993	19.995	100.767	19.983	2.428	0.481
566.500	360.158	79.994	19.995	100.765	19.984	2.313	0.439
567.000	360.422	79.993	19.994	100.766	19.984	2.320	0.468
567.500	360.691	79.994	19.996	100.762	19.982	2.461	0.518
568.000	360.949	79.993	19.996	100.760	19.984	2.306	0.530
568.500	361.193	79.994	19.995	100.764	19.981	2.502	0.514
569.000	361.471	79.993	19.995	100.768	19.984	2.340	0.512
569.500	361.667	79.996	19.996	100.765	19.983	2.394	0.498
570.000	361.944	79.994	19.995	100.764	19.984	2.322	0.474
570.500	362.157	79.994	19.996	100.765	19.986	2.223	0.482
571.000	362.423	79.996	19.995	100.761	19.984	2.338	0.484
571.500	362.661	79.994	19.996	100.759	19.985	2.285	0.491
572.000	362.930	79.996	19.994	100.760	19.984	2.355	0.505
572.500	363.187	79.994	19.996	100.765	19.984	2.313	0.517
573.000	363.403	79.997	19.996	100.769	19.983	2.376	0.499
573.500	363.694	79.994	19.995	100.769	19.987	2.166	0.489
574.000	363.927	79.997	19.995	100.763	19.984	2.330	0.516
574.500	364.153	79.996	19.996	100.763	19.985	2.267	0.492
575.000	364.404	79.996	19.997	100.759	19.984	2.324	0.468
575.500	364.640	79.996	19.995	100.755	19.983	2.403	0.482
576.000	364.924	79.996	19.996	100.754	19.981	2.509	0.503
576.500	365.181	79.996	19.996	100.757	19.984	2.346	0.531
577.000	365.425	79.995	19.997	100.756	19.981	2.529	0.521
577.500	365.647	79.996	19.995	100.758	19.983	2.426	0.483
578.000	365.937	79.996	19.995	100.755	19.984	2.319	0.488
578.500	366.152	79.995	19.997	100.755	19.982	2.482	0.508
579.000	366.442	79.996	19.996	100.752	19.983	2.407	0.505
579.500	366.692	79.996	19.996	100.748	19.983	2.428	0.523
580.000	366.921	79.997	19.995	100.748	19.983	2.427	0.509
580.500	367.144	79.996	19.997	100.751	19.984	2.326	0.465
581.000	367.421	79.997	19.996	100.751	19.981	2.515	0.476
581.500	367.660	79.997	19.996	100.753	19.980	2.632	0.508
582.000	367.899	79.997	19.995	100.757	19.981	2.504	0.497
582.500	368.150	79.997	19.996	100.756	19.981	2.560	0.484
583.000	368.416	79.997	19.995	100.756	19.977	2.770	0.504
583.500	368.647	79.997	19.996	100.760	19.982	2.484	0.507
584.000	368.934	79.996	19.995	100.761	19.981	2.538	0.507
584.500	369.207	79.997	19.995	100.763	19.979	2.642	0.539
585.000	369.432	79.996	19.996	100.763	19.979	2.677	0.529
585.500	369.662	79.998	19.994	100.762	19.981	2.522	0.476
586.000	369.925	79.996	19.995	100.762	19.977	2.801	0.474
586.500	370.154	79.996	19.995	100.762	19.979	2.662	0.493
587.000	370.411	79.997	19.995	100.756	19.977	2.770	0.489
587.500	370.670	79.996	19.997	100.755	19.982	2.495	0.501
588.000	370.925	79.996	19.995	100.754	19.979	2.637	0.514
588.500	371.166	79.997	19.995	100.752	19.979	2.644	0.505
589.000	371.447	79.996	19.996	100.752	19.979	2.677	0.509
589.500	371.650	79.998	19.995	100.756	19.981	2.534	0.503
590.000	371.889	79.995	19.995	100.757	19.983	2.414	0.463
590.500	372.167	79.996	19.996	100.762	19.982	2.437	0.479
591.000	372.425	79.997	19.994	100.766	19.985	2.283	0.526
591.500	372.656	79.997	19.995	100.766	19.982	2.473	0.513
592.000	372.949	79.997	19.996	100.767	19.982	2.448	0.507
592.500	373.165	79.996	19.996	100.772	19.983	2.432	0.516
593.000	373.431	79.997	19.995	100.772	19.985	2.251	0.495
593.500	373.698	79.997	19.996	100.772	19.983	2.376	0.508
594.000	373.946	79.997	19.995	100.774	19.983	2.425	0.524
594.500	374.174	79.996	19.994	100.770	19.983	2.426	0.495
595.000	374.422	79.996	19.995	100.767	19.985	2.290	0.476
595.500	374.674	79.996	19.995	100.765	19.985	2.288	0.488
596.000	374.921	79.996	19.995	100.765	19.983	2.369	0.499
596.500	375.156	79.996	19.995	100.766	19.981	2.557	0.491
597.000	375.430	79.997	19.994	100.766	19.980	2.592	0.496
597.500	375.672	79.997	19.995	100.768	19.982	2.498	0.512
598.000	375.918	79.997	19.995	100.769	19.983	2.392	0.502
598.500	376.204	79.996	19.995	100.770	19.984	2.335	0.510
599.000	376.403	79.997	19.994	100.769	19.979	2.678	0.508
599.500	376.650	79.997	19.996	100.769	19.982	2.473	0.465
600.000	376.892	79.997	19.995	100.764	19.979	2.680	0.468
600.500	377.134	79.997	19.994	100.759	19.980	2.615	0.487
601.000	377.409	79.997	19.995	100.755	19.982	2.443	0.501
601.500	377.649	79.997	19.995	100.753	19.981	2.552	0.516
602.000	377.917	79.998	19.996	100.757	19.985	2.301	0.511
602.500	378.156	79.998	19.995	100.760	19.981	2.543	0.507
603.000	378.389	79.996	19.995	100.767	19.982	2.464	0.490
603.500	378.635	79.997	19.996	100.766	19.982	2.464	0.476
604.000	378.899	79.999	19.996	100.767	19.986	2.171	0.495
604.500	379.173	79.997	19.995	100.761	19.983	2.424	0.524
605.000	379.425	79.997	19.994	100.757	19.982	2.496	0.531
605.500	379.680	79.998	19.995	100.750	19.982	2.460	0.517
606.000	379.904	79.998	19.996	100.748	19.983	2.397	0.493
606.500	380.176	79.997	19.995	100.744	19.984	2.309	0.487
607.000	380.406	79.996	19.996	100.744	19.986	2.171	0.499
607.500	380.633	79.997	19.995	100.746	19.984	2.313	0.480
608.000	380.929	79.996	19.994	100.748	19.983	2.421	0.491
608.500	381.162	79.998	19.996	100.747	19.985	2.285	0.526
609.000	381.371	79.997	19.996	100.748	19.984	2.304	0.485
609.500	381.663	79.998	19.996	100.749	19.986	2.213	0.471
610.000	381.874	79.996	19.995	100.749	19.985	2.274	0.502
610.500	382.105	79.996	19.996	100.747	19.986	2.171	0.473
611.000	382.358	79.997	19.996	100.750	19.985	2.254	0.463
611.500	382.657	79.996	19.995	100.752	19.985	2.272	0.518
612.000	382.870	79.995	19.996	100.753	19.988	2.088	0.532
612.500	383.104	79.996	19.996	100.751	19.984	2.311	0.480
613.000	383.364	79.996	19.996	100.751	19.987	2.162	0.470
613.500	383.594	79.995	19.995	100.748	19.988	2.090	0.492
614.000	383.864	79.996	19.995	100.743	19.987	2.144	0.495
614.500	384.058	79.994	19.996	100.742	19.988	2.063	0.482
615.000	384.347	79.995	19.997	100.742	19.984	2.365	0.474
615.500	384.572	79.995	19.995	100.742	19.985	2.243	0.499
616.000	384.808	79.994	19.995	100.742	19.984	2.347	0.487
616.500	385.071	79.995	19.995	100.742	19.984	2.329	0.480
617.000	385.314	79.994	19.996	100.741	19.986	2.222	0.502
617.500	385.572	79.994	19.996	100.744	19.983	2.394	0.504
618.000	385.802	79.994	19.997	100.751	19.987	2.161	0.495
618.500	386.076	79.994	19.995	100.759	19.987	2.128	0.495
619.000	386.282	79.994	19.995	100.762	19.984	2.304	0.492
619.500	386.523	79.995	19.995	100.762	19.987	2.107	0.464
620.000	386.787	79.995	19.995	100.760	19.988	2.092	0.476
620.500	387.044	79.994	19.995	100.753	19.984	2.310	0.513
621.000	387.264	79.995	19.995	100.747	19.986	2.189	0.499
621.500	387.575	79.995	19.996	100.746	19.986	2.214	0.504
622.000	387.775	79.994	19.995	100.747	19.988	2.083	0.521
622.500	388.026	79.996	19.995	100.746	19.989	2.015	0.481
623.000	388.268	79.996	19.995	100.748	19.988	2.098	0.472
623.500	388.553	79.996	19.995	100.748	19.986	2.229	0.510
624.000	388.751	79.994	19.995	100.748	19.988	2.056	0.505
624.500	389.023	79.996	19.995	100.746	19.990	1.948	0.477
625.000	389.276	79.995	19.995	100.748	19.985	2.238	0.498
625.500	389.524	79.995	19.996	100.746	19.985	2.277	0.513
626.000	389.739	79.996	19.996	100.745	19.987	2.124	0.482
626.500	390.007	79.995	19.997	100.749	19.987	2.155	0.473
627.000	390.255	79.994	19.996	100.755	19.984	2.308	0.500
627.500	390.504	79.996	19.995	100.755	19.982	2.444	0.507
628.000	390.729	79.995	19.996	100.757	19.986	2.234	0.485
628.500	391.003	79.994	19.995	100.761	19.987	2.132	0.486
629.000	391.230	79.995	19.997	100.759	19.986	2.185	0.500
629.500	391.470	79.995	19.996	100.755	19.984	2.345	0.484
630.000	391.735	79.995	19.996	100.756	19.985	2.241	0.486
630.500	391.966	79.994	19.996	100.755	19.989	1.979	0.501
631.000	392.210	79.994	19.996	100.754	19.987	2.104	0.486
631.500	392.455	79.996	19.995	100.753	19.987	2.153	0.482
632.000	392.670	79.996	19.995	100.758	19.991	1.860	0.474
632.500	392.936	79.995	19.995	100.757	19.989	1.977	0.471
633.000	393.203	79.994	19.996	100.756	19.986	2.195	0.507
633.500	393.445	79.995	19.996	100.756	19.989	2.006	0.521
634.000	393.702	79.994	19.996	100.755	19.989	1.988	0.504
634.500	393.989	79.996	19.995	100.755	19.990	1.931	0.522
635.000	394.221	79.994	19.996	100.754	19.990	1.966	0.532
635.500	394.448	79.995	19.997	100.754	19.988	2.074	0.489
636.000	394.700	79.995	19.997	100.754	19.989	2.002	0.469
636.500	394.992	79.996	19.997	100.753	19.988	2.085	0.512
637.000	395.207	79.996	19.996	100.747	19.986	2.209	0.525
637.500	395.433	79.995	19.997	100.746	19.987	2.146	0.474
638.000	395.713	79.996	19.997	100.747	19.985	2.285	0.474
638.500	395.938	79.997	19.997	100.745	19.985	2.254	0.506
639.000	396.197	79.996	19.996	100.743	19.985	2.295	0.495
639.500	396.433	79.996	19.997	100.745	19.987	2.124	0.489
640.000	396.693	79.995	19.997	100.746	19.984	2.306	0.495
640.500	396.886	79.995	19.996	100.745	19.987	2.107	0.475
641.000	397.131	79.995	19.997	100.746	19.984	2.310	0.446
641.500	397.386	79.995	19.997	100.745	19.985	2.241	0.469
642.000	397.615	79.995	19.997	100.742	19.986	2.187	0.492
642.500	397.897	79.995	19.996	100.742	19.983	2.394	0.498
643.000	398.146	79.995	19.997	100.743	19.986	2.175	0.521
643.500	398.376	79.995	19.996	100.744	19.988	2.103	0.505
644.000	398.591	79.994	19.996	100.751	19.988	2.042	0.462
644.500	398.854	79.995	19.997	100.758	19.987	2.158	0.461
645.000	399.147	79.996	19.996	100.764	19.984	2.320	0.517
645.500	399.371	79.995	19.996	100.762	19.988	2.067	0.537
646.000	399.641	79.996	19.996	100.759	19.984	2.362	0.506
646.500	399.840	79.995	19.996	100.754	19.987	2.123	0.482
647.000	400.145	79.995	19.996	100.752	19.989	2.038	0.487
647.500	400.373	79.994	19.996	100.753	19.986	2.216	0.519
648.000	400.622	79.996	19.995	100.754	19.986	2.195	0.505
648.500	400.878	79.994	19.996	100.755	19.985	2.299	0.491
649.000	401.093	79.995	19.996	100.756	19.985	2.283	0.488
649.500	401.346	79.995	19.996	100.753	19.988	2.082	0.470
650.000	401.616	79.993	19.996	100.748	19.986	2.186	0.495
650.500	401.810	79.994	19.996	100.750	19.989	2.033	0.493
651.000	402.081	79.995	19.996	100.753	19.984	2.355	0.464
651.500	402.322	79.995	19.995	100.755	19.986	2.227	0.488
652.000	402.591	79.995	19.996	100.756	19.988	2.083	0.511
652.500	402.811	79.997	19.996	100.759	19.984	2.326	0.500
653.000	403.081	79.995	19.995	100.757	19.987	2.128	0.489
653.500	403.298	79.995	19.996	100.753	19.986	2.236	0.489
654.000	403.559	79.996	19.996	100.750	19.988	2.097	0.483
654.500	403.798	79.996	19.995	100.747	19.988	2.101	0.489
655.000	404.051	79.997	19.995	100.742	19.986	2.175	0.496
655.500	404.263	79.997	19.996	100.741	19.983	2.414	0.478
656.000	404.551	79.997	19.996	100.743	19.984	2.346	0.482
656.500	404.752	79.997	19.997	100.747	19.983	2.407	0.495
657.000	405.015	79.995	19.996	100.749	19.984	2.355	0.477
657.500	405.313	79.996	19.996	100.753	19.985	2.259	0.513
658.000	405.550	79.997	19.996	100.756	19.985	2.248	0.548
658.500	405.764	79.997	19.997	100.757	19.985	2.261	0.493
659.000	405.992	79.996	19.996	100.758	19.984	2.329	0.447
659.500	406.280	79.996	19.997	100.762	19.985	2.297	0.479
660.000	406.521	79.997	19.996	100.763	19.984	2.324	0.522
660.500	406.758	79.996	19.996	100.766	19.986	2.178	0.504
661.000	407.027	79.997	19.996	100.768	19.988	2.101	0.492
661.500	407.255	79.997	19.996	100.769	19.985	2.241	0.501
662.000	407.521	79.997	19.998	100.766	19.983	2.408	0.495
662.500	407.746	79.999	19.997	100.762	19.988	2.076	0.493
663.000	408.037	79.998	19.997	100.758	19.985	2.263	0.504
663.500	408.314	79.996	19.996	100.753	19.981	2.505	0.542
664.000	408.526	79.998	19.995	100.750	19.984	2.324	0.528
664.500	408.774	79.998	19.996	100.748	19.984	2.335	0.474
665.000	409.036	79.997	19.996	100.746	19.983	2.387	0.485
665.500	409.281	79.999	19.996	100.746	19.986	2.212	0.509
666.000	409.566	79.997	19.996	100.750	19.981	2.540	0.519
666.500	409.771	79.997	19.996	100.750	19.980	2.597	0.510
667.000	410.011	79.997	19.995	100.753	19.983	2.406	0.467
667.500	410.271	79.996	19.995	100.753	19.985	2.291	0.473
668.000	410.541	79.997	19.996	100.752	19.984	2.347	0.515
668.500	410.755	79.997	19.995	100.746	19.984	2.365	0.507
669.000	411.007	79.996	19.996	100.744	19.984	2.315	0.475
669.500	411.282	79.997	19.995	100.739	19.983	2.412	0.496
670.000	411.498	79.997	19.996	100.740	19.985	2.302	0.509
670.500	411.758	79.999	19.996	100.740	19.982	2.495	0.484
671.000	412.010	79.996	19.995	100.740	19.982	2.486	0.494
671.500	412.242	79.997	19.995	100.740	19.982	2.442	0.498
672.000	412.532	79.996	19.996	100.744	19.983	2.430	0.504
672.500	412.771	79.996	19.994	100.747	19.983	2.432	0.525
673.000	412.997	79.996	19.995	100.750	19.982	2.439	0.496
673.500	413.238	79.997	19.995	100.752	19.987	2.114	0.466
674.000	413.533	79.996	19.995	100.752	19.986	2.191	0.502
674.500	413.730	79.996	19.996	100.750	19.986	2.218	0.514
675.000	413.985	79.997	19.996	100.749	19.984	2.322	0.472
675.500	414.210	79.997	19.996	100.750	19.986	2.178	0.466
676.000	414.488	79.997	19.995	100.750	19.985	2.273	0.491
676.500	414.719	79.996	19.995	100.750	19.986	2.234	0.506
677.000	414.942	79.996	19.996	100.750	19.984	2.353	0.482
677.500	415.203	79.996	19.995	100.748	19.984	2.320	0.469
678.000	415.435	79.997	19.996	100.745	19.981	2.514	0.488
678.500	415.698	79.996	19.995	100.744	19.986	2.211	0.494
679.000	415.977	79.997	19.996	100.743	19.984	2.345	0.519
679.500	416.200	79.996	19.996	100.743	19.985	2.275	0.522
680.000	416.424	79.999	19.996	100.745	19.983	2.388	0.474
680.500	416.666	79.996	19.995	100.747	19.984	2.304	0.457
681.000	416.895	79.997	19.994	100.747	19.988	2.096	0.469
681.500	417.185	79.998	19.996	100.747	19.987	2.157	0.494
682.000	417.440	79.997	19.995	100.747	19.986	2.227	0.532
682.500	417.674	79.997	19.995	100.744	19.987	2.159	0.517
683.000	417.917	79.999	19.995	100.743	19.986	2.194	0.483
683.500	418.192	79.998	19.995	100.743	19.986	2.184	0.497
684.000	418.410	79.998	19.995	100.743	19.985	2.238	0.505
684.500	418.681	79.998	19.995	100.746	19.987	2.148	0.491
685.000	418.932	79.998	19.995	100.746	19.984	2.329	0.506
685.500	419.192	79.997	19.994	100.746	19.985	2.290	0.517
686.000	419.463	79.997	19.996	100.746	19.984	2.315	0.521
686.500	419.706	79.999	19.995	100.746	19.981	2.511	0.523
687.000	419.924	79.998	19.994	100.743	19.982	2.480	0.487
687.500	420.174	79.999	19.995	100.743	19.983	2.390	0.464
688.000	420.429	79.998	19.995	100.747	19.985	2.272	0.487
688.500	420.677	79.998	19.995	100.746	19.985	2.241	0.504
689.000	420.947	79.998	19.995	100.746	19.986	2.175	0.510
689.500	421.198	79.998	19.995	100.746	19.981	2.540	0.519
690.000	421.450	79.998	19.995	100.745	19.987	2.121	0.513
690.500	421.690	79.999	19.995	100.742	19.985	2.252	0.498
691.000	421.909	79.996	19.996	100.744	19.987	2.110	0.475
691.500	422.144	79.999	19.995	100.748	19.987	2.139	0.456
692.000	422.435	79.998	19.994	100.750	19.986	2.221	0.490
692.500	422.649	79.998	19.995	100.750	19.986	2.182	0.515
693.000	422.907	79.997	19.995	100.750	19.989	2.015	0.488
693.500	423.148	79.997	19.995	100.749	19.983	2.378	0.486
694.000	423.374	79.997	19.996	100.745	19.983	2.374	0.483
694.500	423.654	79.997	19.995	100.743	19.984	2.318	0.487
695.000	423.901	79.996	19.995	100.745	19.985	2.245	0.516
695.500	424.144	79.996	19.995	100.746	19.988	2.092	0.508
696.000	424.381	79.994	19.994	100.746	19.985	2.277	0.485
696.500	424.624	79.996	19.996	100.746	19.985	2.286	0.480
697.000	424.927	79.996	19.996	100.747	19.986	2.216	0.513
697.500	425.161	79.996	19.997	100.749	19.988	2.088	0.541
698.000	425.405	79.996	19.997	100.751	19.987	2.139	0.508
698.500	425.675	79.996	19.995	100.753	19.986	2.207	0.496
699.000	425.872	79.995	19.996	100.754	19.982	2.478	0.490
699.500	426.142	79.995	19.996	100.755	19.983	2.378	0.467
700.000	426.366	79.995	19.996	100.755	19.987	2.137	0.481
700.500	426.612	79.995	19.995	100.754	19.984	2.333	0.482
701.000	426.853	79.997	19.996	100.753	19.983	2.421	0.478
701.500	427.105	79.995	19.996	100.752	19.983	2.408	0.490
702.000	427.353	79.996	19.996	100.752	19.983	2.415	0.497
702.500	427.630	79.994	19.995	100.750	19.981	2.530	0.512
703.000	427.860	79.996	19.995	100.750	19.983	2.432	0.516
703.500	428.170	79.995	19.998	100.750	19.979	2.685	0.524
704.000	428.420	79.996	19.996	100.750	19.981	2.563	0.550
704.500	428.658	79.997	19.996	100.748	19.981	2.547	0.524
705.000	428.934	79.996	19.996	100.746	19.984	2.367	0.501
705.500	429.162	79.996	19.996	100.745	19.979	2.660	0.509
706.000	429.418	79.994	19.996	100.746	19.981	2.511	0.494
706.500	429.682	79.995	19.996	100.747	19.981	2.558	0.502
707.000	429.944	79.995	19.995	100.748	19.980	2.628	0.523
707.500	430.193	79.996	19.998	100.747	19.981	2.523	0.518
708.000	430.435	79.995	19.996	100.746	19.980	2.570	0.501
708.500	430.640	79.995	19.995	100.744	19.985	2.275	0.469
709.000	430.920	79.995	19.996	100.746	19.982	2.439	0.466
709.500	431.221	79.995	19.996	100.745	19.982	2.464	0.533
710.000	431.433	79.996	19.996	100.745	19.982	2.450	0.547
710.500	431.682	79.996	19.996	100.746	19.983	2.378	0.487
711.000	431.982	79.995	19.995	100.745	19.983	2.385	0.505
711.500	432.215	79.996	19.996	100.741	19.981	2.509	0.541
712.000	432.439	79.995	19.996	100.740	19.983	2.381	0.495
712.500	432.707	79.996	19.996	100.741	19.985	2.245	0.475
713.000	432.974	79.996	19.995	100.744	19.983	2.378	0.514
713.500	433.199	79.995	19.995	100.744	19.984	2.342	0.514
714.000	433.492	79.996	19.995	100.744	19.984	2.349	0.505
714.500	433.732	79.996	19.995	100.744	19.984	2.347	0.526
715.000	434.028	79.996	19.996	100.743	19.985	2.290	0.535
715.500	434.255	79.996	19.996	100.740	19.984	2.344	0.529
716.000	434.541	79.995	19.996	100.743	19.983	2.369	0.518
716.500	434.777	79.995	19.996	100.745	19.985	2.254	0.518
717.000	435.064	79.994	19.996	100.748	19.988	2.051	0.523
717.500	435.265	79.997	19.995	100.748	19.987	2.151	0.505
718.000	435.544	79.995	19.995	100.749	19.987	2.106	0.483
718.500	435.800	79.996	19.995	100.747	19.982	2.435	0.508
719.000	436.075	79.996	19.996	100.744	19.985	2.257	0.533
719.500	436.330	79.995	19.996	100.741	19.986	2.194	0.531
720.000	436.576	79.997	19.995	100.741	19.985	2.291	0.516
720.500	436.848	79.995	19.996	100.742	19.983	2.372	0.509
721.000	437.114	79.996	19.997	100.743	19.985	2.241	0.528
721.500	437.346	79.997	19.996	100.744	19.983	2.383	0.518
722.000	437.625	79.997	19.996	100.744	19.984	2.349	0.504
722.500	437.938	79.996	19.996	100.744	19.984	2.344	0.552
723.000	438.146	79.997	19.997	100.743	19.981	2.527	0.557
723.500	438.416	79.997	19.996	100.742	19.984	2.351	0.500
724.000	438.690	79.997	19.995	100.741	19.985	2.238	0.511
724.500	438.942	79.996	19.998	100.740	19.986	2.211	0.535
725.000	439.199	79.995	19.998	100.742	19.986	2.198	0.517
725.500	439.460	79.996	19.995	100.748	19.984	2.304	0.513
726.000	439.759	79.995	19.997	100.749	19.986	2.201	0.539
726.500	440.000	79.994	19.997	100.750	19.988	2.074	0.550
727.000	440.228	79.995	19.997	100.751	19.986	2.187	0.505
727.500	440.493	79.994	19.997	100.750	19.986	2.207	0.481
728.000	440.785	79.994	19.996	100.746	19.985	2.264	0.525
728.500	441.033	79.995	19.996	100.745	19.985	2.277	0.548
729.000	441.281	79.995	19.997	100.745	19.985	2.295	0.518
729.500	441.548	79.995	19.996	100.744	19.988	2.063	0.506
730.000	441.818	79.995	19.997	100.743	19.986	2.236	0.526
730.500	442.065	79.993	19.999	100.742	19.981	2.536	0.527
731.000	442.332	79.994	19.998	100.742	19.987	2.146	0.516
731.500	442.588	79.996	19.999	100.744	19.985	2.277	0.519
732.000	442.849	79.994	19.997	100.746	19.987	2.151	0.520
732.500	443.135	79.993	19.998	100.747	19.983	2.426	0.532
733.000	443.374	79.994	19.997	100.748	19.985	2.275	0.536
733.500	443.647	79.993	19.997	100.750	19.984	2.347	0.518
734.000	443.922	79.994	19.997	100.747	19.983	2.381	0.530
734.500	444.163	79.994	19.997	100.745	19.985	2.246	0.532
735.000	444.450	79.996	19.998	100.744	19.985	2.291	0.522
735.500	444.658	79.994	19.997	100.743	19.986	2.185	0.511
736.000	444.924	79.995	19.997	100.742	19.987	2.135	0.485
736.500	445.246	79.996	19.996	100.742	19.984	2.363	0.531
737.000	445.501	79.994	19.996	100.741	19.984	2.358	0.583
737.500	445.766	79.995	19.997	100.741	19.984	2.363	0.549
738.000	446.025	79.994	19.996	100.741	19.987	2.146	0.522
738.500	446.296	79.995	19.996	100.741	19.985	2.299	0.527
739.000	446.566	79.996	19.996	100.742	19.986	2.220	0.536
739.500	446.825	79.995	19.997	100.744	19.985	2.245	0.535
740.000	447.089	79.997	19.995	100.744	19.983	2.374	0.526
740.500	447.357	79.995	19.996	100.745	19.987	2.113	0.528
741.000	447.613	79.995	19.996	100.746	19.989	2.015	0.528
741.500	447.894	79.996	19.995	100.750	19.988	2.097	0.530
742.000	448.154	79.997	19.995	100.752	19.989	2.013	0.539
742.500	448.418	79.996	19.996	100.754	19.988	2.076	0.532
743.000	448.658	79.996	19.995	100.755	19.987	2.144	0.514
743.500	448.985	79.998	19.996	100.753	19.985	2.277	0.536
744.000	449.215	79.998	19.996	100.749	19.991	1.860	0.562
744.500	449.485	79.996	19.995	100.745	19.984	2.367	0.529
745.000	449.755	79.996	19.995	100.744	19.987	2.135	0.520
745.500	450.018	79.995	19.994	100.742	19.985	2.243	0.536
746.000	450.279	79.996	19.996	100.743	19.989	1.995	0.529
746.500	450.571	79.997	19.995	100.744	19.988	2.056	0.539
747.000	450.829	79.997	19.996	100.743	19.989	2.007	0.552
747.500	451.077	79.996	19.995	100.744	19.988	2.054	0.528
748.000	451.365	79.997	19.995	100.744	19.990	1.934	0.521
748.500	451.634	79.997	19.996	100.744	19.988	2.076	0.546
749.000	451.878	79.996	19.996	100.744	19.989	2.013	0.535
749.500	452.171	79.997	19.995	100.745	19.985	2.302	0.525
750.000	452.478	79.997	19.996	100.745	19.990	1.970	0.568
750.500	452.689	79.998	19.995	100.745	19.990	1.968	0.559
751.000	452.966	79.996	19.995	100.743	19.988	2.060	0.503
751.500	453.209	79.997	19.995	100.743	19.989	2.011	0.504
752.000	453.470	79.997	19.996	100.742	19.990	1.950	0.512
752.500	453.736	79.996	19.995	100.742	19.984	2.362	0.515
753.000	453.997	79.997	19.996	100.742	19.986	2.202	0.527
753.500	454.274	79.997	19.995	100.744	19.991	1.893	0.533
754.000	454.563	79.998	19.994	100.744	19.987	2.162	0.552
754.500	454.813	79.998	19.996	100.745	19.988	2.081	0.552
755.000	455.101	79.996	19.995	100.745	19.990	1.946	0.538
755.500	455.414	79.997	19.996	100.745	19.988	2.097	0.569
756.000	455.677	79.996	19.996	100.743	19.991	1.864	0.588
756.500	455.950	79.996	19.997	100.743	19.989	2.033	0.556
757.000	456.192	79.996	19.995	100.743	19.985	2.250	0.526
757.500	456.427	79.996	19.996	100.744	19.988	2.072	0.496
758.000	456.707	79.997	19.995	100.744	19.986	2.219	0.496
758.500	456.976	79.996	19.997	100.744	19.989	2.025	0.532
759.000	457.238	79.996	19.997	100.744	19.986	2.193	0.540
759.500	457.486	79.997	19.996	100.745	19.985	2.252	0.521
760.000	457.761	79.997	19.996	100.744	19.991	1.874	0.516
760.500	458.015	79.996	19.994	100.744	19.989	1.997	0.526
761.000	458.315	79.996	19.995	100.744	19.984	2.304	0.542
761.500	458.572	79.997	19.996	100.746	19.986	2.171	0.556
762.000	458.837	79.996	19.995	100.746	19.989	2.031	0.539
762.500	459.123	79.998	19.997	100.746	19.986	2.171	0.536
763.000	459.384	79.997	19.996	100.746	19.986	2.227	0.549
763.500	459.631	79.996	19.996	100.746	19.987	2.164	0.528
764.000	459.891	79.998	19.995	100.748	19.988	2.081	0.507
764.500	460.105	79.997	19.996	100.751	19.988	2.049	0.491
765.000	460.423	79.998	19.996	100.752	19.986	2.191	0.503
765.500	460.647	79.997	19.995	100.751	19.989	2.009	0.537
766.000	460.927	79.998	19.995	100.751	19.986	2.216	0.523
766.500	461.191	79.998	19.996	100.748	19.986	2.185	0.524
767.000	461.444	79.996	19.994	100.745	19.986	2.227	0.531
767.500	461.739	79.998	19.996	100.744	19.986	2.223	0.532
768.000	461.997	79.996	19.997	100.744	19.987	2.167	0.551
768.500	462.261	79.998	19.994	100.743	19.984	2.360	0.538
769.000	462.556	79.998	19.995	100.742	19.989	1.988	0.541
769.500	462.812	79.998	19.996	100.743	19.983	2.432	0.555
770.000	463.067	79.998	19.996	100.741	19.988	2.067	0.531
770.500	463.301	79.998	19.996	100.741	19.985	2.302	0.500
771.000	463.553	79.998	19.995	100.741	19.987	2.166	0.487
771.500	463.830	79.999	19.995	100.741	19.989	2.011	0.508
772.000	464.082	79.998	19.996	100.740	19.988	2.049	0.529
772.500	464.375	79.998	19.996	100.740	19.987	2.146	0.537
773.000	464.623	79.998	19.995	100.740	19.988	2.101	0.543
773.500	464.865	79.999	19.995	100.740	19.985	2.281	0.516
774.000	465.116	79.997	19.997	100.739	19.991	1.858	0.492
774.500	465.378	79.998	19.995	100.739	19.987	2.140	0.503
775.000	465.639	79.999	19.994	100.739	19.989	2.027	0.518
775.500	465.907	79.998	19.994	100.739	19.986	2.230	0.526
776.000	466.177	79.998	19.995	100.740	19.987	2.104	0.533
776.500	466.473	79.997	19.997	100.740	19.988	2.097	0.552
777.000	466.741	79.998	19.996	100.740	19.988	2.088	0.565
777.500	466.969	79.998	19.996	100.740	19.991	1.878	0.530
778.000	467.240	79.997	19.996	100.740	19.989	2.038	0.498
778.500	467.520	79.998	19.995	100.741	19.991	1.858	0.525
779.000	467.764	79.997	19.996	100.740	19.990	1.912	0.537
779.500	468.044	79.996	19.995	100.741	19.989	2.025	0.524
780.000	468.282	79.994	19.996	100.741	19.992	1.828	0.521
780.500	468.512	79.996	19.996	100.743	19.988	2.067	0.493
781.000	468.757	79.997	19.996	100.743	19.990	1.968	0.472
781.500	469.078	79.997	19.996	100.744	19.987	2.112	0.520
782.000	469.304	79.997	19.996	100.744	19.991	1.887	0.556
782.500	469.558	79.997	19.996	100.744	19.991	1.853	0.513
783.000	469.841	79.996	19.997	100.742	19.991	1.851	0.509
783.500	470.115	79.996	19.996	100.741	19.991	1.851	0.548
784.000	470.376	79.996	19.996	100.741	19.989	2.013	0.546
784.500	470.672	79.998	19.995	100.741	19.992	1.838	0.546
785.000	470.884	79.996	19.995	100.741	19.989	2.036	0.533
785.500	471.168	79.996	19.996	100.740	19.987	2.128	0.502
786.000	471.426	79.996	19.995	100.740	19.988	2.050	0.519
786.500	471.660	79.996	19.996	100.740	19.991	1.856	0.517
787.000	471.921	79.996	19.995	100.740	19.990	1.950	0.494
787.500	472.206	79.995	19.995	100.741	19.988	2.079	0.521
788.000	472.474	79.997	19.995	100.741	19.989	2.027	0.549
788.500	472.743	79.997	19.996	100.741	19.988	2.056	0.545
789.000	472.994	79.995	19.995	100.741	19.992	1.819	0.529
789.500	473.223	79.997	19.996	100.741	19.992	1.788	0.500
790.000	473.476	79.996	19.996	100.740	19.988	2.070	0.481
790.500	473.791	79.995	19.995	100.740	19.989	1.977	0.525
791.000	474.039	79.995	19.996	100.740	19.988	2.042	0.565
791.500	474.317	79.996	19.996	100.741	19.989	2.025	0.545
792.000	474.581	79.995	19.996	100.741	19.988	2.047	0.534
792.500	474.851	79.996	19.997	100.741	19.987	2.139	0.538
793.000	475.079	79.996	19.998	100.741	19.987	2.130	0.516
793.500	475.368	79.996	19.996	100.741	19.988	2.052	0.507
794.000	475.595	79.997	19.997	100.740	19.987	2.166	0.517
794.500	475.854	79.996	19.997	100.740	19.989	2.018	0.501
795.000	476.122	79.995	19.997	100.740	19.990	1.959	0.506
795.500	476.351	79.996	19.996	100.740	19.988	2.061	0.512
796.000	476.652	79.997	19.996	100.740	19.987	2.115	0.514
796.500	476.937	79.996	19.996	100.740	19.988	2.069	0.558
797.000	477.160	79.996	19.996	100.739	19.990	1.910	0.547
797.500	477.430	79.997	19.996	100.739	19.992	1.803	0.500
798.000	477.692	79.995	19.996	100.739	19.992	1.819	0.512
798.500	477.916	79.996	19.996	100.738	19.989	2.038	0.509
799.000	478.208	79.997	19.996	100.739	19.990	1.936	0.501
799.500	478.420	79.995	19.997	100.740	19.986	2.218	0.510
800.000	478.694	79.996	19.996	100.739	19.989	2.007	0.495
800.500	478.966	79.995	19.997	100.739	19.992	1.839	0.516
801.000	479.192	79.995	19.996	100.740	19.989	2.007	0.522
801.500	479.439	79.996	19.996	100.740	19.989	1.988	0.486
802.000	479.706	79.994	19.995	100.740	19.990	1.946	0.494
802.500	479.981	79.998	19.996	100.740	19.991	1.882	0.528
803.000	480.241	79.995	19.996	100.740	19.991	1.847	0.538
803.500	480.480	79.996	19.996	100.740	19.991	1.873	0.517
804.000	480.709	79.996	19.995	100.740	19.993	1.731	0.484
804.500	481.014	79.995	19.997	100.741	19.993	1.770	0.501
805.000	481.248	79.996	19.995	100.741	19.993	1.734	0.537
805.500	481.508	79.995	19.996	100.741	19.996	1.528	0.517
806.000	481.745	79.996	19.995	100.741	19.991	1.858	0.495
806.500	481.979	79.996	19.995	100.742	19.993	1.731	0.484
807.000	482.237	79.997	19.995	100.742	19.991	1.848	0.481
807.500	482.504	79.996	19.996	100.742	19.991	1.857	0.508
808.000	482.730	79.994	19.995	100.743	19.989	1.979	0.509
808.500	482.977	79.994	19.995	100.743	19.995	1.632	0.483
809.000	483.278	79.995	19.995	100.743	19.991	1.869	0.510
809.500	483.475	79.996	19.995	100.744	19.989	2.036	0.523
810.000	483.782	79.995	19.995	100.744	19.992	1.837	0.501
810.500	484.035	79.996	19.996	100.744	19.994	1.682	0.532
811.000	484.279	79.995	19.996	100.745	19.990	1.964	0.528
811.500	484.535	79.996	19.997	100.746	19.991	1.867	0.498
812.000	484.805	79.995	19.995	100.745	19.995	1.599	0.512
812.500	485.033	79.994	19.996	100.745	19.993	1.731	0.512
813.000	485.285	79.994	19.996	100.744	19.993	1.749	0.489
813.500	485.582	79.995	19.995	100.742	19.993	1.750	0.514
814.000	485.810	79.996	19.996	100.743	19.993	1.713	0.537
814.500	486.080	79.994	19.995	100.743	19.993	1.772	0.511
815.000	486.343	79.994	19.996	100.741	19.995	1.637	0.515
815.500	486.600	79.994	19.996	100.741	19.993	1.711	0.527
816.000	486.811	79.994	19.996	100.741	19.990	1.923	0.494
816.500	487.101	79.993	19.997	100.741	19.990	1.945	0.484
817.000	487.326	79.995	19.996	100.741	19.991	1.856	0.508
817.500	487.587	79.995	19.997	100.743	19.995	1.635	0.501
818.000	487.884	79.994	19.996	100.744	19.990	1.914	0.522
818.500	488.128	79.995	19.996	100.744	19.991	1.896	0.549
819.000	488.407	79.994	19.996	100.743	19.992	1.788	0.532
819.500	488.637	79.996	19.997	100.743	19.992	1.822	0.516
820.000	488.883	79.996	19.996	100.743	19.992	1.831	0.492
820.500	489.147	79.995	19.996	100.743	19.995	1.605	0.493
821.000	489.388	79.995	19.996	100.743	19.994	1.664	0.508
821.500	489.634	79.995	19.996	100.743	19.993	1.741	0.496
822.000	489.906	79.995	19.997	100.742	19.991	1.840	0.502
822.500	490.160	79.997	19.996	100.743	19.992	1.824	0.522
823.000	490.418	79.995	19.996	100.742	19.993	1.752	0.519
823.500	490.654	79.996	19.996	100.741	19.993	1.745	0.503
824.000	490.929	79.996	19.996	100.741	19.991	1.842	0.502
824.500	491.201	79.995	19.997	100.741	19.995	1.630	0.529
825.000	491.442	79.995	19.997	100.741	19.993	1.714	0.530
825.500	491.714	79.996	19.996	100.742	19.996	1.535	0.513
826.000	491.950	79.997	19.996	100.742	19.991	1.849	0.511
826.500	492.207	79.996	19.997	100.742	19.990	1.923	0.500
827.000	492.430	79.996	19.996	100.743	19.992	1.790	0.486
827.500	492.708	79.994	19.998	100.742	19.993	1.713	0.490
828.000	492.965	79.996	19.997	100.742	19.989	1.989	0.518
828.500	493.278	79.996	19.997	100.742	19.991	1.855	0.553
829.000	493.469	79.996	19.997	100.742	19.991	1.887	0.538
829.500	493.764	79.996	19.997	100.742	19.994	1.650	0.495
830.000	493.994	79.996	19.996	100.741	19.992	1.828	0.505
830.500	494.268	79.996	19.996	100.741	19.993	1.722	0.514
831.000	494.546	79.994	19.996	100.739	19.994	1.643	0.528
831.500	494.743	79.997	19.996	100.737	19.992	1.824	0.513
832.000	495.023	79.996	19.996	100.737	19.993	1.711	0.476
832.500	495.279	79.996	19.996	100.736	19.996	1.562	0.507
833.000	495.525	79.998	19.998	100.737	19.991	1.883	0.519
833.500	495.773	79.997	19.997	100.738	19.993	1.740	0.498
834.000	496.013	79.997	19.996	100.739	19.990	1.930	0.491
834.500	496.302	79.995	19.996	100.739	19.993	1.745	0.508
835.000	496.515	79.997	19.996	100.739	19.992	1.821	0.516
835.500	496.776	79.997	19.998	100.739	19.993	1.756	0.488
836.000	497.052	79.995	19.997	100.738	19.993	1.714	0.505
836.500	497.308	79.998	19.997	100.738	19.996	1.558	0.534
837.000	497.492	79.998	19.996	100.739	19.992	1.788	0.486
837.500	497.809	79.997	19.997	100.739	19.992	1.777	0.471
838.000	498.024	79.996	19.996	100.739	19.991	1.853	0.517
838.500	498.293	79.996	19.996	100.739	19.992	1.819	0.508
839.000	498.518	79.996	19.996	100.739	19.993	1.711	0.489
839.500	498.776	79.996	19.996	100.740	19.994	1.650	0.488
840.000	499.057	79.996	19.995	100.740	19.992	1.838	0.511
840.500	499.277	79.996	19.996	100.741	19.992	1.835	0.520
841.000	499.535	79.998	19.996	100.741	19.993	1.768	0.489
841.500	499.772	79.996	19.997	100.741	19.992	1.797	0.486
842.000	500.012	79.995	19.996	100.740	19.989	1.979	0.486
842.500	500.276	79.996	19.996	100.740	19.991	1.869	0.491
843.000	500.529	79.996	19.996	100.738	19.988	2.042	0.511
843.500	500.777	79.997	19.996	100.737	19.990	1.916	0.509
844.000	501.030	79.997	19.996	100.738	19.993	1.723	0.501
844.500	501.277	79.996	19.995	100.738	19.992	1.837	0.501
845.000	501.526	79.996	19.996	100.738	19.989	2.004	0.498
845.500	501.769	79.996	19.995	100.740	19.992	1.819	0.494
846.000	502.005	79.997	19.996	100.741	19.997	1.506	0.486
846.500	502.259	79.997	19.997	100.742	19.992	1.811	0.484
847.000	502.530	79.997	19.996	100.742	19.993	1.727	0.508
847.500	502.749	79.998	19.995	100.743	19.994	1.689	0.508
848.000	502.984	79.996	19.996	100.742	19.992	1.815	0.472
848.500	503.245	79.997	19.994	100.741	19.994	1.655	0.475
849.000	503.481	79.999	19.996	100.740	19.993	1.772	0.496
849.500	503.735	79.996	19.996	100.740	19.994	1.653	0.493
850.000	503.992	79.997	19.995	100.740	19.991	1.873	0.500
850.500	504.244	79.998	19.995	100.739	19.992	1.806	0.510
851.000	504.540	79.998	19.996	100.738	19.991	1.890	0.528
851.500	504.765	79.998	19.995	100.737	19.991	1.905	0.535
852.000	504.993	79.998	19.996	100.737	19.989	2.023	0.487
852.500	505.244	79.998	19.995	100.736	19.988	2.074	0.466
853.000	505.478	79.999	19.995	100.738	19.991	1.903	0.482
853.500	505.745	79.999	19.996	100.738	19.989	1.982	0.493
854.000	505.998	80.000	19.995	100.738	19.991	1.898	0.510
854.500	506.244	79.998	19.994	100.738	19.990	1.941	0.509
855.000	506.486	79.998	19.996	100.738	19.989	1.991	0.494
855.500	506.732	79.998	19.996	100.738	19.986	2.232	0.488
856.000	506.991	79.999	19.996	100.738	19.992	1.822	0.497
856.500	507.225	79.999	19.995	100.738	19.990	1.921	0.499
857.000	507.491	79.999	19.995	100.738	19.988	2.067	0.496
857.500	507.737	79.999	19.996	100.737	19.990	1.937	0.506
858.000	507.968	79.998	19.996	100.737	19.994	1.702	0.495
858.500	508.223	79.997	19.996	100.737	19.991	1.894	0.481
859.000	508.482	79.997	19.996	100.736	19.993	1.765	0.500
859.500	508.746	79.997	19.997	100.736	19.992	1.822	0.518
860.000	508.970	79.998	19.996	100.736	19.990	1.945	0.505
860.500	509.265	79.997	19.995	100.737	19.991	1.883	0.504
861.000	509.542	79.999	19.996	100.737	19.992	1.803	0.546
861.500	509.710	79.998	19.996	100.731	19.991	1.901	0.509
862.000	510.014	79.996	19.995	100.731	19.993	1.759	0.458
862.500	510.266	79.996	19.996	100.732	19.996	1.546	0.514
863.000	510.514	79.996	19.997	100.733	19.992	1.785	0.528
863.500	510.773	79.996	19.997	100.734	19.991	1.848	0.504
864.000	511.023	79.996	19.995	100.741	19.992	1.835	0.508
864.500	511.269	79.997	19.996	100.741	19.989	1.975	0.503
865.000	511.521	79.995	19.996	100.742	19.990	1.925	0.497
865.500	511.748	79.996	19.996	100.740	19.990	1.952	0.489
866.000	511.993	79.995	19.995	100.740	19.991	1.898	0.475
866.500	512.241	79.995	19.996	100.740	19.990	1.934	0.482
867.000	512.495	79.995	19.995	100.740	19.988	2.063	0.497
867.500	512.760	79.995	19.996	100.738	19.988	2.040	0.511
868.000	512.993	79.996	19.996	100.738	19.991	1.880	0.509
868.500	513.262	79.995	19.995	100.739	19.992	1.813	0.500
869.000	513.498	79.997	19.996	100.739	19.995	1.578	0.503
869.500	513.746	79.996	19.994	100.741	19.991	1.880	0.494
870.000	513.961	79.996	19.995	100.742	19.988	2.049	0.474
870.500	514.305	79.994	19.996	100.742	19.991	1.862	0.512
871.000	514.548	79.997	19.995	100.742	19.993	1.713	0.573
871.500	514.824	79.993	19.995	100.740	19.994	1.679	0.553
872.000	515.053	79.995	19.994	100.740	19.995	1.623	0.512
872.500	515.339	79.995	19.995	100.740	19.995	1.614	0.510
873.000	515.550	79.995	19.995	100.741	19.996	1.569	0.506
873.500	515.823	79.995	19.995	100.741	19.995	1.599	0.491
874.000	516.065	79.994	19.996	100.743	19.995	1.596	0.499
874.500	516.329	79.996	19.995	100.743	19.994	1.695	0.510
875.000	516.582	79.995	19.995	100.742	19.993	1.758	0.511
875.500	516.836	79.997	19.996	100.741	19.995	1.603	0.513
876.000	517.101	79.995	19.995	100.741	19.997	1.490	0.514
876.500	517.355	79.995	19.996	100.741	19.988	2.065	0.519
877.000	517.607	79.995	19.995	100.741	19.988	2.063	0.512
877.500	517.846	79.994	19.995	100.742	19.992	1.830	0.498
878.000	518.094	79.996	19.995	100.741	19.989	2.006	0.489
878.500	518.371	79.997	19.995	100.740	19.990	1.936	0.506
879.000	518.638	79.996	19.996	100.739	19.991	1.871	0.534
879.500	518.850	79.995	19.995	100.738	19.990	1.950	0.511
880.000	519.089	79.996	19.996	100.739	19.991	1.882	0.465
880.500	519.354	79.996	19.995	100.739	19.996	1.567	0.477
881.000	519.612	79.996	19.996	100.740	19.990	1.907	0.514
881.500	519.854	79.995	19.995	100.742	19.991	1.873	0.512
882.000	520.106	79.996	19.996	100.742	19.991	1.887	0.497
882.500	520.401	79.995	19.995	100.741	19.989	2.002	0.520
883.000	520.671	79.995	19.996	100.742	19.990	1.934	0.556
883.500	520.874	79.996	19.996	100.742	19.989	1.995	0.519
884.000	521.139	79.996	19.994	100.742	19.991	1.871	0.471
884.500	521.382	79.997	19.996	100.742	19.996	1.520	0.487
885.000	521.669	79.997	19.997	100.742	19.991	1.876	0.519
885.500	521.910	79.997	19.995	100.739	19.992	1.828	0.529
886.000	522.163	79.995	19.996	100.739	19.991	1.865	0.511
886.500	522.428	79.997	19.996	100.739	19.990	1.966	0.506
887.000	522.692	79.995	19.995	100.739	19.990	1.928	0.523
887.500	522.952	79.995	19.997	100.739	19.994	1.643	0.526
888.000	523.205	79.995	19.995	100.742	19.989	2.022	0.519
888.500	523.464	79.995	19.996	100.743	19.989	1.995	0.513
889.000	523.706	79.997	19.995	100.742	19.990	1.923	0.506
889.500	523.947	79.994	19.996	100.743	19.988	2.072	0.492
890.000	524.185	79.996	19.997	100.742	19.990	1.948	0.481
890.500	524.458	79.995	19.996	100.742	19.986	2.214	0.495
891.000	524.706	79.996	19.997	100.743	19.990	1.952	0.516
891.500	524.989	79.994	19.996	100.743	19.991	1.876	0.526
892.000	525.200	79.995	19.997	100.743	19.991	1.847	0.512
892.500	525.451	79.995	19.996	100.744	19.990	1.927	0.478
893.000	525.732	79.996	19.997	100.744	19.987	2.155	0.497
893.500	525.991	79.995	19.996	100.744	19.988	2.067	0.536
894.000	526.270	79.994	19.996	100.743	19.989	2.033	0.539
894.500	526.546	79.994	19.997	100.743	19.987	2.130	0.546
895.000	526.788	79.995	19.996	100.743	19.992	1.828	0.537
895.500	527.073	79.994	19.997	100.743	19.993	1.759	0.523
896.000	527.293	79.995	19.997	100.744	19.990	1.959	0.516
896.500	527.544	79.995	19.997	100.744	19.989	2.036	0.487
897.000	527.826	79.996	19.997	100.744	19.994	1.700	0.502
897.500	528.075	79.995	19.996	100.744	19.989	1.989	0.532
898.000	528.361	79.996	19.997	100.744	19.990	1.907	0.533
898.500	528.670	79.995	19.997	100.743	19.991	1.865	0.565
899.000	528.910	79.995	19.997	100.743	19.993	1.747	0.572
899.500	529.134	79.995	19.996	100.743	19.987	2.148	0.506
900.000	529.427	79.995	19.997	100.743	19.992	1.785	0.491
900.500	529.712	79.995	19.996	100.742	19.988	2.063	0.548
901.000	529.969	79.994	19.996	100.741	19.985	2.273	0.560
901.500	530.256	79.996	19.996	100.740	19.986	2.221	0.543
902.000	530.501	79.995	19.996	100.739	19.989	2.029	0.539
902.500	530.764	79.993	19.995	100.739	19.987	2.140	0.520
903.000	531.030	79.995	19.995	100.739	19.987	2.122	0.518
903.500	531.298	79.996	19.995	100.739	19.985	2.243	0.531
904.000	531.576	79.997	19.996	100.739	19.991	1.867	0.540
904.500	531.845	79.997	19.995	100.739	19.988	2.092	0.546
905.000	532.131	79.996	19.996	100.738	19.992	1.783	0.551
905.500	532.380	79.996	19.996	100.738	19.989	1.988	0.545
906.000	532.614	79.997	19.996	100.738	19.989	1.993	0.509
906.500	532.895	79.997	19.996	100.739	19.989	2.027	0.499
907.000	533.198	79.999	19.995	100.739	19.987	2.108	0.549
907.500	533.402	79.997	19.995	100.740	19.989	1.996	0.546
908.000	533.692	79.997	19.996	100.740	19.988	2.072	0.501
908.500	533.969	79.997	19.995	100.739	19.989	2.020	0.531
909.000	534.230	79.997	19.996	100.738	19.990	1.935	0.552
909.500	534.502	79.998	19.996	100.738	19.991	1.890	0.536
910.000	534.740	79.998	19.996	100.739	19.987	2.106	0.521
910.500	535.026	79.998	19.997	100.738	19.988	2.076	0.517
911.000	535.352	79.999	19.997	100.739	19.986	2.192	0.568
911.500	535.558	79.998	19.996	100.740	19.996	1.565	0.572
912.000	535.854	79.998	19.997	100.740	19.991	1.901	0.517
912.500	536.114	79.998	19.997	100.738	19.989	1.982	0.529
913.000	536.356	79.997	19.997	100.738	19.990	1.969	0.529
913.500	536.619	79.998	19.996	100.738	19.988	2.039	0.504
914.000	536.875	79.998	19.997	100.738	19.991	1.849	0.512
914.500	537.141	79.997	19.996	100.738	19.985	2.244	0.520
915.000	537.416	79.996	19.997	100.738	19.989	1.982	0.531
915.500	537.639	79.997	19.996	100.737	19.989	1.978	0.519
916.000	537.910	79.996	19.996	100.737	19.988	2.049	0.496
916.500	538.214	79.997	19.997	100.737	19.989	2.004	0.535
917.000	538.443	79.999	19.998	100.737	19.986	2.192	0.554
917.500	538.740	79.996	19.996	100.738	19.988	2.056	0.529
918.000	538.970	79.997	19.996	100.735	19.986	2.207	0.527
918.500	539.277	79.995	19.996	100.735	19.988	2.050	0.532
919.000	539.529	79.997	19.998	100.733	19.990	1.962	0.548
919.500	539.791	79.996	19.996	100.734	19.989	1.993	0.536
920.000	540.052	79.997	19.997	100.733	19.986	2.194	0.519
920.500	540.308	79.996	19.996	100.735	19.989	1.995	0.520
921.000	540.548	79.996	19.997	100.736	19.988	2.061	0.507
921.500	540.820	79.996	19.998	100.736	19.989	1.975	0.504
922.000	541.048	79.996	19.997	100.736	19.987	2.122	0.506
922.500	541.328	79.997	19.998	100.731	19.988	2.056	0.504
923.000	541.581	79.997	19.996	100.728	19.987	2.162	0.520
923.500	541.877	79.996	19.997	100.727	19.984	2.351	0.541
924.000	542.100	79.997	19.998	100.728	19.987	2.137	0.534
924.500	542.354	79.996	19.998	100.728	19.987	2.130	0.498
925.000	542.666	79.995	19.995	100.730	19.984	2.313	0.521
925.500	542.875	79.997	19.997	100.733	19.986	2.216	0.543
926.000	543.173	79.996	19.997	100.733	19.986	2.194	0.514
926.500	543.424	79.997	19.997	100.732	19.986	2.214	0.528
927.000	543.672	79.998	19.997	100.732	19.988	2.061	0.523
927.500	543.932	79.996	19.996	100.735	19.988	2.084	0.503
928.000	544.190	79.999	19.996	100.734	19.990	1.971	0.513
928.500	544.440	79.998	19.996	100.731	19.989	2.015	0.514
929.000	544.705	79.996	19.998	100.731	19.991	1.871	0.512
929.500	544.910	79.998	19.997	100.732	19.994	1.684	0.492
930.000	545.204	79.998	19.996	100.732	19.989	1.993	0.485
930.500	545.436	79.997	19.995	100.734	19.991	1.901	0.512
931.000	545.712	79.999	19.996	100.737	19.987	2.112	0.516
931.500	545.949	79.998	19.997	100.734	19.988	2.086	0.510
932.000	546.233	79.997	19.993	100.730	19.989	2.011	0.517
932.500	546.458	79.995	19.996	100.728	19.986	2.180	0.515
933.000	546.723	79.999	19.997	100.728	19.988	2.063	0.500
933.500	546.972	79.998	19.996	100.728	19.993	1.759	0.502
934.000	547.245	79.997	19.996	100.732	19.991	1.853	0.518
934.500	547.522	79.999	19.996	100.737	19.989	2.027	0.536
935.000	547.726	79.999	19.995	100.740	19.989	2.015	0.515
935.500	547.973	79.999	19.995	100.740	19.991	1.840	0.466
936.000	548.260	80.000	19.995	100.739	19.994	1.693	0.493
936.500	548.490	79.998	19.995	100.734	19.990	1.941	0.526
937.000	548.714	79.998	19.995	100.731	19.990	1.952	0.485
937.500	548.990	79.998	19.995	100.729	19.987	2.124	0.477
938.000	549.253	79.998	19.995	100.730	19.989	1.986	0.520
938.500	549.494	79.997	19.996	100.732	19.994	1.705	0.522
939.000	549.771	79.998	19.994	100.733	19.990	1.962	0.511
939.500	550.057	79.996	19.995	100.736	19.989	1.975	0.540
940.000	550.276	79.997	19.997	100.738	19.985	2.272	0.533
940.500	550.549	79.998	19.996	100.737	19.986	2.189	0.498
941.000	550.816	79.999	19.996	100.737	19.992	1.819	0.517
941.500	551.077	79.996	19.996	100.739	19.993	1.763	0.534
942.000	551.354	79.997	19.996	100.739	19.985	2.277	0.533
942.500	551.526	79.998	19.995	100.739	19.993	1.732	0.493
943.000	551.794	79.998	19.996	100.738	19.992	1.817	0.444
943.500	552.053	79.997	19.996	100.739	19.990	1.935	0.483
944.000	552.307	79.996	19.996	100.739	19.994	1.707	0.520
944.500	552.582	79.997	19.996	100.739	19.990	1.916	0.521
945.000	552.822	79.995	19.995	100.740	19.986	2.172	0.522
945.500	553.048	79.996	19.996	100.742	19.988	2.090	0.491
946.000	553.338	79.995	19.995	100.742	19.987	2.113	0.491
946.500	553.577	79.995	19.995	100.742	19.988	2.085	0.523
947.000	553.834	79.996	19.996	100.741	19.995	1.599	0.513
947.500	554.083	79.996	19.996	100.740	19.989	2.002	0.500
948.000	554.308	79.995	19.995	100.739	19.989	2.025	0.490
948.500	554.560	79.997	19.996	100.739	19.990	1.964	0.476
949.000	554.836	79.996	19.995	100.739	19.991	1.869	0.502
949.500	555.114	79.997	19.996	100.740	19.990	1.928	0.541
950.000	555.344	79.996	19.996	100.741	19.992	1.811	0.531
950.500	555.654	79.995	19.996	100.742	19.989	1.980	0.524
951.000	555.845	79.995	19.994	100.741	19.990	1.928	0.521
951.500	556.101	79.995	19.996	100.740	19.988	2.079	0.474
952.000	556.343	79.995	19.995	100.740	19.992	1.799	0.472
952.500	556.556	79.995	19.997	100.741	19.990	1.948	0.476
953.000	556.799	79.995	19.996	100.741	19.992	1.813	0.456
953.500	557.116	79.995	19.994	100.742	19.988	2.076	0.509
954.000	557.301	79.994	19.996	100.741	19.989	2.002	0.531
954.500	557.518	79.995	19.995	100.737	19.989	2.011	0.452
955.000	557.842	79.995	19.995	100.734	19.992	1.797	0.471
955.500	558.061	79.997	19.997	100.731	19.992	1.795	0.542
956.000	558.296	79.995	19.996	100.727	19.992	1.810	0.499
956.500	558.551	79.994	19.998	100.728	19.991	1.882	0.472
957.000	558.785	79.995	19.996	100.732	19.990	1.948	0.489
957.500	559.037	79.995	19.996	100.734	19.989	1.982	0.488
958.000	559.272	79.996	19.996	100.733	19.993	1.763	0.487
958.500	559.501	79.996	19.996	100.734	19.994	1.664	0.476
959.000	559.773	79.997	19.996	100.734	19.987	2.165	0.482
959.500	559.989	79.996	19.995	100.733	19.996	1.520	0.494
960.000	560.253	79.995	19.997	100.732	19.990	1.943	0.484
960.500	560.459	79.996	19.994	100.733	19.992	1.829	0.475
961.000	560.702	79.995	19.996	100.735	19.993	1.739	0.460
961.500	560.975	79.997	19.996	100.737	19.994	1.702	0.483
962.000	561.209	79.996	19.996	100.734	19.991	1.854	0.512
962.500	561.421	79.996	19.996	100.729	19.995	1.617	0.476
963.000	561.685	79.998	19.995	100.730	19.993	1.757	0.460
963.500	561.949	79.996	19.996	100.731	19.998	1.441	0.502
964.000	562.157	79.997	19.996	100.730	19.996	1.569	0.500
964.500	562.435	79.999	19.995	100.732	19.991	1.889	0.479
965.000	562.668	79.994	19.994	100.740	19.993	1.759	0.499
965.500	562.901	79.995	19.996	100.740	19.994	1.657	0.488
966.000	563.117	79.996	19.996	100.740	19.991	1.896	0.458
966.500	563.360	79.998	19.996	100.739	19.990	1.955	0.454
967.000	563.631	79.998	19.996	100.739	19.992	1.790	0.486
967.500	563.868	79.997	19.995	100.735	19.997	1.504	0.511
968.000	564.104	79.997	19.995	100.732	19.992	1.795	0.491
968.500	564.337	79.997	19.996	100.729	19.993	1.754	0.471
969.000	564.582	79.998	19.995	100.730	19.992	1.797	0.473
969.500	564.852	79.996	19.996	100.731	19.993	1.725	0.496
970.000	565.080	79.995	19.995	100.733	19.993	1.749	0.506
970.500	565.294	79.996	19.995	100.736	19.992	1.804	0.470
971.000	565.544	79.997	19.996	100.739	19.993	1.761	0.453
971.500	565.775	79.997	19.996	100.733	19.987	2.140	0.473
972.000	566.003	79.996	19.995	100.729	19.989	2.016	0.471
972.500	566.257	79.997	19.996	100.723	19.992	1.819	0.471
973.000	566.493	79.995	19.994	100.720	19.992	1.838	0.486
973.500	566.726	79.995	19.997	100.718	19.992	1.804	0.479
974.000	566.956	79.997	19.996	100.722	19.992	1.809	0.466
974.500	567.192	79.996	19.995	100.724	19.992	1.811	0.465
975.000	567.461	79.998	19.996	100.727	19.992	1.838	0.486
975.500	567.687	79.997	19.996	100.730	19.994	1.682	0.500
976.000	567.927	79.995	19.995	100.729	19.990	1.917	0.481
976.500	568.182	79.997	19.995	100.727	19.995	1.624	0.481
977.000	568.402	79.997	19.997	100.729	19.990	1.923	0.485
977.500	568.679	79.995	19.997	100.731	19.993	1.738	0.486
978.000	568.866	79.996	19.996	100.731	19.992	1.792	0.480
978.500	569.106	79.995	19.995	100.736	19.992	1.815	0.446
979.000	569.341	79.997	19.996	100.737	19.991	1.899	0.451
979.500	569.541	79.996	19.997	100.737	19.989	1.977	0.455
980.000	569.830	79.993	19.996	100.737	19.992	1.809	0.463
980.500	570.028	79.994	19.996	100.737	19.994	1.648	0.488
981.000	570.278	79.994	19.996	100.737	19.990	1.942	0.467
981.500	570.528	79.996	19.996	100.739	19.995	1.599	0.474
982.000	570.755	79.995	19.996	100.739	19.991	1.899	0.489
982.500	571.002	79.995	19.997	100.736	19.991	1.903	0.475
983.000	571.258	79.997	19.997	100.733	19.992	1.788	0.489
983.500	571.459	79.994	19.996	100.730	19.992	1.820	0.480
984.000	571.726	79.997	19.996	100.727	19.990	1.971	0.462
984.500	571.927	79.996	19.997	100.727	19.990	1.961	0.468
985.000	572.126	79.996	19.996	100.727	19.988	2.088	0.433
985.500	572.413	79.995	19.997	100.728	19.989	1.982	0.443
986.000	572.682	79.996	19.997	100.728	19.989	2.002	0.521
986.500	572.937	79.996	19.997	100.730	19.992	1.775	0.540
987.000	573.172	79.998	19.997	100.731	19.987	2.146	0.507
987.500	573.370	79.997	19.996	100.729	19.993	1.727	0.462
988.000	573.606	79.998	19.996	100.731	19.993	1.774	0.434
988.500	573.863	79.998	19.995	100.734	19.993	1.739	0.463
989.000	574.131	79.997	19.997	100.733	19.989	1.977	0.509
989.500	574.349	79.997	19.996	100.731	19.992	1.806	0.505
990.000	574.619	79.997	19.996	100.731	19.991	1.851	0.486
990.500	574.871	79.997	19.996	100.732	19.993	1.720	0.505
991.000	575.111	79.996	19.996	100.726	19.993	1.743	0.507
991.500	575.338	79.996	19.997	100.723	19.993	1.756	0.480
992.000	575.610	79.997	19.996	100.723	19.991	1.862	0.484
992.500	575.833	79.997	19.996	100.724	19.993	1.770	0.497
993.000	576.057	79.997	19.996	100.721	19.995	1.590	0.471
993.500	576.312	79.996	19.995	100.726	19.993	1.711	0.463
994.000	576.532	79.999	19.996	100.730	19.994	1.666	0.477
994.500	576.773	79.997	19.996	100.729	19.990	1.950	0.468
995.000	576.996	79.995	19.997	100.731	19.994	1.689	0.463
995.500	577.249	79.999	19.997	100.733	19.992	1.790	0.470
996.000	577.461	80.000	19.996	100.731	19.990	1.950	0.470
996.500	577.717	79.997	19.996	100.728	19.993	1.761	0.466
997.000	577.964	79.998	19.996	100.731	19.990	1.943	0.486
997.500	578.183	79.997	19.996	100.728	19.988	2.086	0.485
998.000	578.427	79.998	19.996	100.729	19.989	2.020	0.464
998.500	578.691	79.996	19.995	100.731	19.988	2.085	0.485
999.000	578.895	79.997	19.996	100.732	19.987	2.119	0.488
999.500	579.091	79.997	19.995	100.730	19.987	2.108	0.434
1000.000	579.357	79.997	19.995	100.727	19.991	1.889	0.431
1000.500	579.604	79.997	19.996	100.722	19.994	1.671	0.487
1001.000	579.860	79.995	19.996	100.723	19.988	2.095	0.508
1001.500	580.064	79.997	19.997	100.725	19.992	1.831	0.482
1002.000	580.303	79.997	19.996	100.729	19.990	1.909	0.452
1002.500	580.536	79.996	19.995	100.733	19.992	1.833	0.458
1003.000	580.783	79.996	19.996	100.738	19.990	1.948	0.476
1003.500	581.044	79.996	19.997	100.738	19.990	1.925	0.494
1004.000	581.266	79.997	19.996	100.739	19.991	1.883	0.495
1004.500	581.530	79.995	19.996	100.738	19.992	1.808	0.484
1005.000	581.757	79.997	19.997	100.737	19.994	1.704	0.488
1005.500	581.984	79.996	19.997	100.737	19.993	1.727	0.473
1006.000	582.248	79.995	19.996	100.737	19.992	1.803	0.473
1006.500	582.444	79.998	19.996	100.737	19.995	1.628	0.476
1007.000	582.740	79.998	19.996	100.735	19.994	1.650	0.476
1007.500	582.955	79.996	19.997	100.737	19.994	1.702	0.501
1008.000	583.185	79.995	19.997	100.737	19.991	1.849	0.478
1008.500	583.407	79.995	19.995	100.737	19.993	1.741	0.449
1009.000	583.631	79.997	19.997	100.737	19.995	1.587	0.449
1009.500	583.928	79.996	19.996	100.740	19.991	1.856	0.483
1010.000	584.148	79.996	19.997	100.739	19.996	1.515	0.519
1010.500	584.394	79.998	19.998	100.740	19.990	1.936	0.492
1011.000	584.631	79.997	19.996	100.741	19.992	1.821	0.475
1011.500	584.840	79.997	19.996	100.741	19.990	1.936	0.464
1012.000	585.095	79.997	19.996	100.739	19.993	1.745	0.455
1012.500	585.358	79.997	19.996	100.739	19.991	1.887	0.491
1013.000	585.568	79.999	19.996	100.739	19.989	1.991	0.495
1013.500	585.821	79.996	19.997	100.738	19.989	1.991	0.468
1014.000	586.112	79.998	19.996	100.738	19.988	2.061	0.504
1014.500	586.360	79.998	19.997	100.741	19.993	1.770	0.542
1015.000	586.590	79.997	19.996	100.741	19.992	1.783	0.509
1015.500	586.841	79.998	19.997	100.741	19.991	1.862	0.480
1016.000	587.106	79.997	19.996	100.741	19.986	2.232	0.499
1016.500	587.347	79.997	19.996	100.741	19.983	2.376	0.511
1017.000	587.582	79.996	19.995	100.740	19.993	1.745	0.491
1017.500	587.836	79.999	19.997	100.740	19.992	1.819	0.483
1018.000	588.082	79.998	19.997	100.739	19.989	1.984	0.495
1018.500	588.374	79.996	19.996	100.739	19.992	1.817	0.519
1019.000	588.626	79.999	19.996	100.739	19.986	2.212	0.541
1019.500	588.860	79.998	19.997	100.739	19.990	1.970	0.515
1020.000	589.129	79.998	19.996	100.739	19.990	1.927	0.494
1020.500	589.413	79.998	19.997	100.741	19.990	1.953	0.528
1021.000	589.636	79.997	19.996	100.741	19.991	1.842	0.531
1021.500	589.890	79.998	19.996	100.742	19.988	2.061	0.492
1022.000	590.155	79.997	19.995	100.742	19.986	2.191	0.498
1022.500	590.413	79.997	19.996	100.741	19.983	2.431	0.521
1023.000	590.692	79.997	19.997	100.742	19.985	2.298	0.530
1023.500	590.943	79.997	19.996	100.742	19.986	2.171	0.533
1024.000	591.184	79.997	19.995	100.741	19.985	2.282	0.511
1024.500	591.421	79.997	19.995	100.741	19.991	1.905	0.485
1025.001	591.686	79.998	19.997	100.741	19.986	2.209	0.490
1025.500	591.911	79.996	19.995	100.741	19.985	2.250	0.496
1026.000	592.178	79.994	19.995	100.740	19.985	2.279	0.491
1026.500	592.475	79.995	19.995	100.741	19.984	2.320	0.528
1027.000	592.748	79.996	19.994	100.741	19.984	2.324	0.567
1027.500	592.968	79.997	19.996	100.740	19.988	2.043	0.531
1027.999	593.248	79.995	19.994	100.738	19.990	1.907	0.497
1028.499	593.514	79.995	19.995	100.737	19.986	2.189	0.522
1028.999	593.805	79.996	19.995	100.737	19.992	1.824	0.551
1029.499	594.035	79.996	19.996	100.737	19.994	1.698	0.539
1030.000	594.282	79.997	19.995	100.738	19.986	2.178	0.500
1030.500	594.551	79.995	19.994	100.740	19.991	1.856	0.497
1030.999	594.819	79.996	19.996	100.739	19.991	1.858	0.526
1031.499	595.111	79.996	19.995	100.737	19.990	1.925	0.549
1031.999	595.352	79.997	19.995	100.735	19.992	1.808	0.547
1032.499	595.575	79.997	19.997	100.734	19.987	2.113	0.498
1033.000	595.852	79.998	19.997	100.735	19.985	2.259	0.481
1033.500	596.162	79.996	19.996	100.735	19.985	2.277	0.544
1033.999	596.404	79.997	19.996	100.738	19.987	2.115	0.570
1034.499	596.670	79.994	19.995	100.740	19.988	2.097	0.530
1034.999	596.911	79.997	19.996	100.740	19.986	2.214	0.508
1035.499	597.129	79.995	19.995	100.740	19.989	2.015	0.483
1035.999	597.417	79.997	19.995	100.740	19.987	2.122	0.482
1036.499	597.649	79.996	19.997	100.740	19.988	2.088	0.513
1036.999	597.930	79.997	19.996	100.740	19.989	2.020	0.516
1037.499	598.204	79.995	19.996	100.740	19.989	1.979	0.534
1037.999	598.439	79.995	19.996	100.740	19.991	1.847	0.532
1038.499	598.708	79.997	19.996	100.740	19.988	2.052	0.506
1038.999	598.964	79.997	19.995	100.740	19.990	1.935	0.514
1039.499	599.241	79.995	19.997	100.741	19.990	1.962	0.529
1039.999	599.473	79.996	19.996	100.740	19.993	1.749	0.521
1040.499	599.733	79.995	19.995	100.740	19.987	2.148	0.501
1040.999	599.991	79.996	19.995	100.739	19.992	1.801	0.505
1041.499	600.258	79.998	19.996	100.738	19.991	1.867	0.521
1041.999	600.543	79.996	19.996	100.739	19.991	1.882	0.538
1042.500	600.802	79.997	19.995	100.737	19.990	1.926	0.548
1043.000	601.069	79.997	19.996	100.737	19.992	1.822	0.535
1043.499	601.327	79.996	19.997	100.738	19.989	2.014	0.526
1043.999	601.583	79.996	19.995	100.737	19.991	1.849	0.520
1044.500	601.835	79.997	19.998	100.736	19.989	2.006	0.511
1045.001	602.071	79.997	19.995	100.738	19.989	2.013	0.498
1045.500	602.345	79.998	19.997	100.738	19.987	2.108	0.499
1045.999	602.591	79.998	19.996	100.738	19.986	2.184	0.515
1046.499	602.841	79.996	19.995	100.739	19.983	2.385	0.509
1046.999	603.110	79.997	19.996	100.739	19.986	2.210	0.508
1047.499	603.338	79.997	19.997	100.738	19.985	2.299	0.508
1047.999	603.597	79.995	19.997	100.738	19.988	2.094	0.492
1048.499	603.846	79.996	19.996	100.739	19.989	2.025	0.497
1048.999	604.089	79.997	19.996	100.739	19.988	2.081	0.500
1049.499	604.346	79.996	19.996	100.740	19.985	2.241	0.496
1049.999	604.593	79.998	19.996	100.740	19.988	2.092	0.502
1050.499	604.889	79.996	19.995	100.739	19.990	1.919	0.523
1050.999	605.159	79.996	19.997	100.738	19.990	1.937	0.554
1051.499	605.381	79.997	19.996	100.738	19.993	1.736	0.529
1051.999	605.657	79.997	19.996	100.738	19.987	2.121	0.495
1052.499	605.889	79.998	19.996	100.739	19.990	1.970	0.503
1052.999	606.149	79.995	19.996	100.738	19.987	2.158	0.500
1053.499	606.386	80.000	19.996	100.734	19.989	2.025	0.495
1053.999	606.661	79.997	19.996	100.735	19.990	1.932	0.504
1054.500	606.906	79.997	19.996	100.735	19.990	1.923	0.516
1055.000	607.182	79.996	19.997	100.735	19.992	1.803	0.520
1055.499	607.403	79.998	19.996	100.735	19.991	1.894	0.509
1055.999	607.657	79.996	19.996	100.740	19.991	1.864	0.486
1056.499	607.918	79.997	19.996	100.740	19.993	1.774	0.495
1056.999	608.217	79.996	19.996	100.740	19.990	1.943	0.538
1057.499	608.465	79.996	19.996	100.741	19.990	1.950	0.554
1057.999	608.667	79.996	19.997	100.741	19.990	1.963	0.499
1058.499	608.957	79.997	19.995	100.741	19.988	2.054	0.471
1059.000	609.177	79.996	19.995	100.741	19.989	1.993	0.501
1059.500	609.436	79.995	19.994	100.742	19.988	2.103	0.494
1059.999	609.685	79.994	19.995	100.741	19.992	1.830	0.494
1060.499	609.945	79.996	19.995	100.740	19.991	1.865	0.509
1060.999	610.191	79.997	19.995	100.740	19.990	1.921	0.507
1061.499	610.405	79.995	19.996	100.739	19.992	1.812	0.483
1061.999	610.710	79.994	19.994	100.739	19.990	1.928	0.490
1062.499	610.961	79.996	19.995	100.739	19.991	1.856	0.537
1062.999	611.221	79.995	19.995	100.740	19.985	2.248	0.533
1063.499	611.479	79.995	19.996	100.739	19.991	1.876	0.514
1063.999	611.752	79.996	19.995	100.740	19.991	1.867	0.525
1064.499	612.025	79.996	19.995	100.740	19.987	2.167	0.538
1064.999	612.254	79.996	19.996	100.740	19.988	2.054	0.524
1065.499	612.499	79.995	19.995	100.740	19.991	1.891	0.488
1066.000	612.786	79.997	19.995	100.741	19.990	1.966	0.503
1066.500	613.033	79.996	19.995	100.741	19.987	2.160	0.533
1066.999	613.234	79.996	19.995	100.742	19.988	2.103	0.491
1067.500	613.542	79.997	19.995	100.742	19.991	1.887	0.479
1068.000	613.773	79.996	19.996	100.743	19.990	1.923	0.525
1068.500	614.034	79.997	19.995	100.743	19.989	1.986	0.515
1069.001	614.307	79.996	19.994	100.743	19.993	1.767	0.512
1069.500	614.569	79.997	19.995	100.743	19.990	1.955	0.534
1070.000	614.830	79.996	19.997	100.743	19.990	1.932	0.529
1070.500	615.073	79.999	19.997	100.743	19.988	2.092	0.513
1070.999	615.364	79.994	19.995	100.743	19.990	1.962	0.518
1071.499	615.627	79.998	19.996	100.743	19.990	1.941	0.544
1071.999	615.880	79.998	19.996	100.743	19.983	2.428	0.535
1072.500	616.145	79.997	19.996	100.743	19.986	2.178	0.517
1073.000	616.383	79.996	19.995	100.743	19.988	2.070	0.511
1073.499	616.638	79.999	19.995	100.743	19.986	2.236	0.498
1073.999	616.911	79.997	19.995	100.743	19.986	2.182	0.510
1074.499	617.163	79.997	19.995	100.742	19.991	1.853	0.526
1074.999	617.413	79.995	19.996	100.741	19.986	2.211	0.514
1075.499	617.681	79.997	19.997	100.741	19.988	2.049	0.510
1076.000	617.941	79.997	19.996	100.740	19.986	2.232	0.523
1076.500	618.216	79.999	19.997	100.740	19.986	2.203	0.532
1076.999	618.445	79.996	19.996	100.741	19.986	2.194	0.520
1077.499	618.680	79.997	19.996	100.741	19.990	1.939	0.484
1077.999	618.925	79.996	19.995	100.741	19.983	2.381	0.471
1078.499	619.203	79.997	19.996	100.742	19.987	2.140	0.501
1079.000	619.469	79.996	19.996	100.742	19.988	2.079	0.534
1079.500	619.700	79.996	19.997	100.742	19.986	2.185	0.521
1079.999	619.961	79.996	19.996	100.742	19.991	1.887	0.494
1080.499	620.190	79.998	19.997	100.741	19.989	2.024	0.491
1080.999	620.479	79.997	19.996	100.740	19.987	2.115	0.504
1081.499	620.750	79.998	19.997	100.739	19.994	1.704	0.538
1081.999	620.984	79.996	19.995	100.740	19.987	2.155	0.533
1082.499	621.209	79.996	19.996	100.741	19.988	2.074	0.483
1083.000	621.496	79.995	19.997	100.742	19.989	2.036	0.486
1083.500	621.743	79.996	19.996	100.742	19.987	2.137	0.523
1083.999	621.990	79.996	19.996	100.744	19.984	2.349	0.514
1084.499	622.271	79.996	19.997	100.746	19.984	2.363	0.511
1084.999	622.520	79.996	19.996	100.745	19.987	2.131	0.529
1085.499	622.741	79.996	19.996	100.745	19.983	2.403	0.500
1085.999	623.022	79.997	19.996	100.747	19.988	2.095	0.486
1086.499	623.262	79.996	19.995	100.745	19.988	2.049	0.512
1086.999	623.543	79.995	19.995	100.744	19.985	2.259	0.521
1087.499	623.779	79.996	19.995	100.744	19.984	2.316	0.519
1087.999	624.031	79.997	19.997	100.744	19.983	2.395	0.502
1088.499	624.286	79.998	19.996	100.743	19.987	2.169	0.497
1088.999	624.520	79.997	19.996	100.744	19.987	2.106	0.497
1089.499	624.795	79.998	19.997	100.743	19.989	1.986	0.499
1089.999	625.006	79.997	19.996	100.743	19.989	2.002	0.498
1090.499	625.280	79.998	19.996	100.744	19.985	2.241	0.486
1090.999	625.523	79.996	19.997	100.744	19.988	2.049	0.501
1091.499	625.797	79.997	19.996	100.744	19.991	1.848	0.517
1091.999	626.029	79.996	19.994	100.744	19.991	1.905	0.511
1092.499	626.282	79.998	19.995	100.743	19.988	2.054	0.495
1092.999	626.545	79.997	19.996	100.743	19.987	2.143	0.500
1093.499	626.790	79.997	19.996	100.742	19.987	2.165	0.512
1093.999	627.048	79.996	19.996	100.742	19.988	2.098	0.506
1094.499	627.296	79.997	19.995	100.740	19.988	2.091	0.505
1094.999	627.551	79.997	19.996	100.740	19.986	2.216	0.505
1095.499	627.832	80.000	19.996	100.736	19.986	2.231	0.519
1095.999	628.042	79.997	19.996	100.733	19.989	2.012	0.514
1096.499	628.321	79.999	19.996	100.731	19.986	2.186	0.490
1096.999	628.563	79.998	19.995	100.731	19.988	2.060	0.504
1097.499	628.797	79.997	19.996	100.731	19.987	2.150	0.498
1097.999	629.065	79.998	19.996	100.733	19.989	1.988	0.489
1098.499	629.305	79.996	19.996	100.736	19.987	2.115	0.506
1098.999	629.531	79.996	19.996	100.736	19.987	2.121	0.487
1099.499	629.802	79.998	19.996	100.737	19.990	1.939	0.481
1099.999	630.067	80.000	19.997	100.737	19.991	1.851	0.517
1100.499	630.297	79.996	19.996	100.736	19.988	2.067	0.516
1100.999	630.546	79.998	19.997	100.737	19.986	2.207	0.487
1101.499	630.782	79.998	19.996	100.737	19.994	1.695	0.482
1101.999	631.047	79.998	19.995	100.737	19.984	2.322	0.493
1102.499	631.287	79.995	19.996	100.744	19.989	2.004	0.503
1102.999	631.564	79.997	19.996	100.737	19.984	2.313	0.511
1103.499	631.813	79.996	19.995	100.718	19.987	2.148	0.521
1103.999	632.049	79.995	19.996	100.703	19.987	2.153	0.505
1104.499	632.274	79.998	19.998	100.696	19.985	2.243	0.473
1104.999	632.519	79.998	19.996	100.684	19.988	2.056	0.465
1105.499	632.787	79.996	19.997	100.690	19.988	2.058	0.492
1105.999	633.045	79.995	19.996	100.734	19.987	2.135	0.520
1106.499	633.294	79.995	19.997	100.764	19.989	1.988	0.517
1107.000	633.529	79.995	19.996	100.775	19.985	2.284	0.495
1107.500	633.797	79.995	19.997	100.781	19.985	2.254	0.493
1107.999	634.032	79.996	19.998	100.781	19.991	1.867	0.503
1108.500	634.305	79.993	19.997	100.757	19.986	2.219	0.506
1109.001	634.537	79.993	19.996	100.742	19.992	1.795	0.507
1109.501	634.823	79.994	19.996	100.738	19.986	2.192	0.512
1110.001	635.077	79.995	19.996	100.738	19.988	2.086	0.529
1110.500	635.286	79.997	19.997	100.738	19.988	2.076	0.501
1110.999	635.592	79.994	19.997	100.738	19.985	2.266	0.489
1111.499	635.815	79.993	19.997	100.738	19.989	2.011	0.522
1111.999	636.067	79.996	19.997	100.738	19.990	1.907	0.502
1112.499	636.342	79.993	19.996	100.738	19.986	2.212	0.501
1112.999	636.574	79.996	19.997	100.739	19.988	2.090	0.517
1113.499	636.801	79.995	19.996	100.739	19.986	2.194	0.483
1113.999	637.073	79.997	19.996	100.739	19.991	1.867	0.479
1114.499	637.334	79.994	19.996	100.739	19.988	2.070	0.516
1115.000	637.527	79.996	19.996	100.739	19.987	2.139	0.493
1115.500	637.800	79.996	19.997	100.739	19.988	2.067	0.460
1115.999	638.052	79.998	19.997	100.739	19.988	2.054	0.495
1116.500	638.319	79.997	19.996	100.739	19.993	1.729	0.522
1117.000	638.578	79.995	19.996	100.739	19.990	1.948	0.523
1117.499	638.835	79.996	19.996	100.739	19.984	2.365	0.521
1118.000	639.076	79.996	19.995	100.739	19.987	2.142	0.507
1118.500	639.315	79.997	19.997	100.739	19.986	2.209	0.489
1119.000	639.567	79.996	19.995	100.739	19.991	1.896	0.485
1119.500	639.801	79.997	19.995	100.739	19.986	2.180	0.488
1119.999	640.054	79.997	19.997	100.739	19.987	2.166	0.486
1120.499	640.286	79.995	19.996	100.740	19.990	1.966	0.486
1120.999	640.558	79.997	19.997	100.740	19.984	2.322	0.495
1121.499	640.813	79.996	19.995	100.740	19.985	2.302	0.516
1122.000	641.068	79.994	19.995	100.740	19.987	2.106	0.518
1122.501	641.278	79.995	19.995	100.740	19.989	2.027	0.488
1123.000	641.548	79.996	19.997	100.739	19.989	2.018	0.473
1123.499	641.811	79.999	19.995	100.739	19.988	2.054	0.506
1123.999	642.088	79.997	19.997	100.740	19.987	2.164	0.536
1124.499	642.308	79.997	19.996	100.740	19.989	2.002	0.519
1124.999	642.567	79.997	19.996	100.740	19.984	2.362	0.488
1125.499	642.846	79.995	19.995	100.740	19.985	2.288	0.509
1125.999	643.105	79.995	19.995	100.739	19.991	1.882	0.538
1126.499	643.326	79.998	19.995	100.739	19.990	1.957	0.508
1126.999	643.587	79.995	19.996	100.739	19.987	2.151	0.481
1127.499	643.797	79.995	19.997	100.740	19.985	2.302	0.477
1127.999	644.062	79.997	19.997	100.741	19.987	2.112	0.474
1128.499	644.338	79.997	19.997	100.741	19.982	2.473	0.508
1128.999	644.599	79.997	19.996	100.740	19.986	2.198	0.538
1129.499	644.842	79.997	19.996	100.740	19.988	2.092	0.520
1129.999	645.130	79.994	19.995	100.740	19.984	2.362	0.518
1130.499	645.363	79.998	19.995	100.739	19.991	1.894	0.526
1130.999	645.621	79.997	19.995	100.739	19.992	1.817	0.505
1131.500	645.842	79.996	19.996	100.740	19.986	2.196	0.485
1132.001	646.081	79.996	19.996	100.740	19.986	2.203	0.470
1132.501	646.373	79.998	19.995	100.741	19.991	1.882	0.496
1133.000	646.610	79.997	19.996	100.741	19.986	2.212	0.530
1133.499	646.859	79.995	19.996	100.744	19.985	2.257	0.507
1133.999	647.107	79.996	19.995	100.745	19.989	2.002	0.491
1134.499	647.348	79.995	19.995	100.745	19.989	2.006	0.493
1134.999	647.647	79.996	19.995	100.745	19.988	2.056	0.515
1135.499	647.907	79.995	19.996	100.746	19.991	1.842	0.550
1135.999	648.119	79.997	19.997	100.744	19.986	2.232	0.516
1136.499	648.377	79.996	19.997	100.746	19.985	2.245	0.471
1136.999	648.646	79.997	19.997	100.750	19.987	2.119	0.498
1137.499	648.896	79.996	19.996	100.751	19.989	2.031	0.523
1138.000	649.133	79.996	19.996	100.752	19.995	1.634	0.503
1138.500	649.405	79.995	19.995	100.751	19.983	2.387	0.498
1138.999	649.686	79.994	19.996	100.749	19.992	1.776	0.531
1139.499	649.969	79.995	19.995	100.746	19.989	1.988	0.558
1139.999	650.224	79.993	19.995	100.745	19.992	1.806	0.551
1140.499	650.486	79.995	19.997	100.743	19.991	1.873	0.528
1140.999	650.681	79.994	19.995	100.744	19.994	1.693	0.487
1141.499	650.993	79.996	19.996	100.743	19.991	1.867	0.482
1141.999	651.214	79.996	19.996	100.742	19.989	1.991	0.520
1142.499	651.497	79.994	19.996	100.742	19.990	1.923	0.518
1142.999	651.721	79.994	19.996	100.743	19.991	1.882	0.506
1143.499	652.000	79.996	19.995	100.743	19.991	1.871	0.505
1143.999	652.241	79.995	19.995	100.743	19.987	2.149	0.511
1144.499	652.546	79.996	19.995	100.743	19.990	1.959	0.533
1144.999	652.801	79.993	19.996	100.744	19.988	2.096	0.553
1145.499	653.025	79.995	19.995	100.744	19.987	2.144	0.519
1146.000	653.300	79.998	19.995	100.744	19.989	2.006	0.489
1146.500	653.588	79.997	19.996	100.744	19.989	2.029	0.531
1147.000	653.833	79.996	19.995	100.744	19.986	2.173	0.548
1147.500	654.097	79.995	19.995	100.744	19.984	2.342	0.521
1147.999	654.359	79.997	19.996	100.744	19.983	2.419	0.517
1148.499	654.636	79.997	19.996	100.744	19.986	2.203	0.532
1148.999	654.887	79.996	19.997	100.745	19.992	1.835	0.533
1149.499	655.143	79.996	19.995	100.744	19.982	2.446	0.517
1149.999	655.439	79.998	19.996	100.745	19.988	2.042	0.529
1150.499	655.682	79.995	19.995	100.745	19.985	2.272	0.546
1151.000	655.947	79.993	19.995	100.745	19.985	2.266	0.523
1151.500	656.218	79.999	19.996	100.745	19.984	2.365	0.522
1151.999	656.483	79.998	19.996	100.745	19.985	2.279	0.536
1152.500	656.738	79.997	19.995	100.746	19.982	2.448	0.528
1153.000	657.023	79.997	19.996	100.746	19.986	2.209	0.530
1153.499	657.270	79.996	19.995	100.746	19.985	2.286	0.536
1153.999	657.540	79.998	19.996	100.746	19.990	1.941	0.525
1154.499	657.838	79.997	19.996	100.746	19.990	1.966	0.543
1154.999	658.089	79.998	19.995	100.746	19.994	1.700	0.558
1155.499	658.329	79.997	19.994	100.746	19.990	1.914	0.520
1155.999	658.551	79.998	19.996	100.745	19.989	2.009	0.477
1156.499	658.846	79.996	19.993	100.744	19.984	2.340	0.489
1156.999	659.081	79.999	19.995	100.744	19.981	2.514	0.523
1157.499	659.332	79.998	19.995	100.743	19.984	2.352	0.508
1157.999	659.647	79.998	19.995	100.743	19.984	2.315	0.526
1158.499	659.887	79.998	19.996	100.742	19.989	1.991	0.561
1158.999	660.154	79.996	19.994	100.742	19.989	1.991	0.531
1159.499	660.401	79.996	19.994	100.742	19.995	1.628	0.511
1160.000	660.677	79.999	19.996	100.743	19.992	1.813	0.519
1160.500	660.940	79.996	19.995	100.743	19.984	2.316	0.531
1160.999	661.174	79.998	19.996	100.743	19.991	1.867	0.517
1161.499	661.439	79.997	19.996	100.742	19.987	2.135	0.498
1161.999	661.734	79.996	19.997	100.741	19.988	2.051	0.530
1162.499	661.969	79.997	19.995	100.741	19.993	1.731	0.545
1163.000	662.261	79.998	19.997	100.740	19.993	1.741	0.529
1163.501	662.531	79.996	19.996	100.740	19.989	2.009	0.545
1164.000	662.742	79.998	19.997	100.741	19.989	2.036	0.521
1164.499	663.025	79.997	19.996	100.741	19.985	2.264	0.487
1165.000	663.302	79.994	19.996	100.741	19.991	1.856	0.527
1165.500	663.551	79.995	19.996	100.741	19.984	2.333	0.543
1165.999	663.862	79.998	19.998	100.741	19.991	1.900	0.543
1166.500	664.111	79.995	19.997	100.742	19.992	1.781	0.560
1167.001	664.346	79.996	19.997	100.742	19.992	1.813	0.522
1167.500	664.642	79.996	19.996	100.742	19.989	2.020	0.508
1167.999	664.908	79.997	19.997	100.742	19.991	1.900	0.546
1168.499	665.155	79.995	19.995	100.742	19.994	1.657	0.537
1168.999	665.441	79.997	19.998	100.742	19.983	2.369	0.523
1169.499	665.704	79.997	19.996	100.742	19.989	2.029	0.541
1169.999	665.965	79.996	19.996	100.742	19.986	2.227	0.537
1170.499	666.225	79.997	19.996	100.742	19.991	1.889	0.523
1170.999	666.503	79.996	19.996	100.741	19.992	1.829	0.530
1171.499	666.743	79.998	19.997	100.740	19.989	1.979	0.528
1171.999	667.023	79.996	19.997	100.740	19.994	1.695	0.519
1172.500	667.250	79.998	19.997	100.741	19.990	1.970	0.513
1173.000	667.567	79.999	19.997	100.741	19.990	1.950	0.525
1173.499	667.842	79.998	19.998	100.741	19.988	2.067	0.568
1173.999	668.058	79.999	19.997	100.742	19.986	2.214	0.542
1174.499	668.353	79.996	19.996	100.743	19.991	1.891	0.501
1174.999	668.574	79.998	19.997	100.740	19.983	2.381	0.514
1175.499	668.865	79.997	19.998	100.739	19.989	2.009	0.514
1175.999	669.131	79.998	19.996	100.739	19.980	2.615	0.534
1176.499	669.398	79.997	19.996	100.738	19.987	2.119	0.545
1176.999	669.614	79.999	19.998	100.739	19.987	2.140	0.508
1177.499	669.882	79.997	19.995	100.740	19.984	2.315	0.484
1177.999	670.146	79.998	19.995	100.742	19.986	2.175	0.508
1178.499	670.400	80.000	19.996	100.744	19.987	2.166	0.525
1178.999	670.648	79.999	19.995	100.743	19.988	2.074	0.510
1179.499	670.919	79.999	19.997	100.742	19.984	2.326	0.511
1179.999	671.175	79.999	19.995	100.742	19.988	2.081	0.523
1180.499	671.438	79.998	19.997	100.741	19.987	2.110	0.523
1180.999	671.694	79.999	19.997	100.740	19.987	2.149	0.519
1181.500	671.941	79.999	19.995	100.740	19.991	1.889	0.511
1182.000	672.198	80.000	19.997	100.739	19.988	2.076	0.504
1182.499	672.479	79.999	19.996	100.740	19.990	1.943	0.521
1182.999	672.721	79.999	19.996	100.740	19.982	2.473	0.530
1183.499	672.996	80.000	19.997	100.740	19.984	2.360	0.520
1183.999	673.237	79.997	19.996	100.740	19.987	2.121	0.517
1184.499	673.492	79.997	19.995	100.740	19.986	2.231	0.506
1184.999	673.788	79.998	19.997	100.740	19.993	1.717	0.523
1185.499	674.012	79.998	19.997	100.739	19.993	1.749	0.536
1186.000	674.267	79.997	19.996	100.739	19.992	1.778	0.500
1186.500	674.532	79.997	19.996	100.739	19.989	2.008	0.499
1187.000	674.796	79.998	19.998	100.739	19.989	2.011	0.524
1187.500	675.073	79.996	19.997	100.739	19.990	1.959	0.535
1187.999	675.304	79.997	19.997	100.739	19.987	2.162	0.525
1188.499	675.585	79.996	19.996	100.739	19.986	2.198	0.510
1188.999	675.833	79.996	19.995	100.740	19.994	1.697	0.521
1189.499	676.068	79.995	19.996	100.741	19.993	1.738	0.507
1189.999	676.358	79.995	19.997	100.741	19.992	1.812	0.504
1190.499	676.599	79.997	19.997	100.742	19.986	2.193	0.528
1190.999	676.813	79.996	19.998	100.742	19.989	1.973	0.493
1191.499	677.107	79.996	19.996	100.742	19.988	2.058	0.482
1191.999	677.333	79.995	19.996	100.741	19.989	2.036	0.514
1192.499	677.607	79.995	19.997	100.742	19.989	2.031	0.510
1192.999	677.888	79.995	19.997	100.742	19.987	2.119	0.528
1193.499	678.109	79.995	19.997	100.746	19.987	2.155	0.529
1193.999	678.385	79.995	19.998	100.748	19.990	1.921	0.500
1194.499	678.643	79.995	19.997	100.749	19.993	1.713	0.515
1195.000	678.910	79.994	19.995	100.751	19.988	2.050	0.529
1195.500	679.174	79.994	19.998	100.757	19.988	2.094	0.528
1195.999	679.419	79.995	19.997	100.757	19.982	2.459	0.520
1196.499	679.682	79.994	19.999	100.757	19.987	2.167	0.509
1196.999	679.917	79.994	19.998	100.756	19.988	2.060	0.503
1197.499	680.186	79.996	19.999	100.753	19.988	2.065	0.501
1197.999	680.445	79.995	19.999	100.747	19.996	1.531	0.516
1198.499	680.724	79.995	19.998	100.743	19.990	1.952	0.533
1198.999	680.981	79.994	19.997	100.742	19.993	1.709	0.537
1199.500	681.241	79.997	19.999	100.742	19.985	2.266	0.526
1200.000	681.486	79.994	19.996	100.743	19.984	2.356	0.511
1200.499	681.764	79.994	19.996	100.744	19.990	1.970	0.514
1200.999	681.999	79.995	19.999	100.744	19.988	2.051	0.518
1201.499	682.286	79.994	19.998	100.745	19.986	2.227	0.518
1201.999	682.520	79.995	19.998	100.746	19.981	2.509	0.521
1202.499	682.776	79.996	19.996	100.745	19.989	2.020	0.505
1202.999	683.053	79.996	19.997	100.745	19.992	1.804	0.511
1203.499	683.324	79.994	19.997	100.745	19.992	1.826	0.541
1203.999	683.564	79.995	19.997	100.744	19.987	2.139	0.530
1204.499	683.823	79.994	19.997	100.740	19.986	2.171	0.505
1204.999	684.066	79.996	19.997	100.739	19.987	2.149	0.500
1205.499	684.317	79.996	19.998	100.739	19.989	2.020	0.498
1205.999	684.598	79.996	19.997	100.739	19.990	1.945	0.513
1206.499	684.847	79.994	19.996	100.739	19.989	2.036	0.531
1206.999	685.087	79.995	19.997	100.741	19.991	1.864	0.509
1207.499	685.353	79.995	19.995	100.742	19.987	2.166	0.497
1207.999	685.614	79.994	19.995	100.742	19.992	1.830	0.517
1208.499	685.895	79.996	19.995	100.742	19.990	1.907	0.535
1208.999	686.112	79.996	19.996	100.742	19.987	2.135	0.520
1209.500	686.373	79.996	19.996	100.742	19.985	2.248	0.488
1210.000	686.571	79.995	19.994	100.741	19.990	1.909	0.469
1210.499	686.890	79.996	19.997	100.741	19.985	2.245	0.488
1210.999	687.135	79.995	19.996	100.741	19.986	2.209	0.540
1211.499	687.362	79.994	19.995	100.741	19.996	1.558	0.518
1211.999	687.652	79.996	19.995	100.741	19.984	2.313	0.494
1212.499	687.911	79.995	19.995	100.743	19.985	2.257	0.533
1212.999	688.133	79.997	19.996	100.744	19.983	2.383	0.515
1213.499	688.417	79.996	19.995	100.745	19.986	2.176	0.494
1213.999	688.665	79.994	19.995	100.745	19.978	2.748	0.519
1214.499	688.849	79.995	19.995	100.745	19.984	2.365	0.482
1214.999	689.138	79.995	19.995	100.745	19.985	2.279	0.452
1215.499	689.428	79.996	19.995	100.744	19.988	2.067	0.526
1215.999	689.662	79.994	19.996	100.744	19.986	2.178	0.552
1216.499	689.917	79.996	19.996	100.744	19.982	2.469	0.507
1217.000	690.180	79.994	19.996	100.744	19.986	2.185	0.504
1217.500	690.448	79.993	19.996	100.746	19.986	2.182	0.524
1217.999	690.719	79.994	19.995	100.748	19.984	2.342	0.535
1218.499	690.938	79.993	19.994	100.750	19.985	2.293	0.515
1218.999	691.221	79.994	19.996	100.750	19.982	2.435	0.496
1219.499	691.457	79.996	19.996	100.749	19.989	2.033	0.511
1220.000	691.699	79.993	19.995	100.747	19.982	2.453	0.498
1220.500	691.936	79.993	19.995	100.745	19.991	1.860	0.478
1220.999	692.197	79.996	19.995	100.742	19.985	2.239	0.488
1221.499	692.413	79.994	19.995	100.743	19.990	1.916	0.487
1221.999	692.661	79.995	19.995	100.744	19.996	1.551	0.470
1222.499	692.946	79.995	19.996	100.743	19.996	1.513	0.499
1223.000	693.157	79.995	19.997	100.743	19.989	2.033	0.515
1223.500	693.412	79.996	19.997	100.743	19.985	2.243	0.481
1223.999	693.697	79.995	19.995	100.743	19.983	2.408	0.503
1224.500	693.924	79.996	19.996	100.742	19.985	2.273	0.526
1225.000	694.188	79.996	19.996	100.743	19.986	2.225	0.501
1225.499	694.478	79.996	19.998	100.742	19.987	2.130	0.522
1225.999	694.654	79.995	19.996	100.742	19.984	2.326	0.510
1226.499	694.937	79.996	19.996	100.741	19.981	2.548	0.462
1226.999	695.166	79.995	19.996	100.741	19.983	2.381	0.485
1227.499	695.458	79.996	19.995	100.740	19.977	2.825	0.517
1228.000	695.644	79.993	19.995	100.741	19.985	2.300	0.499
1228.500	695.943	79.996	19.995	100.740	19.983	2.410	0.482
1228.999	696.180	79.996	19.996	100.741	19.989	2.016	0.511
1229.499	696.427	79.996	19.997	100.742	19.988	2.054	0.510
1229.999	696.687	79.995	19.995	100.742	19.984	2.338	0.495
1230.499	696.925	79.996	19.997	100.741	19.982	2.460	0.502
1230.999	697.193	79.996	19.995	100.741	19.990	1.912	0.502
1231.499	697.431	79.999	19.997	100.741	19.984	2.340	0.506
1231.999	697.704	79.996	19.996	100.741	19.982	2.480	0.509
1232.499	697.923	79.997	19.996	100.741	19.984	2.311	0.502
1233.000	698.182	79.995	19.996	100.741	19.980	2.593	0.485
1233.500	698.434	79.998	19.996	100.741	19.983	2.430	0.494
1233.999	698.703	79.994	19.996	100.741	19.986	2.210	0.516
1234.499	698.934	79.997	19.997	100.740	19.981	2.552	0.511
1235.000	699.200	79.997	19.995	100.741	19.983	2.421	0.499
1235.500	699.442	79.995	19.996	100.740	19.983	2.401	0.502
1235.999	699.694	79.998	19.995	100.740	19.985	2.282	0.501
1236.500	699.956	79.997	19.996	100.741	19.981	2.541	0.504
1237.000	700.194	79.997	19.996	100.742	19.984	2.307	0.507
1237.499	700.477	79.996	19.995	100.741	19.978	2.726	0.511
1237.999	700.680	79.997	19.994	100.744	19.978	2.701	0.503
1238.499	700.931	79.999	19.996	100.744	19.983	2.406	0.470
1238.999	701.185	79.998	19.997	100.744	19.985	2.270	0.480
1239.499	701.440	79.996	19.996	100.743	19.984	2.340	0.507
1239.999	701.687	79.998	19.996	100.744	19.979	2.669	0.506
1240.499	701.926	79.998	19.996	100.741	19.984	2.349	0.494
1240.999	702.155	79.996	19.995	100.741	19.988	2.094	0.477
1241.499	702.419	79.996	19.996	100.740	19.981	2.525	0.480
1241.999	702.694	79.998	19.996	100.740	19.980	2.599	0.516
1242.499	702.956	79.996	19.994	100.740	19.981	2.512	0.538
1242.999	703.205	79.997	19.996	100.740	19.979	2.687	0.524
1243.499	703.448	79.998	19.996	100.739	19.986	2.182	0.501
1243.999	703.704	79.997	19.995	100.739	19.983	2.374	0.495
1244.499	703.961	79.998	19.996	100.739	19.985	2.246	0.506
1245.000	704.216	79.997	19.996	100.739	19.983	2.428	0.512
1245.500	704.432	79.996	19.995	100.739	19.980	2.568	0.491
1245.999	704.695	79.995	19.994	100.740	19.979	2.683	0.475
1246.500	704.931	79.997	19.996	100.741	19.981	2.507	0.489
1247.001	705.185	79.998	19.995	100.740	19.979	2.635	0.494
1247.500	705.433	79.998	19.994	100.739	19.980	2.579	0.496
1247.999	705.674	79.998	19.997	100.738	19.985	2.290	0.496
1248.499	705.949	79.997	19.995	100.736	19.983	2.399	0.503
1248.999	706.183	79.999	19.995	100.736	19.985	2.268	0.513
1249.499	706.473	79.997	19.995	100.737	19.985	2.255	0.516
1249.999	706.704	79.997	19.995	100.738	19.987	2.164	0.522
1250.499	706.981	79.996	19.995	100.739	19.982	2.458	0.515
1250.999	707.215	79.998	19.995	100.741	19.976	2.847	0.510
1251.499	707.440	79.999	19.996	100.743	19.982	2.473	0.484
1251.999	707.725	79.997	19.996	100.742	19.986	2.221	0.484
1252.499	708.007	79.999	19.997	100.742	19.985	2.246	0.538
1252.999	708.235	79.997	19.996	100.742	19.988	2.050	0.539
1253.499	708.459	79.997	19.996	100.742	19.988	2.068	0.482
1253.999	708.739	79.996	19.995	100.741	19.983	2.424	0.478
1254.499	708.978	79.994	19.995	100.741	19.983	2.378	0.511
1254.999	709.218	79.998	19.996	100.742	19.988	2.092	0.499
1255.499	709.488	79.996	19.997	100.742	19.988	2.101	0.495
1255.999	709.760	79.998	19.997	100.742	19.990	1.971	0.526
1256.499	710.019	79.997	19.996	100.742	19.984	2.365	0.537
1256.999	710.272	79.996	19.996	100.743	19.985	2.246	0.522
1257.499	710.504	79.997	19.996	100.742	19.986	2.187	0.498
1257.999	710.757	79.997	19.996	100.742	19.981	2.516	0.485
1258.499	711.035	79.999	19.997	100.742	19.986	2.189	0.508
1258.999	711.259	79.999	19.996	100.742	19.992	1.813	0.516
1259.499	711.507	79.998	19.995	100.741	19.982	2.489	0.487
1259.999	711.757	79.997	19.995	100.742	19.989	2.025	0.485
1260.499	712.032	79.996	19.996	100.741	19.985	2.271	0.512
1260.999	712.269	79.999	19.996	100.740	19.986	2.183	0.518
1261.500	712.523	79.999	19.995	100.739	19.986	2.182	0.502
1262.000	712.800	79.999	19.996	100.740	19.980	2.580	0.511
1262.499	713.059	79.998	19.996	100.738	19.982	2.453	0.533
1262.999	713.294	79.997	19.996	100.739	19.988	2.063	0.515
1263.499	713.558	79.999	19.997	100.740	19.990	1.906	0.497
1264.000	713.785	79.999	19.996	100.738	19.987	2.165	0.495
1264.500	714.023	80.000	19.996	100.737	19.982	2.453	0.478
1264.999	714.263	79.998	19.996	100.737	19.984	2.324	0.471
1265.499	714.542	79.994	19.996	100.737	19.988	2.065	0.499
1265.999	714.831	80.001	19.997	100.736	19.987	2.144	0.544
1266.499	715.062	79.997	19.998	100.738	19.989	2.025	0.544
1266.999	715.307	80.000	19.997	100.738	19.991	1.856	0.498
1267.499	715.595	79.997	19.996	100.740	19.988	2.047	0.504
1267.999	715.851	79.996	19.995	100.739	19.985	2.284	0.538
1268.499	716.069	79.998	19.996	100.740	19.984	2.340	0.509
1268.999	716.344	79.998	19.998	100.741	19.985	2.288	0.484
1269.499	716.614	79.996	19.996	100.742	19.989	1.997	0.519
1269.999	716.851	79.995	19.997	100.739	19.987	2.124	0.526
1270.499	717.099	79.996	19.996	100.739	19.988	2.072	0.496
1270.999	717.360	79.996	19.995	100.739	19.989	1.973	0.497
1271.499	717.600	79.995	19.996	100.736	19.986	2.210	0.505
1271.999	717.845	79.995	19.996	100.735	19.986	2.200	0.493
1272.499	718.085	79.997	19.996	100.736	19.988	2.090	0.485
1272.999	718.336	79.996	19.997	100.731	19.990	1.968	0.488
1273.499	718.616	79.994	19.995	100.730	19.992	1.829	0.511
1273.999	718.835	79.998	19.996	100.730	19.986	2.189	0.515
1274.499	719.098	79.996	19.997	100.726	19.986	2.174	0.491
1274.999	719.351	79.997	19.996	100.728	19.988	2.076	0.499
1275.499	719.597	79.993	19.994	100.733	19.988	2.086	0.507
1275.999	719.858	79.994	19.994	100.734	19.989	1.995	0.503
1276.500	720.066	79.996	19.995	100.737	19.992	1.792	0.488
1277.001	720.346	79.995	19.996	100.740	19.989	1.991	0.478
1277.500	720.553	79.994	19.994	100.738	19.988	2.081	0.488
1277.999	720.822	79.994	19.996	100.738	19.986	2.185	0.482
1278.499	721.072	79.993	19.995	100.739	19.991	1.869	0.498
1279.000	721.306	79.997	19.995	100.740	19.989	1.993	0.501
1279.500	721.570	79.995	19.995	100.737	19.987	2.112	0.491
1279.999	721.817	79.995	19.996	100.738	19.988	2.063	0.504
1280.499	722.054	79.997	19.996	100.738	19.988	2.090	0.498
1280.999	722.322	79.996	19.996	100.738	19.990	1.961	0.495
1281.499	722.555	79.995	19.994	100.738	19.988	2.059	0.503
1281.999	722.798	79.996	19.995	100.740	19.993	1.772	0.489
1282.499	723.024	79.994	19.997	100.739	19.988	2.041	0.473
1282.999	723.289	79.994	19.995	100.738	19.989	1.973	0.480
1283.499	723.531	79.995	19.997	100.731	19.992	1.815	0.499
1283.999	723.752	79.995	19.995	100.730	19.990	1.950	0.485
1284.499	724.053	79.995	19.997	100.732	19.996	1.542	0.493
1285.000	724.277	79.996	19.997	100.733	19.987	2.111	0.523
1285.500	724.507	79.995	19.996	100.733	19.989	1.989	0.489
1285.999	724.716	79.995	19.996	100.734	19.992	1.809	0.447
1286.499	725.011	79.994	19.997	100.734	19.990	1.957	0.472
1286.999	725.226	79.995	19.998	100.735	19.990	1.944	0.507
1287.499	725.483	79.996	19.998	100.735	19.990	1.941	0.491
1287.999	725.789	79.995	19.997	100.736	19.990	1.941	0.518
1288.499	725.998	79.995	19.996	100.741	19.989	2.006	0.539
1288.999	726.244	79.995	19.997	100.742	19.991	1.865	0.485
1289.499	726.515	79.994	19.995	100.739	19.991	1.856	0.486
1289.999	726.734	79.995	19.997	100.738	19.988	2.070	0.503
1290.499	726.999	79.996	19.997	100.737	19.992	1.824	0.487
1290.999	727.248	79.995	19.996	100.734	19.992	1.781	0.500
1291.499	727.506	79.996	19.998	100.734	19.990	1.921	0.511
1291.999	727.788	79.995	19.997	100.735	19.987	2.128	0.524
1292.499	728.023	79.996	19.997	100.735	19.993	1.763	0.528
1292.999	728.272	79.995	19.998	100.735	19.991	1.883	0.500
1293.499	728.531	79.997	19.996	100.737	19.992	1.836	0.495
1293.999	728.781	79.994	19.997	100.736	19.988	2.086	0.508
1294.499	729.034	79.995	19.997	100.737	19.989	2.009	0.506
1294.999	729.287	79.994	19.997	100.733	19.994	1.680	0.505
1295.499	729.494	79.997	19.997	100.727	19.993	1.746	0.483
1295.999	729.821	79.996	19.996	100.725	19.987	2.127	0.497
1296.499	730.050	79.995	19.997	100.724	19.991	1.905	0.545
1296.999	730.265	79.996	19.998	100.724	19.993	1.725	0.500
1297.499	730.589	79.995	19.996	100.727	19.990	1.966	0.492
1297.999	730.800	79.996	19.997	100.734	19.986	2.181	0.537
1298.499	731.060	79.997	19.998	100.736	19.990	1.915	0.503
1299.000	731.307	79.995	19.996	100.735	19.991	1.879	0.489
1299.500	731.592	79.997	19.996	100.736	19.991	1.867	0.520
1299.999	731.819	79.995	19.996	100.738	19.992	1.827	0.522
1300.500	732.020	79.996	19.996	100.738	19.990	1.951	0.470
1301.000	732.309	79.996	19.996	100.738	19.995	1.626	0.460
1301.499	732.566	79.996	19.996	100.740	19.988	2.061	0.518
1301.999	732.772	79.996	19.997	100.736	19.990	1.925	0.504
1302.499	733.056	79.995	19.997	100.732	19.991	1.867	0.476
1302.999	733.325	79.995	19.996	100.729	19.990	1.923	0.521
1303.500	733.569	79.997	19.997	100.728	19.990	1.935	0.533
1304.000	733.760	79.994	19.996	100.727	19.989	2.018	0.474
1304.499	734.058	79.996	19.997	100.725	19.990	1.953	0.462
1305.000	734.295	79.995	19.996	100.724	19.986	2.225	0.512
1305.501	734.542	79.995	19.996	100.722	19.989	1.978	0.510
1306.000	734.806	79.995	19.995	100.716	19.988	2.074	0.498
1306.499	735.011	79.997	19.996	100.714	19.990	1.939	0.490
1306.999	735.254	79.995	19.996	100.720	19.989	1.977	0.458
1307.499	735.511	79.995	19.995	100.724	19.986	2.187	0.474
1307.999	735.760	79.995	19.996	100.726	19.991	1.844	0.503
1308.499	736.024	79.995	19.995	100.729	19.989	2.024	0.509
1308.999	736.263	79.997	19.995	100.728	19.987	2.137	0.508
1309.499	736.515	79.995	19.996	100.722	19.990	1.943	0.497
1309.999	736.772	79.997	19.996	100.720	19.988	2.047	0.500
1310.500	737.000	79.996	19.995	100.723	19.988	2.061	0.497
1311.000	737.234	79.997	19.996	100.728	19.987	2.126	0.473
1311.500	737.492	79.997	19.995	100.728	19.987	2.142	0.477
1312.000	737.755	79.997	19.995	100.732	19.989	2.021	0.507
1312.499	737.965	79.997	19.997	100.733	19.990	1.948	0.497
1312.999	738.248	79.997	19.995	100.733	19.989	2.021	0.483
1313.499	738.481	79.998	19.996	100.733	19.988	2.074	0.504
1313.999	738.754	79.998	19.996	100.735	19.989	1.986	0.511
1314.499	738.984	79.996	19.996	100.730	19.989	1.991	0.505
1314.999	739.255	79.997	19.996	100.731	19.993	1.752	0.502
1315.499	739.515	79.998	19.995	100.731	19.992	1.783	0.516
1315.999	739.744	79.997	19.997	100.727	19.991	1.842	0.510
1316.500	740.017	79.998	19.998	100.728	19.991	1.872	0.496
1317.000	740.240	79.998	19.996	100.735	19.988	2.092	0.499
1317.500	740.515	79.998	19.996	100.736	19.990	1.919	0.497
1318.001	740.742	79.998	19.997	100.735	19.991	1.894	0.500
1318.500	740.978	79.997	19.996	100.740	19.989	2.027	0.483
1318.999	741.265	79.997	19.996	100.740	19.992	1.795	0.493
1319.499	741.533	79.998	19.995	100.739	19.991	1.885	0.539
1319.999	741.742	79.998	19.997	100.739	19.990	1.912	0.516
1320.499	741.991	79.998	19.997	100.739	19.994	1.673	0.467
1320.999	742.259	79.997	19.995	100.739	19.987	2.131	0.487
1321.499	742.484	79.996	19.997	100.739	19.991	1.899	0.505
1321.999	742.737	79.998	19.995	100.737	19.989	1.973	0.486
1322.499	742.947	79.997	19.996	100.732	19.988	2.049	0.471
1322.999	743.255	79.997	19.996	100.726	19.990	1.917	0.490
1323.499	743.468	79.997	19.996	100.721	19.988	2.093	0.519
