Sample ID:	C:\MCC\MCC Cal\Test\Alpha_OSB_MCC_30K_min_211206_R3.txt
Sample Weight (mg):	4.32
Heating Rate (C/s):	0.5
Combustor Temp (C):	900
N2 Flow Rate (cc/min):	80
O2 Flow Rate (cc/min):	20
Calibration File:	C:\MCC\MCC Cal\Coeff1 JN10440_30_210304.txt.txt
T Correction Coefficients:	0	1.024463	0
Time Shift (s):	14
*
Time (s)	Temperature (C)	N2 flow rate (cc/min)	O2 flow rate (cc/min)	Flow Rate (cc/min)	Oxygen (%)	HRR (W/g)	Heating rate (C/s)
0.000	110.905	79.997	19.995	103.068	20.099	-0.415	-0.002
0.500	110.903	80.000	19.998	103.070	20.092	0.075	0.027
1.000	110.892	80.001	19.998	103.073	20.093	0.025	0.002
1.500	110.894	79.999	19.999	103.072	20.095	-0.164	-0.011
2.000	110.908	80.007	19.998	103.073	20.095	-0.100	0.003
2.500	110.930	80.001	19.996	103.073	20.094	-0.066	0.025
3.000	110.892	79.998	19.999	103.073	20.089	0.290	0.010
3.500	110.916	79.994	19.999	103.071	20.092	0.110	-0.015
4.000	110.899	80.002	19.997	103.070	20.087	0.489	-0.004
4.500	110.904	80.000	19.997	103.071	20.093	0.041	-0.003
5.000	110.911	80.000	19.996	103.070	20.092	0.124	-0.000
5.500	110.873	80.001	19.995	103.069	20.090	0.226	-0.010
6.001	110.887	80.001	19.996	103.069	20.096	-0.172	-0.028
6.501	110.878	80.000	19.996	103.070	20.089	0.294	-0.010
7.000	110.885	80.002	19.995	103.068	20.095	-0.168	0.001
7.500	110.902	79.998	19.996	103.068	20.092	0.124	0.012
8.000	110.883	80.003	19.994	103.069	20.091	0.178	0.012
8.500	110.887	80.000	19.995	103.069	20.096	-0.174	-0.008
9.001	110.902	80.007	19.994	103.069	20.091	0.195	0.002
9.501	110.860	80.007	19.994	103.072	20.093	0.050	-0.004
10.000	110.859	79.991	19.996	103.073	20.090	0.268	-0.035
10.500	110.862	79.983	19.997	103.074	20.089	0.305	-0.021
11.000	110.881	80.006	19.995	103.077	20.091	0.183	0.012
11.500	110.878	79.997	19.994	103.085	20.091	0.180	0.019
12.000	110.895	80.004	19.994	103.093	20.089	0.324	0.014
12.500	110.887	80.003	19.995	103.102	20.089	0.347	0.012
13.000	110.876	79.999	19.994	103.110	20.086	0.506	-0.005
13.500	110.933	80.008	19.994	103.115	20.085	0.610	0.013
14.000	110.891	80.006	19.993	103.117	20.083	0.787	0.031
14.500	110.889	79.987	19.996	103.116	20.086	0.548	-0.014
15.000	110.865	80.000	19.996	103.113	20.082	0.857	-0.035
15.501	110.886	79.999	19.995	103.116	20.083	0.758	-0.015
16.001	110.897	80.002	19.994	103.117	20.080	0.998	0.015
16.500	110.905	79.996	19.994	103.120	20.081	0.942	0.026
17.000	110.897	79.997	19.996	103.125	20.079	1.052	0.009
17.500	110.860	79.993	19.996	103.133	20.079	1.065	-0.023
18.000	110.866	79.988	19.995	103.130	20.079	1.040	-0.038
18.500	110.915	80.003	19.994	103.130	20.077	1.198	0.012
19.000	110.927	79.996	19.995	103.130	20.075	1.330	0.059
19.500	110.969	80.014	19.993	103.130	20.078	1.158	0.058
20.000	110.943	80.006	19.997	103.136	20.080	0.975	0.035
20.500	110.968	80.002	19.994	103.142	20.073	1.486	0.007
21.000	110.953	80.011	19.994	103.156	20.076	1.307	0.004
21.500	110.996	80.006	19.995	103.164	20.072	1.592	0.019
22.000	111.029	79.991	19.995	103.169	20.072	1.590	0.052
22.500	111.079	80.003	19.996	103.172	20.072	1.548	0.079
23.000	111.063	79.999	19.995	103.186	20.071	1.652	0.058
23.500	111.093	80.009	19.992	103.194	20.071	1.633	0.024
24.000	111.122	80.010	19.993	103.209	20.071	1.643	0.037
24.500	111.126	79.996	19.995	103.223	20.072	1.548	0.046
25.000	111.158	79.991	19.998	103.223	20.074	1.417	0.034
25.500	111.172	79.992	19.999	103.218	20.072	1.608	0.041
26.000	111.223	80.007	19.995	103.213	20.070	1.701	0.056
26.500	111.289	80.003	19.995	103.208	20.071	1.645	0.091
27.000	111.327	80.003	19.993	103.203	20.072	1.565	0.111
27.500	111.320	80.001	19.996	103.213	20.070	1.702	0.068
28.000	111.392	79.998	19.995	103.217	20.071	1.650	0.048
28.500	111.387	79.998	19.997	103.222	20.067	1.955	0.066
29.000	111.391	79.989	19.998	103.219	20.070	1.735	0.033
29.501	111.422	79.988	19.997	103.210	20.066	2.009	0.017
30.001	111.459	80.022	19.992	103.199	20.071	1.663	0.051
30.501	111.490	79.996	19.995	103.198	20.069	1.823	0.068
31.001	111.569	79.994	19.995	103.190	20.067	1.980	0.089
31.501	111.612	79.997	19.996	103.194	20.067	1.985	0.116
32.000	111.665	80.003	19.995	103.203	20.068	1.883	0.109
32.500	111.676	79.998	19.995	103.206	20.069	1.793	0.080
33.000	111.743	80.008	19.994	103.201	20.068	1.885	0.071
33.500	111.812	79.989	19.995	103.201	20.067	1.924	0.108
34.001	111.886	80.004	19.995	103.188	20.073	1.472	0.140
34.501	111.921	80.001	19.996	103.175	20.071	1.667	0.126
35.000	111.976	79.995	19.994	103.169	20.073	1.522	0.099
35.500	111.984	79.988	19.996	103.170	20.070	1.726	0.076
36.000	112.055	80.004	19.994	103.166	20.072	1.582	0.071
36.500	112.069	79.997	19.995	103.173	20.071	1.661	0.082
37.000	112.188	80.007	19.994	103.179	20.069	1.842	0.109
37.500	112.200	80.014	19.992	103.188	20.067	1.925	0.132
38.000	112.267	79.999	19.996	103.197	20.071	1.651	0.105
38.501	112.309	80.003	19.997	103.207	20.068	1.908	0.094
39.001	112.401	80.025	19.991	103.213	20.065	2.081	0.122
39.501	112.473	80.010	19.993	103.229	20.066	2.002	0.149
40.001	112.539	80.002	19.995	103.235	20.063	2.251	0.151
40.501	112.595	79.996	19.996	103.233	20.064	2.189	0.130
41.000	112.667	80.004	19.995	103.238	20.064	2.189	0.125
41.500	112.691	80.005	19.996	103.245	20.062	2.326	0.112
42.000	112.783	79.997	19.995	103.238	20.060	2.448	0.106
42.500	112.856	79.996	19.995	103.232	20.062	2.349	0.140
43.000	112.887	80.001	19.995	103.232	20.062	2.347	0.134
43.500	113.000	80.006	19.994	103.228	20.056	2.762	0.124
44.000	113.029	80.006	19.994	103.232	20.056	2.764	0.143
44.500	113.155	80.000	19.995	103.240	20.053	2.993	0.148
45.000	113.180	80.006	19.995	103.251	20.054	2.962	0.153
45.501	113.254	79.995	19.995	103.260	20.056	2.804	0.125
46.001	113.359	80.001	19.995	103.266	20.058	2.652	0.139
46.500	113.430	80.008	19.994	103.263	20.054	2.927	0.177
47.000	113.487	79.976	19.999	103.262	20.056	2.762	0.152
47.501	113.600	79.989	19.995	103.253	20.057	2.702	0.149
48.001	113.674	80.002	19.994	103.254	20.053	3.001	0.178
48.500	113.777	80.006	19.993	103.255	20.055	2.879	0.182
49.000	113.867	80.012	19.994	103.258	20.054	2.927	0.185
49.500	113.926	79.994	19.996	103.260	20.057	2.719	0.171
50.000	114.056	79.996	19.994	103.271	20.057	2.688	0.169
50.501	114.158	80.001	19.995	103.276	20.056	2.792	0.210
51.001	114.218	80.007	19.993	103.275	20.055	2.889	0.197
51.500	114.325	80.000	19.994	103.279	20.055	2.881	0.165
52.000	114.433	80.003	19.994	103.276	20.051	3.166	0.191
52.500	114.498	79.998	19.995	103.275	20.051	3.139	0.194
53.000	114.619	79.999	19.994	103.275	20.053	2.968	0.179
53.500	114.694	80.001	19.995	103.279	20.054	2.954	0.191
54.000	114.773	80.001	19.995	103.279	20.054	2.906	0.175
54.500	114.922	80.004	19.994	103.283	20.051	3.155	0.191
55.000	115.009	80.002	19.996	103.289	20.052	3.105	0.232
55.500	115.091	79.996	19.996	103.291	20.051	3.153	0.203
56.000	115.201	79.987	19.996	103.295	20.050	3.222	0.180
56.500	115.334	80.001	19.994	103.296	20.050	3.207	0.217
57.000	115.439	80.003	19.995	103.295	20.050	3.218	0.241
57.500	115.528	80.000	19.995	103.293	20.047	3.428	0.216
58.000	115.627	79.990	19.996	103.290	20.051	3.145	0.191
58.500	115.736	79.997	19.994	103.291	20.047	3.467	0.198
59.000	115.830	79.993	19.996	103.292	20.050	3.232	0.205
59.500	116.042	80.003	19.994	103.295	20.051	3.120	0.254
60.000	116.105	80.003	19.994	103.298	20.048	3.376	0.291
60.500	116.245	80.004	19.994	103.298	20.051	3.141	0.239
61.000	116.384	80.003	19.996	103.300	20.046	3.492	0.241
61.500	116.546	80.004	19.995	103.301	20.048	3.366	0.290
62.000	116.639	80.000	19.996	103.303	20.048	3.351	0.277
62.500	116.796	80.005	19.995	103.301	20.050	3.259	0.252
63.000	116.915	80.005	19.995	103.302	20.046	3.561	0.263
63.500	117.053	80.000	19.995	103.301	20.045	3.606	0.267
64.000	117.195	79.995	19.996	103.301	20.045	3.596	0.268
64.500	117.323	80.005	19.994	103.300	20.046	3.548	0.275
65.000	117.447	80.006	19.995	103.301	20.044	3.708	0.261
65.500	117.597	80.001	19.994	103.302	20.044	3.642	0.264
66.000	117.712	79.999	19.995	103.301	20.045	3.615	0.270
66.500	117.845	80.003	19.994	103.300	20.046	3.511	0.256
67.000	118.016	80.009	19.993	103.303	20.048	3.399	0.276
67.500	118.191	80.004	19.994	103.305	20.047	3.465	0.326
68.000	118.285	79.997	19.996	103.307	20.043	3.725	0.308
68.500	118.415	79.999	19.996	103.309	20.046	3.561	0.246
69.000	118.582	80.000	19.995	103.309	20.043	3.716	0.260
69.500	118.721	80.010	19.994	103.308	20.046	3.509	0.301
70.001	118.863	79.998	19.995	103.309	20.044	3.638	0.293
70.501	119.007	80.000	19.996	103.311	20.044	3.669	0.284
71.000	119.187	80.005	19.995	103.311	20.047	3.440	0.305
71.500	119.296	80.015	19.992	103.313	20.049	3.314	0.306
72.000	119.461	80.017	19.993	103.317	20.045	3.581	0.281
72.500	119.616	79.998	19.995	103.315	20.044	3.698	0.297
73.000	119.779	79.998	19.994	103.312	20.044	3.698	0.319
73.500	119.921	80.004	19.995	103.311	20.041	3.862	0.312
74.001	120.046	80.000	19.996	103.309	20.043	3.746	0.286
74.501	120.213	79.995	19.995	103.304	20.045	3.565	0.279
75.001	120.370	80.000	19.994	103.301	20.045	3.627	0.308
75.500	120.508	80.002	19.995	103.302	20.041	3.883	0.310
76.000	120.688	79.999	19.995	103.309	20.044	3.679	0.307
76.500	120.865	79.999	19.994	103.310	20.044	3.677	0.338
77.000	121.015	80.001	19.995	103.313	20.039	4.022	0.342
77.500	121.174	79.999	19.995	103.316	20.042	3.833	0.318
78.000	121.355	80.001	19.994	103.316	20.041	3.905	0.324
78.500	121.493	79.999	19.996	103.311	20.045	3.573	0.330
79.000	121.666	80.005	19.994	103.310	20.046	3.536	0.315
79.500	121.826	80.001	19.995	103.310	20.045	3.571	0.322
80.000	122.015	80.001	19.994	103.310	20.045	3.592	0.341
80.500	122.157	79.987	19.995	103.308	20.045	3.596	0.340
81.000	122.347	79.997	19.995	103.309	20.043	3.729	0.332
81.500	122.531	80.004	19.995	103.313	20.044	3.700	0.353
82.000	122.680	79.999	19.995	103.313	20.043	3.733	0.353
82.500	122.862	79.989	19.997	103.313	20.044	3.661	0.332
83.000	123.019	80.000	19.995	103.311	20.043	3.731	0.335
83.500	123.230	79.996	19.996	103.315	20.044	3.683	0.353
84.000	123.398	79.987	19.997	103.312	20.044	3.704	0.373
84.500	123.539	79.990	19.996	103.311	20.046	3.542	0.344
85.000	123.734	80.001	19.995	103.313	20.042	3.852	0.323
85.500	123.909	80.000	19.997	103.316	20.043	3.712	0.353
86.000	124.112	80.007	19.995	103.309	20.044	3.680	0.374
86.501	124.284	79.997	19.996	103.317	20.045	3.615	0.377
87.002	124.462	79.998	19.996	103.317	20.043	3.713	0.363
87.501	124.631	79.994	19.997	103.313	20.042	3.811	0.348
88.000	124.796	79.989	19.996	103.310	20.046	3.557	0.341
88.500	124.991	80.002	19.996	103.310	20.043	3.742	0.347
89.000	125.172	79.999	19.996	103.304	20.045	3.597	0.368
89.500	125.318	79.989	19.996	103.310	20.044	3.707	0.351
90.000	125.500	80.008	19.997	103.316	20.042	3.844	0.328
90.500	125.704	80.006	19.996	103.317	20.044	3.651	0.357
91.001	125.894	80.000	19.997	103.322	20.044	3.697	0.390
91.501	126.099	80.013	19.994	103.320	20.042	3.842	0.394
92.000	126.301	79.984	19.997	103.320	20.044	3.663	0.401
92.500	126.494	79.988	19.998	103.318	20.043	3.746	0.401
93.000	126.688	80.004	19.997	103.319	20.041	3.923	0.391
93.501	126.897	80.000	19.996	103.321	20.044	3.662	0.395
94.001	127.041	79.993	19.997	103.321	20.044	3.655	0.378
94.501	127.279	80.001	19.995	103.312	20.043	3.740	0.367
95.001	127.480	80.004	19.995	103.314	20.042	3.848	0.411
95.500	127.661	79.998	19.996	103.313	20.044	3.690	0.411
96.000	127.841	79.999	19.995	103.312	20.043	3.734	0.372
96.500	128.038	80.013	19.993	103.314	20.044	3.638	0.369
97.000	128.251	79.997	19.995	103.326	20.045	3.601	0.393
97.500	128.413	79.999	19.996	103.327	20.045	3.616	0.392
98.000	128.629	79.997	19.996	103.327	20.043	3.761	0.376
98.500	128.827	80.001	19.995	103.326	20.042	3.813	0.396
99.000	129.031	79.999	19.999	103.330	20.044	3.641	0.408
99.500	129.262	80.006	19.996	103.326	20.046	3.491	0.418
100.000	129.481	80.000	19.996	103.330	20.046	3.545	0.442
100.500	129.673	79.991	19.997	103.336	20.046	3.551	0.431
101.001	129.864	79.992	19.997	103.340	20.045	3.630	0.397
101.501	130.060	79.996	19.996	103.338	20.046	3.553	0.384
102.000	130.244	79.999	19.996	103.336	20.046	3.522	0.383
102.501	130.456	80.000	19.994	103.334	20.046	3.551	0.388
103.001	130.673	80.000	19.995	103.334	20.042	3.817	0.412
103.500	130.887	79.998	19.995	103.334	20.045	3.568	0.430
104.000	131.071	80.000	19.994	103.337	20.044	3.667	0.415
104.500	131.285	79.997	19.996	103.342	20.044	3.684	0.398
105.000	131.523	79.998	19.996	103.342	20.043	3.769	0.425
105.500	131.732	80.001	19.995	103.340	20.045	3.584	0.449
106.000	131.924	79.996	19.997	103.340	20.042	3.803	0.424
106.500	132.132	79.997	19.995	103.338	20.045	3.580	0.400
107.000	132.331	79.998	19.995	103.336	20.042	3.788	0.404
107.500	132.551	80.000	19.995	103.335	20.042	3.813	0.413
108.000	132.757	80.000	19.995	103.335	20.044	3.699	0.422
108.500	132.983	79.999	19.995	103.335	20.044	3.694	0.429
109.001	133.206	80.002	19.994	103.337	20.042	3.852	0.441
109.501	133.435	80.001	19.995	103.335	20.042	3.811	0.451
110.001	133.653	80.000	19.993	103.335	20.041	3.921	0.449
110.500	133.835	80.000	19.995	103.337	20.038	4.095	0.423
111.000	134.088	80.000	19.995	103.336	20.039	4.051	0.417
111.500	134.287	80.002	19.995	103.334	20.042	3.854	0.443
112.000	134.523	79.999	19.995	103.335	20.041	3.888	0.444
112.500	134.744	80.001	19.995	103.335	20.041	3.927	0.446
113.000	134.940	80.002	19.995	103.329	20.043	3.757	0.437
113.500	135.165	80.003	19.994	103.329	20.042	3.851	0.419
114.000	135.401	80.003	19.995	103.331	20.045	3.636	0.441
114.500	135.590	80.002	19.995	103.330	20.045	3.637	0.442
115.000	135.792	80.000	19.997	103.329	20.042	3.829	0.408
115.500	136.039	80.001	19.994	103.332	20.039	4.035	0.420
116.000	136.264	80.004	19.994	103.334	20.048	3.412	0.460
116.501	136.461	80.001	19.996	103.333	20.042	3.796	0.447
117.001	136.669	80.003	19.996	103.333	20.042	3.825	0.414
117.501	136.922	80.009	19.995	103.335	20.045	3.620	0.433
118.000	137.148	80.001	19.994	103.334	20.043	3.767	0.470
118.500	137.358	80.003	19.994	103.333	20.046	3.524	0.457
119.000	137.604	79.997	19.996	103.332	20.042	3.817	0.446
119.500	137.835	79.999	19.995	103.331	20.042	3.790	0.466
120.000	138.048	79.999	19.994	103.331	20.046	3.503	0.461
120.500	138.251	80.003	19.995	103.327	20.043	3.719	0.430
121.000	138.484	79.998	19.996	103.322	20.039	4.018	0.426
121.501	138.708	80.004	19.995	103.318	20.040	3.979	0.446
122.001	138.911	80.003	19.994	103.319	20.041	3.885	0.442
122.501	139.172	80.000	19.995	103.322	20.043	3.750	0.446
123.000	139.377	80.002	19.995	103.327	20.042	3.842	0.465
123.500	139.625	80.002	19.994	103.334	20.041	3.884	0.459
124.000	139.836	80.006	19.995	103.342	20.043	3.724	0.456
124.500	140.083	79.999	19.995	103.343	20.042	3.803	0.459
125.000	140.335	79.986	19.994	103.339	20.043	3.736	0.478
125.500	140.568	79.984	19.998	103.339	20.042	3.815	0.492
126.001	140.809	79.996	19.995	103.330	20.041	3.869	0.479
126.501	141.027	79.994	19.996	103.330	20.041	3.866	0.466
127.001	141.256	80.000	19.994	103.325	20.041	3.912	0.453
127.501	141.483	80.006	19.995	103.322	20.040	3.977	0.452
128.001	141.736	79.994	19.995	103.323	20.042	3.815	0.468
128.500	141.947	79.999	19.995	103.330	20.043	3.738	0.472
129.000	142.183	80.000	19.994	103.329	20.044	3.690	0.455
129.500	142.426	80.000	19.994	103.333	20.045	3.586	0.463
130.000	142.640	80.009	19.993	103.338	20.043	3.781	0.468
130.500	142.932	79.989	19.995	103.338	20.040	3.987	0.481
131.000	143.131	79.989	19.997	103.338	20.041	3.879	0.498
131.500	143.360	80.003	19.995	103.332	20.044	3.650	0.459
132.000	143.637	80.000	19.995	103.327	20.039	4.018	0.466
132.500	143.882	79.999	19.994	103.326	20.040	3.948	0.514
133.000	144.101	80.007	19.993	103.328	20.043	3.784	0.493
133.500	144.361	80.001	19.994	103.330	20.043	3.729	0.472
134.000	144.589	80.003	19.995	103.336	20.043	3.752	0.484
134.500	144.813	80.004	19.994	103.339	20.039	4.043	0.470
135.000	145.038	79.999	19.995	103.337	20.042	3.791	0.450
135.500	145.284	79.996	19.996	103.335	20.046	3.559	0.460
136.000	145.542	79.994	19.995	103.329	20.042	3.808	0.488
136.500	145.746	79.994	19.995	103.323	20.043	3.779	0.483
137.000	146.008	79.992	19.995	103.320	20.039	4.045	0.464
137.501	146.276	80.002	19.994	103.318	20.042	3.794	0.498
138.001	146.497	80.006	19.994	103.317	20.043	3.763	0.509
138.500	146.718	80.002	19.995	103.322	20.042	3.827	0.465
139.000	147.013	80.010	19.993	103.324	20.045	3.604	0.479
139.500	147.208	80.007	19.995	103.326	20.043	3.747	0.503
140.000	147.465	79.996	19.995	103.323	20.044	3.683	0.471
140.500	147.741	80.006	19.993	103.317	20.045	3.623	0.492
141.001	147.933	80.002	19.993	103.313	20.040	3.976	0.501
141.501	148.194	80.018	19.991	103.316	20.039	4.011	0.461
142.000	148.425	80.007	19.994	103.319	20.043	3.731	0.473
142.500	148.683	80.001	19.995	103.322	20.045	3.598	0.490
143.000	148.932	80.002	19.995	103.328	20.037	4.171	0.498
143.500	149.198	80.011	19.994	103.329	20.044	3.706	0.511
144.000	149.439	79.995	19.995	103.326	20.045	3.600	0.511
144.500	149.672	79.975	19.996	103.321	20.043	3.775	0.491
145.000	149.899	80.004	19.995	103.318	20.045	3.576	0.467
145.500	150.176	80.025	19.994	103.314	20.040	3.937	0.482
146.000	150.365	79.986	19.995	103.314	20.042	3.810	0.485
146.500	150.626	80.001	19.995	103.310	20.044	3.675	0.458
147.000	150.858	79.995	19.994	103.312	20.041	3.893	0.471
147.500	151.132	80.018	19.992	103.320	20.045	3.609	0.499
148.000	151.378	80.007	19.995	103.328	20.041	3.891	0.513
148.500	151.634	79.998	19.994	103.323	20.046	3.515	0.511
149.000	151.891	80.007	19.995	103.324	20.041	3.908	0.507
149.500	152.108	80.004	19.995	103.319	20.040	3.985	0.494
150.000	152.401	79.997	19.994	103.312	20.044	3.658	0.492
150.500	152.605	80.003	19.995	103.302	20.041	3.870	0.503
151.000	152.830	79.989	19.996	103.305	20.042	3.795	0.463
151.500	153.125	80.001	19.995	103.305	20.042	3.859	0.475
152.000	153.345	80.000	19.995	103.305	20.041	3.926	0.517
152.500	153.591	79.989	19.995	103.305	20.042	3.801	0.490
153.000	153.833	79.996	19.996	103.305	20.041	3.884	0.477
153.501	154.104	79.992	19.998	103.299	20.042	3.820	0.501
154.001	154.336	80.000	19.993	103.295	20.038	4.123	0.508
154.500	154.592	80.006	19.994	103.302	20.041	3.926	0.495
155.000	154.851	80.006	19.995	103.309	20.038	4.119	0.501
155.500	155.053	80.001	19.995	103.315	20.042	3.838	0.488
156.000	155.286	79.998	19.995	103.323	20.038	4.088	0.448
156.500	155.587	80.011	19.994	103.328	20.041	3.884	0.485
157.000	155.779	79.986	19.995	103.324	20.042	3.820	0.514
157.500	156.043	79.994	19.996	103.316	20.040	3.967	0.474
158.000	156.314	80.002	19.995	103.313	20.038	4.113	0.495
158.500	156.553	80.013	19.994	103.313	20.040	3.961	0.523
159.001	156.780	80.008	19.995	103.319	20.043	3.718	0.489
159.501	157.057	79.988	19.997	103.318	20.042	3.816	0.485
160.000	157.286	79.993	19.997	103.318	20.042	3.841	0.505
160.500	157.541	80.005	19.996	103.313	20.040	3.988	0.494
161.000	157.802	80.002	19.995	103.307	20.039	4.026	0.500
161.500	158.047	80.016	19.995	103.298	20.039	4.078	0.511
162.000	158.250	79.973	19.998	103.296	20.040	3.993	0.477
162.501	158.526	79.989	19.997	103.294	20.039	4.061	0.464
163.001	158.809	80.001	19.995	103.294	20.039	4.036	0.519
163.500	159.021	79.997	19.997	103.298	20.042	3.841	0.527
164.000	159.283	80.005	19.994	103.297	20.040	3.978	0.485
164.500	159.540	80.004	19.995	103.298	20.039	4.030	0.496
165.000	159.731	79.997	19.998	103.301	20.038	4.124	0.484
165.500	160.022	79.991	19.998	103.299	20.039	4.059	0.465
166.000	160.295	79.999	19.995	103.293	20.038	4.088	0.523
166.500	160.552	80.006	19.994	103.293	20.040	3.955	0.547
167.000	160.798	79.991	19.995	103.294	20.042	3.805	0.516
167.500	161.017	79.999	19.996	103.292	20.041	3.932	0.484
168.000	161.248	79.991	19.996	103.294	20.040	3.947	0.457
168.500	161.514	80.002	19.995	103.297	20.040	3.943	0.473
169.000	161.770	79.998	19.995	103.302	20.042	3.843	0.509
169.500	161.997	80.020	19.993	103.300	20.039	4.024	0.503
170.000	162.240	80.005	19.994	103.303	20.035	4.342	0.477
170.500	162.533	80.014	19.992	103.306	20.038	4.109	0.503
171.000	162.727	80.000	19.995	103.310	20.037	4.198	0.512
171.500	163.032	79.997	19.996	103.305	20.037	4.223	0.493
172.001	163.285	80.001	19.995	103.305	20.034	4.456	0.528
172.501	163.517	79.998	19.995	103.303	20.038	4.127	0.522
173.000	163.749	80.012	19.994	103.303	20.034	4.447	0.474
173.500	164.014	79.973	19.998	103.301	20.034	4.427	0.480
174.000	164.257	80.008	19.994	103.301	20.037	4.227	0.503
174.500	164.547	80.001	19.995	103.309	20.039	4.082	0.521
175.000	164.790	79.999	19.995	103.309	20.035	4.314	0.533
175.500	165.021	80.000	19.993	103.309	20.036	4.248	0.504
176.000	165.266	80.004	19.995	103.309	20.036	4.239	0.475
176.500	165.531	79.979	19.996	103.311	20.034	4.406	0.493
177.000	165.806	80.005	19.995	103.302	20.037	4.163	0.524
177.500	166.034	80.000	19.995	103.300	20.035	4.372	0.521
178.000	166.314	80.002	19.995	103.300	20.034	4.449	0.505
178.500	166.532	79.998	19.997	103.299	20.031	4.670	0.503
179.000	166.770	80.003	19.995	103.298	20.037	4.196	0.477
179.500	167.049	79.995	19.998	103.301	20.035	4.364	0.486
180.000	167.315	80.005	19.994	103.302	20.037	4.194	0.531
180.500	167.527	80.001	19.996	103.304	20.034	4.391	0.512
181.000	167.815	80.008	19.995	103.304	20.036	4.246	0.489
181.500	168.020	79.998	19.998	103.306	20.034	4.430	0.496
182.000	168.325	79.996	19.994	103.302	20.034	4.397	0.502
182.500	168.539	80.012	19.995	103.303	20.034	4.401	0.514
183.000	168.756	80.007	19.995	103.303	20.036	4.289	0.475
183.500	169.017	80.002	19.996	103.300	20.035	4.337	0.454
184.000	169.290	79.997	19.996	103.298	20.036	4.264	0.506
184.500	169.538	80.007	19.996	103.300	20.035	4.352	0.528
185.000	169.755	79.993	19.998	103.298	20.031	4.613	0.493
185.500	169.984	80.004	19.995	103.294	20.034	4.431	0.455
186.000	170.266	79.990	19.998	103.295	20.035	4.379	0.478
186.500	170.502	80.002	19.996	103.296	20.032	4.568	0.514
187.001	170.761	79.989	19.996	103.295	20.032	4.599	0.507
187.501	171.001	80.006	19.995	103.294	20.030	4.684	0.497
188.000	171.277	80.000	19.995	103.297	20.029	4.760	0.508
188.500	171.532	80.002	19.995	103.299	20.033	4.465	0.523
189.000	171.772	79.989	19.998	103.301	20.033	4.476	0.512
189.500	172.037	80.005	19.995	103.299	20.033	4.465	0.500
190.000	172.268	80.002	19.996	103.299	20.035	4.345	0.501
190.500	172.490	79.990	19.997	103.297	20.036	4.246	0.474
191.000	172.777	80.000	19.995	103.292	20.035	4.339	0.481
191.500	173.033	80.002	19.994	103.289	20.034	4.406	0.526
192.000	173.271	80.000	19.995	103.293	20.031	4.628	0.519
192.500	173.511	79.993	19.996	103.293	20.031	4.628	0.486
193.000	173.774	80.006	19.993	103.291	20.033	4.522	0.491
193.500	174.037	79.999	19.995	103.294	20.033	4.503	0.514
194.000	174.333	80.014	19.994	103.291	20.031	4.634	0.542
194.500	174.552	79.998	19.994	103.290	20.033	4.480	0.537
195.001	174.841	80.002	19.994	103.291	20.037	4.217	0.511
195.501	175.072	80.003	19.994	103.295	20.032	4.551	0.514
196.001	175.275	80.000	19.994	103.296	20.034	4.382	0.477
196.500	175.551	80.005	19.995	103.301	20.035	4.368	0.457
197.000	175.788	79.994	19.996	103.302	20.032	4.586	0.496
197.500	176.051	80.003	19.995	103.301	20.031	4.617	0.506
198.000	176.289	80.003	19.995	103.296	20.035	4.330	0.500
198.500	176.540	80.008	19.994	103.288	20.034	4.455	0.495
199.000	176.762	79.994	19.995	103.282	20.033	4.527	0.481
199.500	177.053	80.010	19.994	103.278	20.033	4.463	0.493
200.000	177.257	80.005	19.994	103.280	20.034	4.432	0.504
200.500	177.540	79.999	19.994	103.286	20.034	4.405	0.491
201.000	177.807	80.009	19.993	103.295	20.036	4.299	0.519
201.500	178.022	79.993	19.995	103.302	20.035	4.319	0.516
202.000	178.293	80.003	19.994	103.301	20.032	4.575	0.484
202.500	178.555	79.988	19.995	103.298	20.031	4.639	0.509
203.000	178.821	80.005	19.994	103.295	20.033	4.473	0.531
203.500	179.050	79.998	19.996	103.293	20.039	4.052	0.512
204.000	179.321	80.019	19.993	103.289	20.031	4.607	0.497
204.500	179.544	80.015	19.993	103.295	20.033	4.524	0.497
205.000	179.843	80.003	19.993	103.294	20.032	4.567	0.508
205.501	180.087	80.007	19.994	103.293	20.034	4.430	0.532
206.001	180.311	79.987	19.997	103.296	20.033	4.498	0.506
206.500	180.571	80.000	19.996	103.296	20.032	4.591	0.476
207.000	180.803	80.008	19.993	103.290	20.029	4.812	0.488
207.500	181.095	80.008	19.994	103.289	20.033	4.500	0.508
208.000	181.338	80.005	19.993	103.291	20.033	4.460	0.530
208.500	181.590	80.004	19.994	103.285	20.034	4.409	0.515
209.000	181.847	80.011	19.994	103.281	20.032	4.550	0.502
209.500	182.082	79.992	19.995	103.280	20.031	4.614	0.501
210.000	182.343	80.000	19.995	103.281	20.035	4.323	0.494
210.500	182.561	80.007	19.995	103.279	20.032	4.540	0.487
211.000	182.783	79.997	19.996	103.276	20.033	4.529	0.459
211.500	183.036	79.992	19.995	103.275	20.031	4.656	0.458
212.000	183.303	80.012	19.994	103.272	20.030	4.722	0.498
212.500	183.572	80.003	19.994	103.271	20.028	4.895	0.528
213.000	183.820	80.002	19.994	103.267	20.030	4.716	0.527
213.500	184.050	80.003	19.995	103.270	20.033	4.525	0.497
214.000	184.326	79.995	19.996	103.276	20.034	4.421	0.492
214.501	184.597	80.006	19.993	103.283	20.030	4.731	0.527
215.001	184.793	80.004	19.996	103.287	20.034	4.430	0.507
215.500	185.039	80.022	19.993	103.285	20.029	4.774	0.455
216.000	185.284	79.980	19.998	103.287	20.030	4.685	0.466
216.500	185.549	79.981	19.997	103.277	20.031	4.644	0.500
217.000	185.862	80.009	19.994	103.267	20.029	4.782	0.544
217.500	186.071	80.011	19.994	103.266	20.032	4.598	0.550
218.000	186.360	79.998	19.995	103.270	20.032	4.558	0.510
218.500	186.615	79.997	19.997	103.266	20.033	4.475	0.521
219.000	186.855	79.996	19.995	103.265	20.034	4.423	0.520
219.501	187.071	80.007	19.994	103.268	20.032	4.549	0.476
220.001	187.342	80.001	19.995	103.263	20.030	4.730	0.472
220.500	187.583	79.996	19.996	103.260	20.033	4.519	0.499
221.000	187.851	80.001	19.994	103.265	20.032	4.587	0.510
221.500	188.099	80.002	19.995	103.271	20.032	4.565	0.512
222.000	188.399	79.999	19.993	103.271	20.032	4.563	0.532
222.500	188.607	80.007	19.994	103.274	20.032	4.573	0.528
223.000	188.841	80.002	19.995	103.275	20.034	4.454	0.476
223.500	189.107	79.995	19.994	103.270	20.033	4.461	0.471
224.000	189.348	80.005	19.993	103.268	20.032	4.554	0.503
224.500	189.568	80.000	19.995	103.273	20.035	4.367	0.484
225.000	189.831	80.010	19.995	103.271	20.036	4.269	0.472
225.500	190.063	79.998	19.995	103.271	20.033	4.527	0.489
226.000	190.341	80.010	19.994	103.272	20.033	4.529	0.502
226.500	190.578	79.997	19.993	103.276	20.033	4.527	0.513
227.000	190.858	80.001	19.993	103.275	20.031	4.672	0.516
227.501	191.089	79.990	19.994	103.274	20.032	4.531	0.514
228.001	191.324	80.007	19.994	103.270	20.032	4.573	0.489
228.500	191.585	80.003	19.994	103.268	20.031	4.662	0.481
229.000	191.819	80.000	19.997	103.263	20.032	4.548	0.495
229.500	192.084	79.988	19.996	103.258	20.031	4.642	0.497
230.000	192.327	80.009	19.994	103.255	20.032	4.592	0.503
230.500	192.611	80.006	19.993	103.262	20.027	4.918	0.517
231.001	192.835	80.009	19.993	103.269	20.031	4.661	0.518
231.501	193.075	80.001	19.995	103.273	20.028	4.835	0.486
232.000	193.355	80.018	19.992	103.276	20.029	4.823	0.492
232.500	193.619	80.008	19.994	103.282	20.031	4.609	0.532
233.000	193.881	79.991	19.994	103.284	20.033	4.500	0.535
233.500	194.085	79.994	19.996	103.277	20.033	4.502	0.496
234.001	194.376	79.993	19.994	103.273	20.029	4.805	0.481
234.501	194.593	79.994	19.996	103.278	20.030	4.694	0.502
235.000	194.846	79.991	19.995	103.277	20.030	4.715	0.489
235.500	195.132	79.998	19.995	103.270	20.029	4.771	0.504
236.000	195.365	79.997	19.995	103.270	20.030	4.694	0.529
236.501	195.576	80.004	19.993	103.271	20.030	4.754	0.482
237.001	195.846	80.001	19.994	103.273	20.030	4.733	0.462
237.500	196.089	79.995	19.996	103.273	20.030	4.700	0.497
238.000	196.377	80.002	19.994	103.272	20.032	4.598	0.522
238.500	196.574	80.007	19.996	103.273	20.029	4.776	0.509
239.000	196.857	80.037	19.990	103.273	20.028	4.828	0.483
239.500	197.079	80.001	19.995	103.274	20.029	4.774	0.492
240.000	197.385	79.993	19.994	103.274	20.028	4.868	0.516
240.500	197.609	80.010	19.995	103.278	20.027	4.934	0.529
241.000	197.864	79.999	19.995	103.280	20.028	4.878	0.505
241.500	198.080	80.006	19.996	103.286	20.029	4.770	0.475
242.000	198.356	79.979	19.996	103.286	20.031	4.660	0.481
242.501	198.595	79.988	19.996	103.286	20.027	4.903	0.504
243.001	198.870	80.013	19.994	103.284	20.028	4.865	0.514
243.500	199.093	79.994	19.995	103.284	20.028	4.867	0.506
244.000	199.278	79.994	19.996	103.278	20.027	4.944	0.453
244.500	199.582	79.993	19.995	103.273	20.033	4.460	0.449
245.000	199.857	80.008	19.995	103.271	20.029	4.822	0.534
245.500	200.096	80.005	19.997	103.278	20.030	4.716	0.547
246.001	200.318	79.991	19.996	103.285	20.029	4.766	0.488
246.501	200.576	80.000	19.996	103.288	20.026	5.009	0.470
247.000	200.858	79.995	19.996	103.288	20.029	4.801	0.510
247.500	201.085	80.015	19.993	103.289	20.030	4.751	0.525
248.000	201.296	79.990	19.997	103.285	20.027	4.936	0.473
248.500	201.556	79.989	19.995	103.276	20.029	4.789	0.454
249.000	201.853	80.003	19.994	103.273	20.030	4.722	0.514
249.500	202.091	79.999	19.996	103.274	20.028	4.890	0.547
250.000	202.318	80.003	19.996	103.271	20.025	5.071	0.500
250.500	202.557	80.000	19.995	103.268	20.028	4.876	0.465
251.000	202.816	79.997	19.995	103.272	20.026	4.984	0.482
251.501	203.072	80.009	19.994	103.273	20.028	4.830	0.507
252.001	203.316	80.016	19.993	103.275	20.029	4.803	0.508
252.500	203.513	79.992	19.996	103.281	20.031	4.672	0.471
253.000	203.767	79.995	19.997	103.281	20.029	4.820	0.446
253.500	204.032	79.994	19.996	103.275	20.028	4.866	0.485
254.001	204.284	80.001	19.994	103.269	20.024	5.177	0.518
254.501	204.518	79.993	19.995	103.265	20.031	4.621	0.502
255.000	204.803	79.986	19.996	103.259	20.025	5.107	0.503
255.501	205.031	80.009	19.994	103.256	20.031	4.623	0.516
256.001	205.299	80.001	19.995	103.266	20.031	4.677	0.504
256.501	205.534	80.008	19.994	103.270	20.026	4.980	0.499
257.000	205.766	80.001	19.995	103.271	20.026	5.042	0.485
257.500	206.004	79.980	19.995	103.273	20.026	5.000	0.469
258.000	206.295	79.996	19.995	103.277	20.026	5.044	0.500
258.501	206.549	80.007	19.995	103.270	20.023	5.204	0.537
259.001	206.733	79.987	19.995	103.270	20.026	4.994	0.491
259.500	207.042	79.997	19.994	103.267	20.023	5.250	0.465
260.000	207.276	80.000	19.995	103.270	20.024	5.146	0.518
260.500	207.496	79.988	19.996	103.269	20.025	5.099	0.499
261.000	207.769	79.990	19.996	103.266	20.023	5.246	0.473
261.500	208.021	80.003	19.996	103.264	20.023	5.234	0.509
262.000	208.286	79.997	19.995	103.265	20.026	5.026	0.521
262.500	208.540	80.002	19.995	103.262	20.024	5.161	0.518
263.001	208.757	79.993	19.997	103.266	20.025	5.117	0.495
263.501	209.009	79.995	19.997	103.268	20.023	5.210	0.470
264.000	209.250	80.000	19.994	103.273	20.023	5.229	0.481
264.500	209.489	79.988	19.996	103.277	20.024	5.146	0.486
265.000	209.745	79.977	19.995	103.276	20.019	5.545	0.488
265.500	210.060	79.999	19.995	103.273	20.018	5.626	0.533
266.000	210.264	79.998	19.996	103.278	20.020	5.445	0.545
266.500	210.561	80.008	19.994	103.273	20.017	5.684	0.510
267.000	210.780	79.994	19.998	103.275	20.018	5.601	0.508
267.500	211.040	80.001	19.996	103.274	20.020	5.468	0.497
268.000	211.283	79.986	19.995	103.271	20.022	5.327	0.491
268.500	211.526	80.006	19.996	103.270	20.018	5.592	0.495
269.000	211.777	79.989	19.997	103.272	20.018	5.619	0.490
269.500	212.051	79.996	19.995	103.266	20.020	5.433	0.509
270.000	212.262	80.004	19.994	103.275	20.020	5.476	0.505
270.500	212.534	79.987	19.996	103.282	20.019	5.547	0.484
271.000	212.767	80.000	19.995	103.279	20.017	5.713	0.494
271.500	213.020	80.013	19.993	103.279	20.018	5.603	0.496
272.000	213.239	79.989	19.996	103.286	20.016	5.761	0.479
272.500	213.450	79.991	19.996	103.283	20.018	5.617	0.451
273.000	213.733	79.998	19.996	103.279	20.013	5.950	0.463
273.500	214.014	79.989	19.997	103.276	20.016	5.736	0.530
274.000	214.299	80.005	19.995	103.276	20.014	5.877	0.565
274.500	214.458	80.005	19.996	103.273	20.014	5.935	0.505
275.000	214.720	79.998	19.995	103.272	20.014	5.883	0.432
275.500	214.991	79.992	19.995	103.269	20.012	6.074	0.477
276.000	215.236	79.995	19.996	103.272	20.014	5.925	0.524
276.500	215.478	79.994	19.996	103.271	20.015	5.821	0.501
277.000	215.715	80.009	19.994	103.271	20.015	5.805	0.483
277.500	215.954	79.991	19.997	103.270	20.015	5.834	0.477
278.000	216.239	80.001	19.995	103.268	20.013	5.965	0.499
278.500	216.411	80.010	19.994	103.270	20.014	5.921	0.490
279.000	216.643	79.971	19.999	103.272	20.010	6.176	0.431
279.500	216.963	80.008	19.995	103.265	20.011	6.141	0.478
280.000	217.159	79.991	19.997	103.267	20.012	6.029	0.534
280.500	217.408	80.001	19.994	103.272	20.013	6.018	0.480
281.000	217.660	80.010	19.994	103.273	20.012	6.060	0.474
281.500	217.881	80.010	19.994	103.272	20.009	6.292	0.487
282.000	218.146	80.005	19.996	103.279	20.011	6.099	0.479
282.500	218.416	80.003	19.995	103.275	20.011	6.122	0.510
283.000	218.647	80.006	19.993	103.272	20.009	6.280	0.518
283.500	218.871	80.008	19.995	103.274	20.011	6.128	0.478
284.000	219.139	79.999	19.995	103.276	20.010	6.244	0.473
284.500	219.381	79.999	19.997	103.276	20.008	6.362	0.501
285.000	219.626	79.989	19.997	103.275	20.010	6.235	0.499
285.501	219.863	79.992	19.997	103.272	20.008	6.321	0.485
286.001	220.103	80.000	19.995	103.268	20.009	6.265	0.480
286.501	220.333	80.004	19.993	103.268	20.008	6.331	0.474
287.001	220.592	79.997	19.994	103.271	20.008	6.379	0.479
287.501	220.840	80.003	19.995	103.278	20.006	6.533	0.497
288.000	221.075	80.007	19.994	103.284	20.007	6.429	0.495
288.500	221.326	80.006	19.993	103.283	20.008	6.331	0.485
289.000	221.622	80.007	19.993	103.279	20.008	6.371	0.517
289.500	221.843	80.009	19.992	103.276	20.007	6.458	0.532
290.000	222.092	80.014	19.993	103.273	20.006	6.506	0.493
290.501	222.375	80.013	19.994	103.272	20.004	6.631	0.501
291.001	222.607	79.997	19.995	103.274	20.007	6.413	0.524
291.500	222.813	79.989	19.996	103.277	20.005	6.554	0.477
292.000	223.041	79.986	19.997	103.278	20.001	6.914	0.436
292.500	223.334	80.004	19.995	103.273	20.002	6.789	0.477
293.000	223.559	79.999	19.995	103.275	20.003	6.729	0.519
293.500	223.803	79.996	19.994	103.274	20.001	6.865	0.493
294.000	224.060	79.995	19.995	103.269	20.001	6.903	0.485
294.500	224.263	79.989	19.998	103.264	19.999	7.008	0.480
295.000	224.567	80.004	19.994	103.259	19.999	7.041	0.483
295.500	224.804	79.991	19.993	103.256	19.999	6.993	0.524
296.000	225.056	80.008	19.995	103.259	20.000	6.969	0.515
296.500	225.325	80.003	19.995	103.261	20.000	6.973	0.505
297.000	225.559	80.000	19.996	103.262	20.000	6.948	0.512
297.500	225.819	79.990	19.995	103.268	19.999	7.029	0.498
298.000	226.071	79.995	19.995	103.265	20.001	6.863	0.503
298.500	226.305	79.995	19.995	103.262	19.997	7.162	0.499
299.000	226.519	79.994	19.996	103.263	19.997	7.175	0.467
299.500	226.823	80.002	19.993	103.263	19.995	7.324	0.483
300.000	227.020	80.002	19.995	103.269	19.999	7.048	0.509
300.500	227.274	80.004	19.996	103.271	19.995	7.303	0.476
301.000	227.543	80.002	19.996	103.271	19.994	7.417	0.487
301.500	227.793	80.009	19.994	103.273	19.994	7.405	0.521
302.000	228.050	80.013	19.995	103.281	19.994	7.392	0.514
302.500	228.287	80.010	19.995	103.279	19.995	7.344	0.501
303.000	228.556	80.013	19.994	103.282	19.997	7.199	0.500
303.500	228.792	80.003	19.994	103.283	19.996	7.247	0.505
304.001	229.048	80.007	19.995	103.280	19.996	7.228	0.498
304.501	229.277	80.004	19.994	103.272	19.994	7.403	0.488
305.000	229.572	80.005	19.994	103.270	19.997	7.212	0.505
305.500	229.787	80.001	19.995	103.267	19.992	7.562	0.517
306.000	230.025	79.996	19.996	103.264	19.994	7.427	0.481
306.500	230.307	79.999	19.995	103.261	19.993	7.508	0.486
307.000	230.537	80.000	19.995	103.262	19.994	7.396	0.516
307.500	230.766	79.995	19.996	103.266	19.992	7.531	0.486
308.000	231.061	80.004	19.994	103.268	19.994	7.415	0.491
308.500	231.282	79.995	19.995	103.272	19.990	7.694	0.520
309.000	231.514	80.003	19.995	103.274	19.991	7.594	0.485
309.501	231.773	80.008	19.996	103.273	19.992	7.528	0.472
310.001	232.050	80.008	19.994	103.272	19.991	7.602	0.514
310.501	232.233	80.003	19.995	103.271	19.991	7.598	0.498
311.000	232.483	80.003	19.995	103.267	19.992	7.532	0.447
311.500	232.743	80.000	19.995	103.265	19.990	7.685	0.471
312.000	232.977	80.003	19.995	103.264	19.989	7.758	0.502
312.500	233.275	80.005	19.995	103.262	19.988	7.844	0.513
313.000	233.486	80.003	19.995	103.260	19.985	8.081	0.520
313.500	233.738	79.997	19.994	103.260	19.988	7.882	0.486
314.001	233.987	80.007	19.995	103.262	19.985	8.056	0.482
314.501	234.263	80.003	19.994	103.262	19.987	7.915	0.513
315.000	234.469	80.001	19.994	103.262	19.986	7.977	0.504
315.501	234.779	79.998	19.994	103.262	19.987	7.899	0.499
316.001	234.956	79.998	19.996	103.263	19.984	8.182	0.501
316.500	235.232	79.993	19.996	103.260	19.983	8.203	0.470
317.001	235.514	80.008	19.994	103.259	19.984	8.139	0.506
317.501	235.768	79.998	19.994	103.260	19.980	8.423	0.547
318.000	235.980	80.000	19.995	103.259	19.987	7.950	0.501
318.500	236.226	80.000	19.995	103.260	19.982	8.305	0.462
319.000	236.479	80.004	19.994	103.263	19.981	8.345	0.479
319.500	236.701	79.999	19.994	103.268	19.983	8.210	0.487
320.000	236.994	80.002	19.994	103.268	19.981	8.355	0.495
320.500	237.225	80.000	19.995	103.270	19.980	8.446	0.520
321.000	237.479	80.000	19.995	103.270	19.981	8.342	0.505
321.500	237.758	80.000	19.993	103.269	19.983	8.215	0.509
322.000	237.997	80.002	19.995	103.268	19.981	8.366	0.525
322.500	238.255	79.989	19.996	103.268	19.981	8.368	0.508
323.000	238.507	80.003	19.994	103.270	19.982	8.281	0.504
323.500	238.775	80.001	19.994	103.278	19.981	8.347	0.515
324.000	239.000	80.002	19.995	103.283	19.979	8.509	0.506
324.500	239.241	79.993	19.995	103.283	19.981	8.343	0.479
325.000	239.531	80.000	19.993	103.283	19.978	8.590	0.498
325.500	239.768	80.001	19.994	103.281	19.979	8.507	0.529
326.000	239.993	80.002	19.995	103.274	19.977	8.694	0.495
326.500	240.229	80.002	19.994	103.270	19.976	8.742	0.462
327.000	240.487	80.000	19.994	103.270	19.978	8.625	0.477
327.500	240.724	79.998	19.996	103.271	19.980	8.419	0.494
328.000	240.962	79.998	19.994	103.277	19.976	8.766	0.485
328.500	241.232	80.001	19.994	103.278	19.976	8.712	0.492
329.000	241.444	79.989	19.996	103.282	19.973	8.957	0.495
329.500	241.721	80.001	19.995	103.284	19.975	8.845	0.485
330.000	241.967	80.001	19.995	103.288	19.972	9.040	0.506
330.500	242.175	79.999	19.995	103.282	19.972	9.067	0.488
331.000	242.462	80.001	19.994	103.281	19.973	8.999	0.475
331.500	242.730	80.001	19.994	103.276	19.972	9.030	0.525
332.000	242.983	80.000	19.996	103.274	19.971	9.141	0.538
332.500	243.232	79.996	19.995	103.266	19.971	9.112	0.511
333.000	243.496	79.995	19.994	103.264	19.969	9.292	0.508
333.500	243.734	79.995	19.996	103.265	19.968	9.319	0.508
334.000	243.969	79.993	19.996	103.266	19.970	9.165	0.488
334.500	244.240	79.989	19.997	103.264	19.970	9.215	0.489
335.001	244.454	79.997	19.996	103.262	19.966	9.462	0.496
335.501	244.734	80.004	19.995	103.260	19.968	9.371	0.490
336.000	245.001	80.003	19.994	103.260	19.967	9.430	0.520
336.500	245.284	80.002	19.995	103.260	19.965	9.581	0.548
337.000	245.526	79.992	19.995	103.264	19.964	9.674	0.537
337.500	245.821	80.012	19.993	103.268	19.962	9.786	0.531
338.000	246.025	80.002	19.995	103.276	19.962	9.779	0.518
338.500	246.263	80.001	19.994	103.281	19.961	9.847	0.470
339.000	246.559	79.999	19.996	103.279	19.960	9.937	0.488
339.500	246.766	79.998	19.995	103.278	19.962	9.786	0.519
340.000	247.034	79.999	19.995	103.277	19.960	9.928	0.489
340.500	247.296	80.001	19.995	103.273	19.959	10.009	0.503
341.001	247.502	80.000	19.995	103.271	19.961	9.897	0.499
341.501	247.777	80.002	19.995	103.273	19.961	9.879	0.474
342.000	247.999	79.997	19.997	103.278	19.960	9.941	0.489
342.500	248.238	80.003	19.996	103.284	19.959	10.011	0.479
343.000	248.501	79.998	19.995	103.288	19.957	10.144	0.481
343.500	248.753	80.001	19.995	103.287	19.959	10.013	0.508
344.000	248.975	80.004	19.995	103.285	19.957	10.160	0.495
344.501	249.263	80.002	19.995	103.281	19.959	10.025	0.493
345.001	249.527	79.996	19.995	103.277	19.953	10.440	0.531
345.500	249.769	79.991	19.997	103.278	19.955	10.336	0.529
346.000	250.075	80.003	19.995	103.279	19.955	10.309	0.527
346.500	250.302	80.004	19.995	103.287	19.951	10.604	0.540
347.000	250.518	79.991	19.997	103.294	19.954	10.392	0.488
347.500	250.775	79.988	19.996	103.291	19.952	10.526	0.458
348.000	250.995	80.002	19.995	103.282	19.950	10.656	0.475
348.500	251.297	79.999	19.995	103.279	19.952	10.498	0.500
349.000	251.579	79.994	19.997	103.275	19.952	10.546	0.554
349.500	251.783	79.998	19.996	103.271	19.950	10.698	0.535
350.000	252.079	80.002	19.995	103.275	19.950	10.698	0.493
350.501	252.311	80.000	19.995	103.282	19.946	10.979	0.513
351.001	252.511	80.001	19.994	103.287	19.947	10.921	0.480
351.500	252.797	80.010	19.994	103.287	19.945	11.092	0.460
352.001	253.055	80.006	19.995	103.290	19.945	11.063	0.515
352.501	253.273	80.000	19.997	103.293	19.942	11.272	0.510
353.001	253.539	79.998	19.995	103.291	19.942	11.303	0.480
353.500	253.815	79.999	19.995	103.288	19.940	11.421	0.513
354.000	254.068	80.008	19.993	103.285	19.943	11.222	0.535
354.500	254.294	79.986	19.996	103.285	19.939	11.519	0.504
355.000	254.562	80.007	19.996	103.279	19.939	11.470	0.487
355.500	254.819	80.008	19.994	103.280	19.937	11.644	0.510
356.000	255.078	80.008	19.993	103.280	19.936	11.743	0.521
356.500	255.303	80.001	19.995	103.282	19.936	11.707	0.500
357.000	255.578	79.993	19.997	103.278	19.938	11.574	0.492
357.500	255.806	80.004	19.996	103.281	19.935	11.782	0.502
358.000	256.065	80.005	19.994	103.278	19.933	11.975	0.495
358.500	256.324	80.000	19.996	103.283	19.932	12.010	0.502
359.000	256.521	80.002	19.994	103.282	19.936	11.758	0.487
359.500	256.788	79.993	19.997	103.279	19.931	12.085	0.460
360.001	257.068	80.007	19.993	103.276	19.931	12.083	0.506
360.501	257.259	80.003	19.995	103.282	19.930	12.149	0.509
361.000	257.509	80.010	19.995	103.282	19.928	12.309	0.456
361.500	257.769	80.007	19.994	103.288	19.928	12.294	0.475
362.000	258.052	80.006	19.995	103.294	19.926	12.468	0.526
362.500	258.338	80.003	19.996	103.299	19.927	12.383	0.557
363.000	258.579	80.010	19.995	103.294	19.928	12.327	0.548
363.500	258.850	80.002	19.995	103.289	19.925	12.537	0.519
364.000	259.096	80.001	19.995	103.286	19.927	12.400	0.514
364.500	259.280	80.002	19.996	103.285	19.924	12.611	0.474
365.000	259.547	80.000	19.995	103.287	19.921	12.853	0.441
365.500	259.779	79.999	19.996	103.291	19.922	12.791	0.475
366.000	260.021	80.007	19.995	103.293	19.918	13.086	0.486
366.500	260.287	79.997	19.997	103.292	19.920	12.946	0.491
367.000	260.521	80.002	19.996	103.287	19.917	13.146	0.504
367.500	260.790	80.003	19.996	103.283	19.917	13.171	0.501
368.000	261.006	79.995	19.997	103.283	19.914	13.350	0.494
368.500	261.257	79.995	19.997	103.283	19.914	13.367	0.476
369.001	261.554	79.998	19.995	103.285	19.909	13.752	0.508
369.501	261.761	79.999	19.997	103.292	19.907	13.867	0.526
370.000	261.983	79.997	19.997	103.295	19.907	13.869	0.466
370.500	262.297	80.007	19.996	103.294	19.905	14.011	0.482
371.000	262.522	80.002	19.996	103.295	19.904	14.130	0.538
371.500	262.758	79.999	19.998	103.294	19.904	14.098	0.500
372.000	263.013	79.998	19.996	103.292	19.902	14.302	0.476
372.500	263.266	79.997	19.997	103.292	19.901	14.319	0.500
373.000	263.563	80.000	19.996	103.289	19.898	14.536	0.529
373.500	263.780	79.999	19.996	103.289	19.902	14.293	0.532
374.000	264.010	80.002	19.995	103.291	19.901	14.375	0.480
374.500	264.292	79.997	19.996	103.293	19.899	14.460	0.479
375.001	264.524	80.002	19.997	103.294	19.893	14.915	0.513
375.501	264.758	79.997	19.996	103.298	19.895	14.799	0.490
376.000	265.037	79.998	19.996	103.297	19.896	14.705	0.489
376.500	265.287	79.998	19.996	103.296	19.891	15.077	0.521
377.000	265.514	79.992	19.997	103.295	19.890	15.148	0.504
377.500	265.816	80.015	19.993	103.292	19.891	15.092	0.504
378.000	266.033	80.001	19.997	103.296	19.888	15.292	0.524
378.501	266.325	79.994	19.996	103.299	19.889	15.271	0.513
379.001	266.539	80.002	19.995	103.298	19.886	15.431	0.508
379.500	266.791	80.009	19.995	103.298	19.887	15.404	0.487
380.000	267.064	79.994	19.995	103.304	19.883	15.691	0.495
380.500	267.314	79.992	19.996	103.300	19.885	15.524	0.524
381.000	267.533	80.007	19.993	103.299	19.884	15.610	0.496
381.500	267.780	80.002	19.996	103.303	19.882	15.765	0.468
382.001	268.043	79.999	19.993	103.305	19.883	15.694	0.488
382.501	268.303	79.999	19.995	103.302	19.880	15.877	0.517
383.001	268.494	80.001	19.994	103.302	19.880	15.935	0.487
383.501	268.730	79.999	19.997	103.304	19.879	15.968	0.439
384.000	269.047	80.009	19.993	103.298	19.875	16.311	0.490
384.500	269.272	80.016	19.992	103.301	19.872	16.490	0.547
385.000	269.510	79.985	19.995	103.305	19.873	16.411	0.502
385.500	269.777	80.000	19.993	103.303	19.874	16.371	0.484
386.000	270.009	79.996	19.994	103.303	19.870	16.619	0.502
386.500	270.258	80.002	19.993	103.307	19.870	16.667	0.490
387.000	270.543	79.996	19.995	103.304	19.869	16.752	0.508
387.500	270.786	80.003	19.994	103.302	19.868	16.829	0.531
388.000	271.069	80.006	19.994	103.304	19.863	17.161	0.527
388.500	271.301	80.023	19.992	103.305	19.864	17.091	0.521
389.000	271.546	79.990	19.995	103.309	19.862	17.237	0.496
389.500	271.823	80.012	19.993	103.307	19.860	17.422	0.499
390.000	272.070	80.006	19.994	103.309	19.858	17.573	0.522
390.500	272.323	80.000	19.994	103.310	19.857	17.636	0.512
391.000	272.542	80.004	19.994	103.312	19.856	17.711	0.486
391.500	272.788	80.003	19.994	103.309	19.856	17.720	0.469
392.000	273.039	80.000	19.995	103.311	19.854	17.847	0.481
392.500	273.289	80.001	19.994	103.307	19.851	18.113	0.499
393.000	273.550	80.002	19.994	103.306	19.851	18.107	0.506
393.500	273.782	80.002	19.994	103.303	19.849	18.196	0.502
394.000	274.045	80.001	19.994	103.303	19.849	18.244	0.494
394.500	274.280	80.005	19.995	103.302	19.849	18.255	0.497
395.000	274.534	80.004	19.994	103.304	19.841	18.840	0.494
395.500	274.797	80.001	19.994	103.304	19.842	18.725	0.503
396.000	275.073	80.000	19.995	103.304	19.844	18.603	0.528
396.500	275.291	80.006	19.994	103.305	19.841	18.813	0.517
397.000	275.550	80.000	19.994	103.305	19.839	19.006	0.486
397.500	275.803	80.001	19.994	103.307	19.835	19.249	0.495
398.000	276.043	80.001	19.995	103.307	19.836	19.203	0.502
398.500	276.310	80.000	19.994	103.307	19.833	19.447	0.500
399.000	276.569	80.001	19.995	103.308	19.832	19.510	0.517
399.500	276.836	80.000	19.994	103.310	19.833	19.404	0.526
400.000	277.066	79.999	19.995	103.312	19.830	19.614	0.511
400.500	277.324	80.000	19.995	103.316	19.827	19.891	0.492
401.000	277.548	80.001	19.994	103.321	19.829	19.735	0.485
401.500	277.833	79.999	19.995	103.325	19.823	20.190	0.495
402.000	278.088	80.001	19.995	103.329	19.823	20.136	0.524
402.500	278.302	79.999	19.993	103.332	19.821	20.285	0.505
403.000	278.589	80.002	19.995	103.334	19.819	20.454	0.485
403.500	278.847	79.998	19.995	103.333	19.817	20.637	0.523
404.000	279.070	80.000	19.995	103.335	19.815	20.755	0.513
404.500	279.349	80.000	19.995	103.335	19.817	20.635	0.491
405.000	279.586	79.999	19.995	103.336	19.813	20.947	0.509
405.500	279.855	79.999	19.995	103.338	19.807	21.360	0.511
406.000	280.100	80.001	19.994	103.342	19.808	21.267	0.510
406.501	280.344	80.006	19.994	103.343	19.807	21.334	0.502
407.001	280.607	79.996	19.995	103.345	19.806	21.453	0.498
407.501	280.855	80.002	19.995	103.343	19.803	21.646	0.509
408.001	281.069	79.994	19.995	103.344	19.800	21.869	0.487
408.500	281.356	80.001	19.995	103.341	19.802	21.738	0.482
409.000	281.607	79.998	19.996	103.338	19.799	21.933	0.519
409.500	281.866	80.005	19.995	103.336	19.796	22.161	0.524
410.000	282.108	80.006	19.994	103.336	19.795	22.287	0.505
410.500	282.340	79.997	19.995	103.336	19.791	22.567	0.487
411.000	282.603	80.004	19.994	103.337	19.793	22.392	0.485
411.500	282.853	79.998	19.995	103.340	19.791	22.539	0.504
412.000	283.099	80.004	19.994	103.341	19.787	22.822	0.504
412.500	283.366	79.975	19.996	103.342	19.782	23.258	0.505
413.000	283.642	80.000	19.996	103.339	19.785	23.017	0.528
413.500	283.872	80.006	19.994	103.339	19.784	23.077	0.524
414.000	284.126	80.007	19.994	103.339	19.785	23.025	0.495
414.500	284.380	80.000	19.994	103.340	19.779	23.448	0.496
415.000	284.650	80.002	19.996	103.339	19.781	23.286	0.516
415.500	284.883	79.998	19.996	103.341	19.779	23.487	0.514
416.000	285.134	79.993	19.996	103.342	19.775	23.747	0.493
416.500	285.398	80.017	19.991	103.339	19.774	23.850	0.500
417.000	285.655	80.008	19.995	103.344	19.774	23.829	0.518
417.500	285.875	80.005	19.996	103.346	19.771	24.090	0.499
418.000	286.130	79.998	19.994	103.347	19.767	24.323	0.476
418.500	286.437	80.010	19.993	103.347	19.767	24.319	0.519
419.001	286.638	79.996	19.994	103.352	19.765	24.505	0.535
419.501	286.894	79.995	19.995	103.347	19.762	24.747	0.483
420.000	287.145	80.007	19.992	103.346	19.760	24.894	0.482
420.501	287.374	79.985	19.995	103.346	19.758	25.023	0.493
421.001	287.685	79.993	19.997	103.349	19.758	25.055	0.510
421.500	287.904	79.998	19.994	103.347	19.753	25.369	0.535
422.000	288.163	80.002	19.995	103.345	19.748	25.759	0.504
422.501	288.417	80.001	19.994	103.344	19.750	25.639	0.496
423.001	288.681	80.002	19.995	103.347	19.746	25.927	0.515
423.500	288.889	79.999	19.995	103.351	19.748	25.783	0.495
424.000	289.141	79.999	19.995	103.352	19.742	26.241	0.467
424.500	289.361	79.999	19.995	103.351	19.739	26.422	0.466
425.000	289.646	79.997	19.995	103.351	19.736	26.702	0.489
425.500	289.946	80.001	19.996	103.349	19.737	26.600	0.545
426.001	290.152	80.004	19.994	103.349	19.732	26.997	0.545
426.501	290.451	79.988	19.997	103.356	19.735	26.736	0.505
427.000	290.678	80.001	19.995	103.363	19.729	27.175	0.516
427.500	290.939	80.003	19.995	103.371	19.729	27.185	0.507
428.000	291.189	80.003	19.995	103.377	19.728	27.264	0.499
428.500	291.465	79.996	19.995	103.375	19.727	27.368	0.518
429.001	291.716	80.003	19.995	103.368	19.722	27.740	0.527
429.501	291.995	80.007	19.996	103.364	19.721	27.819	0.529
430.000	292.259	80.002	19.995	103.362	19.718	27.994	0.536
430.500	292.502	80.000	19.996	103.359	19.715	28.228	0.525
431.000	292.747	79.999	19.998	103.355	19.710	28.597	0.498
431.500	293.018	80.000	19.995	103.354	19.711	28.562	0.502
432.000	293.240	80.002	19.996	103.358	19.706	28.919	0.504
432.500	293.502	80.006	19.995	103.361	19.702	29.200	0.488
433.000	293.747	80.011	19.994	103.365	19.700	29.368	0.495
433.500	293.996	80.002	19.996	103.374	19.698	29.542	0.501
434.000	294.227	79.996	19.995	103.380	19.695	29.712	0.487
434.500	294.523	80.001	19.995	103.377	19.696	29.648	0.504
435.000	294.761	79.999	19.997	103.373	19.691	30.009	0.530
435.500	294.993	80.001	19.995	103.373	19.688	30.234	0.502
436.001	295.244	79.999	19.996	103.370	19.687	30.354	0.477
436.501	295.486	80.000	19.996	103.368	19.688	30.284	0.488
437.000	295.747	80.000	19.997	103.371	19.685	30.507	0.498
437.500	295.993	80.001	19.995	103.373	19.681	30.759	0.505
438.000	296.231	79.999	19.996	103.373	19.681	30.761	0.495
438.500	296.488	79.997	19.997	103.372	19.679	30.962	0.489
439.000	296.753	79.996	19.995	103.373	19.677	31.070	0.508
439.500	296.947	80.001	19.996	103.374	19.675	31.234	0.491
440.000	297.223	80.005	19.995	103.373	19.671	31.498	0.465
440.500	297.484	79.998	19.996	103.374	19.672	31.463	0.503
441.000	297.761	80.006	19.995	103.375	19.669	31.695	0.537
441.500	297.996	80.001	19.995	103.379	19.663	32.110	0.525
442.000	298.254	79.999	19.996	103.382	19.662	32.193	0.503
442.500	298.485	79.999	19.996	103.384	19.662	32.206	0.491
443.000	298.749	80.007	19.994	103.383	19.660	32.325	0.492
443.500	299.009	79.996	19.995	103.383	19.656	32.622	0.510
444.000	299.250	80.000	19.995	103.381	19.655	32.753	0.512
444.500	299.502	80.001	19.995	103.379	19.655	32.728	0.497
445.001	299.737	80.001	19.995	103.379	19.653	32.846	0.490
445.501	299.985	79.995	19.995	103.380	19.648	33.221	0.485
446.001	300.228	80.002	19.996	103.379	19.645	33.461	0.487
446.500	300.457	80.003	19.996	103.378	19.644	33.563	0.482
447.000	300.719	80.004	19.995	103.377	19.642	33.692	0.481
447.500	300.967	80.000	19.994	103.379	19.638	33.981	0.500
448.000	301.187	80.002	19.996	103.380	19.636	34.167	0.489
448.500	301.454	80.001	19.995	103.382	19.633	34.351	0.478
449.000	301.696	80.006	19.994	103.382	19.632	34.456	0.499
449.500	301.949	80.001	19.995	103.385	19.630	34.578	0.502
450.000	302.225	80.004	19.995	103.388	19.629	34.658	0.511
450.500	302.485	79.999	19.996	103.387	19.627	34.781	0.532
451.000	302.749	80.002	19.994	103.386	19.628	34.708	0.531
451.500	303.000	80.000	19.995	103.386	19.621	35.226	0.520
452.000	303.223	80.000	19.995	103.384	19.623	35.097	0.494
452.500	303.450	80.000	19.995	103.381	19.622	35.218	0.462
453.000	303.729	80.000	19.995	103.381	19.620	35.304	0.478
453.500	303.987	80.000	19.994	103.383	19.613	35.825	0.522
454.000	304.241	80.000	19.996	103.383	19.614	35.818	0.525
454.500	304.483	80.001	19.996	103.384	19.610	36.065	0.503
455.000	304.731	80.001	19.996	103.383	19.611	36.031	0.492
455.500	304.992	80.000	19.995	103.382	19.609	36.192	0.499
456.000	305.245	79.999	19.995	103.382	19.602	36.717	0.512
456.500	305.526	80.001	19.995	103.386	19.603	36.591	0.524
457.000	305.761	80.001	19.996	103.389	19.598	37.006	0.525
457.500	306.012	80.000	19.995	103.389	19.598	36.951	0.501
458.000	306.245	80.001	19.995	103.389	19.595	37.227	0.485
458.500	306.526	80.002	19.995	103.389	19.592	37.451	0.499
459.000	306.797	80.005	19.995	103.386	19.591	37.531	0.533
459.501	307.031	79.999	19.996	103.383	19.587	37.834	0.529
460.001	307.272	80.000	19.996	103.383	19.582	38.192	0.490
460.500	307.504	80.000	19.996	103.383	19.582	38.199	0.474
461.000	307.718	80.000	19.995	103.386	19.578	38.456	0.460
461.500	307.967	80.001	19.995	103.386	19.575	38.674	0.455
462.000	308.202	80.001	19.995	103.386	19.572	38.894	0.473
462.500	308.509	80.000	19.995	103.386	19.569	39.145	0.513
463.001	308.755	79.997	19.996	103.387	19.569	39.186	0.548
463.501	309.011	80.000	19.996	103.387	19.567	39.266	0.527
464.000	309.261	80.002	19.995	103.391	19.563	39.582	0.504
464.501	309.520	80.001	19.995	103.395	19.558	39.958	0.508
465.001	309.801	80.003	19.994	103.397	19.561	39.728	0.525
465.500	310.064	80.001	19.997	103.402	19.557	40.014	0.542
466.000	310.301	80.000	19.995	103.402	19.552	40.414	0.522
466.500	310.532	80.001	19.995	103.398	19.550	40.562	0.484
467.000	310.800	80.003	19.995	103.399	19.551	40.531	0.483
467.500	311.029	80.003	19.996	103.402	19.546	40.900	0.498
468.000	311.290	80.001	19.995	103.401	19.544	41.021	0.494
468.500	311.534	80.001	19.996	103.403	19.542	41.209	0.497
469.001	311.810	80.004	19.994	103.408	19.542	41.180	0.512
469.501	312.094	80.006	19.996	103.411	19.538	41.437	0.540
470.001	312.291	80.018	19.994	103.415	19.537	41.532	0.520
470.501	312.588	80.002	19.995	103.418	19.534	41.745	0.487
471.001	312.850	80.004	19.995	103.420	19.529	42.126	0.527
471.501	313.104	79.997	19.996	103.421	19.528	42.241	0.537
472.000	313.357	80.001	19.995	103.419	19.524	42.497	0.511
472.500	313.547	80.004	19.995	103.418	19.523	42.617	0.475
473.000	313.843	79.998	19.995	103.418	19.517	43.016	0.465
473.500	314.081	80.004	19.995	103.416	19.518	42.943	0.510
474.000	314.310	79.998	19.995	103.414	19.515	43.224	0.500
474.500	314.587	80.010	19.994	103.411	19.515	43.154	0.486
475.000	314.837	80.003	19.993	103.409	19.507	43.804	0.517
475.500	315.050	80.004	19.994	103.411	19.505	43.910	0.495
476.001	315.313	80.000	19.995	103.412	19.503	44.123	0.469
476.501	315.551	79.992	19.996	103.414	19.497	44.534	0.488
477.000	315.802	80.002	19.995	103.415	19.493	44.805	0.495
477.500	316.042	79.999	19.996	103.417	19.496	44.617	0.490
478.000	316.268	80.009	19.993	103.413	19.491	44.996	0.479
478.500	316.532	80.003	19.994	103.414	19.488	45.188	0.478
479.000	316.774	79.999	19.995	103.415	19.487	45.322	0.498
479.500	317.093	80.009	19.994	103.423	19.483	45.571	0.534
480.000	317.338	79.994	19.994	103.423	19.481	45.741	0.563
480.500	317.557	79.998	19.994	103.427	19.479	45.890	0.514
481.000	317.830	79.998	19.996	103.425	19.475	46.147	0.478
481.500	318.095	79.985	19.996	103.427	19.473	46.302	0.515
482.000	318.308	80.004	19.995	103.427	19.472	46.438	0.508
482.500	318.574	80.001	19.995	103.429	19.469	46.602	0.479
483.000	318.847	79.996	19.995	103.429	19.464	47.048	0.509
483.501	319.067	80.002	19.994	103.429	19.465	46.950	0.516
484.001	319.332	79.999	19.995	103.427	19.462	47.188	0.489
484.500	319.535	79.994	19.996	103.422	19.459	47.409	0.476
485.000	319.802	79.998	19.996	103.417	19.456	47.586	0.469
485.500	320.048	80.001	19.994	103.419	19.453	47.802	0.492
486.000	320.298	80.002	19.995	103.423	19.453	47.825	0.505
486.500	320.571	80.001	19.994	103.427	19.449	48.108	0.510
487.000	320.789	80.002	19.995	103.433	19.450	48.078	0.507
487.500	321.076	80.005	19.996	103.437	19.442	48.651	0.497
488.000	321.299	80.000	19.994	103.434	19.440	48.780	0.507
488.500	321.599	80.011	19.994	103.431	19.434	49.248	0.517
489.000	321.804	79.992	19.995	103.433	19.430	49.578	0.515
489.500	322.081	80.006	19.994	103.433	19.428	49.697	0.494
490.001	322.310	80.003	19.996	103.437	19.426	49.844	0.494
490.501	322.530	80.003	19.994	103.439	19.421	50.198	0.477
491.001	322.806	79.997	19.995	103.442	19.420	50.291	0.472
491.501	323.067	80.000	19.995	103.437	19.414	50.721	0.516
492.000	323.306	80.006	19.994	103.434	19.411	50.958	0.519
492.500	323.576	80.001	19.996	103.436	19.410	51.031	0.505
493.000	323.774	80.002	19.994	103.442	19.409	51.149	0.489
493.500	324.034	80.000	19.995	103.447	19.402	51.651	0.463
494.000	324.276	80.001	19.996	103.453	19.401	51.693	0.480
494.500	324.560	80.001	19.995	103.458	19.398	51.930	0.514
495.000	324.823	79.999	19.995	103.455	19.393	52.289	0.536
495.500	325.078	80.002	19.994	103.455	19.391	52.463	0.532
496.000	325.333	80.003	19.994	103.455	19.392	52.426	0.514
496.500	325.546	80.004	19.995	103.455	19.387	52.783	0.489
497.000	325.811	80.000	19.994	103.455	19.383	53.045	0.473
497.500	326.081	79.999	19.995	103.455	19.381	53.225	0.507
498.000	326.329	80.001	19.995	103.454	19.380	53.335	0.526
498.501	326.618	80.000	19.995	103.455	19.376	53.575	0.527
499.001	326.849	80.001	19.995	103.455	19.375	53.689	0.528
499.500	327.078	79.996	19.994	103.455	19.373	53.814	0.490
500.000	327.362	79.999	19.995	103.457	19.367	54.295	0.487
500.500	327.610	80.001	19.995	103.458	19.365	54.445	0.523
501.000	327.869	80.001	19.996	103.458	19.361	54.743	0.519
501.500	328.076	80.002	19.995	103.458	19.358	54.932	0.486
502.000	328.369	79.994	19.995	103.458	19.354	55.216	0.483
502.500	328.575	80.002	19.993	103.457	19.350	55.569	0.499
503.000	328.836	79.999	19.994	103.456	19.350	55.563	0.483
503.500	329.086	80.000	19.995	103.456	19.349	55.639	0.489
504.000	329.319	80.002	19.994	103.456	19.341	56.197	0.497
504.500	329.574	79.999	19.996	103.456	19.341	56.236	0.485
505.000	329.848	80.000	19.995	103.456	19.337	56.549	0.508
505.500	330.110	80.000	19.995	103.456	19.339	56.391	0.533
506.000	330.351	80.003	19.993	103.460	19.332	56.924	0.519
506.500	330.581	80.002	19.995	103.465	19.330	57.018	0.486
507.001	330.872	79.999	19.996	103.466	19.324	57.470	0.496
507.501	331.093	80.005	19.994	103.469	19.323	57.570	0.517
508.000	331.362	80.001	19.994	103.472	19.318	57.923	0.501
508.500	331.627	79.998	19.994	103.475	19.315	58.162	0.512
509.000	331.863	80.000	19.995	103.474	19.316	58.098	0.518
509.500	332.123	79.998	19.995	103.475	19.313	58.320	0.498
510.000	332.373	80.006	19.995	103.475	19.311	58.424	0.503
510.500	332.686	79.998	19.994	103.475	19.306	58.831	0.537
511.000	332.886	80.001	19.994	103.476	19.305	58.924	0.538
511.501	333.211	79.999	19.994	103.476	19.300	59.288	0.519
512.001	333.401	79.999	19.995	103.477	19.296	59.549	0.520
512.500	333.672	80.001	19.996	103.476	19.297	59.536	0.488
513.000	333.972	79.999	19.994	103.474	19.293	59.818	0.516
513.500	334.191	80.000	19.995	103.472	19.292	59.875	0.545
514.000	334.429	80.000	19.994	103.473	19.289	60.097	0.488
514.500	334.698	79.999	19.994	103.479	19.285	60.423	0.482
515.000	334.950	79.999	19.995	103.484	19.283	60.580	0.514
515.500	335.222	79.998	19.994	103.491	19.280	60.774	0.522
516.000	335.461	79.996	19.995	103.488	19.277	61.003	0.518
516.500	335.701	79.991	19.996	103.489	19.273	61.332	0.495
517.000	335.982	79.996	19.994	103.482	19.274	61.208	0.500
517.500	336.231	79.998	19.995	103.483	19.269	61.638	0.525
518.001	336.488	80.004	19.993	103.482	19.266	61.827	0.518
518.501	336.722	80.001	19.995	103.487	19.265	61.912	0.499
519.001	336.945	79.999	19.994	103.489	19.262	62.119	0.474
519.501	337.257	79.999	19.994	103.496	19.259	62.318	0.496
520.001	337.485	79.999	19.994	103.493	19.257	62.522	0.537
520.500	337.724	80.000	19.995	103.489	19.254	62.747	0.503
521.000	338.007	80.000	19.994	103.481	19.253	62.813	0.495
521.500	338.246	79.999	19.994	103.479	19.252	62.881	0.522
522.000	338.489	80.001	19.994	103.478	19.251	62.913	0.502
522.500	338.724	79.998	19.996	103.482	19.249	63.082	0.480
523.000	339.017	79.999	19.995	103.486	19.243	63.525	0.503
523.500	339.270	80.003	19.994	103.492	19.242	63.604	0.537
524.000	339.500	80.000	19.994	103.492	19.241	63.713	0.514
524.500	339.748	80.001	19.995	103.489	19.237	63.958	0.480
525.001	339.995	80.000	19.995	103.485	19.233	64.269	0.487
525.501	340.225	79.999	19.994	103.479	19.234	64.203	0.486
526.000	340.505	79.998	19.996	103.477	19.229	64.614	0.493
526.500	340.725	80.000	19.995	103.479	19.233	64.310	0.505
527.000	340.999	79.999	19.994	103.479	19.230	64.517	0.498
527.501	341.266	80.000	19.996	103.478	19.229	64.554	0.518
528.001	341.524	79.999	19.997	103.481	19.230	64.539	0.533
528.501	341.780	80.002	19.995	103.483	19.228	64.648	0.520
529.001	342.034	80.002	19.996	103.482	19.226	64.779	0.512
529.501	342.309	80.001	19.996	103.486	19.226	64.790	0.519
530.000	342.502	80.000	19.996	103.486	19.224	64.939	0.499
530.500	342.750	80.000	19.996	103.482	19.222	65.091	0.455
531.000	343.021	80.000	19.994	103.479	19.219	65.355	0.480
531.500	343.261	79.999	19.995	103.473	19.220	65.279	0.515
532.000	343.501	80.005	19.995	103.467	19.218	65.425	0.496
532.500	343.767	79.999	19.996	103.467	19.217	65.473	0.493
533.000	343.985	79.998	19.996	103.475	19.214	65.671	0.495
533.500	344.252	80.000	19.995	103.478	19.215	65.634	0.485
534.000	344.498	80.000	19.996	103.485	19.217	65.471	0.499
534.500	344.688	79.998	19.995	103.485	19.214	65.665	0.474
535.000	344.993	80.000	19.995	103.483	19.211	65.939	0.465
535.500	345.222	79.998	19.995	103.480	19.210	66.032	0.515
536.000	345.494	80.000	19.993	103.478	19.211	65.938	0.518
536.500	345.736	79.999	19.996	103.479	19.209	66.114	0.507
537.000	345.957	80.000	19.994	103.480	19.207	66.218	0.488
537.500	346.221	80.001	19.994	103.480	19.208	66.150	0.474
538.000	346.483	79.999	19.994	103.478	19.210	66.008	0.506
538.500	346.757	79.999	19.995	103.474	19.209	66.083	0.531
539.001	346.975	80.001	19.994	103.470	19.212	65.849	0.514
539.501	347.218	80.001	19.995	103.468	19.210	66.012	0.476
540.001	347.467	80.001	19.995	103.470	19.210	66.010	0.476
540.501	347.742	80.000	19.996	103.476	19.211	65.942	0.508
541.000	348.035	80.000	19.996	103.481	19.211	65.930	0.546
541.500	348.238	80.000	19.996	103.483	19.210	65.962	0.532
542.000	348.496	80.000	19.995	103.481	19.212	65.818	0.478
542.500	348.725	80.000	19.996	103.479	19.210	65.984	0.474
543.000	349.028	79.999	19.996	103.472	19.213	65.732	0.510
543.501	349.253	80.002	19.994	103.466	19.211	65.901	0.530
544.001	349.541	79.998	19.995	103.460	19.212	65.812	0.520
544.500	349.798	80.000	19.996	103.461	19.213	65.783	0.529
545.000	350.023	80.003	19.994	103.459	19.212	65.830	0.513
545.500	350.271	80.000	19.996	103.464	19.215	65.633	0.477
546.000	350.513	79.999	19.995	103.466	19.214	65.661	0.481
546.500	350.785	80.004	19.996	103.469	19.215	65.619	0.502
547.000	351.038	80.001	19.996	103.475	19.218	65.401	0.520
547.500	351.279	80.000	19.994	103.479	19.221	65.131	0.509
548.000	351.524	80.002	19.995	103.476	19.221	65.133	0.490
548.500	351.761	80.001	19.996	103.474	19.219	65.318	0.484
549.000	352.053	80.002	19.996	103.469	19.220	65.247	0.505
549.501	352.279	80.007	19.994	103.463	19.220	65.224	0.523
550.001	352.570	79.999	19.995	103.459	19.224	64.901	0.518
550.500	352.843	80.001	19.995	103.457	19.225	64.814	0.541
551.000	353.078	80.005	19.994	103.456	19.230	64.462	0.536
551.500	353.357	80.006	19.994	103.458	19.232	64.352	0.511
552.001	353.614	80.001	19.996	103.459	19.231	64.410	0.525
552.501	353.863	80.003	19.994	103.457	19.234	64.193	0.521
553.000	354.134	80.002	19.995	103.456	19.239	63.788	0.513
553.500	354.390	80.002	19.995	103.449	19.237	63.971	0.524
554.000	354.603	80.001	19.996	103.442	19.243	63.484	0.498
554.500	354.869	80.002	19.995	103.439	19.245	63.332	0.473
555.001	355.146	80.002	19.995	103.434	19.248	63.121	0.511
555.501	355.372	80.001	19.995	103.430	19.249	63.033	0.524
556.001	355.618	79.999	19.995	103.433	19.251	62.909	0.488
556.501	355.888	80.001	19.996	103.433	19.255	62.569	0.494
557.000	356.140	80.000	19.996	103.431	19.259	62.309	0.519
557.500	356.410	79.998	19.996	103.434	19.260	62.232	0.522
558.001	356.650	80.002	19.996	103.434	19.263	62.025	0.516
558.501	356.900	79.997	19.996	103.431	19.265	61.875	0.501
559.001	357.167	80.001	19.996	103.428	19.268	61.617	0.504
559.501	357.408	80.000	19.996	103.425	19.273	61.271	0.512
560.000	357.649	80.002	19.995	103.421	19.278	60.895	0.495
560.500	357.889	80.000	19.997	103.417	19.279	60.784	0.482
561.000	358.190	80.000	19.996	103.417	19.281	60.617	0.512
561.501	358.430	80.001	19.996	103.417	19.287	60.215	0.541
562.001	358.688	79.999	19.996	103.416	19.289	60.076	0.519
562.500	358.942	80.000	19.995	103.416	19.292	59.797	0.505
563.000	359.187	79.997	19.996	103.416	19.298	59.403	0.505
563.500	359.426	80.000	19.995	103.416	19.297	59.449	0.491
564.000	359.646	80.004	19.995	103.416	19.304	58.885	0.472
564.500	359.955	80.002	19.996	103.417	19.310	58.466	0.494
565.000	360.217	80.005	19.995	103.409	19.313	58.259	0.550
565.500	360.454	79.998	19.996	103.405	19.317	57.907	0.535
566.000	360.736	80.001	19.996	103.400	19.323	57.518	0.509
566.500	360.969	80.001	19.995	103.392	19.324	57.396	0.517
567.000	361.218	80.001	19.995	103.383	19.334	56.660	0.499
567.500	361.478	79.999	19.995	103.385	19.338	56.338	0.495
568.001	361.707	80.000	19.995	103.381	19.341	56.126	0.499
568.501	362.002	80.000	19.995	103.380	19.346	55.748	0.507
569.000	362.251	80.000	19.994	103.382	19.353	55.245	0.534
569.500	362.505	79.999	19.995	103.382	19.361	54.618	0.523
570.000	362.746	80.000	19.995	103.382	19.366	54.256	0.499
570.500	363.021	79.999	19.994	103.382	19.372	53.831	0.506
571.000	363.284	80.004	19.995	103.381	19.375	53.577	0.527
571.500	363.503	80.001	19.995	103.378	19.381	53.179	0.510
572.000	363.780	80.001	19.995	103.378	19.384	52.914	0.488
572.500	364.022	79.999	19.995	103.377	19.387	52.716	0.507
573.000	364.256	79.997	19.995	103.377	19.396	52.018	0.498
573.501	364.506	79.998	19.996	103.375	19.403	51.474	0.480
574.001	364.769	80.001	19.995	103.367	19.409	51.019	0.498
574.500	365.048	80.000	19.994	103.360	19.417	50.447	0.528
575.000	365.328	80.001	19.994	103.355	19.421	50.160	0.551
575.501	365.540	80.003	19.995	103.349	19.428	49.650	0.526
576.001	365.791	80.001	19.995	103.344	19.435	49.142	0.477
576.501	366.040	80.001	19.994	103.345	19.439	48.782	0.481
577.000	366.309	80.002	19.994	103.344	19.445	48.348	0.509
577.500	366.518	79.999	19.995	103.343	19.451	47.880	0.498
578.000	366.806	80.002	19.994	103.342	19.460	47.222	0.488
578.500	367.055	80.004	19.994	103.342	19.466	46.810	0.518
579.000	367.268	80.002	19.994	103.341	19.475	46.107	0.500
579.500	367.541	80.001	19.994	103.334	19.480	45.705	0.474
580.000	367.823	80.001	19.993	103.330	19.487	45.208	0.521
580.500	368.039	80.002	19.994	103.323	19.493	44.766	0.526
581.000	368.330	80.003	19.994	103.321	19.500	44.208	0.502
581.501	368.588	80.001	19.995	103.317	19.504	43.949	0.528
582.001	368.866	80.003	19.995	103.315	19.512	43.329	0.543
582.500	369.117	79.999	19.994	103.313	19.519	42.864	0.533
583.000	369.360	80.006	19.992	103.315	19.528	42.193	0.511
583.500	369.627	80.002	19.995	103.312	19.533	41.771	0.501
584.000	369.869	80.005	19.995	103.312	19.538	41.408	0.509
584.500	370.126	80.002	19.994	103.313	19.544	40.991	0.504
585.000	370.358	79.999	19.995	103.313	19.551	40.455	0.494
585.500	370.646	80.001	19.995	103.309	19.553	40.320	0.505
586.000	370.884	80.000	19.995	103.303	19.565	39.397	0.523
586.500	371.107	79.999	19.994	103.297	19.572	38.866	0.493
587.000	371.368	79.999	19.995	103.295	19.583	38.018	0.472
587.500	371.652	80.006	19.994	103.293	19.589	37.582	0.515
588.000	371.909	79.999	19.995	103.293	19.593	37.329	0.543
588.500	372.170	79.997	19.995	103.291	19.602	36.617	0.530
589.000	372.438	80.000	19.995	103.288	19.608	36.153	0.524
589.500	372.710	79.999	19.995	103.281	19.615	35.693	0.534
590.000	372.925	80.000	19.994	103.275	19.620	35.301	0.513
590.500	373.181	79.999	19.995	103.268	19.628	34.696	0.479
591.000	373.433	80.000	19.994	103.266	19.633	34.304	0.490
591.500	373.713	79.997	19.995	103.265	19.642	33.644	0.520
592.000	373.975	80.001	19.995	103.267	19.648	33.185	0.537
592.500	374.203	80.000	19.994	103.270	19.654	32.770	0.516
593.000	374.505	80.003	19.994	103.270	19.662	32.140	0.510
593.500	374.729	80.001	19.994	103.271	19.666	31.865	0.528
594.000	375.015	80.003	19.995	103.272	19.676	31.097	0.518
594.500	375.246	79.998	19.994	103.271	19.682	30.638	0.514
595.000	375.492	79.999	19.994	103.266	19.688	30.229	0.497
595.500	375.763	79.999	19.994	103.261	19.697	29.514	0.497
596.000	375.995	79.998	19.994	103.261	19.701	29.215	0.510
596.500	376.266	79.998	19.994	103.260	19.706	28.898	0.503
597.000	376.459	79.992	19.995	103.259	19.712	28.435	0.483
597.500	376.769	80.008	19.994	103.255	19.719	27.864	0.484
598.000	376.986	79.999	19.994	103.257	19.727	27.299	0.515
598.500	377.264	80.002	19.994	103.251	19.734	26.801	0.511
599.000	377.507	80.000	19.994	103.246	19.741	26.265	0.508
599.500	377.769	79.998	19.995	103.240	19.749	25.694	0.513
600.000	378.019	79.993	19.994	103.239	19.754	25.276	0.508
600.500	378.308	80.003	19.994	103.234	19.761	24.737	0.525
601.000	378.537	80.000	19.995	103.235	19.766	24.379	0.528
601.500	378.793	80.001	19.995	103.239	19.771	24.008	0.502
602.000	379.021	80.001	19.994	103.240	19.775	23.715	0.485
602.500	379.270	80.001	19.994	103.240	19.781	23.262	0.481
603.000	379.543	79.997	19.995	103.239	19.787	22.861	0.500
603.500	379.794	80.010	19.993	103.235	19.789	22.645	0.523
604.000	380.061	80.002	19.995	103.231	19.798	21.971	0.521
604.500	380.307	80.001	19.994	103.229	19.803	21.599	0.516
605.000	380.526	80.002	19.993	103.227	19.811	21.058	0.489
605.500	380.812	80.001	19.995	103.227	19.816	20.681	0.485
606.000	381.063	79.998	19.994	103.227	19.820	20.338	0.521
606.500	381.324	80.003	19.993	103.225	19.822	20.210	0.524
607.000	381.545	80.005	19.995	103.224	19.829	19.685	0.497
607.500	381.818	80.002	19.995	103.224	19.835	19.259	0.488
608.000	382.063	80.001	19.994	103.224	19.839	18.931	0.506
608.500	382.338	80.002	19.995	103.223	19.842	18.692	0.519
609.000	382.584	80.003	19.995	103.222	19.848	18.247	0.520
609.500	382.830	80.002	19.994	103.222	19.852	18.007	0.506
610.000	383.082	80.003	19.994	103.221	19.860	17.379	0.495
610.500	383.301	80.003	19.994	103.220	19.860	17.358	0.485
611.000	383.589	80.003	19.994	103.219	19.864	17.056	0.489
611.500	383.874	80.001	19.996	103.218	19.867	16.869	0.540
612.000	384.080	80.004	19.993	103.217	19.876	16.182	0.532
612.500	384.357	80.003	19.995	103.217	19.879	15.971	0.487
613.000	384.605	80.002	19.994	103.215	19.881	15.801	0.504
613.500	384.877	80.002	19.994	103.214	19.883	15.652	0.523
614.000	385.145	80.002	19.995	103.213	19.887	15.379	0.530
614.500	385.407	80.003	19.995	103.213	19.890	15.111	0.535
615.000	385.628	80.001	19.994	103.212	19.893	14.902	0.506
615.500	385.886	80.003	19.996	103.213	19.896	14.686	0.481
616.000	386.125	80.000	19.996	103.214	19.902	14.288	0.488
616.500	386.381	80.003	19.995	103.217	19.901	14.312	0.496
617.000	386.633	80.002	19.995	103.218	19.905	14.013	0.502
617.500	386.855	79.999	19.995	103.217	19.909	13.749	0.491
618.000	387.110	80.002	19.995	103.218	19.914	13.364	0.475
618.501	387.396	79.999	19.996	103.218	19.915	13.312	0.508
619.001	387.663	80.002	19.995	103.215	19.919	13.005	0.547
619.500	387.901	80.000	19.996	103.214	19.917	13.132	0.530
620.000	388.145	80.002	19.995	103.212	19.925	12.525	0.494
620.500	388.391	80.000	19.996	103.204	19.927	12.372	0.486
621.000	388.649	80.000	19.996	103.198	19.929	12.249	0.497
621.500	388.929	80.000	19.995	103.193	19.932	12.005	0.521
622.000	389.154	80.002	19.995	103.187	19.932	12.022	0.521
622.500	389.387	79.998	19.994	103.184	19.934	11.837	0.481
623.000	389.664	80.017	19.994	103.184	19.939	11.479	0.484
623.500	389.936	79.998	19.995	103.189	19.938	11.550	0.530
624.000	390.202	80.003	19.995	103.191	19.939	11.502	0.543
624.500	390.432	80.002	19.994	103.195	19.940	11.402	0.517
625.000	390.683	80.000	19.996	103.195	19.943	11.215	0.488
625.500	390.957	80.002	19.995	103.197	19.946	10.995	0.503
626.001	391.197	80.003	19.994	103.198	19.948	10.838	0.520
626.501	391.458	80.001	19.994	103.202	19.946	10.950	0.507
627.001	391.677	80.004	19.994	103.199	19.951	10.631	0.490
627.501	391.933	80.005	19.995	103.198	19.953	10.484	0.478
628.000	392.205	80.002	19.995	103.196	19.951	10.587	0.502
628.500	392.443	80.003	19.995	103.191	19.954	10.398	0.519
629.001	392.684	80.004	19.995	103.185	19.960	9.945	0.494
629.501	392.940	80.004	19.995	103.183	19.961	9.856	0.488
630.000	393.244	80.003	19.996	103.182	19.962	9.756	0.529
630.500	393.466	80.003	19.995	103.186	19.962	9.812	0.543
631.000	393.716	80.002	19.993	103.189	19.963	9.721	0.499
631.500	393.996	80.004	19.996	103.194	19.963	9.727	0.501
632.000	394.235	80.002	19.995	103.195	19.967	9.374	0.524
632.500	394.499	80.003	19.995	103.201	19.969	9.260	0.511
633.000	394.736	80.002	19.995	103.201	19.965	9.566	0.502
633.500	394.977	80.000	19.996	103.198	19.967	9.435	0.489
634.000	395.276	80.002	19.995	103.194	19.965	9.566	0.509
634.500	395.522	80.003	19.996	103.194	19.970	9.201	0.543
635.000	395.741	80.004	19.996	103.191	19.970	9.186	0.505
635.500	396.043	80.004	19.994	103.188	19.969	9.288	0.493
636.000	396.284	80.002	19.994	103.188	19.970	9.207	0.532
636.500	396.543	80.003	19.995	103.189	19.971	9.128	0.522
637.000	396.791	80.002	19.994	103.190	19.972	9.055	0.504
637.500	397.055	80.002	19.995	103.192	19.973	8.989	0.509
638.000	397.265	80.003	19.994	103.196	19.971	9.074	0.493
638.500	397.532	80.002	19.994	103.197	19.974	8.904	0.475
639.000	397.804	80.001	19.994	103.196	19.975	8.788	0.508
639.500	398.048	80.002	19.995	103.194	19.977	8.638	0.527
640.001	398.266	80.000	19.995	103.190	19.978	8.603	0.489
640.501	398.537	80.000	19.995	103.184	19.979	8.543	0.475
641.000	398.812	80.000	19.995	103.183	19.980	8.454	0.517
641.500	399.079	79.999	19.995	103.182	19.978	8.566	0.544
642.000	399.298	79.999	19.995	103.183	19.979	8.501	0.514
642.500	399.559	79.998	19.995	103.183	19.980	8.460	0.483
643.000	399.837	80.000	19.995	103.183	19.979	8.518	0.509
643.500	400.091	80.000	19.995	103.186	19.980	8.416	0.535
644.001	400.398	80.000	19.996	103.191	19.981	8.346	0.546
644.501	400.607	79.999	19.995	103.192	19.980	8.451	0.539
645.000	400.898	79.997	19.995	103.195	19.981	8.393	0.509
645.500	401.112	79.998	19.998	103.197	19.982	8.256	0.503
646.000	401.367	79.999	19.996	103.195	19.983	8.231	0.487
646.500	401.601	79.999	19.996	103.191	19.981	8.397	0.479
647.000	401.844	79.998	19.994	103.191	19.984	8.117	0.483
647.500	402.131	79.999	19.996	103.191	19.982	8.261	0.503
648.001	402.367	79.999	19.995	103.191	19.985	8.070	0.527
648.501	402.615	79.998	19.996	103.190	19.984	8.160	0.503
649.000	402.869	79.999	19.996	103.190	19.988	7.869	0.493
649.500	403.069	79.999	19.996	103.190	19.987	7.946	0.478
650.000	403.375	79.998	19.996	103.189	19.983	8.203	0.480
650.500	403.621	80.000	19.996	103.189	19.985	8.095	0.529
651.000	403.877	80.000	19.996	103.193	19.987	7.939	0.527
651.500	404.107	79.999	19.996	103.193	19.989	7.746	0.494
652.001	404.363	79.999	19.995	103.193	19.989	7.800	0.486
652.501	404.621	80.000	19.995	103.191	19.986	8.020	0.500
653.001	404.931	79.999	19.995	103.192	19.985	8.094	0.541
653.501	405.153	80.000	19.994	103.189	19.984	8.152	0.550
654.001	405.387	79.999	19.995	103.189	19.986	7.997	0.494
654.500	405.658	79.999	19.996	103.189	19.988	7.806	0.481
655.000	405.937	80.001	19.996	103.188	19.988	7.808	0.528
655.500	406.163	79.999	19.995	103.187	19.987	7.935	0.528
656.000	406.393	79.998	19.996	103.186	19.991	7.636	0.481
656.501	406.666	79.999	19.995	103.186	19.989	7.788	0.479
657.001	406.942	79.999	19.995	103.186	19.989	7.742	0.525
657.500	407.174	80.001	19.995	103.186	19.987	7.881	0.528
658.001	407.405	80.000	19.996	103.188	19.990	7.698	0.486
658.501	407.676	80.001	19.995	103.192	19.985	8.080	0.483
659.001	407.956	80.001	19.994	103.195	19.988	7.823	0.526
659.501	408.171	79.999	19.995	103.198	19.990	7.692	0.523
660.000	408.456	79.999	19.994	103.198	19.990	7.657	0.497
660.501	408.683	80.001	19.994	103.196	19.989	7.777	0.506
661.001	408.952	80.001	19.994	103.193	19.990	7.690	0.504
661.500	409.186	80.001	19.994	103.191	19.992	7.549	0.500
662.000	409.458	80.001	19.994	103.191	19.990	7.663	0.504
662.500	409.709	80.001	19.995	103.191	19.990	7.686	0.514
663.000	409.928	80.000	19.995	103.191	19.992	7.574	0.497
663.500	410.185	80.000	19.994	103.189	19.992	7.555	0.473
664.000	410.464	79.999	19.993	103.187	19.994	7.410	0.506
664.500	410.747	79.999	19.994	103.187	19.993	7.462	0.549
665.000	410.971	80.001	19.994	103.187	19.992	7.522	0.535
665.500	411.233	80.001	19.994	103.187	19.995	7.307	0.496
666.000	411.459	80.000	19.994	103.187	19.990	7.684	0.487
666.500	411.719	80.000	19.993	103.188	19.992	7.560	0.487
667.000	411.948	80.000	19.994	103.189	19.995	7.327	0.487
667.500	412.218	80.000	19.994	103.191	19.993	7.505	0.494
668.001	412.447	80.001	19.994	103.191	19.994	7.420	0.499
668.501	412.714	80.000	19.995	103.191	19.996	7.237	0.498
669.000	412.983	79.999	19.994	103.191	19.998	7.090	0.516
669.500	413.225	80.000	19.994	103.189	19.996	7.246	0.524
670.000	413.497	80.001	19.994	103.187	19.995	7.287	0.512
670.500	413.714	80.000	19.996	103.188	19.995	7.343	0.501
671.000	413.974	80.001	19.994	103.188	19.995	7.312	0.483
671.500	414.208	80.002	19.995	103.187	19.993	7.434	0.486
672.000	414.458	80.001	19.994	103.189	19.996	7.233	0.489
672.500	414.694	79.999	19.994	103.188	19.997	7.163	0.485
673.000	414.964	80.000	19.995	103.186	19.995	7.306	0.496
673.501	415.229	80.000	19.995	103.188	19.997	7.185	0.521
674.001	415.478	80.000	19.994	103.190	19.994	7.395	0.525
674.501	415.715	79.998	19.994	103.188	19.997	7.157	0.500
675.000	415.944	80.008	19.999	103.190	19.996	7.231	0.476
675.500	416.238	80.014	20.001	103.197	19.998	7.103	0.495
676.000	416.506	80.015	20.000	103.198	19.995	7.354	0.542
676.500	416.750	80.003	19.998	103.198	19.995	7.323	0.536
677.000	416.963	80.001	19.998	103.198	19.993	7.464	0.484
677.500	417.247	80.000	19.997	103.197	19.996	7.233	0.477
678.000	417.517	80.001	19.996	103.191	19.994	7.410	0.526
678.501	417.772	80.000	19.998	103.187	19.997	7.198	0.540
679.001	418.013	80.000	19.997	103.185	19.996	7.277	0.511
679.500	418.272	80.001	19.996	103.187	19.999	6.990	0.498
680.000	418.523	80.001	19.995	103.188	20.000	6.965	0.505
680.501	418.784	80.000	19.994	103.188	19.998	7.080	0.511
681.001	419.054	80.003	19.995	103.189	19.999	7.013	0.521
681.500	419.290	80.002	19.995	103.190	19.999	6.992	0.518
682.000	419.533	80.002	19.994	103.188	20.002	6.812	0.493
682.500	419.795	80.000	19.995	103.187	20.000	6.932	0.492
683.000	420.076	80.002	19.994	103.186	19.996	7.245	0.524
683.500	420.322	80.001	19.996	103.185	19.999	6.996	0.535
684.000	420.564	80.003	19.994	103.184	19.998	7.110	0.507
684.500	420.795	80.001	19.996	103.186	20.000	6.928	0.481
685.001	421.054	80.003	19.996	103.189	20.002	6.793	0.482
685.501	421.333	80.000	19.996	103.190	20.002	6.806	0.514
686.000	421.544	80.003	19.995	103.190	19.999	6.992	0.514
686.500	421.844	80.002	19.997	103.189	19.998	7.063	0.501
687.000	422.120	80.000	19.994	103.190	20.001	6.876	0.544
687.500	422.347	80.002	19.995	103.189	20.002	6.794	0.539
688.000	422.539	80.000	19.996	103.188	20.002	6.823	0.461
688.500	422.849	80.002	19.995	103.188	20.001	6.845	0.460
689.001	423.112	80.001	19.996	103.188	20.003	6.758	0.537
689.501	423.331	80.002	19.994	103.186	20.002	6.804	0.528
690.000	423.558	80.002	19.996	103.185	20.004	6.644	0.464
690.500	423.814	80.004	19.994	103.185	20.001	6.889	0.464
691.000	424.070	80.002	19.996	103.185	20.003	6.758	0.498
691.500	424.328	80.002	19.994	103.185	20.004	6.661	0.513
692.000	424.565	80.001	19.994	103.184	20.002	6.764	0.504
692.500	424.836	80.004	19.994	103.184	20.001	6.897	0.502
693.000	425.085	80.002	19.994	103.184	20.004	6.619	0.514
693.501	425.379	80.004	19.996	103.182	20.005	6.577	0.532
694.001	425.630	80.001	19.994	103.182	20.002	6.812	0.545
694.501	425.855	80.004	19.996	103.182	20.005	6.577	0.511
695.001	426.149	80.002	19.996	103.182	20.004	6.671	0.497
695.501	426.397	80.001	19.994	103.182	20.004	6.631	0.530
696.000	426.638	80.001	19.995	103.183	20.005	6.607	0.515
696.501	426.909	80.001	19.994	103.184	20.007	6.439	0.501
697.001	427.137	80.003	19.994	103.184	20.005	6.557	0.505
697.500	427.400	80.003	19.995	103.184	20.007	6.451	0.494
698.000	427.628	80.003	19.994	103.186	20.007	6.420	0.491
698.500	427.931	80.002	19.995	103.189	20.004	6.632	0.512
699.000	428.160	80.002	19.993	103.189	20.003	6.706	0.532
699.500	428.434	80.000	19.995	103.189	20.003	6.756	0.518
700.000	428.671	80.002	19.995	103.190	20.007	6.428	0.507
700.500	428.955	80.003	19.994	103.188	20.003	6.712	0.516
701.000	429.199	80.002	19.994	103.185	20.008	6.368	0.524
701.500	429.457	79.999	19.995	103.185	20.008	6.362	0.515
702.001	429.716	80.002	19.995	103.187	20.004	6.615	0.509
702.501	429.973	80.002	19.994	103.188	20.005	6.594	0.517
703.000	430.198	80.001	19.995	103.188	20.007	6.420	0.499
703.500	430.435	80.001	19.994	103.188	20.007	6.414	0.472
704.000	430.720	80.001	19.993	103.188	20.008	6.370	0.492
704.500	430.987	80.001	19.995	103.186	20.006	6.484	0.537
705.000	431.225	80.001	19.994	103.186	20.008	6.389	0.528
705.500	431.502	80.000	19.996	103.186	20.009	6.308	0.510
706.000	431.750	80.001	19.993	103.186	20.007	6.395	0.520
706.500	432.005	80.001	19.995	103.186	20.010	6.225	0.514
707.000	432.264	80.002	19.995	103.187	20.007	6.399	0.509
707.501	432.509	80.001	19.996	103.190	20.010	6.217	0.509
708.001	432.786	80.001	19.995	103.190	20.012	6.086	0.513
708.500	433.035	80.001	19.995	103.190	20.015	5.847	0.523
709.000	433.322	80.002	19.996	103.189	20.013	6.009	0.531
709.500	433.559	80.002	19.995	103.188	20.014	5.891	0.530
710.000	433.820	80.003	19.995	103.185	20.016	5.733	0.511
710.500	434.094	80.001	19.995	103.186	20.014	5.914	0.516
711.000	434.334	80.001	19.997	103.184	20.014	5.916	0.525
711.500	434.625	80.002	19.996	103.184	20.011	6.136	0.523
712.000	434.849	80.003	19.995	103.184	20.012	6.028	0.523
712.500	435.124	80.003	19.996	103.184	20.015	5.806	0.507
713.000	435.376	80.001	19.995	103.183	20.017	5.664	0.513
713.500	435.605	80.002	19.994	103.185	20.014	5.903	0.504
714.000	435.897	80.001	19.997	103.185	20.013	5.949	0.501
714.501	436.132	80.005	19.994	103.185	20.015	5.851	0.524
715.001	436.375	80.000	19.996	103.185	20.017	5.667	0.502
715.501	436.653	80.002	19.996	103.185	20.017	5.706	0.500
716.001	436.900	79.999	19.998	103.185	20.019	5.530	0.523
716.500	437.129	80.002	19.997	103.184	20.017	5.650	0.500
717.000	437.414	80.002	19.995	103.184	20.018	5.634	0.495
717.500	437.673	80.004	19.995	103.184	20.018	5.617	0.529
718.000	437.933	80.003	19.995	103.186	20.015	5.800	0.531
718.500	438.215	80.001	19.995	103.189	20.020	5.459	0.531
719.000	438.446	80.003	19.995	103.190	20.017	5.712	0.528
719.500	438.745	80.003	19.995	103.191	20.016	5.725	0.521
720.000	438.970	80.001	19.995	103.191	20.016	5.752	0.527
720.500	439.213	80.002	19.996	103.189	20.015	5.837	0.496
721.000	439.488	80.000	19.998	103.186	20.016	5.760	0.493
721.500	439.723	80.002	19.996	103.188	20.016	5.760	0.514
722.001	439.986	79.999	19.995	103.189	20.017	5.677	0.505
722.501	440.255	80.002	19.994	103.189	20.015	5.847	0.515
723.000	440.541	79.999	19.997	103.188	20.014	5.938	0.543
723.500	440.773	79.999	19.996	103.188	20.016	5.752	0.536
724.000	441.022	80.002	19.995	103.185	20.018	5.637	0.499
724.500	441.315	79.999	19.996	103.185	20.014	5.888	0.512
725.000	441.527	80.002	19.995	103.186	20.012	6.019	0.523
725.501	441.797	79.999	19.996	103.186	20.016	5.776	0.493
726.001	442.058	79.999	19.998	103.187	20.018	5.571	0.507
726.500	442.303	79.999	19.996	103.187	20.016	5.778	0.518
727.000	442.588	80.001	19.995	103.188	20.016	5.755	0.518
727.500	442.813	80.000	19.995	103.188	20.016	5.743	0.520
728.000	443.080	79.999	19.995	103.188	20.015	5.801	0.501
728.501	443.327	79.998	19.994	103.187	20.016	5.768	0.503
729.001	443.605	79.999	19.994	103.188	20.016	5.751	0.520
729.500	443.881	80.000	19.997	103.188	20.021	5.420	0.540
730.000	444.104	80.002	19.996	103.188	20.022	5.330	0.526
730.501	444.381	79.999	19.996	103.189	20.018	5.586	0.499
731.001	444.620	80.001	19.995	103.190	20.019	5.496	0.508
731.500	444.886	80.001	19.997	103.189	20.020	5.494	0.510
732.000	445.126	80.000	19.996	103.188	20.018	5.583	0.505
732.500	445.385	80.000	19.994	103.188	20.022	5.334	0.502
733.000	445.625	80.000	19.995	103.187	20.018	5.621	0.499
733.500	445.888	79.999	19.995	103.187	20.020	5.432	0.501
734.000	446.129	80.000	19.995	103.186	20.021	5.388	0.504
734.500	446.414	79.999	19.996	103.183	20.017	5.664	0.516
735.000	446.671	80.001	19.995	103.183	20.019	5.504	0.534
735.500	446.918	80.000	19.996	103.183	20.020	5.444	0.523
736.000	447.147	79.998	19.997	103.182	20.019	5.554	0.490
736.500	447.418	80.000	19.997	103.184	20.021	5.409	0.488
737.001	447.692	79.999	19.995	103.186	20.021	5.347	0.523
737.501	447.912	80.002	19.995	103.183	20.020	5.455	0.520
738.000	448.165	80.001	19.995	103.180	20.021	5.370	0.483
738.500	448.405	80.000	19.995	103.179	20.026	5.046	0.483
739.000	448.675	80.003	19.997	103.179	20.024	5.141	0.501
739.500	448.926	80.000	19.996	103.179	20.025	5.102	0.515
740.000	449.193	80.000	19.998	103.182	20.025	5.079	0.520
740.500	449.458	80.001	19.999	103.182	20.027	4.944	0.525
741.000	449.687	80.002	19.995	103.183	20.023	5.204	0.512
741.500	449.943	79.999	19.996	103.183	20.023	5.229	0.489
742.000	450.238	80.002	19.996	103.183	20.023	5.258	0.518
742.500	450.460	80.001	19.997	103.183	20.022	5.276	0.534
743.000	450.746	80.002	19.995	103.182	20.025	5.092	0.513
743.500	451.009	80.000	19.995	103.183	20.025	5.114	0.529
744.000	451.299	80.001	19.995	103.183	20.023	5.216	0.551
744.500	451.533	79.999	19.994	103.183	20.022	5.318	0.538
745.000	451.794	80.000	19.996	103.179	20.023	5.216	0.510
745.500	452.066	80.000	19.995	103.178	20.027	4.922	0.514
746.000	452.308	80.002	19.995	103.178	20.024	5.123	0.523
746.500	452.579	80.002	19.995	103.177	20.025	5.090	0.514
747.000	452.826	79.999	19.997	103.177	20.025	5.048	0.516
747.501	453.062	80.000	19.996	103.181	20.027	4.949	0.501
748.001	453.337	80.000	19.995	103.183	20.025	5.117	0.497
748.500	453.594	80.002	19.997	103.183	20.026	5.034	0.521
749.000	453.840	80.001	19.995	103.182	20.026	4.976	0.517
749.500	454.076	80.000	19.996	103.183	20.024	5.160	0.492
750.001	454.358	80.003	19.995	103.182	20.024	5.125	0.500
750.501	454.604	79.999	19.995	103.182	20.025	5.119	0.523
751.000	454.886	80.002	19.994	103.182	20.025	5.065	0.528
751.500	455.134	80.001	19.996	103.183	20.024	5.152	0.529
752.000	455.423	80.000	19.995	103.183	20.025	5.090	0.534
752.500	455.672	80.001	19.995	103.181	20.026	5.000	0.538
753.001	455.926	80.000	19.995	103.182	20.029	4.760	0.521
753.501	456.204	80.000	19.995	103.181	20.026	4.980	0.518
754.000	456.439	80.000	19.996	103.180	20.028	4.888	0.523
754.500	456.688	80.000	19.995	103.179	20.027	4.909	0.499
755.000	456.970	80.000	19.995	103.182	20.027	4.915	0.508
755.500	457.216	80.001	19.994	103.182	20.026	5.021	0.530
756.000	457.482	80.001	19.993	103.182	20.028	4.828	0.520
756.500	457.704	80.000	19.995	103.183	20.029	4.795	0.500
757.000	457.977	80.000	19.995	103.184	20.029	4.751	0.491
757.500	458.211	80.001	19.994	103.184	20.030	4.679	0.501
758.000	458.473	80.000	19.996	103.184	20.030	4.729	0.502
758.500	458.745	80.001	19.995	103.184	20.032	4.585	0.515
759.000	458.998	80.000	19.994	103.184	20.031	4.660	0.529
759.501	459.268	80.000	19.995	103.184	20.033	4.461	0.524
760.001	459.538	80.000	19.996	103.184	20.032	4.557	0.532
760.500	459.774	80.001	19.995	103.184	20.031	4.635	0.523
761.000	460.064	80.000	19.995	103.184	20.032	4.542	0.516
761.500	460.269	79.999	19.995	103.185	20.033	4.494	0.510
762.000	460.517	80.000	19.995	103.184	20.038	4.106	0.474
762.500	460.802	79.999	19.994	103.184	20.035	4.347	0.494
763.000	461.063	80.000	19.996	103.184	20.038	4.112	0.539
763.500	461.295	79.999	19.997	103.184	20.035	4.310	0.519
764.000	461.530	80.002	19.994	103.184	20.036	4.285	0.480
764.500	461.799	80.000	19.994	103.184	20.035	4.370	0.486
765.000	462.024	80.000	19.996	103.184	20.038	4.106	0.499
765.500	462.310	80.000	19.992	103.183	20.036	4.264	0.503
766.000	462.539	79.999	19.991	103.183	20.035	4.366	0.513
766.500	462.807	80.001	19.995	103.182	20.033	4.463	0.506
767.000	463.046	80.000	19.998	103.182	20.034	4.420	0.502
767.500	463.282	80.002	19.994	103.181	20.032	4.550	0.491
768.000	463.570	80.001	19.995	103.182	20.035	4.368	0.499
768.500	463.833	80.002	19.995	103.182	20.032	4.575	0.538
769.000	464.085	80.002	19.995	103.183	20.034	4.432	0.533
769.501	464.320	80.000	19.996	103.183	20.038	4.131	0.501
770.001	464.595	79.999	19.995	103.185	20.036	4.237	0.498
770.500	464.818	80.002	19.996	103.186	20.035	4.357	0.504
771.000	465.105	80.001	19.994	103.187	20.036	4.299	0.504
771.501	465.329	80.003	19.996	103.187	20.035	4.330	0.510
772.001	465.668	80.001	19.995	103.188	20.036	4.258	0.537
772.500	465.870	80.003	19.994	103.187	20.036	4.299	0.552
773.001	466.114	80.001	19.994	103.186	20.033	4.473	0.494
773.501	466.398	80.001	19.996	103.185	20.035	4.330	0.487
774.000	466.659	80.002	19.996	103.186	20.037	4.164	0.536
774.500	466.908	80.000	19.996	103.189	20.038	4.152	0.528
775.001	467.213	80.003	19.993	103.190	20.037	4.154	0.532
775.501	467.443	80.000	19.997	103.191	20.034	4.380	0.545
776.001	467.721	80.003	19.994	103.191	20.034	4.422	0.521
776.500	467.950	80.002	19.996	103.193	20.034	4.391	0.507
777.000	468.213	80.001	19.995	103.190	20.037	4.193	0.499
777.501	468.421	80.002	19.994	103.190	20.031	4.617	0.482
778.001	468.680	80.000	19.996	103.188	20.036	4.258	0.469
778.500	468.950	80.003	19.993	103.185	20.035	4.357	0.498
779.000	469.191	80.001	19.996	103.181	20.035	4.328	0.520
779.500	469.470	80.002	19.994	103.181	20.035	4.340	0.516
780.000	469.714	80.000	19.993	103.182	20.037	4.218	0.521
780.500	469.969	80.003	19.991	103.181	20.036	4.236	0.511
781.001	470.225	79.999	19.995	103.184	20.038	4.120	0.505
781.501	470.450	80.000	19.995	103.186	20.039	4.017	0.496
782.000	470.736	80.003	19.996	103.187	20.036	4.264	0.496
782.500	470.987	80.002	19.995	103.186	20.038	4.137	0.524
783.000	471.247	80.001	19.996	103.183	20.036	4.245	0.525
783.500	471.463	80.001	19.994	103.179	20.036	4.231	0.494
784.000	471.763	80.003	19.993	103.179	20.039	4.069	0.495
784.500	471.986	80.001	19.992	103.179	20.036	4.301	0.519
785.000	472.209	79.999	19.998	103.179	20.035	4.305	0.484
785.500	472.495	80.003	19.992	103.182	20.035	4.345	0.477
786.000	472.766	80.000	19.995	103.187	20.041	3.899	0.534
786.500	473.031	79.999	19.995	103.186	20.038	4.123	0.547
787.000	473.292	80.001	19.995	103.186	20.038	4.102	0.531
787.500	473.563	80.003	19.993	103.186	20.038	4.081	0.529
788.001	473.803	80.003	19.994	103.187	20.038	4.146	0.521
788.501	474.050	80.000	19.997	103.187	20.041	3.911	0.499
789.000	474.331	80.002	19.994	103.183	20.037	4.160	0.508
789.500	474.567	80.003	19.993	103.183	20.037	4.162	0.522
790.001	474.846	80.001	19.996	103.180	20.038	4.102	0.516
790.501	475.073	79.998	19.995	103.172	20.037	4.212	0.511
791.000	475.347	80.004	19.994	103.169	20.037	4.195	0.504
791.500	475.617	80.001	19.994	103.173	20.037	4.220	0.523
792.000	475.863	80.002	19.995	103.172	20.032	4.554	0.530
792.501	476.105	80.002	19.994	103.174	20.036	4.258	0.502
793.001	476.361	80.002	19.994	103.181	20.033	4.473	0.492
793.501	476.583	80.003	19.993	103.185	20.035	4.372	0.488
794.001	476.872	80.002	19.995	103.181	20.037	4.191	0.495
794.500	477.135	80.002	19.995	103.181	20.035	4.324	0.531
795.000	477.382	80.001	19.994	103.182	20.037	4.220	0.530
795.500	477.643	80.004	19.994	103.182	20.040	3.981	0.509
796.000	477.889	80.004	19.993	103.182	20.041	3.890	0.508
796.500	478.151	80.004	19.993	103.186	20.038	4.128	0.508
797.000	478.376	80.003	19.994	103.186	20.039	4.058	0.497
797.500	478.662	80.003	19.994	103.186	20.037	4.226	0.499
798.000	478.955	80.005	19.995	103.186	20.038	4.089	0.545
798.500	479.188	80.002	19.992	103.185	20.039	4.060	0.552
799.000	479.415	80.007	19.991	103.185	20.039	4.019	0.492
799.500	479.665	80.006	19.994	103.186	20.043	3.728	0.468
800.000	479.920	80.002	19.996	103.185	20.040	3.992	0.491
800.500	480.196	80.001	19.997	103.184	20.041	3.867	0.518
801.000	480.428	80.004	19.995	103.184	20.040	3.973	0.520
801.500	480.683	80.001	19.996	103.183	20.039	4.025	0.498
802.001	480.942	80.002	19.997	103.183	20.046	3.512	0.500
802.501	481.216	80.001	19.995	103.183	20.043	3.745	0.523
803.000	481.453	80.001	19.999	103.184	20.041	3.877	0.522
803.500	481.697	79.998	19.998	103.182	20.041	3.907	0.496
804.001	481.951	80.002	19.995	103.181	20.039	4.023	0.489
804.501	482.183	79.999	19.996	103.181	20.042	3.830	0.492
805.000	482.434	80.001	19.997	103.178	20.040	3.992	0.485
805.500	482.679	80.002	19.995	103.174	20.044	3.666	0.489
806.000	482.890	80.001	19.997	103.170	20.040	3.948	0.476
806.500	483.190	79.998	19.998	103.169	20.039	4.010	0.484
807.000	483.449	80.003	19.997	103.168	20.041	3.878	0.536
807.500	483.674	80.002	19.995	103.170	20.045	3.587	0.522
808.000	483.973	80.002	19.996	103.172	20.038	4.110	0.504
808.500	484.209	80.001	19.996	103.176	20.043	3.733	0.529
809.000	484.449	80.002	19.995	103.178	20.044	3.695	0.505
809.500	484.696	80.000	19.997	103.179	20.041	3.926	0.482
810.001	484.968	80.004	19.994	103.179	20.044	3.689	0.503
810.501	485.219	80.000	19.997	103.181	20.044	3.685	0.521
811.000	485.470	80.007	19.991	103.182	20.042	3.794	0.512
811.500	485.711	80.001	19.993	103.181	20.045	3.622	0.497
812.000	485.957	80.000	19.995	103.179	20.047	3.435	0.490
812.500	486.227	80.000	19.998	103.180	20.046	3.516	0.502
813.000	486.462	80.003	19.994	103.175	20.042	3.830	0.510
813.500	486.731	80.002	19.995	103.172	20.044	3.670	0.504
814.000	486.965	80.005	19.993	103.171	20.041	3.894	0.503
814.500	487.216	80.002	19.995	103.174	20.042	3.814	0.494
815.000	487.484	80.003	19.990	103.173	20.038	4.102	0.502
815.500	487.753	80.003	19.993	103.174	20.042	3.842	0.528
816.000	488.025	79.997	20.004	103.176	20.045	3.608	0.539
816.500	488.228	79.996	20.005	103.176	20.041	3.888	0.508
817.000	488.491	79.998	19.993	103.175	20.045	3.595	0.470
817.500	488.752	80.007	19.990	103.176	20.043	3.726	0.495
818.000	488.983	80.000	19.997	103.179	20.041	3.890	0.508
818.500	489.216	80.001	19.998	103.180	20.045	3.618	0.478
819.000	489.474	80.001	19.996	103.182	20.044	3.635	0.477
819.500	489.750	80.002	19.994	103.183	20.046	3.527	0.513
820.000	490.009	80.000	19.998	103.183	20.046	3.537	0.535
820.500	490.258	80.002	19.995	103.182	20.044	3.656	0.522
821.000	490.522	80.000	19.997	103.177	20.046	3.496	0.511
821.500	490.746	80.003	19.995	103.172	20.045	3.598	0.500
822.000	491.018	79.999	19.993	103.165	20.047	3.457	0.492
822.500	491.263	80.002	19.994	103.162	20.043	3.743	0.507
823.000	491.533	80.000	19.995	103.158	20.044	3.664	0.516
823.500	491.768	79.998	19.996	103.162	20.045	3.629	0.510
824.000	492.041	80.001	19.996	103.166	20.045	3.617	0.507
824.500	492.293	80.001	19.993	103.174	20.047	3.482	0.517
825.000	492.538	79.999	19.995	103.177	20.043	3.718	0.511
825.500	492.803	80.001	19.995	103.182	20.047	3.444	0.503
826.000	493.048	80.004	19.994	103.182	20.046	3.533	0.510
826.500	493.292	80.001	19.997	103.179	20.048	3.347	0.500
827.000	493.523	79.999	19.995	103.178	20.048	3.355	0.482
827.500	493.792	79.999	19.997	103.177	20.047	3.448	0.488
828.000	494.035	79.999	19.996	103.174	20.045	3.608	0.506
828.500	494.282	80.000	19.996	103.172	20.049	3.287	0.501
829.000	494.533	80.000	19.996	103.173	20.045	3.575	0.494
829.500	494.810	80.000	19.995	103.172	20.046	3.519	0.513
830.000	495.034	79.999	19.996	103.172	20.049	3.301	0.514
830.500	495.338	80.000	19.992	103.174	20.047	3.436	0.514
831.000	495.576	80.006	19.994	103.176	20.048	3.359	0.535
831.500	495.804	80.001	19.997	103.179	20.052	3.067	0.504
832.001	496.071	79.994	19.996	103.180	20.049	3.309	0.480
832.501	496.343	80.000	19.995	103.182	20.051	3.110	0.517
833.000	496.618	80.001	19.995	103.184	20.046	3.529	0.544
833.500	496.852	79.998	19.995	103.183	20.049	3.270	0.528
834.000	497.134	79.999	19.994	103.183	20.048	3.376	0.512
834.500	497.371	80.000	19.996	103.183	20.049	3.318	0.517
835.000	497.627	80.001	19.994	103.184	20.047	3.457	0.506
835.500	497.884	79.998	19.996	103.183	20.048	3.336	0.503
836.000	498.116	79.999	19.998	103.183	20.049	3.332	0.501
836.500	498.382	80.000	19.997	103.183	20.050	3.206	0.494
837.000	498.644	79.998	19.997	103.182	20.046	3.500	0.513
837.500	498.890	80.000	19.995	103.183	20.046	3.504	0.518
838.000	499.115	80.004	19.993	103.184	20.047	3.463	0.489
838.500	499.385	80.002	19.997	103.185	20.049	3.291	0.482
839.000	499.620	80.002	19.996	103.186	20.045	3.559	0.500
839.500	499.875	80.000	19.996	103.186	20.048	3.351	0.498
840.000	500.170	80.000	19.995	103.186	20.049	3.276	0.520
840.500	500.407	79.998	19.998	103.186	20.049	3.311	0.541
841.000	500.670	80.001	19.997	103.186	20.050	3.226	0.516
841.500	500.942	80.001	19.996	103.186	20.050	3.199	0.517
842.000	501.161	79.999	19.997	103.186	20.052	3.035	0.512
842.501	501.408	80.001	19.997	103.186	20.051	3.116	0.478
843.001	501.678	79.999	19.996	103.185	20.051	3.119	0.492
843.501	501.922	80.000	19.995	103.185	20.050	3.235	0.516
844.001	502.185	80.000	19.995	103.184	20.052	3.060	0.510
844.501	502.455	80.001	19.996	103.183	20.048	3.341	0.520
845.000	502.702	80.001	19.995	103.183	20.049	3.291	0.525
845.500	502.972	80.002	19.996	103.184	20.047	3.423	0.517
846.000	503.188	80.002	19.995	103.183	20.051	3.156	0.501
846.500	503.506	80.002	19.993	103.181	20.047	3.446	0.510
847.000	503.720	80.003	19.994	103.179	20.051	3.124	0.533
847.500	504.025	80.001	19.993	103.179	20.052	3.093	0.526
848.000	504.238	80.002	19.995	103.180	20.048	3.363	0.519
848.501	504.496	80.002	19.992	103.181	20.052	3.075	0.495
849.001	504.750	80.000	19.992	103.185	20.053	3.015	0.491
849.500	505.007	80.000	19.996	103.188	20.050	3.233	0.511
850.000	505.263	79.998	19.995	103.188	20.050	3.185	0.512
850.500	505.531	80.002	19.994	103.187	20.051	3.127	0.519
851.000	505.775	80.002	19.995	103.185	20.051	3.121	0.518
851.500	506.059	80.002	19.991	103.180	20.052	3.079	0.520
852.000	506.268	80.003	19.994	103.178	20.052	3.046	0.510
852.500	506.524	80.001	19.993	103.178	20.053	3.014	0.479
853.000	506.776	80.003	19.992	103.178	20.051	3.153	0.486
853.500	507.074	80.003	19.993	103.179	20.053	3.031	0.529
854.000	507.326	80.004	19.993	103.183	20.050	3.211	0.550
854.500	507.574	80.003	19.995	103.184	20.054	2.942	0.525
855.000	507.815	80.000	19.993	103.182	20.053	3.014	0.495
855.500	508.087	80.003	19.995	103.183	20.051	3.181	0.501
856.001	508.365	79.998	19.999	103.183	20.053	2.973	0.531
856.501	508.577	80.002	19.993	103.180	20.052	3.069	0.520
857.000	508.876	80.000	19.993	103.180	20.054	2.923	0.501
857.500	509.117	80.002	19.993	103.176	20.054	2.921	0.526
858.000	509.390	80.003	19.994	103.174	20.052	3.070	0.527
858.500	509.669	80.003	19.994	103.173	20.052	3.089	0.533
859.000	509.876	80.003	19.994	103.176	20.051	3.166	0.519
859.500	510.150	80.003	19.994	103.176	20.053	3.014	0.483
860.000	510.378	80.002	19.993	103.180	20.053	3.023	0.491
860.500	510.650	80.004	19.993	103.181	20.055	2.847	0.501
861.001	510.935	80.003	19.995	103.183	20.049	3.284	0.528
861.501	511.176	79.999	19.996	103.182	20.050	3.215	0.541
862.001	511.417	80.001	19.996	103.181	20.054	2.939	0.504
862.500	511.684	80.002	19.996	103.176	20.051	3.118	0.495
863.000	511.928	80.001	19.994	103.174	20.050	3.192	0.510
863.500	512.209	80.002	19.994	103.173	20.050	3.238	0.518
864.000	512.443	80.000	19.993	103.167	20.051	3.128	0.520
864.500	512.714	80.004	19.993	103.163	20.051	3.159	0.510
865.001	512.954	80.000	19.997	103.170	20.053	3.010	0.508
865.501	513.240	80.000	19.994	103.171	20.054	2.942	0.519
866.000	513.470	80.001	19.996	103.172	20.050	3.201	0.522
866.500	513.761	80.001	19.995	103.179	20.049	3.278	0.519
867.001	514.010	80.002	19.994	103.181	20.052	3.079	0.530
867.501	514.264	80.002	19.995	103.176	20.051	3.170	0.521
868.000	514.520	80.004	19.994	103.176	20.049	3.305	0.506
868.500	514.805	80.002	19.994	103.175	20.052	3.058	0.526
869.001	515.095	80.002	19.995	103.171	20.050	3.234	0.558
869.501	515.313	79.999	19.995	103.174	20.050	3.191	0.541
870.001	515.589	79.998	19.996	103.176	20.048	3.348	0.501
870.501	515.848	80.002	19.994	103.172	20.050	3.247	0.515
871.000	516.125	80.002	19.995	103.173	20.048	3.367	0.535
871.500	516.402	80.002	19.996	103.177	20.049	3.328	0.545
872.000	516.678	80.003	19.995	103.171	20.054	2.958	0.554
872.501	516.905	80.003	19.994	103.165	20.052	3.083	0.528
873.001	517.180	80.003	19.995	103.162	20.053	2.967	0.503
873.500	517.431	80.004	19.994	103.158	20.053	3.016	0.514
874.000	517.698	80.003	19.993	103.150	20.052	3.041	0.522
874.500	517.923	80.004	19.993	103.150	20.050	3.257	0.505
875.000	518.225	80.003	19.993	103.150	20.050	3.255	0.509
875.500	518.495	80.004	19.995	103.154	20.052	3.060	0.549
876.000	518.734	80.004	19.994	103.156	20.054	2.950	0.541
876.500	518.999	80.003	19.994	103.162	20.052	3.074	0.507
877.000	519.249	80.005	19.993	103.166	20.053	3.008	0.509
877.500	519.468	80.004	19.994	103.171	20.051	3.181	0.492
878.000	519.771	80.004	19.994	103.174	20.051	3.129	0.495
878.500	520.002	80.004	19.994	103.171	20.051	3.126	0.528
879.000	520.313	80.004	19.993	103.168	20.050	3.211	0.538
879.500	520.557	80.003	19.995	103.165	20.052	3.066	0.549
880.000	520.824	80.003	19.994	103.166	20.054	2.887	0.533
880.500	521.088	80.004	19.994	103.166	20.053	3.016	0.521
881.000	521.349	80.004	19.994	103.170	20.053	2.962	0.528
881.500	521.598	80.002	19.994	103.171	20.053	2.981	0.518
882.001	521.848	80.006	19.994	103.170	20.054	2.935	0.504
882.501	522.108	80.004	19.994	103.167	20.054	2.937	0.504
883.000	522.385	80.004	19.993	103.165	20.054	2.908	0.523
883.500	522.638	80.004	19.994	103.165	20.054	2.929	0.534
884.000	522.877	80.003	19.996	103.166	20.055	2.819	0.511
884.500	523.175	80.002	19.993	103.169	20.055	2.873	0.514
885.000	523.429	80.002	19.995	103.172	20.057	2.705	0.545
885.500	523.679	80.006	19.994	103.168	20.058	2.612	0.528
886.000	523.950	80.006	19.994	103.163	20.057	2.686	0.512
886.500	524.205	80.003	19.996	103.164	20.056	2.748	0.524
887.000	524.496	80.005	19.994	103.164	20.054	2.912	0.536
887.500	524.767	80.002	19.991	103.167	20.055	2.862	0.554
888.000	525.028	80.000	19.997	103.172	20.056	2.742	0.547
888.500	525.252	80.000	19.996	103.175	20.054	2.939	0.509
889.000	525.534	80.002	19.997	103.171	20.054	2.956	0.496
889.500	525.805	80.000	19.997	103.167	20.056	2.779	0.529
890.001	526.079	80.004	19.994	103.163	20.053	2.989	0.549
890.501	526.299	80.001	19.997	103.157	20.056	2.755	0.519
891.000	526.548	80.001	19.999	103.154	20.057	2.663	0.481
891.500	526.839	80.000	19.999	103.154	20.055	2.846	0.505
892.000	527.049	80.003	19.996	103.151	20.057	2.668	0.521
892.500	527.362	80.002	19.993	103.147	20.054	2.943	0.512
893.000	527.573	80.001	19.995	103.148	20.055	2.829	0.523
893.500	527.845	80.003	19.993	103.154	20.056	2.755	0.503
894.000	528.163	80.005	19.994	103.156	20.055	2.834	0.536
894.500	528.352	80.000	19.996	103.161	20.055	2.844	0.549
895.000	528.689	80.002	19.992	103.161	20.055	2.817	0.517
895.500	528.891	80.002	19.991	103.161	20.055	2.880	0.533
896.000	529.156	80.002	19.998	103.158	20.058	2.633	0.503
896.500	529.438	80.001	19.993	103.155	20.058	2.639	0.507
897.000	529.665	80.002	19.996	103.153	20.058	2.628	0.528
897.500	529.955	80.004	19.998	103.154	20.057	2.730	0.513
898.000	530.212	80.000	19.990	103.151	20.056	2.744	0.532
898.500	530.475	80.004	19.993	103.149	20.059	2.587	0.533
899.000	530.726	80.000	19.995	103.149	20.057	2.705	0.517
899.500	531.036	80.001	19.996	103.148	20.055	2.834	0.538
900.000	531.262	79.999	19.998	103.149	20.060	2.442	0.549
900.500	531.570	80.000	19.998	103.151	20.059	2.581	0.535
901.000	531.740	79.999	19.997	103.151	20.057	2.724	0.506
901.500	532.056	79.998	19.997	103.155	20.060	2.454	0.482
902.000	532.246	80.000	20.000	103.155	20.058	2.631	0.496
902.500	532.559	79.999	19.994	103.155	20.056	2.749	0.504
903.000	532.798	80.002	19.995	103.156	20.060	2.492	0.527
903.500	533.036	80.004	19.995	103.156	20.056	2.753	0.515
904.000	533.344	79.998	19.995	103.156	20.057	2.734	0.511
904.500	533.590	80.001	19.999	103.161	20.057	2.736	0.550
905.000	533.873	80.001	19.995	103.165	20.058	2.620	0.542
905.500	534.125	80.001	19.994	103.166	20.055	2.840	0.532
906.000	534.360	79.999	19.996	103.168	20.058	2.647	0.511
906.500	534.639	79.999	19.992	103.169	20.057	2.694	0.501
907.000	534.898	80.000	19.994	103.170	20.057	2.699	0.527
907.500	535.145	80.002	19.996	103.167	20.056	2.802	0.522
908.000	535.421	80.003	19.991	103.162	20.057	2.736	0.514
908.500	535.688	80.004	19.996	103.161	20.058	2.641	0.533
909.000	535.976	79.998	19.996	103.158	20.058	2.597	0.549
909.500	536.210	80.001	19.991	103.154	20.062	2.313	0.538
910.000	536.468	80.003	19.993	103.154	20.058	2.647	0.507
910.500	536.736	80.002	19.995	103.161	20.059	2.527	0.509
911.000	537.018	80.004	19.993	103.164	20.059	2.521	0.538
911.500	537.253	79.997	19.994	103.168	20.059	2.558	0.534
912.000	537.526	80.001	19.993	103.171	20.061	2.413	0.513
912.500	537.774	79.999	19.995	103.174	20.063	2.264	0.515
913.000	538.024	80.005	19.994	103.175	20.059	2.521	0.509
913.500	538.279	80.000	19.995	103.173	20.060	2.506	0.501
914.000	538.566	80.000	19.997	103.170	20.058	2.593	0.523
914.500	538.796	79.999	19.999	103.168	20.055	2.826	0.530
915.000	539.093	80.005	19.990	103.162	20.057	2.722	0.522
915.500	539.331	80.004	19.997	103.157	20.058	2.612	0.531
916.000	539.592	80.001	19.993	103.153	20.058	2.658	0.517
916.500	539.852	79.997	19.995	103.153	20.060	2.504	0.510
917.000	540.074	80.002	19.997	103.153	20.061	2.400	0.502
917.500	540.335	80.000	19.996	103.153	20.058	2.655	0.482
918.001	540.638	80.002	19.995	103.153	20.056	2.767	0.523
918.501	540.872	80.000	19.995	103.158	20.058	2.599	0.550
919.000	541.098	80.002	19.995	103.159	20.061	2.369	0.498
919.500	541.331	80.004	19.991	103.157	20.059	2.516	0.459
920.000	541.651	80.001	19.994	103.161	20.057	2.722	0.506
920.500	541.922	80.005	19.992	103.166	20.059	2.514	0.572
921.000	542.123	80.003	19.992	103.167	20.060	2.462	0.531
921.500	542.379	80.001	19.995	103.170	20.059	2.560	0.464
922.000	542.665	80.002	19.997	103.175	20.057	2.728	0.500
922.500	542.911	79.996	19.999	103.179	20.060	2.470	0.537
923.000	543.160	79.994	19.997	103.179	20.061	2.431	0.513
923.500	543.429	80.001	19.997	103.178	20.056	2.786	0.506
924.000	543.710	80.003	19.992	103.179	20.065	2.080	0.534
924.500	543.970	80.000	19.997	103.179	20.059	2.555	0.546
925.001	544.176	80.003	19.995	103.179	20.061	2.408	0.504
925.501	544.440	80.002	19.996	103.180	20.063	2.236	0.468
926.000	544.710	79.999	19.995	103.177	20.062	2.321	0.502
926.500	545.006	80.001	19.993	103.174	20.063	2.245	0.550
927.000	545.152	80.000	19.995	103.174	20.061	2.406	0.504
927.500	545.499	79.999	19.994	103.168	20.057	2.734	0.467
928.000	545.666	79.997	19.995	103.162	20.067	1.919	0.503
928.500	545.973	80.000	19.997	103.162	20.058	2.601	0.494
929.000	546.199	80.000	19.996	103.160	20.065	2.101	0.504
929.500	546.504	80.002	19.993	103.158	20.072	1.597	0.532
930.000	546.687	80.002	19.997	103.161	20.057	2.713	0.509
930.500	546.994	80.003	19.997	103.161	20.072	1.599	0.489
931.001	547.302	80.002	19.994	103.159	20.077	1.218	0.553
931.501	547.552	80.001	19.996	103.161	20.068	1.873	0.587
932.001	547.704	80.003	19.996	103.156	20.058	2.653	0.480
932.501	548.096	80.001	19.996	103.150	20.075	1.334	0.473
933.000	548.265	80.001	19.995	103.149	20.061	2.435	0.553
933.501	548.508	80.000	19.999	103.150	20.059	2.526	0.487
934.001	548.759	80.000	19.996	103.145	20.061	2.394	0.453
934.500	549.118	80.003	19.995	103.145	20.058	2.651	0.552
935.000	549.364	80.001	19.995	103.148	20.076	1.301	0.607
935.500	549.565	80.007	19.994	103.149	20.055	2.827	0.526
936.000	549.799	80.000	19.995	103.151	20.060	2.460	0.441
936.500	550.023	80.001	19.997	103.156	20.067	1.977	0.447
937.000	550.384	80.006	19.995	103.160	20.065	2.107	0.521
937.500	550.610	80.001	19.997	103.163	20.063	2.238	0.586
938.000	550.926	80.003	19.998	103.168	20.063	2.275	0.565
938.501	551.069	80.006	19.993	103.168	20.065	2.082	0.501
939.001	551.485	80.003	19.995	103.166	20.061	2.371	0.509
939.501	551.702	80.003	19.994	103.165	20.063	2.236	0.595
940.001	551.888	80.000	19.996	103.162	20.062	2.300	0.518
940.500	551.947	80.003	19.995	103.156	20.064	2.153	0.325
941.000	552.515	80.003	19.995	103.153	20.063	2.236	0.436
941.501	552.441	80.002	19.995	103.150	20.063	2.252	0.561
942.001	553.357	80.004	19.995	103.148	20.065	2.130	0.668
942.500	552.974	80.001	19.995	103.146	20.065	2.070	0.688
943.000	554.017	80.000	19.996	103.147	20.066	2.016	0.597
943.500	553.685	80.001	19.995	103.148	20.065	2.112	0.685
944.001	554.136	80.002	19.995	103.151	20.064	2.165	0.415
944.501	554.454	80.001	19.995	103.151	20.066	2.000	0.444
945.000	554.623	79.999	19.996	103.152	20.059	2.574	0.628
945.500	555.411	80.004	19.995	103.152	20.066	2.051	0.722
946.000	554.985	79.999	19.994	103.150	20.063	2.224	0.659
946.500	555.468	80.001	19.996	103.147	20.061	2.371	0.210
947.000	555.887	80.002	19.995	103.147	20.063	2.286	0.480
947.500	555.396	80.000	19.995	103.148	20.063	2.282	0.415
948.000	556.491	80.002	19.994	103.148	20.061	2.385	0.266
948.500	556.016	80.001	19.996	103.148	20.058	2.595	0.612
949.000	556.822	80.002	19.995	103.147	20.063	2.244	0.476
949.500	556.575	80.002	19.994	103.147	20.061	2.418	0.445
950.000	557.070	80.002	19.994	103.146	20.064	2.182	0.403
950.500	557.574	80.003	19.995	103.146	20.061	2.379	0.624
951.000	557.362	80.001	19.996	103.147	20.063	2.253	0.646
951.501	558.103	80.003	19.995	103.147	20.062	2.336	0.411
952.001	558.105	80.002	19.996	103.146	20.063	2.244	0.636
952.500	558.508	80.002	19.994	103.146	20.066	2.014	0.574
953.000	558.561	80.003	19.995	103.145	20.062	2.333	0.430
953.500	558.834	80.001	19.994	103.145	20.065	2.122	0.391
954.001	559.165	80.006	19.993	103.147	20.062	2.303	0.465
954.501	559.452	79.998	20.002	103.149	20.064	2.172	0.611
955.000	559.544	80.002	19.993	103.148	20.062	2.332	0.498
955.500	559.903	80.004	19.998	103.154	20.060	2.460	0.415
956.000	560.218	79.998	19.999	103.156	20.065	2.085	0.563
956.501	560.474	79.999	19.997	103.154	20.063	2.280	0.623
957.001	560.682	80.003	19.996	103.152	20.062	2.292	0.518
957.500	560.925	80.004	19.996	103.152	20.061	2.386	0.458
958.000	561.117	80.004	19.995	103.147	20.063	2.251	0.443
958.500	561.517	80.002	19.995	103.145	20.063	2.236	0.514
959.000	561.630	80.004	19.995	103.145	20.062	2.342	0.552
959.500	562.016	80.004	19.992	103.147	20.062	2.303	0.506
960.000	562.201	80.002	19.995	103.148	20.063	2.267	0.535
960.500	562.470	80.002	19.997	103.148	20.064	2.203	0.512
961.000	562.737	80.006	19.989	103.147	20.066	2.025	0.495
961.500	562.949	80.001	19.999	103.149	20.065	2.097	0.507
962.000	563.196	80.002	19.993	103.149	20.063	2.268	0.469
962.500	563.460	80.004	19.992	103.150	20.062	2.330	0.485
963.000	563.752	80.003	19.995	103.151	20.064	2.160	0.534
963.500	563.934	80.002	19.995	103.153	20.064	2.197	0.515
964.000	564.284	80.004	19.996	103.151	20.063	2.237	0.503
964.500	564.416	80.003	19.995	103.155	20.065	2.104	0.507
965.000	564.768	80.007	19.992	103.157	20.065	2.139	0.483
965.500	564.971	80.005	19.995	103.161	20.062	2.359	0.519
966.000	565.214	80.002	19.997	103.163	20.062	2.341	0.500
966.500	565.502	80.000	20.002	103.164	20.065	2.075	0.488
967.000	565.716	79.999	19.996	103.165	20.065	2.092	0.517
967.500	566.019	80.008	19.994	103.163	20.067	1.967	0.510
968.000	566.320	79.999	19.999	103.160	20.067	1.944	0.561
968.500	566.513	79.999	19.999	103.161	20.064	2.170	0.549
969.000	566.778	80.005	19.991	103.163	20.064	2.204	0.476
969.500	567.034	80.004	19.988	103.162	20.066	2.052	0.490
970.000	567.294	80.003	19.998	103.166	20.062	2.307	0.519
970.500	567.523	80.001	19.996	103.165	20.062	2.332	0.502
971.000	567.770	80.008	19.992	103.165	20.064	2.158	0.482
971.500	568.065	79.998	19.995	103.167	20.062	2.324	0.509
972.000	568.322	80.000	19.994	103.171	20.062	2.336	0.547
972.500	568.541	79.998	19.998	103.172	20.066	2.056	0.514
973.000	568.837	80.003	19.996	103.177	20.064	2.141	0.495
973.500	569.074	80.003	19.997	103.177	20.066	2.017	0.524
974.000	569.297	80.001	19.998	103.176	20.059	2.531	0.496
974.500	569.602	80.003	19.986	103.174	20.061	2.394	0.494
975.001	569.851	79.998	19.996	103.177	20.062	2.355	0.541
975.501	570.158	80.004	19.996	103.179	20.061	2.384	0.555
976.000	570.364	80.002	19.993	103.182	20.062	2.313	0.534
976.500	570.571	80.001	19.996	103.185	20.060	2.481	0.462
977.000	570.919	80.005	19.995	103.188	20.062	2.295	0.484
977.500	571.108	80.002	19.995	103.186	20.066	2.010	0.546
978.000	571.416	79.999	19.998	103.187	20.061	2.433	0.518
978.500	571.656	79.998	19.999	103.187	20.062	2.303	0.523
979.000	571.918	80.000	19.995	103.185	20.061	2.396	0.525
979.500	572.133	79.996	19.998	103.184	20.060	2.500	0.489
980.000	572.448	80.000	19.989	103.184	20.063	2.238	0.504
980.500	572.693	80.000	19.992	103.180	20.066	2.037	0.545
981.000	572.910	79.999	19.992	103.178	20.063	2.253	0.511
981.500	573.233	80.004	19.997	103.176	20.063	2.282	0.501
982.000	573.452	80.003	19.997	103.175	20.063	2.222	0.541
982.500	573.734	79.995	19.999	103.171	20.064	2.182	0.522
983.000	573.993	80.000	20.000	103.170	20.063	2.253	0.521
983.500	574.266	79.998	19.995	103.171	20.065	2.085	0.536
984.000	574.507	80.005	19.990	103.172	20.065	2.080	0.523
984.500	574.813	79.995	19.995	103.173	20.067	1.946	0.531
985.000	575.081	80.000	19.997	103.172	20.065	2.132	0.561
985.500	575.323	79.998	19.998	103.174	20.062	2.294	0.542
986.000	575.562	79.998	19.995	103.174	20.063	2.284	0.495
986.501	575.845	79.995	19.996	103.176	20.062	2.356	0.501
987.001	576.105	80.005	19.995	103.171	20.065	2.087	0.533
987.501	576.360	80.001	19.990	103.173	20.064	2.180	0.529
988.001	576.621	80.000	19.987	103.171	20.062	2.303	0.515
988.500	576.847	80.001	19.994	103.171	20.063	2.274	0.502
989.000	577.067	80.001	19.996	103.166	20.061	2.404	0.467
989.500	577.329	79.998	19.996	103.164	20.059	2.568	0.464
990.000	577.567	80.002	19.996	103.161	20.058	2.618	0.491
990.501	577.862	80.001	19.996	103.161	20.058	2.595	0.517
991.001	578.153	80.000	19.992	103.158	20.059	2.537	0.559
991.501	578.368	80.004	19.995	103.160	20.055	2.813	0.546
992.001	578.605	79.999	19.997	103.162	20.059	2.580	0.479
992.500	578.889	80.005	19.993	103.162	20.060	2.464	0.486
993.000	579.138	79.999	19.995	103.160	20.061	2.433	0.527
993.500	579.415	79.997	19.995	103.159	20.062	2.363	0.530
994.000	579.639	80.000	19.994	103.157	20.059	2.585	0.513
994.500	579.902	80.000	19.999	103.153	20.057	2.688	0.494
995.000	580.137	79.999	19.999	103.154	20.061	2.375	0.492
995.500	580.422	80.002	19.993	103.152	20.062	2.346	0.509
996.000	580.663	80.005	19.993	103.150	20.060	2.504	0.523
996.500	580.952	79.998	19.996	103.155	20.059	2.541	0.528
997.000	581.202	80.004	19.990	103.158	20.058	2.622	0.535
997.500	581.463	79.999	19.998	103.159	20.058	2.609	0.525
998.000	581.744	80.002	19.995	103.163	20.060	2.475	0.526
998.500	582.001	79.996	19.997	103.167	20.058	2.626	0.540
999.000	582.238	79.999	19.996	103.162	20.059	2.520	0.516
999.500	582.488	79.998	19.992	103.163	20.060	2.473	0.491
1000.000	582.739	79.997	20.000	103.164	20.061	2.367	0.494
1000.500	583.006	79.998	19.997	103.160	20.059	2.537	0.510
1001.000	583.258	80.005	19.990	103.155	20.061	2.396	0.518
1001.500	583.511	80.001	20.001	103.155	20.059	2.557	0.511
1002.000	583.768	80.001	19.994	103.151	20.059	2.539	0.507
1002.500	583.944	79.997	20.000	103.149	20.062	2.329	0.472
1003.000	584.245	79.999	19.998	103.152	20.059	2.543	0.455
1003.500	584.517	79.999	19.994	103.153	20.062	2.311	0.526
1004.000	584.734	79.997	19.993	103.152	20.061	2.435	0.531
1004.500	585.015	80.001	19.998	103.154	20.060	2.450	0.493
1005.000	585.257	80.001	19.995	103.152	20.061	2.390	0.510
1005.500	585.480	79.992	19.997	103.149	20.063	2.265	0.494
1006.000	585.791	79.998	19.995	103.151	20.058	2.661	0.499
1006.500	586.037	80.003	19.998	103.151	20.059	2.514	0.546
1007.000	586.300	80.006	19.996	103.151	20.062	2.323	0.533
1007.500	586.587	80.001	19.994	103.151	20.063	2.244	0.530
1008.000	586.854	80.005	19.991	103.151	20.061	2.398	0.552
1008.500	587.085	80.005	19.993	103.150	20.061	2.371	0.526
1009.000	587.341	79.997	19.999	103.150	20.059	2.537	0.492
1009.500	587.590	80.002	19.998	103.150	20.063	2.255	0.496
1010.000	587.835	80.001	19.993	103.151	20.059	2.553	0.500
1010.501	588.106	79.995	19.996	103.154	20.061	2.385	0.505
1011.001	588.373	80.003	19.995	103.153	20.060	2.441	0.527
1011.500	588.594	79.998	19.998	103.152	20.063	2.219	0.513
1012.001	588.855	80.001	19.999	103.150	20.060	2.483	0.485
1012.501	589.136	79.998	19.995	103.147	20.062	2.302	0.512
1013.000	589.367	80.001	19.996	103.144	20.062	2.307	0.527
1013.500	589.657	80.001	19.999	103.146	20.064	2.188	0.516
1014.000	589.895	80.000	19.995	103.148	20.062	2.298	0.524
1014.500	590.169	79.998	20.002	103.152	20.060	2.454	0.520
1015.000	590.432	80.002	19.996	103.155	20.061	2.369	0.525
1015.500	590.678	80.002	19.995	103.158	20.063	2.269	0.523
1016.000	590.933	80.006	19.995	103.157	20.064	2.166	0.504
1016.500	591.224	80.003	19.995	103.157	20.064	2.174	0.523
1017.000	591.433	80.000	19.997	103.156	20.062	2.296	0.523
1017.500	591.704	80.001	19.998	103.154	20.064	2.145	0.490
1018.000	591.983	80.001	19.995	103.150	20.065	2.099	0.515
1018.500	592.241	80.001	19.994	103.149	20.064	2.192	0.543
1019.000	592.459	80.001	19.997	103.146	20.061	2.418	0.507
1019.500	592.735	80.002	19.996	103.144	20.061	2.404	0.485
1020.001	593.001	80.002	19.996	103.144	20.064	2.180	0.518
1020.501	593.255	80.003	19.995	103.146	20.063	2.217	0.531
1021.000	593.568	80.002	19.995	103.150	20.061	2.371	0.544
1021.500	593.832	80.002	19.997	103.150	20.064	2.203	0.572
1022.000	594.064	80.001	19.993	103.151	20.063	2.253	0.536
1022.500	594.307	80.001	19.999	103.151	20.065	2.132	0.486
1023.000	594.583	80.001	19.996	103.151	20.063	2.253	0.497
1023.501	594.879	79.998	20.001	103.152	20.062	2.356	0.545
1024.001	595.102	80.004	19.993	103.151	20.064	2.157	0.546
1024.500	595.344	80.000	19.996	103.153	20.061	2.411	0.492
1025.000	595.636	79.998	19.996	103.155	20.064	2.209	0.499
1025.500	595.918	80.002	19.994	103.155	20.063	2.234	0.553
1026.000	596.124	79.999	19.996	103.155	20.063	2.274	0.531
1026.500	596.385	80.004	19.993	103.155	20.063	2.244	0.478
1027.000	596.677	80.000	19.997	103.155	20.062	2.329	0.510
1027.500	596.896	80.000	19.997	103.153	20.061	2.394	0.532
1028.000	597.167	79.999	19.999	103.153	20.062	2.317	0.501
1028.500	597.430	80.002	19.998	103.148	20.061	2.380	0.512
1029.000	597.682	80.002	19.998	103.147	20.062	2.309	0.524
1029.500	597.950	80.001	19.993	103.145	20.061	2.415	0.517
1030.000	598.197	80.001	19.996	103.145	20.063	2.266	0.517
1030.500	598.456	80.000	19.994	103.143	20.062	2.363	0.511
1031.000	598.689	79.996	19.995	103.144	20.060	2.458	0.499
1031.500	598.949	80.001	19.994	103.145	20.061	2.375	0.492
1032.000	599.225	80.003	19.994	103.145	20.065	2.120	0.515
1032.500	599.470	80.002	19.995	103.146	20.063	2.251	0.529
1033.000	599.685	80.002	19.994	103.148	20.063	2.240	0.490
1033.500	599.950	80.001	19.993	103.149	20.063	2.278	0.470
1034.000	600.233	80.001	19.994	103.152	20.064	2.168	0.514
1034.501	600.529	80.002	19.994	103.159	20.066	2.020	0.564
1035.001	600.755	80.001	19.995	103.164	20.064	2.207	0.550
1035.500	600.991	80.001	19.992	103.166	20.062	2.313	0.492
1036.000	601.297	80.002	19.993	103.166	20.064	2.174	0.502
1036.500	601.579	80.003	19.993	103.163	20.062	2.356	0.565
1037.000	601.822	80.000	19.995	103.161	20.061	2.427	0.557
1037.500	602.049	80.001	19.996	103.156	20.062	2.296	0.498
1038.000	602.304	80.002	19.994	103.155	20.061	2.390	0.476
1038.500	602.582	80.005	19.993	103.159	20.063	2.259	0.507
1039.000	602.850	80.001	19.994	103.165	20.063	2.265	0.539
1039.500	603.076	80.004	19.994	103.169	20.064	2.172	0.520
1040.000	603.313	79.999	20.001	103.175	20.060	2.477	0.479
1040.500	603.597	80.001	19.996	103.178	20.059	2.552	0.492
1041.000	603.849	79.997	19.997	103.177	20.060	2.456	0.528
1041.501	604.109	80.002	19.995	103.170	20.062	2.348	0.524
1042.001	604.390	80.008	19.990	103.162	20.063	2.259	0.526
1042.500	604.615	80.006	19.987	103.158	20.062	2.342	0.523
1043.000	604.858	80.002	19.996	103.157	20.062	2.357	0.487
1043.500	605.147	80.001	19.991	103.154	20.060	2.465	0.500
1044.000	605.366	80.001	19.994	103.160	20.059	2.537	0.520
1044.500	605.689	80.002	19.996	103.162	20.059	2.566	0.525
1045.000	605.899	80.001	19.993	103.161	20.058	2.614	0.537
1045.500	606.204	80.005	19.990	103.158	20.061	2.390	0.524
1046.000	606.441	80.000	19.994	103.159	20.058	2.633	0.529
1046.500	606.694	80.000	19.995	103.154	20.061	2.404	0.516
1047.000	606.949	80.003	19.994	103.151	20.061	2.400	0.498
1047.500	607.213	80.001	19.993	103.149	20.064	2.205	0.513
1048.000	607.445	79.996	20.000	103.153	20.059	2.518	0.508
1048.500	607.716	80.004	19.998	103.152	20.061	2.408	0.500
1049.000	607.979	80.005	19.992	103.152	20.058	2.616	0.518
1049.500	608.235	79.999	19.998	103.156	20.059	2.547	0.526
1050.000	608.514	80.001	19.995	103.159	20.061	2.381	0.527
1050.501	608.742	80.004	19.992	103.160	20.059	2.562	0.521
1051.001	609.032	80.001	19.994	103.160	20.061	2.379	0.512
1051.500	609.280	80.003	19.995	103.160	20.064	2.195	0.528
1052.000	609.541	80.000	19.993	103.159	20.066	2.066	0.524
1052.500	609.796	79.999	19.997	103.159	20.065	2.131	0.512
1053.000	610.024	80.000	19.996	103.161	20.068	1.886	0.499
1053.500	610.294	80.001	19.994	103.167	20.066	2.056	0.491
1054.000	610.543	80.000	19.997	103.172	20.063	2.216	0.508
1054.500	610.816	80.001	19.993	103.177	20.068	1.873	0.520
1055.000	611.058	80.003	19.993	103.179	20.065	2.136	0.519
1055.500	611.351	80.001	19.994	103.179	20.063	2.273	0.525
1056.000	611.569	80.003	19.990	103.172	20.064	2.156	0.523
1056.500	611.859	79.997	19.994	103.168	20.063	2.235	0.509
1057.000	612.096	79.999	19.997	103.164	20.064	2.191	0.518
1057.500	612.347	80.001	19.994	103.159	20.066	1.999	0.508
1058.000	612.626	79.998	19.994	103.154	20.065	2.118	0.509
1058.500	612.867	79.998	19.999	103.154	20.067	1.990	0.525
1059.000	613.122	80.002	19.991	103.154	20.064	2.187	0.508
1059.500	613.409	80.000	19.991	103.153	20.063	2.221	0.519
1060.000	613.670	80.000	19.996	103.154	20.065	2.086	0.545
1060.500	613.915	80.001	19.995	103.159	20.063	2.228	0.527
1061.000	614.179	80.001	19.995	103.158	20.063	2.265	0.507
1061.500	614.443	80.005	19.995	103.157	20.065	2.097	0.518
1062.000	614.705	80.000	19.994	103.158	20.064	2.161	0.527
1062.500	614.939	80.001	19.994	103.160	20.065	2.126	0.512
1063.000	615.262	80.004	19.991	103.161	20.068	1.875	0.527
1063.500	615.482	80.002	19.995	103.165	20.065	2.112	0.550
1064.000	615.755	80.003	19.996	103.166	20.060	2.477	0.518
1064.501	616.012	80.003	19.992	103.167	20.060	2.485	0.511
1065.001	616.274	80.001	19.993	103.174	20.061	2.438	0.524
1065.500	616.552	80.002	19.995	103.157	20.063	2.243	0.530
1066.000	616.805	79.998	19.997	103.136	20.064	2.203	0.536
1066.500	617.032	80.005	19.991	103.118	20.063	2.236	0.506
1067.001	617.347	80.003	19.994	103.106	20.068	1.909	0.511
1067.501	617.579	80.006	19.992	103.090	20.067	1.985	0.544
1068.001	617.820	80.003	19.997	103.101	20.064	2.155	0.509
1068.501	618.100	80.006	19.994	103.127	20.066	2.020	0.497
1069.001	618.333	80.004	19.993	103.176	20.062	2.334	0.517
1069.500	618.609	80.001	19.992	103.197	20.062	2.300	0.511
1070.000	618.837	80.006	19.992	103.210	20.065	2.097	0.507
1070.500	619.080	80.000	19.995	103.212	20.065	2.093	0.487
1071.000	619.326	79.998	19.998	103.203	20.064	2.162	0.480
1071.500	619.623	80.000	19.995	103.168	20.065	2.116	0.516
1072.000	619.875	80.004	19.994	103.155	20.065	2.093	0.546
1072.500	620.111	80.000	19.998	103.149	20.067	1.952	0.519
1073.000	620.367	80.004	19.992	103.148	20.066	2.016	0.490
1073.500	620.657	79.998	19.999	103.151	20.065	2.122	0.519
1074.000	620.885	80.004	19.995	103.154	20.068	1.865	0.532
1074.500	621.149	80.002	19.988	103.157	20.065	2.089	0.505
1075.000	621.400	80.000	19.994	103.161	20.064	2.166	0.503
1075.500	621.647	80.000	19.993	103.163	20.064	2.209	0.506
1076.000	621.915	80.000	19.999	103.165	20.065	2.093	0.507
1076.500	622.162	80.002	19.993	103.165	20.063	2.238	0.515
1077.000	622.421	80.000	19.998	103.171	20.066	2.010	0.510
1077.500	622.672	80.003	19.993	103.166	20.065	2.091	0.508
1078.000	622.936	80.000	19.995	103.166	20.062	2.290	0.513
1078.501	623.204	80.001	19.996	103.163	20.061	2.404	0.524
1079.001	623.472	80.001	19.995	103.164	20.062	2.311	0.534
1079.500	623.748	80.006	19.993	103.157	20.061	2.371	0.540
1080.000	624.006	80.000	19.998	103.156	20.062	2.350	0.539
1080.500	624.246	80.002	19.994	103.154	20.064	2.166	0.516
1081.000	624.516	80.001	19.994	103.159	20.065	2.095	0.504
1081.500	624.747	79.999	19.996	103.158	20.065	2.126	0.506
1082.000	625.044	80.004	19.993	103.159	20.065	2.114	0.515
1082.500	625.284	80.001	19.995	103.160	20.063	2.217	0.532
1083.000	625.514	80.000	19.994	103.161	20.062	2.336	0.503
1083.500	625.787	79.998	19.995	103.155	20.062	2.311	0.486
1084.000	626.027	80.000	19.998	103.153	20.064	2.165	0.508
1084.500	626.275	80.000	19.995	103.151	20.062	2.313	0.501
1085.000	626.566	80.002	19.992	103.154	20.064	2.143	0.513
1085.500	626.828	80.003	19.996	103.153	20.063	2.232	0.546
1086.000	627.103	80.005	19.993	103.153	20.065	2.118	0.546
1086.500	627.363	80.006	19.990	103.155	20.062	2.346	0.536
1087.000	627.622	80.002	19.994	103.158	20.063	2.238	0.526
1087.500	627.850	79.998	20.000	103.155	20.062	2.294	0.502
1088.000	628.133	80.001	19.996	103.154	20.062	2.294	0.499
1088.500	628.379	79.998	19.997	103.153	20.066	2.066	0.520
1089.000	628.629	80.000	19.995	103.150	20.065	2.091	0.512
1089.500	628.883	79.997	19.992	103.146	20.066	2.060	0.500
1090.000	629.142	79.999	19.993	103.149	20.062	2.336	0.509
1090.500	629.426	80.002	19.996	103.152	20.061	2.367	0.528
1091.000	629.688	80.002	19.992	103.154	20.068	1.910	0.544
1091.500	629.894	79.999	20.001	103.155	20.064	2.199	0.507
1092.000	630.170	80.003	19.995	103.157	20.062	2.352	0.475
1092.500	630.413	80.002	19.995	103.153	20.063	2.234	0.500
1093.000	630.686	80.002	19.996	103.150	20.060	2.462	0.517
1093.500	630.915	80.002	19.997	103.150	20.065	2.076	0.509
1094.001	631.187	80.003	19.993	103.149	20.063	2.261	0.502
1094.501	631.457	80.003	19.996	103.149	20.063	2.226	0.522
1095.000	631.748	80.000	19.999	103.150	20.064	2.193	0.551
1095.500	631.975	80.002	19.994	103.154	20.063	2.263	0.540
1096.000	632.233	80.002	19.994	103.156	20.060	2.495	0.502
1096.500	632.488	80.003	19.996	103.157	20.059	2.525	0.499
1097.000	632.759	80.002	19.992	103.157	20.061	2.400	0.520
1097.500	632.973	80.003	19.994	103.156	20.062	2.296	0.505
1098.000	633.241	80.002	19.995	103.154	20.062	2.342	0.483
1098.500	633.488	80.003	19.997	103.153	20.056	2.759	0.498
1099.000	633.799	79.998	19.992	103.154	20.058	2.645	0.537
1099.500	634.063	80.008	19.989	103.159	20.061	2.429	0.566
1100.000	634.304	80.001	19.998	103.162	20.060	2.501	0.540
1100.500	634.538	80.001	19.989	103.159	20.060	2.439	0.490
1101.000	634.830	80.003	19.997	103.158	20.058	2.655	0.500
1101.500	635.062	79.998	20.001	103.159	20.058	2.638	0.525
1102.000	635.311	80.000	19.994	103.151	20.060	2.508	0.503
1102.501	635.600	79.996	19.999	103.147	20.057	2.700	0.509
1103.001	635.857	80.002	19.993	103.148	20.057	2.667	0.541
1103.500	636.110	80.001	19.997	103.148	20.058	2.628	0.528
1104.001	636.390	80.006	19.994	103.147	20.061	2.437	0.522
1104.501	636.664	80.002	19.993	103.152	20.062	2.323	0.544
1105.000	636.877	80.003	19.991	103.152	20.061	2.386	0.521
1105.500	637.149	80.000	19.998	103.157	20.064	2.178	0.486
1106.000	637.371	80.002	19.995	103.157	20.061	2.419	0.489
1106.500	637.644	79.997	19.998	103.157	20.062	2.325	0.494
1107.000	637.897	80.005	19.990	103.157	20.059	2.514	0.510
1107.500	638.152	80.006	19.996	103.159	20.060	2.456	0.517
1108.000	638.410	80.002	19.993	103.154	20.057	2.736	0.511
1108.501	638.667	79.994	20.001	103.154	20.059	2.539	0.514
1109.001	638.912	79.998	20.000	103.152	20.059	2.568	0.508
1109.500	639.171	79.997	19.998	103.147	20.059	2.541	0.503
1110.000	639.424	79.997	19.994	103.147	20.060	2.472	0.508
1110.500	639.673	80.002	19.993	103.147	20.059	2.562	0.507
1111.000	639.934	79.993	20.001	103.147	20.062	2.317	0.506
1111.500	640.154	80.007	19.996	103.147	20.057	2.667	0.496
1112.000	640.437	80.003	19.999	103.147	20.057	2.719	0.492
1112.500	640.717	80.005	19.995	103.143	20.060	2.441	0.533
1113.000	640.926	80.002	19.995	103.144	20.057	2.678	0.526
1113.500	641.207	79.997	19.997	103.143	20.064	2.165	0.489
1114.000	641.465	80.000	19.991	103.144	20.061	2.420	0.514
1114.501	641.690	80.003	19.993	103.146	20.060	2.460	0.511
1115.001	641.962	80.001	19.995	103.153	20.058	2.657	0.490
1115.500	642.226	80.008	19.990	103.157	20.062	2.354	0.517
1116.000	642.483	80.002	19.996	103.161	20.058	2.661	0.529
1116.500	642.728	80.001	19.996	103.161	20.062	2.304	0.512
1117.000	642.985	80.002	19.996	103.158	20.061	2.414	0.502
1117.500	643.247	80.003	19.996	103.153	20.058	2.605	0.510
1118.000	643.526	80.001	19.992	103.149	20.063	2.246	0.530
1118.500	643.768	80.006	19.993	103.146	20.058	2.642	0.531
1119.000	644.031	80.003	19.995	103.147	20.058	2.636	0.513
1119.500	644.288	80.005	19.996	103.148	20.060	2.470	0.513
1120.000	644.534	80.003	19.994	103.148	20.057	2.707	0.512
1120.500	644.803	80.001	19.994	103.148	20.061	2.385	0.509
1121.000	645.024	79.999	19.991	103.147	20.059	2.572	0.503
1121.500	645.263	80.003	19.998	103.146	20.060	2.501	0.475
1122.000	645.517	80.004	19.995	103.145	20.058	2.591	0.476
1122.500	645.788	80.004	19.992	103.147	20.059	2.564	0.509
1123.000	646.071	79.997	19.995	103.147	20.060	2.497	0.540
1123.500	646.309	80.001	19.992	103.146	20.058	2.649	0.538
1124.000	646.538	80.005	19.993	103.146	20.061	2.431	0.494
1124.500	646.811	79.998	19.993	103.146	20.058	2.651	0.484
1125.000	647.076	80.003	19.996	103.145	20.058	2.595	0.520
1125.500	647.297	80.002	19.996	103.144	20.055	2.869	0.512
1126.000	647.561	80.005	19.994	103.144	20.058	2.611	0.485
1126.500	647.820	80.003	19.994	103.143	20.058	2.615	0.504
1127.000	648.098	80.005	19.995	103.144	20.056	2.750	0.530
1127.500	648.370	80.004	19.996	103.145	20.056	2.748	0.543
1128.001	648.606	80.005	19.994	103.144	20.058	2.626	0.529
1128.501	648.829	80.001	19.994	103.142	20.060	2.506	0.484
1129.000	649.130	80.002	19.995	103.142	20.060	2.508	0.491
1129.500	649.388	80.003	19.994	103.142	20.058	2.638	0.541
1130.000	649.608	79.999	19.994	103.140	20.062	2.317	0.518
1130.500	649.875	80.003	19.995	103.141	20.061	2.412	0.483
1131.000	650.151	79.994	20.001	103.146	20.063	2.226	0.515
1131.500	650.402	80.002	19.994	103.147	20.061	2.433	0.535
1132.000	650.615	80.001	19.995	103.147	20.060	2.487	0.495
1132.500	650.931	79.998	19.997	103.148	20.060	2.468	0.497
1133.000	651.129	80.001	19.997	103.150	20.061	2.379	0.522
1133.500	651.437	80.001	19.994	103.150	20.061	2.394	0.511
1134.000	651.623	80.008	19.991	103.149	20.060	2.485	0.500
1134.500	651.907	80.001	19.995	103.151	20.060	2.472	0.481
1135.000	652.172	80.002	19.995	103.150	20.059	2.582	0.509
1135.500	652.386	80.000	19.998	103.148	20.062	2.344	0.514
1136.000	652.660	80.001	19.990	103.145	20.062	2.306	0.484
1136.500	652.900	80.003	19.994	103.146	20.061	2.367	0.501
1137.000	653.139	80.004	19.995	103.146	20.058	2.643	0.496
1137.500	653.401	79.998	19.998	103.145	20.060	2.493	0.490
1138.000	653.688	80.007	19.988	103.145	20.059	2.564	0.525
1138.500	653.952	80.003	19.993	103.149	20.060	2.443	0.550
1139.001	654.158	80.001	19.996	103.149	20.061	2.406	0.510
1139.501	654.415	79.997	19.997	103.150	20.059	2.560	0.467
1140.000	654.665	79.996	19.994	103.151	20.059	2.578	0.485
1140.500	654.938	80.002	19.994	103.152	20.060	2.454	0.515
1141.000	655.170	80.003	19.995	103.150	20.060	2.481	0.514
1141.500	655.439	80.004	19.994	103.149	20.062	2.305	0.503
1142.000	655.708	80.002	19.995	103.146	20.060	2.487	0.520
1142.500	655.960	80.005	19.992	103.146	20.060	2.456	0.529
1143.000	656.222	80.000	19.999	103.146	20.062	2.354	0.517
1143.500	656.465	80.000	19.995	103.145	20.059	2.557	0.510
1144.000	656.750	79.997	19.996	103.146	20.062	2.298	0.517
1144.500	656.989	80.002	19.996	103.148	20.059	2.584	0.526
1145.000	657.257	80.000	19.996	103.150	20.059	2.518	0.515
1145.500	657.512	80.002	19.995	103.152	20.063	2.263	0.515
1146.000	657.746	80.002	19.994	103.152	20.063	2.275	0.506
1146.500	658.054	79.998	19.994	103.152	20.056	2.806	0.515
1147.000	658.247	80.002	19.994	103.150	20.062	2.327	0.521
1147.500	658.490	80.000	19.994	103.150	20.051	3.142	0.469
1148.000	658.792	79.999	19.997	103.150	20.059	2.547	0.491
1148.500	659.009	79.999	19.995	103.149	20.058	2.628	0.532
1149.000	659.269	80.005	19.993	103.150	20.062	2.327	0.498
1149.500	659.519	80.000	19.995	103.151	20.059	2.555	0.494
1150.000	659.765	79.999	19.997	103.149	20.062	2.294	0.503
1150.500	660.066	79.998	19.999	103.153	20.061	2.427	0.521
1151.000	660.253	79.999	19.991	103.159	20.058	2.657	0.518
1151.500	660.524	80.001	19.996	103.160	20.062	2.315	0.473
1152.000	660.809	79.999	20.001	103.161	20.060	2.483	0.507
1152.500	661.027	79.998	19.994	103.161	20.061	2.431	0.530
1153.000	661.316	80.000	19.994	103.156	20.061	2.394	0.505
1153.500	661.557	80.002	19.994	103.150	20.063	2.246	0.518
1154.000	661.826	79.996	19.998	103.147	20.060	2.456	0.520
1154.500	662.080	79.998	19.992	103.145	20.059	2.522	0.517
1155.000	662.286	80.004	19.992	103.146	20.059	2.539	0.491
1155.500	662.597	80.002	19.994	103.147	20.059	2.553	0.488
1156.000	662.822	80.001	19.995	103.147	20.063	2.250	0.526
1156.500	663.090	80.002	19.992	103.146	20.060	2.439	0.515
1157.000	663.338	79.999	19.995	103.147	20.060	2.464	0.505
1157.500	663.571	80.000	19.994	103.146	20.057	2.680	0.498
1158.000	663.896	80.000	19.995	103.146	20.059	2.566	0.519
1158.500	664.035	80.000	19.995	103.146	20.062	2.354	0.511
1159.000	664.355	79.998	19.996	103.146	20.062	2.346	0.461
1159.501	664.614	79.999	19.996	103.146	20.062	2.363	0.519
1160.001	664.941	79.998	19.991	103.146	20.062	2.304	0.583
1160.500	665.005	80.006	19.992	103.146	20.062	2.352	0.489
1161.000	665.310	79.998	19.996	103.148	20.060	2.512	0.380
1161.500	665.190	80.004	19.992	103.148	20.060	2.504	0.277
1162.000	665.673	80.003	19.993	103.148	20.061	2.398	0.274
1162.500	666.139	79.999	19.995	103.152	20.062	2.319	0.656
1163.001	666.319	79.999	19.997	103.154	20.059	2.518	0.798
1163.501	666.631	79.999	19.997	103.152	20.058	2.607	0.569
1164.001	666.819	80.007	19.991	103.153	20.059	2.522	0.495
1164.500	667.139	80.001	19.994	103.153	20.061	2.392	0.504
1165.000	667.305	79.994	19.996	103.150	20.060	2.489	0.497
1165.500	667.605	80.000	19.995	103.149	20.058	2.599	0.476
1166.000	667.868	79.997	19.991	103.149	20.058	2.603	0.514
1166.500	668.135	80.000	19.993	103.150	20.060	2.456	0.546
1167.000	668.410	80.003	19.988	103.149	20.060	2.512	0.536
1167.500	668.576	80.000	19.995	103.150	20.056	2.771	0.491
1168.001	668.894	80.000	19.994	103.149	20.059	2.545	0.462
1168.501	669.087	79.998	19.998	103.149	20.061	2.419	0.498
1169.000	669.364	80.003	19.997	103.148	20.059	2.558	0.491
1169.500	669.629	80.001	19.997	103.147	20.047	3.437	0.506
1170.000	669.907	79.996	19.996	103.147	20.062	2.338	0.542
1170.501	670.119	80.001	19.993	103.151	20.056	2.761	0.517
1171.001	670.424	80.002	19.993	103.151	20.058	2.591	0.504
1171.500	670.643	80.001	19.996	103.153	20.058	2.640	0.520
1172.000	670.883	80.001	19.992	103.153	20.058	2.595	0.492
1172.500	671.135	79.998	19.998	103.154	20.060	2.441	0.475
1173.000	671.410	80.000	19.996	103.151	20.058	2.611	0.509
1173.500	671.681	80.000	19.994	103.152	20.060	2.452	0.537
1174.000	671.963	79.999	19.995	103.152	20.058	2.634	0.550
1174.500	672.144	80.000	19.996	103.152	20.062	2.344	0.508
1175.000	672.458	80.002	19.996	103.152	20.060	2.481	0.479
1175.500	672.687	79.998	19.996	103.151	20.060	2.498	0.519
1176.000	672.950	80.001	19.996	103.150	20.056	2.747	0.518
1176.500	673.191	80.003	19.992	103.150	20.060	2.467	0.498
1177.001	673.445	80.003	19.993	103.150	20.056	2.747	0.500
1177.501	673.684	79.999	19.996	103.150	20.056	2.767	0.494
1178.001	673.930	79.999	19.992	103.149	20.058	2.614	0.489
1178.501	674.211	80.003	19.994	103.153	20.059	2.516	0.506
1179.000	674.457	80.006	19.994	103.155	20.062	2.329	0.527
1179.500	674.661	79.998	20.000	103.154	20.061	2.410	0.489
1180.001	675.000	80.006	19.994	103.152	20.060	2.499	0.497
1180.501	675.234	79.998	19.998	103.153	20.060	2.489	0.558
1181.000	675.484	80.003	19.992	103.148	20.059	2.574	0.528
1181.501	675.765	80.003	19.994	103.145	20.060	2.493	0.507
1182.001	675.964	80.004	19.991	103.146	20.059	2.585	0.505
1182.500	676.223	80.003	19.989	103.148	20.061	2.408	0.470
1183.001	676.462	79.998	20.002	103.149	20.057	2.707	0.478
1183.501	676.354	80.002	19.995	103.149	20.057	2.674	0.315
1184.001	676.647	80.001	19.993	103.152	20.059	2.586	0.158
1184.500	677.206	80.003	19.988	103.153	20.060	2.450	0.519
1185.001	677.576	80.005	19.993	103.156	20.061	2.427	0.890
1185.501	677.796	80.000	19.993	103.157	20.057	2.690	0.759
1186.001	678.016	80.004	19.994	103.159	20.058	2.597	0.515
1186.500	678.364	80.000	19.994	103.161	20.055	2.856	0.504
1187.000	678.611	80.000	19.994	103.165	20.055	2.819	0.581
1187.500	678.837	80.001	19.996	103.168	20.057	2.727	0.534
1188.000	679.102	80.002	19.992	103.166	20.055	2.873	0.482
1188.500	679.378	80.004	19.992	103.165	20.059	2.586	0.517
1189.000	679.627	80.005	19.988	103.163	20.053	3.001	0.533
1189.500	679.868	80.005	19.994	103.160	20.056	2.761	0.507
1190.000	680.143	79.996	19.997	103.153	20.054	2.916	0.503
1190.501	680.354	80.002	19.996	103.152	20.054	2.889	0.501
1191.001	680.652	79.996	19.995	103.153	20.053	2.966	0.497
1191.500	680.906	80.000	19.995	103.157	20.058	2.628	0.531
1192.000	681.188	80.002	19.996	103.157	20.059	2.578	0.544
1192.500	681.450	80.000	19.996	103.155	20.055	2.860	0.540
1193.000	681.724	80.002	19.998	103.156	20.056	2.798	0.540
1193.500	681.983	80.001	19.996	103.154	20.055	2.819	0.535
1194.000	682.215	80.005	19.995	103.150	20.057	2.694	0.512
1194.500	682.514	80.005	19.989	103.146	20.055	2.873	0.510
1195.000	682.731	80.005	19.994	103.147	20.052	3.051	0.523
1195.500	682.999	80.001	20.000	103.147	20.055	2.821	0.501
1196.000	683.262	80.001	19.994	103.145	20.056	2.810	0.508
1196.500	683.507	80.004	19.995	103.143	20.055	2.883	0.519
1197.000	683.775	80.000	19.998	103.144	20.057	2.663	0.510
1197.500	684.050	80.001	19.996	103.142	20.057	2.723	0.528
1198.000	684.318	80.004	19.994	103.141	20.054	2.887	0.543
1198.500	684.571	80.001	19.998	103.142	20.054	2.924	0.532
1199.000	684.838	80.003	19.993	103.141	20.057	2.713	0.520
1199.500	685.122	79.999	19.994	103.142	20.054	2.916	0.536
1200.000	685.344	80.004	19.992	103.141	20.056	2.746	0.528
1200.500	685.621	79.997	19.993	103.141	20.056	2.756	0.502
1201.000	685.872	80.006	19.994	103.142	20.054	2.908	0.514
1201.500	686.148	80.007	19.993	103.143	20.060	2.507	0.528
1202.000	686.415	79.999	19.994	103.143	20.057	2.667	0.535
1202.500	686.647	79.997	20.000	103.146	20.054	2.947	0.521
1203.000	686.928	80.005	19.995	103.145	20.055	2.870	0.506
1203.500	687.230	80.004	19.991	103.144	20.056	2.752	0.548
1204.000	687.397	80.002	19.995	103.144	20.057	2.705	0.526
1204.500	687.699	80.003	19.995	103.145	20.057	2.725	0.469
1205.000	687.954	80.003	19.996	103.145	20.055	2.837	0.513
1205.500	688.222	80.003	19.995	103.146	20.056	2.779	0.540
1206.000	688.459	80.005	19.995	103.146	20.052	3.041	0.514
1206.500	688.725	80.003	19.995	103.145	20.053	2.966	0.504
1207.000	688.987	80.002	19.996	103.143	20.055	2.871	0.516
1207.500	689.253	80.001	19.995	103.142	20.054	2.954	0.528
1208.000	689.511	80.000	19.997	103.142	20.057	2.684	0.526
1208.500	689.789	80.003	19.993	103.142	20.056	2.740	0.530
1209.000	690.028	80.001	19.996	103.142	20.055	2.881	0.526
1209.501	690.328	80.003	19.996	103.143	20.054	2.929	0.528
1210.001	690.575	80.006	19.995	103.144	20.055	2.873	0.543
1210.500	690.855	79.998	19.995	103.143	20.054	2.912	0.537
1211.000	691.102	80.002	19.995	103.143	20.057	2.692	0.527
1211.500	691.351	80.001	19.995	103.142	20.056	2.756	0.511
1212.000	691.600	80.002	19.994	103.140	20.056	2.789	0.497
1212.500	691.871	80.001	19.995	103.138	20.055	2.849	0.509
1213.000	692.135	80.001	19.996	103.138	20.056	2.760	0.528
1213.500	692.441	80.000	19.994	103.137	20.054	2.910	0.552
1214.000	692.664	80.000	19.996	103.138	20.056	2.767	0.549
1214.500	692.995	80.001	19.996	103.140	20.055	2.848	0.541
1215.001	693.204	79.998	19.993	103.142	20.053	2.964	0.547
1215.501	693.428	80.002	19.997	103.143	20.054	2.929	0.487
1216.000	693.730	80.001	19.995	103.144	20.056	2.794	0.480
1216.500	694.001	80.002	19.987	103.144	20.055	2.860	0.549
1217.000	694.223	80.003	19.995	103.146	20.056	2.775	0.533
1217.500	694.495	80.000	19.995	103.146	20.054	2.937	0.493
1218.000	694.750	80.000	19.992	103.145	20.055	2.877	0.511
1218.500	695.045	80.001	19.994	103.146	20.055	2.875	0.539
1219.001	695.275	80.000	19.995	103.145	20.054	2.943	0.538
1219.501	695.554	80.001	19.996	103.143	20.051	3.132	0.517
1220.000	695.777	80.000	19.995	103.143	20.056	2.794	0.505
1220.500	696.059	79.997	19.994	103.143	20.055	2.871	0.504
1221.000	696.291	80.000	19.996	103.144	20.055	2.877	0.509
1221.500	696.548	79.998	19.999	103.143	20.053	2.974	0.501
1222.000	696.859	80.000	19.996	103.139	20.053	2.976	0.528
1222.500	697.086	80.002	19.996	103.133	20.052	3.095	0.553
1223.000	697.353	80.001	19.998	103.131	20.049	3.290	0.517
1223.500	697.599	79.998	20.001	103.131	20.051	3.126	0.503
1224.000	697.894	79.997	19.995	103.131	20.051	3.159	0.527
1224.500	698.153	80.000	19.995	103.135	20.053	3.032	0.547
1225.000	698.389	80.004	19.991	103.141	20.051	3.117	0.525
1225.500	698.670	80.005	19.993	103.144	20.053	2.999	0.506
1226.000	698.940	80.001	19.992	103.144	20.056	2.761	0.534
1226.500	699.166	80.002	19.997	103.146	20.053	2.989	0.523
1227.000	699.423	80.002	19.993	103.146	20.056	2.769	0.489
1227.500	699.677	80.000	19.995	103.146	20.050	3.219	0.497
1228.000	699.955	80.003	19.993	103.146	20.051	3.122	0.522
1228.500	700.230	80.001	19.996	103.147	20.051	3.165	0.542
1229.000	700.448	80.000	19.995	103.147	20.054	2.945	0.523
1229.500	700.732	80.002	19.997	103.147	20.050	3.240	0.497
1230.000	700.984	80.002	19.992	103.146	20.054	2.908	0.519
1230.500	701.251	80.004	19.994	103.146	20.053	2.993	0.528
1231.000	701.505	80.001	19.995	103.146	20.053	3.024	0.520
1231.500	701.759	80.000	19.995	103.146	20.051	3.132	0.514
1232.000	702.007	80.003	19.993	103.147	20.053	3.010	0.505
1232.500	702.303	80.001	19.993	103.148	20.053	2.981	0.523
1233.000	702.540	80.000	19.998	103.148	20.055	2.852	0.538
1233.500	702.806	79.998	19.993	103.146	20.054	2.887	0.518
1234.000	703.074	80.001	19.995	103.146	20.051	3.171	0.519
1234.500	703.321	79.998	19.996	103.145	20.051	3.153	0.524
1235.000	703.605	80.001	19.994	103.144	20.049	3.267	0.523
1235.500	703.842	80.000	19.995	103.144	20.048	3.362	0.527
1236.000	704.095	80.001	19.993	103.145	20.050	3.248	0.506
1236.500	704.353	80.001	19.995	103.145	20.052	3.078	0.500
1237.000	704.571	80.000	19.995	103.146	20.056	2.804	0.493
1237.500	704.831	80.000	19.996	103.147	20.051	3.132	0.477
1238.000	705.113	80.000	19.996	103.147	20.054	2.887	0.509
1238.500	705.379	79.998	19.997	103.147	20.053	2.966	0.545
1239.000	705.645	79.993	19.993	103.146	20.055	2.873	0.540
1239.500	705.936	80.001	19.995	103.146	20.052	3.034	0.545
1240.000	706.159	79.999	20.002	103.146	20.053	3.026	0.536
1240.500	706.397	79.999	19.992	103.143	20.054	2.908	0.488
1241.000	706.707	80.000	19.994	103.144	20.053	2.991	0.504
1241.500	706.894	79.998	19.996	103.145	20.054	2.924	0.522
1242.000	707.184	80.004	19.993	103.145	20.055	2.850	0.487
1242.500	707.421	80.001	19.992	103.146	20.052	3.036	0.502
1243.001	707.705	80.001	19.993	103.149	20.057	2.692	0.524
1243.501	708.014	80.000	19.997	103.150	20.053	3.009	0.557
1244.000	708.229	80.002	19.995	103.149	20.053	2.976	0.559
1244.500	708.520	80.002	19.991	103.147	20.053	3.007	0.514
1245.000	708.756	79.997	19.994	103.145	20.054	2.887	0.516
1245.500	708.974	80.003	19.996	103.144	20.053	2.974	0.491
1246.000	709.275	80.001	19.996	103.144	20.053	2.991	0.487
1246.500	709.528	79.997	19.994	103.145	20.054	2.899	0.537
1247.000	709.790	79.999	19.995	103.146	20.053	2.976	0.535
1247.500	710.076	79.995	19.998	103.148	20.052	3.061	0.532
1248.000	710.282	79.996	19.997	103.148	20.054	2.900	0.520
1248.500	710.550	80.002	19.992	103.147	20.052	3.036	0.483
1249.000	710.793	80.000	19.986	103.146	20.053	3.003	0.493
1249.501	711.067	79.996	19.994	103.147	20.051	3.132	0.514
1250.001	711.336	79.999	19.991	103.147	20.051	3.144	0.530
1250.501	711.557	79.997	19.998	103.147	20.053	2.985	0.516
1251.001	711.884	80.002	19.992	103.146	20.055	2.883	0.519
1251.500	712.137	80.002	19.992	103.146	20.056	2.808	0.564
1252.000	712.431	80.000	19.994	103.145	20.055	2.877	0.563
1252.500	712.660	80.000	19.996	103.144	20.054	2.953	0.535
1253.000	712.943	79.997	19.994	103.144	20.052	3.076	0.518
1253.500	713.189	80.003	19.994	103.145	20.052	3.063	0.520
1254.000	713.392	80.000	19.995	103.145	20.055	2.864	0.489
1254.501	713.701	79.997	19.995	103.144	20.057	2.665	0.481
1255.001	713.940	79.996	19.999	103.144	20.055	2.866	0.530
1255.500	714.250	80.002	19.995	103.144	20.054	2.949	0.549
1256.000	714.458	80.000	19.994	103.143	20.054	2.922	0.534
1256.500	714.708	80.001	19.995	103.141	20.054	2.939	0.488
1257.000	715.037	80.000	20.000	103.140	20.051	3.119	0.518
1257.500	715.295	79.999	19.991	103.138	20.054	2.899	0.583
1258.000	715.504	80.002	19.993	103.139	20.050	3.196	0.527
1258.500	715.785	80.002	19.993	103.140	20.051	3.148	0.478
1259.000	716.031	80.000	19.995	103.144	20.050	3.213	0.509
1259.500	716.323	80.001	19.994	103.144	20.052	3.063	0.532
1260.000	716.577	80.002	19.994	103.145	20.052	3.057	0.542
1260.500	716.854	80.002	19.995	103.144	20.054	2.906	0.539
1261.000	717.108	80.003	19.995	103.143	20.053	2.980	0.531
1261.500	717.360	80.003	19.996	103.143	20.056	2.777	0.518
1262.000	717.617	80.003	19.993	103.144	20.052	3.051	0.507
1262.500	717.892	80.002	19.995	103.144	20.057	2.663	0.521
1263.000	718.150	80.000	19.995	103.144	20.054	2.893	0.533
1263.500	718.414	80.001	19.997	103.143	20.055	2.868	0.528
1264.001	718.617	80.004	19.996	103.141	20.058	2.634	0.494
1264.501	718.913	80.003	19.997	103.140	20.054	2.926	0.483
1265.000	719.170	79.999	19.996	103.139	20.054	2.945	0.526
1265.500	719.416	80.002	19.993	103.138	20.051	3.113	0.528
1266.000	719.666	80.003	19.991	103.140	20.055	2.876	0.499
1266.500	719.960	80.003	19.994	103.141	20.054	2.951	0.520
1267.001	720.197	80.000	19.994	103.143	20.054	2.932	0.537
1267.501	720.434	80.000	19.995	103.143	20.052	3.092	0.502
1268.000	720.688	80.000	19.995	103.143	20.051	3.158	0.483
1268.500	720.936	80.001	19.994	103.139	20.053	3.022	0.497
1269.000	721.207	80.001	19.993	103.138	20.051	3.159	0.510
1269.500	721.448	80.003	19.992	103.138	20.052	3.076	0.515
1270.000	721.695	80.002	19.994	103.138	20.059	2.580	0.500
1270.500	721.961	80.002	19.997	103.134	20.052	3.061	0.500
1271.000	722.233	79.994	19.995	103.137	20.054	2.887	0.525
1271.500	722.466	80.001	19.998	103.137	20.055	2.879	0.522
1272.000	722.704	80.003	19.991	103.136	20.054	2.906	0.489
1272.500	722.953	80.000	19.998	103.141	20.058	2.659	0.479
1273.000	723.209	80.000	19.994	103.145	20.053	3.001	0.495
1273.500	723.490	80.004	19.994	103.144	20.057	2.721	0.521
1274.000	723.722	80.000	19.996	103.141	20.052	3.088	0.525
1274.500	723.983	80.002	19.992	103.134	20.055	2.854	0.503
1275.000	724.288	80.003	19.995	103.127	20.054	2.902	0.529
1275.500	724.539	80.007	19.994	103.125	20.057	2.736	0.561
1276.001	724.776	79.999	19.994	103.128	20.055	2.877	0.522
1276.501	725.046	80.004	19.993	103.131	20.054	2.916	0.498
1277.000	725.301	80.007	19.993	103.132	20.056	2.754	0.516
1277.500	725.528	80.000	20.002	103.130	20.056	2.769	0.504
1278.000	725.789	80.001	19.993	103.126	20.053	2.980	0.485
1278.500	725.985	80.001	19.996	103.125	20.057	2.698	0.472
1279.000	726.251	80.004	19.992	103.126	20.056	2.779	0.459
1279.500	726.531	80.000	19.991	103.133	20.056	2.771	0.504
1280.000	726.759	79.996	20.002	103.139	20.055	2.823	0.527
1280.500	726.982	80.007	19.992	103.143	20.051	3.144	0.480
1281.000	727.245	80.003	19.995	103.144	20.053	3.001	0.468
1281.501	727.508	80.001	19.995	103.145	20.056	2.790	0.506
1282.001	727.760	80.001	19.996	103.143	20.054	2.937	0.521
1282.500	728.043	80.002	19.998	103.143	20.054	2.887	0.525
1283.001	728.252	80.003	19.997	103.144	20.056	2.738	0.513
1283.501	728.531	79.998	19.996	103.142	20.056	2.787	0.490
1284.000	728.813	80.009	19.992	103.141	20.060	2.512	0.525
1284.500	729.061	80.005	19.989	103.142	20.055	2.819	0.545
1285.001	729.278	80.002	19.996	103.143	20.056	2.748	0.497
1285.501	729.542	80.002	19.998	103.143	20.059	2.553	0.473
1286.001	729.785	80.000	19.996	103.143	20.056	2.798	0.494
1286.501	730.067	79.999	19.998	103.144	20.056	2.781	0.516
1287.000	730.299	80.002	19.999	103.142	20.057	2.698	0.520
1287.500	730.542	80.008	19.997	103.140	20.056	2.746	0.495
1288.000	730.835	80.000	19.992	103.140	20.059	2.539	0.505
1288.500	731.072	80.007	19.995	103.140	20.059	2.520	0.533
1289.000	731.349	80.002	19.996	103.140	20.057	2.705	0.522
1289.500	731.573	80.001	19.999	103.140	20.056	2.783	0.507
1290.000	731.845	80.005	19.990	103.138	20.057	2.694	0.498
1290.500	732.084	80.003	19.997	103.140	20.056	2.781	0.504
1291.000	732.343	80.006	19.998	103.140	20.057	2.711	0.505
1291.500	732.622	79.999	19.997	103.140	20.056	2.769	0.518
1292.000	732.877	80.002	19.995	103.138	20.059	2.532	0.536
1292.501	733.115	80.006	19.993	103.140	20.057	2.736	0.513
1293.001	733.339	80.002	19.994	103.137	20.056	2.769	0.478
1293.500	733.571	80.006	19.994	103.137	20.057	2.709	0.459
1294.000	733.855	79.998	20.000	103.138	20.056	2.769	0.486
1294.500	734.125	80.002	19.987	103.140	20.059	2.518	0.535
1295.000	734.368	80.005	19.990	103.143	20.055	2.813	0.533
1295.500	734.606	80.000	19.995	103.147	20.056	2.802	0.497
1296.000	734.868	79.996	19.999	103.148	20.058	2.636	0.491
1296.501	735.137	79.998	20.001	103.147	20.061	2.394	0.516
1297.001	735.328	79.996	20.001	103.147	20.057	2.665	0.496
1297.501	735.635	80.000	19.998	103.143	20.057	2.730	0.479
1298.001	735.885	80.006	19.994	103.141	20.054	2.925	0.527
1298.500	736.119	80.001	19.994	103.141	20.055	2.852	0.520
1299.000	736.408	79.993	19.998	103.142	20.052	3.049	0.503
1299.500	736.655	80.000	19.998	103.143	20.055	2.861	0.530
1300.000	736.909	79.999	19.995	103.145	20.058	2.653	0.519
1300.500	737.162	79.993	19.999	103.144	20.058	2.661	0.505
1301.000	737.472	80.000	19.992	103.143	20.056	2.749	0.535
1301.500	737.683	80.002	19.992	103.142	20.054	2.900	0.541
1302.001	737.906	79.997	19.999	103.143	20.057	2.668	0.477
1302.501	738.189	79.992	19.999	103.144	20.056	2.757	0.470
1303.000	738.490	79.999	19.991	103.145	20.057	2.724	0.545
1303.500	738.698	80.001	20.000	103.148	20.056	2.755	0.546
1304.000	738.961	80.004	19.994	103.149	20.056	2.786	0.490
1304.500	739.202	79.998	19.996	103.149	20.057	2.725	0.488
1305.000	739.441	79.997	19.994	103.148	20.056	2.782	0.492
1305.500	739.742	79.999	19.995	103.148	20.055	2.869	0.510
1306.000	739.965	80.000	19.994	103.148	20.059	2.562	0.532
1306.500	740.218	79.999	19.995	103.148	20.056	2.806	0.501
1307.001	740.493	79.999	19.995	103.148	20.056	2.752	0.502
1307.501	740.726	79.999	19.996	103.149	20.054	2.933	0.518
1308.000	740.975	79.998	19.996	103.151	20.053	2.982	0.495
1308.500	741.249	79.996	20.001	103.157	20.056	2.765	0.502
1309.001	741.480	80.001	19.993	103.157	20.050	3.186	0.514
1309.501	741.772	79.999	19.994	103.160	20.057	2.698	0.514
1310.001	742.009	80.001	19.996	103.160	20.051	3.169	0.526
1310.501	742.263	80.001	19.997	103.160	20.055	2.864	0.510
1311.000	742.500	80.000	19.995	103.156	20.055	2.885	0.491
1311.500	742.762	80.007	19.990	103.157	20.054	2.900	0.495
1312.000	743.056	79.999	19.986	103.157	20.052	3.080	0.527
1312.501	743.297	80.002	19.986	103.159	20.055	2.856	0.545
1313.001	743.470	79.994	19.998	103.157	20.053	2.974	0.474
1313.501	743.733	80.001	19.992	103.155	20.058	2.605	0.425
