Sample ID:	C:\MCC\MCC Cal\Test\Coaxial_Cable_MCC_30K_min_220113_R2.txt
Sample Weight (mg):	4.35
Heating Rate (C/s):	0.5
Combustor Temp (C):	900
N2 Flow Rate (cc/min):	80
O2 Flow Rate (cc/min):	20
Calibration File:	C:\MCC\MCC Cal\Coeff1 JN10440_30_210304.txt.txt
T Correction Coefficients:	0	1.024463	0
Time Shift (s):	14
*
Time (s)	Temperature (C)	N2 flow rate (cc/min)	O2 flow rate (cc/min)	Flow Rate (cc/min)	Oxygen (%)	HRR (W/g)	Heating rate (C/s)
0.000	110.942	80.015	19.995	104.373	20.103	-0.178	0.022
0.500	110.912	80.013	19.995	104.376	20.102	-0.062	0.028
1.000	110.890	80.013	19.994	104.376	20.100	0.037	-0.015
1.501	110.902	80.013	19.994	104.374	20.101	-0.050	-0.031
2.000	110.949	80.013	19.994	104.374	20.100	0.027	0.024
2.500	110.926	80.012	19.994	104.373	20.101	-0.033	0.041
3.000	110.921	80.012	19.993	104.370	20.105	-0.347	-0.002
3.500	110.913	80.012	19.993	104.369	20.102	-0.129	-0.020
4.000	110.880	80.011	19.992	104.370	20.101	0.000	-0.027
4.501	110.930	80.011	19.993	104.370	20.102	-0.112	-0.012
5.000	110.906	80.011	19.993	104.370	20.101	-0.060	0.021
5.500	110.917	80.012	19.994	104.370	20.098	0.214	0.006
6.000	110.930	80.012	19.993	104.370	20.099	0.102	0.005
6.501	110.922	80.011	19.993	104.376	20.100	0.050	0.014
7.001	110.899	80.012	19.994	104.381	20.101	-0.031	-0.013
7.501	110.904	80.011	19.994	104.383	20.100	0.048	-0.024
8.000	110.888	80.011	19.993	104.385	20.097	0.260	-0.015
8.500	110.898	80.012	19.994	104.391	20.101	-0.008	-0.009
9.000	110.929	80.010	19.993	104.392	20.099	0.131	0.018
9.501	110.918	80.011	19.994	104.395	20.101	-0.008	0.031
10.001	110.939	80.011	19.994	104.400	20.097	0.253	0.015
10.500	110.923	80.012	19.993	104.406	20.101	-0.015	0.008
11.000	110.942	80.011	19.994	104.408	20.096	0.384	0.004
11.500	110.919	80.012	19.994	104.410	20.095	0.393	-0.001
12.000	110.926	80.011	19.993	104.410	20.097	0.309	-0.010
12.500	110.919	80.010	19.993	104.409	20.094	0.476	-0.008
13.001	110.967	80.010	19.995	104.413	20.091	0.708	0.021
13.500	110.971	80.012	19.993	104.420	20.092	0.688	0.047
14.000	110.927	80.011	19.993	104.430	20.090	0.785	0.006
14.500	110.962	80.011	19.994	104.442	20.088	0.922	-0.024
15.000	110.927	80.009	19.995	104.455	20.089	0.864	-0.004
15.500	110.942	80.010	19.994	104.464	20.089	0.908	-0.010
16.001	111.009	80.011	19.992	104.472	20.088	0.985	0.031
16.501	111.018	80.011	19.993	104.478	20.088	0.972	0.079
17.000	111.008	80.012	19.993	104.481	20.084	1.272	0.038
17.500	111.053	80.012	19.993	104.484	20.086	1.068	0.017
18.000	111.069	80.012	19.994	104.485	20.084	1.261	0.048
18.500	111.076	80.011	19.993	104.480	20.080	1.581	0.042
19.000	111.096	80.011	19.994	104.477	20.084	1.241	0.025
19.500	111.119	80.011	19.994	104.477	20.083	1.361	0.035
20.000	111.124	80.012	19.991	104.478	20.080	1.531	0.035
20.500	111.144	80.011	19.993	104.482	20.080	1.529	0.026
21.000	111.239	80.011	19.994	104.494	20.077	1.800	0.070
21.500	111.194	80.011	19.994	104.505	20.075	1.906	0.083
22.000	111.258	80.011	19.993	104.514	20.074	2.026	0.035
22.500	111.259	80.011	19.993	104.522	20.075	1.962	0.042
23.000	111.311	80.012	19.993	104.530	20.073	2.111	0.059
23.500	111.317	80.011	19.993	104.535	20.076	1.839	0.055
24.001	111.375	80.010	19.993	104.538	20.074	1.983	0.061
24.500	111.393	80.011	19.994	104.545	20.069	2.354	0.070
25.000	111.462	80.011	19.993	104.552	20.071	2.230	0.081
25.500	111.468	80.012	19.993	104.558	20.071	2.193	0.081
26.000	111.536	80.011	19.993	104.562	20.068	2.442	0.074
26.500	111.573	80.012	19.993	104.567	20.071	2.197	0.090
27.000	111.626	80.011	19.992	104.568	20.067	2.523	0.098
27.500	111.632	80.011	19.993	104.568	20.068	2.429	0.074
28.000	111.703	80.011	19.993	104.568	20.066	2.612	0.068
28.500	111.769	80.011	19.992	104.567	20.067	2.550	0.107
29.000	111.822	80.011	19.993	104.567	20.067	2.529	0.128
29.500	111.870	80.011	19.992	104.568	20.063	2.818	0.110
30.000	111.934	80.011	19.994	104.572	20.067	2.556	0.106
30.500	111.998	80.010	19.993	104.575	20.066	2.604	0.120
31.000	112.081	80.011	19.994	104.575	20.062	2.893	0.138
31.500	112.128	80.010	19.993	104.578	20.063	2.860	0.138
32.001	112.171	80.011	19.993	104.581	20.063	2.825	0.110
32.501	112.271	80.011	19.993	104.586	20.063	2.864	0.116
33.000	112.320	80.010	19.993	104.587	20.066	2.633	0.146
33.500	112.419	80.011	19.992	104.588	20.062	2.866	0.149
34.000	112.492	80.010	19.993	104.586	20.065	2.667	0.160
34.501	112.576	80.011	19.993	104.584	20.064	2.739	0.164
35.001	112.626	80.011	19.993	104.582	20.065	2.708	0.146
35.501	112.696	80.012	19.993	104.582	20.068	2.488	0.128
36.001	112.804	80.010	19.993	104.583	20.061	2.987	0.149
36.501	112.885	80.009	19.993	104.589	20.061	2.950	0.183
37.000	112.977	80.010	19.994	104.590	20.061	2.973	0.181
37.501	113.066	80.011	19.993	104.584	20.061	2.985	0.177
38.001	113.121	80.011	19.994	104.581	20.062	2.887	0.163
38.501	113.183	80.009	19.993	104.579	20.061	3.010	0.130
39.001	113.302	80.011	19.994	104.573	20.063	2.811	0.149
39.501	113.409	80.009	19.994	104.570	20.064	2.771	0.204
40.001	113.454	80.011	19.994	104.577	20.063	2.863	0.189
40.501	113.577	80.010	19.993	104.584	20.061	3.015	0.160
41.001	113.670	80.011	19.993	104.591	20.059	3.152	0.192
41.501	113.782	80.010	19.994	104.598	20.062	2.879	0.211
42.001	113.889	80.011	19.993	104.602	20.059	3.119	0.212
42.501	114.030	80.010	19.994	104.601	20.061	2.988	0.233
43.001	114.092	80.010	19.994	104.601	20.057	3.287	0.225
43.501	114.223	80.011	19.994	104.602	20.059	3.131	0.198
44.000	114.284	80.010	19.994	104.602	20.057	3.298	0.193
44.500	114.411	80.010	19.993	104.605	20.058	3.173	0.190
45.000	114.530	80.011	19.993	104.605	20.057	3.277	0.217
45.501	114.610	80.011	19.993	104.603	20.057	3.292	0.223
46.001	114.755	80.010	19.993	104.603	20.056	3.329	0.212
46.500	114.851	80.012	19.993	104.604	20.057	3.248	0.233
47.000	114.979	80.011	19.994	104.606	20.056	3.323	0.232
47.501	115.084	80.010	19.994	104.610	20.053	3.593	0.228
48.001	115.179	80.012	19.994	104.612	20.056	3.337	0.217
48.501	115.324	80.011	19.994	104.615	20.057	3.293	0.220
49.001	115.459	80.012	19.993	104.615	20.056	3.331	0.260
49.501	115.584	80.012	19.994	104.618	20.055	3.454	0.270
50.001	115.673	80.012	19.993	104.620	20.058	3.237	0.237
50.501	115.816	80.011	19.994	104.623	20.055	3.441	0.223
51.000	115.946	80.013	19.993	104.622	20.053	3.543	0.253
51.501	116.048	80.014	19.993	104.627	20.053	3.555	0.252
52.001	116.178	80.012	19.994	104.629	20.052	3.641	0.232
52.501	116.305	80.012	19.993	104.630	20.052	3.676	0.245
53.000	116.447	80.013	19.994	104.632	20.052	3.634	0.263
53.501	116.604	80.013	19.993	104.636	20.052	3.670	0.283
54.001	116.717	80.012	19.994	104.636	20.052	3.655	0.284
54.500	116.868	80.012	19.994	104.637	20.051	3.699	0.268
55.000	117.029	80.013	19.994	104.639	20.049	3.857	0.288
55.500	117.151	80.013	19.993	104.640	20.050	3.838	0.297
56.001	117.288	80.013	19.993	104.641	20.048	3.928	0.271
56.501	117.411	80.013	19.993	104.642	20.050	3.813	0.259
57.001	117.562	80.011	19.993	104.642	20.055	3.462	0.267
57.501	117.707	80.012	19.994	104.640	20.051	3.710	0.285
58.001	117.862	80.012	19.993	104.639	20.051	3.732	0.298
58.501	117.999	80.012	19.993	104.639	20.053	3.543	0.296
59.001	118.127	80.012	19.994	104.639	20.050	3.795	0.279
59.501	118.288	80.012	19.993	104.639	20.052	3.672	0.277
60.001	118.443	80.013	19.994	104.640	20.051	3.751	0.302
60.501	118.594	80.013	19.993	104.641	20.047	4.007	0.311
61.001	118.737	80.012	19.993	104.639	20.051	3.757	0.300
61.501	118.882	80.012	19.993	104.639	20.049	3.855	0.291
62.000	119.028	80.011	19.994	104.638	20.049	3.855	0.290
62.500	119.231	80.013	19.993	104.638	20.048	3.986	0.320
63.001	119.372	80.013	19.994	104.635	20.048	3.949	0.347
63.501	119.516	80.011	19.994	104.636	20.049	3.853	0.315
64.001	119.729	80.011	19.994	104.637	20.051	3.726	0.321
64.501	119.847	80.011	19.993	104.637	20.051	3.737	0.344
65.001	120.022	80.011	19.994	104.638	20.050	3.826	0.312
65.501	120.196	80.011	19.994	104.641	20.052	3.653	0.321
66.001	120.339	80.011	19.993	104.642	20.049	3.849	0.333
66.501	120.506	80.011	19.995	104.642	20.047	3.992	0.314
67.000	120.680	80.012	19.994	104.642	20.050	3.826	0.326
67.501	120.856	80.010	19.994	104.642	20.048	3.988	0.345
68.001	121.026	80.011	19.994	104.643	20.047	3.996	0.348
68.500	121.198	80.012	19.994	104.644	20.047	4.003	0.344
69.001	121.376	80.012	19.994	104.645	20.046	4.086	0.346
69.501	121.555	80.012	19.994	104.644	20.050	3.815	0.354
70.000	121.704	80.012	19.995	104.642	20.050	3.822	0.343
70.501	121.897	80.012	19.994	104.641	20.049	3.853	0.335
71.001	122.071	80.012	19.994	104.641	20.047	4.030	0.354
71.501	122.271	80.011	19.996	104.640	20.047	4.011	0.371
72.001	122.431	80.013	19.994	104.641	20.049	3.869	0.367
72.500	122.686	80.011	19.993	104.642	20.047	3.998	0.387
73.001	122.794	80.012	19.996	104.642	20.047	4.026	0.389
73.501	122.963	80.012	19.995	104.646	20.049	3.890	0.320
74.001	123.172	80.012	19.995	104.646	20.047	4.007	0.327
74.501	123.397	80.013	19.997	104.645	20.049	3.853	0.406
75.001	123.563	80.012	19.994	104.646	20.049	3.882	0.412
75.500	123.744	80.013	19.995	104.644	20.047	4.046	0.369
76.001	123.926	80.012	19.995	104.641	20.047	4.003	0.356
76.501	124.091	80.013	19.994	104.640	20.045	4.202	0.355
77.001	124.289	80.013	19.994	104.640	20.050	3.770	0.355
77.501	124.501	80.012	19.995	104.640	20.048	3.924	0.387
78.001	124.687	80.014	19.994	104.640	20.049	3.907	0.404
78.501	124.881	80.014	19.995	104.640	20.047	4.011	0.389
79.001	125.078	80.014	19.993	104.640	20.049	3.891	0.386
79.500	125.272	80.013	19.994	104.640	20.047	4.051	0.391
80.000	125.499	80.013	19.994	104.640	20.049	3.893	0.406
80.500	125.661	80.012	19.994	104.640	20.048	3.965	0.405
81.000	125.865	80.012	19.994	104.639	20.048	3.957	0.378
81.500	126.033	80.012	19.995	104.640	20.047	4.042	0.369
82.001	126.282	80.013	19.995	104.640	20.046	4.098	0.394
82.501	126.454	80.013	19.994	104.640	20.046	4.071	0.419
83.000	126.674	80.012	19.994	104.640	20.043	4.304	0.406
83.500	126.855	80.012	19.994	104.642	20.048	3.934	0.397
84.001	127.022	80.012	19.994	104.643	20.047	3.997	0.375
84.501	127.246	80.013	19.993	104.644	20.050	3.791	0.369
85.000	127.467	80.011	19.993	104.645	20.045	4.182	0.418
85.501	127.664	80.012	19.994	104.646	20.050	3.822	0.432
86.001	127.827	80.010	19.994	104.645	20.047	4.042	0.389
86.500	128.073	80.010	19.994	104.645	20.047	4.013	0.384
87.001	128.280	80.011	19.993	104.644	20.044	4.254	0.431
87.501	128.511	80.011	19.993	104.646	20.046	4.115	0.446
88.001	128.674	80.011	19.993	104.647	20.044	4.263	0.416
88.500	128.911	80.010	19.993	104.647	20.043	4.307	0.397
89.001	129.134	80.011	19.994	104.648	20.047	4.040	0.430
89.501	129.314	80.010	19.994	104.650	20.045	4.190	0.431
90.001	129.532	80.011	19.992	104.650	20.046	4.126	0.400
90.500	129.762	80.011	19.993	104.650	20.046	4.132	0.423
91.000	129.961	80.012	19.993	104.649	20.041	4.483	0.439
91.500	130.166	80.011	19.994	104.649	20.045	4.151	0.417
92.001	130.397	80.010	19.993	104.647	20.047	4.049	0.420
92.501	130.616	80.010	19.993	104.647	20.044	4.265	0.442
93.001	130.809	80.010	19.993	104.646	20.045	4.186	0.431
93.501	131.052	80.010	19.992	104.646	20.042	4.431	0.424
94.001	131.267	80.010	19.994	104.646	20.041	4.483	0.447
94.501	131.452	80.011	19.994	104.647	20.042	4.413	0.429
95.000	131.703	80.011	19.993	104.648	20.040	4.583	0.419
95.500	131.907	80.011	19.994	104.648	20.046	4.119	0.445
96.000	132.147	80.009	19.993	104.648	20.041	4.460	0.449
96.500	132.360	80.011	19.993	104.648	20.044	4.261	0.449
97.001	132.571	80.011	19.993	104.647	20.044	4.286	0.439
97.501	132.783	80.010	19.993	104.647	20.044	4.267	0.423
98.001	133.013	80.011	19.994	104.648	20.045	4.152	0.432
98.501	133.256	80.010	19.995	104.648	20.043	4.350	0.457
99.001	133.463	80.011	19.994	104.649	20.044	4.225	0.462
99.501	133.688	80.010	19.993	104.649	20.043	4.354	0.441
100.000	133.910	80.010	19.993	104.649	20.046	4.130	0.440
100.501	134.167	80.010	19.993	104.649	20.043	4.338	0.463
101.001	134.336	80.011	19.994	104.648	20.044	4.279	0.452
101.501	134.572	80.009	19.993	104.647	20.043	4.323	0.415
102.000	134.809	80.010	19.993	104.648	20.042	4.435	0.440
102.500	135.048	80.009	19.993	104.648	20.040	4.533	0.475
103.000	135.270	80.009	19.992	104.649	20.042	4.400	0.468
103.501	135.510	80.010	19.994	104.649	20.042	4.417	0.461
104.001	135.741	80.010	19.994	104.652	20.043	4.329	0.466
104.501	135.966	80.011	19.994	104.651	20.040	4.577	0.463
105.000	136.180	80.010	19.993	104.651	20.039	4.600	0.447
105.500	136.423	80.009	19.993	104.650	20.041	4.485	0.448
106.001	136.651	80.009	19.992	104.651	20.042	4.387	0.464
106.501	136.914	80.010	19.993	104.649	20.043	4.342	0.481
107.000	137.116	80.011	19.994	104.649	20.042	4.406	0.478
107.501	137.344	80.010	19.993	104.648	20.040	4.554	0.447
108.001	137.578	80.010	19.993	104.647	20.042	4.379	0.446
108.501	137.801	80.010	19.994	104.646	20.040	4.564	0.459
109.001	138.072	80.011	19.993	104.646	20.044	4.225	0.475
109.501	138.312	80.009	19.993	104.646	20.045	4.169	0.503
110.001	138.534	80.009	19.992	104.646	20.042	4.410	0.486
110.501	138.792	80.009	19.993	104.646	20.047	4.050	0.471
111.000	139.001	80.010	19.994	104.646	20.045	4.206	0.474
111.500	139.245	80.011	19.993	104.647	20.043	4.312	0.460
112.001	139.471	80.011	19.993	104.647	20.042	4.371	0.461
112.501	139.727	80.009	19.993	104.647	20.045	4.198	0.476
113.000	139.970	80.010	19.993	104.647	20.041	4.458	0.490
113.500	140.187	80.011	19.993	104.647	20.041	4.462	0.480
114.001	140.460	80.010	19.992	104.647	20.041	4.460	0.475
114.501	140.649	80.010	19.993	104.646	20.041	4.469	0.476
115.000	140.912	80.009	19.993	104.647	20.041	4.452	0.457
115.500	141.187	80.010	19.993	104.646	20.041	4.462	0.496
116.000	141.416	80.010	19.993	104.647	20.042	4.402	0.521
116.500	141.619	80.010	19.994	104.647	20.044	4.259	0.468
117.000	141.891	80.010	19.993	104.647	20.043	4.300	0.453
117.500	142.105	80.011	19.992	104.646	20.044	4.244	0.480
118.000	142.350	80.010	19.993	104.646	20.042	4.408	0.472
118.500	142.601	80.011	19.993	104.646	20.041	4.450	0.478
119.001	142.809	80.010	19.993	104.646	20.042	4.381	0.478
119.501	143.104	80.011	19.993	104.646	20.041	4.460	0.481
120.001	143.314	80.011	19.993	104.645	20.044	4.288	0.504
120.501	143.562	80.012	19.992	104.645	20.043	4.323	0.481
121.001	143.829	80.011	19.993	104.645	20.043	4.306	0.486
121.501	144.059	80.011	19.993	104.643	20.043	4.317	0.506
122.001	144.324	80.011	19.992	104.643	20.044	4.221	0.496
122.500	144.593	80.010	19.993	104.643	20.043	4.302	0.514
123.000	144.831	80.011	19.993	104.643	20.043	4.302	0.521
123.500	145.084	80.010	19.994	104.643	20.042	4.385	0.500
124.000	145.331	80.011	19.993	104.645	20.043	4.341	0.495
124.500	145.567	80.012	19.994	104.646	20.043	4.314	0.491
125.000	145.823	80.011	19.992	104.646	20.043	4.348	0.488
125.501	146.068	80.011	19.993	104.646	20.044	4.258	0.497
126.001	146.323	80.010	19.993	104.647	20.044	4.269	0.501
126.501	146.561	80.011	19.994	104.646	20.040	4.535	0.497
127.001	146.798	80.011	19.993	104.646	20.041	4.464	0.484
127.501	147.066	80.011	19.993	104.646	20.041	4.516	0.490
128.001	147.309	80.011	19.993	104.645	20.041	4.472	0.507
128.500	147.570	80.011	19.994	104.645	20.041	4.453	0.508
129.001	147.797	80.011	19.994	104.645	20.046	4.114	0.496
129.502	148.028	80.012	19.993	104.644	20.044	4.223	0.473
130.001	148.290	80.012	19.994	104.643	20.041	4.470	0.476
130.500	148.525	80.012	19.992	104.643	20.041	4.474	0.495
131.001	148.804	80.012	19.993	104.643	20.043	4.341	0.505
131.501	149.048	80.011	19.995	104.643	20.043	4.364	0.519
132.001	149.315	80.012	19.994	104.643	20.044	4.266	0.517
132.500	149.568	80.010	19.993	104.641	20.042	4.403	0.515
133.001	149.814	80.012	19.995	104.640	20.042	4.378	0.509
133.501	150.057	80.012	19.994	104.640	20.041	4.461	0.494
134.001	150.307	80.011	19.995	104.639	20.042	4.391	0.492
134.500	150.566	80.012	19.994	104.639	20.043	4.331	0.501
135.000	150.814	80.011	19.993	104.640	20.043	4.327	0.508
135.501	151.074	80.013	19.994	104.641	20.044	4.235	0.507
136.001	151.297	80.014	19.994	104.641	20.041	4.478	0.496
136.500	151.521	80.012	19.994	104.641	20.040	4.536	0.465
137.000	151.829	80.012	19.994	104.641	20.044	4.282	0.490
137.501	152.048	80.013	19.994	104.640	20.042	4.374	0.530
138.001	152.307	80.012	19.994	104.636	20.045	4.214	0.502
138.501	152.570	80.013	19.994	104.632	20.040	4.584	0.500
139.001	152.822	80.013	19.993	104.630	20.040	4.573	0.518
139.500	153.074	80.013	19.994	104.630	20.044	4.285	0.510
140.001	153.238	80.013	19.993	104.630	20.044	4.277	0.461
140.501	153.539	80.012	19.993	104.634	20.040	4.518	0.441
141.001	153.763	80.012	19.993	104.638	20.043	4.335	0.495
141.501	154.056	80.011	19.994	104.637	20.043	4.302	0.520
142.001	154.296	80.010	19.994	104.637	20.042	4.385	0.525
142.500	154.560	80.013	19.993	104.635	20.040	4.580	0.519
143.000	154.785	80.012	19.994	104.627	20.042	4.400	0.496
143.500	155.029	80.011	19.994	104.623	20.043	4.314	0.479
144.000	155.291	80.012	19.994	104.624	20.044	4.242	0.488
144.500	155.540	80.011	19.993	104.621	20.041	4.470	0.509
145.001	155.762	80.011	19.994	104.622	20.042	4.385	0.491
145.501	156.010	80.012	19.994	104.628	20.043	4.349	0.470
146.001	156.283	80.011	19.993	104.630	20.040	4.563	0.496
146.501	156.537	80.013	19.994	104.627	20.042	4.434	0.524
147.000	156.790	80.012	19.993	104.628	20.040	4.548	0.516
147.500	157.030	80.013	19.994	104.627	20.042	4.384	0.500
148.000	157.275	80.012	19.993	104.621	20.043	4.315	0.489
148.500	157.560	80.012	19.992	104.620	20.042	4.436	0.507
149.000	157.817	80.011	19.993	104.622	20.041	4.509	0.536
149.501	158.028	80.013	19.993	104.620	20.043	4.357	0.505
150.001	158.287	80.013	19.993	104.620	20.042	4.405	0.469
150.501	158.564	80.013	19.994	104.625	20.044	4.234	0.503
151.000	158.815	80.011	19.995	104.628	20.043	4.363	0.532
151.501	159.045	80.013	19.993	104.631	20.043	4.301	0.505
152.001	159.334	80.013	19.994	104.634	20.046	4.133	0.500
152.501	159.544	80.012	19.992	104.636	20.041	4.453	0.509
153.001	159.790	80.012	19.992	104.638	20.042	4.367	0.478
153.501	160.045	80.012	19.994	104.637	20.041	4.455	0.479
154.001	160.321	80.013	19.994	104.637	20.043	4.344	0.516
154.501	160.559	80.013	19.994	104.638	20.041	4.473	0.522
155.001	160.833	80.014	19.993	104.639	20.045	4.205	0.513
155.501	161.116	80.013	19.992	104.635	20.042	4.440	0.535
156.001	161.338	80.013	19.994	104.629	20.040	4.546	0.531
156.500	161.602	80.014	19.993	104.624	20.043	4.321	0.496
157.000	161.855	80.014	19.994	104.618	20.043	4.292	0.502
157.500	162.086	80.013	19.992	104.615	20.042	4.430	0.500
158.000	162.340	80.013	19.993	104.613	20.041	4.507	0.484
158.501	162.592	80.014	19.993	104.613	20.041	4.476	0.495
159.001	162.839	80.013	19.994	104.614	20.039	4.602	0.502
159.501	163.099	80.014	19.993	104.616	20.044	4.255	0.503
160.001	163.351	80.013	19.993	104.618	20.043	4.347	0.510
160.501	163.583	80.014	19.994	104.618	20.042	4.382	0.498
161.000	163.860	80.013	19.993	104.619	20.042	4.423	0.496
161.500	164.082	80.014	19.993	104.616	20.039	4.598	0.504
162.001	164.335	80.014	19.993	104.617	20.042	4.432	0.487
162.501	164.628	80.016	19.993	104.617	20.043	4.317	0.510
163.001	164.873	80.014	19.994	104.616	20.043	4.323	0.542
163.501	165.146	80.013	19.993	104.616	20.039	4.662	0.528
164.001	165.353	80.013	19.994	104.615	20.040	4.559	0.499
164.501	165.639	80.013	19.994	104.610	20.040	4.544	0.486
165.001	165.860	80.013	19.993	104.606	20.041	4.494	0.500
165.501	166.132	80.013	19.993	104.606	20.040	4.554	0.500
166.000	166.420	80.013	19.993	104.605	20.040	4.571	0.527
166.500	166.675	80.012	19.993	104.606	20.040	4.534	0.551
167.001	166.932	80.011	19.994	104.605	20.038	4.694	0.527
167.501	167.165	80.011	19.994	104.606	20.036	4.845	0.501
168.000	167.397	80.011	19.993	104.607	20.038	4.679	0.477
168.500	167.648	80.010	19.994	104.611	20.040	4.529	0.474
169.001	167.913	80.010	19.993	104.616	20.036	4.878	0.500
169.501	168.147	80.010	19.994	104.617	20.037	4.808	0.508
170.000	168.410	80.009	19.995	104.618	20.040	4.565	0.498
170.500	168.672	80.010	19.994	104.616	20.038	4.708	0.511
171.001	168.913	80.011	19.994	104.613	20.038	4.681	0.514
171.502	169.176	80.010	19.994	104.609	20.040	4.517	0.504
172.001	169.384	80.010	19.995	104.608	20.035	4.901	0.487
172.500	169.622	80.009	19.995	104.606	20.039	4.641	0.458
173.000	169.910	80.010	19.994	104.607	20.039	4.621	0.486
173.501	170.143	80.010	19.994	104.606	20.038	4.693	0.523
174.001	170.392	80.011	19.994	104.607	20.035	4.939	0.501
174.501	170.644	80.009	19.994	104.610	20.039	4.619	0.492
175.001	170.927	80.011	19.992	104.613	20.038	4.708	0.518
175.501	171.136	80.009	19.994	104.612	20.037	4.747	0.513
176.000	171.364	80.009	19.994	104.613	20.039	4.660	0.464
176.500	171.630	80.010	19.993	104.613	20.038	4.726	0.465
177.000	171.885	80.010	19.993	104.611	20.035	4.899	0.508
177.500	172.156	80.011	19.992	104.609	20.038	4.691	0.524
178.000	172.377	80.010	19.993	104.610	20.038	4.687	0.509
178.501	172.638	80.010	19.993	104.609	20.037	4.789	0.487
179.001	172.920	80.010	19.993	104.609	20.038	4.733	0.512
179.501	173.160	80.011	19.993	104.608	20.042	4.417	0.532
180.001	173.388	80.011	19.993	104.607	20.037	4.783	0.495
180.501	173.660	80.011	19.993	104.607	20.034	4.974	0.484
181.000	173.919	80.012	19.994	104.607	20.035	4.905	0.516
181.501	174.127	80.011	19.993	104.606	20.036	4.885	0.499
182.001	174.382	80.011	19.993	104.606	20.037	4.756	0.465
182.501	174.622	80.011	19.994	104.606	20.036	4.833	0.479
183.001	174.899	80.012	19.993	104.606	20.037	4.801	0.506
183.501	175.128	80.012	19.993	104.606	20.039	4.594	0.512
184.000	175.400	80.012	19.993	104.606	20.036	4.887	0.504
184.501	175.621	80.010	19.992	104.606	20.037	4.756	0.497
185.001	175.889	80.011	19.992	104.605	20.032	5.119	0.490
185.501	176.105	80.012	19.993	104.605	20.036	4.835	0.486
186.001	176.347	80.010	19.992	104.602	20.035	4.903	0.471
186.501	176.621	80.011	19.992	104.600	20.035	4.959	0.488
187.001	176.861	80.011	19.993	104.598	20.034	4.986	0.515
187.500	177.089	80.010	19.993	104.599	20.033	5.049	0.490
188.000	177.328	80.012	19.994	104.599	20.033	5.101	0.467
188.500	177.575	80.011	19.993	104.602	20.028	5.440	0.477
189.000	177.838	80.012	19.992	104.603	20.031	5.250	0.498
189.500	178.125	80.011	19.993	104.604	20.031	5.200	0.530
190.000	178.363	80.012	19.992	104.604	20.033	5.053	0.537
190.501	178.626	80.012	19.993	104.603	20.032	5.148	0.513
191.001	178.867	80.012	19.994	104.604	20.029	5.391	0.502
191.501	179.129	80.011	19.992	104.604	20.032	5.146	0.504
192.001	179.360	80.012	19.993	104.604	20.033	5.115	0.499
192.500	179.600	80.011	19.991	104.604	20.030	5.279	0.482
193.000	179.831	80.011	19.995	104.604	20.031	5.238	0.471
193.501	180.090	80.011	19.994	104.604	20.030	5.285	0.480
194.001	180.374	80.012	19.993	104.604	20.030	5.302	0.516
194.501	180.593	80.010	19.993	104.604	20.034	5.015	0.523
195.000	180.804	80.011	19.993	104.605	20.031	5.200	0.467
195.500	181.057	80.012	19.993	104.605	20.030	5.296	0.447
196.001	181.296	80.012	19.994	104.605	20.029	5.377	0.478
196.501	181.555	80.011	19.993	104.604	20.030	5.339	0.495
197.001	181.821	80.011	19.993	104.604	20.030	5.283	0.511
197.501	182.072	80.011	19.993	104.603	20.031	5.198	0.521
198.000	182.324	80.011	19.994	104.603	20.028	5.476	0.510
198.500	182.546	80.010	19.994	104.604	20.030	5.266	0.488
199.000	182.786	80.011	19.992	104.604	20.028	5.476	0.468
199.501	183.026	80.012	19.993	104.604	20.026	5.620	0.471
200.001	183.285	80.011	19.993	104.604	20.027	5.505	0.490
200.501	183.538	80.011	19.992	104.604	20.027	5.549	0.506
201.000	183.752	80.011	19.993	104.601	20.025	5.663	0.490
201.500	184.025	80.011	19.993	104.600	20.026	5.595	0.477
202.001	184.213	80.011	19.993	104.600	20.024	5.736	0.474
202.501	184.499	80.012	19.994	104.599	20.025	5.649	0.467
203.000	184.748	80.011	19.994	104.599	20.022	5.930	0.504
203.500	184.992	80.014	19.994	104.600	20.024	5.755	0.514
204.000	185.228	80.010	19.994	104.600	20.023	5.824	0.486
204.500	185.494	80.012	19.993	104.599	20.023	5.820	0.491
205.000	185.721	80.010	19.993	104.598	20.024	5.718	0.498
205.501	186.019	80.010	19.993	104.595	20.025	5.668	0.509
206.001	186.258	80.011	19.994	104.595	20.022	5.932	0.531
206.501	186.460	80.012	19.993	104.596	20.023	5.817	0.490
207.000	186.722	80.011	19.994	104.596	20.024	5.767	0.453
207.501	187.030	80.010	19.994	104.595	20.022	5.877	0.517
208.001	187.245	80.011	19.994	104.599	20.025	5.696	0.547
208.501	187.477	80.011	19.994	104.599	20.018	6.206	0.485
209.001	187.720	80.011	19.993	104.594	20.022	5.917	0.461
209.501	187.955	80.011	19.994	104.590	20.022	5.872	0.477
210.000	188.234	80.012	19.993	104.590	20.020	6.061	0.496
210.501	188.457	80.012	19.994	104.589	20.017	6.269	0.508
211.001	188.684	80.012	19.994	104.589	20.023	5.845	0.476
211.500	188.944	80.013	19.994	104.590	20.017	6.242	0.468
212.000	189.193	80.013	19.994	104.594	20.020	6.040	0.498
212.500	189.410	80.012	19.992	104.595	20.019	6.121	0.488
213.000	189.669	80.013	19.992	104.594	20.021	5.971	0.471
213.500	189.875	80.013	19.993	104.593	20.022	5.917	0.470
214.000	190.141	80.013	19.993	104.597	20.020	6.087	0.468
214.501	190.382	80.014	19.993	104.596	20.020	6.025	0.489
215.001	190.608	80.014	19.993	104.595	20.017	6.289	0.487
215.501	190.838	80.012	19.993	104.598	20.020	6.079	0.462
216.001	191.063	80.013	19.992	104.597	20.017	6.242	0.456
216.501	191.326	80.017	19.993	104.596	20.020	6.032	0.472
217.001	191.535	80.013	19.994	104.595	20.015	6.398	0.480
217.501	191.827	80.014	19.993	104.594	20.013	6.545	0.486
218.001	192.076	80.014	19.993	104.588	20.018	6.229	0.520
218.501	192.316	80.013	19.992	104.589	20.014	6.512	0.515
219.000	192.528	80.011	19.993	104.588	20.013	6.555	0.471
219.500	192.773	80.014	19.992	104.591	20.013	6.541	0.455
220.000	192.998	80.013	19.992	104.594	20.012	6.659	0.463
220.500	193.270	80.011	19.992	104.598	20.012	6.674	0.483
221.000	193.500	80.013	19.993	104.600	20.012	6.659	0.500
221.500	193.759	80.013	19.993	104.600	20.014	6.516	0.496
222.000	193.989	80.013	19.992	104.598	20.015	6.439	0.489
222.501	194.233	80.012	19.992	104.600	20.012	6.619	0.481
223.001	194.517	80.013	19.993	104.600	20.013	6.554	0.501
223.501	194.757	80.012	19.992	104.599	20.014	6.512	0.526
224.001	194.989	80.012	19.993	104.601	20.014	6.496	0.498
224.501	195.218	80.012	19.992	104.597	20.014	6.538	0.467
225.001	195.427	80.012	19.993	104.594	20.011	6.708	0.450
225.501	195.696	80.013	19.993	104.596	20.010	6.777	0.458
226.000	195.955	80.012	19.992	104.598	20.009	6.849	0.503
226.500	196.156	80.013	19.992	104.597	20.006	7.074	0.495
227.001	196.425	80.012	19.993	104.603	20.008	6.955	0.465
227.501	196.659	80.011	19.993	104.605	20.006	7.071	0.486
228.001	196.925	80.013	19.993	104.603	20.005	7.194	0.501
228.501	197.138	80.012	19.994	104.602	20.007	7.030	0.489
229.001	197.398	80.011	19.993	104.603	20.006	7.105	0.476
229.501	197.617	80.014	19.993	104.601	20.006	7.085	0.476
230.001	197.850	80.012	19.993	104.599	20.003	7.314	0.466
230.501	198.118	80.012	19.993	104.599	20.005	7.210	0.476
231.001	198.328	80.012	19.994	104.600	20.005	7.195	0.489
231.501	198.588	80.012	19.993	104.600	20.006	7.127	0.474
232.000	198.831	80.011	19.994	104.602	20.003	7.295	0.486
232.500	199.069	80.011	19.994	104.597	20.002	7.407	0.492
233.001	199.313	80.012	19.994	104.592	19.999	7.604	0.481
233.501	199.536	80.013	19.994	104.585	20.000	7.544	0.474
234.001	199.813	80.012	19.994	104.579	20.002	7.434	0.484
234.501	200.017	80.013	19.993	104.574	19.999	7.606	0.491
235.000	200.259	80.013	19.993	104.575	20.002	7.384	0.463
235.500	200.516	80.012	19.993	104.581	19.998	7.724	0.473
236.001	200.753	80.012	19.993	104.583	19.999	7.638	0.497
236.501	200.980	80.014	19.993	104.581	19.996	7.827	0.479
237.000	201.249	80.011	19.993	104.580	19.995	7.948	0.480
237.501	201.484	80.013	19.993	104.580	19.993	8.054	0.500
238.001	201.718	80.013	19.993	104.576	19.994	7.980	0.487
238.501	201.959	80.013	19.993	104.577	19.995	7.934	0.472
239.000	202.208	80.013	19.993	104.580	19.991	8.241	0.482
239.501	202.439	80.013	19.994	104.585	19.993	8.075	0.485
240.001	202.694	80.014	19.994	104.588	19.990	8.270	0.483
240.501	202.879	80.013	19.994	104.593	19.991	8.214	0.463
241.001	203.162	80.013	19.993	104.596	19.988	8.422	0.454
241.500	203.388	80.014	19.993	104.600	19.988	8.482	0.488
242.000	203.661	80.014	19.992	104.596	19.983	8.803	0.504
242.500	203.895	80.014	19.993	104.596	19.987	8.560	0.503
243.000	204.137	80.013	19.993	104.594	19.987	8.512	0.492
243.501	204.351	80.014	19.994	104.591	19.987	8.554	0.466
244.001	204.575	80.013	19.993	104.591	19.985	8.689	0.447
244.501	204.848	80.015	19.992	104.595	19.983	8.793	0.468
245.001	205.092	80.015	19.993	104.594	19.985	8.714	0.507
245.500	205.322	80.012	19.993	104.588	19.981	9.006	0.495
246.000	205.568	80.014	19.992	104.584	19.984	8.717	0.475
246.500	205.804	80.011	19.994	104.578	19.980	9.041	0.479
247.000	206.005	80.013	19.994	104.572	19.981	8.993	0.459
247.500	206.308	80.014	19.993	104.570	19.981	8.957	0.470
248.001	206.505	80.014	19.993	104.571	19.980	9.067	0.502
248.501	206.747	80.013	19.994	104.575	19.978	9.190	0.469
249.001	207.005	80.014	19.994	104.578	19.976	9.388	0.470
249.501	207.227	80.012	19.994	104.581	19.976	9.317	0.490
250.001	207.484	80.012	19.994	104.579	19.976	9.377	0.480
250.501	207.735	80.012	19.994	104.578	19.974	9.510	0.494
251.000	207.939	80.014	19.994	104.574	19.976	9.356	0.482
251.501	208.187	80.011	19.993	104.575	19.975	9.392	0.453
252.001	208.428	80.010	19.993	104.572	19.972	9.631	0.470
252.500	208.662	80.010	19.994	104.576	19.973	9.604	0.482
253.000	208.910	80.017	19.996	104.580	19.973	9.556	0.479
253.500	209.143	80.011	19.995	104.586	19.970	9.783	0.481
254.000	209.374	80.011	19.995	104.588	19.968	9.956	0.472
254.500	209.611	80.012	19.995	104.592	19.969	9.904	0.466
255.000	209.860	80.012	19.994	104.593	19.967	10.005	0.477
255.500	210.072	80.009	19.995	104.591	19.967	10.064	0.474
256.000	210.305	80.011	19.996	104.588	19.966	10.092	0.454
256.500	210.557	80.011	19.995	104.582	19.967	10.005	0.465
257.000	210.823	80.012	19.994	104.577	19.965	10.147	0.501
257.500	211.038	80.011	19.994	104.571	19.964	10.279	0.499
258.000	211.272	80.011	19.994	104.571	19.965	10.144	0.465
258.500	211.515	80.011	19.995	104.568	19.962	10.364	0.463
259.000	211.810	80.011	19.995	104.567	19.965	10.206	0.507
259.500	212.012	80.012	19.994	104.567	19.961	10.508	0.517
260.000	212.263	80.011	19.995	104.569	19.959	10.651	0.475
260.500	212.471	80.011	19.994	104.569	19.961	10.497	0.456
261.000	212.768	80.010	19.995	104.569	19.960	10.562	0.482
261.500	212.982	80.011	19.994	104.569	19.957	10.813	0.508
262.001	213.210	80.010	19.994	104.569	19.956	10.882	0.477
262.501	213.472	80.010	19.995	104.568	19.954	11.013	0.467
263.001	213.717	80.012	19.994	104.567	19.958	10.726	0.499
263.501	213.962	80.010	19.994	104.568	19.954	11.011	0.498
264.000	214.207	80.011	19.994	104.570	19.952	11.148	0.490
264.500	214.457	80.011	19.994	104.573	19.952	11.144	0.493
265.001	214.671	80.011	19.995	104.576	19.951	11.192	0.479
265.501	214.916	80.013	19.995	104.576	19.950	11.314	0.461
266.000	215.145	80.012	19.993	104.576	19.948	11.486	0.467
266.500	215.414	80.012	19.994	104.575	19.949	11.393	0.486
267.000	215.659	80.011	19.994	104.572	19.946	11.609	0.506
267.500	215.895	80.009	19.995	104.571	19.944	11.767	0.498
268.000	216.118	80.012	19.994	104.574	19.943	11.854	0.470
268.500	216.359	80.012	19.995	104.572	19.941	11.972	0.461
269.000	216.607	80.010	19.995	104.571	19.938	12.203	0.476
269.500	216.834	80.010	19.994	104.571	19.940	12.081	0.482
270.000	217.101	80.011	19.993	104.569	19.939	12.135	0.485
270.500	217.325	80.011	19.994	104.569	19.934	12.501	0.492
271.000	217.554	80.013	19.994	104.569	19.936	12.350	0.472
271.500	217.858	80.012	19.995	104.570	19.934	12.475	0.493
272.001	218.065	80.014	19.994	104.572	19.934	12.535	0.522
272.500	218.323	80.011	19.994	104.573	19.933	12.559	0.487
273.000	218.537	80.010	19.993	104.570	19.931	12.738	0.468
273.500	218.793	80.011	19.994	104.570	19.930	12.806	0.471
274.000	219.046	80.013	19.993	104.572	19.929	12.876	0.490
274.500	219.250	80.012	19.994	104.574	19.928	12.951	0.483
275.001	219.513	80.013	19.993	104.576	19.923	13.323	0.462
275.501	219.772	80.014	19.994	104.576	19.923	13.319	0.494
276.001	219.989	80.011	19.994	104.574	19.923	13.323	0.499
276.501	220.266	80.011	19.993	104.571	19.922	13.438	0.485
277.000	220.502	80.012	19.994	104.569	19.922	13.392	0.504
277.500	220.732	80.010	19.993	104.568	19.918	13.687	0.489
278.000	221.007	80.012	19.992	104.569	19.920	13.544	0.486
278.501	221.205	80.013	19.992	104.569	19.919	13.613	0.489
279.000	221.472	80.012	19.993	104.570	19.917	13.808	0.469
279.500	221.711	80.012	19.992	104.568	19.917	13.766	0.485
280.000	221.917	80.012	19.993	104.569	19.915	13.955	0.476
280.500	222.173	80.012	19.993	104.573	19.912	14.122	0.454
281.000	222.365	80.011	19.994	104.577	19.913	14.053	0.455
281.500	222.671	80.011	19.994	104.578	19.910	14.292	0.473
282.000	222.889	80.012	19.993	104.585	19.910	14.304	0.511
282.500	223.165	80.011	19.993	104.584	19.909	14.410	0.509
283.001	223.420	80.011	19.993	104.581	19.906	14.634	0.513
283.501	223.660	80.011	19.993	104.577	19.906	14.599	0.513
284.000	223.890	80.012	19.993	104.576	19.906	14.634	0.482
284.500	224.166	80.009	19.993	104.570	19.902	14.928	0.488
285.000	224.379	80.011	19.993	104.569	19.900	15.017	0.498
285.500	224.661	80.010	19.994	104.569	19.899	15.096	0.492
286.000	224.891	80.011	19.993	104.570	19.898	15.182	0.503
286.500	225.113	80.009	19.993	104.572	19.899	15.098	0.482
287.000	225.379	80.009	19.993	104.571	19.899	15.148	0.470
287.500	225.573	80.008	19.994	104.572	19.897	15.303	0.474
288.000	225.840	80.011	19.994	104.573	19.894	15.524	0.460
288.501	226.110	80.008	19.994	104.572	19.892	15.615	0.499
289.000	226.327	80.009	19.993	104.572	19.890	15.812	0.512
289.500	226.600	80.011	19.992	104.574	19.889	15.860	0.488
290.000	226.828	80.012	19.993	104.574	19.891	15.731	0.495
290.501	227.078	80.012	19.993	104.574	19.886	16.128	0.490
291.000	227.338	80.013	19.993	104.574	19.886	16.134	0.494
291.500	227.622	80.012	19.992	104.576	19.883	16.321	0.527
292.001	227.835	80.010	19.993	104.574	19.883	16.321	0.520
292.500	228.072	80.011	19.994	104.575	19.885	16.176	0.473
293.000	228.376	80.011	19.993	104.574	19.882	16.437	0.495
293.500	228.607	80.011	19.993	104.573	19.876	16.841	0.538
294.001	228.841	80.011	19.993	104.570	19.875	16.949	0.500
294.500	229.136	80.015	19.993	104.569	19.876	16.862	0.497
295.000	229.356	80.015	19.993	104.570	19.868	17.427	0.522
295.500	229.565	80.011	19.992	104.572	19.872	17.143	0.472
296.000	229.854	80.012	19.993	104.575	19.871	17.251	0.464
296.500	230.082	80.009	19.993	104.576	19.867	17.495	0.507
297.000	230.352	80.013	19.992	104.577	19.867	17.499	0.507
297.500	230.583	80.013	19.993	104.575	19.865	17.692	0.500
298.000	230.864	80.013	19.992	104.572	19.866	17.638	0.506
298.500	231.076	80.011	19.993	104.570	19.863	17.804	0.502
299.000	231.329	80.013	19.994	104.570	19.859	18.107	0.479
299.500	231.600	80.014	19.993	104.569	19.858	18.190	0.494
300.000	231.816	80.015	19.993	104.569	19.859	18.155	0.505
300.500	232.080	80.011	19.992	104.570	19.856	18.335	0.484
301.000	232.291	80.012	19.993	104.570	19.855	18.422	0.478
301.500	232.508	80.013	19.993	104.570	19.857	18.287	0.451
302.000	232.799	80.012	19.993	104.569	19.850	18.823	0.468
302.500	233.062	80.012	19.994	104.568	19.853	18.606	0.531
303.000	233.327	80.011	19.993	104.567	19.849	18.876	0.541
303.500	233.515	80.012	19.993	104.566	19.848	18.966	0.491
304.001	233.782	80.014	19.994	104.566	19.848	18.926	0.455
304.500	234.033	80.013	19.992	104.570	19.846	19.126	0.486
305.000	234.296	80.011	19.992	104.571	19.845	19.214	0.516
305.500	234.549	80.013	19.993	104.571	19.842	19.413	0.515
306.000	234.783	80.013	19.993	104.573	19.841	19.484	0.502
306.500	235.065	80.011	19.993	104.573	19.839	19.627	0.501
307.001	235.291	80.012	19.993	104.573	19.838	19.668	0.512
307.501	235.505	80.012	19.992	104.577	19.835	19.959	0.474
308.000	235.765	80.010	19.994	104.577	19.835	19.943	0.457
308.500	235.959	80.011	19.992	104.576	19.828	20.417	0.464
309.000	236.239	80.010	19.992	104.576	19.829	20.405	0.465
309.500	236.509	80.012	19.993	104.574	19.825	20.667	0.512
310.000	236.779	80.009	19.992	104.572	19.827	20.555	0.544
310.501	237.026	80.008	19.993	104.573	19.826	20.620	0.528
311.000	237.268	80.014	19.993	104.573	19.822	20.878	0.503
311.500	237.523	80.011	19.993	104.573	19.821	20.969	0.493
312.000	237.750	80.010	19.992	104.571	19.817	21.260	0.490
312.500	238.037	80.009	19.993	104.569	19.817	21.268	0.498
313.000	238.276	80.011	19.993	104.569	19.815	21.447	0.520
313.500	238.517	80.013	19.994	104.573	19.810	21.771	0.503
314.000	238.774	80.012	19.994	104.576	19.811	21.739	0.489
314.500	239.007	80.014	19.993	104.578	19.805	22.186	0.494
315.000	239.273	80.011	19.993	104.577	19.806	22.089	0.494
315.500	239.487	80.011	19.993	104.577	19.804	22.240	0.490
316.000	239.753	80.013	19.992	104.573	19.802	22.388	0.481
316.500	239.985	80.011	19.993	104.570	19.801	22.471	0.489
317.000	240.244	80.012	19.993	104.568	19.800	22.565	0.494
317.500	240.520	80.013	19.993	104.568	19.796	22.887	0.513
318.000	240.775	80.015	19.993	104.567	19.792	23.178	0.533
318.500	240.970	80.011	19.992	104.568	19.791	23.248	0.491
319.000	241.267	80.013	19.992	104.571	19.792	23.162	0.471
319.500	241.477	80.012	19.992	104.571	19.789	23.364	0.500
320.000	241.701	80.012	19.992	104.571	19.787	23.522	0.470
320.500	241.969	80.014	19.993	104.573	19.789	23.403	0.463
321.001	242.238	80.015	19.994	104.573	19.782	23.893	0.514
321.501	242.436	80.014	19.993	104.569	19.777	24.259	0.502
322.001	242.755	80.014	19.993	104.569	19.778	24.189	0.492
322.500	242.994	80.013	19.993	104.569	19.778	24.191	0.537
323.000	243.266	80.014	19.993	104.567	19.770	24.810	0.534
323.500	243.504	80.013	19.993	104.565	19.774	24.464	0.511
324.000	243.760	80.013	19.992	104.565	19.772	24.661	0.503
324.500	243.969	80.013	19.992	104.564	19.770	24.815	0.479
325.000	244.225	80.015	19.993	104.564	19.768	24.965	0.465
325.500	244.506	80.012	19.993	104.565	19.765	25.156	0.501
326.000	244.730	80.014	19.994	104.565	19.762	25.418	0.521
326.500	244.974	80.013	19.993	104.565	19.761	25.501	0.486
327.000	245.194	80.013	19.993	104.567	19.759	25.607	0.466
327.500	245.479	80.012	19.993	104.566	19.758	25.690	0.485
328.000	245.715	80.017	19.993	104.566	19.753	26.049	0.513
328.500	245.943	80.014	19.993	104.567	19.752	26.131	0.492
329.000	246.181	80.012	19.993	104.567	19.750	26.301	0.465
329.500	246.468	80.012	19.994	104.567	19.749	26.344	0.496
330.000	246.734	80.013	19.994	104.569	19.747	26.531	0.539
330.500	246.963	80.011	19.993	104.571	19.744	26.779	0.524
331.000	247.221	80.011	19.994	104.573	19.744	26.773	0.491
331.500	247.476	80.011	19.993	104.573	19.742	26.898	0.500
332.000	247.702	80.010	19.994	104.570	19.737	27.297	0.497
332.500	247.925	80.013	19.993	104.568	19.732	27.635	0.465
333.000	248.216	80.013	19.993	104.566	19.734	27.500	0.482
333.500	248.435	80.012	19.993	104.564	19.732	27.665	0.512
334.001	248.718	80.012	19.994	104.563	19.728	27.937	0.506
334.500	248.980	80.011	19.993	104.566	19.727	28.024	0.524
335.000	249.234	80.011	19.994	104.567	19.725	28.153	0.530
335.501	249.476	80.011	19.994	104.568	19.721	28.481	0.506
336.000	249.783	80.009	19.995	104.568	19.717	28.767	0.523
336.500	249.995	80.013	19.994	104.569	19.716	28.839	0.534
337.000	250.264	80.011	19.995	104.567	19.714	29.001	0.500
337.500	250.516	80.013	19.993	104.566	19.709	29.369	0.501
338.000	250.808	80.012	19.993	104.567	19.710	29.282	0.532
338.501	251.044	80.012	19.994	104.567	19.706	29.588	0.536
339.001	251.306	80.012	19.994	104.567	19.704	29.777	0.513
339.501	251.564	80.012	19.994	104.568	19.701	29.993	0.509
340.000	251.809	80.011	19.993	104.568	19.700	30.028	0.512
340.500	252.060	80.012	19.994	104.567	19.697	30.278	0.500
341.000	252.299	80.013	19.994	104.567	19.698	30.189	0.493
341.500	252.542	80.013	19.994	104.569	19.692	30.627	0.486
342.000	252.841	80.012	19.994	104.568	19.690	30.775	0.512
342.500	253.068	80.012	19.994	104.570	19.690	30.807	0.534
343.000	253.325	80.012	19.994	104.570	19.687	31.009	0.505
343.501	253.584	80.013	19.994	104.570	19.686	31.091	0.500
344.000	253.824	80.012	19.994	104.569	19.679	31.612	0.508
344.500	254.035	80.010	19.993	104.570	19.679	31.654	0.475
345.001	254.326	80.011	19.993	104.570	19.677	31.794	0.477
345.501	254.553	80.011	19.993	104.570	19.679	31.645	0.510
346.000	254.777	80.011	19.993	104.570	19.674	31.986	0.485
346.500	255.042	80.012	19.994	104.569	19.674	32.032	0.470
347.000	255.334	80.010	19.994	104.567	19.672	32.167	0.523
347.500	255.578	80.012	19.994	104.566	19.665	32.687	0.547
348.000	255.831	80.012	19.993	104.565	19.664	32.745	0.517
348.500	256.062	80.011	19.994	104.565	19.659	33.093	0.491
349.000	256.343	80.011	19.994	104.565	19.656	33.315	0.498
349.500	256.550	80.011	19.994	104.566	19.658	33.228	0.500
350.000	256.804	80.011	19.993	104.566	19.654	33.468	0.474
350.500	257.053	80.012	19.994	104.566	19.654	33.518	0.482
351.000	257.298	80.012	19.993	104.566	19.651	33.728	0.499
351.500	257.539	80.010	19.994	104.567	19.645	34.166	0.490
352.000	257.777	80.011	19.994	104.568	19.648	33.950	0.483
352.500	258.066	80.011	19.994	104.570	19.645	34.189	0.503
353.000	258.291	80.011	19.994	104.570	19.642	34.370	0.521
353.500	258.565	80.010	19.995	104.573	19.640	34.522	0.506
354.000	258.867	80.011	19.994	104.572	19.639	34.653	0.537
354.501	259.075	80.012	19.993	104.571	19.631	35.203	0.543
355.000	259.331	80.012	19.994	104.569	19.627	35.558	0.487
355.500	259.557	80.011	19.994	104.568	19.628	35.481	0.473
356.000	259.828	80.012	19.994	104.566	19.625	35.647	0.490
356.500	260.085	80.010	19.994	104.567	19.622	35.929	0.513
357.000	260.303	80.010	19.995	104.569	19.623	35.851	0.501
357.500	260.576	80.012	19.994	104.570	19.616	36.329	0.483
358.000	260.829	80.012	19.995	104.570	19.616	36.333	0.509
358.500	261.041	80.014	19.994	104.570	19.612	36.647	0.496
359.000	261.302	80.011	19.995	104.570	19.611	36.732	0.469
359.500	261.510	80.009	19.995	104.567	19.608	36.968	0.471
360.000	261.789	80.010	19.994	104.567	19.606	37.091	0.478
360.500	262.038	80.011	19.995	104.567	19.600	37.535	0.508
361.000	262.306	80.012	19.994	104.569	19.602	37.439	0.523
361.500	262.525	80.010	19.995	104.570	19.594	37.997	0.502
362.000	262.811	80.009	19.994	104.571	19.595	37.952	0.496
362.501	263.024	80.013	19.996	104.571	19.591	38.223	0.502
363.001	263.275	80.010	19.995	104.571	19.591	38.258	0.481
363.501	263.548	80.009	19.994	104.570	19.585	38.709	0.494
364.001	263.799	80.010	19.994	104.571	19.584	38.784	0.524
364.500	264.051	80.008	19.995	104.571	19.577	39.259	0.514
365.000	264.287	80.011	19.994	104.571	19.574	39.483	0.495
365.500	264.582	80.008	19.995	104.575	19.573	39.555	0.509
366.000	264.802	80.010	19.994	104.574	19.569	39.854	0.523
366.500	265.071	80.010	19.994	104.574	19.568	39.975	0.502
367.000	265.267	80.010	19.994	104.573	19.567	40.055	0.477
367.500	265.539	80.008	19.994	104.574	19.562	40.383	0.466
368.000	265.805	80.010	19.994	104.569	19.562	40.400	0.503
368.500	266.039	80.009	19.995	104.571	19.558	40.716	0.520
369.000	266.311	80.009	19.993	104.573	19.555	40.934	0.503
369.500	266.528	80.009	19.993	104.575	19.552	41.128	0.497
370.000	266.789	80.010	19.994	104.575	19.548	41.457	0.483
370.500	267.040	80.009	19.994	104.577	19.546	41.610	0.495
371.000	267.304	80.009	19.993	104.580	19.543	41.803	0.514
371.500	267.528	80.011	19.994	104.583	19.540	42.044	0.501
372.000	267.784	80.009	19.992	104.583	19.540	42.095	0.484
372.500	268.020	80.009	19.992	104.586	19.534	42.523	0.486
373.000	268.275	80.011	19.996	104.588	19.534	42.514	0.492
373.500	268.552	80.011	19.995	104.588	19.528	42.918	0.511
374.000	268.767	80.008	19.994	104.588	19.527	42.999	0.512
374.500	269.043	80.012	19.994	104.589	19.525	43.167	0.492
375.000	269.271	80.011	19.994	104.590	19.519	43.635	0.497
375.501	269.495	80.010	19.993	104.592	19.517	43.795	0.478
376.000	269.749	80.011	19.993	104.592	19.516	43.863	0.465
376.500	270.036	80.011	19.993	104.590	19.516	43.874	0.510
377.000	270.289	80.012	19.993	104.589	19.509	44.385	0.540
377.501	270.539	80.012	19.993	104.585	19.505	44.671	0.521
378.001	270.815	80.014	19.993	104.582	19.507	44.495	0.514
378.501	271.004	80.012	19.993	104.580	19.503	44.808	0.496
379.000	271.313	80.012	19.993	104.577	19.501	45.002	0.482
379.500	271.518	80.014	19.994	104.576	19.499	45.122	0.506
380.000	271.750	80.014	19.994	104.575	19.495	45.406	0.475
380.500	272.044	80.012	19.993	104.573	19.496	45.386	0.481
381.000	272.297	80.013	19.992	104.575	19.495	45.452	0.536
381.500	272.551	80.013	19.993	104.582	19.493	45.618	0.527
382.000	272.771	80.013	19.992	104.588	19.487	46.055	0.491
382.500	273.038	80.014	19.993	104.592	19.486	46.145	0.481
383.000	273.256	80.013	19.993	104.594	19.487	46.042	0.486
383.500	273.505	80.012	19.993	104.589	19.485	46.167	0.476
384.000	273.775	80.011	19.993	104.583	19.480	46.544	0.493
384.500	274.035	80.013	19.993	104.576	19.479	46.617	0.524
385.000	274.270	80.012	19.993	104.575	19.479	46.654	0.513
385.500	274.466	80.011	19.993	104.574	19.476	46.853	0.463
386.000	274.771	80.012	19.993	104.576	19.475	46.975	0.466
386.500	275.006	80.013	19.993	104.579	19.474	46.991	0.520
387.000	275.246	80.013	19.993	104.583	19.474	47.041	0.508
387.500	275.537	80.011	19.993	104.580	19.471	47.207	0.503
388.001	275.759	80.013	19.993	104.579	19.470	47.280	0.522
388.500	276.012	80.012	19.993	104.582	19.470	47.274	0.494
389.000	276.256	80.014	19.994	104.579	19.470	47.332	0.485
389.500	276.515	80.011	19.994	104.578	19.468	47.493	0.500
390.000	276.748	80.012	19.993	104.578	19.472	47.152	0.498
390.500	277.024	80.011	19.993	104.578	19.467	47.551	0.501
391.000	277.234	80.012	19.993	104.573	19.467	47.536	0.498
391.500	277.523	80.012	19.993	104.574	19.468	47.483	0.492
392.000	277.782	80.011	19.993	104.576	19.466	47.605	0.523
392.500	278.026	80.011	19.994	104.580	19.465	47.670	0.525
393.000	278.245	80.013	19.994	104.587	19.463	47.799	0.483
393.500	278.523	80.011	19.993	104.594	19.466	47.601	0.480
394.000	278.765	80.011	19.994	104.595	19.462	47.896	0.508
394.500	278.984	80.012	19.992	104.593	19.460	48.080	0.490
395.000	279.286	80.011	19.994	104.588	19.464	47.766	0.491
395.500	279.535	80.012	19.994	104.588	19.461	47.996	0.536
396.001	279.757	80.014	19.993	104.588	19.461	48.002	0.511
396.500	279.998	80.015	19.994	104.591	19.459	48.105	0.467
397.000	280.248	80.011	19.993	104.596	19.457	48.269	0.477
397.500	280.514	80.012	19.993	104.602	19.456	48.356	0.504
398.000	280.762	80.013	19.994	104.603	19.457	48.289	0.515
398.500	281.013	80.013	19.993	104.603	19.457	48.295	0.506
399.000	281.274	80.012	19.993	104.598	19.459	48.179	0.506
399.500	281.493	80.014	19.993	104.590	19.456	48.395	0.496
400.000	281.757	80.012	19.993	104.585	19.454	48.498	0.481
400.500	282.034	80.012	19.995	104.583	19.456	48.348	0.512
401.000	282.257	80.017	19.994	104.582	19.456	48.351	0.521
401.500	282.533	80.014	19.993	104.586	19.457	48.262	0.500
402.001	282.761	80.013	19.993	104.591	19.460	48.086	0.501
402.500	282.991	80.013	19.993	104.592	19.460	48.091	0.481
403.000	283.258	80.014	19.993	104.587	19.456	48.380	0.478
403.500	283.542	80.013	19.993	104.584	19.460	48.077	0.525
404.000	283.806	80.016	19.994	104.585	19.462	47.948	0.550
404.500	284.049	80.014	19.994	104.586	19.459	48.133	0.527
405.000	284.276	80.013	19.993	104.588	19.461	47.958	0.488
405.500	284.544	80.013	19.994	104.589	19.463	47.817	0.483
406.000	284.788	80.014	19.993	104.590	19.461	47.956	0.504
406.500	285.030	80.015	19.993	104.587	19.464	47.796	0.499
407.000	285.306	80.014	19.993	104.583	19.462	47.892	0.502
407.500	285.501	80.014	19.993	104.584	19.466	47.589	0.494
408.000	285.801	80.015	19.993	104.590	19.467	47.525	0.483
408.500	286.038	80.015	19.992	104.593	19.467	47.518	0.516
409.000	286.324	80.014	19.993	104.597	19.471	47.225	0.529
409.500	286.563	80.014	19.993	104.601	19.472	47.177	0.524
410.000	286.784	80.011	19.992	104.602	19.473	47.107	0.493
410.500	287.067	80.014	19.992	104.601	19.474	47.022	0.483
411.000	287.317	80.013	19.993	104.600	19.474	47.020	0.518
411.500	287.550	80.015	19.992	104.599	19.476	46.838	0.508
412.000	287.773	80.013	19.992	104.596	19.476	46.854	0.469
412.500	288.015	80.009	19.993	104.591	19.480	46.578	0.461
413.000	288.297	80.013	19.992	104.589	19.481	46.525	0.494
413.500	288.546	80.014	19.992	104.590	19.483	46.357	0.527
414.000	288.762	80.012	19.992	104.591	19.487	46.068	0.498
414.500	289.042	80.011	19.992	104.596	19.491	45.767	0.481
415.000	289.280	80.014	19.992	104.600	19.492	45.687	0.507
415.500	289.536	80.013	19.994	104.604	19.490	45.856	0.506
416.000	289.795	80.012	19.993	104.604	19.496	45.396	0.505
416.500	290.011	80.010	19.993	104.604	19.498	45.239	0.495
417.000	290.261	80.011	19.993	104.604	19.499	45.151	0.470
417.500	290.507	80.011	19.993	104.605	19.504	44.758	0.481
418.000	290.790	80.013	19.993	104.605	19.508	44.445	0.512
418.500	291.043	80.013	19.993	104.605	19.509	44.416	0.533
419.000	291.301	80.012	19.993	104.606	19.514	44.056	0.524
419.501	291.558	80.011	19.993	104.606	19.521	43.509	0.512
420.000	291.834	80.012	19.994	104.607	19.522	43.455	0.524
420.500	292.090	80.010	19.993	104.606	19.525	43.179	0.533
421.000	292.325	80.011	19.994	104.607	19.526	43.152	0.512
421.501	292.543	80.012	19.993	104.608	19.533	42.626	0.472
422.001	292.791	80.010	19.994	104.608	19.533	42.578	0.460
422.500	293.083	80.012	19.993	104.608	19.540	42.073	0.503
423.000	293.277	80.010	19.993	104.609	19.541	41.981	0.513
423.500	293.569	80.011	19.994	104.608	19.548	41.476	0.486
424.000	293.796	80.013	19.994	104.608	19.546	41.598	0.502
424.501	294.070	80.011	19.994	104.607	19.553	41.103	0.510
425.001	294.304	80.010	19.994	104.607	19.554	41.034	0.505
425.500	294.539	80.011	19.995	104.607	19.560	40.594	0.489
426.000	294.782	80.012	19.994	104.607	19.565	40.203	0.474
426.500	295.044	80.009	19.995	104.607	19.568	39.986	0.491
427.001	295.255	80.012	19.994	104.607	19.571	39.746	0.489
427.500	295.543	80.011	19.993	104.607	19.574	39.547	0.486
428.000	295.811	80.011	19.994	104.606	19.578	39.250	0.528
428.500	296.033	80.011	19.994	104.607	19.585	38.691	0.523
429.000	296.284	80.011	19.993	104.607	19.586	38.606	0.482
429.500	296.528	80.012	19.995	104.610	19.591	38.246	0.484
430.001	296.785	80.012	19.994	104.612	19.596	37.857	0.498
430.500	297.019	80.011	19.994	104.618	19.600	37.583	0.496
431.000	297.304	80.012	19.994	104.621	19.599	37.672	0.505
431.500	297.543	80.011	19.994	104.624	19.605	37.213	0.521
432.000	297.774	80.012	19.994	104.627	19.608	36.982	0.497
432.500	298.014	80.010	19.993	104.627	19.614	36.519	0.470
433.001	298.303	80.010	19.994	104.628	19.616	36.338	0.500
433.500	298.530	80.009	19.994	104.633	19.623	35.864	0.523
434.000	298.770	80.011	19.994	104.637	19.622	35.901	0.492
434.500	299.034	80.012	19.994	104.639	19.626	35.627	0.485
435.000	299.290	80.010	19.993	104.643	19.632	35.198	0.512
435.500	299.555	80.010	19.993	104.641	19.633	35.133	0.521
436.000	299.778	80.012	19.994	104.636	19.636	34.876	0.504
436.500	300.025	80.012	19.993	104.631	19.641	34.509	0.479
437.001	300.279	80.011	19.994	104.630	19.645	34.166	0.486
437.501	300.544	80.011	19.994	104.630	19.653	33.596	0.510
438.000	300.784	80.012	19.993	104.633	19.653	33.590	0.512
438.500	301.010	80.012	19.994	104.639	19.660	33.070	0.486
439.000	301.317	80.012	19.993	104.641	19.667	32.544	0.500
439.500	301.535	80.012	19.994	104.641	19.670	32.340	0.529
440.000	301.778	80.011	19.993	104.642	19.676	31.862	0.493
440.500	302.030	80.012	19.993	104.642	19.684	31.263	0.478
441.000	302.255	80.011	19.993	104.641	19.688	31.001	0.486
441.500	302.524	80.011	19.993	104.642	19.693	30.601	0.486
442.001	302.757	80.011	19.993	104.641	19.696	30.336	0.498
442.500	303.047	80.012	19.993	104.637	19.703	29.844	0.512
443.000	303.286	80.013	19.993	104.631	19.706	29.613	0.526
443.500	303.526	80.012	19.993	104.625	19.709	29.394	0.504
444.000	303.797	80.013	19.993	104.625	19.717	28.800	0.495
444.500	304.009	80.012	19.993	104.626	19.722	28.396	0.497
445.000	304.264	80.012	19.993	104.630	19.726	28.114	0.475
445.500	304.505	80.009	19.993	104.636	19.733	27.598	0.482
446.001	304.766	80.013	19.993	104.641	19.738	27.194	0.499
446.501	304.994	80.011	19.993	104.641	19.742	26.880	0.495
447.000	305.298	80.012	19.994	104.635	19.747	26.568	0.511
447.500	305.500	80.013	19.994	104.634	19.753	26.088	0.519
448.001	305.785	80.012	19.994	104.633	19.757	25.765	0.496
448.500	305.989	80.011	19.994	104.633	19.761	25.499	0.488
449.000	306.254	80.011	19.994	104.631	19.767	25.031	0.479
449.500	306.499	80.008	19.994	104.638	19.770	24.790	0.489
450.000	306.741	80.009	19.994	104.639	19.779	24.122	0.498
450.500	307.019	80.011	19.994	104.639	19.780	24.090	0.504
451.000	307.269	80.011	19.994	104.638	19.783	23.855	0.524
451.500	307.514	80.011	19.994	104.639	19.793	23.082	0.511
452.000	307.778	80.014	19.993	104.637	19.792	23.175	0.502
452.500	308.009	80.012	19.994	104.636	19.801	22.485	0.502
453.000	308.268	80.010	19.994	104.631	19.805	22.184	0.493
453.500	308.494	80.013	19.994	104.626	19.811	21.718	0.488
454.000	308.779	80.011	19.994	104.626	19.812	21.666	0.498
454.500	309.060	80.011	19.995	104.624	19.815	21.425	0.538
455.000	309.296	80.010	19.995	104.618	19.820	21.051	0.541
455.500	309.558	80.008	19.994	104.618	19.830	20.292	0.508
456.000	309.838	80.013	19.995	104.620	19.830	20.315	0.520
456.500	310.062	80.011	19.995	104.617	19.835	19.911	0.523
457.000	310.355	80.012	19.995	104.612	19.839	19.603	0.510
457.500	310.581	80.011	19.994	104.614	19.844	19.245	0.518
458.000	310.836	80.011	19.995	104.613	19.851	18.767	0.500
458.500	311.126	80.011	19.995	104.613	19.850	18.809	0.512
459.000	311.367	80.011	19.995	104.612	19.856	18.371	0.538
459.500	311.638	80.011	19.995	104.611	19.857	18.290	0.522
460.000	311.898	80.011	19.995	104.610	19.861	17.954	0.522
460.500	312.176	80.012	19.995	104.609	19.865	17.644	0.534
461.000	312.402	80.013	19.994	104.606	19.868	17.474	0.521
461.500	312.688	80.013	19.995	104.604	19.875	16.906	0.508
462.000	312.951	80.013	19.994	104.604	19.878	16.694	0.530
462.500	313.177	80.012	19.995	104.603	19.878	16.683	0.519
463.000	313.491	80.014	19.993	104.602	19.887	16.029	0.514
463.500	313.724	80.014	19.994	104.602	19.887	16.033	0.543
464.000	313.984	80.014	19.994	104.602	19.888	15.942	0.520
464.500	314.217	80.014	19.994	104.602	19.893	15.588	0.493
465.000	314.481	80.013	19.994	104.603	19.894	15.472	0.495
465.500	314.773	80.014	19.994	104.603	19.897	15.306	0.527
466.000	315.003	80.014	19.993	104.603	19.899	15.104	0.539
466.500	315.254	80.015	19.993	104.603	19.904	14.740	0.502
467.000	315.550	80.015	19.993	104.602	19.909	14.412	0.514
467.500	315.793	80.013	19.993	104.599	19.909	14.393	0.543
468.001	316.019	80.014	19.993	104.595	19.913	14.042	0.504
468.500	316.283	80.012	19.992	104.594	19.918	13.722	0.480
469.000	316.531	80.014	19.993	104.594	19.921	13.480	0.501
469.500	316.815	80.014	19.993	104.595	19.921	13.491	0.522
470.000	317.043	80.013	19.994	104.597	19.922	13.366	0.522
470.500	317.318	80.014	19.993	104.599	19.928	12.942	0.508
471.000	317.561	80.013	19.993	104.593	19.930	12.837	0.510
471.500	317.843	80.015	19.993	104.586	19.931	12.689	0.521
472.000	318.102	80.011	19.994	104.580	19.932	12.620	0.533
472.500	318.335	80.017	19.994	104.574	19.938	12.195	0.517
473.000	318.585	80.013	19.993	104.570	19.937	12.301	0.488
473.500	318.867	80.015	19.993	104.571	19.938	12.165	0.508
474.000	319.127	80.013	19.994	104.572	19.945	11.683	0.537
474.500	319.381	80.014	19.994	104.572	19.945	11.656	0.528
475.000	319.639	80.015	19.994	104.573	19.948	11.444	0.513
475.500	319.884	80.015	19.993	104.571	19.947	11.539	0.507
476.000	320.167	80.014	19.993	104.572	19.949	11.356	0.516
476.501	320.418	80.013	19.993	104.570	19.951	11.189	0.532
477.001	320.707	80.014	19.993	104.568	19.951	11.213	0.537
477.500	320.911	80.014	19.994	104.569	19.951	11.245	0.516
478.000	321.185	80.012	19.993	104.569	19.957	10.810	0.486
478.500	321.438	80.014	19.993	104.567	19.958	10.731	0.502
479.000	321.683	80.013	19.993	104.567	19.958	10.685	0.512
479.500	321.964	80.012	19.993	104.566	19.958	10.681	0.512
480.000	322.229	80.011	19.993	104.564	19.959	10.643	0.536
480.500	322.496	80.012	19.993	104.565	19.961	10.456	0.539
481.000	322.732	80.011	19.993	104.565	19.967	10.012	0.518
481.500	323.000	80.011	19.993	104.565	19.967	9.997	0.503
482.000	323.247	80.011	19.993	104.566	19.963	10.325	0.509
482.500	323.513	80.012	19.994	104.566	19.969	9.887	0.514
483.000	323.781	80.011	19.993	104.566	19.966	10.100	0.524
483.500	324.027	80.013	19.993	104.566	19.970	9.795	0.524
484.000	324.273	80.012	19.993	104.567	19.970	9.770	0.503
484.500	324.552	80.012	19.993	104.567	19.972	9.616	0.509
485.000	324.772	80.010	19.993	104.566	19.979	9.153	0.512
485.500	325.041	80.016	19.993	104.566	19.976	9.317	0.494
486.000	325.334	80.013	19.993	104.563	19.977	9.251	0.526
486.500	325.591	80.013	19.992	104.561	19.981	8.991	0.556
487.000	325.832	80.012	19.993	104.554	19.982	8.918	0.523
487.501	326.103	80.013	19.992	104.549	19.983	8.821	0.505
488.001	326.307	80.014	19.993	104.544	19.981	8.953	0.494
488.501	326.589	80.014	19.993	104.544	19.983	8.849	0.481
489.000	326.847	80.013	19.994	104.541	19.982	8.878	0.513
489.500	327.077	80.013	19.993	104.540	19.985	8.634	0.514
490.000	327.368	80.013	19.993	104.538	19.986	8.592	0.504
490.500	327.623	80.014	19.992	104.538	19.988	8.418	0.533
491.000	327.816	80.014	19.993	104.533	19.989	8.341	0.497
491.500	328.095	80.014	19.994	104.531	19.993	8.086	0.460
492.000	328.390	80.014	19.992	104.531	19.991	8.233	0.524
492.501	328.629	80.012	19.993	104.531	19.992	8.129	0.554
493.000	328.887	80.013	19.994	104.529	19.994	8.026	0.515
493.500	329.178	80.014	19.993	104.528	19.998	7.716	0.523
494.000	329.389	80.016	19.993	104.527	19.996	7.820	0.525
494.500	329.677	80.014	19.993	104.526	20.000	7.523	0.500
495.001	329.923	80.013	19.992	104.527	19.998	7.693	0.517
495.501	330.143	80.013	19.993	104.526	20.001	7.436	0.501
496.001	330.378	80.014	19.993	104.527	20.001	7.502	0.460
496.500	330.662	80.014	19.993	104.527	20.001	7.467	0.487
497.000	330.905	80.014	19.993	104.526	20.003	7.349	0.523
497.500	331.146	80.013	19.992	104.524	20.004	7.252	0.505
498.000	331.409	80.013	19.993	104.522	20.005	7.137	0.493
498.500	331.653	80.012	19.993	104.522	20.007	7.010	0.505
499.000	331.948	80.012	19.993	104.520	20.007	7.052	0.523
499.501	332.249	80.013	19.992	104.515	20.005	7.134	0.568
500.001	332.463	80.013	19.993	104.510	20.010	6.833	0.556
500.500	332.674	80.011	19.993	104.505	20.007	6.987	0.470
501.000	332.974	80.011	19.993	104.499	20.007	7.049	0.468
501.500	333.272	80.012	19.993	104.496	20.009	6.906	0.554
502.000	333.514	80.011	19.993	104.499	20.011	6.719	0.569
502.500	333.747	80.013	19.993	104.499	20.012	6.634	0.507
503.000	334.007	80.012	19.993	104.500	20.011	6.711	0.484
503.500	334.296	80.011	19.993	104.501	20.013	6.565	0.521
504.000	334.507	80.012	19.992	104.500	20.016	6.382	0.524
504.500	334.780	80.012	19.992	104.496	20.013	6.578	0.492
505.000	335.030	80.011	19.993	104.496	20.012	6.619	0.504
505.500	335.307	80.012	19.994	104.497	20.017	6.264	0.525
506.000	335.528	80.012	19.992	104.499	20.016	6.372	0.513
506.500	335.792	80.013	19.993	104.499	20.013	6.546	0.491
507.000	336.032	80.013	19.993	104.501	20.013	6.596	0.494
507.500	336.311	80.011	19.992	104.506	20.016	6.345	0.512
508.000	336.579	80.010	19.993	104.508	20.018	6.175	0.533
508.500	336.833	80.010	19.993	104.508	20.016	6.360	0.534
509.000	337.042	80.013	19.992	104.507	20.018	6.169	0.492
509.501	337.341	80.012	19.993	104.504	20.017	6.294	0.485
510.000	337.592	80.013	19.993	104.499	20.017	6.279	0.529
510.500	337.804	80.010	19.992	104.495	20.016	6.348	0.507
511.001	338.076	80.014	19.993	104.491	20.017	6.256	0.474
511.501	338.332	80.012	19.993	104.491	20.017	6.244	0.506
512.001	338.551	80.015	19.993	104.492	20.018	6.175	0.501
512.500	338.820	80.010	19.993	104.492	20.020	6.016	0.481
513.000	339.137	80.013	19.993	104.492	20.023	5.841	0.537
513.500	339.312	80.013	19.993	104.492	20.021	5.956	0.539
514.000	339.565	80.012	19.993	104.491	20.023	5.796	0.460
514.500	339.823	80.014	19.992	104.492	20.021	5.974	0.470
515.000	340.069	80.012	19.994	104.491	20.020	6.012	0.507
515.500	340.356	80.014	19.994	104.491	20.023	5.850	0.518
516.000	340.604	80.012	19.992	104.491	20.022	5.875	0.534
516.500	340.860	80.014	19.994	104.490	20.021	5.962	0.520
517.000	341.086	80.010	19.994	104.488	20.022	5.902	0.494
517.500	341.331	80.012	19.993	104.489	20.025	5.706	0.477
518.000	341.621	80.011	19.993	104.489	20.022	5.864	0.503
518.500	341.869	80.012	19.994	104.489	20.020	6.037	0.537
519.000	342.064	80.010	19.993	104.494	20.027	5.522	0.490
519.500	342.382	80.012	19.994	104.498	20.023	5.792	0.477
520.000	342.560	80.011	19.993	104.499	20.025	5.707	0.504
520.500	342.845	80.013	19.994	104.501	20.025	5.703	0.480
521.000	343.078	80.012	19.994	104.503	20.028	5.447	0.490
521.500	343.340	80.012	19.994	104.498	20.026	5.589	0.506
522.000	343.599	80.011	19.994	104.500	20.031	5.261	0.508
522.500	343.823	80.011	19.994	104.501	20.022	5.907	0.502
523.000	344.048	80.013	19.994	104.501	20.022	5.902	0.466
523.500	344.333	80.011	19.994	104.500	20.032	5.113	0.480
524.000	344.558	80.012	19.994	104.502	20.027	5.510	0.510
524.500	344.811	80.011	19.994	104.504	20.023	5.786	0.494
525.000	345.030	80.012	19.993	104.505	20.030	5.288	0.475
525.500	345.295	80.011	19.993	104.506	20.030	5.309	0.478
526.000	345.535	80.012	19.994	104.510	20.031	5.196	0.494
526.500	345.798	80.012	19.994	104.512	20.030	5.292	0.504
527.000	346.114	80.011	19.995	104.509	20.028	5.448	0.541
527.500	346.277	80.010	19.993	104.506	20.028	5.435	0.529
528.000	346.601	80.012	19.993	104.505	20.029	5.371	0.483
528.501	346.807	80.010	19.993	104.506	20.030	5.313	0.508
529.001	347.089	80.009	19.995	104.505	20.030	5.269	0.508
529.501	347.311	80.011	19.993	104.506	20.026	5.600	0.496
530.000	347.552	80.010	19.994	104.509	20.033	5.080	0.484
530.500	347.765	80.011	19.994	104.512	20.029	5.353	0.459
531.000	348.088	80.012	19.994	104.511	20.030	5.307	0.495
531.500	348.209	80.011	19.993	104.513	20.029	5.365	0.490
532.000	348.493	80.011	19.994	104.514	20.033	5.074	0.424
532.500	348.784	80.011	19.993	104.515	20.031	5.211	0.490
533.000	349.009	80.009	19.994	104.517	20.032	5.130	0.546
533.501	349.433	80.010	19.993	104.520	20.029	5.365	0.583
534.000	349.407	80.010	19.993	104.521	20.031	5.197	0.523
534.500	349.912	80.014	19.993	104.523	20.030	5.330	0.439
535.000	349.996	80.010	19.994	104.524	20.028	5.442	0.534
535.500	350.027	80.011	19.993	104.524	20.030	5.271	0.352
536.001	350.731	80.011	19.993	104.523	20.033	5.109	0.425
536.500	350.818	80.011	19.993	104.524	20.036	4.833	0.763
537.000	350.823	80.010	19.994	104.523	20.032	5.116	0.441
537.500	351.485	80.011	19.994	104.523	20.034	5.008	0.380
538.000	351.834	80.012	19.993	104.523	20.033	5.070	0.839
538.501	351.643	80.010	19.993	104.524	20.032	5.120	0.584
539.000	352.097	80.012	19.995	104.524	20.034	5.033	0.210
539.500	352.294	80.015	19.994	104.525	20.037	4.740	0.457
540.000	352.658	80.012	19.993	104.525	20.035	4.933	0.606
540.500	352.791	80.011	19.993	104.526	20.035	4.910	0.529
541.000	353.153	80.012	19.994	104.529	20.037	4.740	0.496
541.500	353.308	80.012	19.993	104.530	20.036	4.858	0.506
542.000	353.664	80.010	19.994	104.530	20.036	4.885	0.514
542.500	353.832	80.010	19.993	104.530	20.038	4.686	0.518
543.001	354.137	80.013	19.994	104.530	20.037	4.792	0.499
543.500	354.349	80.012	19.994	104.527	20.038	4.711	0.495
544.000	354.647	80.011	19.993	104.526	20.036	4.883	0.513
544.500	354.860	80.013	19.993	104.526	20.037	4.811	0.510
545.000	355.039	80.012	19.994	104.526	20.038	4.686	0.452
545.500	355.391	80.008	19.994	104.526	20.036	4.831	0.462
546.000	355.572	80.012	19.995	104.526	20.035	4.956	0.532
546.500	355.886	80.013	19.994	104.526	20.034	4.977	0.514
547.001	356.133	80.012	19.993	104.526	20.038	4.736	0.529
547.500	356.349	80.008	19.994	104.526	20.037	4.765	0.512
548.000	356.618	80.012	19.993	104.526	20.035	4.894	0.473
548.500	356.889	80.011	19.994	104.526	20.034	5.012	0.512
549.000	357.087	80.011	19.994	104.526	20.036	4.829	0.505
549.500	357.395	80.010	19.993	104.527	20.037	4.800	0.488
550.000	357.683	80.012	19.994	104.528	20.037	4.779	0.551
550.501	357.879	80.013	19.994	104.528	20.036	4.875	0.540
551.000	358.147	80.013	19.993	104.528	20.037	4.775	0.475
551.500	358.420	80.012	19.994	104.528	20.036	4.819	0.503
552.000	358.628	80.012	19.994	104.528	20.037	4.742	0.511
552.500	358.888	80.009	19.993	104.527	20.036	4.844	0.475
553.000	359.168	80.012	19.995	104.530	20.034	4.995	0.504
553.500	359.421	80.012	19.995	104.535	20.040	4.538	0.536
554.000	359.656	80.012	19.994	104.536	20.035	4.952	0.510
554.500	359.957	80.013	19.993	104.536	20.033	5.103	0.512
555.000	360.172	80.012	19.995	104.536	20.037	4.800	0.526
555.500	360.428	80.011	19.995	104.532	20.037	4.749	0.494
556.000	360.725	80.011	19.993	104.528	20.038	4.672	0.512
556.500	360.964	80.010	19.993	104.528	20.035	4.892	0.544
557.000	361.197	80.009	19.994	104.530	20.036	4.852	0.504
557.500	361.452	80.011	19.994	104.530	20.036	4.815	0.480
558.000	361.681	80.012	19.993	104.531	20.040	4.572	0.486
558.500	361.993	80.010	19.993	104.531	20.038	4.665	0.513
559.000	362.237	80.014	19.994	104.531	20.034	4.989	0.548
559.500	362.454	80.011	19.993	104.529	20.036	4.833	0.509
560.000	362.727	80.010	19.993	104.529	20.033	5.093	0.476
560.500	362.995	80.011	19.993	104.529	20.034	4.993	0.515
561.000	363.238	80.013	19.993	104.529	20.035	4.925	0.525
561.500	363.480	80.013	19.992	104.528	20.037	4.746	0.498
562.000	363.735	80.010	19.994	104.527	20.038	4.678	0.491
562.500	364.016	80.012	19.993	104.527	20.040	4.574	0.517
563.000	364.230	80.011	19.994	104.527	20.035	4.950	0.515
563.500	364.493	80.011	19.993	104.527	20.040	4.570	0.485
564.000	364.762	80.013	19.992	104.527	20.036	4.840	0.504
564.500	365.014	80.013	19.993	104.527	20.042	4.370	0.527
565.000	365.272	80.012	19.993	104.528	20.039	4.661	0.515
565.500	365.491	80.012	19.992	104.530	20.039	4.594	0.493
566.000	365.764	80.011	19.993	104.535	20.039	4.599	0.485
566.500	365.997	80.012	19.992	104.538	20.038	4.711	0.499
567.000	366.294	80.012	19.992	104.538	20.038	4.706	0.518
567.500	366.526	80.011	19.992	104.539	20.039	4.615	0.529
568.000	366.782	80.014	19.992	104.537	20.038	4.681	0.508
568.500	367.030	80.013	19.992	104.534	20.037	4.804	0.496
569.000	367.275	80.011	19.991	104.530	20.040	4.582	0.499
569.500	367.548	80.012	19.993	104.530	20.038	4.665	0.506
570.000	367.785	80.012	19.993	104.529	20.039	4.650	0.514
570.500	368.067	80.012	19.993	104.530	20.039	4.611	0.514
571.000	368.247	80.013	19.993	104.530	20.038	4.708	0.490
571.500	368.589	80.014	19.993	104.531	20.035	4.960	0.492
572.000	368.823	80.015	19.994	104.531	20.039	4.598	0.549
572.500	369.084	80.011	19.993	104.531	20.037	4.740	0.536
573.000	369.315	80.015	19.992	104.530	20.038	4.679	0.493
573.500	369.555	80.012	19.992	104.530	20.036	4.823	0.482
574.000	369.804	80.011	19.992	104.530	20.038	4.706	0.480
574.500	370.087	80.013	19.993	104.531	20.035	4.945	0.510
575.000	370.335	80.012	19.993	104.532	20.040	4.515	0.531
575.500	370.611	80.015	19.992	104.532	20.035	4.937	0.527
576.000	370.843	80.013	19.993	104.531	20.040	4.534	0.516
576.500	371.113	80.013	19.993	104.531	20.040	4.538	0.505
577.000	371.382	80.016	19.992	104.529	20.037	4.787	0.520
577.500	371.615	80.013	19.993	104.526	20.039	4.642	0.520
578.000	371.881	80.013	19.993	104.526	20.038	4.665	0.501
578.500	372.140	80.014	19.993	104.525	20.038	4.710	0.512
579.000	372.380	80.012	19.994	104.525	20.034	5.001	0.511
579.500	372.644	80.012	19.993	104.525	20.034	4.972	0.501
580.000	372.896	80.011	19.993	104.525	20.038	4.719	0.510
580.500	373.174	80.011	19.994	104.525	20.037	4.785	0.523
581.000	373.398	80.012	19.993	104.524	20.037	4.769	0.516
581.500	373.691	80.013	19.993	104.524	20.034	4.962	0.510
582.000	373.931	80.012	19.993	104.524	20.034	4.983	0.525
582.500	374.174	80.010	19.993	104.525	20.039	4.596	0.507
583.000	374.442	80.013	19.994	104.525	20.037	4.796	0.497
583.500	374.690	80.012	19.993	104.525	20.034	4.980	0.514
584.000	374.919	80.010	19.993	104.525	20.040	4.557	0.497
584.500	375.199	80.012	19.993	104.525	20.038	4.723	0.493
585.000	375.424	80.011	19.994	104.522	20.034	4.989	0.507
585.500	375.710	80.011	19.993	104.521	20.034	4.989	0.509
586.000	375.957	80.012	19.994	104.521	20.034	4.975	0.522
586.500	376.185	80.009	19.992	104.521	20.038	4.723	0.504
587.000	376.455	80.010	19.992	104.521	20.036	4.873	0.486
587.500	376.702	80.013	19.994	104.524	20.038	4.708	0.508
588.000	376.967	80.010	19.993	104.524	20.035	4.916	0.515
588.500	377.198	80.010	19.993	104.523	20.037	4.794	0.504
589.000	377.490	80.011	19.994	104.524	20.035	4.910	0.509
589.500	377.724	80.010	19.993	104.523	20.036	4.873	0.524
590.000	377.971	80.010	19.993	104.523	20.036	4.856	0.504
590.500	378.239	80.009	19.993	104.524	20.034	5.035	0.498
591.000	378.465	80.011	19.993	104.524	20.032	5.124	0.504
591.500	378.736	80.012	19.994	104.524	20.035	4.898	0.495
592.001	378.988	80.010	19.993	104.525	20.034	5.012	0.510
592.500	379.258	80.009	19.993	104.525	20.035	4.933	0.523
593.000	379.499	80.011	19.993	104.523	20.030	5.305	0.517
593.501	379.731	80.012	19.993	104.523	20.035	4.920	0.492
594.001	379.991	80.012	19.993	104.522	20.035	4.951	0.482
594.501	380.253	80.013	19.992	104.522	20.036	4.862	0.507
595.000	380.535	80.011	19.992	104.523	20.033	5.053	0.533
595.500	380.734	80.012	19.993	104.525	20.035	4.902	0.512
596.000	381.022	80.013	19.993	104.528	20.039	4.659	0.485
596.500	381.277	80.009	19.993	104.529	20.034	5.010	0.516
597.001	381.542	80.011	19.994	104.530	20.033	5.058	0.531
597.501	381.781	80.012	19.993	104.529	20.037	4.800	0.511
598.000	382.030	80.013	19.993	104.526	20.036	4.866	0.496
598.500	382.285	80.012	19.993	104.524	20.037	4.796	0.496
599.000	382.542	80.011	19.993	104.523	20.034	4.962	0.508
599.500	382.822	80.014	19.993	104.523	20.033	5.078	0.525
600.000	383.079	80.009	19.992	104.523	20.032	5.174	0.537
600.500	383.331	80.011	19.993	104.525	20.032	5.176	0.523
601.000	383.558	80.011	19.993	104.526	20.034	5.006	0.494
601.501	383.842	80.012	19.993	104.529	20.035	4.956	0.495
602.001	384.100	80.010	19.993	104.530	20.036	4.881	0.526
602.500	384.354	80.011	19.994	104.531	20.032	5.149	0.527
603.000	384.620	80.012	19.994	104.531	20.032	5.159	0.516
603.500	384.840	80.012	19.993	104.531	20.030	5.282	0.503
604.001	385.133	80.012	19.993	104.528	20.033	5.087	0.499
604.500	385.364	80.013	19.994	104.527	20.030	5.327	0.518
605.000	385.614	80.013	19.994	104.525	20.032	5.182	0.502
605.500	385.847	80.012	19.993	104.525	20.032	5.180	0.482
606.000	386.131	80.012	19.993	104.525	20.033	5.066	0.500
606.500	386.369	80.012	19.994	104.525	20.032	5.126	0.519
607.000	386.636	80.012	19.994	104.526	20.032	5.166	0.513
607.500	386.882	80.011	19.993	104.527	20.033	5.080	0.509
608.000	387.167	80.012	19.994	104.528	20.029	5.346	0.522
608.500	387.432	80.010	19.993	104.528	20.031	5.219	0.541
609.000	387.684	80.010	19.993	104.528	20.031	5.223	0.534
609.500	387.937	80.012	19.993	104.528	20.030	5.267	0.511
610.000	388.186	80.012	19.993	104.528	20.029	5.373	0.504
610.500	388.452	80.010	19.993	104.527	20.029	5.344	0.509
611.000	388.749	80.011	19.994	104.526	20.030	5.305	0.539
611.501	388.965	80.011	19.993	104.527	20.026	5.623	0.538
612.000	389.186	80.012	19.993	104.527	20.028	5.438	0.475
612.500	389.459	80.010	19.994	104.527	20.026	5.633	0.465
613.000	389.702	80.009	19.994	104.527	20.028	5.417	0.505
613.500	389.988	80.010	19.996	104.529	20.029	5.365	0.523
614.000	390.243	80.012	19.994	104.531	20.027	5.498	0.535
614.500	390.484	80.011	19.994	104.531	20.029	5.404	0.518
615.000	390.741	80.011	19.993	104.530	20.026	5.581	0.497
615.500	391.008	80.010	19.994	104.526	20.029	5.338	0.511
616.000	391.270	80.011	19.995	104.525	20.029	5.367	0.526
616.500	391.543	80.010	19.994	104.523	20.029	5.400	0.532
617.000	391.750	80.011	19.994	104.524	20.029	5.371	0.508
617.500	392.021	80.011	19.993	104.525	20.025	5.639	0.479
618.000	392.316	80.008	19.994	104.528	20.028	5.473	0.521
618.500	392.524	80.012	19.994	104.528	20.027	5.551	0.534
619.000	392.783	80.009	19.993	104.525	20.024	5.769	0.485
619.501	393.063	80.010	19.994	104.522	20.025	5.637	0.503
620.001	393.359	80.010	19.994	104.521	20.019	6.110	0.558
620.501	393.595	80.011	19.993	104.522	20.021	6.011	0.554
621.001	393.872	80.011	19.994	104.522	20.021	6.011	0.522
621.500	394.137	80.010	19.994	104.525	20.021	5.959	0.528
622.000	394.381	80.009	19.993	104.528	20.021	5.953	0.526
622.500	394.636	80.011	19.994	104.529	20.018	6.198	0.504
623.000	394.875	80.011	19.994	104.527	20.020	6.025	0.496
623.500	395.159	80.010	19.994	104.526	20.022	5.921	0.508
624.000	395.426	80.012	19.993	104.524	20.021	6.011	0.537
624.500	395.652	80.012	19.994	104.524	20.020	6.048	0.522
625.000	395.902	80.011	19.993	104.523	20.021	5.953	0.484
625.500	396.185	80.011	19.993	104.525	20.020	6.046	0.505
626.000	396.428	80.011	19.993	104.525	20.017	6.302	0.530
626.500	396.669	80.011	19.993	104.525	20.018	6.229	0.505
627.000	396.954	80.012	19.994	104.526	20.017	6.296	0.505
627.500	397.190	80.011	19.993	104.527	20.018	6.227	0.524
628.000	397.438	80.013	19.993	104.525	20.019	6.148	0.503
628.500	397.687	80.014	19.993	104.523	20.021	5.971	0.490
629.000	397.958	80.011	19.994	104.522	20.018	6.208	0.509
629.500	398.235	80.014	19.993	104.518	20.017	6.265	0.534
630.000	398.481	80.013	19.993	104.518	20.014	6.471	0.536
630.500	398.749	80.013	19.994	104.520	20.015	6.434	0.519
631.000	399.012	80.013	19.992	104.523	20.015	6.390	0.523
631.501	399.246	80.012	19.993	104.525	20.014	6.521	0.514
632.000	399.511	80.012	19.993	104.528	20.013	6.609	0.498
632.500	399.729	80.013	19.994	104.525	20.011	6.752	0.491
633.000	400.008	80.013	19.994	104.525	20.012	6.684	0.490
633.500	400.253	80.014	19.992	104.525	20.009	6.852	0.510
634.000	400.508	80.015	19.993	104.525	20.013	6.598	0.512
634.500	400.765	80.013	19.992	104.526	20.014	6.517	0.506
635.000	401.003	80.012	19.992	104.528	20.007	7.044	0.503
635.500	401.248	80.011	19.993	104.528	20.010	6.766	0.489
636.000	401.511	80.013	19.993	104.527	20.005	7.140	0.496
636.500	401.775	80.012	19.993	104.528	20.010	6.823	0.518
637.000	402.042	80.012	19.993	104.529	20.009	6.893	0.529
637.500	402.298	80.012	19.993	104.529	20.009	6.883	0.527
638.000	402.542	80.013	19.993	104.529	20.006	7.062	0.512
638.500	402.827	80.012	19.993	104.529	20.005	7.140	0.514
639.000	403.077	80.013	19.993	104.528	20.008	6.938	0.532
639.500	403.272	80.011	19.992	104.522	20.004	7.217	0.490
640.000	403.575	80.012	19.994	104.516	20.004	7.268	0.471
640.500	403.826	80.013	19.993	104.513	20.001	7.495	0.526
641.000	404.062	80.011	19.993	104.513	20.003	7.333	0.521
641.500	404.296	80.012	19.994	104.513	20.005	7.184	0.479
642.000	404.559	80.014	19.994	104.517	20.003	7.321	0.484
642.500	404.827	80.012	19.994	104.522	20.004	7.252	0.514
643.000	405.049	80.012	19.995	104.525	20.000	7.547	0.510
643.500	405.331	80.012	19.994	104.526	20.001	7.470	0.497
644.000	405.576	80.012	19.995	104.526	20.001	7.468	0.515
644.500	405.845	80.011	19.995	104.525	20.000	7.578	0.520
645.000	406.102	80.011	19.994	104.520	19.998	7.699	0.520
645.500	406.364	80.010	19.994	104.516	19.998	7.686	0.523
646.000	406.602	80.010	19.994	104.515	19.997	7.744	0.509
646.500	406.848	80.011	19.994	104.515	19.995	7.940	0.492
647.000	407.130	80.012	19.994	104.517	19.995	7.925	0.506
647.500	407.355	80.009	19.995	104.521	19.994	7.981	0.518
648.001	407.638	80.013	19.994	104.524	19.993	8.052	0.508
648.501	407.911	80.013	19.995	104.524	19.990	8.320	0.532
649.001	408.127	80.014	19.994	104.524	19.991	8.247	0.523
649.500	408.405	80.012	19.994	104.518	19.994	7.986	0.492
650.000	408.671	80.013	19.993	104.514	19.993	8.067	0.519
650.500	408.889	80.013	19.995	104.512	19.991	8.220	0.514
651.000	409.135	80.013	19.994	104.511	19.989	8.376	0.474
651.500	409.436	80.012	19.994	104.511	19.985	8.688	0.505
652.000	409.687	80.012	19.994	104.516	19.985	8.642	0.550
652.500	409.919	80.012	19.994	104.520	19.983	8.800	0.518
653.000	410.188	80.012	19.994	104.522	19.985	8.704	0.492
653.500	410.470	80.013	19.994	104.521	19.984	8.769	0.526
654.000	410.687	80.013	19.993	104.520	19.981	8.960	0.524
654.500	410.946	80.013	19.993	104.520	19.980	9.051	0.487
655.000	411.221	80.014	19.994	104.517	19.978	9.215	0.505
655.500	411.474	80.014	19.994	104.517	19.982	8.918	0.531
656.000	411.748	80.015	19.993	104.517	19.982	8.894	0.528
656.500	411.977	80.014	19.993	104.518	19.975	9.408	0.515
657.000	412.226	80.015	19.993	104.517	19.976	9.373	0.490
657.500	412.478	80.014	19.993	104.519	19.976	9.321	0.490
658.000	412.747	80.013	19.993	104.521	19.972	9.668	0.511
658.500	412.991	80.013	19.993	104.521	19.975	9.454	0.517
659.000	413.284	80.014	19.993	104.521	19.973	9.579	0.525
659.500	413.499	80.014	19.993	104.522	19.969	9.847	0.522
660.000	413.776	80.013	19.993	104.522	19.971	9.714	0.500
660.500	414.002	80.013	19.993	104.522	19.970	9.828	0.497
661.000	414.265	80.012	19.992	104.523	19.969	9.859	0.496
661.500	414.477	80.015	19.993	104.523	19.968	9.982	0.482
662.000	414.762	80.014	19.993	104.523	19.967	10.021	0.486
662.500	414.999	80.014	19.993	104.523	19.966	10.125	0.509
663.000	415.254	80.012	19.992	104.523	19.967	10.023	0.507
663.500	415.528	80.012	19.993	104.524	19.963	10.298	0.511
664.000	415.765	80.014	19.994	104.524	19.965	10.196	0.520
664.500	415.996	80.012	19.994	104.524	19.965	10.204	0.489
665.000	416.237	80.013	19.993	104.524	19.959	10.592	0.470
665.500	416.491	80.012	19.992	104.525	19.958	10.665	0.484
666.000	416.785	80.011	19.993	104.525	19.957	10.804	0.521
666.500	417.011	80.011	19.994	104.524	19.956	10.812	0.533
667.000	417.259	80.012	19.993	104.525	19.954	10.974	0.497
667.500	417.564	80.012	19.993	104.523	19.957	10.783	0.513
668.000	417.750	80.012	19.994	104.521	19.953	11.074	0.522
668.501	418.029	80.012	19.993	104.520	19.952	11.159	0.478
669.001	418.304	80.012	19.993	104.520	19.951	11.213	0.510
669.501	418.525	80.012	19.993	104.520	19.949	11.346	0.525
670.000	418.787	80.011	19.993	104.522	19.949	11.379	0.489
670.500	419.035	80.012	19.993	104.524	19.946	11.589	0.496
671.000	419.278	80.011	19.993	104.525	19.942	11.907	0.501
671.500	419.544	80.012	19.994	104.524	19.945	11.641	0.500
672.000	419.782	80.012	19.994	104.522	19.942	11.871	0.506
672.500	420.043	80.010	19.993	104.522	19.940	12.073	0.501
673.000	420.314	80.011	19.996	104.522	19.940	12.062	0.516
673.500	420.581	80.011	19.994	104.521	19.936	12.350	0.535
674.000	420.801	80.011	19.995	104.522	19.936	12.350	0.512
674.500	421.080	80.011	19.994	104.525	19.937	12.307	0.492
675.000	421.337	80.012	19.994	104.524	19.933	12.594	0.518
675.500	421.580	80.012	19.993	104.522	19.932	12.629	0.518
676.001	421.851	80.012	19.994	104.523	19.926	13.070	0.507
676.501	422.136	80.013	19.994	104.519	19.927	13.030	0.535
677.000	422.385	80.010	19.993	104.517	19.924	13.219	0.545
677.500	422.660	80.012	19.994	104.519	19.920	13.539	0.529
678.000	422.864	80.012	19.994	104.519	19.920	13.529	0.502
678.500	423.107	80.012	19.994	104.518	19.920	13.541	0.463
679.000	423.359	80.012	19.994	104.521	19.921	13.484	0.471
679.500	423.626	80.012	19.993	104.521	19.915	13.905	0.508
680.000	423.877	80.011	19.994	104.520	19.918	13.698	0.519
680.500	424.117	80.011	19.993	104.520	19.916	13.831	0.505
681.000	424.369	80.012	19.994	104.519	19.915	13.937	0.491
681.500	424.603	80.011	19.994	104.520	19.913	14.075	0.489
682.000	424.854	80.012	19.994	104.519	19.908	14.414	0.486
682.500	425.140	80.012	19.993	104.518	19.905	14.636	0.511
683.000	425.374	80.013	19.993	104.517	19.903	14.794	0.528
683.500	425.657	80.011	19.992	104.518	19.905	14.684	0.519
684.000	425.891	80.011	19.993	104.516	19.901	14.944	0.517
684.500	426.137	80.012	19.992	104.514	19.899	15.156	0.498
685.000	426.396	80.014	19.993	104.514	19.898	15.210	0.492
685.500	426.610	80.011	19.994	104.517	19.896	15.378	0.489
686.000	426.898	80.011	19.994	104.518	19.894	15.471	0.488
686.500	427.148	80.012	19.993	104.517	19.891	15.733	0.520
687.000	427.400	80.011	19.993	104.518	19.890	15.814	0.520
687.500	427.627	80.012	19.993	104.520	19.888	15.909	0.491
688.000	427.877	80.012	19.994	104.521	19.883	16.308	0.478
688.500	428.141	80.012	19.993	104.520	19.883	16.345	0.496
689.000	428.380	80.012	19.993	104.519	19.880	16.540	0.508
689.500	428.652	80.011	19.992	104.517	19.880	16.528	0.506
690.000	428.887	80.009	19.992	104.512	19.878	16.660	0.509
690.500	429.155	80.013	19.994	104.509	19.875	16.952	0.505
691.000	429.405	80.011	19.993	104.510	19.874	17.021	0.511
691.500	429.635	80.011	19.992	104.511	19.871	17.224	0.499
692.000	429.904	80.010	19.993	104.516	19.866	17.602	0.489
692.500	430.155	80.011	19.993	104.522	19.863	17.812	0.509
693.000	430.402	80.011	19.992	104.524	19.861	17.993	0.509
693.500	430.662	80.013	19.992	104.521	19.862	17.914	0.503
694.000	430.923	80.012	19.992	104.523	19.856	18.369	0.514
694.500	431.181	80.012	19.993	104.523	19.851	18.755	0.520
695.000	431.415	80.012	19.993	104.524	19.849	18.903	0.505
695.500	431.688	80.010	19.993	104.525	19.850	18.820	0.499
696.000	431.924	80.012	19.992	104.528	19.845	19.196	0.508
696.500	432.193	80.011	19.993	104.526	19.842	19.397	0.507
697.000	432.449	80.012	19.993	104.526	19.838	19.723	0.515
697.500	432.739	80.012	19.992	104.526	19.832	20.115	0.536
698.000	432.993	80.011	19.993	104.523	19.834	20.008	0.545
698.500	433.235	80.010	19.993	104.520	19.832	20.158	0.520
699.000	433.498	80.012	19.992	104.521	19.827	20.486	0.501
699.500	433.790	80.011	19.993	104.521	19.826	20.606	0.530
700.000	434.020	80.011	19.993	104.521	19.821	20.969	0.538
700.500	434.303	80.011	19.992	104.525	19.822	20.917	0.517
701.000	434.543	80.010	19.992	104.527	19.813	21.534	0.518
701.500	434.824	80.010	19.993	104.526	19.811	21.710	0.522
702.000	435.062	80.011	19.991	104.526	19.808	21.926	0.520
702.500	435.342	80.010	19.992	104.526	19.806	22.110	0.518
703.000	435.591	80.010	19.993	104.525	19.805	22.173	0.524
703.500	435.862	80.012	19.993	104.524	19.800	22.559	0.525
704.000	436.112	80.012	19.992	104.527	19.800	22.542	0.520
704.500	436.397	80.012	19.993	104.527	19.793	23.093	0.528
705.000	436.691	80.012	19.993	104.527	19.789	23.338	0.557
705.500	436.937	80.013	19.992	104.528	19.785	23.634	0.559
706.000	437.195	80.012	19.993	104.530	19.781	23.986	0.522
706.500	437.469	80.011	19.994	104.529	19.780	24.059	0.518
707.000	437.703	80.012	19.995	104.528	19.776	24.333	0.520
707.500	437.991	80.012	19.994	104.526	19.771	24.715	0.515
708.000	438.257	80.011	19.994	104.526	19.770	24.818	0.538
708.500	438.529	80.010	19.993	104.521	19.764	25.250	0.546
709.000	438.791	80.012	19.993	104.520	19.762	25.385	0.536
709.500	439.076	80.013	19.993	104.518	19.757	25.749	0.541
710.000	439.342	80.012	19.994	104.520	19.753	26.070	0.549
710.500	439.589	80.012	19.994	104.518	19.750	26.266	0.532
711.000	439.868	80.012	19.994	104.515	19.744	26.728	0.519
711.500	440.142	80.013	19.994	104.515	19.743	26.821	0.539
712.000	440.419	80.013	19.993	104.516	19.739	27.128	0.552
712.500	440.715	80.013	19.994	104.513	19.736	27.370	0.562
713.001	440.959	80.012	19.993	104.515	19.729	27.858	0.556
713.501	441.227	80.013	19.994	104.521	19.727	28.021	0.526
714.000	441.507	80.014	19.993	104.522	19.720	28.539	0.530
714.500	441.789	80.012	19.994	104.520	19.716	28.838	0.555
715.000	442.029	80.012	19.993	104.520	19.713	29.057	0.542
715.500	442.284	80.014	19.994	104.513	19.709	29.342	0.509
716.000	442.577	80.014	19.994	104.505	19.702	29.851	0.522
716.500	442.853	80.014	19.994	104.499	19.698	30.147	0.559
717.001	443.101	80.012	19.994	104.494	19.696	30.362	0.546
717.501	443.401	80.012	19.994	104.494	19.690	30.802	0.536
718.000	443.649	80.013	19.994	104.497	19.684	31.199	0.548
718.500	443.929	80.013	19.994	104.503	19.681	31.477	0.538
719.000	444.192	80.011	19.993	104.508	19.676	31.829	0.535
719.500	444.467	80.012	19.993	104.510	19.666	32.571	0.540
720.000	444.692	80.012	19.994	104.508	19.666	32.614	0.519
720.500	445.027	80.014	19.993	104.511	19.662	32.855	0.530
721.000	445.294	80.012	19.994	104.509	19.655	33.408	0.581
721.500	445.558	80.012	19.993	104.503	19.651	33.694	0.566
722.000	445.807	80.012	19.993	104.507	19.646	34.069	0.522
722.500	446.079	80.013	19.993	104.506	19.637	34.776	0.517
723.000	446.369	80.013	19.994	104.503	19.633	35.033	0.542
723.500	446.652	80.013	19.992	104.501	19.630	35.248	0.568
724.000	446.892	80.012	19.993	104.502	19.624	35.720	0.548
724.500	447.162	80.013	19.993	104.497	19.621	35.960	0.516
725.001	447.433	80.012	19.994	104.494	19.615	36.395	0.525
725.501	447.731	80.012	19.993	104.492	19.612	36.632	0.555
726.000	447.994	80.013	19.994	104.495	19.604	37.249	0.565
726.500	448.275	80.015	19.994	104.499	19.600	37.506	0.553
727.000	448.545	80.014	19.994	104.498	19.593	38.066	0.547
727.500	448.826	80.014	19.994	104.497	19.594	38.010	0.551
728.000	449.093	80.012	19.993	104.500	19.583	38.801	0.550
728.500	449.380	80.013	19.994	104.498	19.580	39.043	0.551
729.000	449.656	80.014	19.994	104.493	19.572	39.588	0.558
729.500	449.896	80.012	19.994	104.494	19.571	39.713	0.540
730.000	450.211	80.014	19.994	104.496	19.566	40.090	0.536
730.500	450.454	80.012	19.993	104.497	19.561	40.454	0.557
731.000	450.727	80.015	19.994	104.502	19.556	40.834	0.537
731.501	450.983	80.012	19.993	104.510	19.550	41.301	0.523
732.000	451.287	80.013	19.993	104.513	19.548	41.421	0.545
732.500	451.537	80.012	19.993	104.515	19.541	41.942	0.557
733.000	451.829	80.014	19.995	104.514	19.533	42.569	0.548
733.500	452.087	80.013	19.995	104.512	19.527	43.025	0.546
734.000	452.365	80.013	19.994	104.504	19.524	43.226	0.543
734.500	452.646	80.013	19.994	104.500	19.517	43.749	0.548
735.000	452.898	80.013	19.994	104.497	19.513	44.075	0.546
735.501	453.134	80.014	19.994	104.495	19.505	44.621	0.510
736.000	453.445	80.013	19.995	104.490	19.500	44.998	0.517
736.500	453.727	80.013	19.994	104.491	19.491	45.711	0.570
737.000	453.989	80.014	19.993	104.491	19.485	46.109	0.569
737.500	454.281	80.013	19.994	104.491	19.482	46.387	0.550
738.000	454.520	80.013	19.994	104.491	19.474	46.955	0.543
738.500	454.827	80.013	19.994	104.490	19.466	47.557	0.538
739.000	455.080	80.011	19.994	104.488	19.461	47.906	0.553
739.500	455.379	80.014	19.995	104.486	19.456	48.285	0.556
740.000	455.622	80.014	19.994	104.484	19.451	48.701	0.547
740.500	455.912	80.012	19.994	104.484	19.443	49.263	0.537
741.000	456.189	80.012	19.994	104.484	19.437	49.715	0.550
741.500	456.457	80.015	19.993	104.484	19.434	49.979	0.556
742.000	456.705	80.012	19.994	104.484	19.422	50.855	0.530
742.500	456.963	80.014	19.994	104.485	19.417	51.196	0.511
743.000	457.258	80.012	19.995	104.484	19.409	51.842	0.530
743.500	457.525	80.013	19.994	104.484	19.404	52.237	0.557
744.000	457.803	80.013	19.994	104.484	19.397	52.754	0.553
744.500	458.121	80.013	19.994	104.485	19.384	53.707	0.570
745.000	458.379	80.012	19.994	104.485	19.381	53.908	0.586
745.500	458.672	80.013	19.994	104.486	19.372	54.577	0.564
746.000	458.938	80.012	19.995	104.486	19.364	55.197	0.555
746.500	459.165	80.013	19.994	104.486	19.356	55.806	0.526
747.000	459.460	80.011	19.994	104.484	19.347	56.441	0.508
747.500	459.745	80.011	19.994	104.484	19.339	57.100	0.551
748.000	460.030	80.011	19.994	104.484	19.334	57.434	0.575
748.500	460.326	80.011	19.994	104.484	19.326	58.046	0.576
749.000	460.561	80.011	19.994	104.481	19.320	58.517	0.556
749.500	460.830	80.011	19.993	104.480	19.307	59.485	0.518
750.000	461.087	80.012	19.994	104.481	19.298	60.112	0.515
750.500	461.335	80.011	19.993	104.481	19.290	60.726	0.515
751.000	461.643	80.011	19.993	104.482	19.281	61.418	0.530
751.500	461.920	80.012	19.994	104.485	19.268	62.366	0.570
752.000	462.183	80.012	19.992	104.483	19.264	62.662	0.562
752.500	462.441	80.011	19.993	104.476	19.257	63.193	0.531
753.000	462.723	80.012	19.993	104.476	19.245	64.123	0.531
753.500	462.986	80.011	19.994	104.475	19.236	64.766	0.543
754.000	463.270	80.011	19.994	104.476	19.224	65.696	0.546
754.500	463.496	80.011	19.993	104.477	19.219	66.054	0.528
755.000	463.778	80.011	19.993	104.482	19.205	67.086	0.509
755.500	464.049	80.011	19.993	104.479	19.196	67.800	0.530
756.000	464.334	80.009	19.993	104.473	19.188	68.354	0.554
756.500	464.592	80.012	19.992	104.466	19.179	69.028	0.550
757.000	464.890	80.010	19.993	104.462	19.169	69.775	0.550
757.500	465.104	80.011	19.993	104.459	19.156	70.767	0.534
758.000	465.390	80.010	19.993	104.463	19.145	71.613	0.506
758.500	465.635	80.011	19.993	104.468	19.135	72.331	0.516
759.001	465.919	80.010	19.993	104.472	19.126	73.048	0.530
759.501	466.186	80.010	19.995	104.474	19.112	74.031	0.540
760.000	466.435	80.012	19.993	104.471	19.104	74.667	0.533
760.500	466.708	80.010	19.993	104.464	19.094	75.431	0.519
761.000	466.991	80.011	19.993	104.457	19.081	76.360	0.539
761.500	467.214	80.010	19.992	104.452	19.071	77.154	0.531
762.000	467.516	80.011	19.992	104.451	19.058	78.127	0.515
762.500	467.792	80.010	19.992	104.451	19.047	78.896	0.552
763.000	468.093	80.011	19.992	104.456	19.033	79.962	0.578
763.500	468.321	80.011	19.992	104.458	19.022	80.777	0.553
764.000	468.594	80.013	19.992	104.458	19.010	81.664	0.515
764.500	468.827	80.009	19.993	104.459	18.998	82.609	0.504
765.001	469.132	80.009	19.993	104.458	18.982	83.754	0.522
765.500	469.370	80.012	19.992	104.453	18.969	84.755	0.541
766.000	469.643	80.011	19.993	104.451	18.956	85.717	0.527
766.500	469.910	80.010	19.992	104.451	18.944	86.594	0.525
767.000	470.177	80.010	19.992	104.454	18.929	87.718	0.537
767.500	470.445	80.011	19.992	104.456	18.916	88.722	0.534
768.000	470.721	80.011	19.993	104.456	18.905	89.571	0.539
768.500	470.982	80.011	19.993	104.456	18.892	90.480	0.541
769.000	471.232	80.010	19.992	104.455	18.878	91.593	0.524
769.500	471.486	80.011	19.993	104.448	18.865	92.562	0.507
770.000	471.763	80.010	19.993	104.440	18.848	93.777	0.518
770.500	472.010	80.011	19.993	104.434	18.830	95.107	0.527
771.000	472.269	80.011	19.993	104.432	18.819	95.936	0.515
771.500	472.527	80.010	19.992	104.430	18.802	97.232	0.512
772.000	472.806	80.010	19.993	104.429	18.789	98.194	0.527
772.500	473.079	80.010	19.993	104.434	18.772	99.496	0.545
773.000	473.315	80.010	19.993	104.438	18.755	100.764	0.531
773.500	473.607	80.011	19.993	104.436	18.740	101.863	0.519
774.000	473.861	80.012	19.994	104.432	18.724	103.088	0.537
774.500	474.142	80.011	19.993	104.428	18.709	104.176	0.540
775.000	474.422	80.011	19.993	104.421	18.690	105.590	0.548
775.500	474.669	80.012	19.993	104.414	18.678	106.517	0.544
776.000	474.942	80.011	19.992	104.411	18.662	107.729	0.523
776.500	475.229	80.011	19.993	104.410	18.646	108.926	0.540
777.000	475.462	80.010	19.993	104.409	18.628	110.255	0.540
777.500	475.723	80.011	19.994	104.409	18.613	111.342	0.507
778.000	475.991	80.010	19.993	104.409	18.597	112.551	0.511
778.500	476.218	80.010	19.993	104.408	18.576	114.121	0.512
779.000	476.523	80.011	19.994	104.406	18.564	114.989	0.513
779.500	476.757	80.011	19.992	104.406	18.545	116.447	0.535
780.000	477.029	80.012	19.993	104.403	18.531	117.456	0.523
780.500	477.269	80.010	19.994	104.400	18.508	119.165	0.509
781.000	477.554	80.011	19.994	104.395	18.489	120.605	0.518
781.500	477.788	80.011	19.994	104.391	18.476	121.570	0.522
782.000	478.038	80.010	19.992	104.384	18.458	122.921	0.501
782.500	478.331	80.010	19.994	104.381	18.440	124.250	0.513
783.001	478.607	80.011	19.993	104.383	18.423	125.575	0.556
783.501	478.869	80.011	19.993	104.385	18.404	126.963	0.554
784.000	479.105	80.011	19.994	104.388	18.388	128.126	0.518
784.500	479.342	80.011	19.992	104.390	18.369	129.593	0.485
785.000	479.622	80.011	19.994	104.388	18.349	131.040	0.495
785.500	479.904	80.011	19.994	104.381	18.332	132.316	0.540
786.000	480.176	80.011	19.994	104.376	18.314	133.687	0.558
786.500	480.428	80.011	19.993	104.373	18.294	135.153	0.539
787.000	480.668	80.011	19.993	104.370	18.278	136.369	0.508
787.501	480.956	80.011	19.993	104.369	18.254	138.107	0.510
788.001	481.193	80.009	19.993	104.369	18.241	139.091	0.527
788.500	481.473	80.010	19.994	104.369	18.223	140.438	0.521
789.000	481.717	80.011	19.994	104.367	18.206	141.678	0.520
789.500	481.966	80.013	19.993	104.361	18.187	143.129	0.509
790.000	482.221	80.012	19.993	104.355	18.168	144.552	0.499
790.500	482.498	80.012	19.993	104.348	18.147	146.107	0.518
791.000	482.732	80.011	19.994	104.340	18.133	147.144	0.521
791.500	483.029	80.011	19.992	104.335	18.115	148.509	0.521
792.000	483.283	80.012	19.994	104.333	18.093	150.098	0.541
792.500	483.518	80.011	19.991	104.332	18.080	151.084	0.520
793.000	483.814	80.012	19.994	104.331	18.062	152.464	0.510
793.500	484.045	80.012	19.994	104.331	18.049	153.440	0.529
794.000	484.336	80.012	19.994	104.330	18.031	154.725	0.524
794.500	484.553	80.012	19.993	104.329	18.014	156.021	0.515
795.000	484.855	80.014	19.993	104.324	18.000	157.069	0.514
795.501	485.094	80.013	19.992	104.316	17.987	158.011	0.530
796.001	485.305	80.013	19.992	104.309	17.968	159.426	0.495
796.501	485.584	80.013	19.993	104.302	17.955	160.418	0.470
797.000	485.866	80.014	19.993	104.295	17.944	161.239	0.526
797.500	486.109	80.014	19.993	104.291	17.926	162.533	0.543
798.000	486.377	80.012	19.993	104.292	17.914	163.449	0.518
798.500	486.638	80.014	19.993	104.291	17.907	164.011	0.520
799.000	486.907	80.013	19.993	104.289	17.892	165.058	0.529
799.500	487.149	80.013	19.993	104.286	17.884	165.698	0.520
800.000	487.413	80.013	19.994	104.279	17.869	166.800	0.509
800.500	487.642	80.013	19.993	104.272	17.863	167.258	0.500
801.000	487.911	80.014	19.993	104.267	17.854	167.935	0.495
801.500	488.162	80.014	19.995	104.261	17.848	168.378	0.509
802.001	488.441	80.011	19.993	104.255	17.837	169.194	0.526
802.500	488.704	80.012	19.993	104.255	17.831	169.679	0.536
803.000	488.956	80.013	19.994	104.254	17.828	169.897	0.528
803.500	489.195	80.012	19.993	104.251	17.823	170.275	0.502
804.000	489.471	80.011	19.994	104.251	17.816	170.734	0.503
804.500	489.705	80.011	19.995	104.251	17.815	170.822	0.513
805.000	490.008	80.012	19.993	104.251	17.815	170.867	0.523
805.500	490.260	80.011	19.993	104.247	17.809	171.266	0.546
806.001	490.489	80.010	19.994	104.240	17.811	171.112	0.518
806.501	490.726	80.012	19.994	104.233	17.812	171.103	0.473
807.000	490.996	80.012	19.994	104.229	17.816	170.791	0.487
807.500	491.278	80.012	19.994	104.224	17.819	170.585	0.529
808.000	491.544	80.012	19.995	104.220	17.823	170.260	0.550
808.500	491.760	80.011	19.994	104.220	17.831	169.678	0.515
809.000	492.055	80.011	19.993	104.221	17.836	169.339	0.497
809.500	492.292	80.013	19.993	104.217	17.845	168.690	0.522
810.000	492.557	80.010	19.994	104.216	17.855	167.930	0.517
810.500	492.824	80.011	19.993	104.217	17.865	167.138	0.516
811.000	493.046	80.011	19.994	104.221	17.877	166.259	0.510
811.500	493.316	80.011	19.994	104.223	17.888	165.434	0.491
812.000	493.547	80.011	19.994	104.223	17.900	164.590	0.497
812.500	493.835	80.011	19.994	104.223	17.918	163.239	0.510
813.000	494.122	80.011	19.994	104.222	17.934	162.036	0.547
813.500	494.367	80.012	19.994	104.218	17.953	160.639	0.553
814.000	494.635	80.010	19.993	104.215	17.968	159.455	0.523
814.500	494.880	80.011	19.994	104.213	17.987	158.026	0.512
815.000	495.151	80.012	19.993	104.213	18.007	156.551	0.514
815.500	495.425	80.010	19.994	104.213	18.032	154.689	0.531
816.000	495.693	80.012	19.993	104.213	18.055	152.989	0.544
816.500	495.889	80.012	19.993	104.215	18.077	151.385	0.503
817.000	496.184	80.012	19.995	104.216	18.100	149.623	0.477
817.500	496.400	80.011	19.994	104.216	18.127	147.662	0.501
818.000	496.686	80.012	19.994	104.216	18.152	145.798	0.506
818.500	496.912	80.011	19.994	104.222	18.178	143.850	0.507
819.000	497.167	80.012	19.993	104.227	18.207	141.659	0.497
819.500	497.437	80.013	19.993	104.234	18.233	139.741	0.503
820.000	497.691	80.013	19.995	104.243	18.266	137.291	0.524
820.500	497.956	80.011	19.993	104.250	18.298	134.907	0.521
821.001	498.212	80.013	19.993	104.251	18.323	133.031	0.520
821.501	498.462	80.014	19.993	104.253	18.356	130.555	0.514
822.000	498.707	80.013	19.993	104.254	18.389	128.115	0.501
822.500	498.992	80.013	19.994	104.255	18.420	125.790	0.512
823.000	499.206	80.014	19.993	104.259	18.455	123.214	0.515
823.500	499.507	80.014	19.994	104.260	18.489	120.635	0.507
824.000	499.727	80.012	19.993	104.262	18.521	118.235	0.518
824.500	499.999	80.016	19.994	104.264	18.556	115.602	0.506
825.000	500.274	80.013	19.992	104.264	18.590	113.069	0.520
825.500	500.481	80.014	19.993	104.262	18.628	110.271	0.514
826.000	500.765	80.013	19.993	104.264	18.663	107.638	0.486
826.500	501.021	80.013	19.993	104.268	18.702	104.748	0.516
827.000	501.255	80.013	19.993	104.273	18.735	102.289	0.515
827.500	501.515	80.012	19.993	104.280	18.774	99.362	0.492
828.000	501.806	80.012	19.993	104.287	18.812	96.498	0.523
828.500	502.034	80.011	19.994	104.295	18.851	93.601	0.535
829.000	502.292	80.012	19.993	104.300	18.887	90.894	0.502
829.501	502.559	80.011	19.993	104.306	18.921	88.333	0.506
830.001	502.817	80.011	19.994	104.310	18.955	85.818	0.525
830.500	503.058	80.010	19.994	104.317	18.995	82.848	0.512
831.000	503.296	80.011	19.994	104.318	19.029	80.313	0.489
831.500	503.559	80.010	19.993	104.321	19.066	77.491	0.490
832.000	503.812	80.010	19.995	104.323	19.102	74.798	0.509
832.500	504.052	80.009	19.995	104.332	19.133	72.488	0.505
833.000	504.317	80.010	19.994	104.339	19.169	69.814	0.499
833.500	504.554	80.010	19.994	104.352	19.200	67.479	0.504
834.000	504.838	80.011	19.994	104.360	19.233	64.988	0.512
834.500	505.090	80.010	19.995	104.367	19.265	62.579	0.528
835.000	505.326	80.010	19.995	104.371	19.298	60.162	0.512
835.500	505.579	80.010	19.995	104.372	19.329	57.801	0.489
836.000	505.843	80.010	19.994	104.375	19.356	55.765	0.503
836.500	506.076	80.010	19.994	104.376	19.386	53.526	0.507
837.000	506.335	80.011	19.994	104.379	19.416	51.325	0.494
837.500	506.608	80.010	19.995	104.385	19.442	49.382	0.512
838.000	506.844	80.010	19.994	104.392	19.469	47.339	0.520
838.501	507.092	80.011	19.994	104.397	19.495	45.381	0.497
839.001	507.380	80.009	19.994	104.404	19.523	43.322	0.510
839.500	507.587	80.010	19.995	104.409	19.547	41.522	0.515
840.000	507.853	80.010	19.995	104.416	19.570	39.748	0.484
840.500	508.121	80.011	19.995	104.419	19.590	38.242	0.504
841.000	508.352	80.011	19.995	104.427	19.615	36.427	0.517
841.500	508.626	80.011	19.994	104.434	19.637	34.712	0.502
842.000	508.873	80.011	19.993	104.440	19.656	33.360	0.513
842.500	509.120	80.011	19.995	104.443	19.674	32.004	0.507
843.000	509.361	80.010	19.995	104.447	19.695	30.364	0.491
843.500	509.640	80.011	19.995	104.448	19.712	29.121	0.504
844.000	509.878	80.010	19.993	104.448	19.729	27.872	0.518
844.500	510.101	80.010	19.995	104.451	19.746	26.595	0.488
845.000	510.387	80.011	19.995	104.455	19.763	25.341	0.485
845.500	510.648	80.009	19.994	104.463	19.778	24.196	0.528
846.000	510.897	80.010	19.995	104.469	19.792	23.120	0.528
846.500	511.149	80.011	19.995	104.475	19.801	22.478	0.505
847.000	511.440	80.011	19.993	104.476	19.815	21.413	0.523
847.500	511.668	80.012	19.994	104.477	19.827	20.507	0.531
848.000	511.939	80.011	19.995	104.477	19.837	19.738	0.509
848.500	512.132	80.011	19.994	104.478	19.849	18.864	0.481
849.000	512.411	80.011	19.995	104.477	19.857	18.223	0.468
849.500	512.656	80.011	19.994	104.480	19.866	17.600	0.498
850.000	512.890	80.011	19.994	104.481	19.879	16.628	0.502
850.501	513.172	80.011	19.994	104.481	19.887	16.008	0.497
851.001	513.410	80.011	19.994	104.480	19.890	15.811	0.518
851.500	513.670	80.011	19.994	104.481	19.899	15.105	0.509
852.000	513.930	80.012	19.993	104.481	19.906	14.574	0.509
852.500	514.203	80.011	19.992	104.481	19.915	13.891	0.527
853.000	514.433	80.013	19.994	104.479	19.923	13.300	0.518
853.500	514.680	80.012	19.995	104.478	19.927	13.013	0.490
854.000	514.940	80.012	19.993	104.479	19.929	12.840	0.492
854.500	515.219	80.012	19.994	104.479	19.937	12.268	0.523
855.000	515.450	80.011	19.994	104.481	19.942	11.859	0.524
855.500	515.721	80.012	19.995	104.483	19.947	11.490	0.506
856.000	515.943	80.012	19.993	104.484	19.949	11.361	0.498
856.500	516.233	80.012	19.994	104.479	19.956	10.854	0.503
857.000	516.505	80.012	19.995	104.476	19.958	10.706	0.537
857.500	516.748	80.010	19.994	104.474	19.959	10.627	0.538
858.000	517.026	80.011	19.994	104.470	19.964	10.264	0.518
858.500	517.276	80.011	19.995	104.469	19.968	9.936	0.525
859.000	517.527	80.011	19.995	104.473	19.971	9.739	0.515
859.500	517.814	80.011	19.992	104.474	19.973	9.573	0.519
860.000	518.032	80.011	19.995	104.475	19.979	9.139	0.521
860.500	518.268	80.011	19.994	104.475	19.981	8.986	0.480
861.000	518.527	80.012	19.993	104.470	19.981	8.955	0.474
861.500	518.812	80.010	19.994	104.464	19.980	9.040	0.519
862.001	519.082	80.009	19.993	104.462	19.982	8.857	0.549
862.500	519.304	80.010	19.993	104.461	19.986	8.577	0.523
863.000	519.557	80.012	19.993	104.462	19.989	8.396	0.484
863.500	519.833	80.010	19.993	104.467	19.992	8.164	0.502
864.000	520.078	80.010	19.994	104.473	19.993	8.101	0.525
864.500	520.336	80.010	19.994	104.478	19.996	7.858	0.512
865.001	520.640	80.012	19.994	104.480	19.995	7.900	0.533
865.500	520.851	80.010	19.993	104.484	19.999	7.618	0.538
866.000	521.122	80.011	19.994	104.486	19.998	7.670	0.499
866.500	521.375	80.011	19.994	104.485	19.998	7.711	0.503
867.000	521.654	80.012	19.995	104.483	20.003	7.354	0.528
867.500	521.896	80.010	19.993	104.478	20.002	7.389	0.526
868.000	522.111	80.010	19.993	104.479	20.006	7.063	0.489
868.500	522.410	80.011	19.994	104.479	20.006	7.098	0.485
869.000	522.642	80.011	19.993	104.479	20.004	7.271	0.522
869.500	522.911	80.010	19.994	104.481	20.007	7.032	0.516
870.001	523.160	80.010	19.994	104.486	20.007	6.991	0.510
870.500	523.441	80.011	19.993	104.486	20.009	6.906	0.524
871.000	523.675	80.012	19.995	104.486	20.012	6.679	0.523
871.500	523.937	80.010	19.994	104.486	20.010	6.798	0.506
872.001	524.148	80.011	19.994	104.486	20.014	6.528	0.485
872.500	524.429	80.011	19.994	104.486	20.013	6.567	0.482
873.000	524.677	80.011	19.993	104.486	20.016	6.366	0.510
873.500	524.906	80.012	19.993	104.486	20.019	6.121	0.503
874.000	525.193	80.011	19.994	104.486	20.017	6.295	0.497
874.500	525.468	80.011	19.993	104.486	20.018	6.206	0.538
875.000	525.705	80.013	19.993	104.486	20.019	6.139	0.537
875.500	525.923	80.012	19.993	104.486	20.021	5.986	0.484
876.000	526.183	80.012	19.993	104.487	20.021	5.984	0.467
876.500	526.433	80.011	19.994	104.488	20.021	5.971	0.493
877.000	526.663	80.012	19.993	104.488	20.025	5.666	0.494
877.500	526.943	80.012	19.994	104.488	20.020	6.046	0.495
878.000	527.213	80.013	19.993	104.488	20.021	5.961	0.531
878.500	527.455	80.013	19.992	104.488	20.025	5.677	0.532
879.000	527.709	80.013	19.993	104.486	20.028	5.440	0.504
879.500	527.954	80.012	19.993	104.486	20.023	5.847	0.497
880.000	528.187	80.013	19.993	104.486	20.024	5.733	0.488
880.500	528.482	80.012	19.993	104.486	20.025	5.671	0.503
881.001	528.680	80.012	19.993	104.486	20.028	5.461	0.511
881.500	528.969	80.012	19.992	104.488	20.028	5.456	0.490
882.000	529.208	80.013	19.993	104.488	20.027	5.531	0.507
882.500	529.437	80.012	19.993	104.489	20.028	5.467	0.498
883.000	529.696	80.012	19.992	104.489	20.029	5.361	0.478
883.500	529.923	80.012	19.992	104.489	20.029	5.347	0.487
884.000	530.178	80.013	19.993	104.489	20.032	5.156	0.484
884.500	530.455	80.013	19.994	104.489	20.028	5.469	0.507
885.000	530.682	80.012	19.993	104.489	20.029	5.364	0.517
885.500	530.944	80.012	19.993	104.489	20.031	5.231	0.497
886.000	531.175	80.013	19.993	104.487	20.030	5.312	0.492
886.500	531.416	80.012	19.993	104.487	20.032	5.145	0.482
887.000	531.691	80.011	19.993	104.487	20.032	5.122	0.494
887.501	531.956	80.013	19.993	104.487	20.030	5.313	0.528
888.000	532.180	80.011	19.993	104.487	20.029	5.357	0.515
888.500	532.454	80.010	19.992	104.492	20.031	5.245	0.493
889.000	532.682	80.011	19.993	104.496	20.033	5.044	0.499
889.500	532.925	80.012	19.993	104.501	20.030	5.287	0.487
890.000	533.214	80.011	19.993	104.502	20.032	5.146	0.502
890.500	533.447	80.014	19.994	104.502	20.031	5.214	0.527
891.000	533.711	80.011	19.994	104.499	20.031	5.229	0.510
891.500	533.939	80.012	19.993	104.496	20.032	5.133	0.495
892.000	534.222	80.011	19.993	104.492	20.037	4.786	0.501
892.500	534.465	80.013	19.993	104.491	20.036	4.859	0.518
893.000	534.721	80.012	19.994	104.491	20.036	4.817	0.512
893.500	534.969	80.011	19.993	104.491	20.038	4.695	0.502
894.000	535.207	80.012	19.993	104.491	20.033	5.081	0.496
894.500	535.443	80.011	19.994	104.492	20.033	5.075	0.480
895.000	535.726	80.011	19.993	104.494	20.033	5.087	0.496
895.500	536.005	80.012	19.993	104.500	20.034	4.998	0.540
896.000	536.247	80.012	19.993	104.501	20.035	4.954	0.541
896.500	536.493	80.012	19.993	104.503	20.034	5.019	0.504
897.000	536.716	80.012	19.994	104.501	20.036	4.882	0.479
897.500	536.989	80.011	19.993	104.500	20.033	5.066	0.483
898.000	537.260	80.013	19.994	104.495	20.036	4.854	0.520
898.500	537.504	80.011	19.992	104.493	20.037	4.782	0.530
899.000	537.736	80.012	19.993	104.493	20.039	4.630	0.496
899.500	537.966	80.014	19.993	104.496	20.038	4.668	0.469
900.000	538.249	80.012	19.994	104.496	20.037	4.765	0.488
900.501	538.505	80.013	19.994	104.498	20.040	4.572	0.526
901.000	538.742	80.012	19.993	104.502	20.038	4.690	0.516
901.500	538.999	80.012	19.993	104.503	20.040	4.522	0.494
902.000	539.243	80.013	19.994	104.502	20.038	4.672	0.497
902.500	539.546	80.012	19.994	104.502	20.037	4.763	0.524
903.000	539.792	80.013	19.993	104.500	20.039	4.635	0.548
903.500	540.006	80.013	19.993	104.496	20.040	4.541	0.505
904.000	540.304	80.013	19.994	104.495	20.042	4.419	0.486
904.500	540.562	80.012	19.994	104.494	20.040	4.548	0.534
905.000	540.800	80.013	19.994	104.494	20.042	4.421	0.526
905.500	541.046	80.014	19.994	104.495	20.037	4.776	0.490
906.000	541.301	80.013	19.994	104.494	20.038	4.693	0.492
906.500	541.572	80.014	19.994	104.498	20.041	4.481	0.513
907.000	541.834	80.013	19.993	104.500	20.043	4.348	0.529
907.500	542.099	80.012	19.994	104.499	20.044	4.232	0.531
908.000	542.345	80.012	19.993	104.498	20.043	4.304	0.519
908.500	542.607	80.012	19.994	104.497	20.045	4.169	0.510
909.000	542.841	80.012	19.994	104.491	20.043	4.292	0.502
909.500	543.071	80.012	19.995	104.493	20.045	4.204	0.480
910.000	543.384	80.012	19.993	104.496	20.043	4.325	0.503
910.500	543.615	80.013	19.995	104.497	20.045	4.196	0.543
911.000	543.863	80.012	19.994	104.499	20.045	4.159	0.511
911.500	544.102	80.012	19.994	104.500	20.044	4.246	0.483
912.000	544.379	80.013	19.994	104.494	20.040	4.578	0.502
912.500	544.587	80.009	19.993	104.491	20.045	4.196	0.500
913.000	544.883	80.013	19.996	104.492	20.044	4.277	0.495
913.500	545.120	80.011	19.995	104.497	20.045	4.182	0.518
914.001	545.340	80.012	19.994	104.497	20.048	3.945	0.495
914.501	545.621	80.011	19.995	104.501	20.049	3.839	0.479
915.001	545.877	80.012	19.995	104.505	20.045	4.170	0.520
915.500	546.154	80.011	19.994	104.508	20.047	4.026	0.535
916.000	546.393	80.013	19.994	104.507	20.045	4.176	0.524
916.500	546.655	80.011	19.994	104.511	20.044	4.221	0.509
917.000	546.878	80.012	19.994	104.512	20.047	4.030	0.493
917.500	547.154	80.011	19.994	104.511	20.047	4.003	0.492
918.000	547.399	80.011	19.993	104.505	20.048	3.937	0.510
918.500	547.648	80.012	19.994	104.500	20.047	4.041	0.507
919.000	547.916	80.012	19.993	104.495	20.046	4.080	0.506
919.500	548.159	80.012	19.994	104.491	20.050	3.818	0.514
920.000	548.406	80.011	19.994	104.488	20.048	3.931	0.501
920.500	548.659	80.012	19.994	104.489	20.044	4.232	0.495
921.000	548.957	80.012	19.995	104.489	20.051	3.760	0.525
921.500	549.177	80.011	19.993	104.492	20.048	3.964	0.534
922.001	549.472	80.011	19.994	104.492	20.046	4.109	0.516
922.501	549.675	80.011	19.993	104.494	20.052	3.646	0.507
923.000	549.965	80.010	19.994	104.493	20.050	3.816	0.496
923.500	550.203	80.012	19.994	104.493	20.050	3.806	0.511
924.000	550.439	80.011	19.994	104.493	20.053	3.586	0.501
924.500	550.716	80.010	19.993	104.497	20.051	3.729	0.494
925.000	550.939	80.012	19.994	104.500	20.052	3.682	0.507
925.500	551.224	80.009	19.994	104.501	20.050	3.827	0.504
926.000	551.489	80.011	19.993	104.500	20.055	3.389	0.529
926.500	551.722	80.011	19.994	104.498	20.053	3.561	0.524
927.000	551.930	80.011	19.993	104.494	20.052	3.657	0.469
927.500	552.179	80.011	19.994	104.495	20.052	3.634	0.449
928.000	552.454	80.011	19.993	104.496	20.055	3.453	0.490
928.500	552.692	80.012	19.995	104.495	20.055	3.453	0.518
929.000	552.953	80.012	19.994	104.496	20.052	3.650	0.506
929.500	553.207	80.011	19.994	104.494	20.052	3.642	0.507
930.000	553.461	80.012	19.994	104.493	20.053	3.545	0.512
930.500	553.701	80.011	19.993	104.494	20.052	3.675	0.501
931.000	553.991	80.012	19.994	104.495	20.055	3.443	0.512
931.500	554.262	80.011	19.995	104.495	20.048	3.937	0.545
932.000	554.462	80.011	19.994	104.494	20.052	3.649	0.516
932.500	554.701	80.011	19.994	104.492	20.050	3.777	0.455
933.000	554.965	80.012	19.995	104.490	20.051	3.751	0.471
933.500	555.208	80.011	19.994	104.488	20.051	3.720	0.505
934.000	555.458	80.011	19.995	104.488	20.052	3.626	0.500
934.500	555.719	80.010	19.993	104.493	20.049	3.877	0.502
935.000	555.933	80.012	19.996	104.496	20.052	3.680	0.492
935.500	556.197	80.010	19.993	104.499	20.054	3.487	0.476
936.000	556.441	80.011	19.995	104.507	20.052	3.655	0.493
936.500	556.702	80.011	19.996	104.511	20.053	3.593	0.507
937.000	556.931	80.011	19.995	104.512	20.053	3.578	0.498
937.500	557.149	80.011	19.995	104.510	20.054	3.468	0.469
938.000	557.447	80.011	19.995	104.507	20.054	3.474	0.482
938.500	557.720	80.011	19.995	104.502	20.052	3.667	0.544
939.000	557.913	80.011	19.995	104.499	20.054	3.495	0.518
939.500	558.181	80.012	19.994	104.495	20.054	3.516	0.463
940.000	558.432	80.011	19.994	104.499	20.055	3.406	0.490
940.500	558.674	80.011	19.996	104.504	20.055	3.427	0.506
941.000	558.896	80.010	19.994	104.503	20.055	3.462	0.478
941.500	559.141	80.011	19.995	104.502	20.054	3.483	0.465
942.000	559.403	80.010	19.994	104.507	20.054	3.496	0.487
942.500	559.600	80.010	19.995	104.507	20.048	3.932	0.483
943.001	559.880	80.010	19.994	104.507	20.053	3.568	0.468
943.500	560.151	80.009	19.994	104.507	20.049	3.846	0.514
944.000	560.348	80.011	19.994	104.513	20.052	3.633	0.509
944.500	560.596	80.010	19.994	104.516	20.050	3.801	0.457
945.000	560.851	80.011	19.994	104.517	20.053	3.593	0.474
945.500	561.061	80.011	19.993	104.519	20.054	3.529	0.484
946.000	561.306	80.011	19.994	104.523	20.055	3.400	0.460
946.500	561.549	80.009	19.994	104.519	20.054	3.508	0.471
947.000	561.779	80.010	19.993	104.513	20.054	3.489	0.481
947.501	562.038	80.010	19.993	104.509	20.053	3.597	0.481
948.000	562.245	80.010	19.994	104.502	20.056	3.383	0.478
948.500	562.526	80.009	19.994	104.501	20.054	3.479	0.477
949.001	562.773	80.009	19.993	104.506	20.051	3.739	0.508
949.501	562.997	80.010	19.993	104.511	20.052	3.683	0.499
950.001	563.215	80.011	19.994	104.517	20.051	3.699	0.456
950.501	563.489	80.009	19.994	104.524	20.053	3.575	0.467
951.000	563.719	80.009	19.994	104.528	20.051	3.689	0.498
951.500	563.986	80.011	19.995	104.529	20.051	3.749	0.501
952.000	564.210	80.010	19.994	104.528	20.048	3.980	0.494
952.500	564.450	80.011	19.994	104.528	20.050	3.774	0.478
953.000	564.679	80.011	19.993	104.526	20.049	3.840	0.466
953.500	564.932	80.010	19.994	104.526	20.050	3.807	0.475
954.000	565.189	80.012	19.994	104.524	20.050	3.784	0.496
954.500	565.468	80.011	19.992	104.524	20.050	3.776	0.523
955.000	565.695	80.011	19.994	104.524	20.055	3.450	0.521
955.500	565.902	80.012	19.993	104.526	20.047	4.025	0.470
956.000	566.155	80.012	19.994	104.526	20.051	3.732	0.446
956.501	566.380	80.011	19.992	104.529	20.050	3.813	0.469
957.001	566.663	80.011	19.994	104.529	20.051	3.753	0.493
957.500	566.895	80.012	19.993	104.529	20.051	3.757	0.512
958.001	567.126	80.012	19.994	104.529	20.053	3.601	0.489
958.501	567.372	80.011	19.992	104.529	20.048	3.934	0.470
959.000	567.586	80.012	19.993	104.528	20.049	3.882	0.468
959.500	567.851	80.012	19.994	104.529	20.050	3.824	0.470
960.000	568.135	80.013	19.994	104.528	20.052	3.635	0.515
960.500	568.381	80.012	19.993	104.528	20.054	3.479	0.540
961.000	568.608	80.013	19.993	104.528	20.052	3.645	0.501
961.500	568.869	80.012	19.993	104.528	20.051	3.689	0.480
962.000	569.103	80.012	19.993	104.527	20.053	3.583	0.491
962.500	569.335	80.011	19.993	104.528	20.052	3.668	0.481
963.000	569.602	80.012	19.993	104.528	20.055	3.410	0.482
963.500	569.847	80.012	19.992	104.528	20.049	3.875	0.505
964.000	570.069	80.013	19.993	104.528	20.052	3.649	0.489
964.500	570.319	80.013	19.993	104.528	20.051	3.734	0.470
965.000	570.553	80.013	19.994	104.528	20.052	3.664	0.478
965.500	570.817	80.012	19.992	104.528	20.049	3.849	0.491
966.000	571.049	80.010	19.993	104.528	20.049	3.853	0.497
966.500	571.304	80.012	19.992	104.525	20.050	3.795	0.492
967.000	571.559	80.012	19.993	104.524	20.052	3.616	0.498
967.500	571.786	80.011	19.993	104.524	20.050	3.805	0.496
968.001	572.030	80.011	19.993	104.524	20.052	3.672	0.477
968.501	572.241	80.013	19.995	104.524	20.048	3.915	0.463
969.000	572.504	80.012	19.993	104.526	20.052	3.647	0.465
969.500	572.774	80.010	19.993	104.528	20.051	3.749	0.503
970.000	573.041	80.011	19.994	104.529	20.050	3.768	0.535
970.500	573.298	80.012	19.993	104.529	20.050	3.770	0.531
971.000	573.538	80.011	19.994	104.529	20.049	3.867	0.511
971.500	573.783	80.012	19.994	104.529	20.053	3.580	0.491
972.000	574.006	80.013	19.993	104.528	20.048	3.917	0.476
972.500	574.301	80.010	19.993	104.524	20.051	3.697	0.493
973.000	574.543	80.012	19.994	104.520	20.054	3.537	0.528
973.500	574.814	80.012	19.995	104.520	20.052	3.672	0.525
974.000	575.089	80.012	19.994	104.519	20.049	3.906	0.529
974.500	575.308	80.012	19.995	104.520	20.051	3.717	0.520
975.000	575.567	80.014	19.995	104.524	20.050	3.778	0.486
975.501	575.812	80.013	19.994	104.527	20.054	3.522	0.491
976.000	576.088	80.012	19.994	104.527	20.052	3.684	0.512
976.500	576.294	80.012	19.994	104.527	20.055	3.433	0.502
977.000	576.531	80.013	19.993	104.527	20.056	3.352	0.462
977.500	576.780	80.012	19.994	104.528	20.050	3.803	0.464
978.000	577.050	80.013	19.993	104.528	20.051	3.695	0.503
978.500	577.273	80.013	19.994	104.526	20.053	3.591	0.507
979.000	577.526	80.012	19.993	104.522	20.053	3.582	0.485
979.500	577.767	80.011	19.994	104.522	20.054	3.481	0.485
980.000	578.010	80.012	19.994	104.522	20.053	3.559	0.489
980.500	578.273	80.014	19.993	104.521	20.052	3.630	0.495
981.000	578.527	80.014	19.994	104.523	20.053	3.547	0.512
981.500	578.785	80.013	19.993	104.523	20.054	3.532	0.515
982.000	578.991	80.013	19.992	104.520	20.055	3.399	0.488
982.500	579.243	80.014	19.993	104.519	20.055	3.405	0.461
983.000	579.501	80.013	19.993	104.518	20.055	3.430	0.484
983.500	579.743	80.013	19.993	104.515	20.050	3.804	0.505
984.000	579.952	80.012	19.992	104.517	20.052	3.665	0.476
984.501	580.267	80.013	19.993	104.518	20.050	3.790	0.487
985.000	580.451	80.015	19.993	104.518	20.056	3.316	0.511
985.500	580.714	80.014	19.993	104.514	20.055	3.406	0.473
986.000	580.919	80.013	19.992	104.513	20.053	3.545	0.457
986.500	581.209	80.014	19.993	104.512	20.055	3.431	0.481
987.000	581.414	80.015	19.994	104.514	20.055	3.445	0.495
987.500	581.715	80.014	19.993	104.513	20.053	3.566	0.501
988.000	581.964	80.014	19.992	104.514	20.055	3.443	0.528
988.500	582.171	80.014	19.994	104.517	20.054	3.516	0.503
989.000	582.423	80.015	19.993	104.518	20.054	3.468	0.458
989.500	582.691	80.012	19.994	104.518	20.054	3.499	0.489
990.000	582.914	80.014	19.994	104.517	20.054	3.507	0.505
990.500	583.164	80.014	19.993	104.515	20.056	3.318	0.482
991.000	583.403	80.015	19.994	104.512	20.055	3.410	0.481
991.500	583.632	80.014	19.993	104.505	20.054	3.482	0.479
992.000	583.889	80.014	19.993	104.502	20.053	3.559	0.477
992.500	584.118	80.013	19.993	104.501	20.053	3.555	0.486
993.000	584.365	80.015	19.994	104.499	20.056	3.382	0.481
993.500	584.624	80.013	19.993	104.496	20.056	3.335	0.491
994.000	584.874	80.014	19.994	104.499	20.057	3.310	0.507
994.500	585.116	80.013	19.994	104.501	20.055	3.416	0.501
995.000	585.335	80.013	19.994	104.500	20.054	3.522	0.476
995.500	585.583	80.012	19.993	104.501	20.051	3.698	0.464
996.000	585.828	80.013	19.994	104.504	20.056	3.357	0.480
996.500	586.107	80.014	19.994	104.507	20.056	3.314	0.509
997.000	586.347	80.012	19.995	104.508	20.059	3.137	0.521
997.501	586.605	80.011	19.994	104.509	20.058	3.162	0.509
998.000	586.762	80.011	19.993	104.511	20.061	2.965	0.457
998.500	587.062	80.011	19.994	104.511	20.057	3.254	0.436
999.000	587.308	80.011	19.994	104.508	20.061	2.967	0.502
999.500	587.563	80.012	19.995	104.508	20.061	2.990	0.523
1000.000	587.794	80.013	19.993	104.507	20.060	3.056	0.493
1000.500	588.026	80.011	19.995	104.507	20.057	3.306	0.475
1001.000	588.273	80.013	19.995	104.508	20.062	2.928	0.471
1001.500	588.514	80.011	19.993	104.504	20.059	3.156	0.484
1002.001	588.788	80.012	19.994	104.499	20.057	3.285	0.502
1002.500	589.011	80.011	19.994	104.495	20.061	2.969	0.506
1003.001	589.272	80.011	19.994	104.492	20.055	3.455	0.490
1003.501	589.490	80.010	19.993	104.492	20.062	2.911	0.481
1004.000	589.760	80.012	19.995	104.496	20.060	3.013	0.483
1004.501	589.972	80.012	19.994	104.497	20.057	3.283	0.485
1005.001	590.228	80.012	19.994	104.501	20.061	2.965	0.475
1005.500	590.502	80.012	19.994	104.500	20.063	2.853	0.499
1006.000	590.727	80.010	19.995	104.496	20.060	3.044	0.515
1006.500	590.979	80.010	19.994	104.492	20.059	3.092	0.488
1007.000	591.263	80.012	19.994	104.492	20.058	3.171	0.506
1007.500	591.502	80.010	19.995	104.490	20.061	3.002	0.530
1008.000	591.715	80.010	19.993	104.493	20.061	2.994	0.487
1008.500	591.976	80.010	19.995	104.495	20.060	3.017	0.463
1009.000	592.222	80.011	19.993	104.498	20.057	3.239	0.490
1009.500	592.483	80.011	19.993	104.499	20.056	3.326	0.507
1010.000	592.771	80.012	19.994	104.497	20.059	3.148	0.528
1010.500	593.032	80.010	19.994	104.494	20.058	3.218	0.550
1011.000	593.264	80.012	19.994	104.497	20.056	3.345	0.521
1011.501	593.588	80.012	19.995	104.494	20.059	3.116	0.524
1012.000	593.806	80.011	19.994	104.494	20.056	3.362	0.549
1012.500	594.069	80.011	19.993	104.495	20.059	3.129	0.512
1013.000	594.356	80.012	19.994	104.496	20.055	3.420	0.515
1013.500	594.637	80.011	19.993	104.494	20.061	2.994	0.559
1014.000	594.893	80.011	19.993	104.496	20.058	3.183	0.553
1014.500	595.150	80.010	19.993	104.497	20.058	3.218	0.525
1015.000	595.425	80.012	19.994	104.502	20.062	2.928	0.522
1015.500	595.671	80.012	19.994	104.503	20.057	3.293	0.526
1016.000	595.960	80.011	19.994	104.506	20.063	2.813	0.528
1016.500	596.185	80.011	19.993	104.506	20.064	2.726	0.524
1017.000	596.448	80.011	19.995	104.503	20.060	3.017	0.500
1017.500	596.703	80.012	19.994	104.498	20.067	2.539	0.503
1018.000	596.997	80.011	19.993	104.496	20.065	2.689	0.534
1018.500	597.300	80.010	19.993	104.491	20.064	2.759	0.573
1019.000	597.493	80.012	19.992	104.489	20.063	2.818	0.546
1019.500	597.810	80.012	19.993	104.490	20.061	2.984	0.503
1020.000	598.098	80.012	19.994	104.490	20.063	2.861	0.557
1020.500	598.331	80.010	19.994	104.490	20.060	3.033	0.563
1021.000	598.577	80.010	19.994	104.490	20.063	2.857	0.500
1021.500	598.883	80.011	19.995	104.490	20.064	2.787	0.515
1022.000	599.135	80.012	19.993	104.489	20.062	2.874	0.555
1022.500	599.409	80.009	19.993	104.488	20.062	2.868	0.542
1023.000	599.672	80.011	19.994	104.493	20.061	3.005	0.531
1023.500	599.964	80.011	19.994	104.496	20.058	3.173	0.546
1024.000	600.227	80.010	19.994	104.498	20.063	2.861	0.555
1024.500	600.508	80.010	19.994	104.499	20.063	2.849	0.550
1025.000	600.745	80.009	19.993	104.499	20.064	2.782	0.531
1025.500	601.064	80.012	19.994	104.495	20.057	3.283	0.537
1026.001	601.341	80.010	19.993	104.492	20.060	3.063	0.576
1026.501	601.615	80.010	19.994	104.491	20.061	2.972	0.573
1027.001	601.858	80.010	19.994	104.494	20.058	3.210	0.534
1027.501	602.162	80.010	19.994	104.495	20.063	2.810	0.532
1028.001	602.420	80.009	19.994	104.494	20.058	3.187	0.555
1028.501	602.689	80.010	19.993	104.495	20.062	2.863	0.545
1029.001	602.991	80.009	19.995	104.495	20.063	2.815	0.549
1029.501	603.266	80.009	19.994	104.492	20.060	3.058	0.574
1030.001	603.537	80.009	19.994	104.492	20.062	2.917	0.562
1030.501	603.809	80.010	19.995	104.492	20.057	3.291	0.544
1031.001	604.093	80.010	19.994	104.491	20.063	2.826	0.549
1031.500	604.363	80.009	19.995	104.492	20.064	2.786	0.555
1032.000	604.622	80.010	19.994	104.494	20.060	3.069	0.542
1032.500	604.924	80.009	19.995	104.498	20.059	3.104	0.545
1033.001	605.212	80.009	19.996	104.501	20.062	2.932	0.575
1033.501	605.462	80.010	19.995	104.501	20.061	3.000	0.564
1034.001	605.716	80.010	19.994	104.500	20.063	2.834	0.521
1034.501	606.028	80.009	19.996	104.499	20.059	3.118	0.535
1035.000	606.304	80.011	19.995	104.494	20.058	3.228	0.577
1035.500	606.547	80.010	19.995	104.492	20.058	3.183	0.554
1036.001	606.845	80.011	19.995	104.497	20.059	3.102	0.530
1036.501	607.119	80.010	19.994	104.501	20.064	2.753	0.556
1037.001	607.408	80.010	19.994	104.503	20.062	2.915	0.568
1037.501	607.697	80.010	19.994	104.505	20.059	3.102	0.571
1038.000	607.963	80.010	19.994	104.507	20.054	3.521	0.567
1038.500	608.213	80.010	19.995	104.502	20.059	3.125	0.536
1039.001	608.504	80.012	19.995	104.497	20.059	3.116	0.529
1039.501	608.775	80.011	19.993	104.494	20.054	3.505	0.551
1040.000	609.079	80.011	19.994	104.492	20.058	3.216	0.568
1040.500	609.329	80.013	19.994	104.488	20.057	3.274	0.565
1041.001	609.612	80.011	19.994	104.488	20.059	3.152	0.544
1041.501	609.888	80.012	19.994	104.488	20.058	3.231	0.546
1042.000	610.173	80.012	19.994	104.488	20.061	3.000	0.560
1042.501	610.453	80.012	19.994	104.490	20.060	3.040	0.563
1043.001	610.728	80.012	19.994	104.490	20.061	2.971	0.560
1043.500	611.001	80.012	19.993	104.490	20.060	3.071	0.551
1044.000	611.282	80.012	19.994	104.490	20.059	3.121	0.551
1044.501	611.578	80.012	19.992	104.489	20.062	2.865	0.566
1045.001	611.834	80.012	19.993	104.487	20.062	2.923	0.565
1045.500	612.104	80.014	19.993	104.487	20.060	3.015	0.539
1046.000	612.408	80.013	19.993	104.487	20.059	3.096	0.550
1046.500	612.689	80.013	19.993	104.487	20.062	2.863	0.579
1047.000	612.941	80.014	19.993	104.487	20.061	2.998	0.559
1047.500	613.157	80.014	19.993	104.487	20.061	2.971	0.501
1048.001	613.492	80.014	19.993	104.487	20.063	2.807	0.509
1048.501	613.695	80.013	19.994	104.487	20.065	2.712	0.544
1049.000	613.966	80.013	19.993	104.488	20.063	2.834	0.506
1049.501	614.289	80.013	19.993	104.488	20.061	2.967	0.534
1050.001	614.538	80.014	19.994	104.486	20.060	3.027	0.583
1050.500	614.794	80.013	19.994	104.486	20.063	2.799	0.539
1051.000	615.028	80.013	19.994	104.487	20.064	2.778	0.497
1051.500	615.309	80.012	19.994	104.486	20.062	2.865	0.502
1052.000	615.593	80.013	19.994	104.486	20.061	2.988	0.540
1052.500	615.849	80.011	19.994	104.487	20.062	2.911	0.552
1053.001	616.131	80.013	19.993	104.487	20.060	3.042	0.539
1053.501	616.363	80.013	19.994	104.487	20.061	3.000	0.526
1054.000	616.664	80.012	19.993	104.487	20.060	3.060	0.524
1054.500	616.931	80.011	19.992	104.487	20.060	3.023	0.551
1055.000	617.189	80.013	19.993	104.488	20.060	3.050	0.546
1055.500	617.438	80.012	19.993	104.487	20.055	3.432	0.516
1056.000	617.705	80.012	19.995	104.487	20.059	3.135	0.512
1056.500	617.958	80.013	19.993	104.486	20.060	3.042	0.518
1057.000	618.240	80.012	19.993	104.486	20.061	2.942	0.527
1057.500	618.473	80.013	19.995	104.487	20.059	3.143	0.525
1058.001	618.767	80.012	19.993	104.487	20.063	2.803	0.522
1058.501	619.000	80.011	19.992	104.488	20.063	2.840	0.527
1059.001	619.268	80.011	19.994	104.489	20.063	2.809	0.513
1059.501	619.489	80.012	19.993	104.489	20.061	2.948	0.495
1060.000	619.783	80.012	19.993	104.487	20.062	2.927	0.502
1060.500	619.997	80.013	19.995	104.487	20.060	3.048	0.512
1061.000	620.268	80.013	19.994	104.487	20.066	2.604	0.497
1061.500	620.517	80.013	19.993	104.485	20.063	2.849	0.503
1062.001	620.776	80.013	19.993	104.485	20.064	2.759	0.514
1062.501	621.039	80.013	19.995	104.486	20.065	2.691	0.514
1063.000	621.271	80.012	19.994	104.486	20.059	3.106	0.508
1063.501	621.525	80.012	19.994	104.486	20.060	3.019	0.490
1064.001	621.745	80.013	19.996	104.487	20.060	3.052	0.480
1064.501	622.010	80.012	19.993	104.486	20.060	3.083	0.480
1065.001	622.234	80.012	19.993	104.487	20.062	2.900	0.487
1065.500	622.479	80.013	19.995	104.486	20.061	2.938	0.479
1066.001	622.734	80.013	19.993	104.486	20.062	2.917	0.484
1066.501	622.961	80.012	19.993	104.486	20.061	2.957	0.491
1067.000	623.234	80.013	19.993	104.485	20.062	2.921	0.491
1067.500	623.459	80.014	19.994	104.486	20.062	2.934	0.499
1068.000	623.719	80.012	19.994	104.485	20.061	2.992	0.492
1068.500	623.894	80.013	19.995	104.485	20.059	3.123	0.460
1069.000	624.159	80.014	19.993	104.486	20.064	2.749	0.437
1069.500	624.414	80.013	19.992	104.486	20.063	2.809	0.480
1070.000	624.660	80.015	19.992	104.486	20.065	2.639	0.511
1070.500	624.885	80.013	19.991	104.486	20.066	2.626	0.486
1071.000	625.158	80.014	19.993	104.486	20.060	3.046	0.484
1071.501	625.393	80.014	19.992	104.486	20.061	2.969	0.503
1072.001	625.615	80.013	19.993	104.485	20.067	2.514	0.483
1072.501	625.866	80.014	19.994	104.485	20.062	2.909	0.465
1073.001	626.109	80.014	19.993	104.485	20.061	2.971	0.483
1073.500	626.326	80.013	19.993	104.485	20.061	2.965	0.477
1074.000	626.603	80.014	19.992	104.485	20.061	2.957	0.477
1074.500	626.805	80.014	19.991	104.487	20.060	3.023	0.486
1075.000	627.047	80.014	19.994	104.487	20.062	2.894	0.462
1075.500	627.308	80.013	19.993	104.486	20.059	3.115	0.473
1076.000	627.533	80.014	19.994	104.486	20.056	3.368	0.494
1076.500	627.773	80.013	19.993	104.489	20.063	2.795	0.476
1077.001	627.995	80.012	19.992	104.488	20.061	2.977	0.463
1077.501	628.226	80.013	19.994	104.488	20.061	2.940	0.457
1078.001	628.454	80.011	19.993	104.489	20.059	3.139	0.456
1078.500	628.670	80.012	19.993	104.490	20.058	3.189	0.452
1079.000	628.925	80.012	19.993	104.488	20.057	3.289	0.458
1079.500	629.156	80.013	19.992	104.488	20.059	3.098	0.479
1080.000	629.370	80.012	19.993	104.489	20.056	3.353	0.466
1080.500	629.596	80.013	19.992	104.489	20.058	3.179	0.443
1081.001	629.849	80.011	19.993	104.490	20.055	3.428	0.459
1081.501	630.073	80.012	19.993	104.490	20.056	3.351	0.477
1082.001	630.335	80.012	19.992	104.490	20.055	3.420	0.481
1082.501	630.566	80.010	19.992	104.490	20.056	3.372	0.489
1083.000	630.779	80.011	19.993	104.492	20.056	3.385	0.469
1083.500	631.021	80.011	19.993	104.494	20.056	3.312	0.450
1084.000	631.229	80.010	19.993	104.494	20.057	3.293	0.453
1084.501	631.468	80.011	19.995	104.497	20.059	3.102	0.448
1085.001	631.723	80.011	19.993	104.500	20.059	3.119	0.470
1085.500	631.958	80.012	19.993	104.498	20.057	3.254	0.492
1086.001	632.161	80.012	19.993	104.497	20.056	3.368	0.464
1086.501	632.412	80.011	19.993	104.498	20.057	3.283	0.446
1087.000	632.654	80.011	19.993	104.497	20.058	3.210	0.474
1087.501	632.892	80.011	19.993	104.495	20.054	3.480	0.486
1088.001	633.118	80.010	19.993	104.495	20.056	3.330	0.472
1088.500	633.326	80.012	19.994	104.497	20.061	2.971	0.449
1089.000	633.558	80.013	19.994	104.496	20.056	3.314	0.437
1089.500	633.826	80.010	19.994	104.494	20.055	3.393	0.470
1090.000	634.016	80.011	19.994	104.494	20.056	3.333	0.479
1090.501	634.265	80.012	19.993	104.494	20.059	3.159	0.449
1091.001	634.525	80.010	19.993	104.493	20.057	3.260	0.474
1091.500	634.760	80.010	19.993	104.497	20.054	3.489	0.502
1092.000	635.010	80.011	19.993	104.498	20.058	3.167	0.490
1092.501	635.223	80.010	19.993	104.497	20.055	3.429	0.474
1093.001	635.498	80.011	19.995	104.497	20.059	3.153	0.475
1093.500	635.697	80.011	19.993	104.501	20.055	3.427	0.481
1094.000	635.927	80.011	19.993	104.504	20.062	2.937	0.451
1094.500	636.132	80.010	19.994	104.506	20.060	3.055	0.432
1095.000	636.391	80.012	19.993	104.506	20.057	3.260	0.450
1095.500	636.647	80.011	19.994	104.506	20.055	3.389	0.489
1096.000	636.883	80.011	19.994	104.501	20.060	3.042	0.503
1096.501	637.117	80.011	19.993	104.494	20.060	3.049	0.481
1097.001	637.337	80.009	19.994	104.492	20.059	3.103	0.462
1097.500	637.591	80.011	19.994	104.492	20.059	3.128	0.465
1098.001	637.800	80.011	19.993	104.492	20.053	3.568	0.469
1098.501	638.061	80.011	19.994	104.494	20.060	3.057	0.466
1099.001	638.288	80.011	19.993	104.493	20.059	3.090	0.479
1099.501	638.494	80.012	19.994	104.497	20.058	3.211	0.461
1100.001	638.776	80.012	19.994	104.501	20.059	3.153	0.460
1100.500	639.006	80.011	19.993	104.505	20.058	3.177	0.500
1101.001	639.215	80.010	19.994	104.505	20.063	2.803	0.476
1101.501	639.468	80.011	19.994	104.509	20.060	3.032	0.451
1102.001	639.693	80.012	19.994	104.512	20.056	3.354	0.470
1102.500	639.964	80.010	19.994	104.515	20.061	2.969	0.487
1103.001	640.189	80.011	19.993	104.519	20.063	2.843	0.496
1103.501	640.417	80.010	19.993	104.525	20.060	3.055	0.475
1104.000	640.630	80.012	19.993	104.526	20.061	2.990	0.447
1104.500	640.886	80.011	19.993	104.522	20.060	3.040	0.455
1105.000	641.121	80.011	19.994	104.515	20.057	3.304	0.480
1105.501	641.389	80.011	19.994	104.511	20.060	3.082	0.497
1106.001	641.628	80.012	19.994	104.508	20.062	2.880	0.505
1106.501	641.862	80.011	19.993	104.510	20.059	3.117	0.490
1107.001	642.113	80.012	19.994	104.514	20.057	3.294	0.479
1107.501	642.379	80.011	19.993	104.520	20.059	3.150	0.501
1108.000	642.575	80.010	19.995	104.522	20.058	3.219	0.490
1108.500	642.845	80.012	19.995	104.522	20.059	3.144	0.464
1109.001	643.090	80.010	19.994	104.522	20.056	3.329	0.491
1109.501	643.324	80.011	19.994	104.523	20.057	3.279	0.496
1110.001	643.552	80.011	19.994	104.523	20.057	3.240	0.470
1110.501	643.809	80.011	19.994	104.521	20.060	3.016	0.473
1111.000	644.082	80.011	19.993	104.518	20.055	3.454	0.508
1111.500	644.340	80.011	19.993	104.511	20.057	3.263	0.531
1112.001	644.574	80.012	19.993	104.508	20.056	3.373	0.512
1112.501	644.821	80.012	19.995	104.503	20.055	3.400	0.487
1113.000	645.066	80.011	19.993	104.502	20.057	3.290	0.486
1113.500	645.296	80.010	19.994	104.504	20.056	3.340	0.484
1114.000	645.545	80.010	19.994	104.507	20.057	3.263	0.477
1114.501	645.817	80.010	19.994	104.506	20.059	3.149	0.500
1115.001	646.068	80.012	19.994	104.508	20.055	3.431	0.522
1115.500	646.305	80.010	19.993	104.507	20.053	3.566	0.505
1116.000	646.550	80.010	19.993	104.503	20.059	3.140	0.485
1116.500	646.816	80.011	19.995	104.503	20.056	3.350	0.497
1117.000	647.041	80.012	19.994	104.507	20.055	3.439	0.501
1117.500	647.299	80.010	19.995	104.509	20.059	3.103	0.488
1118.000	647.539	80.010	19.994	104.511	20.057	3.246	0.491
1118.500	647.800	80.010	19.993	104.517	20.056	3.315	0.499
1119.000	648.019	80.011	19.993	104.521	20.059	3.090	0.491
1119.500	648.291	80.010	19.994	104.521	20.056	3.338	0.486
1120.001	648.545	80.011	19.995	104.521	20.055	3.390	0.508
1120.501	648.763	80.012	19.994	104.524	20.049	3.847	0.498
1121.001	649.016	80.011	19.993	104.525	20.059	3.155	0.471
1121.501	649.278	80.011	19.995	104.525	20.054	3.523	0.493
1122.001	649.523	80.012	19.995	104.525	20.054	3.491	0.511
1122.501	649.826	80.013	19.994	104.525	20.058	3.226	0.527
1123.000	650.017	80.013	19.993	104.524	20.062	2.870	0.521
1123.500	650.262	80.013	19.995	104.523	20.058	3.236	0.465
1124.000	650.569	80.012	19.994	104.522	20.057	3.255	0.494
1124.501	650.838	80.014	19.995	104.522	20.053	3.548	0.564
1125.001	651.037	80.013	19.994	104.521	20.055	3.417	0.522
1125.501	651.284	80.013	19.995	104.521	20.061	3.012	0.457
1126.001	651.514	80.014	19.993	104.522	20.059	3.130	0.461
1126.501	651.828	80.012	19.994	104.523	20.055	3.437	0.510
1127.001	652.037	80.012	19.995	104.523	20.055	3.456	0.534
1127.500	652.273	80.014	19.994	104.523	20.055	3.423	0.484
1128.001	652.545	80.012	19.995	104.523	20.051	3.738	0.476
1128.501	652.784	80.012	19.994	104.523	20.053	3.597	0.510
1129.000	653.015	80.013	19.995	104.524	20.055	3.462	0.491
1129.500	653.287	80.012	19.995	104.524	20.057	3.257	0.486
1130.000	653.552	80.012	19.994	104.523	20.054	3.506	0.520
1130.500	653.800	80.011	19.995	104.524	20.057	3.294	0.525
1131.000	654.066	80.012	19.994	104.524	20.057	3.275	0.514
1131.501	654.302	80.011	19.994	104.525	20.058	3.201	0.508
1132.001	654.608	80.014	19.994	104.524	20.055	3.419	0.522
1132.500	654.845	80.012	19.995	104.525	20.059	3.122	0.543
1133.001	655.076	80.014	19.995	104.525	20.057	3.300	0.505
1133.501	655.344	80.012	19.995	104.526	20.055	3.396	0.483
1134.001	655.556	80.013	19.993	104.526	20.060	3.051	0.490
1134.501	655.821	80.011	19.994	104.527	20.058	3.186	0.479
1135.000	656.096	80.011	19.993	104.528	20.058	3.224	0.508
1135.501	656.282	80.011	19.994	104.529	20.057	3.267	0.500
1136.001	656.621	80.012	19.994	104.527	20.056	3.361	0.493
1136.500	656.847	80.011	19.993	104.525	20.056	3.336	0.545
1137.000	657.094	80.012	19.994	104.525	20.057	3.309	0.519
1137.500	657.344	80.011	19.994	104.523	20.059	3.130	0.485
1138.000	657.589	80.012	19.992	104.522	20.055	3.458	0.496
1138.500	657.868	80.011	19.994	104.523	20.053	3.564	0.510
1139.000	658.138	80.010	19.993	104.524	20.053	3.556	0.536
1139.500	658.369	80.013	19.993	104.524	20.057	3.259	0.525
1140.001	658.586	80.013	19.993	104.526	20.059	3.118	0.475
1140.501	658.823	80.013	19.993	104.526	20.056	3.359	0.451
1141.001	659.081	80.012	19.993	104.526	20.059	3.157	0.474
1141.501	659.372	80.013	19.993	104.527	20.057	3.290	0.522
1142.001	659.575	80.011	19.993	104.528	20.056	3.327	0.522
1142.501	659.830	80.012	19.993	104.526	20.055	3.421	0.476
1143.001	660.113	80.012	19.993	104.526	20.052	3.660	0.497
1143.501	660.343	80.013	19.993	104.527	20.058	3.186	0.525
1144.001	660.603	80.012	19.992	104.527	20.062	2.891	0.502
1144.501	660.855	80.013	19.994	104.528	20.055	3.419	0.501
1145.000	661.103	80.012	19.993	104.528	20.055	3.423	0.506
1145.501	661.402	80.011	19.993	104.529	20.057	3.299	0.523
1146.001	661.626	80.012	19.992	104.529	20.056	3.384	0.535
1146.501	661.864	80.012	19.993	104.530	20.051	3.733	0.493
1147.001	662.124	80.013	19.992	104.529	20.059	3.095	0.480
1147.501	662.358	80.014	19.992	104.529	20.059	3.118	0.496
1148.001	662.586	80.013	19.994	104.529	20.059	3.136	0.478
1148.501	662.837	80.013	19.994	104.529	20.054	3.471	0.471
1149.000	663.077	80.014	19.994	104.528	20.057	3.263	0.486
1149.501	663.306	80.013	19.993	104.529	20.058	3.236	0.480
1150.001	663.584	80.015	19.992	104.529	20.057	3.259	0.487
1150.500	663.840	80.014	19.992	104.528	20.058	3.230	0.520
1151.001	664.075	80.013	19.993	104.529	20.057	3.284	0.512
1151.501	664.329	80.014	19.993	104.528	20.058	3.167	0.490
1152.000	664.580	80.013	19.993	104.528	20.059	3.130	0.497
1152.500	664.777	80.012	19.991	104.527	20.058	3.234	0.476
1153.001	665.049	80.014	19.994	104.527	20.060	3.033	0.458
1153.501	665.257	80.013	19.993	104.527	20.055	3.398	0.475
1154.000	665.541	80.014	19.994	104.528	20.061	2.981	0.486
1154.500	665.782	80.015	19.993	104.530	20.061	2.943	0.509
1155.000	666.005	80.014	19.993	104.531	20.061	2.989	0.495
1155.500	666.298	80.015	19.996	104.532	20.057	3.255	0.490
1156.000	666.543	80.014	19.994	104.537	20.059	3.109	0.527
1156.501	666.779	80.013	19.994	104.542	20.058	3.190	0.509
1157.001	667.015	80.013	19.992	104.540	20.056	3.323	0.477
1157.500	667.291	80.014	19.994	104.539	20.057	3.249	0.493
1158.001	667.543	80.013	19.993	104.539	20.057	3.263	0.520
1158.501	667.743	80.013	19.993	104.533	20.057	3.265	0.490
1159.001	667.997	80.013	19.993	104.529	20.061	2.985	0.453
1159.501	668.232	80.013	19.993	104.530	20.059	3.103	0.472
1160.000	668.461	80.013	19.993	104.530	20.057	3.259	0.477
1160.500	668.749	80.012	19.991	104.530	20.058	3.234	0.490
1161.000	669.005	80.011	19.992	104.530	20.055	3.460	0.531
1161.501	669.246	80.013	19.992	104.528	20.053	3.610	0.521
1162.001	669.496	80.011	19.994	104.528	20.055	3.392	0.494
1162.501	669.762	80.012	19.992	104.528	20.055	3.421	0.503
1163.001	670.024	80.012	19.992	104.528	20.058	3.184	0.521
1163.501	670.263	80.013	19.994	104.530	20.058	3.225	0.514
1164.001	670.503	80.012	19.992	104.531	20.058	3.201	0.490
1164.501	670.734	80.011	19.993	104.531	20.058	3.190	0.475
1165.001	670.996	80.012	19.993	104.531	20.059	3.122	0.482
1165.501	671.278	80.011	19.993	104.531	20.059	3.115	0.519
1166.001	671.508	80.012	19.993	104.531	20.056	3.352	0.528
1166.501	671.732	80.010	19.992	104.531	20.058	3.217	0.483
1167.001	672.046	80.010	19.993	104.530	20.055	3.427	0.496
1167.501	672.287	80.011	19.993	104.531	20.059	3.159	0.546
1168.001	672.526	80.013	19.993	104.531	20.057	3.261	0.517
1168.501	672.794	80.012	19.993	104.530	20.061	2.955	0.494
1169.001	673.014	80.011	19.993	104.530	20.059	3.123	0.498
1169.500	673.276	80.011	19.994	104.531	20.057	3.239	0.485
1170.000	673.514	80.011	19.993	104.531	20.059	3.158	0.491
1170.501	673.759	80.011	19.993	104.530	20.057	3.248	0.491
1171.001	674.024	80.010	19.993	104.531	20.061	2.951	0.496
1171.501	674.297	80.011	19.993	104.531	20.059	3.140	0.524
1172.001	674.533	80.012	19.993	104.530	20.058	3.217	0.524
1172.500	674.790	80.012	19.992	104.529	20.063	2.856	0.501
1173.000	675.040	80.012	19.992	104.528	20.063	2.841	0.500
1173.500	675.285	80.012	19.993	104.524	20.061	2.941	0.501
1174.000	675.529	80.011	19.992	104.523	20.060	3.059	0.492
1174.500	675.778	80.012	19.993	104.522	20.060	3.044	0.491
1175.000	676.020	80.011	19.993	104.523	20.062	2.924	0.492
1175.500	676.296	80.011	19.993	104.523	20.061	2.969	0.504
1176.001	676.537	80.010	19.993	104.525	20.060	3.015	0.518
1176.501	676.789	80.010	19.992	104.524	20.060	3.036	0.505
1177.000	677.059	80.012	19.993	104.524	20.059	3.098	0.507
1177.501	677.323	80.011	19.993	104.524	20.062	2.865	0.528
1178.001	677.566	80.012	19.993	104.523	20.059	3.094	0.521
1178.501	677.796	80.011	19.993	104.523	20.060	3.048	0.490
1179.001	678.070	80.011	19.992	104.521	20.060	3.015	0.488
1179.501	678.313	80.012	19.993	104.517	20.060	3.025	0.510
1180.000	678.551	80.013	19.993	104.509	20.063	2.813	0.499
1180.501	678.820	80.010	19.991	104.506	20.061	2.942	0.494
1181.001	679.078	80.012	19.994	104.502	20.062	2.876	0.517
1181.501	679.309	80.011	19.990	104.501	20.064	2.720	0.508
1182.001	679.515	80.026	19.996	104.505	20.062	2.878	0.463
1182.501	679.799	80.030	19.997	104.514	20.063	2.816	0.463
1183.000	680.023	80.031	19.998	104.519	20.064	2.749	0.499
1183.500	680.306	80.031	19.999	104.523	20.066	2.591	0.507
1184.000	680.594	80.029	19.997	104.525	20.064	2.755	0.539
1184.500	680.834	80.028	19.996	104.519	20.066	2.576	0.550
1185.000	681.086	80.015	19.995	104.516	20.066	2.579	0.511
1185.500	681.367	80.012	19.994	104.512	20.064	2.743	0.513
1186.000	681.634	80.012	19.993	104.509	20.068	2.452	0.540
1186.500	681.854	80.011	19.995	104.504	20.069	2.359	0.517
1187.000	682.123	80.012	19.994	104.502	20.064	2.726	0.488
1187.500	682.403	80.012	19.995	104.501	20.068	2.479	0.519
1188.001	682.620	80.011	19.995	104.499	20.063	2.832	0.523
1188.501	682.904	80.010	19.993	104.496	20.064	2.734	0.499
1189.000	683.137	80.012	19.995	104.497	20.065	2.686	0.509
1189.501	683.442	80.011	19.993	104.497	20.065	2.649	0.527
1190.001	683.656	80.010	19.994	104.495	20.065	2.707	0.529
1190.501	683.911	80.012	19.994	104.494	20.067	2.525	0.494
1191.000	684.185	80.010	19.994	104.494	20.067	2.552	0.499
1191.500	684.451	80.010	19.993	104.493	20.066	2.579	0.534
1192.000	684.654	80.010	19.995	104.494	20.066	2.570	0.504
1192.500	684.939	80.010	19.995	104.496	20.066	2.628	0.478
1193.000	685.222	80.012	19.994	104.500	20.067	2.529	0.528
1193.501	685.469	80.011	19.994	104.498	20.066	2.570	0.549
1194.001	685.733	80.010	19.995	104.496	20.068	2.427	0.521
1194.500	685.993	80.011	19.996	104.493	20.068	2.414	0.517
1195.000	686.247	80.011	19.994	104.487	20.065	2.637	0.519
1195.500	686.483	80.010	19.995	104.482	20.067	2.560	0.502
1196.000	686.785	80.011	19.994	104.482	20.066	2.601	0.514
1196.501	687.023	80.011	19.995	104.483	20.067	2.560	0.539
1197.001	687.265	80.011	19.994	104.484	20.067	2.537	0.510
1197.500	687.533	80.009	19.995	104.486	20.067	2.510	0.495
1198.001	687.803	80.010	19.995	104.486	20.066	2.632	0.524
1198.501	688.038	80.010	19.995	104.482	20.064	2.774	0.522
1199.001	688.299	80.012	19.995	104.477	20.064	2.763	0.500
1199.501	688.579	80.010	19.994	104.476	20.068	2.442	0.518
1200.001	688.844	80.010	19.995	104.476	20.066	2.587	0.543
1200.501	689.086	80.011	19.995	104.477	20.066	2.628	0.526
1201.001	689.350	80.009	19.994	104.480	20.073	2.107	0.506
1201.500	689.604	80.011	19.994	104.485	20.066	2.577	0.512
1202.000	689.843	80.012	19.994	104.485	20.070	2.286	0.506
1202.500	690.121	80.010	19.993	104.483	20.066	2.597	0.505
1203.001	690.354	80.011	19.994	104.482	20.072	2.180	0.514
1203.501	690.639	80.011	19.994	104.478	20.070	2.269	0.514
1204.001	690.929	80.010	19.994	104.479	20.068	2.415	0.546
1204.500	691.162	80.012	19.994	104.480	20.068	2.444	0.549
1205.000	691.417	80.012	19.993	104.481	20.067	2.489	0.506
1205.501	691.669	80.012	19.993	104.480	20.073	2.105	0.497
1206.001	691.897	80.012	19.994	104.484	20.070	2.310	0.493
1206.501	692.177	80.011	19.993	104.484	20.069	2.344	0.494
1207.001	692.419	80.012	19.992	104.485	20.066	2.562	0.515
1207.500	692.678	80.013	19.994	104.481	20.067	2.500	0.512
1208.001	692.900	80.012	19.993	104.482	20.073	2.076	0.491
1208.501	693.183	80.013	19.994	104.481	20.069	2.388	0.493
1209.001	693.402	80.014	19.993	104.481	20.068	2.419	0.503
1209.501	693.691	80.014	19.993	104.481	20.071	2.192	0.505
1210.001	693.925	80.012	19.992	104.485	20.071	2.244	0.516
1210.500	694.181	80.013	19.993	104.485	20.071	2.244	0.507
1211.001	694.422	80.014	19.994	104.486	20.072	2.169	0.494
1211.501	694.712	80.013	19.994	104.485	20.067	2.493	0.514
1212.000	694.968	80.012	19.993	104.484	20.069	2.381	0.539
1212.500	695.220	80.010	19.993	104.485	20.069	2.402	0.527
1213.000	695.485	80.011	19.994	104.482	20.069	2.360	0.513
1213.500	695.775	80.012	19.994	104.483	20.070	2.286	0.536
1214.000	696.004	80.012	19.994	104.483	20.070	2.284	0.537
1214.500	696.272	80.011	19.994	104.484	20.067	2.549	0.508
1215.000	696.521	80.012	19.995	104.486	20.070	2.294	0.507
1215.501	696.775	80.013	19.995	104.483	20.068	2.460	0.510
1216.001	697.031	80.012	19.994	104.474	20.071	2.253	0.507
1216.500	697.292	80.012	19.994	104.468	20.068	2.448	0.514
1217.001	697.557	80.013	19.994	104.466	20.071	2.213	0.522
1217.501	697.800	80.012	19.994	104.466	20.067	2.531	0.516
1218.000	698.055	80.012	19.994	104.469	20.069	2.406	0.502
1218.500	698.321	80.012	19.993	104.477	20.067	2.520	0.510
1219.001	698.545	80.012	19.994	104.484	20.069	2.406	0.506
1219.501	698.803	80.012	19.994	104.485	20.070	2.331	0.486
1220.000	699.060	80.011	19.994	104.486	20.071	2.219	0.498
1220.501	699.338	80.011	19.994	104.486	20.068	2.448	0.525
1221.001	699.596	80.011	19.993	104.481	20.070	2.286	0.536
1221.501	699.823	80.011	19.994	104.476	20.069	2.386	0.510
1222.001	700.076	80.011	19.994	104.475	20.069	2.406	0.483
1222.500	700.311	80.012	19.994	104.473	20.064	2.714	0.484
1223.000	700.587	80.010	19.994	104.475	20.070	2.307	0.499
1223.500	700.830	80.012	19.995	104.479	20.067	2.492	0.515
1224.000	701.084	80.011	19.995	104.479	20.070	2.327	0.508
1224.501	701.342	80.012	19.994	104.480	20.076	1.833	0.504
1225.001	701.583	80.011	19.995	104.480	20.067	2.500	0.506
1225.500	701.842	80.013	19.995	104.480	20.066	2.601	0.500
1226.000	702.115	80.011	19.994	104.480	20.065	2.645	0.516
1226.501	702.394	80.011	19.994	104.483	20.066	2.572	0.542
1227.001	702.626	80.010	19.994	104.483	20.065	2.711	0.532
1227.501	702.882	80.010	19.994	104.485	20.068	2.483	0.500
1228.000	703.174	80.011	19.994	104.485	20.065	2.659	0.518
1228.500	703.423	80.011	19.994	104.485	20.066	2.574	0.545
1229.000	703.701	80.013	19.994	104.481	20.068	2.454	0.534
1229.501	703.943	80.011	19.994	104.482	20.065	2.649	0.524
1230.001	704.208	80.012	19.995	104.481	20.061	2.948	0.513
1230.500	704.518	80.011	19.994	104.480	20.066	2.608	0.541
1231.000	704.761	80.012	19.994	104.481	20.066	2.579	0.564
1231.500	705.042	80.011	19.994	104.487	20.066	2.620	0.538
1232.001	705.288	80.013	19.993	104.488	20.064	2.720	0.526
1232.501	705.607	80.013	19.993	104.488	20.065	2.661	0.547
1233.001	705.827	80.011	19.993	104.490	20.066	2.574	0.552
1233.501	706.130	80.012	19.994	104.490	20.063	2.809	0.531
1234.001	706.405	80.013	19.994	104.490	20.061	2.946	0.550
1234.501	706.652	80.012	19.994	104.490	20.066	2.612	0.550
1235.001	706.904	80.013	19.993	104.489	20.066	2.595	0.510
1235.501	707.182	80.013	19.995	104.489	20.068	2.473	0.515
1236.001	707.477	80.015	19.992	104.485	20.068	2.450	0.552
1236.500	707.764	80.013	19.993	104.485	20.064	2.738	0.577
1237.001	708.013	80.014	19.993	104.480	20.066	2.587	0.559
1237.501	708.304	80.013	19.993	104.478	20.067	2.552	0.538
1238.001	708.586	80.014	19.993	104.478	20.066	2.595	0.557
1238.501	708.967	80.015	19.993	104.481	20.063	2.797	0.618
1239.001	709.073	80.014	19.993	104.480	20.066	2.614	0.575
1239.500	709.358	80.014	19.992	104.484	20.067	2.550	0.439
1240.000	709.700	80.014	19.992	104.486	20.065	2.697	0.509
1240.500	709.950	80.014	19.993	104.485	20.068	2.433	0.609
1241.000	710.182	80.013	19.992	104.485	20.067	2.558	0.537
1241.500	710.460	80.013	19.993	104.486	20.064	2.776	0.496
1242.000	710.726	80.012	19.993	104.485	20.067	2.516	0.527
1242.501	710.988	80.012	19.993	104.481	20.065	2.693	0.536
1243.001	711.308	80.014	19.993	104.480	20.065	2.703	0.555
1243.501	711.551	80.013	19.993	104.479	20.067	2.500	0.572
1244.001	711.848	80.012	19.992	104.478	20.066	2.622	0.551
1244.500	712.134	80.011	19.993	104.478	20.068	2.431	0.562
1245.001	712.445	80.013	19.993	104.482	20.069	2.404	0.590
1245.501	712.707	80.012	19.993	104.482	20.068	2.477	0.585
1246.000	712.995	80.012	19.993	104.484	20.066	2.608	0.562
1246.501	713.223	80.012	19.994	104.485	20.064	2.724	0.533
1247.001	713.531	80.012	19.994	104.485	20.064	2.724	0.526
1247.501	713.848	80.012	19.993	104.485	20.065	2.682	0.581
1248.001	714.142	80.012	19.993	104.484	20.065	2.672	0.618
1248.501	714.419	80.012	19.994	104.484	20.065	2.665	0.591
1249.001	714.718	80.012	19.994	104.484	20.064	2.750	0.573
1249.501	715.005	80.011	19.994	104.485	20.064	2.753	0.581
1250.001	715.300	80.011	19.994	104.485	20.065	2.701	0.584
1250.500	715.565	80.011	19.994	104.486	20.068	2.474	0.571
1251.000	715.862	80.011	19.994	104.485	20.065	2.643	0.561
1251.500	716.148	80.011	19.993	104.485	20.066	2.605	0.573
1252.000	716.453	80.012	19.994	104.485	20.067	2.533	0.587
1252.501	716.707	80.011	19.994	104.485	20.065	2.637	0.575
1253.001	717.042	80.012	19.994	104.486	20.061	2.998	0.574
1253.500	717.333	80.011	19.994	104.487	20.061	2.992	0.608
1254.000	717.570	80.012	19.993	104.487	20.066	2.612	0.577
1254.501	717.865	80.013	19.993	104.485	20.067	2.545	0.529
1255.001	718.164	80.010	19.993	104.485	20.065	2.690	0.563
1255.501	718.470	80.012	19.994	104.483	20.066	2.574	0.600
1256.001	718.736	80.011	19.993	104.483	20.067	2.526	0.589
1256.501	719.025	80.012	19.994	104.482	20.064	2.742	0.563
1257.000	719.320	80.011	19.993	104.483	20.067	2.539	0.569
1257.500	719.592	80.012	19.993	104.478	20.062	2.869	0.576
1258.000	719.856	80.011	19.993	104.475	20.064	2.746	0.552
1258.501	720.129	80.011	19.994	104.473	20.066	2.576	0.536
1259.001	720.437	80.012	19.994	104.470	20.065	2.701	0.558
1259.500	720.684	80.012	19.994	104.467	20.060	3.045	0.568
1260.001	720.947	80.012	19.994	104.466	20.065	2.699	0.533
1260.501	721.249	80.012	19.994	104.467	20.065	2.690	0.537
1261.000	721.540	80.012	19.993	104.468	20.064	2.717	0.578
1261.501	721.824	80.012	19.994	104.464	20.065	2.688	0.584
1262.001	722.061	80.012	19.994	104.467	20.064	2.757	0.548
1262.501	722.358	80.013	19.994	104.473	20.063	2.832	0.527
1263.001	722.606	80.013	19.994	104.475	20.066	2.583	0.540
1263.501	722.920	80.011	19.994	104.477	20.063	2.846	0.554
1264.000	723.143	80.013	19.994	104.480	20.063	2.823	0.549
1264.500	723.436	80.012	19.993	104.476	20.063	2.815	0.526
1265.000	723.701	80.013	19.995	104.473	20.066	2.622	0.537
1265.501	723.982	80.012	19.994	104.471	20.065	2.653	0.552
1266.001	724.235	80.012	19.994	104.469	20.065	2.636	0.540
1266.501	724.501	80.011	19.994	104.472	20.066	2.591	0.527
1267.001	724.764	80.010	19.993	104.473	20.064	2.736	0.524
1267.501	725.088	80.013	19.994	104.469	20.067	2.501	0.558
1268.000	725.340	80.011	19.993	104.465	20.067	2.497	0.582
1268.500	725.588	80.012	19.993	104.465	20.066	2.564	0.538
1269.001	725.834	80.012	19.994	104.464	20.067	2.489	0.497
1269.501	726.098	80.012	19.994	104.467	20.067	2.528	0.502
1270.001	726.345	80.010	19.994	104.469	20.067	2.489	0.511
1270.501	726.613	80.011	19.993	104.468	20.068	2.431	0.513
1271.001	726.908	80.012	19.995	104.466	20.068	2.418	0.539
1271.500	727.138	80.011	19.993	104.464	20.069	2.381	0.544
1272.000	727.412	80.011	19.993	104.462	20.062	2.863	0.515
1272.500	727.682	80.010	19.992	104.466	20.068	2.429	0.524
1273.001	727.935	80.011	19.994	104.473	20.068	2.483	0.534
1273.501	728.199	80.011	19.993	104.477	20.062	2.917	0.520
1274.001	728.433	80.011	19.994	104.477	20.063	2.819	0.507
1274.501	728.750	80.010	19.994	104.476	20.067	2.491	0.525
1275.001	728.998	80.010	19.993	104.470	20.067	2.487	0.558
1275.501	729.224	80.011	19.994	104.463	20.067	2.532	0.519
1276.001	729.463	80.011	19.992	104.459	20.069	2.406	0.470
1276.501	729.749	80.012	19.994	104.458	20.067	2.526	0.495
1277.000	730.002	80.010	19.992	104.458	20.068	2.468	0.532
1277.500	730.260	80.011	19.992	104.463	20.067	2.491	0.525
1278.000	730.568	80.011	19.994	104.470	20.068	2.470	0.539
1278.500	730.786	80.010	19.992	104.471	20.066	2.609	0.546
1279.000	731.045	80.011	19.993	104.474	20.065	2.653	0.501
1279.501	731.316	80.010	19.993	104.475	20.066	2.565	0.504
1280.001	731.556	80.013	19.993	104.469	20.064	2.740	0.520
1280.501	731.827	80.012	19.993	104.463	20.061	2.947	0.511
1281.000	732.059	80.012	19.994	104.461	20.067	2.505	0.508
1281.501	732.317	80.010	19.993	104.460	20.065	2.649	0.497
1282.001	732.574	80.011	19.994	104.463	20.066	2.612	0.502
1282.500	732.849	80.011	19.993	104.466	20.069	2.387	0.524
1283.001	733.097	80.010	19.993	104.471	20.070	2.307	0.528
1283.501	733.357	80.011	19.993	104.474	20.064	2.763	0.515
1284.001	733.605	80.010	19.994	104.476	20.068	2.485	0.508
1284.501	733.887	80.011	19.994	104.471	20.064	2.786	0.519
1285.001	734.126	80.011	19.993	104.471	20.067	2.504	0.525
1285.501	734.376	80.012	19.995	104.467	20.066	2.591	0.505
1286.001	734.643	80.010	19.992	104.463	20.070	2.284	0.503
1286.500	734.872	80.011	19.995	104.461	20.072	2.157	0.507
1287.000	735.127	80.012	19.994	104.462	20.065	2.641	0.490
1287.501	735.415	80.010	19.994	104.460	20.065	2.711	0.513
1288.001	735.630	80.011	19.993	104.460	20.068	2.446	0.523
1288.500	735.942	80.011	19.994	104.460	20.068	2.437	0.515
1289.000	736.138	80.012	19.994	104.456	20.066	2.593	0.518
1289.501	736.414	80.011	19.993	104.457	20.069	2.350	0.490
1290.001	736.663	80.011	19.993	104.457	20.071	2.244	0.498
1290.500	736.866	80.011	19.994	104.459	20.065	2.700	0.488
1291.000	737.169	80.011	19.993	104.458	20.068	2.455	0.479
1291.501	737.407	80.011	19.993	104.461	20.066	2.592	0.524
1292.001	737.638	80.012	19.993	104.465	20.067	2.526	0.505
1292.501	737.908	80.010	19.994	104.470	20.068	2.453	0.485
1293.000	738.112	80.013	19.994	104.474	20.068	2.437	0.487
1293.501	738.416	80.012	19.992	104.480	20.068	2.483	0.491
1294.001	738.642	80.012	19.993	104.484	20.065	2.667	0.519
1294.500	738.891	80.011	19.993	104.484	20.067	2.545	0.503
1295.000	739.152	80.012	19.993	104.485	20.065	2.678	0.492
1295.501	739.393	80.013	19.993	104.484	20.071	2.231	0.506
1296.001	739.656	80.012	19.994	104.482	20.067	2.524	0.503
1296.500	739.873	80.011	19.994	104.482	20.069	2.399	0.492
1297.000	740.128	80.015	19.995	104.480	20.068	2.480	0.476
1297.500	740.383	80.014	19.994	104.481	20.068	2.455	0.491
1298.000	740.636	80.011	19.994	104.483	20.070	2.331	0.509
1298.501	740.888	80.013	19.994	104.484	20.067	2.499	0.507
1299.001	741.121	80.012	19.993	104.483	20.069	2.399	0.495
1299.501	741.378	80.014	19.992	104.479	20.067	2.507	0.487
1300.001	741.643	80.014	19.994	104.472	20.064	2.742	0.506
1300.500	741.882	80.013	19.995	104.465	20.066	2.582	0.513
1301.001	742.121	80.012	19.992	104.461	20.070	2.290	0.491
1301.501	742.360	80.011	19.994	104.455	20.064	2.750	0.478
1302.001	742.582	80.012	19.993	104.453	20.065	2.678	0.469
1302.501	742.849	80.012	19.993	104.458	20.066	2.584	0.475
1303.001	743.054	80.013	19.994	104.461	20.064	2.781	0.481
1303.500	743.339	80.013	19.993	104.459	20.071	2.237	0.481
1304.000	743.544	80.013	19.994	104.459	20.066	2.598	0.490
1304.501	743.852	80.012	19.994	104.462	20.072	2.167	0.501
1305.001	744.049	80.013	19.994	104.463	20.066	2.594	0.509
