Sample ID:	C:\MCC\MCC Cal\Test\Coaxial_Cable\Coaxial_Cable_MCC_30K_min_220201_R4.txt
Sample Weight (mg):	4.39
Heating Rate (C/s):	0.5
Combustor Temp (C):	900
N2 Flow Rate (cc/min):	80
O2 Flow Rate (cc/min):	20
Calibration File:	C:\MCC\MCC Cal\Coeff1 JN10440_30_210304.txt.txt
T Correction Coefficients:	0	1.024463	0
Time Shift (s):	14
*
Time (s)	Temperature (C)	N2 flow rate (cc/min)	O2 flow rate (cc/min)	Flow Rate (cc/min)	Oxygen (%)	HRR (W/g)	Heating rate (C/s)
0.000	115.580	80.008	19.994	103.786	20.049	0.058	0.008
0.500	115.580	80.008	19.995	103.783	20.052	-0.102	-0.013
1.000	115.617	80.007	19.995	103.783	20.053	-0.185	0.009
1.500	115.549	80.008	19.995	103.783	20.052	-0.114	0.003
2.000	115.565	80.007	19.995	103.783	20.052	-0.104	-0.041
2.500	115.528	80.008	19.995	103.783	20.053	-0.207	-0.037
3.000	115.519	80.008	19.994	103.786	20.054	-0.265	-0.034
3.500	115.569	80.009	19.994	103.782	20.053	-0.241	-0.003
4.000	115.597	80.009	19.994	103.781	20.051	-0.058	0.059
4.500	115.582	80.008	19.994	103.780	20.051	-0.034	0.045
5.000	115.558	80.008	19.995	103.779	20.053	-0.215	-0.013
5.500	115.542	80.008	19.993	103.778	20.054	-0.253	-0.039
6.000	115.536	80.009	19.995	103.781	20.055	-0.389	-0.031
6.500	115.560	80.008	19.994	103.782	20.056	-0.418	-0.002
7.000	115.542	80.009	19.994	103.783	20.051	-0.076	0.012
7.500	115.545	80.008	19.995	103.784	20.050	-0.002	-0.005
8.000	115.522	80.009	19.994	103.786	20.053	-0.191	-0.017
8.500	115.560	80.008	19.994	103.786	20.050	0.016	-0.002
9.000	115.522	80.008	19.995	103.786	20.051	-0.034	0.007
9.500	115.526	80.009	19.995	103.786	20.056	-0.396	-0.017
10.000	115.499	80.009	19.995	103.787	20.055	-0.353	-0.029
10.500	115.541	80.008	19.993	103.786	20.052	-0.143	-0.005
11.000	115.507	80.008	19.995	103.786	20.055	-0.382	0.011
11.500	115.464	80.008	19.995	103.786	20.053	-0.189	-0.034
12.000	115.500	80.008	19.994	103.785	20.053	-0.181	-0.042
12.500	115.531	80.009	19.994	103.786	20.052	-0.106	0.030
13.000	115.502	80.009	19.994	103.791	20.054	-0.309	0.034
13.500	115.513	80.008	19.995	103.792	20.051	-0.086	-0.008
14.000	115.488	80.008	19.995	103.792	20.054	-0.265	-0.016
14.500	115.474	80.007	19.994	103.793	20.051	-0.088	-0.026
15.000	115.505	80.006	19.995	103.792	20.052	-0.113	-0.011
15.500	115.480	80.007	19.994	103.786	20.052	-0.127	0.011
16.000	115.508	80.007	19.995	103.787	20.050	0.026	0.004
16.500	115.499	80.009	19.995	103.794	20.049	0.066	0.011
17.000	115.497	80.008	19.995	103.800	20.049	0.078	0.004
17.500	115.499	80.009	19.994	103.808	20.046	0.284	-0.006
18.000	115.503	80.008	19.994	103.815	20.047	0.205	0.003
18.500	115.514	80.008	19.994	103.821	20.047	0.245	0.011
19.000	115.520	80.010	19.994	103.822	20.043	0.555	0.016
19.500	115.520	80.009	19.994	103.823	20.045	0.414	0.011
20.000	115.535	80.008	19.994	103.827	20.045	0.346	0.010
20.500	115.527	80.008	19.993	103.835	20.044	0.462	0.011
21.000	115.542	80.007	19.995	103.842	20.042	0.631	0.007
21.500	115.553	80.009	19.994	103.850	20.041	0.659	0.017
22.000	115.548	80.010	19.994	103.865	20.038	0.865	0.016
22.500	115.543	80.009	19.993	103.877	20.038	0.875	-0.003
23.000	115.618	80.009	19.994	103.886	20.038	0.873	0.030
23.500	115.632	80.010	19.993	103.902	20.036	1.038	0.080
24.000	115.636	80.010	19.993	103.916	20.035	1.148	0.053
24.500	115.644	80.010	19.994	103.925	20.033	1.299	0.015
25.000	115.645	80.009	19.994	103.933	20.035	1.100	0.011
25.500	115.695	80.010	19.993	103.942	20.032	1.373	0.030
26.000	115.697	80.009	19.993	103.948	20.032	1.373	0.051
26.500	115.742	80.010	19.992	103.956	20.029	1.570	0.049
27.000	115.776	80.010	19.994	103.963	20.027	1.705	0.063
27.500	115.815	80.010	19.993	103.971	20.027	1.711	0.076
28.000	115.838	80.010	19.993	103.976	20.025	1.852	0.068
28.500	115.867	80.010	19.993	103.978	20.027	1.727	0.057
29.000	115.917	80.010	19.992	103.978	20.024	1.900	0.066
29.500	115.944	80.010	19.992	103.978	20.024	1.951	0.078
30.000	115.993	80.012	19.993	103.978	20.027	1.727	0.076
30.500	116.062	80.010	19.993	103.977	20.024	1.943	0.097
31.000	116.109	80.011	19.995	103.978	20.024	1.965	0.117
31.500	116.142	80.010	19.994	103.978	20.025	1.824	0.098
32.000	116.176	80.010	19.993	103.978	20.020	2.216	0.074
32.500	116.272	80.010	19.993	103.978	20.022	2.101	0.099
33.000	116.285	80.010	19.993	103.978	20.022	2.115	0.119
33.500	116.378	80.009	19.994	103.978	20.019	2.266	0.107
34.000	116.448	80.012	19.995	103.978	20.025	1.874	0.134
34.500	116.509	80.009	19.994	103.982	20.024	1.945	0.147
35.000	116.605	80.010	19.995	103.982	20.021	2.176	0.144
35.500	116.660	80.010	19.994	103.982	20.020	2.228	0.154
36.000	116.740	80.009	19.994	103.982	20.022	2.068	0.143
36.500	116.805	80.009	19.995	103.983	20.021	2.118	0.140
37.000	116.881	80.008	19.994	103.980	20.020	2.232	0.143
37.500	116.966	80.009	19.994	103.980	20.020	2.232	0.151
38.000	117.030	80.008	19.994	103.980	20.016	2.532	0.155
38.500	117.119	80.008	19.993	103.980	20.017	2.433	0.151
39.000	117.186	80.008	19.995	103.981	20.021	2.136	0.154
39.501	117.281	80.009	19.995	103.982	20.021	2.156	0.159
40.001	117.379	80.008	19.995	103.984	20.020	2.241	0.178
40.500	117.478	80.008	19.996	103.990	20.019	2.269	0.195
41.000	117.537	80.009	19.994	103.996	20.023	2.023	0.177
41.500	117.641	80.008	19.994	103.997	20.021	2.166	0.160
42.000	117.715	80.007	19.995	103.999	20.020	2.250	0.170
42.500	117.828	80.007	19.994	104.001	20.020	2.218	0.182
43.000	117.895	80.009	19.994	103.997	20.023	2.009	0.184
43.500	118.022	80.009	19.994	103.991	20.023	1.995	0.187
44.000	118.135	80.009	19.994	103.990	20.021	2.156	0.217
44.500	118.230	80.008	19.994	103.988	20.020	2.238	0.224
45.000	118.309	80.009	19.993	103.991	20.019	2.289	0.191
45.500	118.426	80.007	19.994	103.992	20.019	2.327	0.185
46.000	118.535	80.008	19.994	103.998	20.019	2.274	0.211
46.500	118.628	80.008	19.993	104.005	20.017	2.413	0.214
47.000	118.745	80.008	19.994	104.008	20.019	2.331	0.206
47.500	118.862	80.008	19.993	104.007	20.021	2.180	0.222
48.001	119.008	80.007	19.993	104.009	20.020	2.230	0.249
48.501	119.067	80.007	19.994	104.008	20.021	2.190	0.233
49.001	119.183	80.007	19.994	104.003	20.023	1.987	0.189
49.500	119.342	80.008	19.993	104.002	20.018	2.402	0.225
50.000	119.457	80.009	19.993	104.004	20.018	2.397	0.275
50.500	119.567	80.008	19.993	104.007	20.021	2.174	0.250
51.000	119.654	80.008	19.993	104.009	20.020	2.228	0.211
51.500	119.781	80.009	19.992	104.011	20.020	2.265	0.205
52.000	119.871	80.007	19.994	104.011	20.021	2.188	0.216
52.500	120.033	80.008	19.994	104.007	20.020	2.258	0.234
53.000	120.146	80.008	19.993	104.002	20.021	2.150	0.264
53.500	120.308	80.007	19.995	103.999	20.018	2.361	0.275
54.000	120.435	80.008	19.993	104.003	20.019	2.323	0.282
54.500	120.543	80.008	19.993	104.006	20.020	2.248	0.262
55.001	120.740	80.008	19.994	104.006	20.017	2.449	0.270
55.501	120.811	80.009	19.993	104.009	20.017	2.455	0.286
56.000	120.971	80.008	19.994	104.007	20.019	2.266	0.249
56.500	121.108	80.008	19.993	104.002	20.019	2.268	0.264
57.000	121.257	80.008	19.993	103.996	20.017	2.423	0.292
57.500	121.377	80.008	19.993	103.995	20.017	2.461	0.278
58.000	121.546	80.008	19.993	103.996	20.016	2.488	0.279
58.500	121.633	80.008	19.993	104.002	20.018	2.387	0.272
59.000	121.778	80.008	19.993	104.007	20.016	2.516	0.244
59.501	121.925	80.008	19.992	104.013	20.015	2.599	0.262
60.001	122.061	80.007	19.994	104.014	20.016	2.508	0.288
60.501	122.246	80.009	19.995	104.013	20.019	2.309	0.302
61.000	122.362	80.007	19.995	104.013	20.016	2.496	0.311
61.500	122.488	80.009	19.994	104.010	20.018	2.409	0.272
62.000	122.651	80.008	19.995	104.004	20.020	2.210	0.265
62.500	122.817	80.009	19.993	104.004	20.017	2.440	0.308
63.001	122.976	80.008	19.993	104.001	20.019	2.333	0.327
63.501	123.098	80.009	19.994	104.001	20.021	2.144	0.303
64.001	123.236	80.007	19.992	104.000	20.018	2.410	0.271
64.501	123.391	80.009	19.993	104.001	20.019	2.305	0.277
65.001	123.554	80.008	19.993	104.000	20.019	2.335	0.305
65.500	123.696	80.009	19.993	103.999	20.018	2.376	0.311
66.000	123.858	80.008	19.994	103.993	20.018	2.357	0.304
66.500	123.992	80.007	19.993	103.993	20.018	2.374	0.300
67.000	124.159	80.008	19.994	103.995	20.018	2.376	0.298
67.500	124.287	80.007	19.994	103.995	20.022	2.106	0.297
68.000	124.482	80.007	19.994	103.994	20.020	2.223	0.309
68.500	124.628	80.006	19.995	103.997	20.019	2.289	0.332
69.000	124.794	80.008	19.993	103.998	20.020	2.206	0.327
69.500	124.927	80.007	19.993	103.999	20.020	2.253	0.305
70.000	125.120	80.008	19.993	104.005	20.022	2.096	0.312
70.500	125.226	80.007	19.994	104.011	20.019	2.335	0.313
71.001	125.418	80.006	19.994	104.011	20.020	2.200	0.299
71.501	125.561	80.008	19.993	104.013	20.019	2.323	0.317
72.001	125.687	80.006	19.995	104.010	20.019	2.291	0.302
72.501	125.843	80.007	19.995	104.007	20.018	2.408	0.276
73.000	126.062	80.007	19.993	104.006	20.019	2.293	0.328
73.500	126.203	80.007	19.994	104.009	20.020	2.209	0.368
74.000	126.358	80.008	19.995	104.011	20.020	2.215	0.328
74.500	126.507	80.006	19.995	104.015	20.021	2.160	0.300
75.000	126.671	80.007	19.994	104.018	20.019	2.301	0.308
75.500	126.877	80.007	19.995	104.020	20.016	2.492	0.342
76.000	127.057	80.006	19.995	104.020	20.018	2.404	0.378
76.500	127.235	80.007	19.995	104.020	20.018	2.345	0.372
77.000	127.359	80.006	19.994	104.021	20.020	2.198	0.330
77.500	127.562	80.007	19.993	104.021	20.015	2.583	0.314
78.000	127.720	80.006	19.995	104.019	20.021	2.190	0.344
78.500	127.896	80.008	19.994	104.018	20.019	2.317	0.348
79.000	128.104	80.008	19.995	104.017	20.017	2.470	0.359
79.500	128.268	80.007	19.995	104.015	20.018	2.347	0.378
80.000	128.458	80.008	19.995	104.013	20.018	2.383	0.363
80.500	128.632	80.006	19.995	104.015	20.016	2.559	0.359
81.000	128.763	80.008	19.995	104.015	20.020	2.253	0.335
81.500	128.981	80.008	19.995	104.016	20.017	2.478	0.327
82.000	129.148	80.008	19.995	104.018	20.022	2.052	0.367
82.500	129.354	80.008	19.993	104.019	20.020	2.203	0.379
83.000	129.541	80.008	19.994	104.018	20.022	2.078	0.383
83.500	129.688	80.009	19.994	104.018	20.021	2.174	0.363
84.000	129.908	80.009	19.995	104.018	20.019	2.325	0.350
84.500	130.087	80.007	19.995	104.018	20.022	2.074	0.383
85.000	130.280	80.010	19.995	104.017	20.021	2.169	0.386
85.500	130.486	80.008	19.994	104.017	20.018	2.352	0.385
86.000	130.668	80.008	19.994	104.016	20.019	2.329	0.394
86.501	130.845	80.008	19.993	104.016	20.015	2.625	0.374
87.001	131.051	80.008	19.995	104.016	20.022	2.086	0.371
87.500	131.180	80.008	19.994	104.017	20.023	2.024	0.359
88.000	131.425	80.010	19.995	104.017	20.018	2.358	0.355
88.500	131.603	80.009	19.994	104.018	20.021	2.187	0.399
89.000	131.782	80.010	19.995	104.018	20.020	2.195	0.390
89.500	131.996	80.009	19.995	104.018	20.018	2.346	0.375
90.000	132.163	80.008	19.995	104.017	20.017	2.468	0.387
90.500	132.371	80.008	19.994	104.017	20.016	2.513	0.378
91.000	132.543	80.009	19.993	104.017	20.019	2.333	0.377
91.500	132.756	80.008	19.994	104.018	20.019	2.321	0.382
92.000	132.922	80.009	19.994	104.018	20.015	2.607	0.382
92.500	133.119	80.008	19.993	104.018	20.017	2.414	0.371
93.000	133.342	80.009	19.994	104.019	20.017	2.450	0.392
93.500	133.533	80.008	19.995	104.019	20.018	2.352	0.417
94.000	133.708	80.008	19.994	104.020	20.019	2.331	0.390
94.500	133.935	80.008	19.994	104.021	20.017	2.474	0.384
95.000	134.137	80.009	19.994	104.021	20.014	2.687	0.416
95.500	134.357	80.009	19.994	104.026	20.015	2.617	0.425
96.000	134.559	80.009	19.995	104.028	20.017	2.486	0.422
96.500	134.783	80.010	19.994	104.031	20.017	2.476	0.424
97.000	134.965	80.008	19.994	104.030	20.014	2.691	0.416
97.500	135.195	80.007	19.994	104.033	20.016	2.504	0.409
98.000	135.375	80.007	19.996	104.031	20.015	2.627	0.411
98.500	135.611	80.008	19.995	104.029	20.017	2.482	0.413
99.000	135.794	80.008	19.994	104.025	20.016	2.514	0.418
99.501	136.027	80.007	19.994	104.027	20.017	2.450	0.417
100.001	136.218	80.008	19.995	104.025	20.016	2.549	0.420
100.500	136.473	80.008	19.994	104.027	20.016	2.521	0.435
101.000	136.668	80.009	19.995	104.027	20.020	2.245	0.448
101.500	136.875	80.009	19.995	104.030	20.018	2.412	0.426
102.000	137.115	80.008	19.995	104.028	20.019	2.321	0.425
102.500	137.325	80.008	19.995	104.029	20.017	2.422	0.449
103.000	137.558	80.008	19.996	104.028	20.018	2.367	0.446
103.500	137.747	80.008	19.994	104.028	20.016	2.514	0.432
104.000	137.969	80.008	19.994	104.026	20.016	2.527	0.417
104.500	138.181	80.008	19.994	104.030	20.015	2.597	0.423
105.000	138.387	80.009	19.995	104.028	20.015	2.565	0.426
105.500	138.595	80.009	19.994	104.026	20.016	2.503	0.416
106.001	138.825	80.009	19.994	104.025	20.015	2.577	0.426
106.501	139.018	80.007	19.994	104.022	20.016	2.519	0.430
107.000	139.258	80.009	19.995	104.018	20.015	2.573	0.428
107.500	139.478	80.009	19.994	104.019	20.014	2.698	0.447
108.000	139.682	80.009	19.994	104.019	20.019	2.305	0.442
108.500	139.917	80.008	19.994	104.020	20.016	2.539	0.431
109.000	140.162	80.009	19.994	104.024	20.021	2.183	0.459
109.500	140.413	80.010	19.994	104.027	20.021	2.129	0.489
110.000	140.620	80.009	19.995	104.027	20.019	2.272	0.477
110.500	140.836	80.010	19.995	104.029	20.019	2.278	0.440
111.001	141.030	80.010	19.995	104.033	20.019	2.308	0.416
111.501	141.302	80.009	19.995	104.032	20.021	2.183	0.438
112.000	141.511	80.010	19.995	104.030	20.018	2.366	0.473
112.500	141.713	80.011	19.995	104.028	20.021	2.149	0.446
113.000	141.956	80.010	19.994	104.027	20.019	2.275	0.428
113.500	142.206	80.010	19.994	104.022	20.019	2.281	0.469
114.000	142.460	80.010	19.994	104.020	20.020	2.213	0.499
114.500	142.674	80.009	19.994	104.023	20.019	2.287	0.486
115.000	142.892	80.009	19.994	104.027	20.020	2.217	0.450
115.500	143.118	80.009	19.995	104.030	20.017	2.458	0.438
116.000	143.385	80.009	19.994	104.034	20.018	2.374	0.468
116.500	143.603	80.008	19.994	104.034	20.018	2.406	0.489
117.000	143.866	80.009	19.994	104.030	20.020	2.207	0.483
117.500	144.074	80.009	19.994	104.028	20.020	2.194	0.477
118.000	144.284	80.009	19.994	104.031	20.021	2.150	0.444
118.500	144.549	80.008	19.994	104.030	20.018	2.406	0.446
119.001	144.755	80.008	19.993	104.034	20.020	2.243	0.473
119.501	145.019	80.008	19.992	104.039	20.020	2.229	0.471
120.000	145.265	80.008	19.994	104.042	20.019	2.285	0.490
120.500	145.487	80.009	19.996	104.041	20.020	2.263	0.489
121.000	145.738	80.008	19.994	104.047	20.021	2.132	0.471
121.500	145.940	80.008	19.992	104.047	20.019	2.283	0.463
122.000	146.216	80.007	19.993	104.046	20.022	2.114	0.465
122.500	146.453	80.007	19.994	104.046	20.020	2.205	0.495
123.000	146.683	80.009	19.993	104.042	20.020	2.203	0.490
123.501	146.963	80.008	19.994	104.034	20.017	2.424	0.489
124.001	147.152	80.010	19.994	104.030	20.020	2.207	0.490
124.500	147.434	80.008	19.992	104.028	20.021	2.176	0.470
125.000	147.661	80.008	19.994	104.023	20.020	2.193	0.490
125.500	147.915	80.008	19.994	104.023	20.018	2.353	0.495
126.000	148.152	80.009	19.994	104.024	20.021	2.156	0.486
126.500	148.377	80.007	19.994	104.023	20.018	2.394	0.477
127.000	148.620	80.008	19.994	104.023	20.018	2.349	0.465
127.500	148.871	80.008	19.993	104.021	20.020	2.255	0.481
128.000	149.119	80.008	19.994	104.018	20.022	2.114	0.497
128.500	149.373	80.007	19.994	104.017	20.020	2.243	0.501
129.000	149.600	80.007	19.993	104.018	20.021	2.168	0.491
129.500	149.831	80.007	19.994	104.018	20.022	2.080	0.469
130.000	150.100	80.006	19.994	104.020	20.020	2.215	0.479
130.500	150.339	80.007	19.994	104.022	20.020	2.243	0.504
131.000	150.583	80.007	19.994	104.023	20.021	2.146	0.495
131.500	150.853	80.007	19.993	104.023	20.020	2.265	0.498
132.000	151.076	80.006	19.994	104.023	20.018	2.349	0.504
132.500	151.310	80.007	19.994	104.023	20.019	2.295	0.475
133.000	151.548	80.008	19.992	104.023	20.021	2.168	0.465
133.500	151.814	80.006	19.995	104.023	20.022	2.052	0.488
134.000	152.016	80.007	19.993	104.023	20.020	2.247	0.486
134.500	152.307	80.007	19.993	104.022	20.021	2.188	0.481
135.000	152.517	80.007	19.994	104.022	20.019	2.299	0.497
135.500	152.773	80.008	19.993	104.022	20.020	2.204	0.483
136.000	153.012	80.007	19.993	104.023	20.021	2.150	0.481
136.500	153.286	80.006	19.993	104.023	20.022	2.094	0.504
137.000	153.540	80.006	19.993	104.023	20.023	2.007	0.521
137.500	153.747	80.007	19.993	104.023	20.021	2.166	0.494
138.000	154.006	80.005	19.993	104.024	20.023	2.031	0.463
138.500	154.235	80.007	19.993	104.023	20.025	1.858	0.478
139.000	154.526	80.007	19.993	104.023	20.022	2.092	0.504
139.500	154.738	80.005	19.993	104.023	20.022	2.066	0.511
140.000	155.006	80.005	19.993	104.023	20.021	2.166	0.492
140.500	155.264	80.006	19.993	104.022	20.020	2.203	0.503
141.000	155.482	80.008	19.994	104.022	20.021	2.148	0.501
141.500	155.680	80.008	19.994	104.022	20.023	2.027	0.446
142.000	156.000	80.008	19.992	104.021	20.021	2.166	0.467
142.500	156.215	80.007	19.994	104.021	20.020	2.251	0.526
143.000	156.456	80.008	19.994	104.021	20.022	2.061	0.495
143.500	156.750	80.007	19.993	104.020	20.021	2.126	0.496
144.000	156.973	80.006	19.994	104.021	20.022	2.094	0.526
144.500	157.224	80.007	19.994	104.021	20.023	2.027	0.496
145.000	157.528	80.007	19.994	104.019	20.021	2.144	0.514
145.500	157.749	80.007	19.994	104.018	20.020	2.225	0.539
146.000	157.966	80.009	19.993	104.017	20.020	2.227	0.481
146.500	158.239	80.007	19.993	104.017	20.023	1.995	0.464
147.000	158.520	80.008	19.993	104.017	20.025	1.848	0.523
147.500	158.758	80.008	19.993	104.016	20.024	1.945	0.537
148.000	159.021	80.007	19.993	104.016	20.023	1.997	0.510
148.500	159.235	80.008	19.994	104.015	20.023	1.981	0.489
149.000	159.501	80.008	19.993	104.014	20.026	1.776	0.479
149.500	159.758	80.008	19.994	104.015	20.023	1.975	0.502
150.000	160.024	80.008	19.994	104.016	20.024	1.959	0.523
150.500	160.281	80.007	19.994	104.016	20.021	2.164	0.523
151.000	160.505	80.007	19.994	104.017	20.020	2.234	0.502
151.500	160.754	80.007	19.993	104.018	20.021	2.178	0.476
152.000	161.049	80.007	19.993	104.014	20.021	2.136	0.508
152.500	161.300	80.008	19.994	104.008	20.020	2.216	0.545
153.000	161.575	80.007	19.994	104.007	20.023	2.035	0.536
153.500	161.808	80.008	19.994	104.006	20.020	2.220	0.517
154.000	162.053	80.008	19.994	104.005	20.020	2.206	0.493
154.500	162.300	80.007	19.994	104.009	20.021	2.190	0.485
155.000	162.557	80.007	19.994	104.014	20.022	2.051	0.499
155.500	162.817	80.008	19.994	104.014	20.019	2.282	0.511
156.000	163.054	80.008	19.994	104.015	20.018	2.349	0.506
156.500	163.336	80.007	19.994	104.015	20.022	2.091	0.508
157.000	163.597	80.008	19.994	104.016	20.020	2.252	0.531
157.500	163.813	80.006	19.994	104.013	20.020	2.216	0.510
158.000	164.101	80.007	19.994	104.014	20.023	1.999	0.491
158.500	164.364	80.007	19.993	104.014	20.023	1.985	0.528
159.000	164.659	80.009	19.993	104.015	20.023	1.993	0.554
159.500	164.924	80.007	19.994	104.016	20.023	2.013	0.559
160.000	165.136	80.008	19.994	104.015	20.019	2.315	0.519
160.500	165.406	80.008	19.994	104.012	20.021	2.180	0.480
161.000	165.688	80.009	19.994	104.010	20.021	2.184	0.517
161.500	165.956	80.007	19.993	104.008	20.019	2.271	0.551
162.000	166.210	80.008	19.993	104.008	20.017	2.480	0.535
162.500	166.468	80.008	19.994	104.009	20.018	2.383	0.517
163.000	166.721	80.008	19.994	104.006	20.016	2.546	0.512
163.500	166.967	80.009	19.993	104.001	20.019	2.312	0.505
164.000	167.244	80.009	19.994	103.998	20.018	2.379	0.511
164.500	167.449	80.009	19.993	103.991	20.017	2.421	0.502
165.000	167.696	80.008	19.994	103.987	20.018	2.383	0.467
165.500	167.943	80.008	19.993	103.984	20.019	2.308	0.473
166.000	168.207	80.008	19.995	103.988	20.014	2.652	0.502
166.500	168.446	80.009	19.993	103.990	20.014	2.672	0.507
167.000	168.708	80.009	19.994	103.995	20.017	2.453	0.502
167.500	168.958	80.009	19.994	103.999	20.017	2.471	0.506
168.000	169.207	80.008	19.994	104.002	20.016	2.512	0.505
168.500	169.483	80.009	19.994	104.002	20.018	2.403	0.512
169.000	169.749	80.009	19.993	103.997	20.014	2.638	0.533
169.500	169.972	80.008	19.995	103.992	20.020	2.250	0.515
170.000	170.227	80.008	19.994	103.991	20.018	2.375	0.483
170.500	170.510	80.008	19.996	103.992	20.018	2.379	0.508
171.000	170.742	80.009	19.993	103.991	20.015	2.622	0.527
171.500	170.970	80.009	19.994	103.997	20.016	2.509	0.487
172.000	171.260	80.008	19.994	104.002	20.017	2.415	0.489
172.500	171.538	80.008	19.994	104.003	20.017	2.437	0.543
173.000	171.783	80.008	19.995	103.999	20.017	2.421	0.545
173.500	172.046	80.009	19.996	103.996	20.017	2.427	0.515
174.000	172.276	80.010	19.994	103.991	20.020	2.254	0.500
174.500	172.530	80.009	19.994	103.985	20.019	2.314	0.489
175.000	172.793	80.009	19.995	103.982	20.019	2.274	0.501
175.500	173.055	80.009	19.994	103.980	20.020	2.192	0.521
176.000	173.284	80.009	19.995	103.981	20.019	2.310	0.508
176.500	173.561	80.007	19.996	103.982	20.017	2.481	0.498
177.000	173.816	80.007	19.994	103.985	20.019	2.310	0.519
177.500	174.061	80.008	19.995	103.986	20.019	2.304	0.516
178.000	174.298	80.007	19.993	103.987	20.015	2.568	0.491
178.500	174.615	80.007	19.994	103.988	20.021	2.155	0.518
179.000	174.802	80.007	19.994	103.988	20.017	2.471	0.529
179.500	175.073	80.007	19.994	103.985	20.016	2.501	0.481
180.000	175.310	80.008	19.996	103.984	20.018	2.401	0.483
180.500	175.554	80.007	19.995	103.985	20.016	2.534	0.495
181.000	175.810	80.008	19.996	103.984	20.016	2.530	0.490
181.500	176.082	80.008	19.996	103.984	20.015	2.610	0.514
182.000	176.332	80.006	19.995	103.985	20.018	2.365	0.525
182.500	176.571	80.007	19.994	103.985	20.013	2.749	0.506
183.000	176.828	80.008	19.994	103.984	20.016	2.549	0.493
183.500	177.085	80.009	19.994	103.984	20.017	2.471	0.505
184.000	177.327	80.009	19.994	103.984	20.019	2.304	0.506
184.500	177.565	80.009	19.994	103.983	20.016	2.505	0.489
185.000	177.803	80.010	19.994	103.982	20.018	2.403	0.478
185.500	178.094	80.009	19.993	103.983	20.015	2.586	0.503
186.000	178.341	80.009	19.994	103.984	20.019	2.318	0.533
186.500	178.572	80.010	19.994	103.984	20.016	2.541	0.508
187.000	178.837	80.009	19.996	103.983	20.016	2.543	0.487
187.500	179.055	80.009	19.994	103.984	20.015	2.618	0.490
188.000	179.319	80.009	19.993	103.983	20.015	2.610	0.483
188.500	179.632	80.009	19.993	103.982	20.017	2.485	0.530
189.000	179.821	80.009	19.994	103.982	20.016	2.523	0.540
189.500	180.090	80.010	19.994	103.982	20.015	2.571	0.480
190.000	180.339	80.009	19.994	103.984	20.013	2.722	0.488
190.500	180.569	80.008	19.994	103.985	20.014	2.664	0.498
191.000	180.817	80.009	19.994	103.986	20.016	2.493	0.478
191.500	181.124	80.010	19.994	103.985	20.016	2.515	0.517
192.000	181.356	80.009	19.994	103.985	20.017	2.479	0.547
192.500	181.579	80.009	19.995	103.979	20.015	2.593	0.497
193.000	181.844	80.009	19.995	103.978	20.013	2.746	0.472
193.500	182.113	80.009	19.994	103.977	20.017	2.477	0.511
194.000	182.321	80.009	19.995	103.975	20.013	2.742	0.505
194.500	182.570	80.009	19.993	103.975	20.014	2.636	0.468
195.000	182.827	80.009	19.995	103.978	20.014	2.688	0.482
195.500	183.090	80.008	19.995	103.979	20.014	2.698	0.512
196.000	183.342	80.009	19.994	103.979	20.014	2.642	0.517
196.500	183.568	80.008	19.995	103.980	20.015	2.626	0.497
197.000	183.819	80.007	19.994	103.979	20.016	2.543	0.477
197.500	184.088	80.008	19.994	103.977	20.015	2.563	0.499
198.000	184.341	80.008	19.995	103.975	20.014	2.706	0.521
198.501	184.603	80.007	19.994	103.973	20.016	2.511	0.518
199.000	184.779	80.008	19.995	103.970	20.014	2.662	0.476
199.500	185.043	80.007	19.994	103.970	20.013	2.758	0.439
200.000	185.277	80.008	19.996	103.970	20.012	2.782	0.469
200.500	185.571	80.006	19.995	103.971	20.015	2.591	0.513
201.000	185.836	80.007	19.994	103.970	20.012	2.834	0.543
201.500	186.079	80.006	19.995	103.970	20.013	2.740	0.533
202.000	186.272	80.006	19.995	103.964	20.013	2.768	0.472
202.500	186.556	80.006	19.995	103.958	20.010	2.941	0.457
203.000	186.766	80.006	19.995	103.956	20.011	2.917	0.485
203.500	187.031	80.006	19.995	103.958	20.010	2.987	0.484
204.000	187.273	80.006	19.995	103.963	20.011	2.867	0.491
204.500	187.524	80.006	19.995	103.967	20.010	3.001	0.500
205.000	187.801	80.007	19.994	103.969	20.010	2.993	0.511
205.500	188.053	80.007	19.995	103.968	20.008	3.090	0.528
206.000	188.290	80.006	19.994	103.961	20.014	2.700	0.509
206.500	188.517	80.006	19.995	103.958	20.011	2.865	0.476
207.000	188.745	80.006	19.994	103.962	20.011	2.870	0.459
207.500	188.988	80.007	19.995	103.965	20.011	2.905	0.463
208.000	189.222	80.006	19.995	103.966	20.010	2.961	0.474
208.500	189.454	80.007	19.994	103.969	20.011	2.916	0.472
209.000	189.669	80.006	19.995	103.969	20.009	3.005	0.457
209.500	189.932	80.008	19.995	103.967	20.007	3.178	0.463
210.000	190.179	80.007	19.994	103.964	20.010	2.943	0.494
210.500	190.427	80.007	19.994	103.966	20.011	2.894	0.502
211.000	190.695	80.007	19.995	103.962	20.009	3.027	0.505
211.500	190.923	80.008	19.994	103.963	20.008	3.136	0.506
212.000	191.156	80.009	19.994	103.957	20.008	3.087	0.478
212.500	191.411	80.008	19.994	103.955	20.010	2.935	0.474
213.000	191.616	80.008	19.995	103.951	20.009	3.061	0.474
213.500	191.846	80.007	19.994	103.950	20.006	3.246	0.448
214.000	192.075	80.007	19.994	103.950	20.007	3.158	0.447
214.500	192.296	80.008	19.994	103.953	20.007	3.152	0.455
215.000	192.535	80.008	19.994	103.959	20.009	3.035	0.455
215.500	192.805	80.008	19.994	103.963	20.008	3.100	0.484
216.000	193.060	80.008	19.994	103.965	20.007	3.160	0.517
216.500	193.280	80.007	19.994	103.964	20.005	3.299	0.500
217.000	193.529	80.008	19.994	103.963	20.006	3.257	0.472
217.500	193.736	80.008	19.994	103.956	20.007	3.223	0.462
218.000	193.974	80.010	19.994	103.951	20.008	3.136	0.450
218.500	194.218	80.009	19.994	103.949	20.007	3.219	0.463
219.000	194.440	80.008	19.993	103.944	20.006	3.285	0.474
219.500	194.695	80.008	19.994	103.943	20.008	3.098	0.471
220.000	194.962	80.008	19.994	103.943	20.005	3.337	0.499
220.500	195.191	80.008	19.994	103.946	20.004	3.413	0.509
221.000	195.387	80.009	19.994	103.945	20.002	3.552	0.461
221.500	195.668	80.008	19.995	103.948	20.003	3.451	0.451
222.000	195.864	80.008	19.993	103.948	20.005	3.333	0.477
222.500	196.116	80.008	19.994	103.947	20.004	3.381	0.462
223.000	196.327	80.007	19.995	103.948	19.998	3.835	0.455
223.500	196.568	80.007	19.995	103.952	20.002	3.558	0.458
224.000	196.793	80.008	19.994	103.951	20.002	3.570	0.459
224.500	197.032	80.008	19.995	103.952	19.998	3.870	0.465
225.000	197.260	80.008	19.994	103.952	20.000	3.675	0.466
225.500	197.538	80.008	19.993	103.949	20.000	3.685	0.486
226.000	197.735	80.008	19.994	103.953	19.999	3.781	0.490
226.500	197.968	80.008	19.994	103.959	19.998	3.868	0.453
227.000	198.230	80.008	19.993	103.960	19.998	3.876	0.463
227.500	198.453	80.009	19.994	103.964	19.999	3.775	0.490
228.000	198.691	80.008	19.994	103.965	19.998	3.888	0.472
228.500	198.900	80.007	19.993	103.963	19.997	3.940	0.454
229.000	199.126	80.006	19.995	103.963	19.997	3.902	0.441
229.500	199.406	80.009	19.993	103.969	19.998	3.864	0.471
230.000	199.626	80.007	19.993	103.973	19.996	4.019	0.503
230.500	199.860	80.007	19.994	103.971	19.994	4.115	0.477
231.000	200.096	80.008	19.994	103.967	19.994	4.143	0.462
231.500	200.343	80.007	19.994	103.961	19.996	4.022	0.477
232.000	200.580	80.008	19.994	103.953	19.992	4.326	0.484
232.500	200.775	80.008	19.994	103.950	19.990	4.460	0.458
233.000	201.038	80.007	19.994	103.952	19.991	4.404	0.445
233.500	201.333	80.008	19.994	103.952	19.991	4.366	0.508
234.000	201.542	80.007	19.994	103.952	19.990	4.446	0.531
234.500	201.735	80.007	19.995	103.954	19.992	4.321	0.453
235.000	202.000	80.006	19.994	103.953	19.993	4.201	0.430
235.500	202.227	80.008	19.994	103.954	19.990	4.462	0.475
236.000	202.508	80.008	19.995	103.958	19.990	4.453	0.500
236.500	202.730	80.007	19.995	103.964	19.987	4.692	0.505
237.000	202.922	80.007	19.994	103.964	19.989	4.547	0.459
237.500	203.191	80.008	19.993	103.964	19.985	4.803	0.437
238.000	203.406	80.008	19.994	103.962	19.986	4.724	0.472
238.500	203.634	80.007	19.994	103.957	19.988	4.625	0.464
239.000	203.870	80.007	19.995	103.954	19.988	4.605	0.454
239.500	204.130	80.005	19.992	103.952	19.990	4.467	0.480
240.000	204.345	80.007	19.994	103.954	19.987	4.666	0.486
240.500	204.567	80.007	19.996	103.958	19.985	4.835	0.456
241.000	204.845	80.008	19.996	103.963	19.985	4.833	0.468
241.500	205.087	80.007	19.995	103.963	19.987	4.660	0.510
242.000	205.315	80.008	19.994	103.962	19.985	4.847	0.494
242.500	205.542	80.007	19.995	103.957	19.987	4.652	0.462
243.000	205.750	80.007	19.994	103.950	19.985	4.847	0.446
243.500	206.043	80.007	19.994	103.945	19.987	4.680	0.469
244.000	206.279	80.008	19.995	103.943	19.984	4.853	0.515
244.500	206.506	80.007	19.994	103.943	19.984	4.868	0.496
245.000	206.737	80.008	19.994	103.944	19.984	4.856	0.460
245.500	206.973	80.007	19.994	103.943	19.983	4.998	0.462
246.000	207.253	80.009	19.993	103.946	19.983	4.966	0.491
246.500	207.453	80.008	19.994	103.950	19.980	5.197	0.498
247.000	207.715	80.008	19.993	103.955	19.980	5.197	0.471
247.500	207.937	80.010	19.993	103.961	19.978	5.315	0.474
248.000	208.164	80.008	19.994	103.962	19.976	5.494	0.467
248.500	208.404	80.009	19.995	103.959	19.975	5.579	0.457
249.000	208.652	80.009	19.995	103.956	19.977	5.372	0.477
249.500	208.890	80.009	19.994	103.955	19.975	5.565	0.487
250.000	209.141	80.008	19.994	103.951	19.974	5.595	0.488
250.500	209.325	80.009	19.994	103.952	19.978	5.337	0.462
251.000	209.563	80.008	19.994	103.952	19.976	5.454	0.428
251.500	209.808	80.009	19.994	103.956	19.975	5.546	0.453
252.000	210.042	80.008	19.993	103.958	19.974	5.624	0.481
252.500	210.306	80.008	19.994	103.961	19.972	5.739	0.488
253.000	210.559	80.008	19.993	103.962	19.974	5.624	0.508
253.500	210.795	80.008	19.994	103.967	19.972	5.769	0.503
254.000	211.029	80.008	19.994	103.966	19.971	5.845	0.479
254.500	211.291	80.008	19.994	103.967	19.968	6.032	0.483
255.000	211.501	80.009	19.993	103.969	19.972	5.773	0.484
255.500	211.757	80.009	19.994	103.974	19.969	5.972	0.469
256.000	211.999	80.007	19.994	103.975	19.968	6.063	0.482
256.500	212.238	80.008	19.994	103.977	19.969	5.969	0.490
257.000	212.472	80.008	19.993	103.972	19.967	6.111	0.477
257.500	212.701	80.008	19.992	103.970	19.965	6.304	0.467
258.000	212.941	80.008	19.993	103.965	19.966	6.225	0.466
258.500	213.192	80.009	19.993	103.961	19.965	6.291	0.481
259.000	213.401	80.008	19.993	103.963	19.965	6.317	0.475
259.500	213.660	80.007	19.993	103.966	19.963	6.466	0.464
260.000	213.908	80.008	19.994	103.963	19.961	6.571	0.487
260.500	214.157	80.006	19.994	103.964	19.961	6.567	0.502
261.000	214.361	80.007	19.993	103.962	19.960	6.687	0.475
261.500	214.598	80.007	19.993	103.957	19.961	6.609	0.447
262.000	214.811	80.007	19.994	103.952	19.958	6.804	0.446
262.500	215.091	80.007	19.994	103.952	19.959	6.699	0.472
263.000	215.330	80.007	19.993	103.951	19.958	6.800	0.506
263.500	215.552	80.008	19.995	103.949	19.957	6.894	0.490
264.000	215.816	80.007	19.993	103.948	19.954	7.073	0.474
264.500	216.080	80.008	19.994	103.947	19.952	7.226	0.507
265.000	216.313	80.006	19.994	103.946	19.951	7.328	0.512
265.500	216.543	80.008	19.994	103.947	19.952	7.252	0.480
266.000	216.798	80.006	19.993	103.954	19.951	7.340	0.474
266.500	217.024	80.007	19.995	103.958	19.953	7.176	0.482
267.000	217.245	80.008	19.994	103.959	19.953	7.150	0.464
267.500	217.501	80.008	19.995	103.959	19.950	7.421	0.462
268.000	217.750	80.008	19.995	103.957	19.951	7.344	0.491
268.500	217.995	80.009	19.995	103.951	19.950	7.417	0.499
269.000	218.259	80.008	19.994	103.948	19.948	7.567	0.501
269.500	218.451	80.009	19.995	103.946	19.945	7.797	0.483
270.000	218.699	80.009	19.995	103.946	19.948	7.542	0.448
270.500	218.965	80.008	19.995	103.946	19.945	7.785	0.477
271.000	219.211	80.009	19.994	103.946	19.945	7.743	0.513
271.500	219.445	80.009	19.995	103.945	19.945	7.785	0.496
272.000	219.693	80.010	19.995	103.946	19.944	7.873	0.481
272.500	219.922	80.009	19.994	103.948	19.942	7.996	0.480
273.000	220.174	80.010	19.993	103.948	19.939	8.190	0.479
273.500	220.352	80.009	19.994	103.947	19.937	8.391	0.455
274.000	220.642	80.009	19.994	103.945	19.935	8.476	0.448
274.500	220.889	80.009	19.995	103.943	19.935	8.516	0.502
275.000	221.124	80.011	19.994	103.940	19.937	8.337	0.509
275.500	221.402	80.010	19.994	103.939	19.932	8.691	0.498
276.000	221.602	80.009	19.995	103.940	19.934	8.580	0.496
276.500	221.843	80.009	19.994	103.943	19.933	8.647	0.459
277.000	222.080	80.009	19.994	103.945	19.930	8.860	0.459
277.500	222.350	80.010	19.994	103.945	19.931	8.823	0.492
278.000	222.559	80.009	19.995	103.945	19.931	8.789	0.493
278.500	222.808	80.009	19.995	103.944	19.932	8.711	0.469
279.000	223.045	80.008	19.993	103.942	19.930	8.864	0.473
279.500	223.264	80.008	19.993	103.941	19.928	9.018	0.471
280.000	223.542	80.009	19.995	103.943	19.929	8.964	0.476
280.500	223.776	80.007	19.994	103.944	19.928	9.021	0.504
281.000	224.017	80.008	19.994	103.948	19.924	9.292	0.494
281.500	224.252	80.006	19.994	103.948	19.923	9.376	0.476
282.000	224.529	80.007	19.995	103.947	19.920	9.636	0.494
282.500	224.759	80.007	19.994	103.947	19.920	9.624	0.510
283.000	225.011	80.006	19.994	103.945	19.918	9.746	0.495
283.500	225.215	80.007	19.995	103.942	19.916	9.891	0.469
284.000	225.472	80.005	19.994	103.941	19.916	9.887	0.458
284.500	225.724	80.006	19.995	103.941	19.916	9.944	0.485
285.000	225.955	80.006	19.994	103.941	19.916	9.896	0.496
285.500	226.212	80.008	19.995	103.942	19.911	10.302	0.485
286.000	226.430	80.007	19.995	103.942	19.913	10.149	0.481
286.500	226.711	80.007	19.995	103.942	19.912	10.223	0.487
287.000	226.967	80.006	19.995	103.942	19.910	10.374	0.518
287.500	227.176	80.007	19.995	103.941	19.910	10.362	0.501
288.000	227.418	80.007	19.995	103.939	19.906	10.615	0.459
288.500	227.677	80.008	19.994	103.939	19.906	10.672	0.476
289.000	227.934	80.007	19.994	103.939	19.901	11.042	0.508
289.500	228.144	80.007	19.994	103.939	19.903	10.857	0.491
290.000	228.409	80.007	19.995	103.939	19.899	11.179	0.471
290.500	228.694	80.007	19.996	103.940	19.900	11.129	0.512
291.000	228.941	80.007	19.995	103.941	19.895	11.460	0.541
291.500	229.197	80.006	19.994	103.943	19.895	11.497	0.518
292.000	229.470	80.006	19.995	103.943	19.893	11.606	0.516
292.500	229.728	80.008	19.995	103.943	19.892	11.668	0.530
293.000	229.950	80.006	19.996	103.943	19.891	11.761	0.506
293.500	230.199	80.008	19.995	103.943	19.890	11.861	0.476
294.000	230.462	80.007	19.996	103.944	19.887	12.052	0.491
294.500	230.671	80.006	19.997	103.945	19.883	12.340	0.492
295.000	230.912	80.006	19.996	103.946	19.885	12.169	0.461
295.500	231.130	80.007	19.995	103.948	19.880	12.591	0.454
296.000	231.412	80.006	19.995	103.950	19.880	12.579	0.480
296.500	231.626	80.007	19.995	103.948	19.880	12.543	0.499
297.000	231.866	80.007	19.995	103.948	19.879	12.630	0.475
297.500	232.124	80.007	19.995	103.949	19.877	12.801	0.476
298.000	232.392	80.007	19.996	103.950	19.876	12.898	0.512
298.500	232.611	80.008	19.995	103.951	19.875	12.977	0.507
299.000	232.862	80.008	19.995	103.951	19.872	13.188	0.479
299.500	233.130	80.007	19.994	103.953	19.869	13.419	0.494
300.000	233.373	80.008	19.995	103.954	19.869	13.400	0.515
300.500	233.619	80.006	19.996	103.952	19.870	13.305	0.501
301.000	233.900	80.007	19.996	103.954	19.867	13.518	0.509
301.500	234.127	80.008	19.996	103.956	19.866	13.592	0.517
302.000	234.348	80.007	19.996	103.955	19.861	13.982	0.478
302.500	234.596	80.008	19.996	103.957	19.862	13.929	0.458
303.000	234.854	80.008	19.995	103.962	19.861	13.964	0.487
303.500	235.071	80.008	19.996	103.961	19.856	14.307	0.491
304.000	235.304	80.007	19.994	103.964	19.853	14.541	0.463
304.500	235.609	80.007	19.994	103.963	19.854	14.486	0.494
305.000	235.863	80.008	19.994	103.959	19.853	14.569	0.548
305.500	236.100	80.008	19.994	103.954	19.850	14.808	0.525
306.000	236.344	80.008	19.995	103.950	19.852	14.660	0.486
306.500	236.568	80.008	19.994	103.946	19.846	15.054	0.474
307.000	236.839	80.009	19.994	103.946	19.848	14.969	0.481
307.501	237.079	80.009	19.994	103.949	19.842	15.357	0.503
308.000	237.321	80.007	19.994	103.952	19.841	15.435	0.497
308.500	237.571	80.008	19.994	103.955	19.839	15.602	0.487
309.000	237.845	80.008	19.994	103.960	19.838	15.671	0.508
309.500	238.053	80.008	19.995	103.964	19.836	15.830	0.504
310.000	238.323	80.007	19.994	103.963	19.836	15.834	0.480
310.500	238.610	80.008	19.993	103.959	19.832	16.097	0.517
311.000	238.857	80.008	19.994	103.957	19.830	16.277	0.545
311.500	239.055	80.007	19.994	103.951	19.826	16.538	0.489
312.000	239.338	80.008	19.993	103.948	19.826	16.528	0.463
312.500	239.574	80.007	19.996	103.945	19.823	16.771	0.500
313.000	239.819	80.008	19.993	103.947	19.826	16.595	0.500
313.500	240.063	80.008	19.993	103.946	19.820	16.970	0.485
314.000	240.315	80.006	19.994	103.946	19.819	17.063	0.493
314.500	240.571	80.006	19.993	103.946	19.815	17.407	0.502
315.000	240.829	80.007	19.994	103.947	19.814	17.441	0.511
315.500	241.074	80.007	19.994	103.947	19.814	17.435	0.509
316.000	241.312	80.006	19.996	103.948	19.811	17.654	0.493
316.500	241.571	80.006	19.994	103.948	19.808	17.915	0.490
317.000	241.808	80.006	19.994	103.951	19.808	17.889	0.497
317.500	242.082	80.006	19.994	103.951	19.803	18.291	0.504
318.000	242.306	80.007	19.995	103.950	19.803	18.223	0.505
318.500	242.570	80.007	19.993	103.949	19.801	18.406	0.493
319.000	242.855	80.007	19.994	103.948	19.799	18.547	0.518
319.500	243.089	80.007	19.994	103.948	19.798	18.619	0.534
320.000	243.366	80.007	19.994	103.950	19.793	18.991	0.515
320.500	243.619	80.007	19.993	103.951	19.792	19.066	0.520
321.000	243.850	80.008	19.994	103.951	19.788	19.347	0.507
321.500	244.143	80.008	19.993	103.951	19.786	19.550	0.504
322.000	244.417	80.008	19.994	103.948	19.787	19.468	0.546
322.500	244.593	80.007	19.993	103.946	19.786	19.498	0.509
323.000	244.858	80.009	19.994	103.945	19.782	19.819	0.445
323.500	245.107	80.007	19.994	103.945	19.779	20.040	0.477
324.000	245.369	80.008	19.994	103.945	19.778	20.115	0.512
324.500	245.654	80.008	19.992	103.945	19.775	20.349	0.529
325.000	245.843	80.007	19.995	103.944	19.774	20.420	0.511
325.500	246.111	80.008	19.993	103.945	19.772	20.564	0.466
326.000	246.385	80.007	19.994	103.945	19.769	20.789	0.500
326.500	246.622	80.008	19.993	103.946	19.767	20.918	0.527
327.000	246.895	80.008	19.994	103.946	19.766	20.986	0.510
327.500	247.152	80.008	19.993	103.947	19.761	21.336	0.519
328.000	247.417	80.009	19.993	103.946	19.761	21.356	0.526
328.500	247.632	80.007	19.994	103.946	19.760	21.440	0.501
329.000	247.883	80.009	19.993	103.946	19.758	21.609	0.473
329.500	248.143	80.007	19.993	103.948	19.753	21.984	0.489
330.000	248.412	80.009	19.994	103.948	19.752	22.023	0.520
330.500	248.622	80.008	19.994	103.948	19.750	22.208	0.504
331.000	248.933	80.009	19.993	103.948	19.748	22.330	0.500
331.500	249.203	80.007	19.994	103.949	19.747	22.423	0.551
332.000	249.436	80.009	19.994	103.948	19.746	22.485	0.543
332.500	249.699	80.009	19.993	103.947	19.742	22.731	0.500
333.000	249.964	80.009	19.993	103.949	19.739	22.976	0.512
333.500	250.229	80.010	19.992	103.949	19.737	23.122	0.529
334.000	250.465	80.008	19.993	103.948	19.732	23.518	0.515
334.500	250.704	80.008	19.993	103.947	19.729	23.757	0.488
335.000	250.987	80.009	19.993	103.947	19.726	23.980	0.498
335.500	251.172	80.008	19.993	103.946	19.726	23.930	0.495
336.000	251.502	80.008	19.993	103.945	19.725	24.045	0.492
336.500	251.774	80.009	19.993	103.944	19.719	24.449	0.559
337.000	252.016	80.008	19.994	103.944	19.715	24.782	0.558
337.500	252.241	80.008	19.993	103.944	19.716	24.684	0.490
338.000	252.486	80.008	19.993	103.944	19.716	24.688	0.469
338.500	252.729	80.009	19.993	103.943	19.711	25.028	0.479
339.000	252.978	80.008	19.993	103.943	19.708	25.292	0.490
339.500	253.227	80.008	19.993	103.942	19.706	25.422	0.495
340.000	253.480	80.008	19.993	103.941	19.706	25.392	0.500
340.500	253.705	80.009	19.993	103.940	19.704	25.575	0.490
341.000	253.967	80.008	19.993	103.940	19.698	26.014	0.483
341.500	254.224	80.008	19.993	103.941	19.696	26.137	0.503
342.000	254.482	80.009	19.994	103.942	19.694	26.298	0.517
342.500	254.731	80.009	19.993	103.942	19.690	26.591	0.510
343.000	255.009	80.008	19.994	103.943	19.687	26.803	0.517
343.500	255.248	80.008	19.995	103.943	19.685	26.952	0.522
344.000	255.507	80.009	19.993	103.942	19.687	26.815	0.508
344.500	255.750	80.009	19.993	103.942	19.684	27.078	0.500
345.000	255.999	80.009	19.993	103.942	19.682	27.191	0.497
345.500	256.280	80.009	19.993	103.942	19.678	27.516	0.512
346.000	256.502	80.009	19.993	103.941	19.677	27.534	0.517
346.500	256.745	80.009	19.993	103.941	19.672	27.901	0.484
347.000	256.981	80.008	19.994	103.941	19.671	28.014	0.472
347.500	257.242	80.009	19.994	103.941	19.667	28.291	0.487
348.000	257.510	80.009	19.994	103.941	19.666	28.352	0.513
348.500	257.703	80.009	19.993	103.941	19.664	28.508	0.495
349.000	257.973	80.008	19.993	103.941	19.661	28.760	0.462
349.500	258.205	80.009	19.992	103.945	19.658	28.933	0.483
350.000	258.482	80.009	19.993	103.945	19.654	29.285	0.506
350.500	258.739	80.010	19.993	103.945	19.654	29.271	0.521
351.000	258.989	80.009	19.993	103.945	19.651	29.520	0.520
351.500	259.248	80.010	19.994	103.945	19.648	29.741	0.508
352.000	259.472	80.010	19.993	103.940	19.643	30.070	0.496
352.500	259.772	80.010	19.993	103.940	19.643	30.078	0.503
353.000	259.978	80.010	19.993	103.940	19.640	30.317	0.515
353.500	260.287	80.010	19.994	103.940	19.639	30.376	0.511
354.000	260.482	80.011	19.994	103.943	19.634	30.749	0.510
354.500	260.759	80.010	19.992	103.943	19.631	30.938	0.488
355.000	260.980	80.010	19.993	103.944	19.628	31.218	0.485
355.500	261.271	80.010	19.993	103.944	19.627	31.295	0.505
356.000	261.486	80.009	19.993	103.944	19.623	31.554	0.509
356.500	261.763	80.009	19.994	103.941	19.621	31.689	0.499
357.000	261.995	80.011	19.994	103.941	19.617	31.976	0.500
357.500	262.230	80.008	19.994	103.940	19.615	32.153	0.488
358.000	262.489	80.010	19.994	103.940	19.613	32.282	0.481
358.500	262.722	80.010	19.993	103.940	19.608	32.686	0.493
359.000	263.030	80.010	19.994	103.940	19.606	32.825	0.516
359.500	263.260	80.009	19.993	103.940	19.603	33.050	0.540
360.000	263.506	80.008	19.995	103.940	19.601	33.191	0.507
360.500	263.778	80.009	19.995	103.942	19.599	33.318	0.497
361.000	264.015	80.009	19.995	103.943	19.597	33.485	0.514
361.500	264.252	80.008	19.994	103.943	19.594	33.680	0.492
362.000	264.538	80.009	19.995	103.943	19.587	34.231	0.499
362.500	264.762	80.007	19.995	103.942	19.587	34.192	0.516
363.000	265.034	80.008	19.994	103.940	19.585	34.361	0.503
363.500	265.277	80.007	19.995	103.940	19.583	34.504	0.506
364.000	265.493	80.007	19.995	103.940	19.582	34.548	0.487
364.500	265.757	80.006	19.994	103.940	19.577	34.918	0.470
365.000	266.052	80.006	19.995	103.940	19.573	35.236	0.519
365.500	266.279	80.008	19.994	103.940	19.571	35.375	0.540
366.000	266.516	80.007	19.994	103.941	19.569	35.526	0.492
366.500	266.764	80.008	19.993	103.941	19.566	35.731	0.474
367.000	267.021	80.007	19.994	103.942	19.562	36.035	0.495
367.500	267.251	80.008	19.995	103.942	19.560	36.228	0.496
368.000	267.508	80.008	19.994	103.943	19.558	36.349	0.487
368.501	267.768	80.007	19.994	103.942	19.556	36.534	0.502
369.000	267.997	80.009	19.993	103.942	19.550	36.973	0.503
369.500	268.310	80.007	19.996	103.942	19.550	36.987	0.516
370.000	268.530	80.008	19.994	103.943	19.544	37.396	0.538
370.500	268.784	80.008	19.994	103.944	19.541	37.579	0.503
371.000	269.018	80.008	19.993	103.946	19.536	37.993	0.481
371.500	269.245	80.007	19.994	103.946	19.535	38.065	0.475
372.000	269.513	80.007	19.994	103.947	19.533	38.218	0.478
372.500	269.765	80.007	19.995	103.946	19.530	38.445	0.507
373.000	270.041	80.008	19.994	103.946	19.527	38.665	0.524
373.500	270.248	80.008	19.994	103.946	19.523	38.930	0.505
374.000	270.555	80.007	19.994	103.946	19.520	39.194	0.499
374.500	270.825	80.007	19.994	103.946	19.519	39.254	0.546
375.000	271.072	80.006	19.994	103.946	19.515	39.506	0.547
375.500	271.318	80.007	19.993	103.946	19.512	39.722	0.504
376.000	271.574	80.006	19.993	103.948	19.507	40.115	0.497
376.500	271.839	80.008	19.994	103.949	19.504	40.321	0.512
377.000	272.116	80.007	19.994	103.949	19.503	40.432	0.531
377.500	272.375	80.007	19.993	103.949	19.498	40.781	0.538
378.000	272.601	80.007	19.994	103.949	19.496	40.948	0.510
378.500	272.888	80.007	19.994	103.950	19.493	41.166	0.499
379.000	273.090	80.007	19.993	103.950	19.493	41.163	0.501
379.500	273.355	80.006	19.994	103.951	19.487	41.628	0.478
380.000	273.593	80.007	19.994	103.953	19.487	41.611	0.485
380.501	273.853	80.006	19.995	103.952	19.485	41.733	0.500
381.001	274.121	80.007	19.994	103.951	19.481	42.083	0.513
381.500	274.385	80.006	19.994	103.952	19.478	42.281	0.530
382.000	274.641	80.007	19.994	103.952	19.473	42.642	0.526
382.500	274.858	80.007	19.993	103.954	19.470	42.893	0.497
383.000	275.121	80.007	19.994	103.955	19.471	42.823	0.477
383.500	275.363	80.007	19.995	103.954	19.468	43.024	0.492
384.000	275.658	80.007	19.994	103.952	19.464	43.278	0.521
384.500	275.920	80.006	19.994	103.952	19.464	43.276	0.547
385.000	276.176	80.007	19.994	103.948	19.460	43.575	0.538
385.500	276.378	80.007	19.995	103.947	19.459	43.677	0.488
386.000	276.680	80.007	19.996	103.948	19.458	43.755	0.481
386.500	276.901	80.007	19.994	103.947	19.456	43.926	0.513
387.000	277.170	80.006	19.995	103.948	19.453	44.104	0.506
387.500	277.428	80.006	19.995	103.947	19.450	44.318	0.509
388.000	277.673	80.007	19.995	103.947	19.449	44.414	0.515
388.500	277.953	80.006	19.995	103.946	19.450	44.328	0.514
389.000	278.213	80.007	19.995	103.946	19.447	44.534	0.532
389.500	278.443	80.007	19.994	103.948	19.444	44.798	0.515
390.000	278.715	80.007	19.995	103.951	19.445	44.701	0.496
390.500	278.993	80.006	19.995	103.953	19.441	45.031	0.526
391.000	279.237	80.005	19.996	103.956	19.441	45.023	0.536
391.500	279.474	80.006	19.995	103.963	19.440	45.110	0.501
392.000	279.725	80.005	19.995	103.965	19.434	45.556	0.484
392.500	279.979	80.006	19.995	103.966	19.437	45.311	0.496
393.000	280.240	80.006	19.996	103.969	19.433	45.605	0.510
393.500	280.503	80.006	19.995	103.968	19.432	45.708	0.519
394.000	280.792	80.005	19.997	103.965	19.431	45.746	0.538
394.500	281.053	80.005	19.994	103.963	19.432	45.664	0.551
395.000	281.262	80.006	19.995	103.961	19.431	45.742	0.510
395.500	281.528	80.006	19.994	103.957	19.429	45.869	0.473
396.000	281.784	80.006	19.994	103.954	19.430	45.815	0.499
396.500	282.003	80.005	19.994	103.953	19.431	45.748	0.498
397.000	282.272	80.006	19.994	103.953	19.431	45.761	0.482
397.500	282.561	80.006	19.994	103.957	19.429	45.887	0.523
398.000	282.759	80.005	19.993	103.961	19.429	45.888	0.523
398.500	283.029	80.006	19.994	103.963	19.425	46.176	0.478
399.000	283.274	80.008	19.995	103.961	19.426	46.138	0.491
399.500	283.569	80.007	19.994	103.958	19.427	46.058	0.527
400.000	283.785	80.006	19.994	103.957	19.427	46.075	0.525
400.500	284.023	80.006	19.994	103.957	19.427	46.025	0.482
401.000	284.285	80.007	19.993	103.961	19.427	46.081	0.477
401.500	284.532	80.006	19.994	103.961	19.427	46.053	0.504
402.000	284.769	80.009	19.994	103.966	19.424	46.278	0.497
402.500	285.050	80.008	19.995	103.963	19.426	46.138	0.501
403.000	285.306	80.007	19.994	103.966	19.426	46.144	0.527
403.500	285.535	80.008	19.993	103.967	19.425	46.175	0.511
404.000	285.788	80.007	19.994	103.972	19.424	46.306	0.484
404.500	286.025	80.008	19.993	103.973	19.424	46.254	0.486
405.000	286.318	80.008	19.994	103.979	19.424	46.262	0.509
405.500	286.547	80.009	19.994	103.979	19.423	46.328	0.526
406.000	286.810	80.009	19.994	103.979	19.421	46.481	0.507
406.500	287.061	80.008	19.994	103.979	19.422	46.414	0.503
407.000	287.300	80.009	19.993	103.979	19.423	46.370	0.502
407.500	287.564	80.008	19.993	103.978	19.422	46.416	0.497
408.000	287.789	80.008	19.994	103.976	19.422	46.453	0.496
408.500	288.053	80.009	19.993	103.974	19.422	46.414	0.489
409.000	288.296	80.009	19.993	103.972	19.422	46.403	0.498
409.500	288.542	80.010	19.994	103.968	19.428	45.982	0.498
410.000	288.818	80.010	19.994	103.965	19.427	46.015	0.506
410.500	289.039	80.010	19.994	103.966	19.426	46.126	0.510
411.000	289.303	80.011	19.994	103.967	19.425	46.228	0.491
411.500	289.579	80.010	19.993	103.968	19.430	45.862	0.512
412.000	289.762	80.010	19.995	103.972	19.432	45.647	0.499
412.500	290.029	80.011	19.995	103.976	19.428	45.984	0.455
413.000	290.315	80.009	19.994	103.977	19.430	45.862	0.502
413.500	290.570	80.010	19.992	103.977	19.433	45.640	0.547
414.000	290.829	80.009	19.993	103.977	19.432	45.710	0.527
414.500	291.105	80.009	19.995	103.975	19.437	45.324	0.524
415.000	291.338	80.009	19.994	103.975	19.433	45.600	0.522
415.500	291.613	80.009	19.994	103.977	19.434	45.553	0.509
416.000	291.855	80.010	19.993	103.977	19.436	45.410	0.513
416.500	292.111	80.010	19.993	103.977	19.439	45.137	0.508
417.000	292.363	80.009	19.994	103.980	19.442	44.957	0.503
417.500	292.604	80.008	19.993	103.980	19.445	44.739	0.500
418.000	292.865	80.008	19.993	103.980	19.447	44.588	0.498
418.500	293.106	80.009	19.995	103.979	19.448	44.529	0.502
419.000	293.384	80.010	19.994	103.977	19.447	44.586	0.510
419.500	293.608	80.008	19.994	103.974	19.452	44.244	0.510
420.000	293.844	80.009	19.994	103.971	19.453	44.140	0.481
420.500	294.104	80.009	19.995	103.971	19.457	43.808	0.478
421.000	294.343	80.009	19.995	103.972	19.455	43.947	0.498
421.500	294.583	80.008	19.995	103.974	19.462	43.475	0.489
422.000	294.861	80.008	19.994	103.978	19.466	43.193	0.498
422.500	295.097	80.009	19.995	103.981	19.469	42.971	0.516
423.000	295.330	80.009	19.995	103.981	19.473	42.678	0.491
423.500	295.670	80.009	19.994	103.981	19.476	42.408	0.521
424.000	295.892	80.009	19.995	103.980	19.481	42.031	0.568
424.500	296.102	80.010	19.995	103.980	19.489	41.495	0.497
425.000	296.394	80.009	19.994	103.979	19.490	41.378	0.467
425.500	296.719	80.009	19.994	103.979	19.493	41.211	0.560
426.000	296.911	80.009	19.995	103.980	19.491	41.361	0.567
426.500	297.111	80.010	19.995	103.983	19.499	40.773	0.454
427.000	297.374	80.009	19.994	103.986	19.503	40.466	0.427
427.500	297.600	80.010	19.994	103.988	19.512	39.766	0.476
428.000	297.867	80.011	19.995	103.990	19.513	39.676	0.491
428.500	298.127	80.010	19.995	103.993	19.515	39.554	0.510
429.000	298.352	80.011	19.995	103.996	19.518	39.320	0.506
429.500	298.642	80.009	19.994	103.997	19.525	38.787	0.500
430.000	298.845	80.010	19.993	103.996	19.529	38.488	0.504
430.500	299.149	80.011	19.994	103.996	19.531	38.362	0.500
431.000	299.394	80.011	19.995	103.993	19.535	38.045	0.528
431.500	299.652	80.011	19.994	103.987	19.542	37.531	0.526
432.000	299.897	80.010	19.993	103.984	19.545	37.308	0.503
432.500	300.121	80.011	19.993	103.986	19.549	37.057	0.486
433.000	300.348	80.010	19.993	103.988	19.554	36.646	0.460
433.500	300.597	80.010	19.993	103.987	19.557	36.470	0.464
434.000	300.872	80.011	19.994	103.989	19.566	35.760	0.500
434.500	301.087	80.011	19.993	103.993	19.567	35.730	0.507
435.000	301.354	80.011	19.992	103.995	19.574	35.202	0.486
435.500	301.564	80.011	19.993	103.998	19.580	34.784	0.480
436.000	301.847	80.010	19.992	104.001	19.585	34.386	0.486
436.500	302.134	80.011	19.993	104.002	19.589	34.092	0.532
437.000	302.328	80.011	19.994	104.003	19.594	33.748	0.525
437.500	302.629	80.010	19.993	104.006	19.601	33.171	0.488
438.000	302.862	80.009	19.994	104.008	19.603	33.073	0.515
438.500	303.093	80.010	19.994	104.008	19.612	32.397	0.500
439.000	303.368	80.010	19.994	104.011	19.618	31.937	0.485
439.500	303.611	80.010	19.993	104.011	19.622	31.647	0.512
440.000	303.853	80.010	19.993	104.009	19.631	30.983	0.502
440.500	304.223	80.009	19.994	104.009	19.635	30.687	0.548
441.000	304.370	80.010	19.993	104.011	19.640	30.350	0.564
441.500	304.565	80.009	19.994	104.014	19.648	29.759	0.429
442.000	304.900	80.010	19.994	104.016	19.653	29.320	0.436
442.500	305.174	80.008	19.993	104.019	19.660	28.825	0.570
443.000	305.361	80.008	19.993	104.019	19.666	28.411	0.535
443.500	305.618	80.008	19.995	104.020	19.671	28.052	0.453
444.000	305.886	80.008	19.994	104.018	19.676	27.652	0.484
444.500	306.107	80.007	19.993	104.016	19.680	27.342	0.506
445.000	306.333	80.008	19.995	104.016	19.687	26.845	0.468
445.500	306.575	80.008	19.994	104.012	19.689	26.664	0.458
446.000	306.878	80.006	19.994	104.007	19.700	25.913	0.506
446.500	307.061	80.008	19.993	104.008	19.710	25.120	0.515
447.000	307.334	80.007	19.993	104.008	19.711	25.048	0.471
447.500	307.586	80.007	19.994	104.008	19.715	24.799	0.491
448.000	307.841	80.007	19.994	104.013	19.722	24.276	0.516
448.500	308.069	80.006	19.994	104.014	19.731	23.602	0.495
449.000	308.345	80.007	19.994	104.009	19.732	23.502	0.493
449.500	308.584	80.006	19.995	104.003	19.742	22.790	0.509
450.000	308.827	80.007	19.995	103.996	19.748	22.313	0.499
450.500	309.078	80.008	19.995	103.991	19.751	22.073	0.488
451.000	309.350	80.007	19.994	103.989	19.758	21.574	0.509
451.500	309.573	80.007	19.994	103.992	19.763	21.236	0.509
452.000	309.831	80.007	19.994	103.996	19.771	20.651	0.488
452.500	310.070	80.006	19.994	103.997	19.780	19.971	0.489
453.000	310.326	80.007	19.995	103.996	19.783	19.752	0.496
453.500	310.578	80.006	19.994	103.995	19.788	19.360	0.501
454.000	310.816	80.006	19.994	103.989	19.792	19.109	0.499
454.500	311.120	80.007	19.993	103.985	19.797	18.675	0.516
455.000	311.341	80.008	19.995	103.984	19.804	18.222	0.534
455.500	311.602	80.006	19.994	103.984	19.814	17.421	0.504
456.000	311.870	80.007	19.994	103.983	19.815	17.366	0.505
456.500	312.106	80.007	19.994	103.984	19.828	16.385	0.516
457.000	312.352	80.007	19.994	103.984	19.831	16.224	0.493
457.500	312.637	80.006	19.995	103.984	19.830	16.254	0.506
458.000	312.878	80.007	19.994	103.984	19.834	15.962	0.528
458.500	313.092	80.006	19.995	103.984	19.842	15.341	0.491
459.000	313.387	80.007	19.994	103.984	19.851	14.675	0.482
459.500	313.578	80.006	19.994	103.985	19.848	14.962	0.498
460.000	313.822	80.007	19.994	103.984	19.857	14.298	0.460
460.500	314.150	80.006	19.995	103.983	19.862	13.896	0.504
461.000	314.334	80.007	19.994	103.983	19.863	13.840	0.542
461.500	314.592	80.006	19.994	103.979	19.866	13.577	0.477
462.000	314.844	80.006	19.994	103.976	19.870	13.303	0.475
462.500	315.086	80.007	19.994	103.975	19.878	12.743	0.502
463.000	315.320	80.008	19.994	103.976	19.883	12.357	0.486
463.500	315.571	80.008	19.994	103.976	19.888	11.995	0.481
464.000	315.817	80.007	19.993	103.977	19.890	11.828	0.491
464.500	316.059	80.008	19.994	103.977	19.896	11.400	0.492
465.000	316.346	80.007	19.993	103.975	19.904	10.780	0.509
465.500	316.552	80.007	19.994	103.970	19.900	11.063	0.511
466.000	316.818	80.008	19.994	103.963	19.904	10.820	0.482
466.500	317.129	80.007	19.994	103.958	19.911	10.301	0.524
467.000	317.413	80.007	19.993	103.953	19.915	9.991	0.586
467.500	317.532	80.008	19.993	103.952	19.925	9.276	0.499
468.000	317.775	80.008	19.994	103.952	19.923	9.390	0.382
468.500	318.072	80.008	19.994	103.952	19.931	8.763	0.451
469.000	318.280	80.008	19.996	103.952	19.937	8.335	0.523
469.500	318.545	80.007	19.996	103.950	19.934	8.557	0.489
470.000	318.883	80.008	19.994	103.946	19.938	8.256	0.538
470.500	319.056	80.007	19.994	103.941	19.946	7.679	0.557
471.000	319.341	80.007	19.994	103.940	19.949	7.436	0.484
471.500	319.549	80.007	19.994	103.939	19.950	7.410	0.475
472.000	319.839	80.007	19.996	103.940	19.950	7.386	0.496
472.500	320.013	80.006	19.995	103.940	19.954	7.072	0.481
473.000	320.262	80.006	19.995	103.939	19.957	6.898	0.443
473.500	320.519	80.007	19.995	103.941	19.956	6.972	0.465
474.000	320.805	80.007	19.995	103.940	19.958	6.805	0.525
474.500	321.059	80.007	19.995	103.939	19.962	6.477	0.542
475.000	321.255	80.006	19.995	103.939	19.964	6.338	0.495
475.500	321.528	80.007	19.994	103.939	19.968	6.061	0.459
476.000	321.720	80.006	19.995	103.934	19.970	5.918	0.467
476.500	322.006	80.006	19.995	103.927	19.971	5.821	0.471
477.000	322.263	80.006	19.995	103.924	19.972	5.745	0.511
477.500	322.542	80.005	19.995	103.922	19.974	5.658	0.540
478.000	322.776	80.007	19.994	103.921	19.977	5.393	0.524
478.500	323.028	80.006	19.994	103.921	19.981	5.088	0.499
479.000	323.275	80.005	19.995	103.920	19.983	4.945	0.493
479.500	323.481	80.006	19.993	103.916	19.986	4.768	0.476
480.000	323.708	80.005	19.995	103.910	19.988	4.596	0.443
480.500	324.008	80.006	19.996	103.905	19.988	4.555	0.480
481.000	324.241	80.005	19.997	103.901	19.994	4.117	0.530
481.500	324.532	80.005	19.997	103.902	19.992	4.284	0.528
482.000	324.747	80.006	19.995	103.904	19.992	4.274	0.515
482.500	325.004	80.006	19.996	103.904	19.994	4.155	0.489
483.000	325.270	80.006	19.996	103.904	19.997	3.908	0.498
483.500	325.508	80.006	19.996	103.904	19.999	3.780	0.513
484.000	325.755	80.007	19.995	103.903	19.997	3.890	0.494
484.500	326.039	80.007	19.995	103.901	19.999	3.750	0.509
485.000	326.323	80.006	19.995	103.900	19.999	3.756	0.550
485.500	326.499	80.007	19.996	103.896	20.003	3.465	0.514
486.000	326.752	80.007	19.994	103.893	20.003	3.489	0.445
486.500	327.016	80.008	19.996	103.891	20.007	3.163	0.473
487.000	327.276	80.008	19.995	103.887	20.007	3.217	0.520
487.500	327.475	80.008	19.994	103.882	20.007	3.165	0.491
488.000	327.768	80.008	19.996	103.881	20.010	2.958	0.476
488.500	327.954	80.008	19.993	103.877	20.013	2.733	0.486
489.000	328.191	80.008	19.995	103.873	20.012	2.792	0.451
489.500	328.465	80.009	19.995	103.871	20.017	2.412	0.467
490.000	328.738	80.008	19.994	103.872	20.016	2.527	0.529
490.500	328.976	80.008	19.994	103.872	20.017	2.482	0.529
491.000	329.186	80.009	19.995	103.871	20.017	2.458	0.480
491.500	329.478	80.007	19.993	103.869	20.018	2.384	0.475
492.000	329.720	80.009	19.994	103.867	20.020	2.231	0.518
492.500	330.006	80.009	19.994	103.864	20.022	2.081	0.531
493.000	330.223	80.010	19.994	103.862	20.018	2.386	0.516
493.500	330.443	80.011	19.993	103.862	20.024	1.904	0.470
494.000	330.699	80.009	19.994	103.862	20.024	1.954	0.457
494.500	330.938	80.009	19.993	103.863	20.026	1.784	0.486
495.000	331.216	80.009	19.993	103.864	20.028	1.667	0.506
495.500	331.457	80.010	19.994	103.865	20.023	1.978	0.518
496.000	331.680	80.008	19.994	103.865	20.030	1.510	0.491
496.500	331.950	80.009	19.994	103.865	20.027	1.679	0.478
497.000	332.191	80.008	19.994	103.864	20.029	1.532	0.502
497.500	332.434	80.009	19.993	103.864	20.031	1.440	0.498
498.000	332.676	80.008	19.993	103.864	20.032	1.330	0.484
498.500	332.921	80.009	19.993	103.864	20.036	1.040	0.486
499.000	333.173	80.008	19.994	103.864	20.035	1.117	0.492
499.500	333.446	80.009	19.994	103.864	20.034	1.187	0.511
500.000	333.699	80.008	19.993	103.864	20.038	0.900	0.525
500.500	333.966	80.008	19.993	103.864	20.036	1.081	0.523
501.000	334.194	80.007	19.994	103.864	20.039	0.797	0.508
501.500	334.442	80.007	19.994	103.864	20.038	0.918	0.486
502.000	334.713	80.008	19.993	103.865	20.043	0.560	0.498
502.500	334.985	80.006	19.993	103.865	20.039	0.789	0.531
503.000	335.220	80.008	19.994	103.865	20.041	0.703	0.525
503.500	335.451	80.007	19.993	103.865	20.041	0.663	0.486
504.000	335.673	80.007	19.993	103.865	20.039	0.815	0.460
504.500	335.922	80.007	19.994	103.865	20.041	0.699	0.462
505.000	336.189	80.008	19.993	103.865	20.045	0.347	0.493
505.500	336.413	80.009	19.994	103.865	20.045	0.390	0.503
506.000	336.715	80.008	19.993	103.866	20.045	0.400	0.509
506.500	336.911	80.009	19.993	103.865	20.046	0.315	0.512
507.000	337.137	80.009	19.993	103.865	20.047	0.269	0.460
507.500	337.428	80.008	19.993	103.865	20.047	0.269	0.470
508.000	337.699	80.008	19.993	103.865	20.047	0.219	0.540
508.500	337.930	80.008	19.993	103.866	20.051	-0.040	0.532
509.000	338.151	80.008	19.993	103.868	20.048	0.149	0.477
509.500	338.431	80.008	19.994	103.870	20.047	0.227	0.477
510.000	338.697	80.008	19.993	103.869	20.049	0.048	0.524
510.500	338.894	80.009	19.993	103.870	20.050	-0.004	0.505
511.000	339.172	80.008	19.992	103.869	20.051	-0.076	0.469
511.500	339.433	80.008	19.993	103.866	20.053	-0.201	0.507
512.000	339.687	80.008	19.994	103.867	20.053	-0.223	0.527
512.500	339.929	80.008	19.994	103.866	20.053	-0.231	0.505
513.000	340.158	80.009	19.992	103.866	20.054	-0.261	0.484
513.500	340.428	80.008	19.994	103.866	20.056	-0.396	0.485
514.000	340.656	80.009	19.993	103.866	20.053	-0.229	0.499
514.500	340.913	80.010	19.994	103.864	20.055	-0.374	0.491
515.000	341.156	80.009	19.995	103.864	20.052	-0.125	0.493
515.500	341.405	80.011	19.993	103.867	20.054	-0.293	0.496
516.000	341.664	80.009	19.993	103.870	20.054	-0.307	0.500
516.500	341.925	80.010	19.994	103.872	20.053	-0.225	0.514
517.000	342.130	80.009	19.994	103.874	20.054	-0.315	0.493
517.500	342.423	80.009	19.994	103.875	20.054	-0.301	0.482
518.000	342.685	80.010	19.994	103.874	20.058	-0.595	0.527
518.500	342.889	80.009	19.994	103.876	20.058	-0.554	0.511
519.000	343.146	80.010	19.994	103.876	20.058	-0.556	0.463
519.500	343.399	80.009	19.993	103.875	20.057	-0.490	0.485
520.000	343.612	80.009	19.992	103.878	20.060	-0.711	0.488
520.500	343.876	80.010	19.993	103.884	20.061	-0.767	0.472
521.000	344.103	80.008	19.994	103.881	20.060	-0.759	0.484
521.500	344.341	80.009	19.994	103.878	20.058	-0.583	0.478
522.000	344.574	80.008	19.993	103.883	20.059	-0.623	0.468
522.500	344.852	80.009	19.993	103.883	20.061	-0.802	0.491
523.000	345.078	80.009	19.995	103.884	20.061	-0.824	0.508
523.500	345.337	80.008	19.993	103.888	20.062	-0.872	0.495
524.000	345.590	80.007	19.993	103.893	20.061	-0.773	0.498
524.500	345.828	80.007	19.993	103.889	20.062	-0.884	0.502
525.000	346.104	80.009	19.993	103.885	20.061	-0.777	0.503
525.500	346.334	80.007	19.993	103.880	20.061	-0.781	0.510
526.000	346.598	80.007	19.993	103.879	20.062	-0.840	0.500
526.500	346.798	80.009	19.993	103.876	20.064	-1.025	0.479
527.000	347.088	80.008	19.994	103.877	20.062	-0.854	0.477
527.500	347.370	80.007	19.993	103.878	20.066	-1.147	0.531
528.000	347.560	80.009	19.992	103.880	20.061	-0.767	0.522
528.500	347.815	80.008	19.994	103.876	20.063	-0.930	0.459
529.000	348.048	80.008	19.993	103.877	20.065	-1.131	0.466
529.500	348.286	80.008	19.993	103.883	20.069	-1.398	0.480
530.000	348.510	80.008	19.993	103.887	20.066	-1.153	0.467
530.500	348.774	80.009	19.993	103.889	20.067	-1.230	0.475
531.000	349.023	80.008	19.994	103.892	20.066	-1.177	0.500
531.500	349.314	80.008	19.993	103.891	20.067	-1.230	0.526
532.000	349.532	80.008	19.993	103.889	20.067	-1.252	0.524
532.500	349.760	80.009	19.993	103.888	20.065	-1.109	0.477
533.000	350.033	80.008	19.993	103.886	20.067	-1.248	0.473
533.500	350.269	80.008	19.993	103.882	20.066	-1.189	0.505
534.000	350.525	80.008	19.994	103.881	20.064	-1.001	0.500
534.500	350.754	80.008	19.993	103.876	20.067	-1.236	0.489
535.000	351.034	80.008	19.993	103.871	20.070	-1.441	0.498
535.500	351.236	80.008	19.993	103.868	20.067	-1.262	0.496
536.000	351.501	80.008	19.993	103.872	20.070	-1.457	0.474
536.500	351.713	80.008	19.994	103.879	20.071	-1.551	0.472
537.000	351.978	80.007	19.994	103.886	20.071	-1.545	0.477
537.500	352.257	80.007	19.993	103.893	20.071	-1.525	0.510
538.000	352.487	80.008	19.994	103.900	20.073	-1.670	0.526
538.500	352.744	80.006	19.993	103.899	20.072	-1.591	0.498
539.000	353.006	80.008	19.994	103.898	20.072	-1.615	0.503
539.500	353.236	80.008	19.993	103.898	20.071	-1.555	0.505
540.000	353.470	80.008	19.995	103.898	20.072	-1.589	0.478
540.500	353.711	80.007	19.997	103.898	20.071	-1.519	0.470
541.000	353.965	80.008	19.995	103.902	20.071	-1.547	0.485
541.500	354.230	80.009	19.995	103.903	20.074	-1.744	0.507
542.000	354.455	80.009	19.996	103.902	20.071	-1.567	0.504
542.500	354.756	80.009	19.995	103.903	20.072	-1.625	0.508
543.000	354.998	80.008	19.994	103.901	20.074	-1.792	0.535
543.500	355.215	80.008	19.995	103.900	20.073	-1.672	0.501
544.000	355.484	80.008	19.994	103.899	20.074	-1.788	0.473
544.500	355.708	80.008	19.996	103.898	20.074	-1.738	0.490
545.000	355.966	80.009	19.994	103.898	20.075	-1.847	0.487
545.500	356.186	80.008	19.994	103.898	20.074	-1.794	0.480
546.000	356.425	80.008	19.994	103.898	20.074	-1.762	0.469
546.500	356.694	80.009	19.994	103.898	20.073	-1.704	0.484
547.000	356.920	80.007	19.994	103.899	20.075	-1.814	0.502
547.500	357.209	80.008	19.994	103.899	20.076	-1.879	0.505
548.000	357.407	80.007	19.995	103.900	20.073	-1.710	0.501
548.500	357.681	80.008	19.994	103.900	20.074	-1.760	0.479
549.000	357.939	80.008	19.994	103.899	20.074	-1.796	0.502
549.500	358.211	80.008	19.995	103.900	20.073	-1.698	0.531
550.000	358.458	80.008	19.994	103.900	20.075	-1.826	0.524
550.500	358.711	80.007	19.995	103.901	20.076	-1.913	0.510
551.000	358.947	80.007	19.995	103.900	20.075	-1.800	0.495
551.500	359.220	80.006	19.995	103.901	20.074	-1.746	0.499
552.000	359.429	80.007	19.994	103.901	20.076	-1.937	0.495
552.500	359.725	80.008	19.995	103.900	20.076	-1.901	0.494
553.000	359.944	80.007	19.994	103.900	20.076	-1.935	0.510
553.500	360.156	80.007	19.994	103.903	20.077	-1.987	0.473
554.000	360.436	80.008	19.994	103.905	20.077	-2.003	0.461
554.500	360.669	80.008	19.994	103.907	20.076	-1.925	0.502
555.000	360.923	80.008	19.995	103.908	20.077	-1.991	0.500
555.500	361.173	80.007	19.994	103.908	20.076	-1.917	0.496
556.000	361.441	80.007	19.995	103.907	20.078	-2.037	0.511
556.500	361.684	80.008	19.996	103.906	20.077	-1.977	0.514
557.000	361.962	80.007	19.996	103.905	20.077	-1.973	0.516
557.500	362.220	80.008	19.995	103.905	20.075	-1.810	0.529
558.000	362.449	80.007	19.995	103.904	20.076	-1.935	0.512
558.500	362.744	80.008	19.994	103.904	20.074	-1.796	0.506
559.000	362.946	80.008	19.995	103.903	20.076	-1.927	0.510
559.500	363.210	80.007	19.994	103.903	20.079	-2.104	0.481
560.000	363.478	80.007	19.995	103.903	20.077	-1.977	0.499
560.500	363.711	80.007	19.994	103.904	20.079	-2.162	0.517
561.000	363.970	80.007	19.994	103.904	20.078	-2.039	0.497
561.500	364.200	80.008	19.994	103.904	20.078	-2.035	0.490
562.000	364.492	80.008	19.994	103.904	20.075	-1.858	0.505
562.500	364.762	80.007	19.994	103.904	20.075	-1.852	0.542
563.000	365.004	80.007	19.994	103.904	20.078	-2.049	0.537
563.500	365.252	80.006	19.994	103.904	20.080	-2.198	0.501
564.000	365.524	80.007	19.994	103.904	20.077	-2.007	0.506
564.500	365.755	80.006	19.993	103.904	20.081	-2.250	0.511
565.000	366.023	80.007	19.994	103.904	20.079	-2.106	0.501
565.500	366.265	80.006	19.994	103.905	20.074	-1.788	0.505
566.000	366.513	80.007	19.994	103.905	20.077	-1.977	0.500
566.500	366.764	80.007	19.994	103.905	20.078	-2.069	0.494
567.000	367.021	80.008	19.994	103.905	20.075	-1.800	0.503
567.500	367.295	80.008	19.995	103.905	20.076	-1.885	0.520
568.000	367.518	80.008	19.994	103.904	20.079	-2.126	0.514
568.500	367.780	80.007	19.994	103.904	20.077	-1.989	0.491
569.000	368.068	80.007	19.995	103.904	20.077	-2.001	0.517
569.500	368.295	80.007	19.994	103.904	20.078	-2.059	0.533
570.000	368.562	80.009	19.994	103.904	20.077	-1.953	0.505
570.500	368.813	80.008	19.995	103.904	20.079	-2.132	0.506
571.000	369.090	80.007	19.994	103.903	20.078	-2.061	0.523
571.500	369.339	80.008	19.994	103.903	20.077	-1.967	0.527
572.000	369.582	80.007	19.995	103.902	20.078	-2.075	0.509
572.500	369.803	80.008	19.995	103.900	20.076	-1.929	0.478
573.000	370.101	80.009	19.995	103.898	20.077	-1.991	0.491
573.500	370.315	80.008	19.994	103.899	20.078	-2.092	0.515
574.000	370.552	80.006	19.994	103.899	20.074	-1.796	0.482
574.500	370.804	80.008	19.995	103.899	20.076	-1.907	0.471
575.000	371.072	80.007	19.995	103.901	20.076	-1.899	0.504
575.500	371.333	80.006	19.995	103.902	20.080	-2.212	0.524
576.000	371.563	80.009	19.994	103.901	20.077	-1.947	0.510
576.500	371.778	80.006	19.994	103.900	20.076	-1.943	0.467
577.000	372.054	80.008	19.994	103.900	20.076	-1.917	0.468
577.500	372.319	80.007	19.995	103.901	20.078	-2.069	0.516
578.000	372.618	80.007	19.995	103.901	20.078	-2.059	0.552
578.500	372.867	80.008	19.994	103.902	20.082	-2.333	0.556
579.000	373.118	80.008	19.994	103.902	20.077	-2.011	0.524
579.500	373.360	80.008	19.995	103.902	20.080	-2.180	0.497
580.000	373.599	80.007	19.995	103.902	20.076	-1.887	0.487
580.500	373.854	80.008	19.995	103.902	20.077	-2.015	0.487
581.000	374.125	80.007	19.995	103.900	20.080	-2.196	0.510
581.500	374.401	80.007	19.994	103.900	20.079	-2.104	0.537
582.000	374.630	80.007	19.993	103.900	20.076	-1.941	0.526
582.500	374.872	80.008	19.994	103.900	20.080	-2.216	0.488
583.000	375.130	80.008	19.994	103.900	20.077	-1.999	0.486
583.500	375.423	80.008	19.994	103.902	20.076	-1.937	0.526
584.000	375.668	80.006	19.995	103.903	20.079	-2.148	0.544
584.500	375.901	80.007	19.993	103.903	20.078	-2.051	0.508
585.000	376.159	80.007	19.994	103.904	20.079	-2.124	0.484
585.500	376.394	80.008	19.994	103.904	20.077	-2.007	0.492
586.000	376.657	80.008	19.995	103.904	20.078	-2.051	0.496
586.500	376.898	80.007	19.993	103.904	20.079	-2.113	0.501
587.000	377.174	80.009	19.994	103.903	20.077	-1.993	0.510
587.500	377.390	80.008	19.993	103.903	20.079	-2.148	0.505
588.000	377.635	80.008	19.993	103.903	20.074	-1.766	0.477
588.500	377.921	80.008	19.993	103.903	20.075	-1.840	0.496
589.000	378.160	80.008	19.992	103.904	20.077	-2.007	0.528
589.500	378.396	80.007	19.993	103.905	20.076	-1.923	0.499
590.000	378.638	80.009	19.993	103.905	20.077	-1.973	0.476
590.500	378.904	80.009	19.993	103.905	20.075	-1.848	0.493
591.000	379.188	80.009	19.994	103.905	20.076	-1.881	0.529
591.500	379.478	80.009	19.995	103.905	20.077	-1.963	0.562
592.000	379.702	80.009	19.994	103.903	20.076	-1.889	0.544
592.500	379.995	80.010	19.993	103.902	20.079	-2.132	0.515
593.000	380.233	80.009	19.993	103.900	20.072	-1.621	0.524
593.500	380.468	80.009	19.993	103.899	20.076	-1.896	0.502
594.000	380.766	80.010	19.993	103.899	20.073	-1.706	0.503
594.500	381.004	80.010	19.993	103.900	20.072	-1.621	0.534
595.000	381.223	80.010	19.994	103.900	20.074	-1.738	0.496
595.500	381.507	80.010	19.994	103.900	20.073	-1.700	0.480
596.000	381.754	80.011	19.993	103.900	20.074	-1.784	0.517
596.500	382.009	80.010	19.993	103.899	20.073	-1.657	0.517
597.000	382.300	80.010	19.994	103.899	20.073	-1.716	0.524
597.500	382.524	80.011	19.993	103.894	20.076	-1.874	0.530
598.000	382.779	80.010	19.993	103.893	20.075	-1.808	0.497
598.500	383.094	80.010	19.994	103.893	20.075	-1.832	0.524
599.000	383.291	80.009	19.993	103.893	20.073	-1.667	0.541
599.500	383.582	80.009	19.993	103.893	20.074	-1.760	0.500
600.000	383.815	80.011	19.993	103.897	20.074	-1.738	0.506
600.500	384.087	80.009	19.994	103.898	20.074	-1.778	0.514
601.000	384.351	80.010	19.994	103.898	20.073	-1.653	0.521
601.500	384.597	80.008	19.995	103.898	20.071	-1.559	0.523
602.000	384.852	80.009	19.994	103.900	20.074	-1.794	0.505
602.500	385.095	80.010	19.994	103.899	20.072	-1.617	0.499
603.000	385.357	80.009	19.994	103.898	20.071	-1.517	0.502
603.500	385.624	80.008	19.995	103.896	20.073	-1.682	0.517
604.000	385.871	80.008	19.993	103.890	20.071	-1.541	0.521
604.500	386.107	80.008	19.993	103.888	20.073	-1.651	0.498
605.000	386.364	80.007	19.994	103.887	20.073	-1.706	0.488
605.500	386.642	80.007	19.993	103.887	20.074	-1.764	0.514
606.000	386.869	80.008	19.995	103.887	20.071	-1.527	0.520
606.500	387.169	80.007	19.994	103.893	20.072	-1.627	0.516
607.000	387.408	80.007	19.995	103.893	20.068	-1.332	0.533
607.500	387.665	80.008	19.994	103.895	20.072	-1.627	0.518
608.000	387.937	80.006	19.994	103.897	20.070	-1.489	0.513
608.500	388.186	80.007	19.994	103.898	20.072	-1.585	0.525
609.000	388.433	80.007	19.995	103.897	20.072	-1.613	0.508
609.500	388.704	80.007	19.994	103.897	20.074	-1.798	0.506
610.000	388.961	80.008	19.993	103.893	20.069	-1.388	0.523
610.500	389.228	80.008	19.994	103.887	20.069	-1.380	0.526
611.000	389.474	80.008	19.994	103.881	20.070	-1.452	0.518
611.500	389.782	80.008	19.994	103.880	20.070	-1.491	0.533
612.000	389.986	80.007	19.995	103.878	20.071	-1.509	0.533
612.500	390.278	80.008	19.994	103.881	20.071	-1.527	0.504
613.000	390.517	80.008	19.994	103.885	20.071	-1.521	0.513
613.500	390.788	80.007	19.994	103.890	20.069	-1.358	0.521
614.000	391.036	80.007	19.995	103.890	20.071	-1.553	0.515
614.500	391.297	80.008	19.994	103.892	20.070	-1.486	0.514
615.000	391.532	80.007	19.994	103.893	20.070	-1.448	0.502
615.500	391.787	80.008	19.994	103.894	20.068	-1.290	0.493
616.000	392.067	80.008	19.992	103.890	20.066	-1.197	0.513
616.500	392.317	80.007	19.993	103.888	20.069	-1.356	0.533
617.000	392.559	80.007	19.994	103.887	20.070	-1.444	0.511
617.500	392.834	80.008	19.994	103.884	20.068	-1.314	0.505
618.000	393.105	80.007	19.994	103.884	20.068	-1.292	0.531
618.500	393.409	80.008	19.993	103.889	20.066	-1.147	0.560
619.000	393.646	80.008	19.995	103.890	20.069	-1.366	0.558
619.500	393.911	80.008	19.995	103.887	20.066	-1.181	0.522
620.000	394.175	80.008	19.994	103.884	20.068	-1.314	0.515
620.500	394.443	80.008	19.994	103.884	20.066	-1.169	0.530
621.000	394.715	80.008	19.992	103.882	20.065	-1.133	0.536
621.500	394.924	80.009	19.994	103.882	20.068	-1.348	0.511
622.000	395.204	80.009	19.994	103.882	20.064	-1.029	0.485
622.500	395.442	80.008	19.993	103.884	20.067	-1.217	0.503
623.000	395.723	80.008	19.995	103.881	20.067	-1.227	0.518
623.500	396.002	80.009	19.994	103.878	20.067	-1.229	0.540
624.000	396.231	80.008	19.994	103.875	20.066	-1.171	0.534
624.500	396.514	80.009	19.994	103.874	20.063	-0.916	0.510
625.000	396.764	80.008	19.993	103.876	20.064	-1.037	0.523
625.500	396.999	80.009	19.994	103.878	20.068	-1.282	0.509
626.000	397.281	80.008	19.994	103.883	20.061	-0.828	0.501
626.500	397.523	80.008	19.995	103.887	20.062	-0.852	0.521
627.000	397.772	80.009	19.993	103.890	20.063	-0.922	0.507
627.500	398.048	80.008	19.994	103.889	20.062	-0.876	0.507
628.000	398.298	80.007	19.994	103.888	20.061	-0.834	0.525
628.500	398.562	80.008	19.993	103.884	20.060	-0.761	0.520
629.000	398.770	80.008	19.993	103.883	20.061	-0.773	0.493
629.500	399.037	80.007	19.994	103.880	20.062	-0.894	0.473
630.000	399.331	80.006	19.994	103.883	20.060	-0.699	0.518
630.500	399.591	80.007	19.993	103.885	20.060	-0.729	0.558
631.000	399.804	80.008	19.994	103.890	20.060	-0.739	0.514
631.500	400.073	80.008	19.994	103.890	20.058	-0.548	0.478
632.000	400.315	80.009	19.993	103.891	20.056	-0.422	0.496
632.500	400.593	80.007	19.994	103.890	20.055	-0.321	0.516
633.000	400.865	80.007	19.995	103.885	20.057	-0.536	0.535
633.500	401.115	80.008	19.995	103.879	20.054	-0.309	0.536
634.000	401.372	80.009	19.994	103.877	20.056	-0.446	0.514
634.500	401.640	80.008	19.993	103.881	20.056	-0.424	0.516
635.000	401.856	80.007	19.994	103.884	20.057	-0.522	0.505
635.500	402.153	80.007	19.994	103.891	20.055	-0.321	0.499
636.000	402.373	80.006	19.994	103.897	20.055	-0.345	0.515
636.500	402.647	80.007	19.994	103.897	20.053	-0.241	0.506
637.000	402.875	80.006	19.994	103.896	20.054	-0.249	0.498
637.500	403.169	80.007	19.995	103.894	20.054	-0.255	0.512
638.000	403.418	80.007	19.995	103.890	20.053	-0.243	0.532
638.500	403.668	80.006	19.994	103.887	20.051	-0.070	0.520
639.000	403.932	80.006	19.994	103.889	20.049	0.082	0.506
639.500	404.183	80.006	19.995	103.888	20.049	0.115	0.514
640.000	404.428	80.007	19.995	103.887	20.050	0.042	0.506
640.500	404.696	80.006	19.994	103.890	20.048	0.195	0.505
641.000	404.930	80.006	19.995	103.890	20.049	0.060	0.508
641.500	405.204	80.006	19.994	103.889	20.050	0.022	0.505
642.000	405.440	80.008	19.995	103.890	20.050	0.036	0.509
642.500	405.689	80.007	19.994	103.890	20.046	0.295	0.497
643.000	405.923	80.005	19.994	103.887	20.046	0.305	0.484
643.500	406.231	80.007	19.994	103.882	20.044	0.486	0.513
644.000	406.436	80.006	19.994	103.879	20.045	0.402	0.527
644.500	406.689	80.007	19.995	103.875	20.042	0.603	0.486
645.000	406.966	80.007	19.994	103.871	20.044	0.478	0.494
645.500	407.224	80.007	19.994	103.870	20.041	0.639	0.532
646.000	407.461	80.008	19.995	103.871	20.043	0.532	0.515
646.500	407.709	80.007	19.995	103.871	20.041	0.665	0.490
647.000	407.992	80.007	19.994	103.875	20.040	0.739	0.508
647.500	408.236	80.007	19.994	103.880	20.040	0.751	0.529
648.000	408.494	80.008	19.994	103.885	20.037	0.944	0.514
648.500	408.753	80.010	19.993	103.887	20.035	1.085	0.510
649.000	409.026	80.008	19.993	103.888	20.034	1.189	0.525
649.500	409.273	80.009	19.993	103.886	20.036	1.008	0.526
650.000	409.558	80.009	19.993	103.882	20.034	1.187	0.526
650.500	409.779	80.008	19.994	103.883	20.034	1.177	0.519
651.000	410.012	80.009	19.994	103.883	20.031	1.382	0.480
651.500	410.281	80.008	19.993	103.889	20.033	1.268	0.478
652.000	410.560	80.008	19.994	103.889	20.029	1.559	0.525
652.500	410.750	80.010	19.993	103.887	20.027	1.677	0.509
653.000	411.048	80.009	19.993	103.883	20.030	1.477	0.479
653.500	411.310	80.008	19.994	103.884	20.026	1.766	0.524
654.000	411.583	80.008	19.995	103.880	20.028	1.659	0.547
654.500	411.820	80.008	19.994	103.884	20.025	1.844	0.523
655.000	412.078	80.009	19.994	103.885	20.025	1.822	0.503
655.500	412.350	80.009	19.994	103.883	20.023	2.023	0.512
656.000	412.608	80.009	19.993	103.882	20.024	1.963	0.530
656.500	412.839	80.008	19.994	103.883	20.022	2.051	0.510
657.000	413.070	80.006	19.995	103.881	20.024	1.933	0.475
657.500	413.362	80.008	19.995	103.885	20.021	2.131	0.492
658.000	413.639	80.008	19.994	103.891	20.020	2.230	0.546
658.500	413.861	80.009	19.995	103.886	20.019	2.326	0.534
659.000	414.120	80.008	19.995	103.885	20.019	2.288	0.490
659.500	414.348	80.007	19.993	103.884	20.018	2.408	0.484
660.000	414.628	80.008	19.995	103.883	20.016	2.497	0.498
660.500	414.909	80.008	19.997	103.883	20.014	2.653	0.534
661.000	415.175	80.008	19.995	103.890	20.012	2.844	0.553
661.500	415.409	80.008	19.995	103.894	20.011	2.886	0.523
662.000	415.673	80.008	19.995	103.898	20.012	2.830	0.499
662.500	415.902	80.008	19.997	103.897	20.012	2.828	0.496
663.000	416.188	80.007	19.997	103.891	20.008	3.075	0.504
663.500	416.432	80.008	19.996	103.886	20.009	3.065	0.522
664.000	416.706	80.008	19.997	103.886	20.008	3.089	0.524
664.500	416.982	80.008	19.995	103.885	20.008	3.085	0.534
665.000	417.233	80.007	19.995	103.881	20.005	3.306	0.539
665.500	417.502	80.008	19.996	103.883	20.003	3.467	0.523
666.000	417.733	80.007	19.997	103.884	20.005	3.368	0.510
666.500	418.036	80.008	19.996	103.882	20.002	3.555	0.517
667.000	418.265	80.007	19.995	103.883	20.001	3.662	0.533
667.500	418.542	80.006	19.996	103.886	20.000	3.732	0.519
668.000	418.790	80.007	19.996	103.885	20.002	3.583	0.516
668.500	419.084	80.008	19.996	103.883	19.998	3.857	0.534
669.000	419.319	80.007	19.997	103.877	19.994	4.156	0.536
669.500	419.614	80.008	19.996	103.870	19.992	4.295	0.529
670.000	419.902	80.007	19.996	103.868	19.994	4.118	0.557
670.500	420.137	80.009	19.996	103.871	19.993	4.224	0.553
671.000	420.434	80.009	19.995	103.872	19.992	4.263	0.527
671.500	420.711	80.008	19.996	103.873	19.993	4.192	0.553
672.000	420.940	80.009	19.995	103.876	19.991	4.349	0.540
672.500	421.210	80.009	19.995	103.874	19.991	4.388	0.503
673.000	421.520	80.009	19.995	103.871	19.988	4.560	0.540
673.500	421.754	80.007	19.995	103.872	19.989	4.542	0.562
674.000	422.044	80.010	19.995	103.878	19.985	4.814	0.534
674.500	422.271	80.008	19.995	103.876	19.981	5.079	0.520
675.000	422.528	80.009	19.994	103.875	19.978	5.352	0.500
675.500	422.791	80.010	19.995	103.874	19.976	5.446	0.502
676.000	423.081	80.010	19.995	103.871	19.979	5.241	0.536
676.500	423.348	80.009	19.994	103.867	19.975	5.565	0.555
677.000	423.613	80.009	19.995	103.867	19.974	5.653	0.544
677.500	423.888	80.009	19.994	103.869	19.972	5.733	0.536
678.000	424.137	80.010	19.994	103.870	19.970	5.938	0.532
678.500	424.449	80.010	19.994	103.874	19.968	6.087	0.543
679.000	424.693	80.011	19.994	103.876	19.963	6.400	0.558
679.500	425.007	80.011	19.995	103.878	19.960	6.625	0.557
680.000	425.242	80.011	19.995	103.879	19.960	6.645	0.554
680.500	425.497	80.010	19.994	103.878	19.958	6.801	0.519
681.000	425.756	80.010	19.994	103.876	19.956	6.948	0.502
681.500	426.068	80.010	19.994	103.879	19.956	6.952	0.543
682.000	426.299	80.008	19.993	103.880	19.954	7.096	0.557
682.500	426.578	80.010	19.993	103.883	19.953	7.185	0.527
683.000	426.863	80.009	19.994	103.887	19.953	7.151	0.537
683.500	427.139	80.009	19.993	103.893	19.949	7.432	0.562
684.000	427.396	80.009	19.992	103.892	19.947	7.621	0.547
684.500	427.683	80.009	19.993	103.894	19.945	7.788	0.539
685.000	427.976	80.009	19.994	103.895	19.943	7.902	0.562
685.500	428.247	80.007	19.994	103.895	19.941	8.079	0.572
686.000	428.529	80.008	19.995	103.895	19.941	8.091	0.559
686.500	428.798	80.009	19.992	103.895	19.935	8.464	0.552
687.000	429.067	80.008	19.994	103.892	19.935	8.488	0.545
687.500	429.337	80.007	19.995	103.887	19.931	8.791	0.539
688.000	429.595	80.008	19.995	103.884	19.929	8.920	0.533
688.500	429.887	80.008	19.995	103.881	19.927	9.091	0.538
689.000	430.128	80.008	19.994	103.879	19.924	9.338	0.542
689.500	430.406	80.007	19.995	103.882	19.920	9.609	0.526
690.000	430.677	80.007	19.994	103.887	19.920	9.623	0.534
690.500	430.961	80.008	19.995	103.885	19.915	9.951	0.552
691.000	431.229	80.008	19.994	103.881	19.912	10.202	0.553
691.500	431.521	80.008	19.994	103.877	19.914	10.041	0.556
692.000	431.760	80.008	19.994	103.874	19.908	10.513	0.546
692.500	432.015	80.007	19.995	103.871	19.909	10.391	0.513
693.000	432.289	80.007	19.994	103.874	19.903	10.862	0.511
693.500	432.563	80.007	19.993	103.875	19.903	10.876	0.538
694.000	432.819	80.007	19.995	103.879	19.899	11.147	0.539
694.500	433.147	80.008	19.994	103.879	19.894	11.541	0.557
695.000	433.371	80.007	19.995	103.878	19.893	11.609	0.568
695.500	433.678	80.007	19.995	103.880	19.891	11.713	0.541
696.000	433.954	80.007	19.995	103.880	19.890	11.856	0.557
696.500	434.221	80.007	19.995	103.877	19.886	12.101	0.563
697.000	434.517	80.007	19.993	103.874	19.881	12.487	0.553
697.500	434.741	80.006	19.995	103.872	19.877	12.767	0.541
698.000	435.035	80.008	19.993	103.869	19.875	12.917	0.519
698.500	435.287	80.007	19.994	103.868	19.870	13.277	0.532
699.000	435.607	80.007	19.994	103.868	19.870	13.289	0.559
699.500	435.847	80.008	19.995	103.868	19.866	13.630	0.566
700.000	436.127	80.007	19.996	103.871	19.861	13.943	0.540
700.500	436.401	80.009	19.994	103.872	19.862	13.919	0.537
701.000	436.667	80.008	19.994	103.873	19.857	14.256	0.547
701.500	436.913	80.008	19.995	103.878	19.858	14.194	0.526
702.000	437.194	80.008	19.993	103.880	19.850	14.752	0.520
702.500	437.443	80.008	19.993	103.878	19.847	14.964	0.529
703.000	437.706	80.008	19.994	103.876	19.847	15.028	0.521
703.500	437.969	80.008	19.994	103.874	19.843	15.284	0.519
704.000	438.234	80.008	19.993	103.869	19.835	15.860	0.527
704.500	438.486	80.009	19.994	103.866	19.835	15.897	0.523
705.000	438.789	80.007	19.994	103.865	19.828	16.397	0.536
705.500	439.005	80.008	19.994	103.865	19.828	16.428	0.537
706.000	439.285	80.009	19.994	103.865	19.827	16.442	0.507
706.500	439.518	80.009	19.995	103.865	19.821	16.928	0.504
707.000	439.789	80.009	19.994	103.865	19.819	17.052	0.509
707.500	440.096	80.008	19.994	103.868	19.816	17.311	0.541
708.000	440.334	80.007	19.994	103.872	19.810	17.715	0.561
708.500	440.613	80.008	19.994	103.873	19.805	18.096	0.531
709.000	440.872	80.008	19.994	103.873	19.805	18.120	0.528
709.500	441.098	80.008	19.994	103.874	19.799	18.536	0.512
710.000	441.385	80.008	19.994	103.872	19.798	18.643	0.499
710.500	441.611	80.008	19.993	103.868	19.795	18.823	0.513
711.000	441.877	80.007	19.994	103.867	19.787	19.420	0.502
711.500	442.127	80.006	19.994	103.867	19.784	19.631	0.504
712.000	442.390	80.008	19.994	103.866	19.780	19.956	0.515
712.500	442.651	80.007	19.993	103.866	19.777	20.173	0.519
713.000	442.898	80.008	19.993	103.868	19.773	20.430	0.516
713.500	443.162	80.006	19.995	103.870	19.768	20.846	0.509
714.000	443.395	80.007	19.993	103.871	19.765	21.060	0.504
714.500	443.652	80.007	19.994	103.874	19.759	21.514	0.494
715.000	443.935	80.006	19.994	103.876	19.756	21.721	0.515
715.500	444.196	80.007	19.995	103.876	19.752	22.044	0.542
716.000	444.448	80.007	19.995	103.875	19.751	22.110	0.529
716.500	444.728	80.006	19.994	103.873	19.744	22.562	0.523
717.000	444.957	80.007	19.993	103.871	19.739	22.992	0.520
717.500	445.232	80.007	19.994	103.869	19.733	23.374	0.507
718.000	445.494	80.006	19.995	103.869	19.732	23.466	0.520
718.500	445.752	80.007	19.994	103.868	19.727	23.826	0.528
719.000	446.005	80.007	19.994	103.868	19.723	24.139	0.515
719.500	446.289	80.007	19.992	103.867	19.721	24.281	0.524
720.000	446.508	80.007	19.995	103.866	19.713	24.854	0.520
720.500	446.759	80.006	19.995	103.865	19.710	25.133	0.487
721.000	447.030	80.006	19.994	103.866	19.707	25.330	0.496
721.500	447.252	80.008	19.996	103.867	19.701	25.799	0.507
722.000	447.493	80.007	19.994	103.867	19.699	25.948	0.478
722.500	447.800	80.007	19.996	103.867	19.696	26.169	0.506
723.000	448.015	80.008	19.993	103.866	19.691	26.506	0.535
723.500	448.278	80.006	19.995	103.865	19.687	26.823	0.500
724.000	448.534	80.007	19.994	103.864	19.678	27.439	0.499
724.500	448.784	80.008	19.994	103.864	19.677	27.520	0.513
725.000	449.014	80.008	19.994	103.864	19.672	27.876	0.493
725.500	449.265	80.007	19.994	103.863	19.670	28.087	0.480
726.000	449.504	80.007	19.995	103.863	19.663	28.537	0.485
726.500	449.782	80.007	19.995	103.863	19.658	28.915	0.504
727.000	450.079	80.008	19.994	103.862	19.654	29.258	0.546
727.500	450.258	80.007	19.994	103.862	19.651	29.452	0.525
728.000	450.526	80.008	19.995	103.863	19.646	29.829	0.461
728.500	450.774	80.009	19.995	103.863	19.643	30.058	0.482
729.000	451.046	80.008	19.994	103.863	19.639	30.361	0.518
729.500	451.302	80.007	19.994	103.862	19.634	30.718	0.524
730.000	451.536	80.008	19.995	103.862	19.627	31.263	0.509
730.500	451.780	80.009	19.995	103.860	19.624	31.456	0.484
731.000	452.051	80.007	19.995	103.855	19.620	31.752	0.497
731.500	452.337	80.008	19.994	103.855	19.616	32.065	0.536
732.000	452.549	80.007	19.994	103.853	19.613	32.258	0.528
732.500	452.784	80.009	19.995	103.852	19.605	32.825	0.473
733.000	453.088	80.008	19.995	103.852	19.603	32.992	0.493
733.500	453.261	80.007	19.995	103.853	19.598	33.370	0.508
734.000	453.529	80.008	19.994	103.852	19.594	33.684	0.459
734.500	453.807	80.007	19.994	103.851	19.591	33.907	0.493
735.000	454.047	80.008	19.995	103.846	19.583	34.496	0.532
735.500	454.286	80.008	19.996	103.843	19.579	34.738	0.499
736.000	454.578	80.009	19.995	103.845	19.575	35.054	0.505
736.500	454.822	80.009	19.995	103.845	19.570	35.422	0.534
737.000	455.041	80.009	19.995	103.847	19.563	35.948	0.499
737.500	455.270	80.008	19.995	103.847	19.563	35.925	0.455
738.000	455.534	80.008	19.994	103.846	19.556	36.447	0.470
738.500	455.822	80.009	19.996	103.843	19.553	36.667	0.522
739.000	456.045	80.009	19.995	103.841	19.546	37.203	0.531
739.500	456.306	80.010	19.995	103.836	19.542	37.489	0.498
740.000	456.513	80.008	19.994	103.836	19.540	37.638	0.476
740.500	456.804	80.008	19.995	103.839	19.534	38.066	0.483
741.000	457.010	80.008	19.995	103.843	19.530	38.420	0.497
741.500	457.281	80.007	19.994	103.845	19.525	38.774	0.487
742.000	457.514	80.007	19.994	103.852	19.521	39.059	0.491
742.500	457.771	80.010	19.994	103.859	19.515	39.457	0.497
743.000	458.049	80.007	19.995	103.861	19.508	39.988	0.512
743.500	458.290	80.007	19.995	103.862	19.505	40.260	0.527
744.000	458.548	80.008	19.994	103.863	19.499	40.660	0.509
744.500	458.790	80.007	19.994	103.863	19.494	41.054	0.500
745.000	459.026	80.008	19.995	103.860	19.492	41.205	0.489
745.500	459.300	80.008	19.996	103.859	19.487	41.535	0.494
746.000	459.577	80.008	19.994	103.856	19.479	42.178	0.531
746.500	459.825	80.007	19.993	103.852	19.473	42.564	0.538
747.000	460.066	80.008	19.995	103.849	19.470	42.812	0.507
747.500	460.318	80.008	19.995	103.845	19.462	43.378	0.491
748.000	460.561	80.008	19.995	103.844	19.458	43.679	0.494
748.500	460.808	80.008	19.996	103.842	19.452	44.144	0.493
749.000	461.023	80.008	19.994	103.842	19.447	44.517	0.476
749.500	461.296	80.008	19.995	103.844	19.441	44.958	0.475
750.000	461.511	80.009	19.994	103.849	19.434	45.442	0.488
750.500	461.789	80.010	19.995	103.852	19.425	46.115	0.490
751.000	462.006	80.009	19.995	103.853	19.419	46.539	0.494
751.500	462.298	80.009	19.995	103.853	19.415	46.879	0.502
752.000	462.550	80.008	19.995	103.851	19.406	47.509	0.526
752.500	462.819	80.009	19.995	103.845	19.401	47.878	0.532
753.000	463.054	80.009	19.995	103.839	19.394	48.436	0.513
753.500	463.285	80.008	19.994	103.836	19.387	48.958	0.485
754.000	463.548	80.009	19.994	103.832	19.381	49.400	0.480
754.500	463.825	80.009	19.994	103.832	19.374	49.902	0.517
755.000	464.068	80.009	19.994	103.832	19.367	50.426	0.530
755.500	464.278	80.009	19.993	103.834	19.361	50.817	0.487
756.000	464.558	80.008	19.994	103.837	19.356	51.186	0.471
756.500	464.797	80.010	19.994	103.839	19.351	51.596	0.504
757.000	465.061	80.009	19.994	103.836	19.342	52.260	0.511
757.500	465.263	80.010	19.995	103.833	19.335	52.754	0.485
758.000	465.547	80.010	19.995	103.830	19.331	53.079	0.476
758.500	465.787	80.009	19.994	103.826	19.323	53.629	0.505
759.000	466.051	80.009	19.994	103.824	19.313	54.356	0.514
759.500	466.310	80.009	19.995	103.824	19.304	55.018	0.513
760.000	466.582	80.010	19.995	103.826	19.298	55.477	0.526
760.500	466.826	80.008	19.995	103.826	19.292	55.968	0.524
761.000	467.115	80.010	19.996	103.826	19.284	56.549	0.525
761.500	467.353	80.008	19.996	103.826	19.277	57.005	0.530
762.000	467.578	80.007	19.994	103.826	19.270	57.567	0.495
762.500	467.842	80.010	19.996	103.824	19.262	58.140	0.476
763.000	468.056	80.007	19.995	103.825	19.250	58.994	0.483
763.500	468.333	80.008	19.995	103.823	19.245	59.392	0.484
764.000	468.571	80.009	19.995	103.823	19.238	59.910	0.503
764.500	468.805	80.008	19.995	103.822	19.226	60.784	0.493
765.000	469.099	80.008	19.994	103.819	19.216	61.549	0.500
765.500	469.350	80.008	19.994	103.818	19.211	61.881	0.537
766.000	469.553	80.008	19.995	103.819	19.204	62.405	0.500
766.500	469.801	80.005	19.995	103.818	19.191	63.356	0.452
767.000	470.060	80.006	19.994	103.818	19.187	63.649	0.479
767.500	470.331	80.007	19.994	103.822	19.175	64.564	0.519
768.000	470.529	80.007	19.995	103.822	19.165	65.324	0.500
768.500	470.810	80.006	19.994	103.822	19.157	65.904	0.474
769.000	471.035	80.007	19.995	103.822	19.149	66.493	0.492
769.500	471.306	80.007	19.994	103.822	19.142	67.007	0.501
770.000	471.563	80.007	19.994	103.821	19.130	67.850	0.512
770.500	471.821	80.007	19.995	103.821	19.120	68.647	0.521
771.000	472.048	80.007	19.995	103.820	19.112	69.170	0.500
771.500	472.339	80.007	19.994	103.815	19.103	69.883	0.502
772.000	472.564	80.007	19.993	103.808	19.090	70.841	0.517
772.500	472.840	80.007	19.994	103.801	19.083	71.327	0.508
773.000	473.044	80.006	19.993	103.794	19.073	72.059	0.490
773.500	473.334	80.007	19.993	103.789	19.061	72.957	0.487
774.000	473.585	80.007	19.994	103.790	19.049	73.841	0.517
774.500	473.803	80.006	19.993	103.794	19.040	74.494	0.505
775.000	474.055	80.006	19.994	103.796	19.028	75.349	0.470
775.500	474.312	80.006	19.993	103.797	19.016	76.263	0.490
776.000	474.604	80.007	19.993	103.797	19.006	77.025	0.529
776.500	474.840	80.007	19.993	103.796	18.998	77.607	0.538
777.000	475.152	80.006	19.994	103.793	18.989	78.226	0.537
777.500	475.337	80.007	19.993	103.792	18.975	79.295	0.523
778.000	475.602	80.008	19.993	103.791	18.960	80.375	0.474
778.500	475.824	80.007	19.994	103.791	18.951	81.086	0.469
779.000	476.109	80.007	19.993	103.791	18.940	81.862	0.497
779.500	476.377	80.006	19.993	103.790	18.928	82.772	0.530
780.000	476.587	80.007	19.993	103.789	18.918	83.507	0.515
780.500	476.833	80.007	19.993	103.789	18.905	84.449	0.467
781.000	477.083	80.007	19.993	103.789	18.895	85.207	0.476
781.500	477.341	80.006	19.994	103.789	18.881	86.216	0.502
782.000	477.567	80.007	19.995	103.789	18.870	86.998	0.496
782.500	477.855	80.008	19.994	103.789	18.855	88.086	0.499
783.000	478.128	80.007	19.993	103.787	18.846	88.752	0.537
783.500	478.343	80.007	19.995	103.787	18.834	89.679	0.524
784.000	478.593	80.008	19.994	103.780	18.820	90.685	0.476
784.500	478.872	80.007	19.994	103.773	18.813	91.232	0.497
785.000	479.103	80.008	19.993	103.767	18.797	92.367	0.519
785.500	479.346	80.007	19.994	103.765	18.786	93.211	0.492
786.000	479.592	80.007	19.993	103.759	18.774	94.081	0.482
786.500	479.860	80.007	19.993	103.761	18.760	95.071	0.502
787.000	480.096	80.008	19.993	103.766	18.750	95.819	0.508
787.500	480.353	80.008	19.994	103.772	18.738	96.705	0.498
788.000	480.598	80.007	19.993	103.770	18.726	97.571	0.498
788.500	480.849	80.008	19.995	103.769	18.711	98.678	0.499
789.000	481.089	80.008	19.993	103.767	18.698	99.655	0.494
789.500	481.347	80.008	19.994	103.760	18.687	100.471	0.495
790.000	481.610	80.008	19.995	103.753	18.676	101.256	0.510
790.500	481.892	80.008	19.995	103.749	18.661	102.401	0.533
791.000	482.104	80.009	19.994	103.747	18.651	103.088	0.519
791.500	482.337	80.008	19.995	103.746	18.637	104.133	0.470
792.000	482.599	80.007	19.996	103.746	18.627	104.864	0.470
792.500	482.840	80.007	19.994	103.746	18.617	105.648	0.499
793.000	483.108	80.007	19.994	103.745	18.605	106.513	0.506
793.500	483.370	80.007	19.994	103.744	18.592	107.467	0.519
794.000	483.640	80.007	19.995	103.744	18.577	108.545	0.530
794.500	483.817	80.008	19.995	103.741	18.565	109.418	0.489
795.000	484.100	80.007	19.995	103.738	18.552	110.372	0.454
795.500	484.342	80.007	19.995	103.739	18.541	111.178	0.493
796.000	484.611	80.008	19.995	103.739	18.527	112.227	0.518
796.500	484.833	80.007	19.995	103.734	18.517	112.971	0.501
797.000	485.088	80.005	19.995	103.729	18.502	114.078	0.484
797.500	485.350	80.008	19.994	103.726	18.490	114.963	0.497
798.000	485.601	80.007	19.994	103.719	18.477	115.884	0.514
798.500	485.862	80.007	19.995	103.713	18.468	116.591	0.512
799.000	486.116	80.007	19.994	103.710	18.455	117.496	0.514
799.500	486.373	80.008	19.994	103.710	18.443	118.382	0.513
800.000	486.634	80.006	19.995	103.708	18.434	119.057	0.515
800.500	486.911	80.006	19.995	103.707	18.424	119.804	0.528
801.000	487.142	80.007	19.994	103.707	18.416	120.405	0.523
801.500	487.408	80.007	19.995	103.704	18.403	121.303	0.503
802.000	487.665	80.007	19.995	103.704	18.392	122.135	0.510
802.500	487.879	80.008	19.994	103.702	18.386	122.600	0.497
803.000	488.129	80.007	19.994	103.698	18.373	123.527	0.467
803.500	488.413	80.007	19.993	103.696	18.365	124.129	0.499
804.000	488.691	80.008	19.993	103.694	18.360	124.479	0.548
804.500	488.873	80.008	19.994	103.688	18.350	125.194	0.511
805.000	489.160	80.008	19.993	103.685	18.344	125.696	0.464
805.500	489.457	80.008	19.993	103.684	18.338	126.114	0.526
806.000	489.695	80.008	19.994	103.680	18.330	126.722	0.559
806.500	489.979	80.008	19.993	103.678	18.326	126.976	0.529
807.000	490.208	80.008	19.995	103.676	18.318	127.596	0.518
807.500	490.436	80.007	19.994	103.673	18.315	127.777	0.485
808.000	490.678	80.008	19.993	103.670	18.311	128.050	0.463
808.500	490.954	80.009	19.993	103.668	18.307	128.352	0.494
809.000	491.212	80.009	19.994	103.668	18.305	128.541	0.526
809.500	491.488	80.009	19.995	103.667	18.303	128.680	0.534
810.000	491.701	80.009	19.993	103.666	18.302	128.756	0.512
810.500	491.983	80.008	19.993	103.664	18.298	129.078	0.492
811.000	492.229	80.009	19.995	103.664	18.303	128.708	0.511
811.500	492.481	80.009	19.994	103.660	18.306	128.432	0.513
812.000	492.705	80.009	19.994	103.656	18.305	128.502	0.487
812.500	492.982	80.009	19.994	103.651	18.307	128.408	0.489
813.000	493.224	80.009	19.994	103.645	18.312	128.032	0.510
813.500	493.478	80.010	19.993	103.638	18.320	127.445	0.508
814.000	493.782	80.008	19.993	103.637	18.321	127.334	0.527
814.500	494.009	80.010	19.994	103.634	18.328	126.845	0.544
815.000	494.261	80.008	19.994	103.632	18.336	126.240	0.505
815.500	494.538	80.009	19.994	103.633	18.342	125.838	0.504
816.000	494.778	80.009	19.995	103.633	18.352	125.092	0.523
816.500	495.057	80.010	19.995	103.631	18.360	124.518	0.518
817.000	495.289	80.009	19.995	103.631	18.370	123.751	0.515
817.500	495.509	80.008	19.995	103.631	18.380	123.028	0.482
818.000	495.804	80.009	19.996	103.630	18.392	122.170	0.484
818.500	496.064	80.009	19.994	103.630	18.407	121.049	0.535
819.000	496.336	80.008	19.994	103.629	18.420	120.064	0.543
819.500	496.536	80.008	19.994	103.629	18.433	119.158	0.502
820.000	496.815	80.009	19.994	103.629	18.451	117.835	0.475
820.500	497.039	80.008	19.995	103.633	18.468	116.549	0.491
821.000	497.307	80.008	19.994	103.636	18.484	115.426	0.497
821.500	497.562	80.009	19.995	103.637	18.502	114.082	0.508
822.000	497.791	80.008	19.994	103.637	18.522	112.621	0.503
822.500	498.102	80.008	19.995	103.639	18.544	111.023	0.511
823.000	498.363	80.008	19.994	103.636	18.561	109.772	0.556
823.500	498.582	80.007	19.995	103.633	18.582	108.216	0.526
824.000	498.835	80.008	19.994	103.635	18.606	106.442	0.476
824.500	499.125	80.006	19.995	103.635	18.631	104.616	0.507
825.000	499.352	80.007	19.994	103.635	18.651	103.120	0.530
825.500	499.597	80.007	19.995	103.634	18.678	101.169	0.495
826.000	499.846	80.008	19.994	103.635	18.703	99.310	0.483
826.500	500.077	80.008	19.994	103.635	18.729	97.389	0.487
827.000	500.331	80.007	19.995	103.636	18.754	95.528	0.483
827.500	500.568	80.007	19.994	103.641	18.781	93.574	0.488
828.000	500.866	80.007	19.996	103.647	18.809	91.493	0.513
828.500	501.111	80.009	19.994	103.649	18.835	89.630	0.540
829.000	501.400	80.007	19.994	103.650	18.867	87.258	0.539
829.500	501.633	80.007	19.994	103.655	18.897	85.056	0.528
830.000	501.874	80.008	19.995	103.657	18.924	83.066	0.498
830.500	502.109	80.008	19.995	103.660	18.954	80.847	0.475
831.000	502.365	80.009	19.994	103.667	18.982	78.808	0.483
831.500	502.643	80.009	19.994	103.671	19.012	76.563	0.512
832.000	502.896	80.009	19.994	103.680	19.040	74.530	0.532
832.500	503.156	80.008	19.995	103.684	19.072	72.164	0.522
833.000	503.391	80.008	19.995	103.691	19.104	69.799	0.504
833.500	503.660	80.009	19.994	103.696	19.132	67.702	0.500
834.000	503.872	80.010	19.994	103.704	19.159	65.728	0.493
834.500	504.157	80.008	19.994	103.704	19.188	63.617	0.489
835.000	504.406	80.010	19.994	103.707	19.221	61.193	0.515
835.500	504.644	80.009	19.994	103.708	19.250	58.996	0.510
836.000	504.890	80.009	19.994	103.709	19.280	56.831	0.485
836.500	505.154	80.009	19.994	103.714	19.308	54.749	0.497
837.000	505.408	80.009	19.993	103.718	19.335	52.759	0.514
837.500	505.668	80.010	19.993	103.725	19.364	50.629	0.516
838.000	505.933	80.009	19.994	103.732	19.391	48.615	0.520
838.500	506.171	80.009	19.993	103.739	19.417	46.709	0.514
839.000	506.413	80.011	19.993	103.743	19.442	44.878	0.491
839.500	506.710	80.009	19.994	103.749	19.469	42.850	0.510
840.000	506.926	80.010	19.994	103.751	19.494	41.018	0.526
840.500	507.205	80.009	19.995	103.758	19.519	39.227	0.504
841.000	507.467	80.008	19.994	103.763	19.542	37.491	0.518
841.500	507.687	80.009	19.994	103.771	19.565	35.768	0.511
842.000	507.933	80.009	19.994	103.776	19.588	34.077	0.474
842.500	508.217	80.010	19.994	103.782	19.611	32.397	0.498
843.000	508.488	80.008	19.996	103.784	19.631	30.951	0.543
843.500	508.749	80.009	19.995	103.788	19.655	29.188	0.543
844.000	508.987	80.009	19.995	103.790	19.676	27.644	0.515
844.500	509.221	80.008	19.994	103.793	19.694	26.279	0.486
845.000	509.443	80.008	19.994	103.795	19.712	24.929	0.464
845.500	509.717	80.008	19.995	103.799	19.731	23.554	0.476
846.000	509.957	80.007	19.994	103.799	19.749	22.203	0.505
846.500	510.240	80.008	19.995	103.802	19.761	21.335	0.518
847.000	510.493	80.006	19.996	103.803	19.782	19.803	0.529
847.500	510.776	80.006	19.995	103.809	19.795	18.837	0.536
848.000	510.981	80.007	19.995	103.812	19.813	17.525	0.513
848.500	511.280	80.007	19.995	103.819	19.825	16.588	0.496
849.000	511.518	80.006	19.995	103.822	19.839	15.576	0.520
849.500	511.772	80.006	19.995	103.826	19.850	14.795	0.515
850.000	512.034	80.007	19.996	103.826	19.863	13.805	0.504
850.500	512.284	80.006	19.995	103.826	19.874	12.973	0.514
851.000	512.523	80.007	19.994	103.827	19.886	12.081	0.501
851.500	512.776	80.008	19.996	103.828	19.897	11.268	0.490
852.000	513.022	80.007	19.996	103.828	19.908	10.487	0.495
852.500	513.315	80.005	19.995	103.828	19.914	10.039	0.519
853.000	513.553	80.007	19.995	103.829	19.924	9.340	0.535
853.500	513.809	80.008	19.995	103.827	19.930	8.876	0.513
854.000	514.073	80.007	19.995	103.826	19.941	8.061	0.507
854.500	514.353	80.007	19.996	103.825	19.950	7.426	0.532
855.000	514.595	80.007	19.995	103.825	19.955	6.991	0.533
855.500	514.873	80.007	19.995	103.825	19.962	6.527	0.521
856.000	515.102	80.008	19.995	103.825	19.968	6.098	0.513
856.500	515.377	80.005	19.995	103.825	19.973	5.703	0.505
857.000	515.602	80.007	19.996	103.824	19.978	5.337	0.502
857.500	515.900	80.008	19.995	103.823	19.985	4.803	0.511
858.000	516.138	80.007	19.994	103.822	19.990	4.440	0.529
858.500	516.427	80.006	19.994	103.822	19.996	3.990	0.532
859.000	516.666	80.006	19.996	103.822	19.998	3.857	0.527
859.500	516.890	80.007	19.995	103.826	20.000	3.678	0.496
860.000	517.173	80.007	19.995	103.827	20.005	3.345	0.486
860.500	517.426	80.007	19.995	103.827	20.011	2.859	0.522
861.000	517.667	80.007	19.995	103.830	20.016	2.502	0.515
861.500	517.945	80.007	19.995	103.833	20.019	2.321	0.506
862.000	518.192	80.008	19.995	103.830	20.019	2.285	0.522
862.500	518.482	80.007	19.995	103.831	20.024	1.910	0.531
863.000	518.696	80.007	19.994	103.831	20.027	1.705	0.521
863.500	518.977	80.007	19.996	103.828	20.029	1.574	0.500
864.000	519.257	80.008	19.993	103.826	20.032	1.337	0.528
864.500	519.492	80.007	19.996	103.826	20.034	1.193	0.538
865.000	519.770	80.007	19.994	103.824	20.037	0.962	0.514
865.500	519.992	80.007	19.995	103.826	20.039	0.797	0.507
866.000	520.272	80.008	19.994	103.828	20.042	0.590	0.501
866.500	520.512	80.008	19.994	103.833	20.046	0.301	0.511
867.000	520.768	80.008	19.994	103.838	20.043	0.564	0.508
867.500	521.036	80.006	19.994	103.841	20.047	0.233	0.510
868.000	521.310	80.007	19.995	103.841	20.049	0.076	0.533
868.500	521.531	80.007	19.994	103.842	20.051	-0.072	0.519
869.000	521.807	80.008	19.993	103.838	20.051	-0.060	0.496
869.500	522.027	80.008	19.994	103.836	20.055	-0.351	0.496
870.000	522.287	80.008	19.993	103.834	20.057	-0.524	0.488
870.500	522.577	80.008	19.994	103.835	20.056	-0.456	0.515
871.000	522.811	80.008	19.994	103.834	20.056	-0.420	0.537
871.500	523.083	80.008	19.994	103.836	20.060	-0.693	0.515
872.000	523.309	80.008	19.995	103.837	20.061	-0.797	0.502
872.500	523.571	80.006	19.992	103.840	20.064	-1.036	0.493
873.000	523.798	80.007	19.995	103.839	20.064	-1.018	0.489
873.500	524.066	80.007	19.995	103.836	20.067	-1.231	0.492
874.000	524.332	80.006	19.994	103.835	20.070	-1.452	0.514
874.500	524.602	80.007	19.994	103.835	20.067	-1.223	0.535
875.000	524.837	80.007	19.993	103.834	20.070	-1.474	0.521
875.500	525.077	80.008	19.994	103.835	20.070	-1.448	0.490
876.000	525.357	80.007	19.994	103.835	20.069	-1.356	0.497
876.500	525.609	80.008	19.995	103.837	20.069	-1.378	0.526
877.000	525.873	80.007	19.994	103.835	20.073	-1.653	0.524
877.500	526.110	80.007	19.994	103.835	20.074	-1.743	0.508
878.000	526.356	80.007	19.995	103.837	20.076	-1.914	0.492
878.500	526.609	80.008	19.994	103.837	20.074	-1.763	0.491
879.000	526.889	80.007	19.994	103.837	20.076	-1.906	0.516
879.500	527.136	80.009	19.995	103.837	20.077	-1.960	0.530
880.000	527.376	80.008	19.994	103.837	20.075	-1.860	0.507
880.500	527.650	80.008	19.994	103.839	20.076	-1.892	0.500
881.000	527.887	80.007	19.995	103.841	20.076	-1.906	0.513
881.500	528.136	80.007	19.994	103.843	20.078	-2.067	0.499
882.000	528.407	80.008	19.994	103.846	20.078	-2.091	0.503
882.500	528.667	80.007	19.995	103.847	20.079	-2.109	0.526
883.000	528.937	80.007	19.995	103.851	20.080	-2.185	0.531
883.500	529.167	80.008	19.995	103.855	20.083	-2.444	0.515
884.000	529.448	80.007	19.996	103.855	20.082	-2.378	0.505
884.500	529.676	80.009	19.996	103.856	20.081	-2.258	0.509
885.000	529.930	80.008	19.994	103.855	20.082	-2.376	0.495
885.500	530.238	80.006	19.995	103.851	20.084	-2.474	0.522
886.000	530.428	80.007	19.994	103.849	20.084	-2.500	0.530
886.500	530.709	80.007	19.994	103.852	20.085	-2.593	0.484
887.000	530.955	80.007	19.993	103.852	20.085	-2.581	0.499
887.500	531.228	80.008	19.995	103.856	20.083	-2.398	0.523
888.000	531.504	80.007	19.994	103.854	20.085	-2.551	0.534
888.500	531.762	80.008	19.994	103.851	20.085	-2.601	0.542
889.000	531.988	80.008	19.994	103.851	20.084	-2.466	0.509
889.500	532.254	80.008	19.993	103.851	20.086	-2.615	0.488
890.000	532.508	80.007	19.994	103.852	20.086	-2.643	0.506
890.500	532.746	80.008	19.994	103.859	20.088	-2.800	0.506
891.000	533.010	80.008	19.995	103.864	20.086	-2.641	0.497
891.500	533.245	80.008	19.994	103.865	20.089	-2.858	0.501
892.000	533.482	80.009	19.994	103.865	20.090	-2.944	0.485
892.500	533.795	80.008	19.993	103.866	20.086	-2.651	0.511
893.000	534.059	80.010	19.994	103.866	20.090	-2.916	0.564
893.500	534.328	80.008	19.994	103.865	20.091	-3.043	0.555
894.000	534.555	80.009	19.994	103.865	20.090	-2.942	0.515
894.500	534.806	80.010	19.993	103.865	20.090	-2.914	0.487
895.000	535.059	80.010	19.994	103.865	20.090	-2.973	0.491
895.500	535.347	80.009	19.994	103.865	20.093	-3.141	0.522
896.000	535.601	80.008	19.993	103.866	20.091	-3.035	0.542
896.500	535.802	80.009	19.994	103.864	20.093	-3.163	0.498
897.000	536.111	80.010	19.994	103.864	20.091	-2.989	0.482
897.500	536.332	80.009	19.993	103.862	20.092	-3.057	0.520
898.000	536.622	80.010	19.993	103.862	20.092	-3.067	0.521
898.500	536.879	80.008	19.993	103.862	20.093	-3.159	0.529
899.000	537.140	80.009	19.994	103.864	20.096	-3.362	0.533
899.500	537.384	80.009	19.992	103.864	20.094	-3.258	0.511
900.000	537.621	80.008	19.994	103.865	20.092	-3.089	0.493
900.500	537.892	80.008	19.995	103.864	20.094	-3.272	0.495
901.000	538.185	80.009	19.995	103.864	20.096	-3.348	0.537
901.500	538.391	80.008	19.995	103.864	20.095	-3.344	0.531
902.000	538.629	80.009	19.995	103.863	20.095	-3.338	0.471
902.500	538.894	80.010	19.996	103.863	20.094	-3.216	0.474
903.000	539.175	80.009	19.994	103.864	20.093	-3.147	0.524
903.500	539.418	80.008	19.995	103.863	20.094	-3.214	0.535
904.000	539.681	80.007	19.993	103.863	20.096	-3.370	0.515
904.500	539.978	80.008	19.993	103.864	20.095	-3.336	0.533
905.000	540.224	80.008	19.994	103.865	20.097	-3.455	0.551
905.500	540.482	80.008	19.994	103.865	20.096	-3.392	0.524
906.000	540.784	80.009	19.994	103.866	20.095	-3.336	0.532
906.500	540.963	80.008	19.994	103.865	20.096	-3.360	0.520
907.000	541.240	80.008	19.993	103.865	20.095	-3.292	0.468
907.500	541.535	80.007	19.993	103.864	20.096	-3.418	0.514
908.000	541.799	80.007	19.993	103.863	20.096	-3.360	0.565
908.500	542.016	80.008	19.993	103.864	20.097	-3.450	0.520
909.000	542.253	80.008	19.993	103.865	20.098	-3.496	0.468
909.500	542.615	80.008	19.994	103.865	20.097	-3.464	0.526
910.000	542.832	80.007	19.994	103.863	20.097	-3.458	0.589
910.500	543.071	80.006	19.994	103.865	20.094	-3.245	0.518
911.000	543.280	80.007	19.995	103.863	20.094	-3.247	0.452
911.500	543.589	80.008	19.995	103.863	20.092	-3.073	0.483
912.000	543.834	80.008	19.994	103.864	20.095	-3.302	0.536
912.500	544.138	80.009	19.995	103.865	20.098	-3.542	0.551
913.000	544.392	80.009	19.995	103.864	20.099	-3.635	0.554
913.500	544.596	80.008	19.994	103.865	20.097	-3.456	0.508
914.000	544.886	80.009	19.994	103.864	20.094	-3.215	0.476
914.500	545.165	80.009	19.994	103.865	20.097	-3.484	0.531
915.000	545.361	80.009	19.994	103.865	20.095	-3.300	0.522
915.500	545.705	80.010	19.995	103.865	20.096	-3.354	0.508
916.000	545.940	80.009	19.996	103.864	20.094	-3.237	0.560
916.500	546.203	80.009	19.994	103.864	20.097	-3.444	0.538
917.000	546.462	80.008	19.993	103.864	20.100	-3.681	0.510
917.500	546.655	80.009	19.994	103.863	20.099	-3.583	0.487
918.000	546.960	80.010	19.994	103.863	20.100	-3.649	0.475
918.500	547.286	80.010	19.995	103.863	20.102	-3.838	0.565
919.000	547.463	80.009	19.995	103.862	20.101	-3.778	0.568
919.500	547.819	80.008	19.995	103.860	20.095	-3.344	0.518
920.000	547.974	80.009	19.995	103.857	20.101	-3.778	0.522
920.500	548.284	80.008	19.995	103.857	20.100	-3.661	0.488
921.000	548.514	80.008	19.995	103.856	20.099	-3.593	0.502
921.500	548.789	80.009	19.994	103.856	20.098	-3.553	0.523
922.000	549.035	80.009	19.994	103.858	20.100	-3.645	0.513
922.500	549.267	80.009	19.995	103.859	20.101	-3.766	0.499
923.000	549.583	80.009	19.994	103.853	20.099	-3.619	0.513
923.500	549.826	80.008	19.994	103.848	20.103	-3.910	0.553
924.000	550.078	80.010	19.995	103.844	20.100	-3.693	0.527
924.500	550.253	80.008	19.995	103.844	20.103	-3.898	0.461
925.000	550.639	80.008	19.994	103.845	20.104	-3.991	0.494
925.500	550.766	80.007	19.994	103.851	20.104	-3.987	0.537
926.000	551.110	80.007	19.994	103.857	20.100	-3.669	0.492
926.500	551.360	80.008	19.995	103.860	20.102	-3.842	0.533
927.000	551.639	80.007	19.996	103.859	20.108	-4.238	0.561
927.500	551.879	80.007	19.994	103.859	20.102	-3.864	0.524
928.000	552.014	80.006	19.996	103.859	20.105	-4.041	0.447
928.500	552.388	80.007	19.994	103.859	20.106	-4.113	0.442
929.000	552.515	80.006	19.994	103.861	20.111	-4.465	0.505
929.500	552.865	80.008	19.994	103.862	20.100	-3.673	0.489
930.000	553.135	80.006	19.994	103.862	20.110	-4.404	0.549
930.500	553.403	80.008	19.995	103.863	20.114	-4.694	0.579
931.000	553.636	80.007	19.995	103.863	20.117	-4.943	0.519
931.500	553.933	80.007	19.995	103.863	20.099	-3.631	0.515
932.000	554.214	80.008	19.995	103.864	20.103	-3.874	0.554
932.500	554.352	80.008	19.994	103.864	20.119	-5.051	0.498
933.000	554.828	80.006	19.996	103.863	20.120	-5.150	0.517
933.500	554.897	80.006	19.995	103.864	20.109	-4.338	0.580
934.000	555.198	80.006	19.995	103.863	20.107	-4.177	0.458
934.500	555.609	80.008	19.994	103.863	20.105	-4.023	0.541
935.000	555.611	80.006	19.994	103.863	20.110	-4.420	0.562
935.500	556.036	80.007	19.995	103.863	20.111	-4.487	0.421
936.000	556.303	80.007	19.996	103.863	20.108	-4.284	0.560
936.500	556.532	80.007	19.995	103.863	20.113	-4.611	0.594
937.000	556.799	80.008	19.995	103.863	20.107	-4.226	0.496
937.500	557.096	80.008	19.994	103.863	20.113	-4.607	0.530
938.000	557.197	80.007	19.995	103.863	20.108	-4.262	0.481
938.500	557.590	80.007	19.995	103.864	20.110	-4.400	0.446
939.000	557.884	80.007	19.995	103.864	20.114	-4.700	0.591
939.500	558.015	80.006	19.995	103.864	20.110	-4.382	0.556
940.000	558.160	80.006	19.995	103.864	20.106	-4.153	0.350
940.500	558.586	80.005	19.996	103.863	20.111	-4.493	0.423
941.000	559.128	80.007	19.994	103.863	20.110	-4.453	0.770
941.500	559.129	80.007	19.995	103.862	20.106	-4.103	0.756
942.000	559.227	80.006	19.995	103.862	20.108	-4.252	0.321
942.500	559.550	80.006	19.995	103.863	20.107	-4.184	0.260
943.000	560.071	80.007	19.996	103.863	20.109	-4.335	0.633
943.500	559.741	80.006	19.996	103.863	20.110	-4.443	0.517
944.000	560.960	80.007	19.996	103.863	20.109	-4.314	0.539
944.500	560.784	80.007	19.996	103.862	20.109	-4.369	0.966
945.000	561.370	80.008	19.995	103.862	20.111	-4.481	0.727
945.500	561.374	80.007	19.995	103.861	20.111	-4.487	0.501
946.000	561.480	80.007	19.995	103.861	20.111	-4.459	0.350
946.500	562.030	80.008	19.996	103.862	20.109	-4.375	0.383
947.000	562.367	80.008	19.996	103.862	20.108	-4.247	0.772
947.500	562.473	80.007	19.995	103.862	20.109	-4.357	0.665
948.000	562.476	80.005	19.995	103.862	20.110	-4.402	0.276
948.500	562.404	80.007	19.996	103.862	20.109	-4.349	0.020
949.000	563.232	80.007	19.995	103.862	20.111	-4.488	0.343
949.500	563.295	80.006	19.995	103.863	20.109	-4.317	0.823
950.000	563.387	80.007	19.996	103.863	20.106	-4.154	0.523
950.500	563.774	80.007	19.996	103.863	20.109	-4.379	0.317
951.000	564.084	80.008	19.996	103.862	20.108	-4.249	0.588
951.500	564.265	80.006	19.995	103.864	20.107	-4.190	0.594
952.000	564.507	80.006	19.995	103.866	20.108	-4.287	0.457
952.500	564.780	80.007	19.996	103.869	20.106	-4.150	0.469
953.000	565.046	80.006	19.995	103.872	20.106	-4.130	0.527
953.500	565.357	80.007	19.995	103.873	20.107	-4.196	0.558
954.000	565.542	80.005	19.995	103.872	20.106	-4.108	0.537
954.500	565.840	80.005	19.995	103.870	20.107	-4.220	0.490
955.000	566.084	80.006	19.996	103.873	20.109	-4.343	0.512
955.500	566.236	80.006	19.996	103.871	20.106	-4.102	0.469
956.000	566.657	80.006	19.994	103.872	20.109	-4.373	0.484
956.500	566.801	80.006	19.996	103.874	20.110	-4.448	0.569
957.000	567.152	80.006	19.996	103.875	20.109	-4.349	0.531
957.500	567.395	80.006	19.996	103.877	20.108	-4.289	0.544
958.000	567.628	80.006	19.996	103.883	20.109	-4.335	0.534
958.500	567.896	80.007	19.996	103.888	20.109	-4.381	0.489
959.000	568.184	80.007	19.995	103.889	20.109	-4.337	0.529
959.500	568.481	80.005	19.994	103.893	20.109	-4.359	0.570
960.000	568.685	80.007	19.995	103.892	20.108	-4.295	0.543
960.500	568.981	80.007	19.995	103.890	20.110	-4.421	0.501
961.000	569.248	80.007	19.996	103.888	20.111	-4.528	0.531
961.500	569.449	80.006	19.995	103.889	20.110	-4.383	0.515
962.000	569.749	80.008	19.996	103.885	20.109	-4.345	0.485
962.500	569.976	80.006	19.996	103.885	20.112	-4.562	0.514
963.000	570.243	80.007	19.995	103.884	20.112	-4.534	0.510
963.500	570.532	80.007	19.995	103.885	20.109	-4.374	0.525
964.000	570.766	80.006	19.995	103.883	20.113	-4.629	0.540
964.500	571.133	80.007	19.995	103.883	20.111	-4.490	0.562
965.000	571.276	80.006	19.994	103.881	20.114	-4.693	0.555
965.500	571.601	80.008	19.995	103.882	20.113	-4.639	0.489
966.000	571.827	80.006	19.996	103.885	20.109	-4.379	0.510
966.500	572.064	80.006	19.994	103.885	20.113	-4.604	0.506
967.000	572.351	80.008	19.994	103.888	20.111	-4.482	0.493
967.500	572.609	80.006	19.995	103.888	20.113	-4.617	0.535
968.000	572.899	80.007	19.995	103.887	20.114	-4.685	0.546
968.500	573.174	80.007	19.994	103.885	20.115	-4.777	0.557
969.000	573.418	80.008	19.995	103.888	20.110	-4.436	0.542
969.500	573.677	80.008	19.995	103.888	20.113	-4.650	0.511
970.000	573.906	80.007	19.994	103.888	20.111	-4.510	0.495
970.500	574.238	80.008	19.994	103.888	20.113	-4.614	0.525
971.000	574.479	80.008	19.994	103.886	20.112	-4.593	0.567
971.500	574.801	80.008	19.995	103.883	20.111	-4.462	0.568
972.000	575.055	80.008	19.995	103.882	20.113	-4.641	0.569
972.500	575.295	80.007	19.995	103.884	20.112	-4.548	0.535
973.000	575.574	80.008	19.995	103.886	20.113	-4.626	0.507
973.500	575.789	80.008	19.994	103.889	20.115	-4.795	0.507
974.000	576.068	80.008	19.995	103.895	20.115	-4.772	0.494
974.500	576.319	80.008	19.993	103.900	20.110	-4.455	0.512
975.000	576.635	80.008	19.994	103.903	20.114	-4.682	0.549
975.500	576.879	80.009	19.995	103.900	20.113	-4.650	0.563
976.000	577.111	80.008	19.994	103.897	20.112	-4.602	0.518
976.500	577.428	80.007	19.996	103.895	20.114	-4.714	0.513
977.000	577.644	80.008	19.995	103.890	20.112	-4.568	0.541
977.500	577.942	80.008	19.995	103.890	20.112	-4.594	0.523
978.000	578.259	80.010	19.995	103.893	20.110	-4.421	0.565
978.500	578.460	80.008	19.995	103.895	20.110	-4.395	0.566
979.000	578.767	80.009	19.996	103.892	20.113	-4.628	0.513
979.500	579.011	80.008	19.994	103.891	20.112	-4.599	0.530
980.000	579.280	80.008	19.995	103.887	20.113	-4.621	0.532
980.501	579.496	80.010	19.995	103.884	20.111	-4.457	0.499
981.000	579.779	80.008	19.995	103.885	20.110	-4.429	0.492
981.500	580.012	80.008	19.995	103.889	20.111	-4.507	0.508
982.000	580.293	80.007	19.996	103.892	20.113	-4.619	0.515
982.500	580.573	80.008	19.995	103.892	20.112	-4.589	0.537
983.000	580.812	80.009	19.995	103.890	20.115	-4.772	0.540
983.500	581.088	80.008	19.995	103.889	20.110	-4.413	0.517
984.000	581.369	80.008	19.996	103.881	20.113	-4.618	0.536
984.500	581.613	80.007	19.996	103.874	20.109	-4.363	0.541
985.000	581.873	80.007	19.994	103.872	20.110	-4.413	0.514
985.500	582.112	80.008	19.995	103.875	20.112	-4.555	0.501
986.000	582.394	80.008	19.995	103.871	20.111	-4.459	0.510
986.500	582.717	80.008	19.996	103.874	20.112	-4.561	0.563
987.000	582.918	80.008	19.995	103.875	20.114	-4.742	0.564
987.500	583.205	80.009	19.995	103.876	20.114	-4.710	0.506
988.000	583.433	80.009	19.995	103.877	20.113	-4.606	0.501
988.500	583.677	80.007	19.995	103.877	20.113	-4.614	0.493
989.000	583.977	80.009	19.995	103.874	20.114	-4.744	0.508
989.500	584.213	80.008	19.995	103.874	20.114	-4.726	0.540
990.000	584.458	80.010	19.994	103.873	20.113	-4.642	0.508
990.500	584.754	80.009	19.994	103.867	20.115	-4.792	0.511
991.000	585.005	80.009	19.994	103.866	20.117	-4.927	0.544
991.500	585.211	80.008	19.995	103.867	20.115	-4.798	0.502
992.000	585.487	80.009	19.994	103.866	20.115	-4.764	0.469
992.500	585.752	80.009	19.994	103.865	20.112	-4.541	0.512
993.000	586.028	80.009	19.993	103.866	20.116	-4.864	0.541
993.500	586.266	80.010	19.995	103.866	20.114	-4.700	0.527
994.000	586.553	80.009	19.995	103.865	20.114	-4.690	0.520
994.501	586.786	80.009	19.996	103.864	20.116	-4.844	0.522
995.000	587.034	80.011	19.995	103.869	20.116	-4.854	0.500
995.500	587.319	80.009	19.995	103.871	20.117	-4.922	0.507
996.000	587.551	80.010	19.996	103.871	20.119	-5.065	0.525
996.500	587.806	80.011	19.995	103.871	20.115	-4.780	0.502
997.000	588.107	80.010	19.994	103.870	20.116	-4.878	0.522
997.500	588.324	80.010	19.995	103.866	20.117	-4.969	0.537
998.000	588.599	80.010	19.994	103.866	20.119	-5.073	0.505
998.500	588.813	80.010	19.993	103.866	20.118	-4.981	0.490
999.000	589.090	80.012	19.994	103.869	20.120	-5.123	0.490
999.500	589.350	80.010	19.994	103.871	20.117	-4.906	0.514
1000.000	589.633	80.010	19.995	103.870	20.119	-5.101	0.540
1000.500	589.852	80.010	19.995	103.868	20.117	-4.940	0.523
1001.000	590.127	80.010	19.995	103.867	20.120	-5.163	0.498
1001.500	590.407	80.011	19.994	103.862	20.120	-5.171	0.525
1002.000	590.635	80.010	19.995	103.860	20.119	-5.082	0.531
1002.500	590.902	80.010	19.993	103.861	20.122	-5.283	0.502
1003.000	591.147	80.011	19.996	103.862	20.120	-5.165	0.503
1003.500	591.380	80.011	19.994	103.862	20.121	-5.259	0.495
1004.000	591.668	80.009	19.994	103.863	20.119	-5.077	0.500
1004.500	591.939	80.009	19.997	103.862	20.119	-5.087	0.540
1005.000	592.195	80.009	19.993	103.861	20.121	-5.266	0.543
1005.500	592.407	80.007	19.994	103.859	20.121	-5.215	0.497
1006.000	592.666	80.008	19.995	103.859	20.121	-5.211	0.469
1006.500	592.961	80.008	19.995	103.857	20.120	-5.161	0.512
1007.000	593.180	80.008	19.993	103.858	20.121	-5.194	0.534
1007.500	593.464	80.008	19.995	103.857	20.121	-5.260	0.509
1008.000	593.678	80.007	19.996	103.857	20.120	-5.188	0.501
1008.500	593.966	80.008	19.996	103.857	20.123	-5.397	0.500
1009.000	594.231	80.007	19.996	103.858	20.119	-5.112	0.528
1009.500	594.505	80.007	19.994	103.859	20.122	-5.283	0.546
1010.000	594.735	80.007	19.995	103.861	20.121	-5.193	0.521
1010.500	594.982	80.007	19.996	103.858	20.122	-5.287	0.490
1011.000	595.282	80.007	19.995	103.855	20.121	-5.261	0.512
1011.500	595.531	80.007	19.994	103.852	20.122	-5.269	0.548
1012.000	595.765	80.006	19.996	103.851	20.121	-5.251	0.516
1012.500	596.000	80.007	19.994	103.847	20.121	-5.241	0.476
1013.000	596.267	80.006	19.996	103.847	20.118	-4.979	0.486
1013.500	596.527	80.007	19.995	103.843	20.121	-5.251	0.514
1014.000	596.734	80.006	19.995	103.845	20.124	-5.459	0.497
1014.500	597.049	80.007	19.996	103.845	20.122	-5.287	0.494
1015.000	597.281	80.007	19.994	103.847	20.121	-5.263	0.534
1015.500	597.522	80.007	19.995	103.851	20.123	-5.343	0.510
1016.000	597.786	80.007	19.995	103.854	20.126	-5.580	0.489
1016.500	598.077	80.007	19.996	103.850	20.123	-5.395	0.531
1017.000	598.316	80.007	19.996	103.845	20.122	-5.289	0.543
1017.500	598.543	80.006	19.995	103.842	20.122	-5.275	0.498
1018.000	598.800	80.006	19.995	103.836	20.122	-5.287	0.475
1018.500	599.024	80.006	19.996	103.831	20.120	-5.187	0.483
1019.000	599.236	80.006	19.993	103.829	20.122	-5.297	0.458
1019.500	599.520	80.006	19.994	103.830	20.121	-5.263	0.466
1020.000	599.763	80.006	19.995	103.830	20.123	-5.382	0.511
1020.500	600.022	80.007	19.997	103.836	20.125	-5.524	0.514
1021.000	600.264	80.008	19.996	103.843	20.119	-5.092	0.502
1021.500	600.550	80.007	19.996	103.846	20.122	-5.313	0.515
1022.000	600.777	80.007	19.995	103.848	20.122	-5.321	0.521
1022.500	600.952	80.006	19.995	103.848	20.126	-5.584	0.458
1023.000	601.248	80.008	19.995	103.842	20.122	-5.305	0.436
1023.500	601.490	80.007	19.994	103.837	20.122	-5.269	0.504
1024.000	601.754	80.006	19.996	103.834	20.124	-5.462	0.522
1024.500	601.971	80.008	19.995	103.834	20.125	-5.540	0.493
1025.000	602.221	80.007	19.996	103.836	20.126	-5.620	0.474
1025.500	602.470	80.007	19.995	103.837	20.124	-5.455	0.483
1026.000	602.698	80.007	19.994	103.838	20.125	-5.498	0.488
1026.500	602.901	80.008	19.995	103.842	20.124	-5.459	0.454
1027.000	603.192	80.007	19.995	103.844	20.125	-5.514	0.463
1027.500	603.425	80.007	19.994	103.841	20.121	-5.263	0.509
1028.000	603.679	80.006	19.995	103.840	20.126	-5.629	0.505
1028.500	603.950	80.007	19.995	103.840	20.124	-5.428	0.506
1029.000	604.129	80.007	19.995	103.841	20.125	-5.505	0.488
1029.500	604.400	80.008	19.995	103.841	20.122	-5.276	0.450
1030.000	604.636	80.008	19.995	103.846	20.120	-5.183	0.478
1030.500	604.893	80.006	19.994	103.850	20.124	-5.480	0.500
1031.000	605.069	80.006	19.996	103.851	20.120	-5.131	0.463
1031.500	605.341	80.007	19.995	103.847	20.123	-5.344	0.441
1032.000	605.594	80.007	19.995	103.843	20.118	-5.040	0.487
1032.500	605.825	80.005	19.995	103.840	20.125	-5.494	0.504
1033.001	606.043	80.006	19.995	103.838	20.125	-5.512	0.466
1033.501	606.296	80.006	19.995	103.838	20.121	-5.265	0.460
1034.001	606.554	80.006	19.995	103.839	20.123	-5.369	0.491
1034.501	606.796	80.006	19.994	103.839	20.125	-5.490	0.505
1035.000	607.050	80.006	19.998	103.837	20.124	-5.468	0.498
1035.500	607.289	80.005	19.996	103.836	20.122	-5.283	0.495
1036.000	607.557	80.006	19.995	103.837	20.125	-5.543	0.500
1036.500	607.776	80.005	19.994	103.836	20.126	-5.589	0.497
1037.000	608.014	80.005	19.994	103.835	20.125	-5.519	0.472
1037.500	608.288	80.005	19.996	103.834	20.127	-5.677	0.485
1038.000	608.526	80.005	19.994	103.838	20.124	-5.478	0.513
1038.500	608.784	80.004	19.995	103.842	20.125	-5.552	0.504
1039.000	608.996	80.004	19.996	103.848	20.126	-5.602	0.483
1039.500	609.246	80.007	19.996	103.855	20.125	-5.533	0.466
1040.000	609.512	80.005	19.995	103.860	20.124	-5.455	0.489
1040.501	609.725	80.007	19.995	103.857	20.124	-5.421	0.497
1041.001	609.992	80.006	19.996	103.856	20.123	-5.412	0.479
1041.500	610.220	80.005	19.996	103.854	20.127	-5.657	0.487
1042.000	610.443	80.006	19.995	103.849	20.126	-5.593	0.473
1042.500	610.721	80.005	19.994	103.849	20.126	-5.583	0.476
1043.000	610.922	80.006	19.996	103.848	20.125	-5.495	0.490
1043.500	611.178	80.005	19.994	103.843	20.123	-5.392	0.468
1044.000	611.419	80.007	19.995	103.840	20.127	-5.689	0.477
1044.500	611.697	80.007	19.994	103.839	20.128	-5.723	0.508
1045.000	611.847	80.005	19.996	103.838	20.124	-5.476	0.473
1045.500	612.163	80.006	19.996	103.839	20.125	-5.554	0.446
1046.000	612.371	80.005	19.997	103.842	20.127	-5.705	0.495
1046.500	612.625	80.006	19.995	103.845	20.126	-5.589	0.494
1047.000	612.849	80.006	19.997	103.851	20.124	-5.460	0.471
1047.500	613.118	80.005	19.995	103.853	20.125	-5.518	0.485
1048.000	613.393	80.006	19.995	103.854	20.123	-5.360	0.518
1048.500	613.561	80.006	19.997	103.850	20.125	-5.534	0.493
1049.000	613.867	80.007	19.995	103.845	20.126	-5.571	0.458
1049.500	614.135	80.007	19.995	103.838	20.127	-5.641	0.524
1050.000	614.326	80.007	19.995	103.831	20.124	-5.460	0.517
1050.500	614.622	80.008	19.995	103.831	20.124	-5.462	0.473
1051.000	614.878	80.007	19.995	103.831	20.126	-5.621	0.519
1051.500	615.111	80.008	19.995	103.834	20.127	-5.645	0.521
1052.000	615.358	80.009	19.995	103.841	20.125	-5.490	0.485
1052.500	615.584	80.008	19.995	103.848	20.131	-5.990	0.477
1053.000	615.853	80.008	19.995	103.848	20.127	-5.639	0.484
1053.500	616.072	80.009	19.994	103.851	20.126	-5.565	0.491
1054.000	616.349	80.008	19.995	103.854	20.125	-5.509	0.492
1054.500	616.563	80.007	19.995	103.847	20.124	-5.481	0.493
1055.000	616.829	80.008	19.994	103.844	20.124	-5.449	0.486
1055.500	617.083	80.008	19.995	103.847	20.125	-5.557	0.500
1056.000	617.297	80.008	19.995	103.844	20.127	-5.706	0.494
1056.500	617.546	80.008	19.995	103.840	20.125	-5.491	0.465
1057.000	617.772	80.009	19.995	103.846	20.127	-5.701	0.469
1057.500	618.008	80.008	19.995	103.847	20.127	-5.659	0.469
1058.000	618.278	80.007	19.994	103.847	20.126	-5.565	0.484
1058.500	618.537	80.007	19.994	103.851	20.126	-5.605	0.517
1059.000	618.741	80.007	19.995	103.851	20.124	-5.462	0.496
1059.500	618.975	80.008	19.995	103.850	20.124	-5.416	0.451
1060.000	619.253	80.007	19.996	103.850	20.123	-5.365	0.475
1060.500	619.480	80.007	19.994	103.847	20.127	-5.648	0.508
1061.000	619.730	80.007	19.993	103.843	20.124	-5.429	0.491
1061.500	619.997	80.008	19.994	103.849	20.122	-5.271	0.497
1062.000	620.179	80.008	19.994	103.848	20.124	-5.464	0.483
1062.500	620.481	80.007	19.993	103.846	20.124	-5.432	0.466
1063.000	620.711	80.007	19.996	103.844	20.123	-5.391	0.508
1063.500	620.988	80.008	19.993	103.847	20.124	-5.434	0.520
1064.000	621.197	80.007	19.995	103.847	20.125	-5.494	0.496
1064.500	621.427	80.008	19.995	103.850	20.125	-5.498	0.463
1065.000	621.702	80.007	19.996	103.853	20.122	-5.317	0.472
1065.500	621.964	80.008	19.995	103.859	20.125	-5.546	0.521
1066.000	622.197	80.008	19.995	103.860	20.124	-5.428	0.516
1066.500	622.470	80.008	19.994	103.859	20.124	-5.440	0.500
1067.000	622.679	80.008	19.993	103.859	20.124	-5.480	0.494
1067.500	622.931	80.008	19.994	103.855	20.124	-5.462	0.472
1068.000	623.133	80.007	19.995	103.854	20.125	-5.531	0.458
1068.500	623.418	80.007	19.993	103.854	20.125	-5.555	0.470
1069.000	623.660	80.008	19.994	103.854	20.126	-5.631	0.507
1069.500	623.938	80.008	19.996	103.850	20.127	-5.641	0.524
1070.000	624.180	80.008	19.994	103.847	20.125	-5.513	0.520
1070.500	624.384	80.008	19.994	103.841	20.126	-5.565	0.483
1071.000	624.632	80.009	19.995	103.837	20.125	-5.519	0.449
1071.500	624.905	80.007	19.994	103.836	20.124	-5.435	0.486
1072.000	625.162	80.009	19.994	103.836	20.124	-5.447	0.525
1072.500	625.376	80.007	19.994	103.840	20.125	-5.555	0.500
1073.000	625.639	80.008	19.996	103.842	20.126	-5.629	0.474
1073.500	625.891	80.007	19.996	103.845	20.125	-5.527	0.496
1074.000	626.116	80.008	19.994	103.841	20.124	-5.483	0.496
1074.500	626.348	80.009	19.995	103.844	20.127	-5.692	0.467
1075.000	626.640	80.008	19.996	103.842	20.125	-5.551	0.490
1075.500	626.866	80.009	19.995	103.845	20.125	-5.559	0.521
1076.000	627.109	80.009	19.996	103.844	20.126	-5.573	0.494
1076.500	627.365	80.008	19.994	103.843	20.124	-5.477	0.484
1077.000	627.568	80.009	19.994	103.842	20.126	-5.571	0.479
1077.500	627.842	80.010	19.994	103.846	20.124	-5.469	0.468
1078.000	628.089	80.010	19.993	103.847	20.125	-5.497	0.499
1078.500	628.343	80.010	19.995	103.851	20.124	-5.467	0.511
1079.000	628.570	80.009	19.995	103.854	20.121	-5.218	0.491
1079.500	628.824	80.009	19.993	103.856	20.127	-5.708	0.482
1080.000	629.118	80.010	19.995	103.856	20.125	-5.545	0.514
1080.500	629.356	80.010	19.994	103.856	20.123	-5.393	0.540
1081.000	629.582	80.009	19.996	103.855	20.125	-5.525	0.498
1081.500	629.842	80.010	19.995	103.858	20.122	-5.304	0.474
1082.000	630.089	80.009	19.995	103.860	20.126	-5.636	0.496
1082.500	630.353	80.010	19.996	103.859	20.123	-5.357	0.509
1083.000	630.616	80.009	19.994	103.859	20.125	-5.505	0.520
1083.500	630.837	80.010	19.995	103.861	20.125	-5.507	0.506
1084.000	631.089	80.010	19.995	103.860	20.122	-5.310	0.478
1084.500	631.349	80.009	19.993	103.861	20.123	-5.355	0.492
1085.000	631.616	80.010	19.995	103.863	20.125	-5.505	0.519
1085.500	631.858	80.009	19.995	103.863	20.124	-5.449	0.518
1086.000	632.088	80.009	19.995	103.863	20.124	-5.427	0.490
1086.500	632.386	80.009	19.994	103.864	20.124	-5.443	0.500
1087.000	632.641	80.008	19.995	103.864	20.122	-5.298	0.541
1087.500	632.856	80.008	19.993	103.865	20.125	-5.562	0.512
1088.000	633.166	80.008	19.994	103.866	20.125	-5.560	0.498
1088.500	633.394	80.007	19.994	103.866	20.123	-5.347	0.532
1089.000	633.663	80.007	19.995	103.866	20.127	-5.642	0.517
1089.500	633.933	80.005	19.994	103.865	20.126	-5.588	0.518
1090.000	634.228	80.007	19.994	103.866	20.125	-5.491	0.552
1090.500	634.451	80.005	19.994	103.863	20.125	-5.546	0.542
1091.000	634.720	80.007	19.994	103.863	20.127	-5.684	0.505
1091.500	634.984	80.007	19.994	103.862	20.126	-5.618	0.512
1092.001	635.227	80.006	19.994	103.863	20.128	-5.720	0.520
1092.501	635.514	80.006	19.994	103.863	20.126	-5.582	0.519
1093.000	635.786	80.007	19.994	103.866	20.126	-5.584	0.545
1093.500	636.035	80.006	19.994	103.867	20.126	-5.576	0.540
1094.000	636.330	80.008	19.994	103.867	20.126	-5.630	0.532
1094.500	636.563	80.007	19.994	103.867	20.128	-5.714	0.536
1095.000	636.813	80.007	19.995	103.866	20.122	-5.312	0.506
1095.500	637.077	80.007	19.994	103.867	20.123	-5.371	0.498
1096.000	637.367	80.007	19.996	103.867	20.124	-5.459	0.534
1096.500	637.590	80.006	19.996	103.867	20.129	-5.795	0.533
1097.000	637.886	80.006	19.994	103.867	20.127	-5.640	0.516
1097.500	638.159	80.006	19.995	103.868	20.125	-5.515	0.544
1098.000	638.394	80.005	19.995	103.869	20.125	-5.489	0.539
1098.500	638.657	80.004	19.994	103.869	20.124	-5.457	0.503
1099.000	638.942	80.007	19.995	103.871	20.126	-5.616	0.523
1099.500	639.169	80.005	19.995	103.872	20.126	-5.576	0.530
1100.000	639.465	80.007	19.993	103.871	20.126	-5.616	0.517
1100.500	639.734	80.007	19.995	103.871	20.126	-5.614	0.544
1101.000	639.976	80.005	19.994	103.870	20.127	-5.672	0.538
1101.500	640.230	80.006	19.995	103.869	20.127	-5.640	0.504
1102.001	640.523	80.006	19.995	103.868	20.128	-5.776	0.522
1102.501	640.806	80.007	19.994	103.868	20.123	-5.401	0.561
1103.001	641.074	80.006	19.994	103.869	20.126	-5.585	0.563
1103.501	641.365	80.006	19.995	103.869	20.126	-5.580	0.555
1104.000	641.609	80.007	19.994	103.868	20.124	-5.457	0.547
1104.500	641.867	80.006	19.995	103.867	20.128	-5.746	0.518
1105.000	642.137	80.007	19.995	103.867	20.128	-5.752	0.515
1105.500	642.400	80.006	19.996	103.868	20.127	-5.688	0.531
1106.000	642.677	80.007	19.996	103.867	20.129	-5.788	0.536
1106.500	642.903	80.007	19.994	103.867	20.125	-5.550	0.522
1107.000	643.182	80.008	19.995	103.867	20.124	-5.477	0.504
1107.500	643.465	80.007	19.995	103.869	20.125	-5.512	0.533
1108.000	643.721	80.006	19.995	103.869	20.124	-5.486	0.551
1108.500	643.992	80.007	19.995	103.868	20.127	-5.642	0.533
1109.000	644.206	80.008	19.995	103.872	20.124	-5.447	0.506
1109.500	644.482	80.006	19.995	103.872	20.126	-5.572	0.488
1110.000	644.750	80.007	19.995	103.870	20.124	-5.469	0.517
1110.500	645.036	80.007	19.995	103.869	20.129	-5.791	0.549
1111.000	645.319	80.008	19.995	103.869	20.128	-5.719	0.561
1111.500	645.522	80.007	19.996	103.865	20.125	-5.546	0.527
1112.000	645.818	80.007	19.995	103.864	20.122	-5.289	0.493
1112.501	646.069	80.008	19.994	103.864	20.129	-5.795	0.523
1113.001	646.363	80.007	19.995	103.864	20.125	-5.528	0.546
1113.500	646.596	80.008	19.994	103.865	20.121	-5.237	0.536
1114.000	646.853	80.007	19.995	103.865	20.124	-5.488	0.509
1114.500	647.107	80.007	19.996	103.867	20.128	-5.753	0.501
1115.000	647.417	80.007	19.994	103.866	20.126	-5.632	0.538
1115.500	647.661	80.007	19.995	103.866	20.125	-5.516	0.559
1116.000	647.928	80.007	19.996	103.865	20.128	-5.772	0.532
1116.500	648.217	80.007	19.995	103.866	20.126	-5.573	0.533
1117.000	648.487	80.007	19.995	103.867	20.125	-5.554	0.557
1117.500	648.705	80.007	19.995	103.870	20.125	-5.550	0.524
1118.001	648.942	80.005	19.996	103.872	20.124	-5.424	0.472
1118.501	649.287	80.007	19.995	103.873	20.126	-5.591	0.519
1119.000	649.484	80.008	19.994	103.873	20.127	-5.675	0.562
1119.500	649.782	80.007	19.995	103.870	20.127	-5.649	0.519
1120.000	650.036	80.007	19.995	103.868	20.126	-5.621	0.523
1120.500	650.264	80.007	19.994	103.867	20.122	-5.341	0.517
1121.000	650.546	80.007	19.995	103.869	20.123	-5.347	0.496
1121.500	650.774	80.006	19.996	103.873	20.124	-5.454	0.510
1122.000	651.104	80.007	19.995	103.874	20.123	-5.345	0.534
1122.500	651.341	80.006	19.995	103.875	20.126	-5.568	0.563
1123.000	651.609	80.006	19.996	103.879	20.126	-5.600	0.536
1123.500	651.808	80.006	19.996	103.882	20.124	-5.464	0.486
1124.000	652.026	80.004	19.996	103.884	20.125	-5.526	0.442
1124.500	652.275	80.006	19.995	103.890	20.124	-5.482	0.442
1125.000	652.943	80.006	19.995	103.890	20.125	-5.505	0.692
1125.500	652.985	80.006	19.996	103.885	20.127	-5.706	0.814
1126.000	653.099	80.007	19.996	103.879	20.127	-5.687	0.433
1126.500	653.446	80.005	19.996	103.874	20.126	-5.567	0.308
1127.000	653.707	80.007	19.996	103.868	20.128	-5.756	0.534
1127.500	653.693	80.007	19.996	103.866	20.129	-5.808	0.428
1128.000	654.203	80.007	19.995	103.870	20.126	-5.603	0.372
1128.500	654.504	80.006	19.996	103.877	20.123	-5.414	0.654
1129.000	654.717	80.007	19.996	103.884	20.124	-5.489	0.662
1129.500	654.969	80.008	19.994	103.886	20.126	-5.595	0.489
1130.000	655.271	80.007	19.996	103.887	20.124	-5.436	0.509
1130.500	655.479	80.008	19.995	103.884	20.125	-5.549	0.532
1131.000	655.751	80.007	19.996	103.882	20.123	-5.378	0.495
1131.500	656.021	80.007	19.997	103.880	20.121	-5.240	0.511
1132.000	656.259	80.009	19.995	103.879	20.123	-5.390	0.525
1132.500	656.553	80.009	19.995	103.882	20.125	-5.545	0.520
1133.000	656.777	80.007	19.996	103.882	20.124	-5.460	0.525
1133.500	657.047	80.008	19.996	103.879	20.125	-5.523	0.506
1134.000	657.303	80.007	19.995	103.879	20.124	-5.486	0.510
1134.500	657.568	80.008	19.995	103.881	20.123	-5.396	0.524
1135.000	657.799	80.006	19.995	103.883	20.120	-5.161	0.509
1135.500	658.064	80.008	19.996	103.888	20.124	-5.424	0.496
1136.000	658.323	80.008	19.997	103.892	20.124	-5.462	0.510
1136.500	658.586	80.008	19.995	103.893	20.124	-5.460	0.523
1137.000	658.870	80.010	19.996	103.891	20.125	-5.517	0.534
1137.500	659.130	80.009	19.996	103.890	20.127	-5.666	0.546
1138.000	659.373	80.010	19.995	103.890	20.125	-5.563	0.524
1138.500	659.664	80.008	19.995	103.892	20.125	-5.497	0.518
1139.000	659.881	80.010	19.995	103.892	20.128	-5.742	0.520
1139.500	660.193	80.009	19.994	103.893	20.124	-5.465	0.518
1140.000	660.427	80.008	19.995	103.892	20.125	-5.537	0.538
1140.500	660.690	80.009	19.997	103.892	20.123	-5.344	0.522
1141.000	660.955	80.008	19.998	103.892	20.123	-5.354	0.513
1141.500	661.165	80.008	19.996	103.893	20.124	-5.452	0.502
1142.000	661.442	80.008	19.995	103.896	20.122	-5.324	0.481
1142.500	661.692	80.008	19.996	103.898	20.120	-5.155	0.506
1143.000	661.977	80.008	19.995	103.893	20.124	-5.447	0.531
1143.500	662.204	80.009	19.996	103.892	20.123	-5.411	0.524
1144.000	662.462	80.008	19.995	103.892	20.119	-5.065	0.498
1144.500	662.710	80.008	19.995	103.889	20.123	-5.389	0.495
1145.000	662.975	80.008	19.996	103.889	20.120	-5.188	0.510
1145.500	663.223	80.008	19.995	103.892	20.123	-5.348	0.513
1146.000	663.500	80.007	19.995	103.891	20.117	-4.939	0.519
1146.500	663.750	80.008	19.995	103.889	20.117	-4.915	0.526
1147.000	663.993	80.009	19.994	103.891	20.117	-4.929	0.510
1147.500	664.285	80.008	19.995	103.893	20.122	-5.296	0.514
1148.000	664.498	80.007	19.994	103.896	20.120	-5.180	0.520
1148.500	664.761	80.007	19.995	103.899	20.120	-5.168	0.490
1149.000	665.029	80.009	19.995	103.898	20.120	-5.180	0.503
1149.500	665.285	80.007	19.994	103.898	20.120	-5.127	0.528
1150.000	665.524	80.007	19.994	103.898	20.119	-5.109	0.510
1150.500	665.777	80.007	19.994	103.899	20.120	-5.155	0.494
1151.000	666.075	80.007	19.994	103.900	20.118	-4.978	0.522
1151.500	666.276	80.008	19.994	103.898	20.121	-5.250	0.525
1152.001	666.593	80.008	19.994	103.895	20.122	-5.272	0.509
1152.501	666.819	80.008	19.995	103.894	20.121	-5.258	0.531
1153.000	667.130	80.008	19.995	103.893	20.121	-5.216	0.540
1153.500	667.325	80.009	19.994	103.892	20.118	-5.047	0.521
1154.000	667.583	80.008	19.993	103.895	20.122	-5.304	0.479
1154.500	667.812	80.009	19.994	103.899	20.121	-5.258	0.470
1155.000	668.075	80.008	19.994	103.901	20.120	-5.144	0.490
1155.500	668.367	80.008	19.994	103.901	20.122	-5.314	0.524
1156.000	668.566	80.010	19.995	103.902	20.122	-5.280	0.523
1156.500	668.867	80.009	19.994	103.904	20.124	-5.465	0.495
1157.000	669.091	80.009	19.993	103.904	20.121	-5.199	0.512
1157.500	669.374	80.009	19.994	103.904	20.122	-5.334	0.516
1158.000	669.622	80.009	19.993	103.904	20.124	-5.448	0.519
1158.500	669.844	80.010	19.994	103.904	20.123	-5.346	0.501
1159.000	670.147	80.009	19.994	103.904	20.119	-5.053	0.498
1159.500	670.321	80.009	19.994	103.903	20.122	-5.312	0.501
1160.000	670.776	80.009	19.994	103.902	20.119	-5.063	0.553
1160.500	670.509	80.009	19.993	103.898	20.119	-5.089	0.408
1161.000	671.130	80.009	19.994	103.897	20.118	-5.011	0.271
1161.500	671.355	80.010	19.993	103.897	20.120	-5.178	0.600
1162.000	671.692	80.010	19.995	103.897	20.122	-5.306	0.704
1162.500	671.866	80.009	19.994	103.897	20.120	-5.147	0.537
1163.000	672.166	80.010	19.995	103.901	20.121	-5.229	0.492
1163.500	672.369	80.009	19.994	103.901	20.121	-5.205	0.488
1164.000	672.672	80.010	19.995	103.901	20.122	-5.275	0.505
1164.500	672.922	80.009	19.994	103.902	20.121	-5.205	0.529
1165.000	673.151	80.009	19.994	103.903	20.124	-5.428	0.516
1165.500	673.417	80.008	19.994	103.904	20.120	-5.151	0.487
1166.000	673.640	80.008	19.993	103.904	20.121	-5.202	0.492
1166.500	673.941	80.008	19.993	103.904	20.122	-5.320	0.507
1167.000	674.197	80.008	19.994	103.904	20.122	-5.284	0.541
1167.500	674.419	80.009	19.993	103.899	20.123	-5.376	0.518
1168.000	674.720	80.008	19.994	103.894	20.122	-5.338	0.500
1168.501	674.937	80.008	19.995	103.890	20.121	-5.245	0.520
1169.001	675.226	80.008	19.994	103.888	20.122	-5.319	0.512
1169.500	675.502	80.007	19.995	103.886	20.124	-5.474	0.536
1170.000	675.776	80.008	19.994	103.892	20.122	-5.313	0.558
1170.500	676.056	80.006	19.995	103.897	20.123	-5.376	0.552
1171.000	676.256	80.007	19.994	103.901	20.123	-5.379	0.516
1171.500	676.545	80.007	19.993	103.903	20.123	-5.353	0.484
1172.000	676.795	80.008	19.994	103.904	20.124	-5.440	0.514
1172.500	677.071	80.006	19.995	103.903	20.124	-5.437	0.533
1173.000	677.316	80.007	19.993	103.902	20.124	-5.433	0.524
1173.500	677.549	80.007	19.994	103.897	20.124	-5.463	0.499
1174.000	677.819	80.007	19.995	103.890	20.125	-5.495	0.490
1174.500	678.024	80.006	19.994	103.890	20.125	-5.523	0.489
1175.000	678.354	80.007	19.995	103.890	20.127	-5.638	0.506
1175.500	678.592	80.007	19.994	103.891	20.123	-5.373	0.552
1176.000	678.818	80.007	19.995	103.895	20.125	-5.525	0.516
1176.500	679.067	80.008	19.995	103.900	20.125	-5.489	0.469
1177.000	679.306	80.007	19.994	103.900	20.127	-5.674	0.482
1177.500	679.590	80.008	19.995	103.901	20.125	-5.531	0.506
1178.000	679.856	80.008	19.995	103.898	20.126	-5.563	0.536
1178.500	680.117	80.008	19.994	103.894	20.122	-5.334	0.539
1179.000	680.348	80.007	19.993	103.892	20.128	-5.756	0.509
1179.500	680.571	80.007	19.994	103.889	20.127	-5.666	0.473
1180.000	680.999	80.007	19.994	103.885	20.127	-5.678	0.553
1180.500	681.211	80.008	19.995	103.881	20.125	-5.535	0.645
1181.000	681.377	80.007	19.994	103.884	20.123	-5.379	0.509
1181.500	681.629	80.008	19.995	103.883	20.127	-5.674	0.398
1182.000	681.935	80.007	19.994	103.881	20.125	-5.555	0.488
1182.500	682.179	80.007	19.994	103.879	20.129	-5.798	0.554
1183.000	682.421	80.007	19.994	103.878	20.126	-5.612	0.518
1183.500	682.675	80.007	19.995	103.872	20.128	-5.760	0.491
1184.000	682.904	80.007	19.994	103.869	20.128	-5.780	0.489
1184.500	683.187	80.008	19.994	103.867	20.130	-5.891	0.497
1185.000	683.400	80.008	19.994	103.865	20.126	-5.612	0.504
1185.500	683.660	80.008	19.995	103.863	20.127	-5.672	0.484
1186.000	683.907	80.008	19.994	103.863	20.128	-5.740	0.490
1186.500	684.172	80.008	19.995	103.863	20.129	-5.852	0.510
1187.001	684.453	80.009	19.994	103.864	20.128	-5.756	0.529
1187.501	684.697	80.008	19.994	103.865	20.130	-5.882	0.535
1188.000	684.955	80.008	19.995	103.865	20.131	-5.966	0.513
1188.500	685.230	80.007	19.994	103.865	20.130	-5.878	0.518
1189.000	685.461	80.007	19.994	103.865	20.130	-5.930	0.519
1189.501	685.709	80.008	19.995	103.864	20.129	-5.841	0.492
1190.001	685.989	80.007	19.994	103.864	20.128	-5.763	0.504
1190.500	686.200	80.007	19.994	103.863	20.135	-6.226	0.510
1191.000	686.496	80.007	19.994	103.863	20.131	-5.933	0.498
1191.500	686.736	80.008	19.994	103.863	20.133	-6.150	0.522
1192.000	686.989	80.008	19.995	103.864	20.131	-5.943	0.515
1192.500	687.207	80.007	19.995	103.864	20.132	-6.033	0.482
1193.000	687.470	80.007	19.996	103.864	20.133	-6.096	0.476
1193.500	687.737	80.006	19.994	103.864	20.135	-6.246	0.505
1194.001	687.990	80.006	19.994	103.864	20.132	-6.013	0.525
1194.501	688.253	80.007	19.994	103.863	20.132	-6.029	0.518
1195.000	688.463	80.007	19.996	103.863	20.134	-6.214	0.495
1195.500	688.747	80.008	19.995	103.863	20.134	-6.224	0.484
1196.000	689.001	80.007	19.994	103.863	20.130	-5.907	0.516
1196.500	689.258	80.008	19.994	103.863	20.131	-5.951	0.524
1197.000	689.537	80.008	19.995	103.863	20.132	-6.043	0.523
1197.500	689.742	80.007	19.996	103.862	20.133	-6.128	0.510
1198.000	689.969	80.007	19.995	103.862	20.133	-6.102	0.458
1198.500	690.246	80.007	19.996	103.859	20.133	-6.094	0.468
1199.000	690.495	80.006	19.995	103.853	20.132	-6.055	0.515
1199.500	690.752	80.007	19.995	103.848	20.130	-5.895	0.516
1200.000	691.024	80.006	19.995	103.841	20.133	-6.096	0.517
1200.500	691.269	80.008	19.996	103.837	20.129	-5.855	0.522
1201.000	691.508	80.006	19.995	103.837	20.133	-6.095	0.500
1201.500	691.778	80.007	19.996	103.836	20.131	-5.939	0.497
1202.000	692.011	80.008	19.995	103.833	20.132	-6.049	0.507
1202.500	692.228	80.007	19.995	103.834	20.132	-6.007	0.476
1203.000	692.526	80.006	19.995	103.833	20.130	-5.905	0.482
1203.500	692.747	80.007	19.996	103.830	20.132	-6.021	0.517
1204.000	692.985	80.007	19.996	103.829	20.132	-6.062	0.489
1204.500	693.257	80.007	19.996	103.829	20.133	-6.124	0.484
1205.000	693.496	80.006	19.996	103.830	20.135	-6.239	0.510
1205.500	693.769	80.007	19.995	103.829	20.132	-6.048	0.511
1206.000	693.996	80.008	19.995	103.827	20.133	-6.102	0.506
1206.500	694.223	80.007	19.995	103.828	20.133	-6.104	0.477
1207.000	694.509	80.007	19.995	103.829	20.135	-6.231	0.483
1207.500	694.754	80.008	19.994	103.829	20.133	-6.110	0.522
1208.000	695.021	80.008	19.995	103.829	20.135	-6.264	0.522
1208.500	695.233	80.008	19.995	103.829	20.135	-6.276	0.495
1209.000	695.505	80.007	19.996	103.832	20.133	-6.108	0.481
1209.500	695.742	80.008	19.995	103.832	20.134	-6.194	0.497
1210.000	695.978	80.008	19.995	103.830	20.136	-6.315	0.492
1210.500	696.200	80.009	19.994	103.830	20.134	-6.180	0.466
1211.000	696.470	80.007	19.995	103.830	20.135	-6.273	0.475
1211.500	696.701	80.007	19.995	103.827	20.132	-6.052	0.496
1212.000	696.981	80.009	19.995	103.826	20.137	-6.407	0.506
1212.500	697.210	80.008	19.994	103.826	20.133	-6.106	0.510
1213.000	697.427	80.008	19.994	103.827	20.136	-6.339	0.478
1213.500	697.656	80.008	19.994	103.827	20.135	-6.253	0.446
1214.000	697.900	80.009	19.994	103.827	20.135	-6.293	0.459
1214.500	698.161	80.008	19.994	103.829	20.136	-6.365	0.489
1215.000	698.423	80.008	19.994	103.833	20.137	-6.411	0.514
1215.500	698.651	80.009	19.994	103.837	20.135	-6.236	0.507
1216.000	698.898	80.008	19.994	103.842	20.134	-6.218	0.482
1216.500	699.114	80.008	19.994	103.845	20.137	-6.411	0.469
1217.000	699.398	80.008	19.994	103.844	20.136	-6.324	0.482
1217.500	699.652	80.008	19.995	103.841	20.134	-6.186	0.519
1218.000	699.893	80.009	19.994	103.836	20.132	-6.017	0.516
1218.500	700.114	80.008	19.996	103.831	20.132	-6.059	0.478
1219.000	700.418	80.008	19.994	103.827	20.134	-6.172	0.493
1219.500	700.608	80.009	19.994	103.827	20.135	-6.254	0.509
1220.000	700.860	80.007	19.996	103.828	20.133	-6.100	0.468
1220.500	701.124	80.008	19.994	103.833	20.134	-6.219	0.479
1221.000	701.374	80.007	19.995	103.833	20.135	-6.257	0.516
1221.500	701.625	80.009	19.994	103.837	20.136	-6.309	0.508
1222.000	701.889	80.008	19.994	103.842	20.135	-6.253	0.508
1222.500	702.104	80.008	19.995	103.841	20.137	-6.385	0.497
1223.000	702.343	80.008	19.995	103.838	20.134	-6.170	0.467
1223.500	702.623	80.008	19.995	103.842	20.135	-6.232	0.487
1224.000	702.850	80.007	19.994	103.841	20.137	-6.403	0.513
1224.500	703.067	80.007	19.996	103.836	20.139	-6.527	0.475
1225.000	703.299	80.008	19.996	103.836	20.135	-6.296	0.446
1225.500	703.563	80.008	19.994	103.834	20.136	-6.308	0.473
1226.000	703.817	80.007	19.995	103.830	20.135	-6.298	0.507
1226.500	704.057	80.007	19.995	103.827	20.132	-6.005	0.506
1227.000	704.342	80.007	19.995	103.827	20.133	-6.095	0.509
1227.500	704.607	80.007	19.995	103.827	20.136	-6.312	0.537
1228.000	704.836	80.008	19.995	103.827	20.136	-6.324	0.522
1228.500	705.104	80.006	19.995	103.827	20.135	-6.282	0.496
1229.000	705.334	80.006	19.996	103.827	20.135	-6.270	0.497
1229.500	705.572	80.007	19.995	103.827	20.134	-6.204	0.483
1230.000	705.811	80.007	19.995	103.828	20.135	-6.292	0.473
1230.500	706.046	80.006	19.995	103.832	20.137	-6.441	0.475
1231.000	706.325	80.007	19.995	103.839	20.138	-6.495	0.494
1231.500	706.537	80.006	19.995	103.844	20.134	-6.184	0.502
1232.000	706.778	80.007	19.995	103.846	20.137	-6.397	0.472
1232.500	707.039	80.006	19.995	103.846	20.137	-6.410	0.477
1233.000	707.305	80.007	19.995	103.843	20.135	-6.280	0.515
1233.500	707.540	80.007	19.994	103.838	20.135	-6.268	0.514
1234.000	707.832	80.008	19.994	103.834	20.136	-6.324	0.514
1234.500	708.041	80.007	19.995	103.832	20.137	-6.424	0.514
1235.000	708.306	80.007	19.996	103.832	20.137	-6.406	0.488
1235.500	708.568	80.008	19.994	103.830	20.134	-6.198	0.501
1236.000	708.818	80.007	19.995	103.828	20.135	-6.252	0.520
1236.500	709.022	80.007	19.995	103.828	20.137	-6.386	0.483
1237.000	709.318	80.008	19.994	103.829	20.133	-6.144	0.477
1237.500	709.556	80.009	19.993	103.828	20.138	-6.499	0.517
1238.000	709.788	80.008	19.995	103.827	20.137	-6.440	0.502
1238.500	710.070	80.009	19.995	103.827	20.134	-6.186	0.492
1239.000	710.278	80.008	19.995	103.826	20.135	-6.236	0.502
1239.500	710.594	80.010	19.994	103.824	20.136	-6.302	0.507
1240.000	710.811	80.010	19.994	103.823	20.134	-6.216	0.528
1240.500	711.037	80.010	19.994	103.825	20.137	-6.408	0.488
1241.000	711.264	80.010	19.994	103.829	20.135	-6.288	0.448
1241.500	711.620	80.010	19.994	103.829	20.134	-6.204	0.518
1242.000	711.841	80.011	19.994	103.830	20.137	-6.432	0.579
1242.500	712.063	80.010	19.994	103.829	20.136	-6.310	0.510
1243.000	712.358	80.011	19.994	103.827	20.135	-6.238	0.481
1243.500	712.598	80.009	19.993	103.822	20.131	-5.959	0.526
1244.000	712.852	80.010	19.994	103.821	20.135	-6.286	0.514
1244.500	713.120	80.010	19.994	103.821	20.134	-6.220	0.508
1245.000	713.339	80.008	19.994	103.821	20.130	-5.874	0.505
1245.500	713.606	80.010	19.994	103.821	20.133	-6.145	0.486
1246.000	713.849	80.009	19.994	103.823	20.132	-6.059	0.497
1246.500	714.103	80.008	19.994	103.824	20.131	-5.967	0.503
1247.000	714.345	80.009	19.993	103.824	20.133	-6.103	0.497
1247.500	714.600	80.008	19.994	103.825	20.131	-5.965	0.497
1248.000	714.873	80.009	19.994	103.825	20.131	-5.993	0.513
1248.500	715.146	80.007	19.994	103.824	20.131	-5.939	0.537
1249.000	715.364	80.008	19.994	103.823	20.131	-5.945	0.519
1249.500	715.640	80.007	19.994	103.823	20.129	-5.808	0.493
1250.000	715.895	80.007	19.994	103.822	20.129	-5.853	0.512
1250.500	716.158	80.007	19.994	103.822	20.130	-5.887	0.524
1251.000	716.384	80.006	19.995	103.822	20.129	-5.782	0.503
1251.500	716.691	80.007	19.996	103.823	20.131	-5.935	0.511
1252.000	716.911	80.008	19.995	103.823	20.129	-5.804	0.530
1252.500	717.156	80.006	19.995	103.823	20.129	-5.810	0.496
1253.000	717.453	80.007	19.995	103.823	20.131	-5.949	0.504
1253.500	717.688	80.008	19.994	103.824	20.130	-5.923	0.536
1254.000	717.938	80.008	19.995	103.823	20.132	-6.049	0.508
1254.500	718.176	80.008	19.995	103.824	20.135	-6.290	0.487
1255.000	718.406	80.006	19.994	103.824	20.132	-6.057	0.479
1255.500	718.668	80.006	19.995	103.824	20.129	-5.850	0.480
1256.000	718.923	80.006	19.995	103.824	20.131	-5.939	0.504
1256.500	719.220	80.006	19.995	103.824	20.131	-5.977	0.534
1257.001	719.439	80.007	19.994	103.824	20.132	-6.067	0.534
1257.501	719.709	80.008	19.995	103.825	20.132	-6.027	0.503
1258.000	719.947	80.007	19.994	103.824	20.133	-6.077	0.498
1258.500	720.230	80.007	19.994	103.825	20.134	-6.160	0.514
1259.000	720.493	80.007	19.994	103.825	20.134	-6.158	0.534
1259.500	720.696	80.007	19.994	103.824	20.130	-5.871	0.506
1260.000	720.973	80.006	19.995	103.824	20.132	-6.050	0.473
1260.500	721.179	80.006	19.995	103.825	20.132	-6.029	0.481
1261.000	721.470	80.007	19.995	103.827	20.134	-6.168	0.490
1261.500	721.710	80.006	19.995	103.828	20.130	-5.907	0.514
1262.000	721.949	80.005	19.995	103.828	20.131	-5.979	0.505
1262.500	722.198	80.006	19.994	103.828	20.131	-5.933	0.483
1263.000	722.476	80.008	19.996	103.827	20.129	-5.844	0.508
1263.500	722.710	80.006	19.994	103.826	20.131	-5.963	0.519
1264.000	722.975	80.007	19.995	103.825	20.130	-5.929	0.505
1264.500	723.226	80.007	19.994	103.825	20.129	-5.846	0.507
1265.001	723.495	80.008	19.994	103.825	20.133	-6.121	0.518
1265.501	723.757	80.007	19.995	103.826	20.131	-5.935	0.526
1266.000	723.995	80.007	19.995	103.824	20.132	-6.045	0.515
1266.500	724.254	80.008	19.995	103.824	20.131	-5.991	0.499
1267.000	724.504	80.008	19.994	103.824	20.130	-5.891	0.503
1267.500	724.767	80.008	19.994	103.824	20.132	-6.037	0.511
1268.000	725.015	80.008	19.996	103.823	20.135	-6.228	0.512
1268.500	725.269	80.007	19.994	103.824	20.131	-5.961	0.507
1269.000	725.541	80.006	19.993	103.826	20.130	-5.879	0.514
1269.500	725.790	80.008	19.994	103.828	20.131	-5.957	0.524
1270.000	726.049	80.007	19.995	103.830	20.131	-5.939	0.515
1270.500	726.283	80.008	19.994	103.832	20.134	-6.220	0.501
1271.000	726.559	80.008	19.994	103.832	20.128	-5.748	0.501
1271.500	726.802	80.008	19.994	103.830	20.133	-6.093	0.515
1272.000	727.072	80.007	19.994	103.828	20.129	-5.808	0.516
1272.500	727.318	80.009	19.993	103.828	20.128	-5.720	0.514
1273.000	727.586	80.008	19.994	103.826	20.131	-5.995	0.515
1273.500	727.830	80.008	19.993	103.827	20.130	-5.899	0.513
1274.000	728.103	80.008	19.994	103.827	20.132	-6.075	0.515
1274.500	728.337	80.008	19.994	103.827	20.133	-6.128	0.512
1275.000	728.584	80.008	19.994	103.827	20.132	-6.043	0.494
1275.500	728.819	80.007	19.994	103.826	20.134	-6.222	0.482
1276.000	729.072	80.007	19.994	103.826	20.133	-6.116	0.485
1276.500	729.327	80.007	19.993	103.826	20.131	-5.987	0.498
1277.000	729.586	80.007	19.995	103.827	20.131	-5.973	0.511
1277.500	729.840	80.007	19.994	103.827	20.133	-6.144	0.513
1278.000	730.061	80.006	19.993	103.827	20.130	-5.865	0.494
1278.500	730.314	80.006	19.993	103.829	20.135	-6.236	0.475
1279.000	730.554	80.007	19.993	103.829	20.133	-6.124	0.484
1279.500	730.813	80.007	19.993	103.829	20.133	-6.142	0.496
1280.000	731.076	80.007	19.995	103.828	20.131	-5.977	0.510
1280.500	731.366	80.007	19.995	103.828	20.134	-6.186	0.537
1281.000	731.583	80.007	19.994	103.826	20.134	-6.170	0.530
1281.500	731.843	80.007	19.994	103.826	20.135	-6.298	0.492
1282.000	732.098	80.008	19.993	103.826	20.133	-6.095	0.496
1282.500	732.371	80.007	19.994	103.827	20.133	-6.146	0.522
1283.000	732.585	80.008	19.994	103.827	20.134	-6.166	0.508
1283.500	732.848	80.006	19.994	103.827	20.132	-6.067	0.482
1284.000	733.033	80.006	19.994	103.827	20.132	-6.059	0.462
1284.500	733.350	80.007	19.994	103.827	20.131	-5.937	0.475
1285.000	733.566	80.006	19.995	103.828	20.133	-6.142	0.517
1285.500	733.801	80.006	19.994	103.827	20.132	-6.045	0.492
1286.000	734.067	80.007	19.994	103.828	20.135	-6.292	0.476
1286.500	734.323	80.006	19.994	103.828	20.134	-6.188	0.512
1287.001	734.595	80.007	19.994	103.828	20.136	-6.338	0.525
1287.501	734.810	80.007	19.995	103.827	20.135	-6.244	0.507
1288.000	735.087	80.007	19.995	103.828	20.132	-6.027	0.490
1288.500	735.329	80.006	19.994	103.827	20.133	-6.087	0.506
1289.000	735.531	80.008	19.994	103.827	20.131	-5.991	0.482
1289.500	735.828	80.006	19.995	103.827	20.134	-6.154	0.471
1290.001	736.076	80.007	19.995	103.828	20.133	-6.111	0.522
1290.501	736.265	80.007	19.994	103.827	20.133	-6.117	0.492
1291.000	736.541	80.007	19.994	103.828	20.131	-5.967	0.451
1291.500	736.757	80.006	19.994	103.827	20.131	-5.995	0.478
1292.000	737.006	80.007	19.994	103.827	20.134	-6.164	0.478
1292.500	737.270	80.008	19.996	103.827	20.132	-6.011	0.489
1293.000	737.517	80.008	19.996	103.826	20.131	-5.981	0.512
1293.500	737.765	80.008	19.994	103.826	20.132	-6.049	0.503
1294.000	737.985	80.007	19.995	103.828	20.132	-6.039	0.481
1294.500	738.269	80.007	19.996	103.827	20.132	-6.023	0.486
1295.000	738.516	80.007	19.995	103.827	20.132	-6.003	0.517
1295.500	738.779	80.007	19.995	103.827	20.133	-6.106	0.520
1296.000	738.987	80.007	19.994	103.828	20.132	-6.005	0.490
1296.500	739.246	80.007	19.995	103.826	20.134	-6.182	0.469
1297.000	739.506	80.008	19.994	103.826	20.131	-5.995	0.493
1297.500	739.742	80.009	19.993	103.827	20.135	-6.226	0.507
1298.000	739.987	80.008	19.995	103.828	20.135	-6.286	0.489
1298.500	740.198	80.007	19.995	103.828	20.137	-6.383	0.469
1299.000	740.449	80.009	19.995	103.828	20.137	-6.387	0.459
1299.500	740.718	80.008	19.995	103.828	20.132	-6.046	0.491
1300.000	740.966	80.009	19.995	103.826	20.134	-6.174	0.518
1300.500	741.201	80.009	19.995	103.825	20.134	-6.208	0.500
1301.000	741.483	80.009	19.994	103.825	20.134	-6.210	0.500
1301.500	741.721	80.007	19.995	103.825	20.134	-6.224	0.518
1302.000	741.941	80.007	19.993	103.826	20.134	-6.166	0.489
1302.500	742.219	80.008	19.994	103.827	20.135	-6.268	0.478
1303.000	742.445	80.008	19.993	103.827	20.135	-6.226	0.502
1303.500	742.711	80.008	19.994	103.827	20.134	-6.184	0.498
1304.000	742.949	80.009	19.994	103.825	20.132	-6.069	0.498
