Sample ID:	C:\MCC\MCC Cal\Test\Vinyl_Plan_Flooring_MCC_30K_min_211111_R3.txt
Sample Weight (mg):	4.68
Heating Rate (C/s):	0.5
Combustor Temp (C):	900
N2 Flow Rate (cc/min):	80
O2 Flow Rate (cc/min):	20
Calibration File:	C:\MCC\MCC Cal\Coeff1 JN10440_30_210304.txt.txt
T Correction Coefficients:	0	1.024463	0
Time Shift (s):	14
*
Time (s)	Temperature (C)	N2 flow rate (cc/min)	O2 flow rate (cc/min)	Flow Rate (cc/min)	Oxygen (%)	HRR (W/g)	Heating rate (C/s)
-0.001	106.980	80.002	19.998	103.010	20.092	-0.084	0.019
0.499	106.977	80.002	19.999	103.011	20.096	-0.349	0.020
1.000	106.975	80.002	19.997	103.016	20.093	-0.114	-0.001
1.500	106.954	80.001	19.997	103.019	20.096	-0.303	-0.014
2.000	106.948	80.002	19.996	103.019	20.091	0.019	-0.025
2.500	106.965	80.001	19.997	103.013	20.092	-0.037	-0.008
3.000	106.961	80.001	19.996	103.006	20.090	0.071	0.012
3.500	107.010	80.000	19.997	102.998	20.090	0.052	0.030
4.000	106.974	80.001	19.996	102.991	20.090	0.043	0.029
4.500	106.985	80.001	19.996	102.982	20.089	0.121	-0.006
5.000	106.967	80.001	19.997	102.978	20.091	0.041	-0.016
5.500	106.990	80.000	19.996	102.975	20.091	0.006	-0.001
6.000	106.966	80.002	19.997	102.977	20.091	-0.017	0.002
6.500	106.964	80.002	19.996	102.979	20.091	-0.019	-0.014
7.000	106.957	80.001	19.996	102.986	20.091	0.021	-0.018
7.500	106.969	80.002	19.996	102.993	20.092	-0.088	-0.002
8.000	106.959	80.001	19.996	103.003	20.091	0.009	0.004
8.500	106.990	80.002	19.995	103.011	20.091	0.037	0.012
9.000	106.996	80.002	19.996	103.016	20.093	-0.142	0.029
9.500	106.976	80.002	19.996	103.019	20.089	0.155	0.011
10.000	106.968	80.002	19.995	103.022	20.091	0.006	-0.021
10.500	106.977	80.002	19.995	103.023	20.090	0.084	-0.013
11.000	106.953	80.002	19.995	103.023	20.090	0.058	-0.007
11.500	106.983	80.002	19.996	103.024	20.091	0.041	-0.004
12.000	107.015	80.001	19.995	103.025	20.087	0.279	0.034
12.500	107.001	80.001	19.995	103.025	20.089	0.118	0.040
13.000	106.986	80.002	19.995	103.025	20.088	0.237	-0.005
13.500	106.989	80.002	19.995	103.026	20.087	0.303	-0.020
14.000	106.998	80.001	19.996	103.026	20.088	0.228	-0.000
14.500	106.973	80.002	19.995	103.026	20.087	0.250	-0.002
15.000	106.978	80.002	19.995	103.026	20.087	0.250	-0.018
15.500	107.014	80.001	19.995	103.026	20.090	0.101	0.010
16.000	107.027	80.001	19.995	103.027	20.087	0.249	0.045
16.500	107.019	80.000	19.995	103.032	20.090	0.049	0.027
17.000	106.987	80.002	19.995	103.039	20.087	0.282	-0.017
17.500	107.044	80.002	19.995	103.040	20.087	0.252	-0.007
18.000	107.013	80.001	19.995	103.042	20.087	0.297	0.025
18.500	107.013	80.002	19.995	103.047	20.087	0.314	-0.003
19.000	106.993	80.001	19.995	103.050	20.084	0.514	-0.025
19.500	107.020	80.001	19.994	103.048	20.084	0.499	-0.007
20.000	107.048	80.000	19.994	103.052	20.083	0.539	0.031
20.500	107.059	80.003	19.995	103.058	20.086	0.365	0.047
21.000	107.020	80.002	19.994	103.060	20.083	0.554	0.005
21.500	107.057	80.003	19.995	103.061	20.080	0.729	-0.015
22.000	107.059	80.001	19.995	103.066	20.083	0.559	0.019
22.500	107.090	80.002	19.995	103.065	20.081	0.686	0.036
23.000	107.114	80.001	19.994	103.066	20.085	0.430	0.044
23.500	107.126	80.002	19.995	103.066	20.085	0.425	0.045
24.000	107.121	80.003	19.994	103.065	20.083	0.574	0.021
24.500	107.124	80.002	19.994	103.062	20.085	0.393	0.003
25.000	107.146	80.002	19.995	103.058	20.081	0.681	0.012
25.500	107.144	80.002	19.995	103.052	20.083	0.543	0.022
26.000	107.147	80.001	19.995	103.048	20.084	0.490	0.011
26.500	107.191	80.002	19.994	103.047	20.086	0.352	0.024
27.000	107.192	80.003	19.995	103.052	20.084	0.515	0.046
27.500	107.174	80.002	19.995	103.059	20.082	0.597	0.014
28.000	107.209	80.001	19.995	103.066	20.082	0.621	-0.000
28.500	107.214	80.002	19.996	103.071	20.083	0.543	0.028
29.000	107.247	80.003	19.995	103.073	20.081	0.670	0.039
29.500	107.257	80.001	19.994	103.075	20.081	0.711	0.040
30.000	107.254	80.001	19.995	103.078	20.080	0.747	0.025
30.500	107.287	80.000	19.995	103.081	20.080	0.766	0.019
31.000	107.319	80.000	19.994	103.079	20.080	0.762	0.048
31.500	107.333	80.000	19.995	103.081	20.078	0.910	0.056
32.000	107.359	80.001	19.994	103.088	20.079	0.826	0.043
32.500	107.374	80.001	19.994	103.090	20.078	0.893	0.040
33.000	107.364	80.001	19.995	103.092	20.075	1.133	0.023
33.499	107.409	80.000	19.996	103.100	20.075	1.138	0.020
33.999	107.412	80.001	19.995	103.105	20.076	1.065	0.042
34.499	107.454	80.002	19.994	103.113	20.074	1.176	0.047
35.000	107.452	80.000	19.994	103.124	20.069	1.503	0.042
35.500	107.473	79.999	19.995	103.136	20.067	1.633	0.029
35.999	107.550	80.001	19.995	103.151	20.066	1.732	0.058
36.499	107.591	80.000	19.996	103.166	20.066	1.697	0.108
36.999	107.604	80.000	19.995	103.175	20.064	1.852	0.086
37.499	107.637	80.000	19.994	103.182	20.063	1.931	0.050
37.999	107.698	80.002	19.995	103.188	20.062	2.035	0.070
38.499	107.697	80.000	19.995	103.189	20.060	2.150	0.077
38.999	107.755	80.001	19.995	103.189	20.063	1.961	0.059
39.500	107.836	79.999	19.994	103.189	20.058	2.277	0.098
40.000	107.874	80.001	19.996	103.190	20.057	2.378	0.129
40.499	107.878	80.001	19.996	103.190	20.056	2.436	0.080
40.999	107.970	80.002	19.994	103.190	20.058	2.275	0.069
41.499	108.032	80.001	19.995	103.192	20.058	2.303	0.124
41.999	108.060	80.000	19.994	103.193	20.055	2.507	0.122
42.499	108.112	80.001	19.994	103.194	20.058	2.313	0.085
42.999	108.118	80.001	19.995	103.195	20.057	2.365	0.069
43.500	108.203	80.001	19.994	103.194	20.055	2.468	0.075
44.000	108.276	80.001	19.995	103.194	20.055	2.468	0.125
44.499	108.337	80.001	19.994	103.196	20.055	2.519	0.146
44.999	108.391	80.000	19.994	103.201	20.058	2.298	0.124
45.499	108.470	80.001	19.994	103.208	20.056	2.450	0.124
45.999	108.526	80.001	19.996	103.216	20.055	2.514	0.134
46.499	108.578	80.001	19.994	103.221	20.055	2.499	0.122
46.999	108.653	80.002	19.995	103.227	20.051	2.759	0.118
47.499	108.726	80.002	19.994	103.228	20.052	2.710	0.137
48.000	108.797	80.001	19.994	103.228	20.047	3.003	0.146
48.500	108.892	80.001	19.993	103.228	20.049	2.873	0.155
48.999	108.977	80.002	19.994	103.229	20.053	2.594	0.174
49.499	109.026	80.002	19.994	103.229	20.049	2.926	0.157
49.999	109.109	80.003	19.994	103.229	20.049	2.888	0.133
50.500	109.161	80.003	19.994	103.228	20.049	2.894	0.133
51.000	109.237	80.004	19.995	103.228	20.049	2.907	0.132
51.499	109.332	80.003	19.995	103.227	20.045	3.203	0.150
51.999	109.445	80.003	19.994	103.227	20.044	3.274	0.190
52.500	109.502	80.004	19.994	103.227	20.050	2.826	0.189
53.000	109.613	80.005	19.994	103.228	20.049	2.883	0.169
53.500	109.692	80.002	19.994	103.229	20.047	3.025	0.179
54.000	109.769	80.003	19.994	103.229	20.048	2.962	0.173
54.499	109.893	80.003	19.995	103.229	20.045	3.168	0.179
54.999	109.993	80.004	19.994	103.235	20.047	3.044	0.212
55.499	110.082	80.003	19.995	103.241	20.048	2.969	0.206
55.999	110.181	80.004	19.996	103.248	20.046	3.083	0.189
56.499	110.306	80.004	19.994	103.255	20.046	3.120	0.206
56.999	110.406	80.003	19.995	103.262	20.047	3.036	0.225
57.499	110.484	80.004	19.994	103.263	20.043	3.324	0.201
57.999	110.574	80.005	19.994	103.262	20.046	3.111	0.173
58.499	110.730	80.003	19.994	103.262	20.043	3.321	0.207
58.999	110.828	80.003	19.994	103.261	20.044	3.231	0.250
59.500	110.943	80.004	19.995	103.258	20.045	3.156	0.233
60.000	111.115	80.003	19.995	103.258	20.040	3.490	0.250
60.499	111.155	80.003	19.995	103.258	20.043	3.338	0.250
60.999	111.318	80.003	19.995	103.259	20.040	3.544	0.208
61.499	111.374	80.002	19.995	103.257	20.042	3.385	0.211
62.000	111.509	80.002	19.996	103.258	20.042	3.381	0.205
62.500	111.614	80.003	19.996	103.256	20.042	3.387	0.216
62.999	111.740	80.002	19.996	103.256	20.039	3.600	0.236
63.499	111.860	80.003	19.994	103.257	20.043	3.325	0.238
63.999	112.026	80.003	19.995	103.260	20.041	3.445	0.266
64.499	112.113	80.002	19.996	103.262	20.043	3.284	0.269
64.999	112.313	80.002	19.996	103.263	20.039	3.586	0.270
65.499	112.413	80.002	19.996	103.262	20.040	3.541	0.294
65.999	112.518	80.004	19.996	103.259	20.042	3.372	0.253
66.499	112.701	80.003	19.995	103.256	20.041	3.430	0.247
66.999	112.865	80.002	19.996	103.252	20.041	3.458	0.317
67.499	112.989	80.004	19.996	103.246	20.042	3.393	0.317
67.999	113.076	80.003	19.995	103.242	20.038	3.632	0.249
68.499	113.212	80.003	19.996	103.244	20.043	3.284	0.217
68.999	113.355	80.004	19.995	103.247	20.042	3.400	0.251
69.500	113.532	80.003	19.996	103.250	20.040	3.505	0.300
70.000	113.622	80.004	19.996	103.255	20.043	3.338	0.294
70.499	113.812	80.003	19.996	103.259	20.041	3.449	0.274
70.999	113.951	80.004	19.995	103.260	20.042	3.370	0.304
71.499	114.083	80.003	19.996	103.260	20.042	3.378	0.300
71.999	114.224	80.003	19.995	103.260	20.041	3.427	0.271
72.499	114.325	80.004	19.996	103.261	20.042	3.373	0.257
72.999	114.471	80.004	19.996	103.262	20.042	3.393	0.245
73.499	114.685	80.003	19.995	103.262	20.042	3.408	0.303
73.999	114.815	80.005	19.995	103.262	20.037	3.698	0.352
74.499	114.985	80.003	19.996	103.268	20.038	3.624	0.322
74.999	115.092	80.005	19.995	103.272	20.041	3.446	0.288
75.499	115.287	80.004	19.995	103.272	20.040	3.496	0.290
75.999	115.454	80.004	19.995	103.273	20.037	3.734	0.332
76.499	115.602	80.006	19.995	103.275	20.037	3.708	0.338
76.999	115.738	80.004	19.994	103.271	20.037	3.708	0.299
77.499	115.903	80.005	19.995	103.270	20.038	3.638	0.292
77.999	116.068	80.004	19.995	103.271	20.039	3.588	0.315
78.499	116.251	80.004	19.996	103.269	20.037	3.728	0.339
78.999	116.404	80.004	19.994	103.269	20.038	3.670	0.342
79.499	116.544	80.004	19.996	103.267	20.038	3.682	0.314
79.999	116.731	80.004	19.995	103.264	20.037	3.743	0.310
80.499	116.901	80.003	19.995	103.264	20.036	3.775	0.342
80.999	117.054	80.003	19.995	103.267	20.036	3.799	0.340
81.499	117.275	80.004	19.995	103.274	20.036	3.794	0.348
81.999	117.399	80.003	19.995	103.280	20.036	3.807	0.359
82.499	117.591	80.003	19.995	103.285	20.035	3.863	0.331
82.999	117.809	80.002	19.996	103.288	20.038	3.636	0.363
83.499	117.957	80.003	19.995	103.289	20.036	3.812	0.388
83.999	118.135	80.002	19.995	103.288	20.037	3.726	0.346
84.499	118.306	80.002	19.995	103.286	20.038	3.651	0.337
84.999	118.447	80.002	19.996	103.285	20.035	3.884	0.330
85.499	118.627	80.002	19.995	103.289	20.038	3.623	0.316
85.999	118.807	80.002	19.996	103.292	20.036	3.786	0.340
86.499	118.986	80.003	19.995	103.292	20.040	3.524	0.359
86.999	119.228	80.002	19.995	103.291	20.037	3.760	0.390
87.499	119.375	80.000	19.996	103.288	20.037	3.702	0.405
87.999	119.557	80.001	19.996	103.286	20.039	3.599	0.359
88.499	119.705	80.000	19.995	103.282	20.037	3.707	0.329
88.999	119.926	80.001	19.995	103.280	20.038	3.664	0.349
89.499	120.122	80.001	19.996	103.279	20.038	3.635	0.393
89.999	120.310	80.002	19.996	103.284	20.037	3.726	0.401
90.499	120.492	80.002	19.996	103.284	20.040	3.505	0.377
90.999	120.674	80.001	19.995	103.281	20.039	3.558	0.367
91.499	120.861	80.000	19.996	103.280	20.036	3.809	0.366
91.999	121.064	80.001	19.996	103.278	20.039	3.556	0.379
92.499	121.282	80.000	19.995	103.274	20.037	3.712	0.405
92.999	121.426	80.001	19.996	103.270	20.039	3.575	0.392
93.499	121.626	80.000	19.995	103.270	20.036	3.822	0.353
93.999	121.829	80.002	19.996	103.270	20.037	3.702	0.373
94.499	122.012	80.002	19.996	103.270	20.040	3.513	0.395
94.999	122.215	80.000	19.997	103.271	20.037	3.729	0.386
95.500	122.441	80.000	19.996	103.272	20.036	3.801	0.408
96.000	122.611	80.002	19.996	103.274	20.037	3.757	0.413
96.499	122.812	80.002	19.996	103.273	20.035	3.856	0.384
96.999	122.994	80.001	19.996	103.274	20.034	3.924	0.377
97.499	123.243	80.001	19.996	103.271	20.036	3.826	0.407
97.999	123.408	80.002	19.997	103.270	20.039	3.618	0.423
98.499	123.655	80.001	19.995	103.267	20.038	3.676	0.413
98.999	123.847	80.001	19.996	103.267	20.039	3.608	0.426
99.499	124.062	80.002	19.996	103.269	20.037	3.709	0.423
99.999	124.244	80.002	19.997	103.275	20.038	3.638	0.402
100.499	124.452	80.001	19.996	103.279	20.038	3.670	0.394
100.999	124.684	80.001	19.996	103.280	20.039	3.582	0.415
101.499	124.863	80.001	19.996	103.279	20.039	3.593	0.425
101.999	125.073	80.002	19.996	103.279	20.034	3.900	0.400
102.499	125.291	80.002	19.996	103.280	20.034	3.947	0.408
103.000	125.474	80.001	19.996	103.277	20.036	3.784	0.415
103.500	125.719	80.003	19.997	103.254	20.038	3.681	0.415
103.999	125.897	80.002	19.996	103.236	20.037	3.747	0.426
104.499	126.103	80.002	19.995	103.223	20.036	3.816	0.404
104.999	126.325	80.001	19.995	103.215	20.033	3.993	0.406
105.500	126.531	80.001	19.996	103.243	20.035	3.832	0.428
106.001	126.735	80.002	19.996	103.289	20.038	3.635	0.418
106.500	126.967	80.001	19.996	103.319	20.037	3.753	0.423
106.999	127.213	80.001	19.994	103.338	20.037	3.749	0.458
107.499	127.381	80.001	19.994	103.342	20.031	4.122	0.446
107.999	127.553	80.001	19.995	103.312	20.034	3.903	0.377
108.499	127.821	80.002	19.995	103.290	20.033	3.972	0.390
108.999	128.037	80.001	19.994	103.279	20.036	3.828	0.462
109.499	128.254	80.002	19.994	103.272	20.035	3.884	0.458
109.999	128.432	80.000	19.995	103.271	20.034	3.907	0.414
110.499	128.639	80.002	19.995	103.271	20.034	3.952	0.390
110.999	128.872	80.001	19.994	103.270	20.033	4.019	0.413
111.499	129.065	80.000	19.994	103.270	20.034	3.959	0.433
111.999	129.328	80.001	19.994	103.270	20.034	3.914	0.441
112.499	129.538	80.000	19.997	103.270	20.034	3.942	0.465
112.999	129.773	80.001	19.994	103.270	20.034	3.940	0.459
113.499	129.965	80.000	19.994	103.270	20.033	3.989	0.436
113.999	130.165	80.002	19.994	103.269	20.032	4.073	0.409
114.499	130.391	80.001	19.994	103.271	20.035	3.857	0.409
114.999	130.619	80.000	19.996	103.275	20.034	3.946	0.441
115.499	130.807	80.001	19.996	103.283	20.034	3.906	0.435
115.999	131.034	80.000	19.996	103.291	20.033	4.007	0.415
116.499	131.281	80.001	19.996	103.297	20.034	3.908	0.444
117.000	131.524	80.001	19.996	103.298	20.033	3.996	0.482
117.500	131.720	80.001	19.995	103.298	20.038	3.677	0.464
117.999	131.954	80.001	19.996	103.296	20.036	3.797	0.435
118.499	132.141	80.000	19.995	103.296	20.033	3.996	0.426
118.999	132.361	80.001	19.995	103.296	20.037	3.733	0.414
119.499	132.594	80.000	19.995	103.297	20.032	4.037	0.430
119.999	132.853	80.001	19.994	103.297	20.034	3.904	0.473
120.499	133.052	80.001	19.995	103.297	20.032	4.057	0.475
120.999	133.270	80.001	19.994	103.296	20.032	4.071	0.437
121.499	133.466	80.001	19.995	103.292	20.033	4.011	0.415
122.000	133.718	80.001	19.995	103.289	20.035	3.874	0.431
122.500	133.941	80.002	19.994	103.283	20.033	3.991	0.462
122.999	134.160	80.000	19.994	103.279	20.033	4.032	0.458
123.499	134.342	80.000	19.997	103.272	20.032	4.079	0.421
123.999	134.620	80.001	19.995	103.272	20.036	3.811	0.430
124.499	134.796	80.002	19.996	103.276	20.033	4.021	0.457
124.999	135.022	80.001	19.995	103.279	20.032	4.039	0.428
125.499	135.287	80.000	19.994	103.278	20.035	3.850	0.446
125.999	135.513	80.003	19.996	103.281	20.034	3.951	0.491
126.499	135.763	80.002	19.997	103.282	20.035	3.874	0.484
126.999	135.973	80.002	19.996	103.276	20.033	4.007	0.468
127.499	136.176	80.002	19.996	103.274	20.029	4.250	0.436
127.999	136.448	80.002	19.995	103.273	20.031	4.168	0.444
128.500	136.668	80.003	19.996	103.269	20.034	3.945	0.483
129.000	136.900	80.002	19.995	103.266	20.032	4.072	0.472
129.500	137.134	80.002	19.994	103.267	20.032	4.082	0.459
130.000	137.373	80.003	19.994	103.265	20.029	4.294	0.469
130.500	137.610	80.002	19.995	103.266	20.031	4.121	0.474
131.000	137.856	80.004	19.994	103.266	20.032	4.093	0.480
131.500	138.042	80.001	19.995	103.265	20.030	4.215	0.457
132.000	138.290	80.002	19.996	103.268	20.031	4.151	0.433
132.500	138.512	80.002	19.994	103.275	20.032	4.093	0.452
133.000	138.740	80.003	19.995	103.277	20.031	4.151	0.460
133.500	139.011	80.004	19.995	103.280	20.029	4.267	0.474
134.000	139.234	80.002	19.995	103.286	20.032	4.081	0.497
134.500	139.457	80.002	19.994	103.286	20.028	4.324	0.470
135.000	139.675	80.003	19.995	103.282	20.029	4.286	0.444
135.500	139.933	80.003	19.995	103.281	20.028	4.329	0.459
136.000	140.145	80.002	19.995	103.278	20.026	4.509	0.473
136.500	140.374	80.004	19.995	103.273	20.028	4.346	0.456
137.000	140.638	80.003	19.995	103.270	20.026	4.477	0.467
137.500	140.893	80.004	19.994	103.266	20.024	4.608	0.505
138.000	141.090	80.004	19.993	103.262	20.025	4.539	0.485
138.500	141.349	80.003	19.995	103.257	20.026	4.477	0.454
139.000	141.583	80.003	19.995	103.256	20.027	4.446	0.475
139.500	141.820	80.003	19.994	103.256	20.027	4.402	0.482
140.000	142.049	80.002	19.994	103.256	20.027	4.380	0.468
140.500	142.289	80.002	19.995	103.259	20.026	4.475	0.468
141.000	142.506	80.002	19.994	103.267	20.025	4.559	0.463
141.500	142.772	80.003	19.994	103.269	20.026	4.469	0.470
142.000	143.009	80.004	19.995	103.269	20.025	4.542	0.493
142.500	143.215	80.004	19.995	103.270	20.025	4.537	0.473
143.000	143.453	80.003	19.994	103.272	20.023	4.685	0.444
143.500	143.710	80.004	19.995	103.270	20.023	4.670	0.470
144.000	143.927	80.002	19.994	103.269	20.026	4.478	0.485
144.500	144.170	80.004	19.996	103.268	20.025	4.565	0.467
145.000	144.421	80.003	19.995	103.253	20.023	4.664	0.477
145.500	144.645	80.002	19.995	103.231	20.024	4.608	0.484
146.000	144.909	80.003	19.995	103.223	20.026	4.468	0.481
146.500	145.133	80.002	19.995	103.223	20.027	4.408	0.488
147.000	145.367	80.002	19.995	103.226	20.024	4.629	0.473
147.500	145.618	80.002	19.996	103.266	20.025	4.554	0.471
148.000	145.864	80.002	19.995	103.302	20.026	4.513	0.491
148.500	146.084	80.003	19.995	103.311	20.025	4.569	0.482
149.000	146.330	80.002	19.995	103.312	20.026	4.516	0.466
149.500	146.569	80.003	19.995	103.309	20.025	4.522	0.476
150.000	146.772	80.001	19.994	103.283	20.024	4.604	0.464
150.500	147.027	80.002	19.995	103.267	20.026	4.505	0.450
151.000	147.247	80.002	19.994	103.265	20.026	4.503	0.466
151.500	147.505	80.002	19.996	103.263	20.025	4.550	0.476
152.000	147.771	80.002	19.996	103.263	20.024	4.645	0.501
152.500	147.995	80.003	19.996	103.263	20.023	4.698	0.507
153.000	148.273	80.004	19.995	103.263	20.024	4.608	0.496
153.500	148.498	80.003	19.996	103.264	20.026	4.484	0.502
154.000	148.739	80.001	19.995	103.263	20.026	4.514	0.484
154.500	148.932	80.003	19.995	103.257	20.026	4.491	0.450
155.000	149.187	80.002	19.995	103.256	20.025	4.519	0.441
155.500	149.434	80.002	19.996	103.259	20.024	4.641	0.475
156.000	149.694	80.004	19.995	103.259	20.023	4.667	0.504
156.500	149.922	80.002	19.996	103.261	20.024	4.613	0.497
157.000	150.167	80.003	19.995	103.266	20.025	4.576	0.481
157.500	150.437	80.003	19.994	103.267	20.024	4.617	0.494
158.000	150.613	80.003	19.995	103.265	20.025	4.573	0.480
158.500	150.891	80.003	19.995	103.264	20.024	4.601	0.450
159.000	151.114	80.004	19.995	103.265	20.025	4.574	0.478
159.500	151.355	80.004	19.995	103.265	20.026	4.514	0.483
160.000	151.611	80.003	19.994	103.265	20.023	4.690	0.481
160.500	151.850	80.003	19.996	103.265	20.025	4.529	0.496
161.000	152.084	80.004	19.995	103.266	20.024	4.604	0.484
161.500	152.300	80.004	19.995	103.265	20.021	4.825	0.462
162.000	152.560	80.004	19.996	103.265	20.020	4.881	0.463
162.500	152.797	80.005	19.995	103.262	20.022	4.741	0.486
163.000	153.037	80.004	19.994	103.259	20.023	4.675	0.487
163.500	153.279	80.003	19.995	103.255	20.020	4.879	0.479
164.000	153.533	80.003	19.996	103.255	20.023	4.715	0.489
164.500	153.739	80.002	19.995	103.254	20.021	4.808	0.478
165.000	154.009	80.003	19.995	103.251	20.022	4.724	0.468
165.500	154.231	80.003	19.996	103.246	20.021	4.814	0.484
166.000	154.449	80.003	19.994	103.249	20.021	4.842	0.466
166.500	154.716	80.003	19.995	103.250	20.020	4.879	0.462
167.000	154.941	80.002	19.994	103.250	20.019	4.977	0.489
167.500	155.158	80.000	19.995	103.256	20.017	5.095	0.467
168.000	155.424	80.001	19.996	103.264	20.019	4.934	0.462
168.500	155.654	80.000	19.996	103.265	20.021	4.797	0.489
169.000	155.895	80.001	19.995	103.265	20.018	5.028	0.484
169.500	156.133	80.001	19.995	103.263	20.018	5.018	0.476
170.000	156.385	80.001	19.995	103.261	20.018	5.038	0.485
170.500	156.593	80.001	19.996	103.259	20.016	5.183	0.475
171.000	156.875	80.002	19.995	103.259	20.014	5.312	0.475
171.500	157.118	80.001	19.996	103.258	20.015	5.216	0.508
172.000	157.341	80.000	19.996	103.259	20.017	5.080	0.496
172.500	157.627	80.001	19.996	103.258	20.016	5.160	0.488
173.000	157.835	80.000	19.995	103.257	20.015	5.247	0.501
173.500	158.063	80.001	19.995	103.256	20.016	5.196	0.465
174.000	158.305	79.999	19.996	103.258	20.012	5.434	0.453
174.500	158.529	80.000	19.995	103.258	20.015	5.267	0.468
175.000	158.756	79.999	19.995	103.261	20.014	5.284	0.458
175.500	159.053	80.001	19.997	103.263	20.015	5.259	0.488
176.000	159.265	79.998	19.996	103.264	20.012	5.443	0.517
176.500	159.498	80.001	19.995	103.259	20.015	5.210	0.477
177.000	159.719	80.001	19.995	103.254	20.014	5.274	0.450
177.500	160.011	80.001	19.996	103.254	20.010	5.551	0.484
178.000	160.235	80.001	19.997	103.254	20.008	5.697	0.514
178.500	160.522	80.001	19.995	103.255	20.009	5.666	0.513
179.000	160.755	80.000	19.996	103.259	20.006	5.846	0.516
179.500	160.981	80.001	19.996	103.263	20.007	5.806	0.489
180.000	161.247	80.000	19.995	103.264	20.008	5.690	0.476
180.500	161.501	80.002	19.994	103.258	20.007	5.805	0.506
181.000	161.738	80.000	19.995	103.255	20.007	5.765	0.506
181.500	161.935	80.002	19.995	103.255	20.007	5.780	0.462
182.000	162.185	79.999	19.996	103.253	20.006	5.883	0.440
182.500	162.429	80.002	19.997	103.252	20.006	5.857	0.471
183.000	162.709	80.000	19.996	103.256	20.004	5.975	0.509
183.500	162.916	80.001	19.996	103.259	20.004	5.996	0.505
184.000	163.170	80.000	19.997	103.258	20.003	6.091	0.474
184.500	163.411	79.999	19.996	103.260	20.005	5.945	0.478
185.000	163.699	80.000	19.996	103.262	20.005	5.917	0.512
185.500	163.904	80.000	19.995	103.262	20.001	6.230	0.511
186.000	164.154	80.000	19.997	103.260	20.002	6.145	0.474
186.500	164.388	80.000	19.996	103.254	20.004	6.014	0.469
187.000	164.658	80.000	19.997	103.249	20.002	6.166	0.494
187.500	164.898	80.000	19.996	103.248	20.000	6.265	0.507
188.000	165.186	80.000	19.995	103.245	20.002	6.104	0.519
188.500	165.432	80.001	19.995	103.245	20.002	6.134	0.531
189.000	165.652	80.000	19.996	103.248	20.001	6.226	0.500
189.500	165.874	80.002	19.995	103.253	20.000	6.267	0.454
190.000	166.134	80.000	19.996	103.254	20.003	6.081	0.462
190.500	166.380	80.001	19.996	103.254	19.999	6.332	0.494
191.000	166.615	80.001	19.995	103.256	20.004	6.012	0.494
191.500	166.891	80.000	19.995	103.259	20.000	6.273	0.496
192.000	167.096	80.001	19.997	103.260	20.000	6.280	0.496
192.500	167.363	79.999	19.996	103.257	19.997	6.473	0.476
193.000	167.581	80.000	19.997	103.260	19.997	6.483	0.478
193.500	167.796	80.000	19.996	103.260	20.000	6.256	0.459
194.000	168.098	80.003	19.995	103.260	19.996	6.546	0.476
194.500	168.332	80.000	19.995	103.259	19.997	6.506	0.526
195.000	168.560	80.000	19.995	103.258	19.998	6.382	0.498
195.500	168.807	80.001	19.996	103.257	19.996	6.542	0.468
196.000	169.079	79.998	19.996	103.258	19.993	6.778	0.497
196.500	169.327	79.999	19.997	103.254	19.995	6.627	0.520
197.000	169.620	80.000	19.996	103.254	19.996	6.555	0.531
197.500	169.847	80.000	19.996	103.254	19.994	6.696	0.530
198.000	170.084	79.999	19.996	103.250	19.992	6.836	0.492
198.500	170.327	80.000	19.996	103.251	19.995	6.643	0.472
199.000	170.568	80.000	19.995	103.254	19.992	6.820	0.482
199.500	170.817	79.998	19.995	103.252	19.990	6.933	0.487
200.000	171.064	80.000	19.995	103.251	19.991	6.862	0.494
200.500	171.333	80.001	19.993	103.253	19.991	6.864	0.507
201.000	171.547	79.999	19.996	103.249	19.991	6.883	0.499
201.500	171.835	79.999	19.996	103.245	19.989	7.044	0.492
202.000	172.071	80.000	19.995	103.248	19.990	6.941	0.513
202.500	172.315	80.000	19.997	103.252	19.988	7.065	0.502
203.000	172.550	80.000	19.995	103.254	19.986	7.201	0.480
203.500	172.809	80.000	19.996	103.255	19.990	6.986	0.487
204.000	173.071	80.000	19.995	103.256	19.989	7.059	0.508
204.500	173.323	79.998	19.997	103.251	19.987	7.133	0.517
205.000	173.562	80.000	19.995	103.246	19.988	7.099	0.502
205.500	173.829	79.999	19.995	103.242	19.986	7.232	0.499
206.000	174.046	80.001	19.994	103.240	19.985	7.280	0.495
206.500	174.229	80.001	19.995	103.244	19.986	7.232	0.442
207.000	174.539	80.000	19.995	103.249	19.985	7.293	0.447
207.500	174.779	80.000	19.995	103.253	19.985	7.318	0.521
208.000	175.031	80.001	19.995	103.252	19.988	7.127	0.521
208.500	175.264	80.002	19.995	103.248	19.984	7.342	0.488
209.000	175.507	80.000	19.995	103.242	19.986	7.247	0.480
209.500	175.786	80.001	19.995	103.240	19.981	7.571	0.499
210.000	175.968	80.001	19.994	103.234	19.981	7.564	0.492
210.500	176.253	80.001	19.995	103.233	19.981	7.554	0.465
211.000	176.485	80.002	19.994	103.237	19.982	7.526	0.492
211.500	176.745	80.001	19.995	103.242	19.978	7.770	0.504
212.000	177.010	80.000	19.996	103.243	19.981	7.588	0.508
212.500	177.236	80.002	19.995	103.242	19.978	7.818	0.508
213.000	177.484	80.002	19.994	103.245	19.978	7.809	0.483
213.500	177.744	80.002	19.996	103.248	19.976	7.925	0.491
214.000	178.028	80.003	19.995	103.246	19.977	7.824	0.525
214.500	178.268	80.002	19.993	103.242	19.975	7.962	0.533
215.000	178.491	80.002	19.994	103.241	19.978	7.805	0.493
215.500	178.735	80.003	19.995	103.236	19.976	7.911	0.465
216.000	179.025	80.001	19.995	103.229	19.974	8.044	0.501
216.500	179.199	80.002	19.993	103.226	19.974	8.086	0.499
217.000	179.511	80.001	19.995	103.225	19.974	8.078	0.475
217.500	179.763	80.002	19.995	103.225	19.969	8.426	0.525
218.000	179.988	80.003	19.994	103.225	19.973	8.129	0.520
218.500	180.252	80.002	19.995	103.226	19.971	8.256	0.483
219.000	180.505	80.003	19.994	103.227	19.970	8.329	0.503
219.500	180.750	80.002	19.995	103.228	19.970	8.368	0.507
220.000	180.964	80.002	19.995	103.231	19.970	8.337	0.478
220.500	181.252	80.003	19.995	103.234	19.969	8.408	0.481
221.000	181.466	80.003	19.993	103.235	19.966	8.590	0.502
221.500	181.744	80.002	19.995	103.235	19.966	8.610	0.497
222.000	181.977	80.002	19.995	103.235	19.967	8.573	0.502
222.500	182.267	80.002	19.995	103.235	19.963	8.792	0.517
223.000	182.481	80.003	19.995	103.235	19.962	8.904	0.514
223.500	182.720	80.002	19.994	103.234	19.962	8.913	0.478
224.000	182.986	80.002	19.995	103.232	19.964	8.749	0.479
224.500	183.229	80.003	19.994	103.233	19.959	9.076	0.507
225.000	183.467	80.002	19.995	103.231	19.962	8.885	0.495
225.500	183.681	80.002	19.995	103.228	19.960	9.007	0.467
226.000	183.965	80.001	19.994	103.228	19.960	8.996	0.475
226.500	184.188	80.002	19.995	103.228	19.960	9.043	0.502
227.000	184.419	80.002	19.995	103.228	19.956	9.307	0.480
227.500	184.688	80.002	19.995	103.227	19.956	9.331	0.477
228.000	184.941	80.001	19.995	103.228	19.952	9.591	0.511
228.500	185.193	80.002	19.996	103.228	19.954	9.410	0.513
229.000	185.437	80.003	19.994	103.228	19.950	9.691	0.500
229.500	185.679	80.003	19.995	103.228	19.953	9.528	0.491
230.000	185.931	80.001	19.996	103.228	19.952	9.581	0.490
230.500	186.169	80.002	19.995	103.228	19.949	9.770	0.492
231.000	186.431	80.003	19.996	103.230	19.950	9.702	0.495
231.500	186.683	80.003	19.995	103.230	19.953	9.526	0.507
232.000	186.948	80.002	19.994	103.230	19.951	9.670	0.515
232.500	187.205	80.001	19.994	103.229	19.950	9.730	0.519
233.000	187.426	80.000	19.995	103.229	19.942	10.282	0.500
233.500	187.682	80.003	19.993	103.228	19.945	10.061	0.478
234.000	187.924	80.003	19.992	103.227	19.946	9.971	0.488
234.500	188.133	80.001	19.993	103.227	19.943	10.159	0.475
235.000	188.416	80.003	19.993	103.229	19.941	10.297	0.471
235.500	188.655	80.002	19.993	103.229	19.942	10.234	0.507
236.000	188.876	80.003	19.993	103.229	19.941	10.363	0.491
236.500	189.140	80.003	19.995	103.231	19.943	10.174	0.473
237.000	189.371	80.003	19.995	103.231	19.941	10.299	0.490
237.500	189.612	80.003	19.993	103.230	19.943	10.192	0.483
238.000	189.876	80.004	19.994	103.230	19.939	10.452	0.489
238.500	190.125	80.005	19.993	103.229	19.937	10.578	0.509
239.000	190.359	80.004	19.994	103.228	19.938	10.538	0.498
239.500	190.634	80.004	19.994	103.228	19.936	10.707	0.496
240.000	190.877	80.003	19.993	103.234	19.935	10.717	0.513
240.500	191.125	80.005	19.993	103.236	19.935	10.771	0.504
241.000	191.349	80.005	19.994	103.236	19.933	10.899	0.481
241.500	191.552	80.003	19.994	103.237	19.933	10.856	0.450
242.000	191.828	80.004	19.994	103.236	19.932	10.981	0.453
242.500	192.059	80.003	19.994	103.230	19.930	11.112	0.493
243.000	192.311	80.003	19.994	103.226	19.930	11.115	0.494
243.500	192.572	80.003	19.994	103.226	19.926	11.349	0.498
244.000	192.820	80.004	19.994	103.226	19.929	11.145	0.511
244.500	193.038	80.004	19.995	103.225	19.926	11.345	0.488
245.000	193.333	80.004	19.995	103.226	19.927	11.312	0.490
245.500	193.561	80.004	19.994	103.228	19.924	11.473	0.517
246.000	193.785	80.003	19.995	103.228	19.922	11.654	0.487
246.500	194.078	80.003	19.995	103.230	19.924	11.467	0.485
247.000	194.290	80.002	19.996	103.231	19.921	11.735	0.511
247.500	194.521	80.002	19.995	103.231	19.919	11.835	0.474
248.000	194.791	80.002	19.996	103.230	19.920	11.764	0.472
248.500	195.044	80.002	19.995	103.228	19.918	11.944	0.512
249.000	195.252	80.002	19.994	103.225	19.918	11.885	0.492
249.500	195.517	80.002	19.994	103.224	19.920	11.789	0.467
250.000	195.761	80.003	19.996	103.224	19.919	11.870	0.491
250.500	195.994	80.003	19.994	103.225	19.919	11.861	0.493
251.000	196.282	80.000	19.995	103.227	19.915	12.112	0.499
251.500	196.514	80.001	19.997	103.232	19.911	12.363	0.521
252.000	196.735	80.000	19.997	103.234	19.913	12.260	0.487
252.500	196.979	80.000	19.996	103.234	19.912	12.331	0.459
253.000	197.236	80.002	19.994	103.234	19.912	12.308	0.483
253.500	197.474	80.000	19.996	103.232	19.911	12.364	0.498
254.000	197.728	80.002	19.995	103.227	19.907	12.686	0.493
254.500	197.959	80.001	19.995	103.225	19.907	12.665	0.488
255.000	198.218	79.999	19.996	103.225	19.907	12.694	0.488
255.500	198.482	80.000	19.997	103.224	19.908	12.606	0.506
256.000	198.738	80.001	19.995	103.226	19.905	12.788	0.521
256.500	198.963	79.999	19.996	103.226	19.903	12.956	0.501
257.000	199.206	80.001	19.995	103.224	19.901	13.099	0.475
257.500	199.444	80.001	19.994	103.223	19.900	13.129	0.475
258.000	199.686	80.001	19.995	103.222	19.898	13.263	0.480
258.500	199.930	80.000	19.996	103.220	19.899	13.218	0.483
259.000	200.205	80.000	19.995	103.220	19.897	13.355	0.502
259.500	200.431	80.000	19.997	103.222	19.896	13.403	0.510
260.000	200.659	80.001	19.994	103.223	19.898	13.319	0.477
260.500	200.905	80.000	19.996	103.223	19.894	13.589	0.464
261.000	201.150	80.002	19.995	103.225	19.896	13.433	0.483
261.500	201.438	80.001	19.995	103.228	19.892	13.673	0.512
262.000	201.677	80.001	19.996	103.230	19.892	13.673	0.530
262.500	201.904	80.003	19.995	103.230	19.893	13.624	0.497
263.000	202.155	80.000	19.994	103.230	19.888	14.010	0.472
263.500	202.412	80.001	19.995	103.228	19.886	14.145	0.493
264.000	202.676	80.001	19.995	103.226	19.887	14.079	0.515
264.500	202.931	80.003	19.995	103.224	19.882	14.384	0.520
265.000	203.162	80.002	19.995	103.224	19.880	14.558	0.502
265.500	203.380	80.001	19.996	103.224	19.881	14.453	0.467
266.000	203.641	80.004	19.994	103.225	19.881	14.434	0.464
266.500	203.916	80.002	19.996	103.227	19.878	14.678	0.507
267.000	204.162	80.002	19.995	103.229	19.876	14.820	0.529
267.500	204.403	80.001	19.995	103.229	19.875	14.893	0.504
268.000	204.653	80.002	19.995	103.230	19.876	14.834	0.489
268.500	204.922	80.002	19.995	103.229	19.873	15.032	0.505
269.000	205.160	80.002	19.995	103.227	19.869	15.276	0.513
269.500	205.435	80.002	19.995	103.226	19.873	15.032	0.510
270.000	205.691	80.000	19.995	103.225	19.869	15.253	0.522
270.500	205.894	80.002	19.996	103.224	19.869	15.293	0.495
271.000	206.147	80.002	19.995	103.225	19.862	15.774	0.458
271.500	206.415	80.002	19.994	103.225	19.863	15.716	0.488
272.000	206.666	80.002	19.995	103.225	19.858	16.069	0.520
272.500	206.911	80.002	19.995	103.225	19.859	16.007	0.508
273.000	207.168	80.001	19.996	103.225	19.857	16.103	0.499
273.500	207.427	80.000	19.996	103.225	19.859	15.992	0.509
274.000	207.654	80.002	19.995	103.225	19.852	16.462	0.501
274.500	207.911	80.001	19.994	103.224	19.852	16.456	0.485
275.000	208.166	80.003	19.994	103.224	19.853	16.405	0.498
275.500	208.410	80.000	19.995	103.224	19.849	16.669	0.506
276.000	208.677	80.002	19.995	103.223	19.851	16.547	0.505
276.500	208.912	80.001	19.995	103.221	19.849	16.636	0.506
277.000	209.146	80.001	19.995	103.220	19.846	16.874	0.485
277.500	209.378	80.001	19.995	103.220	19.845	16.913	0.467
278.000	209.663	80.001	19.996	103.220	19.846	16.838	0.492
278.500	209.910	80.000	19.996	103.220	19.843	17.075	0.525
279.000	210.132	80.001	19.995	103.223	19.840	17.294	0.500
279.500	210.384	80.000	19.995	103.225	19.842	17.170	0.471
280.000	210.657	80.001	19.996	103.225	19.837	17.494	0.500
280.500	210.911	80.001	19.996	103.225	19.834	17.674	0.526
281.000	211.119	80.000	19.995	103.225	19.833	17.791	0.494
281.500	211.398	79.998	19.996	103.225	19.830	17.937	0.475
282.000	211.649	80.000	19.995	103.227	19.830	17.943	0.508
282.500	211.882	80.000	19.997	103.228	19.828	18.109	0.507
283.000	212.100	79.999	19.996	103.229	19.824	18.381	0.467
283.500	212.368	80.000	19.994	103.232	19.827	18.158	0.468
284.000	212.608	80.001	19.995	103.232	19.822	18.510	0.497
284.500	212.854	79.999	19.995	103.230	19.822	18.527	0.497
285.000	213.106	79.999	19.997	103.229	19.821	18.579	0.493
285.500	213.356	80.000	19.996	103.227	19.819	18.757	0.500
286.000	213.603	79.999	19.996	103.225	19.817	18.837	0.499
286.500	213.856	80.000	19.996	103.226	19.814	19.039	0.498
287.000	214.097	79.999	19.997	103.227	19.817	18.876	0.497
287.500	214.331	80.000	19.996	103.228	19.815	18.992	0.484
288.000	214.605	79.999	19.997	103.228	19.812	19.209	0.492
288.500	214.873	79.999	19.997	103.228	19.810	19.341	0.525
289.000	215.102	80.000	19.996	103.226	19.808	19.504	0.519
289.500	215.362	80.001	19.997	103.222	19.806	19.600	0.493
290.000	215.593	80.000	19.996	103.222	19.803	19.860	0.490
290.500	215.858	80.001	19.996	103.222	19.803	19.807	0.493
291.000	216.068	80.001	19.996	103.222	19.802	19.886	0.485
291.500	216.345	80.001	19.995	103.224	19.803	19.852	0.481
292.000	216.609	80.000	19.996	103.227	19.797	20.243	0.514
292.500	216.825	79.999	19.995	103.227	19.797	20.230	0.510
293.000	217.109	80.002	19.995	103.227	19.789	20.770	0.490
293.500	217.328	80.001	19.995	103.227	19.790	20.705	0.502
294.000	217.606	80.003	19.994	103.227	19.790	20.705	0.500
294.500	217.865	80.002	19.994	103.227	19.789	20.823	0.517
295.000	218.097	80.001	19.996	103.226	19.787	20.939	0.514
295.500	218.325	80.002	19.994	103.226	19.786	21.002	0.475
296.000	218.570	80.004	19.995	103.226	19.784	21.122	0.466
296.500	218.822	80.002	19.995	103.226	19.785	21.060	0.485
297.000	219.044	80.003	19.995	103.225	19.778	21.531	0.486
297.500	219.307	80.002	19.996	103.224	19.777	21.624	0.479
298.000	219.548	80.002	19.994	103.223	19.777	21.600	0.494
298.500	219.790	80.003	19.994	103.222	19.772	21.941	0.494
299.000	220.046	80.002	19.995	103.222	19.775	21.772	0.491
299.500	220.299	80.002	19.993	103.224	19.772	21.944	0.504
300.000	220.537	80.003	19.995	103.225	19.770	22.129	0.500
300.500	220.809	80.001	19.995	103.226	19.768	22.212	0.500
301.000	221.042	80.002	19.994	103.227	19.765	22.431	0.507
301.500	221.303	80.002	19.995	103.225	19.765	22.427	0.500
302.000	221.559	80.002	19.994	103.223	19.764	22.500	0.506
302.500	221.783	80.001	19.995	103.224	19.761	22.742	0.498
303.000	222.040	80.002	19.995	103.224	19.760	22.807	0.480
303.500	222.280	80.002	19.995	103.224	19.758	22.949	0.490
304.000	222.530	80.000	19.996	103.226	19.757	22.994	0.494
304.500	222.793	80.001	19.994	103.227	19.754	23.163	0.501
305.000	223.069	80.002	19.995	103.228	19.754	23.229	0.526
305.500	223.300	80.002	19.993	103.227	19.751	23.414	0.523
306.000	223.538	80.002	19.995	103.227	19.748	23.586	0.488
306.500	223.762	80.002	19.995	103.228	19.747	23.650	0.465
307.000	224.043	80.001	19.996	103.228	19.745	23.793	0.484
307.500	224.263	80.001	19.995	103.228	19.745	23.793	0.503
308.000	224.503	80.003	19.995	103.228	19.740	24.175	0.480
308.500	224.770	80.002	19.995	103.228	19.742	24.046	0.483
309.000	225.033	80.001	19.994	103.228	19.737	24.347	0.519
309.500	225.280	80.002	19.995	103.228	19.736	24.454	0.520
310.000	225.499	80.003	19.993	103.229	19.734	24.604	0.488
310.500	225.761	80.003	19.995	103.227	19.735	24.490	0.474
311.000	226.011	80.001	19.996	103.226	19.735	24.529	0.497
311.500	226.284	80.001	19.996	103.225	19.731	24.808	0.518
312.000	226.529	80.003	19.996	103.225	19.729	24.933	0.520
312.500	226.755	80.001	19.996	103.224	19.728	24.969	0.495
313.000	227.036	80.003	19.995	103.226	19.726	25.098	0.489
313.500	227.253	80.002	19.995	103.226	19.722	25.392	0.502
314.000	227.515	80.002	19.996	103.225	19.722	25.413	0.489
314.500	227.775	80.002	19.994	103.223	19.718	25.685	0.500
315.000	228.015	80.003	19.995	103.222	19.721	25.486	0.511
315.500	228.271	80.003	19.995	103.218	19.714	25.976	0.498
316.000	228.517	80.003	19.996	103.218	19.713	26.049	0.499
316.500	228.774	80.004	19.996	103.218	19.711	26.128	0.503
317.000	229.019	80.003	19.996	103.219	19.710	26.225	0.503
317.500	229.300	80.004	19.994	103.221	19.709	26.315	0.514
318.000	229.527	80.006	19.995	103.222	19.708	26.343	0.517
318.500	229.785	80.004	19.995	103.221	19.705	26.560	0.497
319.000	230.023	80.003	19.995	103.222	19.705	26.548	0.490
319.500	230.298	80.003	19.995	103.221	19.701	26.822	0.504
320.000	230.530	80.004	19.994	103.221	19.700	26.917	0.510
320.500	230.804	80.004	19.994	103.223	19.699	26.966	0.506
321.000	231.051	80.005	19.995	103.223	19.695	27.290	0.513
321.500	231.287	80.004	19.995	103.223	19.697	27.120	0.502
322.000	231.548	80.002	19.995	103.223	19.693	27.409	0.490
322.500	231.780	80.005	19.996	103.223	19.689	27.641	0.495
323.000	232.047	80.003	19.994	103.222	19.692	27.454	0.496
323.500	232.307	80.003	19.994	103.221	19.690	27.621	0.513
324.000	232.542	80.004	19.994	103.221	19.686	27.864	0.511
324.500	232.807	80.004	19.996	103.222	19.685	27.961	0.498
325.000	233.030	80.005	19.993	103.222	19.684	28.035	0.494
325.500	233.295	80.004	19.995	103.223	19.680	28.276	0.488
326.000	233.506	80.005	19.994	103.222	19.681	28.254	0.482
326.500	233.768	80.006	19.993	103.221	19.675	28.615	0.474
327.000	234.062	80.004	19.995	103.221	19.675	28.603	0.514
327.500	234.274	80.005	19.994	103.220	19.672	28.812	0.531
328.000	234.511	80.004	19.995	103.220	19.670	28.952	0.478
328.500	234.772	80.005	19.996	103.221	19.671	28.939	0.474
329.000	235.014	80.004	19.995	103.220	19.666	29.250	0.500
329.500	235.266	80.004	19.995	103.219	19.665	29.300	0.498
330.000	235.500	80.005	19.995	103.218	19.660	29.649	0.490
330.500	235.745	80.004	19.994	103.217	19.658	29.794	0.483
331.000	236.014	80.004	19.995	103.217	19.659	29.735	0.497
331.500	236.229	80.004	19.993	103.219	19.657	29.884	0.499
332.000	236.510	80.005	19.995	103.220	19.656	29.936	0.490
332.500	236.759	80.002	19.993	103.221	19.653	30.124	0.513
333.000	236.971	80.002	19.995	103.223	19.651	30.273	0.495
333.500	237.212	80.003	19.994	103.223	19.646	30.615	0.457
334.000	237.471	80.002	19.996	103.222	19.646	30.664	0.477
334.500	237.751	80.003	19.995	103.223	19.642	30.879	0.519
335.000	237.974	80.000	19.995	103.223	19.640	31.011	0.521
335.500	238.252	80.002	19.995	103.223	19.638	31.195	0.502
336.000	238.516	80.003	19.995	103.223	19.638	31.154	0.521
336.500	238.735	80.002	19.996	103.223	19.635	31.382	0.512
337.000	238.992	80.001	19.995	103.224	19.635	31.388	0.480
337.500	239.246	80.003	19.995	103.222	19.634	31.474	0.494
338.000	239.458	80.001	19.995	103.222	19.630	31.721	0.489
338.500	239.706	80.002	19.995	103.223	19.630	31.720	0.463
339.000	239.977	80.002	19.994	103.223	19.628	31.872	0.490
339.500	240.212	80.001	19.995	103.224	19.628	31.880	0.512
340.000	240.454	80.002	19.996	103.226	19.623	32.192	0.491
340.500	240.737	80.001	19.995	103.223	19.619	32.494	0.501
341.000	240.927	80.002	19.994	103.219	19.621	32.320	0.499
341.500	241.209	80.000	19.995	103.214	19.617	32.614	0.473
342.000	241.441	80.000	19.994	103.210	19.611	33.014	0.493
342.500	241.703	80.001	19.996	103.209	19.611	33.011	0.504
343.000	241.896	80.001	19.996	103.212	19.609	33.149	0.475
343.500	242.159	80.001	19.996	103.215	19.608	33.232	0.456
344.000	242.372	80.002	19.994	103.221	19.604	33.522	0.466
344.500	242.664	80.002	19.995	103.224	19.607	33.300	0.490
345.000	242.940	80.000	19.997	103.224	19.604	33.549	0.536
345.500	243.191	80.000	19.996	103.225	19.600	33.800	0.547
346.000	243.422	80.002	19.996	103.226	19.598	33.949	0.505
346.500	243.654	80.001	19.997	103.224	19.596	34.090	0.473
347.000	243.887	80.000	19.996	103.222	19.593	34.265	0.464
347.500	244.162	80.000	19.996	103.222	19.590	34.487	0.486
348.000	244.370	80.001	19.995	103.222	19.589	34.540	0.496
348.500	244.659	80.003	19.996	103.222	19.585	34.866	0.490
349.000	244.835	80.002	19.997	103.224	19.585	34.866	0.480
349.500	245.138	80.002	19.996	103.225	19.577	35.355	0.472
350.000	245.380	80.001	19.996	103.226	19.580	35.155	0.512
350.500	245.630	80.003	19.995	103.226	19.576	35.422	0.518
351.000	245.869	80.002	19.995	103.226	19.577	35.398	0.490
351.500	246.146	80.001	19.995	103.226	19.573	35.679	0.503
352.000	246.385	80.003	19.996	103.226	19.574	35.600	0.517
352.500	246.627	80.002	19.995	103.226	19.567	36.048	0.499
353.000	246.874	80.001	19.994	103.226	19.567	36.050	0.485
353.500	247.129	80.002	19.994	103.227	19.563	36.356	0.496
354.000	247.363	80.001	19.996	103.227	19.565	36.190	0.496
354.500	247.595	80.001	19.994	103.227	19.561	36.505	0.477
355.000	247.855	80.001	19.995	103.227	19.559	36.618	0.479
355.500	248.109	80.002	19.996	103.229	19.555	36.869	0.503
356.000	248.309	80.002	19.996	103.229	19.555	36.876	0.483
356.500	248.571	80.003	19.994	103.228	19.555	36.872	0.458
357.000	248.871	80.001	19.996	103.228	19.553	37.029	0.512
357.500	249.090	80.001	19.995	103.228	19.550	37.271	0.540
358.000	249.351	80.002	19.995	103.230	19.544	37.642	0.500
358.500	249.627	80.001	19.996	103.234	19.543	37.728	0.509
359.000	249.875	80.002	19.995	103.236	19.540	37.961	0.530
359.500	250.117	80.003	19.995	103.236	19.538	38.086	0.507
360.000	250.376	80.003	19.994	103.236	19.536	38.171	0.496
360.500	250.601	80.002	19.995	103.232	19.532	38.458	0.493
361.000	250.866	80.000	19.996	103.228	19.533	38.435	0.487
361.500	251.111	80.002	19.994	103.226	19.529	38.688	0.499
362.000	251.352	80.001	19.995	103.226	19.523	39.074	0.498
362.500	251.592	80.002	19.995	103.226	19.527	38.860	0.484
363.000	251.821	80.002	19.996	103.226	19.522	39.163	0.475
363.500	252.107	80.001	19.996	103.227	19.515	39.627	0.492
364.000	252.360	79.999	19.996	103.227	19.516	39.607	0.527
364.500	252.620	80.000	19.995	103.228	19.514	39.688	0.526
365.000	252.852	80.000	19.995	103.233	19.510	40.013	0.502
365.500	253.098	80.002	19.995	103.239	19.511	39.926	0.485
366.000	253.332	80.002	19.994	103.239	19.506	40.291	0.479
366.500	253.590	79.999	19.995	103.238	19.504	40.411	0.486
367.000	253.856	79.999	19.995	103.238	19.502	40.559	0.508
367.500	254.120	80.000	19.995	103.238	19.498	40.834	0.527
368.000	254.323	80.002	19.995	103.232	19.494	41.123	0.499
368.500	254.580	80.000	19.995	103.233	19.493	41.164	0.464
369.000	254.839	80.000	19.995	103.233	19.489	41.417	0.488
369.500	255.118	79.999	19.994	103.232	19.487	41.576	0.527
370.000	255.351	80.001	19.995	103.229	19.482	41.888	0.525
370.500	255.594	80.001	19.996	103.229	19.482	41.920	0.494
371.000	255.863	79.999	19.995	103.231	19.478	42.219	0.494
371.500	256.095	80.000	19.995	103.232	19.475	42.429	0.507
372.000	256.329	80.000	19.995	103.236	19.473	42.525	0.484
372.500	256.565	80.000	19.996	103.241	19.472	42.604	0.468
373.000	256.817	80.002	19.995	103.241	19.468	42.899	0.479
373.500	257.106	80.001	19.995	103.239	19.463	43.233	0.515
374.000	257.323	80.000	19.997	103.239	19.462	43.311	0.524
374.500	257.587	80.002	19.996	103.234	19.459	43.484	0.494
375.000	257.818	80.002	19.995	103.229	19.454	43.851	0.488
375.500	258.065	80.000	19.996	103.227	19.451	44.021	0.486
376.000	258.352	80.001	19.996	103.225	19.447	44.327	0.506
376.500	258.592	80.001	19.996	103.223	19.444	44.538	0.530
377.000	258.814	80.001	19.996	103.221	19.440	44.817	0.495
377.500	259.065	80.001	19.995	103.221	19.439	44.913	0.468
378.000	259.341	80.003	19.996	103.223	19.437	45.001	0.500
378.500	259.570	80.000	19.996	103.227	19.430	45.523	0.515
379.000	259.816	80.002	19.995	103.227	19.430	45.510	0.489
379.500	260.089	80.003	19.995	103.228	19.426	45.750	0.497
380.000	260.338	80.002	19.996	103.229	19.425	45.850	0.521
380.500	260.577	80.003	19.996	103.228	19.423	45.982	0.506
381.000	260.782	80.002	19.996	103.226	19.418	46.332	0.466
381.500	261.011	80.005	19.994	103.230	19.418	46.360	0.439
382.000	261.254	80.004	19.997	103.234	19.413	46.708	0.453
382.500	261.533	80.002	19.996	103.239	19.409	46.980	0.497
383.000	261.783	80.002	19.997	103.244	19.408	47.030	0.525
383.500	262.029	80.001	19.996	103.245	19.403	47.345	0.513
384.000	262.274	80.002	19.996	103.242	19.404	47.309	0.494
384.500	262.543	80.005	19.996	103.240	19.400	47.574	0.502
385.000	262.789	80.002	19.996	103.235	19.396	47.849	0.514
385.500	263.020	80.002	19.995	103.233	19.392	48.106	0.496
386.000	263.259	80.003	19.995	103.233	19.389	48.310	0.473
386.500	263.508	80.004	19.995	103.231	19.387	48.501	0.479
387.000	263.779	80.002	19.997	103.229	19.380	48.935	0.504
387.500	264.014	80.002	19.996	103.235	19.377	49.166	0.513
388.000	264.286	80.001	19.995	103.240	19.378	49.109	0.507
388.500	264.532	80.002	19.995	103.242	19.375	49.319	0.512
389.000	264.773	80.004	19.996	103.245	19.374	49.387	0.503
389.500	265.011	80.002	19.994	103.252	19.366	49.885	0.483
390.000	265.265	80.003	19.994	103.253	19.365	50.015	0.486
390.500	265.500	80.002	19.995	103.254	19.362	50.205	0.491
391.000	265.730	80.002	19.995	103.258	19.359	50.438	0.477
391.500	266.039	80.003	19.994	103.260	19.354	50.741	0.502
392.000	266.295	80.001	19.994	103.261	19.351	50.975	0.552
392.500	266.506	80.001	19.996	103.260	19.345	51.405	0.516
393.000	266.755	80.001	19.994	103.260	19.345	51.395	0.464
393.500	267.018	80.001	19.995	103.261	19.344	51.446	0.486
394.000	267.255	80.003	19.995	103.263	19.339	51.765	0.506
394.500	267.500	80.003	19.994	103.263	19.335	52.030	0.491
395.000	267.781	80.002	19.995	103.264	19.335	52.040	0.504
395.500	268.001	80.004	19.995	103.264	19.329	52.450	0.513
396.000	268.271	80.004	19.995	103.264	19.329	52.479	0.495
396.500	268.547	80.002	19.994	103.264	19.325	52.732	0.518
397.000	268.774	80.002	19.995	103.265	19.325	52.740	0.525
397.500	269.028	80.002	19.995	103.269	19.320	53.065	0.492
398.000	269.272	80.000	19.995	103.271	19.317	53.286	0.490
398.500	269.532	80.002	19.995	103.271	19.316	53.382	0.501
399.000	269.750	80.002	19.995	103.271	19.312	53.627	0.491
399.500	270.028	80.002	19.995	103.271	19.312	53.660	0.487
400.000	270.251	80.003	19.995	103.267	19.308	53.892	0.498
400.500	270.510	80.003	19.995	103.264	19.304	54.207	0.491
401.000	270.789	80.005	19.994	103.265	19.302	54.315	0.510
401.500	271.009	80.002	19.995	103.267	19.299	54.528	0.518
402.000	271.315	80.003	19.993	103.273	19.297	54.675	0.512
402.500	271.567	80.004	19.995	103.280	19.295	54.840	0.543
403.000	271.839	80.004	19.994	103.285	19.292	54.996	0.541
403.500	272.063	80.003	19.994	103.291	19.289	55.203	0.510
404.000	272.312	80.004	19.994	103.289	19.289	55.226	0.484
404.500	272.574	80.003	19.995	103.290	19.289	55.226	0.492
405.000	272.805	80.003	19.994	103.288	19.284	55.605	0.503
405.500	273.034	80.003	19.994	103.287	19.284	55.590	0.477
406.000	273.285	80.004	19.995	103.287	19.283	55.664	0.470
406.500	273.495	80.003	19.995	103.287	19.280	55.838	0.470
407.000	273.776	80.003	19.994	103.284	19.276	56.097	0.476
407.500	274.026	80.003	19.995	103.285	19.277	56.049	0.511
408.000	274.291	80.004	19.995	103.287	19.275	56.224	0.523
408.500	274.540	80.004	19.994	103.288	19.271	56.492	0.515
409.000	274.766	80.006	19.994	103.294	19.269	56.577	0.494
409.500	275.035	80.003	19.995	103.296	19.273	56.312	0.485
410.000	275.270	80.004	19.994	103.292	19.268	56.692	0.500
410.500	275.532	80.003	19.994	103.289	19.269	56.628	0.500
411.000	275.756	80.004	19.995	103.286	19.267	56.742	0.492
411.500	276.034	80.003	19.994	103.282	19.265	56.882	0.494
412.000	276.281	80.002	19.995	103.278	19.268	56.692	0.513
412.500	276.547	80.003	19.995	103.284	19.268	56.673	0.519
413.000	276.769	80.002	19.995	103.288	19.265	56.907	0.500
413.500	276.999	80.002	19.995	103.288	19.267	56.716	0.470
414.000	277.259	80.002	19.995	103.291	19.269	56.613	0.471
414.500	277.466	80.001	19.994	103.295	19.265	56.892	0.479
415.000	277.769	80.001	19.995	103.297	19.267	56.711	0.489
415.500	278.036	80.002	19.995	103.296	19.270	56.508	0.540
416.000	278.274	80.003	19.995	103.298	19.270	56.523	0.538
416.500	278.520	80.000	19.995	103.301	19.271	56.489	0.494
417.000	278.789	80.001	19.996	103.299	19.269	56.614	0.499
417.500	279.023	80.002	19.995	103.296	19.272	56.397	0.509
418.000	279.302	80.000	19.995	103.291	19.272	56.420	0.508
418.500	279.530	80.001	19.996	103.286	19.273	56.335	0.510
419.000	279.784	80.002	19.995	103.280	19.274	56.245	0.495
419.500	280.012	80.001	19.995	103.277	19.277	56.025	0.483
420.000	280.278	80.002	19.995	103.275	19.278	56.013	0.488
420.500	280.491	80.001	19.995	103.275	19.280	55.832	0.487
421.000	280.738	80.003	19.994	103.274	19.285	55.494	0.470
421.500	281.007	80.001	19.994	103.273	19.288	55.279	0.488
422.000	281.254	80.002	19.995	103.273	19.290	55.174	0.515
422.500	281.467	80.002	19.994	103.276	19.292	55.025	0.487
423.000	281.724	80.001	19.994	103.277	19.297	54.654	0.465
423.500	282.021	80.001	19.994	103.279	19.302	54.342	0.513
424.000	282.220	80.002	19.994	103.283	19.302	54.349	0.525
424.500	282.454	80.001	19.994	103.286	19.308	53.902	0.464
425.000	282.731	80.002	19.995	103.283	19.309	53.853	0.472
425.500	283.009	80.001	19.996	103.283	19.313	53.559	0.533
426.000	283.216	80.002	19.993	103.284	19.318	53.258	0.520
426.500	283.482	80.003	19.994	103.284	19.321	53.000	0.479
427.000	283.746	80.002	19.994	103.280	19.327	52.617	0.501
427.500	283.991	80.001	19.995	103.278	19.331	52.353	0.519
428.000	284.306	80.001	19.994	103.278	19.335	52.061	0.535
428.500	284.495	80.002	19.994	103.275	19.343	51.510	0.532
429.000	284.750	80.003	19.994	103.272	19.346	51.293	0.474
429.500	284.955	80.003	19.994	103.279	19.353	50.841	0.452
430.000	285.241	80.000	19.993	103.285	19.358	50.498	0.476
430.500	285.461	80.001	19.994	103.287	19.366	49.906	0.499
431.000	285.751	80.002	19.994	103.288	19.370	49.611	0.508
431.500	285.971	80.001	19.996	103.287	19.376	49.195	0.510
432.000	286.219	80.001	19.994	103.282	19.384	48.690	0.489
432.500	286.489	80.003	19.994	103.276	19.393	48.060	0.493
433.000	286.739	80.001	19.995	103.272	19.400	47.573	0.519
433.500	287.000	80.002	19.994	103.270	19.407	47.079	0.516
434.000	287.240	80.003	19.994	103.270	19.410	46.865	0.506
434.500	287.488	80.002	19.994	103.269	19.419	46.286	0.495
435.000	287.762	80.002	19.994	103.268	19.428	45.624	0.505
435.500	288.006	80.001	19.995	103.269	19.437	45.017	0.520
436.000	288.248	80.001	19.996	103.269	19.446	44.407	0.502
436.500	288.499	80.001	19.995	103.268	19.454	43.839	0.490
437.000	288.739	80.001	19.995	103.267	19.459	43.471	0.492
437.500	289.027	80.002	19.995	103.266	19.472	42.606	0.510
438.000	289.255	80.000	19.994	103.265	19.478	42.168	0.522
438.500	289.504	80.003	19.996	103.265	19.487	41.549	0.496
439.000	289.737	80.001	19.996	103.265	19.498	40.825	0.479
439.500	289.961	80.001	19.996	103.266	19.508	40.163	0.469
440.000	290.207	80.001	19.994	103.266	19.516	39.569	0.463
440.500	290.483	80.001	19.995	103.265	19.525	38.988	0.496
441.000	290.759	80.003	19.995	103.264	19.538	38.078	0.537
441.500	290.991	80.001	19.995	103.264	19.541	37.854	0.531
442.000	291.227	80.000	19.995	103.263	19.554	36.950	0.488
442.500	291.500	80.002	19.996	103.263	19.563	36.351	0.489
443.000	291.762	80.001	19.996	103.264	19.570	35.839	0.522
443.500	292.006	80.001	19.996	103.263	19.580	35.147	0.520
444.000	292.263	80.001	19.996	103.263	19.593	34.304	0.504
444.500	292.516	80.001	19.996	103.263	19.602	33.651	0.506
445.000	292.748	80.000	19.996	103.263	19.612	32.935	0.497
445.500	292.995	80.001	19.995	103.262	19.624	32.175	0.482
446.000	293.271	80.001	19.995	103.256	19.634	31.455	0.501
446.500	293.510	80.000	19.996	103.248	19.643	30.816	0.519
447.000	293.765	80.002	19.995	103.241	19.656	29.960	0.504
447.500	293.981	80.001	19.996	103.233	19.661	29.604	0.482
448.000	294.223	80.002	19.995	103.228	19.673	28.778	0.464
448.500	294.500	80.001	19.996	103.228	19.679	28.352	0.489
449.000	294.763	80.001	19.996	103.229	19.689	27.643	0.529
449.500	295.038	80.003	19.995	103.229	19.700	26.932	0.539
450.000	295.260	80.002	19.995	103.232	19.708	26.346	0.518
450.500	295.516	80.002	19.995	103.231	19.722	25.399	0.488
451.000	295.786	80.003	19.995	103.229	19.729	24.878	0.502
451.500	296.079	80.002	19.996	103.228	19.740	24.163	0.544
452.000	296.290	80.003	19.994	103.228	19.749	23.511	0.533
452.500	296.536	80.002	19.996	103.225	19.757	22.976	0.481
453.000	296.762	80.002	19.994	103.224	19.765	22.435	0.465
453.500	297.028	80.001	19.995	103.225	19.771	22.010	0.482
454.000	297.282	80.002	19.997	103.225	19.779	21.499	0.506
454.500	297.538	80.003	19.994	103.225	19.788	20.837	0.515
455.000	297.768	80.001	19.995	103.225	19.798	20.191	0.498
455.500	298.008	80.001	19.996	103.225	19.801	19.931	0.478
456.000	298.289	80.002	19.995	103.220	19.811	19.246	0.496
456.500	298.522	80.003	19.995	103.213	19.818	18.800	0.518
457.000	298.782	80.002	19.996	103.211	19.827	18.183	0.504
457.500	299.014	80.003	19.995	103.207	19.829	18.014	0.492
458.000	299.268	80.002	19.996	103.200	19.836	17.542	0.489
458.500	299.539	80.002	19.996	103.198	19.844	16.973	0.506
459.000	299.798	80.003	19.997	103.197	19.849	16.651	0.527
459.500	300.065	80.003	19.997	103.192	19.857	16.079	0.528
460.000	300.286	80.002	19.995	103.188	19.860	15.873	0.506
460.500	300.542	80.004	19.995	103.188	19.868	15.373	0.482
461.000	300.794	80.005	19.997	103.188	19.873	15.012	0.493
461.500	301.044	80.003	19.996	103.188	19.880	14.549	0.506
462.000	301.293	80.002	19.994	103.187	19.880	14.515	0.501
462.500	301.544	80.002	19.995	103.186	19.889	13.933	0.499
463.000	301.793	80.003	19.995	103.186	19.891	13.790	0.500
463.500	302.017	80.004	19.996	103.186	19.896	13.421	0.486
464.000	302.309	80.004	19.996	103.186	19.900	13.139	0.494
464.500	302.564	80.003	19.997	103.185	19.905	12.765	0.532
465.000	302.789	80.003	19.997	103.185	19.911	12.382	0.514
465.500	303.060	80.003	19.995	103.185	19.918	11.886	0.488
466.000	303.371	80.004	19.995	103.185	19.917	11.952	0.539
466.500	303.549	80.003	19.996	103.185	19.922	11.656	0.535
467.000	303.792	80.003	19.995	103.185	19.925	11.394	0.455
467.500	304.043	80.002	19.997	103.183	19.927	11.307	0.458
468.000	304.298	80.003	19.996	103.179	19.932	10.948	0.500
468.500	304.544	80.003	19.996	103.175	19.934	10.826	0.503
469.000	304.815	80.003	19.996	103.173	19.937	10.582	0.509
469.500	305.046	80.001	19.995	103.172	19.938	10.541	0.509
470.000	305.310	80.002	19.997	103.171	19.940	10.363	0.499
470.500	305.584	80.001	19.996	103.167	19.943	10.165	0.517
471.000	305.842	80.004	19.996	103.165	19.947	9.900	0.535
471.500	306.057	80.002	19.995	103.164	19.948	9.860	0.502
472.000	306.323	80.002	19.996	103.160	19.950	9.737	0.477
472.500	306.591	80.002	19.995	103.157	19.953	9.502	0.508
473.000	306.818	80.002	19.996	103.157	19.952	9.548	0.515
473.500	307.113	80.002	19.997	103.155	19.960	9.030	0.508
474.000	307.340	80.002	19.995	103.151	19.961	8.967	0.522
474.500	307.616	80.002	19.995	103.149	19.961	8.927	0.513
475.000	307.863	80.001	19.996	103.150	19.964	8.747	0.513
475.500	308.096	80.001	19.997	103.152	19.966	8.579	0.501
476.000	308.363	80.002	19.996	103.158	19.966	8.633	0.490
476.500	308.601	80.001	19.996	103.158	19.965	8.655	0.503
477.000	308.865	80.002	19.995	103.156	19.968	8.449	0.504
477.500	309.116	80.002	19.996	103.154	19.968	8.446	0.508
478.000	309.355	80.002	19.995	103.152	19.972	8.173	0.502
478.500	309.647	80.001	19.995	103.146	19.974	8.079	0.510
479.000	309.893	80.002	19.996	103.146	19.974	8.031	0.535
479.500	310.125	80.003	19.995	103.142	19.974	8.057	0.508
480.000	310.399	80.002	19.995	103.142	19.975	7.963	0.492
480.500	310.626	80.004	19.996	103.142	19.978	7.746	0.503
481.000	310.918	80.002	19.997	103.139	19.978	7.762	0.510
481.500	311.145	80.002	19.995	103.139	19.980	7.626	0.519
482.000	311.416	80.002	19.993	103.143	19.983	7.428	0.508
482.500	311.677	80.002	19.994	103.145	19.979	7.693	0.515
483.000	311.919	80.004	19.994	103.146	19.981	7.551	0.517
483.500	312.183	80.004	19.994	103.150	19.982	7.475	0.505
484.000	312.455	80.003	19.995	103.151	19.986	7.217	0.521
484.500	312.715	80.005	19.995	103.151	19.984	7.391	0.534
485.000	312.942	80.004	19.994	103.151	19.982	7.507	0.510
485.500	313.181	80.004	19.994	103.149	19.988	7.114	0.477
486.000	313.454	80.005	19.994	103.148	19.991	6.910	0.489
486.500	313.702	80.005	19.995	103.146	19.990	6.974	0.516
487.000	313.944	80.004	19.994	103.142	19.989	7.007	0.506
487.500	314.225	80.005	19.993	103.141	19.991	6.874	0.506
488.000	314.503	80.003	19.996	103.143	19.990	6.986	0.541
488.500	314.730	80.005	19.995	103.143	19.992	6.848	0.533
489.000	314.991	80.004	19.995	103.144	19.993	6.780	0.497
489.500	315.233	80.004	19.994	103.148	19.991	6.877	0.495
490.000	315.484	80.006	19.995	103.149	19.993	6.728	0.498
490.500	315.751	80.004	19.994	103.148	19.994	6.664	0.506
491.000	316.001	80.004	19.994	103.148	19.998	6.429	0.517
491.500	316.257	80.004	19.994	103.142	19.994	6.676	0.511
492.000	316.524	80.005	19.994	103.139	20.000	6.293	0.514
492.500	316.770	80.004	19.995	103.138	19.997	6.459	0.519
493.000	317.010	80.004	19.994	103.138	19.996	6.557	0.500
493.500	317.216	80.003	19.994	103.137	19.997	6.454	0.466
494.000	317.502	80.003	19.994	103.143	19.998	6.371	0.469
494.500	317.767	80.004	19.995	103.146	19.999	6.334	0.521
495.000	317.984	80.003	19.994	103.147	19.998	6.386	0.516
495.500	318.257	80.003	19.995	103.147	20.001	6.175	0.486
496.000	318.526	80.003	19.994	103.150	20.000	6.289	0.516
496.500	318.763	80.001	19.996	103.150	19.999	6.307	0.524
497.000	319.023	80.001	19.994	103.150	20.003	6.049	0.502
497.500	319.299	80.001	19.995	103.150	20.002	6.135	0.516
498.000	319.513	80.002	19.994	103.150	20.000	6.244	0.513
498.500	319.788	80.002	19.995	103.148	20.003	6.036	0.490
499.000	320.021	80.002	19.995	103.142	20.004	6.017	0.498
499.500	320.286	80.001	19.995	103.141	20.004	5.967	0.502
500.000	320.533	80.002	19.995	103.137	20.004	5.987	0.505
500.500	320.795	80.002	19.994	103.135	20.002	6.100	0.511
501.000	321.050	80.003	19.994	103.136	20.006	5.840	0.513
501.500	321.276	80.002	19.995	103.141	20.001	6.231	0.499
502.000	321.513	80.002	19.995	103.143	19.999	6.322	0.472
502.500	321.802	80.002	19.994	103.147	20.003	6.072	0.494
503.000	322.046	80.003	19.995	103.149	20.005	5.907	0.529
503.500	322.300	80.002	19.995	103.150	20.005	5.931	0.516
504.000	322.573	80.002	19.994	103.151	20.005	5.918	0.513
504.500	322.799	80.002	19.995	103.151	20.005	5.902	0.513
505.000	323.057	80.002	19.995	103.151	20.009	5.668	0.491
505.500	323.284	80.003	19.994	103.151	20.006	5.860	0.484
506.000	323.549	80.003	19.994	103.150	20.006	5.823	0.489
506.500	323.788	80.003	19.994	103.147	20.011	5.533	0.497
507.000	324.052	80.002	19.995	103.144	20.009	5.675	0.503
507.500	324.292	80.001	19.994	103.143	20.010	5.608	0.504
508.000	324.533	80.002	19.995	103.143	20.008	5.692	0.493
508.500	324.789	80.002	19.996	103.143	20.007	5.767	0.489
509.000	325.040	80.002	19.997	103.145	20.009	5.660	0.502
509.500	325.302	80.002	19.996	103.146	20.011	5.501	0.510
510.000	325.556	80.003	19.996	103.147	20.011	5.533	0.515
510.500	325.786	80.003	19.995	103.146	20.009	5.623	0.500
511.000	326.083	80.002	19.995	103.145	20.009	5.613	0.506
511.500	326.283	80.003	19.995	103.145	20.012	5.443	0.512
512.000	326.562	80.003	19.995	103.146	20.013	5.346	0.488
512.500	326.796	80.003	19.995	103.146	20.012	5.452	0.496
513.000	327.029	80.003	19.995	103.147	20.010	5.604	0.490
513.500	327.272	80.002	19.995	103.148	20.014	5.286	0.471
514.000	327.535	80.002	19.995	103.149	20.013	5.374	0.491
514.500	327.782	80.003	19.995	103.149	20.014	5.321	0.508
515.000	328.031	80.003	19.995	103.149	20.011	5.484	0.503
515.500	328.275	80.003	19.994	103.149	20.012	5.473	0.494
516.000	328.514	80.002	19.996	103.148	20.013	5.359	0.488
516.500	328.750	80.003	19.994	103.148	20.015	5.211	0.480
517.000	329.034	80.002	19.995	103.148	20.014	5.321	0.498
517.500	329.301	80.003	19.995	103.148	20.014	5.290	0.536
518.000	329.509	80.003	19.994	103.148	20.015	5.215	0.513
518.500	329.770	80.002	19.995	103.148	20.016	5.147	0.472
519.000	330.042	80.002	19.996	103.148	20.016	5.196	0.501
519.500	330.275	80.003	19.994	103.148	20.014	5.325	0.519
520.000	330.519	80.003	19.995	103.149	20.016	5.136	0.491
520.500	330.760	80.003	19.996	103.149	20.019	4.932	0.481
521.000	331.012	80.003	19.995	103.149	20.016	5.138	0.489
521.500	331.251	80.001	19.996	103.149	20.020	4.900	0.491
522.000	331.506	80.003	19.994	103.148	20.018	5.056	0.492
522.500	331.777	80.001	19.994	103.146	20.021	4.840	0.510
523.000	331.994	80.001	19.995	103.144	20.020	4.891	0.507
523.500	332.256	80.001	19.994	103.144	20.020	4.921	0.483
524.000	332.520	80.004	19.995	103.144	20.017	5.078	0.502
524.500	332.752	80.002	19.994	103.145	20.017	5.071	0.512
525.000	333.014	80.002	19.994	103.147	20.021	4.809	0.495
525.500	333.236	80.002	19.995	103.149	20.020	4.858	0.489
526.000	333.516	80.002	19.995	103.149	20.019	4.940	0.493
526.500	333.772	80.001	19.995	103.149	20.023	4.695	0.519
527.000	334.031	80.001	19.995	103.148	20.021	4.833	0.525
527.500	334.288	80.001	19.995	103.147	20.021	4.798	0.515
528.000	334.550	80.001	19.995	103.147	20.021	4.811	0.517
528.500	334.730	80.000	19.995	103.147	20.020	4.887	0.481
529.000	335.010	80.001	19.995	103.147	20.019	4.977	0.452
529.500	335.239	80.002	19.995	103.145	20.019	4.986	0.485
530.000	335.495	80.002	19.995	103.145	20.021	4.801	0.497
530.500	335.779	80.001	19.994	103.144	20.021	4.814	0.512
531.000	336.010	80.002	19.995	103.144	20.024	4.635	0.527
531.500	336.268	80.001	19.995	103.144	20.024	4.610	0.502
532.000	336.467	80.002	19.994	103.145	20.023	4.710	0.473
532.500	336.727	80.001	19.996	103.146	20.021	4.805	0.458
533.000	336.947	80.001	19.995	103.147	20.024	4.625	0.469
533.500	337.208	80.001	19.996	103.145	20.026	4.491	0.481
534.000	337.495	80.001	19.995	103.145	20.023	4.672	0.515
534.500	337.749	80.001	19.995	103.146	20.023	4.652	0.544
535.000	338.001	80.001	19.996	103.146	20.022	4.779	0.523
535.500	338.272	80.002	19.997	103.151	20.025	4.532	0.515
536.000	338.484	80.002	19.995	103.156	20.024	4.627	0.503
536.500	338.767	80.001	19.997	103.160	20.023	4.712	0.489
537.000	339.003	80.002	19.996	103.160	20.023	4.663	0.508
537.500	339.230	80.002	19.996	103.160	20.024	4.639	0.491
538.000	339.488	80.001	19.996	103.156	20.025	4.532	0.474
538.500	339.722	80.001	19.996	103.152	20.023	4.678	0.489
539.000	339.981	80.002	19.996	103.148	20.023	4.680	0.492
539.500	340.218	80.002	19.996	103.149	20.026	4.502	0.494
540.000	340.477	80.002	19.995	103.149	20.025	4.532	0.496
540.500	340.748	80.004	19.995	103.148	20.026	4.450	0.513
541.000	340.983	80.000	19.995	103.148	20.024	4.603	0.518
541.500	341.196	80.004	19.996	103.148	20.023	4.712	0.477
542.000	341.465	80.002	19.996	103.148	20.025	4.513	0.465
542.500	341.716	80.003	19.995	103.148	20.025	4.569	0.501
543.000	341.990	80.003	19.995	103.148	20.026	4.506	0.522
543.500	342.192	80.003	19.995	103.149	20.025	4.524	0.500
544.000	342.471	80.003	19.995	103.149	20.026	4.457	0.479
544.500	342.706	80.002	19.995	103.149	20.025	4.526	0.498
545.000	342.955	80.003	19.996	103.150	20.025	4.554	0.499
545.500	343.201	80.004	19.995	103.151	20.027	4.431	0.489
546.000	343.450	80.003	19.995	103.153	20.026	4.459	0.495
546.500	343.685	80.003	19.995	103.154	20.026	4.481	0.490
547.000	343.948	80.003	19.996	103.154	20.025	4.532	0.490
547.500	344.205	80.003	19.995	103.153	20.025	4.562	0.509
548.000	344.436	80.002	19.995	103.153	20.029	4.261	0.504
548.500	344.681	80.003	19.996	103.150	20.027	4.401	0.482
549.000	344.909	80.003	19.994	103.150	20.029	4.270	0.474
549.500	345.166	80.002	19.996	103.150	20.026	4.508	0.479
550.000	345.409	80.002	19.996	103.150	20.026	4.508	0.493
550.500	345.665	80.003	19.994	103.151	20.026	4.498	0.499
551.000	345.871	80.001	19.995	103.152	20.026	4.481	0.481
551.500	346.159	80.001	19.994	103.153	20.027	4.422	0.478
552.000	346.386	80.001	19.995	103.152	20.027	4.423	0.504
552.500	346.685	80.002	19.994	103.152	20.026	4.489	0.521
553.000	346.886	80.003	19.996	103.151	20.029	4.296	0.513
553.500	347.147	80.003	19.996	103.150	20.026	4.450	0.481
554.000	347.411	80.002	19.996	103.149	20.027	4.408	0.493
554.500	347.654	80.002	19.995	103.149	20.026	4.496	0.516
555.000	347.868	80.002	19.995	103.150	20.028	4.319	0.482
555.500	348.144	80.000	19.996	103.150	20.027	4.384	0.474
556.000	348.378	80.002	19.995	103.150	20.027	4.393	0.500
556.500	348.633	80.001	19.996	103.151	20.029	4.304	0.499
557.000	348.917	80.003	19.995	103.151	20.029	4.262	0.513
557.500	349.123	80.001	19.995	103.151	20.026	4.444	0.514
558.000	349.386	80.002	19.994	103.150	20.026	4.508	0.480
558.500	349.637	80.002	19.997	103.151	20.030	4.231	0.492
559.000	349.858	80.000	19.995	103.151	20.028	4.315	0.493
559.500	350.161	80.001	19.996	103.151	20.030	4.208	0.498
560.000	350.396	80.001	19.995	103.151	20.031	4.120	0.531
560.500	350.633	80.000	19.995	103.151	20.027	4.382	0.505
561.000	350.928	80.002	19.995	103.151	20.025	4.581	0.502
561.500	351.175	80.002	19.995	103.151	20.026	4.508	0.537
562.000	351.434	80.001	19.995	103.151	20.027	4.422	0.524
562.500	351.667	80.002	19.995	103.151	20.028	4.371	0.499
563.000	351.932	80.001	19.996	103.151	20.030	4.223	0.495
563.500	352.155	80.001	19.995	103.152	20.026	4.495	0.493
564.000	352.437	80.003	19.995	103.152	20.027	4.416	0.496
564.500	352.674	80.002	19.995	103.152	20.025	4.573	0.512
565.000	352.956	80.001	19.996	103.152	20.028	4.328	0.519
565.500	353.214	80.003	19.996	103.152	20.026	4.467	0.529
566.000	353.462	80.002	19.996	103.151	20.024	4.592	0.523
566.500	353.746	80.002	19.995	103.151	20.028	4.353	0.519
567.000	353.977	80.002	19.995	103.151	20.027	4.435	0.524
567.500	354.191	80.004	19.995	103.151	20.024	4.644	0.481
568.000	354.448	80.003	19.995	103.150	20.026	4.467	0.458
568.500	354.723	80.002	19.995	103.151	20.025	4.549	0.501
569.000	354.991	80.003	19.997	103.152	20.025	4.532	0.537
569.500	355.237	80.003	19.994	103.152	20.029	4.250	0.529
570.000	355.488	80.004	19.994	103.153	20.026	4.488	0.506
570.500	355.751	80.004	19.995	103.154	20.029	4.291	0.506
571.000	355.979	80.004	19.995	103.152	20.027	4.375	0.502
571.500	356.234	80.004	19.997	103.151	20.028	4.351	0.487
572.000	356.473	80.005	19.994	103.155	20.029	4.257	0.488
572.500	356.744	80.003	19.995	103.155	20.032	4.040	0.502
573.000	357.038	80.004	19.996	103.154	20.026	4.504	0.537
573.500	357.250	80.004	19.995	103.157	20.029	4.295	0.536
574.000	357.513	80.004	19.995	103.156	20.029	4.300	0.490
574.500	357.789	80.003	19.995	103.152	20.028	4.354	0.507
575.000	358.072	80.002	19.995	103.151	20.033	4.031	0.549
575.500	358.288	80.004	19.994	103.152	20.028	4.307	0.529
576.000	358.544	80.003	19.993	103.152	20.032	4.087	0.485
576.500	358.808	80.003	19.996	103.153	20.029	4.276	0.496
577.000	359.057	80.002	19.994	103.156	20.030	4.236	0.517
577.500	359.323	80.002	19.995	103.160	20.031	4.148	0.514
578.000	359.528	80.002	19.995	103.159	20.028	4.324	0.493
578.500	359.825	80.001	19.995	103.156	20.026	4.461	0.487
579.000	360.092	80.001	19.996	103.156	20.030	4.220	0.533
579.500	360.333	80.002	19.994	103.156	20.030	4.186	0.536
580.000	360.634	80.001	19.995	103.158	20.031	4.103	0.525
580.500	360.815	80.001	19.994	103.158	20.028	4.339	0.512
581.000	361.130	80.002	19.995	103.162	20.031	4.130	0.489
581.500	361.337	80.002	19.995	103.164	20.028	4.351	0.509
582.000	361.644	80.003	19.995	103.164	20.031	4.164	0.518
582.500	361.878	80.002	19.995	103.160	20.027	4.435	0.528
583.000	362.123	79.999	19.994	103.163	20.027	4.442	0.510
583.500	362.370	80.000	19.995	103.161	20.029	4.287	0.485
584.000	362.660	80.001	19.995	103.159	20.033	3.999	0.515
584.500	362.896	80.001	19.994	103.156	20.028	4.330	0.532
585.000	363.163	80.000	19.994	103.154	20.025	4.523	0.514
585.500	363.412	79.999	19.994	103.154	20.029	4.268	0.509
586.000	363.675	80.002	19.995	103.152	20.029	4.304	0.514
586.500	364.019	80.001	19.994	103.151	20.030	4.190	0.560
587.000	364.236	80.002	19.993	103.151	20.029	4.253	0.584
587.500	364.452	80.001	19.995	103.152	20.029	4.300	0.497
588.000	364.738	80.001	19.995	103.151	20.033	3.995	0.467
588.500	364.969	80.001	19.996	103.150	20.024	4.640	0.510
589.000	365.242	80.000	19.995	103.151	20.034	3.929	0.510
589.500	365.473	80.001	19.995	103.152	20.035	3.862	0.504
590.000	365.785	80.000	19.995	103.153	20.035	3.864	0.523
590.500	366.012	80.001	19.996	103.151	20.037	3.697	0.541
591.000	366.262	80.000	19.994	103.152	20.023	4.702	0.508
591.500	366.543	80.000	19.995	103.156	20.030	4.227	0.504
592.000	366.770	80.000	19.996	103.160	20.036	3.781	0.519
592.500	367.062	80.000	19.995	103.158	20.030	4.216	0.513
593.000	367.316	80.000	19.996	103.158	20.031	4.144	0.532
593.500	367.544	80.002	19.995	103.159	20.032	4.060	0.514
594.000	367.848	80.000	19.994	103.156	20.032	4.043	0.507
594.500	368.039	80.002	19.995	103.157	20.033	4.012	0.513
595.000	368.364	80.001	19.995	103.160	20.029	4.287	0.505
595.500	368.559	80.001	19.997	103.162	20.029	4.246	0.518
596.000	368.873	80.002	19.996	103.162	20.034	3.961	0.515
596.500	369.049	80.002	19.996	103.160	20.030	4.234	0.500
597.000	369.373	80.003	19.995	103.155	20.034	3.942	0.494
597.500	369.593	80.002	19.996	103.151	20.032	4.055	0.522
598.000	369.923	80.002	19.995	103.149	20.032	4.064	0.547
598.500	370.087	80.001	19.994	103.149	20.035	3.864	0.522
599.000	370.383	80.002	19.996	103.152	20.036	3.821	0.477
599.500	370.656	80.002	19.995	103.152	20.031	4.167	0.515
600.000	370.951	80.000	19.995	103.152	20.034	3.903	0.569
600.500	371.092	80.002	19.995	103.152	20.035	3.871	0.502
601.000	371.404	80.002	19.995	103.150	20.034	3.928	0.444
601.500	371.586	80.001	19.995	103.147	20.029	4.291	0.473
602.000	371.901	80.002	19.995	103.148	20.028	4.324	0.495
602.500	372.162	80.003	19.994	103.149	20.031	4.109	0.537
603.000	372.576	80.002	19.995	103.148	20.033	4.006	0.626
603.500	372.645	80.001	19.995	103.148	20.034	3.916	0.579
604.000	372.840	80.000	19.994	103.148	20.029	4.292	0.373
604.500	373.265	80.001	19.994	103.148	20.030	4.227	0.442
605.000	373.575	80.001	19.995	103.149	20.032	4.089	0.677
605.500	373.432	80.000	19.993	103.150	20.028	4.317	0.451
606.000	373.957	80.002	19.995	103.150	20.029	4.289	0.275
606.500	374.344	80.002	19.995	103.148	20.031	4.162	0.646
607.000	374.520	80.001	19.993	103.147	20.028	4.353	0.738
607.500	374.776	80.001	19.995	103.147	20.027	4.397	0.497
608.000	375.070	80.002	19.996	103.147	20.028	4.364	0.491
608.500	375.349	80.002	19.996	103.148	20.028	4.326	0.562
609.000	375.568	80.002	19.995	103.151	20.028	4.310	0.536
609.500	375.729	80.000	19.994	103.151	20.026	4.459	0.439
610.000	375.997	80.002	19.995	103.151	20.028	4.360	0.404
610.500	376.390	80.001	19.995	103.151	20.027	4.440	0.545
611.000	376.644	80.002	19.996	103.150	20.023	4.691	0.654
611.500	376.862	80.001	19.995	103.151	20.028	4.362	0.559
612.000	377.104	80.001	19.994	103.152	20.026	4.470	0.466
612.500	377.381	80.001	19.994	103.153	20.026	4.459	0.489
613.000	377.682	80.001	19.994	103.154	20.024	4.584	0.549
613.500	377.904	80.001	19.994	103.154	20.022	4.749	0.551
614.000	378.139	80.002	19.993	103.154	20.026	4.493	0.490
614.500	378.445	80.002	19.995	103.152	20.022	4.770	0.499
615.000	378.623	80.002	19.995	103.152	20.026	4.504	0.512
615.500	378.888	80.001	19.995	103.152	20.025	4.513	0.463
616.000	379.199	80.003	19.995	103.155	20.026	4.504	0.509
616.500	379.407	80.002	19.994	103.156	20.023	4.695	0.547
617.000	379.683	80.001	19.995	103.157	20.024	4.622	0.501
617.500	379.989	80.002	19.996	103.157	20.023	4.663	0.533
618.000	380.232	80.002	19.995	103.157	20.026	4.493	0.566
618.500	380.421	80.002	19.995	103.156	20.023	4.669	0.491
619.000	380.754	80.003	19.995	103.157	20.025	4.566	0.477
619.500	380.942	80.003	19.994	103.157	20.022	4.777	0.521
620.000	381.212	80.002	19.994	103.158	20.020	4.897	0.490
620.500	381.460	80.002	19.996	103.158	20.025	4.536	0.489
621.000	381.695	80.002	19.996	103.156	20.021	4.803	0.501
621.500	381.973	80.001	19.994	103.154	20.023	4.698	0.498
622.000	382.219	80.003	19.995	103.155	20.024	4.614	0.518
622.500	382.495	80.002	19.995	103.154	20.023	4.663	0.523
623.000	382.744	80.002	19.995	103.154	20.022	4.747	0.524
623.500	382.964	80.002	19.995	103.153	20.026	4.470	0.497
624.000	383.263	80.003	19.994	103.153	20.022	4.726	0.493
624.500	383.504	80.002	19.994	103.152	20.021	4.812	0.529
625.000	383.707	80.003	19.994	103.152	20.024	4.635	0.492
625.500	384.007	80.002	19.995	103.152	20.024	4.595	0.474
626.000	384.255	80.002	19.995	103.154	20.024	4.648	0.526
626.500	384.511	80.003	19.994	103.154	20.023	4.715	0.526
627.000	384.790	80.002	19.994	103.154	20.024	4.588	0.519
627.500	384.999	80.003	19.995	103.155	20.023	4.713	0.512
628.000	385.255	80.003	19.994	103.154	20.025	4.577	0.477
628.500	385.531	80.002	19.996	103.152	20.022	4.721	0.499
629.000	385.759	80.003	19.996	103.151	20.023	4.666	0.518
629.500	386.001	80.002	19.995	103.151	20.021	4.792	0.487
630.000	386.297	80.002	19.995	103.150	20.023	4.696	0.504
630.500	386.524	80.003	19.995	103.151	20.023	4.696	0.530
631.000	386.793	80.002	19.996	103.151	20.021	4.820	0.510
631.500	387.040	80.003	19.995	103.151	20.022	4.732	0.506
632.000	387.258	80.002	19.996	103.151	20.025	4.550	0.490
632.500	387.560	80.002	19.996	103.151	20.021	4.810	0.492
633.000	387.797	80.003	19.995	103.151	20.021	4.827	0.530
633.500	388.063	80.002	19.995	103.149	20.025	4.577	0.521
634.000	388.332	80.002	19.995	103.148	20.020	4.874	0.519
634.500	388.553	80.002	19.995	103.148	20.018	5.031	0.512
635.000	388.831	80.002	19.996	103.148	20.021	4.839	0.495
635.500	389.060	80.003	19.996	103.148	20.020	4.915	0.503
636.000	389.300	80.003	19.996	103.148	20.018	5.033	0.488
636.500	389.580	80.003	19.996	103.147	20.019	4.955	0.494
637.000	389.818	80.003	19.995	103.147	20.017	5.108	0.519
637.500	390.074	80.002	19.996	103.146	20.017	5.110	0.506
638.000	390.329	80.003	19.996	103.146	20.017	5.129	0.502
638.500	390.566	80.003	19.996	103.146	20.018	5.026	0.502
639.000	390.844	80.003	19.997	103.147	20.019	4.938	0.504
639.500	391.140	80.003	19.996	103.146	20.019	4.992	0.544
640.000	391.310	80.002	19.995	103.147	20.019	4.992	0.520
640.500	391.554	80.004	19.995	103.147	20.017	5.130	0.441
641.000	391.831	80.002	19.996	103.147	20.019	4.968	0.468
641.500	392.114	80.003	19.995	103.147	20.016	5.196	0.540
642.000	392.332	80.003	19.995	103.145	20.021	4.792	0.530
642.500	392.589	80.003	19.995	103.144	20.016	5.173	0.489
643.000	392.800	80.004	19.995	103.145	20.015	5.205	0.472
643.500	393.090	80.002	19.994	103.144	20.016	5.198	0.484
644.000	393.368	80.004	19.994	103.143	20.016	5.179	0.534
644.500	393.600	80.003	19.995	103.146	20.017	5.125	0.539
645.000	393.853	80.004	19.995	103.147	20.015	5.226	0.498
645.500	394.117	80.005	19.995	103.147	20.018	5.022	0.501
646.000	394.394	80.005	19.994	103.146	20.018	5.027	0.529
646.500	394.599	80.003	19.996	103.147	20.017	5.097	0.511
647.000	394.899	80.003	19.995	103.147	20.014	5.308	0.493
647.500	395.095	80.004	19.995	103.146	20.018	5.020	0.500
648.000	395.386	80.004	19.996	103.147	20.017	5.078	0.491
648.500	395.605	80.003	19.995	103.147	20.016	5.155	0.499
649.000	395.843	80.004	19.994	103.147	20.017	5.070	0.484
649.500	396.114	80.004	19.994	103.147	20.015	5.215	0.483
650.000	396.367	80.004	19.995	103.147	20.018	5.050	0.516
650.500	396.608	80.004	19.995	103.147	20.021	4.852	0.509
651.000	396.817	80.004	19.995	103.145	20.017	5.131	0.472
651.500	397.083	80.005	19.994	103.145	20.016	5.179	0.463
652.000	397.294	80.005	19.995	103.145	20.015	5.250	0.476
652.500	397.558	80.004	19.996	103.143	20.016	5.179	0.476
653.000	397.831	80.003	19.996	103.143	20.018	5.007	0.506
653.500	398.100	80.004	19.996	103.143	20.014	5.297	0.540
654.000	398.334	80.003	19.996	103.144	20.018	5.024	0.522
654.500	398.587	80.005	19.995	103.143	20.012	5.471	0.495
655.000	398.808	80.004	19.995	103.144	20.013	5.358	0.481
655.500	399.082	80.004	19.996	103.144	20.013	5.377	0.485
656.000	399.317	80.003	19.996	103.144	20.011	5.478	0.502
656.500	399.563	80.002	19.996	103.144	20.011	5.478	0.495
657.000	399.808	80.002	19.996	103.144	20.013	5.365	0.486
657.500	400.068	80.003	19.996	103.145	20.012	5.434	0.497
658.000	400.287	80.003	19.996	103.144	20.013	5.389	0.492
658.500	400.527	80.002	19.996	103.144	20.009	5.674	0.470
659.000	400.757	80.003	19.997	103.143	20.012	5.468	0.465
659.500	401.026	80.002	19.996	103.143	20.011	5.486	0.484
660.000	401.256	80.001	19.995	103.143	20.010	5.587	0.499
660.500	401.539	80.002	19.996	103.144	20.008	5.705	0.506
661.000	401.747	80.002	19.996	103.144	20.007	5.754	0.501
661.500	402.027	80.000	19.996	103.145	20.007	5.784	0.490
662.000	402.257	80.002	19.996	103.147	20.007	5.788	0.500
662.500	402.496	80.000	19.996	103.148	20.008	5.713	0.490
663.000	402.725	80.001	19.995	103.148	20.007	5.777	0.468
663.500	402.993	80.001	19.995	103.149	20.006	5.887	0.483
664.000	403.242	80.003	19.997	103.148	20.007	5.785	0.507
664.500	403.496	80.002	19.995	103.147	20.005	5.897	0.510
665.000	403.784	80.001	19.995	103.148	20.007	5.772	0.522
665.500	404.003	80.002	19.996	103.153	20.006	5.886	0.525
666.000	404.273	80.002	19.996	103.159	20.003	6.069	0.499
666.500	404.513	80.000	19.996	103.165	20.006	5.848	0.500
667.000	404.749	80.002	19.995	103.168	20.004	5.997	0.493
667.500	405.015	80.001	19.995	103.169	20.003	6.032	0.489
668.000	405.233	80.001	19.996	103.164	20.000	6.287	0.493
668.500	405.478	80.003	19.995	103.164	20.003	6.064	0.473
669.000	405.741	80.003	19.994	103.158	20.000	6.244	0.485
669.500	406.030	80.002	19.995	103.156	19.999	6.311	0.530
670.000	406.236	80.001	19.996	103.155	19.998	6.394	0.524
670.500	406.504	80.003	19.995	103.154	20.000	6.246	0.484
671.000	406.754	80.001	19.995	103.150	20.000	6.235	0.496
671.500	407.004	80.002	19.994	103.150	19.997	6.446	0.509
672.000	407.261	80.002	19.995	103.152	20.000	6.250	0.504
672.500	407.536	80.002	19.993	103.154	20.001	6.206	0.520
673.000	407.783	80.001	19.995	103.157	19.999	6.349	0.527
673.500	408.043	80.002	19.995	103.158	19.997	6.474	0.514
674.000	408.266	80.001	19.996	103.159	19.995	6.603	0.495
674.500	408.532	80.002	19.994	103.162	19.997	6.450	0.486
675.000	408.798	80.001	19.995	103.166	19.994	6.695	0.510
675.500	409.047	80.002	19.996	103.169	19.994	6.706	0.523
676.000	409.341	80.002	19.994	103.172	19.993	6.715	0.529
676.500	409.580	80.002	19.995	103.171	19.992	6.841	0.539
677.000	409.807	80.003	19.994	103.167	19.992	6.800	0.499
677.500	410.059	80.002	19.994	103.160	19.993	6.759	0.472
678.000	410.314	80.002	19.995	103.155	19.991	6.916	0.493
678.500	410.591	80.001	19.995	103.148	19.989	7.021	0.519
679.000	410.835	80.003	19.995	103.146	19.989	7.036	0.526
679.500	411.107	80.002	19.995	103.146	19.988	7.068	0.519
680.000	411.356	80.002	19.994	103.146	19.987	7.156	0.519
680.500	411.659	80.003	19.994	103.147	19.988	7.121	0.536
681.000	411.880	80.001	19.994	103.149	19.989	7.033	0.537
681.500	412.129	80.001	19.994	103.150	19.987	7.128	0.497
682.000	412.359	80.003	19.995	103.150	19.987	7.141	0.475
682.500	412.629	80.002	19.994	103.150	19.987	7.146	0.489
683.000	412.873	80.003	19.995	103.150	19.984	7.364	0.507
683.500	413.102	80.001	19.995	103.149	19.984	7.394	0.494
684.000	413.390	80.002	19.994	103.149	19.988	7.101	0.495
684.500	413.646	80.002	19.995	103.147	19.982	7.499	0.531
685.000	413.890	80.002	19.994	103.147	19.983	7.464	0.522
685.500	414.108	80.000	19.994	103.147	19.979	7.735	0.481
686.000	414.357	80.001	19.995	103.147	19.982	7.508	0.465
686.500	414.646	80.002	19.994	103.147	19.978	7.750	0.503
687.000	414.868	80.002	19.995	103.148	19.977	7.866	0.524
687.500	415.127	80.001	19.995	103.148	19.979	7.717	0.496
688.000	415.379	80.003	19.995	103.149	19.976	7.922	0.496
688.500	415.647	80.002	19.996	103.151	19.977	7.872	0.515
689.000	415.889	80.001	19.994	103.154	19.977	7.866	0.514
689.500	416.138	80.001	19.993	103.157	19.975	7.965	0.500
690.000	416.371	80.001	19.995	103.162	19.977	7.861	0.486
690.500	416.605	80.000	19.995	103.167	19.977	7.827	0.475
691.000	416.901	80.000	19.995	103.167	19.972	8.205	0.499
691.500	417.179	80.000	19.996	103.170	19.971	8.228	0.552
692.000	417.399	80.002	19.995	103.169	19.971	8.236	0.536
692.500	417.687	80.001	19.994	103.164	19.969	8.381	0.503
693.000	417.902	80.000	19.995	103.159	19.968	8.493	0.506
693.500	418.156	80.001	19.995	103.157	19.967	8.513	0.486
694.000	418.410	80.000	19.994	103.144	19.967	8.518	0.489
694.500	418.697	79.999	19.994	103.134	19.965	8.660	0.525
695.000	418.962	80.000	19.994	103.126	19.967	8.500	0.546
695.500	419.200	80.001	19.995	103.120	19.965	8.684	0.527
696.000	419.450	80.001	19.994	103.119	19.964	8.713	0.496
696.500	419.718	80.002	19.995	103.126	19.964	8.708	0.503
697.000	419.931	80.000	19.995	103.134	19.962	8.868	0.500
697.500	420.235	80.001	19.995	103.142	19.964	8.752	0.499
698.000	420.494	80.001	19.996	103.149	19.962	8.866	0.540
698.500	420.720	80.003	19.994	103.151	19.959	9.091	0.524
699.000	420.972	80.001	19.995	103.151	19.962	8.899	0.482
699.500	421.248	80.001	19.994	103.152	19.957	9.228	0.503
700.000	421.489	80.002	19.996	103.151	19.958	9.133	0.522
700.500	421.737	80.001	19.995	103.151	19.955	9.380	0.503
701.000	421.984	80.001	19.995	103.151	19.957	9.224	0.492
701.500	422.270	80.002	19.994	103.153	19.952	9.584	0.514
702.000	422.490	80.003	19.996	103.155	19.950	9.711	0.520
702.500	422.776	80.003	19.995	103.158	19.950	9.696	0.506
703.000	423.030	80.003	19.996	103.164	19.951	9.653	0.523
703.500	423.280	80.003	19.994	103.170	19.949	9.788	0.522
704.000	423.530	80.002	19.995	103.168	19.946	9.988	0.502
704.500	423.792	80.004	19.995	103.165	19.948	9.825	0.506
705.000	424.015	80.002	19.994	103.161	19.944	10.083	0.499
705.500	424.314	80.003	19.994	103.154	19.945	10.029	0.504
706.000	424.505	80.004	19.994	103.148	19.941	10.291	0.506
706.500	424.751	80.004	19.993	103.147	19.943	10.194	0.463
707.000	425.057	80.003	19.994	103.145	19.940	10.385	0.494
707.500	425.293	80.005	19.994	103.142	19.940	10.373	0.546
708.000	425.543	80.003	19.995	103.141	19.935	10.721	0.514
708.500	425.771	80.003	19.994	103.140	19.936	10.671	0.482
709.000	426.037	80.005	19.995	103.140	19.934	10.772	0.487
709.500	426.300	80.005	19.993	103.142	19.932	10.959	0.512
710.000	426.561	80.004	19.993	103.144	19.932	10.973	0.526
710.500	426.836	80.003	19.994	103.147	19.930	11.089	0.530
711.000	427.081	80.004	19.994	103.147	19.928	11.229	0.529
711.500	427.331	80.002	19.994	103.147	19.926	11.342	0.508
712.000	427.537	80.004	19.995	103.147	19.926	11.342	0.475
712.500	427.805	80.003	19.995	103.147	19.923	11.535	0.465
713.000	428.048	80.002	19.995	103.147	19.921	11.718	0.492
713.500	428.328	80.004	19.995	103.147	19.919	11.837	0.516
714.000	428.552	80.004	19.995	103.147	19.916	12.059	0.513
714.500	428.825	80.003	19.996	103.148	19.916	12.031	0.501
715.000	429.051	80.003	19.995	103.147	19.914	12.203	0.499
715.500	429.314	80.003	19.995	103.147	19.914	12.185	0.494
716.000	429.526	80.004	19.996	103.147	19.913	12.227	0.482
716.500	429.816	80.003	19.996	103.147	19.908	12.611	0.488
717.000	430.019	80.002	19.996	103.147	19.907	12.677	0.498
717.500	430.281	80.001	19.996	103.148	19.907	12.656	0.479
718.000	430.536	80.003	19.995	103.148	19.906	12.736	0.490
718.500	430.777	80.002	19.996	103.148	19.905	12.822	0.506
719.000	431.003	80.002	19.996	103.148	19.902	13.037	0.482
719.500	431.286	80.002	19.996	103.147	19.898	13.290	0.488
720.000	431.507	80.003	19.997	103.147	19.897	13.354	0.506
720.500	431.752	80.003	19.996	103.144	19.895	13.513	0.485
721.000	432.012	80.004	19.996	103.142	19.893	13.651	0.486
721.500	432.285	80.002	19.996	103.141	19.892	13.661	0.519
722.000	432.498	80.002	19.995	103.139	19.888	13.960	0.509
722.500	432.764	80.002	19.996	103.139	19.884	14.209	0.482
723.000	433.022	80.002	19.996	103.142	19.884	14.215	0.501
723.500	433.258	80.001	19.995	103.143	19.883	14.284	0.509
724.000	433.526	80.002	19.996	103.140	19.878	14.679	0.499
724.500	433.761	80.003	19.996	103.134	19.879	14.578	0.504
725.000	434.059	80.003	19.995	103.128	19.876	14.759	0.518
725.500	434.267	80.003	19.997	103.127	19.874	14.922	0.519
726.000	434.512	80.003	19.995	103.127	19.870	15.222	0.480
726.500	434.771	80.004	19.996	103.132	19.872	15.098	0.479
727.000	435.043	80.004	19.995	103.142	19.867	15.386	0.517
727.500	435.286	80.002	19.996	103.149	19.867	15.440	0.523
728.000	435.530	80.004	19.996	103.150	19.862	15.758	0.501
728.500	435.776	80.003	19.995	103.149	19.860	15.915	0.488
729.000	436.078	80.004	19.995	103.147	19.858	16.031	0.518
729.500	436.295	80.003	19.996	103.146	19.854	16.299	0.533
730.000	436.546	80.003	19.995	103.145	19.851	16.479	0.494
730.500	436.815	80.004	19.995	103.144	19.850	16.552	0.495
731.000	437.087	80.004	19.996	103.145	19.848	16.752	0.530
731.500	437.269	80.004	19.995	103.146	19.846	16.876	0.497
732.000	437.607	80.003	19.995	103.146	19.844	17.001	0.487
732.500	437.809	80.004	19.995	103.147	19.841	17.220	0.530
733.000	438.081	80.004	19.995	103.148	19.837	17.482	0.507
733.500	438.307	80.004	19.994	103.148	19.835	17.628	0.486
734.000	438.556	80.004	19.996	103.147	19.832	17.813	0.487
734.500	438.827	80.002	19.994	103.147	19.830	17.980	0.498
735.000	439.075	80.004	19.997	103.147	19.829	18.019	0.519
735.500	439.308	80.004	19.995	103.147	19.827	18.155	0.500
736.000	439.578	80.004	19.995	103.148	19.819	18.679	0.492
736.500	439.815	80.003	19.998	103.149	19.817	18.828	0.505
737.000	440.119	80.004	19.995	103.149	19.815	18.972	0.524
737.500	440.319	80.002	19.996	103.150	19.814	19.043	0.522
738.000	440.598	80.004	19.995	103.150	19.810	19.345	0.491
738.500	440.842	80.003	19.996	103.148	19.810	19.360	0.501
739.000	441.115	80.003	19.995	103.148	19.806	19.596	0.520
739.500	441.343	80.003	19.995	103.148	19.801	19.968	0.509
740.000	441.568	80.003	19.995	103.147	19.797	20.247	0.477
740.500	441.864	80.004	19.996	103.148	19.797	20.236	0.487
741.000	442.090	80.003	19.995	103.149	19.792	20.547	0.522
741.500	442.393	80.003	19.995	103.149	19.791	20.629	0.525
742.000	442.616	80.001	19.996	103.150	19.788	20.841	0.528
742.500	442.875	80.001	19.995	103.150	19.782	21.258	0.505
743.000	443.122	80.001	19.995	103.150	19.779	21.479	0.494
743.500	443.349	80.002	19.995	103.150	19.777	21.629	0.489
744.000	443.636	80.000	19.996	103.150	19.773	21.889	0.494
744.500	443.887	79.999	19.996	103.149	19.771	22.005	0.526
745.000	444.083	80.002	19.996	103.150	19.764	22.488	0.493
745.500	444.375	80.001	19.996	103.149	19.763	22.583	0.468
746.000	444.601	80.001	19.995	103.149	19.756	23.036	0.503
746.500	444.862	80.002	19.996	103.147	19.754	23.182	0.502
747.000	445.142	80.001	19.995	103.146	19.750	23.468	0.514
747.500	445.389	80.000	19.995	103.143	19.748	23.601	0.534
748.000	445.623	80.001	19.995	103.143	19.744	23.885	0.504
748.500	445.872	79.999	19.996	103.143	19.742	24.017	0.482
749.000	446.123	80.000	19.996	103.145	19.735	24.474	0.492
749.500	446.354	80.000	19.996	103.146	19.732	24.689	0.491
750.000	446.605	80.001	19.996	103.148	19.730	24.858	0.481
750.500	446.852	80.001	19.995	103.147	19.725	25.195	0.490
751.000	447.132	79.999	19.997	103.147	19.724	25.226	0.513
751.500	447.389	80.001	19.996	103.147	19.716	25.798	0.532
752.000	447.608	80.001	19.996	103.149	19.714	25.955	0.506
752.500	447.876	80.001	19.996	103.151	19.707	26.394	0.482
753.000	448.163	80.000	19.996	103.152	19.705	26.527	0.521
753.500	448.361	80.000	19.996	103.152	19.706	26.487	0.520
754.000	448.663	79.999	19.995	103.152	19.703	26.716	0.492
754.500	448.910	80.000	19.997	103.152	19.696	27.135	0.524
755.000	449.173	80.001	19.995	103.150	19.692	27.459	0.529
755.500	449.411	80.001	19.996	103.151	19.688	27.713	0.506
756.000	449.651	80.001	19.996	103.152	19.685	27.899	0.490
756.500	449.912	80.000	19.996	103.151	19.684	27.999	0.489
757.000	450.203	80.000	19.996	103.151	19.676	28.537	0.526
757.500	450.478	80.000	19.996	103.151	19.676	28.522	0.559
758.000	450.701	80.001	19.995	103.151	19.672	28.855	0.532
758.500	450.987	80.002	19.995	103.151	19.665	29.285	0.504
759.000	451.204	80.002	19.996	103.151	19.662	29.505	0.506
759.500	451.491	80.002	19.995	103.153	19.660	29.636	0.503
760.000	451.755	80.002	19.996	103.157	19.655	30.012	0.527
760.500	451.998	80.001	19.995	103.157	19.651	30.254	0.530
761.000	452.240	80.002	19.995	103.157	19.646	30.577	0.496
761.500	452.522	80.001	19.995	103.157	19.641	30.950	0.504
762.000	452.778	80.000	19.995	103.154	19.641	30.920	0.531
762.500	453.025	80.002	19.995	103.151	19.636	31.300	0.520
763.000	453.301	80.003	19.995	103.150	19.633	31.492	0.513
763.500	453.559	80.001	19.995	103.149	19.633	31.480	0.529
764.000	453.793	80.002	19.995	103.149	19.627	31.893	0.513
764.500	454.057	80.001	19.995	103.148	19.622	32.230	0.494
765.000	454.350	80.002	19.994	103.144	19.619	32.482	0.527
765.500	454.600	80.000	19.994	103.144	19.618	32.522	0.550
766.000	454.845	80.002	19.995	103.143	19.614	32.790	0.519
766.500	455.115	80.001	19.994	103.143	19.613	32.862	0.505
767.000	455.354	80.002	19.993	103.144	19.611	33.037	0.512
767.500	455.642	80.002	19.995	103.149	19.610	33.102	0.518
768.000	455.877	80.001	19.995	103.149	19.603	33.536	0.525
768.500	456.166	80.002	19.996	103.150	19.602	33.662	0.523
769.000	456.417	80.002	19.994	103.150	19.599	33.855	0.532
769.500	456.682	80.001	19.995	103.150	19.597	34.008	0.528
770.000	456.941	80.001	19.994	103.148	19.591	34.383	0.520
770.500	457.219	80.002	19.995	103.148	19.589	34.525	0.530
771.000	457.463	80.001	19.995	103.148	19.588	34.583	0.530
771.500	457.719	80.001	19.995	103.148	19.583	34.914	0.511
772.000	457.992	80.000	19.996	103.152	19.586	34.745	0.515
772.500	458.249	80.000	19.995	103.154	19.584	34.905	0.529
773.000	458.500	80.001	19.995	103.154	19.580	35.171	0.519
773.500	458.766	80.001	19.996	103.154	19.579	35.221	0.512
774.000	458.998	80.000	19.995	103.154	19.576	35.427	0.508
774.500	459.283	80.001	19.995	103.150	19.574	35.566	0.508
775.000	459.536	80.002	19.995	103.149	19.574	35.540	0.527
775.500	459.820	80.002	19.996	103.148	19.573	35.635	0.537
776.000	460.087	80.001	19.996	103.153	19.569	35.925	0.544
776.500	460.341	80.001	19.995	103.161	19.572	35.728	0.536
777.000	460.587	80.001	19.997	103.162	19.566	36.083	0.511
777.500	460.844	80.001	19.996	103.161	19.564	36.240	0.502
778.000	461.089	80.001	19.996	103.161	19.563	36.282	0.502
778.500	461.394	80.000	19.995	103.157	19.562	36.407	0.526
779.000	461.600	80.001	19.995	103.150	19.560	36.499	0.530
779.500	461.905	80.001	19.995	103.150	19.559	36.591	0.511
780.000	462.194	80.000	19.995	103.150	19.559	36.600	0.553
780.500	462.436	80.002	19.995	103.151	19.558	36.652	0.562
781.000	462.719	80.002	19.994	103.153	19.559	36.622	0.528
781.500	462.998	80.001	19.995	103.152	19.557	36.731	0.543
782.000	463.235	80.002	19.996	103.151	19.557	36.742	0.539
782.500	463.457	80.001	19.996	103.150	19.553	37.004	0.488
783.000	463.725	80.002	19.995	103.150	19.553	36.971	0.475
783.500	463.998	80.001	19.996	103.147	19.552	37.078	0.516
784.000	464.260	80.001	19.995	103.148	19.550	37.238	0.538
784.500	464.491	80.000	19.995	103.151	19.553	36.974	0.514
785.000	464.772	80.003	19.994	103.152	19.550	37.223	0.503
785.500	465.018	80.001	19.996	103.153	19.549	37.252	0.519
786.000	465.284	80.002	19.994	103.154	19.550	37.208	0.519
786.500	465.565	80.001	19.995	103.154	19.552	37.081	0.530
787.000	465.838	80.003	19.995	103.152	19.551	37.109	0.551
787.500	466.079	80.001	19.995	103.152	19.551	37.152	0.534
788.000	466.366	80.002	19.995	103.151	19.553	36.997	0.521
788.500	466.618	80.003	19.995	103.149	19.557	36.722	0.533
789.000	466.910	80.003	19.994	103.147	19.552	37.052	0.542
789.500	467.157	80.003	19.995	103.147	19.551	37.157	0.541
790.000	467.391	80.002	19.996	103.147	19.550	37.230	0.510
790.500	467.694	80.003	19.995	103.147	19.552	37.083	0.509
791.000	467.908	80.003	19.994	103.147	19.553	37.029	0.527
791.500	468.186	80.003	19.993	103.146	19.557	36.710	0.504
792.000	468.436	80.003	19.995	103.145	19.558	36.657	0.510
792.500	468.656	80.003	19.995	103.142	19.560	36.552	0.499
793.000	468.924	80.003	19.996	103.142	19.560	36.489	0.479
793.500	469.159	80.004	19.995	103.142	19.563	36.347	0.496
794.000	469.431	80.002	19.995	103.142	19.560	36.523	0.505
794.500	469.686	80.004	19.994	103.143	19.564	36.247	0.517
795.000	469.963	80.003	19.995	103.145	19.565	36.189	0.530
795.500	470.219	80.002	19.994	103.146	19.566	36.103	0.532
796.000	470.471	80.003	19.995	103.145	19.566	36.103	0.521
796.500	470.692	80.002	19.995	103.145	19.567	36.060	0.490
797.000	470.937	80.002	19.995	103.145	19.570	35.803	0.469
797.500	471.210	80.003	19.995	103.146	19.573	35.631	0.492
798.000	471.447	80.002	19.994	103.147	19.576	35.424	0.513
798.500	471.721	80.003	19.993	103.148	19.574	35.590	0.510
799.000	471.942	80.002	19.994	103.149	19.576	35.455	0.503
799.500	472.206	80.001	19.995	103.149	19.576	35.391	0.490
800.000	472.461	80.000	19.995	103.149	19.581	35.053	0.502
800.500	472.741	80.002	19.995	103.149	19.583	34.921	0.527
801.000	473.005	80.002	19.995	103.149	19.584	34.903	0.540
801.500	473.213	80.001	19.994	103.148	19.588	34.608	0.508
802.000	473.480	80.002	19.994	103.148	19.588	34.628	0.474
802.500	473.751	80.002	19.995	103.146	19.593	34.282	0.507
803.000	474.019	80.002	19.995	103.143	19.593	34.232	0.538
803.500	474.244	80.002	19.995	103.143	19.594	34.155	0.516
804.000	474.474	80.002	19.994	103.144	19.596	34.037	0.474
804.500	474.748	80.002	19.995	103.144	19.601	33.692	0.480
805.000	475.015	80.003	19.994	103.147	19.602	33.632	0.522
805.500	475.292	80.002	19.995	103.148	19.604	33.518	0.543
806.000	475.527	80.002	19.994	103.148	19.607	33.321	0.528
806.500	475.746	80.001	19.994	103.149	19.609	33.143	0.483
807.000	476.011	80.002	19.994	103.149	19.610	33.050	0.469
807.500	476.266	80.003	19.994	103.149	19.615	32.749	0.502
808.000	476.494	80.001	19.994	103.151	19.621	32.327	0.502
808.500	476.721	80.003	19.996	103.151	19.619	32.461	0.469
809.000	476.969	80.002	19.995	103.150	19.620	32.420	0.465
809.500	477.238	80.002	19.996	103.148	19.624	32.106	0.495
810.000	477.477	80.004	19.995	103.147	19.623	32.186	0.513
810.500	477.756	80.003	19.995	103.147	19.629	31.783	0.513
811.000	477.992	80.002	19.995	103.143	19.630	31.693	0.516
811.500	478.206	80.002	19.995	103.144	19.634	31.458	0.482
812.000	478.465	80.003	19.995	103.145	19.636	31.308	0.462
812.500	478.712	80.002	19.993	103.144	19.638	31.129	0.490
813.000	478.935	80.004	19.995	103.140	19.639	31.096	0.488
813.500	479.197	80.002	19.994	103.142	19.642	30.900	0.477
814.000	479.447	80.003	19.996	103.142	19.643	30.847	0.498
814.500	479.695	80.004	19.995	103.141	19.645	30.672	0.505
815.000	479.942	80.002	19.995	103.143	19.645	30.648	0.497
815.500	480.183	80.003	19.995	103.146	19.650	30.321	0.492
816.000	480.417	80.004	19.995	103.144	19.654	30.089	0.481
816.500	480.659	80.003	19.995	103.139	19.654	30.062	0.476
817.000	480.907	80.002	19.995	103.139	19.657	29.880	0.484
817.500	481.169	80.003	19.996	103.138	19.660	29.643	0.500
818.000	481.428	80.003	19.995	103.140	19.662	29.493	0.516
818.500	481.659	80.002	19.995	103.141	19.663	29.438	0.505
819.000	481.946	80.003	19.995	103.147	19.665	29.303	0.504
819.500	482.131	80.003	19.995	103.147	19.669	29.009	0.495
820.000	482.400	80.001	19.994	103.146	19.671	28.873	0.463
820.500	482.660	80.002	19.995	103.146	19.676	28.539	0.492
821.000	482.918	80.002	19.995	103.148	19.680	28.272	0.523
821.500	483.155	80.002	19.995	103.150	19.679	28.369	0.506
822.000	483.408	80.003	19.994	103.151	19.683	28.062	0.492
822.500	483.645	80.001	19.995	103.151	19.686	27.828	0.490
823.000	483.903	80.002	19.995	103.152	19.687	27.779	0.493
823.500	484.159	80.000	19.995	103.152	19.690	27.562	0.504
824.000	484.423	80.002	19.994	103.150	19.691	27.503	0.517
824.500	484.665	80.001	19.995	103.150	19.694	27.331	0.513
825.000	484.915	80.001	19.995	103.147	19.696	27.178	0.499
825.500	485.165	80.001	19.995	103.146	19.701	26.837	0.497
826.000	485.443	80.001	19.995	103.146	19.704	26.629	0.514
826.500	485.691	80.002	19.995	103.147	19.706	26.459	0.527
827.000	485.903	80.001	19.996	103.147	19.710	26.212	0.493
827.500	486.180	80.001	19.996	103.150	19.713	25.981	0.474
828.000	486.461	80.002	19.996	103.151	19.712	26.073	0.523
828.500	486.671	80.001	19.996	103.150	19.716	25.804	0.525
829.000	486.921	80.001	19.995	103.150	19.721	25.469	0.476
829.500	487.169	80.002	19.995	103.149	19.725	25.191	0.479
830.000	487.458	80.001	19.996	103.148	19.724	25.265	0.517
830.500	487.695	80.003	19.995	103.147	19.726	25.093	0.532
831.000	487.912	80.001	19.995	103.147	19.733	24.657	0.490
831.500	488.193	80.001	19.995	103.147	19.734	24.571	0.476
832.000	488.408	80.000	19.996	103.147	19.735	24.473	0.497
832.500	488.682	80.001	19.995	103.147	19.736	24.394	0.492
833.000	488.942	80.001	19.996	103.146	19.740	24.143	0.512
833.500	489.212	80.002	19.995	103.146	19.743	23.933	0.532
834.000	489.423	80.002	19.996	103.145	19.745	23.830	0.505
834.500	489.714	80.001	19.995	103.145	19.749	23.493	0.492
835.000	489.956	80.001	19.996	103.145	19.751	23.392	0.518
835.500	490.212	80.002	19.997	103.147	19.753	23.242	0.515
836.000	490.434	80.001	19.995	103.147	19.761	22.691	0.488
836.500	490.701	80.002	19.996	103.148	19.756	23.062	0.484
837.000	490.962	80.001	19.996	103.147	19.763	22.579	0.508
837.500	491.192	80.000	19.997	103.147	19.764	22.520	0.509
838.000	491.447	80.001	19.997	103.145	19.767	22.269	0.488
838.500	491.682	80.001	19.996	103.145	19.769	22.157	0.488
839.000	491.955	80.001	19.995	103.146	19.770	22.078	0.499
839.500	492.222	80.002	19.997	103.148	19.778	21.545	0.524
840.000	492.490	80.000	19.996	103.148	19.777	21.581	0.538
840.500	492.695	80.002	19.995	103.149	19.779	21.429	0.504
841.000	492.998	80.000	19.996	103.148	19.782	21.288	0.490
841.500	493.229	80.002	19.996	103.147	19.784	21.131	0.521
842.000	493.483	80.001	19.996	103.145	19.787	20.918	0.510
842.500	493.726	80.000	19.996	103.145	19.789	20.806	0.491
843.000	494.040	80.001	19.995	103.144	19.790	20.735	0.527
843.500	494.270	80.001	19.996	103.142	19.793	20.531	0.550
844.000	494.569	80.001	19.997	103.142	19.794	20.432	0.536
844.500	494.858	80.002	19.996	103.140	19.799	20.082	0.559
845.000	495.072	80.002	19.996	103.136	19.800	20.048	0.545
845.500	495.348	80.002	19.997	103.136	19.803	19.844	0.496
846.000	495.555	80.000	19.995	103.138	19.803	19.792	0.487
846.500	495.856	80.001	19.996	103.138	19.808	19.496	0.496
847.000	496.094	80.001	19.996	103.139	19.808	19.438	0.523
847.500	496.351	80.000	19.997	103.143	19.807	19.503	0.517
848.000	496.631	80.000	19.995	103.143	19.809	19.406	0.516
848.500	496.903	80.002	19.995	103.145	19.814	19.036	0.545
849.000	497.166	80.002	19.997	103.145	19.817	18.844	0.544
849.500	497.437	80.002	19.995	103.145	19.817	18.838	0.534
850.000	497.716	80.001	19.996	103.146	19.821	18.561	0.542
850.500	497.954	80.002	19.995	103.146	19.822	18.475	0.534
851.000	498.228	80.002	19.997	103.145	19.825	18.295	0.514
851.500	498.503	80.002	19.997	103.144	19.829	18.043	0.530
852.000	498.758	80.001	19.996	103.143	19.830	17.941	0.540
852.500	499.004	80.001	19.995	103.142	19.831	17.889	0.516
853.000	499.283	80.002	19.996	103.142	19.833	17.730	0.513
853.500	499.570	80.001	19.995	103.143	19.837	17.455	0.546
854.000	499.825	80.001	19.995	103.144	19.838	17.384	0.554
854.500	500.105	80.002	19.996	103.145	19.841	17.189	0.538
855.000	500.377	80.002	19.996	103.145	19.840	17.257	0.543
855.500	500.661	80.001	19.996	103.146	19.846	16.848	0.554
856.000	500.895	80.001	19.996	103.146	19.847	16.820	0.537
856.500	501.175	80.001	19.995	103.145	19.850	16.601	0.516
857.000	501.466	80.001	19.995	103.143	19.850	16.567	0.543
857.500	501.717	80.001	19.996	103.143	19.854	16.326	0.557
858.000	501.975	80.001	19.995	103.143	19.855	16.256	0.525
858.500	502.250	80.001	19.996	103.143	19.858	16.035	0.521
859.000	502.516	80.001	19.997	103.144	19.857	16.077	0.537
859.500	502.817	80.002	19.995	103.147	19.863	15.652	0.554
860.000	503.073	80.001	19.995	103.148	19.863	15.688	0.562
860.500	503.341	80.001	19.996	103.148	19.866	15.454	0.541
861.000	503.613	80.000	19.995	103.148	19.866	15.491	0.532
861.500	503.863	80.001	19.995	103.148	19.871	15.107	0.531
862.000	504.164	80.000	19.994	103.146	19.876	14.795	0.537
862.500	504.401	80.000	19.995	103.146	19.875	14.840	0.545
863.000	504.679	80.001	19.995	103.145	19.876	14.772	0.526
863.500	504.940	80.001	19.994	103.144	19.877	14.714	0.527
864.000	505.234	80.000	19.995	103.142	19.881	14.450	0.547
864.500	505.522	80.002	19.995	103.145	19.882	14.405	0.568
865.000	505.804	80.002	19.995	103.145	19.886	14.089	0.576
865.500	506.063	80.003	19.995	103.146	19.885	14.198	0.556
866.000	506.327	80.000	19.995	103.147	19.887	14.009	0.532
866.500	506.604	80.002	19.995	103.150	19.887	14.039	0.532
867.000	506.861	80.003	19.995	103.150	19.892	13.715	0.538
867.500	507.152	80.002	19.995	103.150	19.893	13.597	0.541
868.000	507.437	80.002	19.994	103.149	19.893	13.653	0.562
868.500	507.688	80.002	19.994	103.149	19.895	13.458	0.555
869.000	508.011	80.003	19.996	103.149	19.902	13.032	0.555
869.500	508.255	80.003	19.994	103.149	19.902	13.019	0.571
870.000	508.531	80.003	19.995	103.150	19.901	13.050	0.544
870.500	508.800	80.002	19.995	103.151	19.903	12.929	0.532
871.000	509.093	80.003	19.995	103.151	19.907	12.652	0.554
871.500	509.349	80.003	19.995	103.151	19.908	12.620	0.556
872.000	509.613	80.003	19.995	103.151	19.909	12.526	0.534
872.500	509.890	80.003	19.995	103.149	19.912	12.326	0.531
873.000	510.178	80.004	19.994	103.149	19.915	12.137	0.553
873.500	510.433	80.002	19.994	103.149	19.913	12.266	0.554
874.000	510.723	80.002	19.995	103.148	19.914	12.158	0.544
874.500	511.018	80.001	19.995	103.148	19.914	12.183	0.565
875.000	511.266	80.002	19.995	103.146	19.916	12.071	0.564
875.500	511.545	80.003	19.995	103.146	19.919	11.867	0.535
876.000	511.842	80.003	19.995	103.146	19.923	11.541	0.551
876.500	512.086	80.002	19.995	103.147	19.923	11.549	0.558
877.000	512.349	80.002	19.994	103.147	19.925	11.453	0.524
877.500	512.615	80.002	19.995	103.149	19.924	11.485	0.519
878.000	512.883	80.005	19.994	103.149	19.926	11.326	0.532
878.500	513.186	80.001	19.994	103.148	19.928	11.197	0.552
879.000	513.430	80.003	19.995	103.147	19.930	11.054	0.559
879.500	513.748	80.001	19.995	103.146	19.933	10.897	0.555
880.000	513.989	80.001	19.994	103.145	19.932	10.913	0.560
880.500	514.301	80.001	19.994	103.145	19.937	10.563	0.556
881.000	514.581	80.001	19.996	103.144	19.936	10.659	0.572
881.500	514.865	80.001	19.994	103.145	19.939	10.446	0.578
882.000	515.063	80.002	19.994	103.147	19.941	10.289	0.523
882.500	515.412	80.001	19.995	103.144	19.940	10.407	0.514
883.000	515.662	80.001	19.995	103.141	19.939	10.433	0.573
883.500	515.942	80.002	19.995	103.140	19.945	10.027	0.564
884.000	516.252	80.002	19.994	103.140	19.945	10.043	0.560
884.500	516.542	80.002	19.995	103.140	19.952	9.540	0.595
885.000	516.798	80.001	19.996	103.144	19.950	9.686	0.573
885.500	517.072	80.003	19.993	103.149	19.951	9.658	0.538
886.000	517.351	80.001	19.994	103.151	19.953	9.493	0.542
886.500	517.622	80.002	19.995	103.151	19.954	9.431	0.552
887.000	517.872	80.002	19.995	103.151	19.955	9.378	0.535
887.500	518.162	80.002	19.995	103.150	19.955	9.361	0.530
888.000	518.418	80.001	19.995	103.150	19.956	9.303	0.543
888.500	518.668	80.002	19.994	103.151	19.957	9.250	0.526
889.000	518.941	80.003	19.994	103.151	19.954	9.415	0.514
889.500	519.230	80.001	19.995	103.151	19.958	9.122	0.542
890.000	519.552	80.003	19.994	103.147	19.960	9.019	0.587
890.500	519.774	80.003	19.994	103.146	19.963	8.814	0.577
891.000	520.059	80.002	19.994	103.142	19.963	8.803	0.525
891.500	520.381	80.004	19.995	103.140	19.964	8.711	0.557
892.000	520.621	80.002	19.994	103.140	19.963	8.797	0.584
892.500	520.935	80.003	19.994	103.143	19.963	8.780	0.558
893.000	521.157	80.004	19.993	103.143	19.966	8.580	0.545
893.500	521.424	80.003	19.994	103.146	19.968	8.432	0.513
894.000	521.699	80.004	19.995	103.147	19.967	8.535	0.516
894.500	521.959	80.004	19.994	103.143	19.970	8.357	0.539
895.000	522.255	80.003	19.994	103.141	19.970	8.316	0.545
895.500	522.531	80.001	19.996	103.141	19.970	8.352	0.564
896.000	522.833	80.004	19.993	103.141	19.971	8.288	0.575
896.500	523.109	80.004	19.995	103.137	19.972	8.179	0.578
897.000	523.355	80.003	19.994	103.136	19.973	8.138	0.550
897.500	523.620	80.005	19.994	103.134	19.974	8.072	0.517
898.000	523.958	80.004	19.994	103.129	19.974	8.018	0.557
898.500	524.189	80.005	19.995	103.123	19.975	7.958	0.586
899.000	524.483	80.003	19.995	103.121	19.974	8.073	0.547
899.500	524.746	80.002	19.993	103.124	19.973	8.142	0.541
900.000	525.034	80.003	19.994	103.127	19.976	7.916	0.554
900.500	525.280	80.004	19.994	103.127	19.975	7.967	0.542
901.000	525.565	80.003	19.994	103.132	19.974	8.027	0.532
901.500	525.829	80.003	19.994	103.136	19.977	7.813	0.540
902.000	526.097	80.003	19.994	103.138	19.977	7.847	0.541
902.500	526.384	80.002	19.995	103.136	19.976	7.887	0.544
903.000	526.614	80.002	19.995	103.139	19.980	7.615	0.536
903.500	526.905	80.003	19.995	103.136	19.979	7.690	0.519
904.000	527.186	80.002	19.996	103.135	19.981	7.585	0.546
904.500	527.434	80.002	19.994	103.135	19.982	7.516	0.550
905.000	527.717	80.001	19.995	103.137	19.980	7.650	0.530
905.500	527.999	80.001	19.995	103.136	19.978	7.762	0.548
906.000	528.257	80.001	19.995	103.138	19.979	7.674	0.553
906.500	528.538	79.999	19.996	103.138	19.980	7.634	0.540
907.000	528.797	80.001	19.995	103.136	19.982	7.471	0.539
907.500	529.059	80.001	19.995	103.132	19.982	7.507	0.530
908.000	529.344	80.001	19.995	103.132	19.984	7.396	0.534
908.500	529.593	80.000	19.995	103.131	19.985	7.325	0.541
909.000	529.869	80.002	19.995	103.131	19.984	7.381	0.529
909.500	530.117	80.000	19.995	103.132	19.990	6.949	0.524
910.000	530.399	80.000	19.996	103.137	19.987	7.134	0.527
910.500	530.666	80.000	19.996	103.140	19.988	7.086	0.539
911.000	530.951	80.001	19.995	103.142	19.986	7.218	0.550
911.500	531.215	80.001	19.996	103.142	19.989	7.025	0.550
912.000	531.480	80.000	19.995	103.143	19.989	7.001	0.539
912.500	531.729	80.000	19.996	103.145	19.987	7.162	0.522
913.000	531.992	80.001	19.994	103.146	19.991	6.859	0.513
913.500	532.256	80.001	19.996	103.146	19.989	7.003	0.520
914.000	532.524	80.001	19.996	103.146	19.989	7.054	0.529
914.500	532.768	80.001	19.994	103.146	19.989	7.011	0.522
915.000	533.065	80.002	19.996	103.144	19.990	6.960	0.527
915.500	533.285	80.002	19.994	103.139	19.990	6.949	0.529
916.000	533.573	80.000	19.995	103.134	19.991	6.880	0.513
916.500	533.850	80.002	19.995	103.130	19.993	6.775	0.536
917.000	534.101	80.000	19.996	103.126	19.991	6.876	0.546
917.500	534.378	80.001	19.995	103.122	19.994	6.699	0.528
918.000	534.630	80.002	19.995	103.124	19.994	6.655	0.529
918.500	534.895	80.002	19.996	103.122	19.994	6.710	0.523
919.000	535.145	80.000	19.994	103.120	19.993	6.775	0.516
919.500	535.430	80.001	19.995	103.117	19.993	6.760	0.525
920.000	535.701	80.002	19.995	103.118	19.994	6.710	0.546
920.500	535.937	80.001	19.995	103.116	19.994	6.685	0.532
921.000	536.232	80.001	19.994	103.121	19.995	6.579	0.519
921.500	536.488	80.002	19.995	103.126	19.995	6.641	0.541
922.000	536.740	80.001	19.995	103.133	19.996	6.551	0.529
922.500	537.016	80.002	19.996	103.138	19.993	6.768	0.518
923.000	537.304	80.001	19.995	103.142	19.998	6.423	0.546
923.500	537.534	80.002	19.995	103.145	19.995	6.575	0.541
924.000	537.802	80.002	19.994	103.145	19.996	6.515	0.508
924.500	538.046	80.002	19.995	103.146	19.997	6.438	0.505
925.000	538.319	80.003	19.995	103.147	19.998	6.391	0.514
925.500	538.553	80.002	19.994	103.144	19.999	6.351	0.512
926.000	538.805	80.003	19.995	103.144	19.998	6.422	0.497
926.500	539.070	80.002	19.995	103.145	19.998	6.381	0.502
927.000	539.350	80.002	19.996	103.145	20.000	6.240	0.531
927.500	539.629	80.002	19.995	103.145	19.997	6.478	0.552
928.000	539.865	80.002	19.996	103.148	19.998	6.410	0.537
928.500	540.089	80.002	19.995	103.148	20.002	6.111	0.487
929.000	540.367	80.000	19.995	103.148	20.003	6.055	0.481
929.500	540.629	80.001	19.995	103.147	20.000	6.233	0.521
930.000	540.886	80.000	19.996	103.147	19.998	6.384	0.529
930.500	541.145	79.999	19.995	103.147	19.999	6.337	0.518
931.000	541.382	80.001	19.996	103.147	20.002	6.113	0.506
931.500	541.670	80.002	19.994	103.149	20.004	5.995	0.511
932.000	541.949	80.001	19.995	103.150	19.998	6.409	0.546
932.500	542.193	80.000	19.996	103.151	19.995	6.592	0.545
933.000	542.459	80.001	19.996	103.150	19.998	6.369	0.517
933.500	542.723	80.001	19.996	103.150	20.000	6.257	0.520
934.000	543.008	80.001	19.996	103.148	20.001	6.226	0.539
934.500	543.217	80.000	19.996	103.147	19.999	6.321	0.521
935.000	543.472	80.001	19.995	103.143	20.002	6.145	0.479
935.500	543.726	80.000	19.996	103.141	20.002	6.095	0.486
936.000	543.974	80.001	19.996	103.137	20.003	6.064	0.506
936.500	544.219	80.001	19.996	103.131	20.001	6.178	0.498
937.000	544.449	80.000	19.996	103.128	20.002	6.104	0.484
937.500	544.738	79.999	19.996	103.127	20.003	6.089	0.496
938.000	545.005	79.999	19.997	103.123	20.003	6.078	0.537
938.500	545.266	80.001	19.997	103.121	20.004	5.994	0.542
939.000	545.513	80.000	19.996	103.119	20.006	5.878	0.518
939.500	545.775	80.001	19.996	103.117	20.006	5.841	0.509
940.000	545.982	80.000	19.994	103.116	20.001	6.162	0.489
940.500	546.269	79.999	19.997	103.116	20.001	6.202	0.481
941.000	546.532	80.000	19.996	103.117	20.005	5.887	0.522
941.500	546.785	79.999	19.995	103.119	20.004	6.009	0.533
942.000	547.045	80.000	19.996	103.117	20.003	6.069	0.514
942.500	547.284	80.001	19.997	103.117	20.006	5.867	0.506
943.000	547.562	80.000	19.995	103.119	20.004	5.960	0.508
943.500	547.845	80.000	19.995	103.116	20.007	5.798	0.540
944.000	548.082	80.001	19.996	103.118	20.008	5.732	0.541
944.500	548.327	80.001	19.996	103.124	20.007	5.772	0.501
945.000	548.585	80.001	19.995	103.126	20.008	5.699	0.492
945.500	548.828	80.001	19.995	103.126	20.006	5.884	0.502
946.000	549.101	80.001	19.995	103.127	20.006	5.845	0.509
946.500	549.330	80.000	19.995	103.124	20.006	5.843	0.509
947.000	549.563	80.001	19.995	103.118	20.004	5.965	0.482
947.500	549.829	80.000	19.995	103.118	20.008	5.714	0.480
948.000	550.083	80.002	19.995	103.124	20.007	5.779	0.510
948.500	550.353	80.002	19.995	103.128	20.008	5.702	0.522
949.000	550.604	80.003	19.995	103.131	20.009	5.631	0.523
949.500	550.853	80.002	19.995	103.134	20.010	5.577	0.510
950.000	551.096	80.001	19.995	103.137	20.007	5.777	0.496
950.500	551.334	80.001	19.995	103.132	20.009	5.637	0.487
951.000	551.625	80.001	19.994	103.133	20.010	5.565	0.505
951.500	551.863	80.002	19.995	103.132	20.008	5.742	0.528
952.000	552.110	80.002	19.995	103.131	20.009	5.662	0.507
952.500	552.380	80.002	19.994	103.126	20.007	5.772	0.502
953.000	552.643	80.003	19.995	103.128	20.006	5.819	0.525
953.500	552.885	80.003	19.994	103.128	20.006	5.875	0.518
954.000	553.145	80.002	19.995	103.132	20.009	5.614	0.503
954.500	553.405	80.002	19.994	103.135	20.009	5.660	0.512
955.000	553.637	80.001	19.994	103.137	20.006	5.862	0.506
955.500	553.926	80.004	19.994	103.140	20.009	5.621	0.506
956.000	554.198	80.002	19.995	103.142	20.011	5.533	0.540
956.500	554.441	80.001	19.995	103.144	20.011	5.488	0.538
957.000	554.688	80.002	19.995	103.146	20.009	5.656	0.503
957.500	554.933	80.004	19.994	103.145	20.010	5.549	0.491
958.000	555.204	80.002	19.994	103.146	20.010	5.544	0.504
958.500	555.470	80.003	19.995	103.143	20.011	5.525	0.527
959.000	555.700	80.003	19.995	103.138	20.011	5.508	0.517
959.500	555.936	80.003	19.994	103.135	20.013	5.358	0.481
960.000	556.181	80.002	19.995	103.137	20.013	5.398	0.473
960.500	556.454	80.002	19.995	103.136	20.011	5.482	0.499
961.000	556.723	80.002	19.994	103.139	20.013	5.394	0.530
961.500	556.991	80.002	19.994	103.143	20.015	5.233	0.540
962.000	557.222	80.001	19.995	103.146	20.012	5.441	0.518
962.500	557.488	80.001	19.994	103.147	20.015	5.254	0.498
963.000	557.755	80.002	19.995	103.148	20.015	5.252	0.515
963.500	557.988	80.001	19.995	103.149	20.015	5.241	0.517
964.000	558.250	80.003	19.994	103.151	20.014	5.334	0.497
964.500	558.508	80.002	19.995	103.151	20.013	5.345	0.507
965.000	558.736	80.001	19.996	103.153	20.019	4.977	0.503
965.500	559.000	80.002	19.996	103.154	20.014	5.301	0.489
966.000	559.254	80.002	19.996	103.153	20.014	5.330	0.504
966.500	559.511	80.003	19.994	103.151	20.016	5.183	0.514
967.000	559.773	80.003	19.995	103.150	20.015	5.254	0.515
967.500	560.030	80.002	19.995	103.146	20.013	5.364	0.519
968.000	560.278	80.003	19.994	103.142	20.015	5.231	0.512
968.500	560.515	80.002	19.995	103.141	20.015	5.244	0.495
969.000	560.791	80.002	19.994	103.139	20.016	5.194	0.499
969.500	561.049	80.003	19.994	103.138	20.016	5.171	0.524
970.000	561.277	80.003	19.995	103.136	20.020	4.883	0.510
970.500	561.554	80.003	19.995	103.138	20.019	4.949	0.496
971.000	561.792	80.003	19.996	103.138	20.015	5.259	0.510
971.500	562.039	80.004	19.995	103.140	20.016	5.164	0.500
972.000	562.328	80.003	19.994	103.140	20.017	5.110	0.511
972.500	562.582	80.002	19.995	103.143	20.013	5.402	0.539
973.000	562.817	80.003	19.996	103.143	20.016	5.175	0.516
973.500	563.026	80.002	19.995	103.144	20.016	5.155	0.466
974.000	563.317	80.004	19.995	103.145	20.016	5.183	0.472
974.500	563.549	80.004	19.994	103.146	20.017	5.114	0.512
975.000	563.795	80.005	19.995	103.143	20.018	5.007	0.501
975.500	564.042	80.005	19.995	103.142	20.017	5.101	0.485
976.000	564.282	80.004	19.995	103.142	20.016	5.164	0.490
976.500	564.541	80.005	19.994	103.142	20.017	5.073	0.494
977.000	564.782	80.004	19.995	103.143	20.017	5.121	0.500
977.500	565.059	80.004	19.994	103.145	20.018	5.009	0.509
978.000	565.293	80.003	19.994	103.145	20.014	5.271	0.514
978.500	565.537	80.004	19.995	103.145	20.017	5.102	0.495
979.000	565.799	80.006	19.994	103.142	20.019	4.955	0.492
979.500	566.018	80.005	19.994	103.140	20.017	5.130	0.493
980.000	566.320	80.005	19.994	103.139	20.015	5.226	0.501
980.500	566.541	80.005	19.994	103.140	20.017	5.101	0.522
981.000	566.787	80.004	19.994	103.138	20.017	5.119	0.495
981.500	567.040	80.005	19.995	103.141	20.016	5.189	0.483
982.000	567.324	80.005	19.995	103.141	20.016	5.150	0.518
982.500	567.559	80.006	19.994	103.142	20.016	5.176	0.528
983.000	567.808	80.004	19.995	103.142	20.019	4.927	0.502
983.500	568.093	80.005	19.995	103.143	20.020	4.857	0.509
984.000	568.327	80.005	19.995	103.143	20.019	4.926	0.527
984.500	568.569	80.005	19.997	103.144	20.020	4.906	0.498
985.000	568.815	80.003	19.996	103.144	20.019	4.984	0.482
985.500	569.083	80.004	19.995	103.145	20.024	4.603	0.501
986.000	569.345	80.002	19.995	103.147	20.023	4.678	0.522
986.500	569.545	80.003	19.994	103.148	20.024	4.592	0.496
987.000	569.830	80.002	19.994	103.148	20.022	4.755	0.474
987.500	570.090	80.002	19.995	103.149	20.022	4.753	0.515
988.000	570.330	80.002	19.995	103.149	20.021	4.796	0.522
988.500	570.580	80.003	19.994	103.147	20.022	4.778	0.495
989.000	570.833	80.002	19.994	103.146	20.024	4.604	0.497
989.500	571.078	80.002	19.995	103.147	20.022	4.783	0.500
990.000	571.325	80.003	19.995	103.147	20.022	4.764	0.495
990.500	571.572	80.003	19.995	103.147	20.021	4.852	0.493
991.000	571.892	80.001	19.997	103.148	20.024	4.607	0.530
991.500	572.089	80.002	19.995	103.149	20.024	4.594	0.542
992.000	572.367	80.001	19.994	103.151	20.020	4.903	0.496
992.500	572.621	80.002	19.994	103.152	20.022	4.722	0.504
993.000	572.865	80.002	19.995	103.153	20.024	4.645	0.515
993.500	573.133	80.002	19.993	103.152	20.024	4.596	0.505
994.000	573.366	80.002	19.993	103.151	20.023	4.710	0.506
994.500	573.614	80.003	19.995	103.146	20.025	4.573	0.491
995.000	573.882	80.002	19.994	103.142	20.024	4.641	0.498
995.500	574.151	80.002	19.995	103.142	20.025	4.532	0.526
996.000	574.435	80.002	19.994	103.143	20.025	4.539	0.546
996.500	574.666	80.001	19.995	103.145	20.025	4.523	0.534
997.000	574.956	80.001	19.995	103.148	20.023	4.650	0.518
997.500	575.261	80.001	19.996	103.152	20.026	4.472	0.558
998.000	575.476	80.000	19.996	103.157	20.027	4.418	0.558
998.500	575.743	80.001	19.995	103.161	20.023	4.713	0.501
999.000	576.009	80.001	19.995	103.161	20.028	4.326	0.507
999.500	576.235	80.001	19.995	103.163	20.023	4.674	0.513
1000.000	576.477	80.003	19.994	103.162	20.025	4.526	0.480
1000.500	576.744	80.002	19.995	103.157	20.026	4.483	0.488
1001.000	576.998	80.002	19.996	103.154	20.024	4.590	0.515
1001.500	577.231	80.001	19.997	103.154	20.028	4.333	0.504
1002.000	577.491	80.002	19.996	103.153	20.025	4.571	0.490
1002.500	577.740	80.003	19.996	103.158	20.029	4.242	0.501
1003.000	578.009	80.001	19.996	103.161	20.027	4.431	0.514
1003.500	578.239	80.001	19.995	103.165	20.025	4.534	0.509
1004.000	578.500	80.001	19.995	103.164	20.028	4.322	0.495
1004.500	578.711	80.001	19.995	103.163	20.028	4.322	0.481
1005.000	579.014	80.003	19.996	103.158	20.027	4.433	0.492
1005.500	579.239	80.002	19.995	103.156	20.026	4.446	0.521
1006.000	579.518	80.001	19.997	103.153	20.025	4.534	0.516
1006.500	579.732	80.002	19.995	103.152	20.026	4.509	0.499
1007.000	579.988	80.002	19.997	103.152	20.028	4.322	0.482
1007.500	580.245	80.003	19.996	103.152	20.029	4.240	0.491
1008.000	580.515	80.002	19.995	103.150	20.027	4.410	0.520
1008.500	580.782	80.002	19.995	103.150	20.029	4.272	0.532
1009.000	581.015	80.001	19.995	103.150	20.026	4.470	0.518
1009.500	581.264	80.002	19.996	103.150	20.029	4.264	0.491
1010.000	581.527	80.002	19.995	103.151	20.026	4.491	0.497
1010.500	581.764	80.001	19.994	103.151	20.026	4.463	0.506
1011.000	582.024	80.002	19.997	103.148	20.028	4.362	0.498
1011.500	582.309	80.000	19.995	103.145	20.026	4.506	0.521
1012.000	582.547	80.002	19.995	103.144	20.026	4.493	0.534
1012.500	582.800	80.002	19.996	103.144	20.026	4.453	0.507
1013.000	583.002	80.002	19.995	103.144	20.026	4.478	0.473
1013.500	583.257	80.001	19.996	103.145	20.026	4.466	0.456
1014.000	583.536	80.001	19.995	103.148	20.028	4.320	0.496
1014.500	583.773	80.002	19.994	103.146	20.025	4.521	0.525
1015.000	584.012	80.001	19.996	103.145	20.027	4.386	0.496
1015.500	584.265	80.000	19.997	103.145	20.026	4.453	0.484
1016.000	584.531	80.001	19.996	103.147	20.030	4.232	0.506
1016.500	584.768	80.000	19.997	103.147	20.025	4.569	0.511
1017.000	585.030	80.001	19.996	103.148	20.026	4.506	0.501
1017.500	585.292	80.001	19.997	103.150	20.024	4.618	0.511
1018.000	585.520	80.000	19.996	103.150	20.026	4.451	0.507
1018.500	585.793	80.001	19.995	103.150	20.026	4.507	0.496
1019.000	586.025	80.001	19.996	103.150	20.030	4.225	0.503
1019.500	586.261	80.000	19.995	103.150	20.026	4.504	0.486
1020.000	586.523	80.001	19.996	103.149	20.026	4.489	0.483
1020.500	586.780	80.001	19.995	103.148	20.026	4.494	0.509
1021.000	587.041	80.000	19.995	103.148	20.025	4.526	0.518
1021.500	587.260	80.001	19.996	103.147	20.027	4.432	0.499
1022.000	587.513	80.001	19.996	103.149	20.024	4.632	0.476
1022.500	587.774	80.001	19.996	103.149	20.027	4.390	0.493
1023.000	588.029	80.001	19.996	103.150	20.028	4.338	0.515
1023.500	588.261	80.003	19.996	103.150	20.025	4.543	0.502
1024.000	588.509	80.001	19.995	103.150	20.027	4.433	0.483
1024.499	588.738	80.001	19.997	103.149	20.027	4.414	0.478
1024.999	589.010	80.002	19.997	103.148	20.027	4.377	0.489
1025.499	589.226	80.002	19.996	103.148	20.026	4.463	0.494
1025.999	589.481	80.000	19.997	103.147	20.028	4.317	0.480
1026.500	589.748	80.001	19.996	103.148	20.026	4.511	0.497
1027.000	589.971	80.001	19.998	103.147	20.028	4.365	0.506
1027.499	590.243	80.003	19.996	103.147	20.029	4.245	0.492
1027.999	590.475	80.001	19.997	103.146	20.026	4.507	0.499
1028.499	590.716	80.003	19.996	103.145	20.028	4.331	0.488
1029.000	590.962	80.002	19.995	103.145	20.028	4.373	0.480
1029.500	591.212	80.001	19.996	103.143	20.029	4.273	0.492
1029.999	591.481	80.002	19.995	103.143	20.027	4.442	0.508
1030.499	591.686	80.002	19.997	103.145	20.027	4.384	0.496
1030.999	591.913	80.002	19.997	103.143	20.025	4.513	0.453
1031.499	592.166	80.001	19.997	103.141	20.028	4.307	0.456
1031.999	592.426	80.002	19.996	103.138	20.026	4.490	0.497
1032.499	592.643	80.002	19.996	103.133	20.030	4.196	0.495
1032.999	592.951	80.002	19.997	103.126	20.031	4.132	0.501
1033.499	593.148	80.002	19.996	103.121	20.029	4.276	0.515
1034.000	593.412	80.002	19.997	103.117	20.027	4.390	0.483
1034.501	593.656	80.003	19.995	103.112	20.030	4.197	0.484
1035.000	593.895	80.002	19.996	103.110	20.028	4.360	0.495
1035.499	594.141	80.002	19.996	103.110	20.026	4.461	0.484
1035.999	594.374	80.004	19.996	103.112	20.029	4.250	0.482
1036.499	594.616	80.004	19.996	103.116	20.028	4.344	0.477
1037.000	594.924	80.002	19.995	103.124	20.027	4.381	0.513
1037.500	595.156	80.002	19.996	103.132	20.027	4.381	0.545
1037.999	595.414	80.004	19.996	103.139	20.030	4.179	0.515
1038.499	595.645	80.004	19.994	103.143	20.030	4.235	0.490
1038.999	595.871	80.002	19.996	103.144	20.030	4.216	0.473
1039.499	596.111	80.002	19.996	103.145	20.026	4.495	0.461
1039.999	596.326	80.004	19.996	103.144	20.031	4.134	0.461
1040.499	596.653	80.002	19.995	103.143	20.028	4.355	0.499
1040.999	596.854	80.003	19.995	103.143	20.027	4.404	0.535
1041.500	597.091	80.002	19.996	103.143	20.027	4.398	0.483
1042.000	597.332	80.004	19.996	103.142	20.028	4.367	0.458
1042.499	597.573	80.002	19.994	103.141	20.026	4.494	0.480
1042.999	597.816	80.002	19.995	103.137	20.029	4.303	0.483
1043.500	598.084	80.003	19.995	103.130	20.027	4.408	0.498
1044.000	598.344	80.002	19.995	103.123	20.025	4.533	0.520
1044.499	598.584	80.002	19.998	103.117	20.028	4.322	0.513
1044.999	598.833	80.003	19.995	103.113	20.024	4.587	0.494
1045.499	599.073	80.003	19.996	103.112	20.025	4.535	0.489
1045.999	599.296	80.004	19.995	103.116	20.029	4.256	0.476
1046.499	599.573	80.002	19.996	103.121	20.027	4.426	0.482
1046.999	599.815	80.002	19.995	103.123	20.025	4.575	0.510
1047.499	600.051	80.002	19.994	103.127	20.027	4.416	0.498
1047.999	600.262	80.003	19.996	103.127	20.026	4.495	0.463
1048.499	600.506	80.002	19.995	103.126	20.026	4.445	0.451
1048.999	600.773	80.003	19.994	103.124	20.027	4.397	0.483
1049.500	601.009	80.003	19.995	103.124	20.027	4.399	0.507
1050.000	601.294	80.004	19.995	103.120	20.026	4.490	0.512
1050.499	601.508	80.003	19.995	103.122	20.027	4.432	0.510
1050.999	601.771	80.005	19.994	103.125	20.026	4.449	0.488
1051.499	602.021	80.004	19.994	103.128	20.027	4.404	0.495
1051.999	602.273	80.003	19.994	103.129	20.028	4.368	0.508
1052.499	602.523	80.002	19.995	103.133	20.028	4.351	0.502
1052.999	602.763	80.004	19.994	103.136	20.028	4.370	0.496
1053.499	602.984	80.001	19.996	103.138	20.029	4.274	0.475
1053.999	603.244	80.003	19.996	103.141	20.028	4.360	0.471
1054.500	603.493	80.005	19.996	103.143	20.026	4.489	0.495
1055.000	603.777	80.004	19.995	103.142	20.029	4.263	0.521
1055.499	603.956	80.004	19.994	103.142	20.028	4.358	0.498
1055.999	604.234	80.004	19.995	103.138	20.028	4.366	0.460
1056.499	604.491	80.004	19.994	103.132	20.030	4.205	0.496
1056.999	604.727	80.003	19.995	103.126	20.030	4.200	0.514
1057.499	604.992	80.004	19.996	103.125	20.028	4.337	0.497
1057.999	605.205	80.004	19.995	103.121	20.029	4.256	0.490
1058.499	605.455	80.005	19.994	103.119	20.027	4.385	0.471
1058.999	605.731	80.004	19.994	103.125	20.029	4.266	0.495
1059.499	605.969	80.006	19.995	103.132	20.029	4.279	0.520
1059.999	606.230	80.004	19.994	103.135	20.030	4.210	0.506
1060.499	606.476	80.003	19.996	103.138	20.030	4.230	0.503
1060.999	606.738	80.005	19.996	103.143	20.029	4.284	0.507
1061.499	606.982	80.004	19.994	103.139	20.027	4.376	0.507
1061.999	607.217	80.004	19.995	103.138	20.028	4.331	0.492
1062.500	607.443	80.004	19.996	103.131	20.029	4.273	0.470
1063.000	607.696	80.004	19.994	103.127	20.028	4.366	0.470
1063.499	608.006	80.002	19.996	103.120	20.030	4.200	0.521
1063.999	608.271	80.004	19.994	103.117	20.027	4.402	0.569
1064.499	608.454	80.003	19.995	103.111	20.029	4.275	0.511
1064.999	608.730	80.004	19.994	103.111	20.026	4.471	0.453
1065.499	608.996	80.002	19.994	103.111	20.032	4.054	0.501
1065.999	609.231	80.004	19.995	103.111	20.030	4.198	0.521
1066.500	609.465	80.002	19.995	103.112	20.028	4.346	0.485
1067.000	609.734	80.001	19.995	103.117	20.027	4.440	0.486
1067.499	609.988	80.002	19.995	103.125	20.031	4.152	0.513
1067.999	610.225	80.003	19.994	103.130	20.029	4.268	0.507
1068.499	610.469	80.001	19.995	103.133	20.033	4.021	0.486
1068.999	610.742	80.002	19.995	103.134	20.029	4.296	0.499
1069.499	610.975	80.002	19.995	103.136	20.030	4.229	0.512
1069.999	611.258	80.003	19.995	103.135	20.032	4.053	0.511
1070.499	611.529	80.001	19.994	103.135	20.031	4.141	0.535
1070.999	611.740	80.001	19.994	103.140	20.033	3.976	0.518
1071.499	611.995	80.001	19.994	103.142	20.030	4.198	0.474
1072.000	612.272	80.001	19.995	103.138	20.029	4.247	0.499
1072.500	612.493	80.002	19.995	103.134	20.028	4.316	0.515
1072.999	612.757	80.002	19.994	103.129	20.027	4.423	0.492
1073.500	613.014	80.002	19.994	103.128	20.031	4.135	0.503
1074.000	613.235	80.001	19.994	103.125	20.032	4.054	0.499
1074.499	613.535	80.002	19.994	103.123	20.032	4.047	0.500
1074.999	613.772	80.001	19.994	103.125	20.033	3.987	0.529
1075.499	614.036	80.002	19.995	103.129	20.031	4.161	0.519
1075.999	614.291	80.001	19.995	103.126	20.031	4.135	0.510
1076.499	614.557	80.003	19.994	103.131	20.027	4.415	0.520
1076.999	614.817	80.002	19.995	103.137	20.029	4.303	0.523
1077.499	615.091	80.003	19.995	103.140	20.027	4.381	0.530
1077.999	615.331	80.001	19.995	103.144	20.030	4.222	0.524
1078.499	615.581	80.002	19.994	103.149	20.027	4.424	0.502
1079.000	615.835	80.002	19.995	103.151	20.027	4.374	0.497
1079.500	616.106	80.003	19.994	103.152	20.030	4.221	0.514
1079.999	616.381	80.002	19.994	103.152	20.028	4.310	0.535
1080.500	616.610	80.001	19.995	103.151	20.028	4.327	0.525
1081.000	616.866	80.001	19.995	103.150	20.027	4.396	0.495
1081.499	617.127	80.001	19.994	103.148	20.026	4.486	0.501
1081.999	617.361	80.002	19.995	103.145	20.032	4.088	0.506
1082.499	617.642	80.001	19.995	103.141	20.029	4.271	0.505
1082.999	617.893	80.003	19.995	103.139	20.027	4.406	0.523
1083.499	618.147	80.001	19.995	103.138	20.027	4.376	0.518
1083.999	618.416	80.003	19.994	103.134	20.030	4.197	0.514
1084.499	618.650	80.001	19.995	103.135	20.029	4.240	0.513
1084.999	618.878	80.002	19.994	103.138	20.031	4.143	0.483
1085.499	619.144	80.003	19.995	103.141	20.031	4.146	0.478
1085.999	619.427	80.002	19.994	103.142	20.027	4.382	0.521
1086.500	619.659	80.003	19.996	103.144	20.027	4.395	0.532
1087.000	619.916	80.002	19.995	103.143	20.029	4.275	0.502
1087.499	620.186	80.003	19.995	103.137	20.026	4.457	0.508
1087.999	620.438	80.001	19.995	103.132	20.028	4.320	0.524
1088.499	620.694	80.001	19.995	103.131	20.030	4.232	0.515
1088.999	620.940	80.002	19.995	103.132	20.026	4.473	0.505
1089.500	621.187	80.002	19.994	103.130	20.026	4.443	0.497
1090.000	621.456	80.003	19.995	103.133	20.027	4.417	0.505
1090.499	621.690	80.002	19.996	103.137	20.027	4.397	0.509
1090.999	621.941	80.002	19.995	103.136	20.025	4.546	0.494
1091.499	622.203	80.003	19.995	103.131	20.024	4.597	0.500
1091.999	622.489	80.001	19.996	103.133	20.025	4.528	0.531
1092.499	622.732	80.001	19.996	103.135	20.026	4.485	0.538
1092.999	622.951	80.002	19.995	103.135	20.027	4.427	0.495
1093.499	623.255	80.002	19.996	103.137	20.025	4.528	0.493
1093.999	623.531	80.002	19.995	103.143	20.026	4.446	0.552
1094.499	623.742	80.002	19.996	103.145	20.028	4.335	0.533
1094.999	623.981	80.002	19.996	103.147	20.029	4.264	0.468
1095.499	624.253	80.001	19.996	103.146	20.028	4.360	0.481
1095.999	624.485	80.001	19.997	103.147	20.026	4.489	0.508
1096.499	624.779	80.002	19.996	103.146	20.028	4.311	0.515
1096.999	625.063	80.001	19.996	103.146	20.030	4.189	0.552
1097.499	625.312	80.002	19.996	103.144	20.029	4.268	0.555
1097.999	625.579	80.002	19.996	103.142	20.027	4.401	0.525
1098.499	625.822	80.001	19.996	103.138	20.027	4.414	0.513
1098.999	626.074	80.002	19.995	103.137	20.029	4.285	0.502
1099.499	626.294	80.001	19.996	103.136	20.027	4.397	0.484
1099.999	626.540	80.001	19.996	103.136	20.027	4.399	0.469
1100.499	626.803	80.002	19.995	103.138	20.029	4.257	0.488
1100.999	627.044	80.001	19.995	103.137	20.028	4.373	0.507
1101.499	627.317	80.000	19.996	103.137	20.024	4.599	0.509
1102.000	627.621	80.002	19.996	103.138	20.029	4.288	0.545
1102.500	627.836	80.002	19.996	103.140	20.028	4.331	0.548
1102.999	628.090	80.001	19.996	103.141	20.026	4.444	0.494
1103.499	628.347	80.001	19.996	103.146	20.027	4.429	0.490
1103.999	628.599	80.002	19.996	103.147	20.026	4.474	0.510
1104.499	628.845	80.002	19.996	103.145	20.024	4.586	0.503
1104.999	629.071	80.000	19.996	103.145	20.028	4.335	0.485
1105.499	629.370	80.003	19.996	103.145	20.027	4.395	0.499
1105.999	629.619	80.000	19.996	103.145	20.028	4.345	0.537
1106.500	629.886	80.002	19.996	103.145	20.025	4.565	0.532
1107.000	630.108	80.001	19.995	103.147	20.024	4.629	0.502
1107.499	630.354	80.001	19.997	103.147	20.027	4.417	0.478
1107.999	630.630	80.002	19.995	103.148	20.025	4.554	0.495
1108.500	630.872	80.003	19.996	103.148	20.029	4.290	0.520
1109.001	631.151	80.003	19.995	103.149	20.025	4.565	0.520
1109.501	631.403	80.003	19.995	103.148	20.027	4.425	0.527
1110.000	631.655	80.002	19.996	103.148	20.027	4.391	0.518
1110.499	631.903	80.002	19.995	103.147	20.028	4.345	0.502
1110.999	632.193	80.003	19.996	103.146	20.026	4.511	0.519
1111.499	632.439	80.003	19.997	103.146	20.027	4.395	0.536
1111.999	632.692	80.004	19.995	103.145	20.025	4.562	0.517
1112.499	632.919	80.003	19.995	103.144	20.028	4.317	0.489
1112.999	633.199	80.003	19.996	103.144	20.025	4.521	0.494
1113.500	633.436	80.003	19.996	103.145	20.028	4.341	0.512
1114.000	633.693	80.002	19.996	103.145	20.026	4.478	0.506
1114.499	633.959	80.003	19.995	103.145	20.025	4.519	0.509
1114.999	634.204	80.003	19.996	103.147	20.027	4.421	0.517
1115.499	634.466	80.003	19.996	103.147	20.026	4.453	0.509
1115.999	634.751	80.003	19.996	103.147	20.024	4.637	0.527
1116.499	634.989	80.002	19.996	103.146	20.029	4.294	0.535
1116.999	635.262	80.004	19.996	103.144	20.027	4.410	0.517
1117.499	635.515	80.002	19.996	103.144	20.026	4.480	0.518
1117.999	635.802	80.002	19.996	103.144	20.026	4.508	0.533
1118.499	636.018	80.002	19.996	103.144	20.026	4.470	0.521
1118.999	636.268	80.002	19.995	103.146	20.029	4.285	0.484
1119.499	636.533	80.002	19.996	103.147	20.026	4.455	0.490
1119.999	636.806	80.002	19.995	103.147	20.026	4.467	0.526
1120.499	637.022	80.003	19.996	103.148	20.026	4.498	0.513
1120.999	637.276	80.003	19.996	103.148	20.026	4.482	0.479
1121.500	637.544	80.002	19.996	103.148	20.025	4.564	0.496
1122.000	637.775	80.003	19.997	103.148	20.028	4.315	0.511
1122.499	638.040	80.003	19.996	103.150	20.025	4.545	0.498
1122.999	638.306	80.001	19.995	103.149	20.026	4.468	0.514
1123.499	638.578	80.001	19.996	103.150	20.026	4.480	0.535
1123.999	638.856	80.003	19.996	103.150	20.025	4.523	0.544
1124.500	639.064	80.001	19.997	103.150	20.023	4.690	0.518
1125.000	639.325	80.002	19.996	103.149	20.024	4.628	0.478
1125.499	639.603	80.001	19.997	103.149	20.026	4.498	0.504
1125.999	639.825	80.003	19.996	103.149	20.024	4.634	0.520
1126.499	640.093	80.001	19.996	103.149	20.023	4.681	0.495
1126.999	640.336	80.001	19.996	103.151	20.025	4.535	0.500
1127.499	640.618	80.002	19.996	103.153	20.025	4.567	0.518
1127.999	640.848	80.001	19.995	103.154	20.023	4.674	0.519
1128.499	641.089	80.002	19.997	103.153	20.023	4.683	0.492
1128.999	641.360	80.001	19.995	103.153	20.025	4.572	0.491
1129.499	641.611	80.000	19.996	103.153	20.024	4.629	0.517
1129.999	641.857	80.002	19.996	103.153	20.023	4.683	0.509
1130.499	642.092	80.002	19.996	103.153	20.025	4.560	0.489
1130.999	642.400	80.002	19.995	103.155	20.026	4.472	0.512
1131.499	642.661	80.003	19.995	103.156	20.024	4.620	0.556
1131.999	642.901	80.002	19.995	103.155	20.025	4.520	0.535
1132.500	643.149	80.001	19.995	103.153	20.025	4.515	0.494
1133.000	643.382	80.002	19.995	103.156	20.027	4.410	0.485
1133.499	643.641	80.002	19.995	103.154	20.026	4.498	0.487
1133.999	643.898	80.002	19.995	103.154	20.024	4.607	0.504
1134.499	644.118	80.004	19.995	103.157	20.021	4.833	0.497
1134.999	644.401	80.005	19.994	103.161	20.025	4.575	0.490
1135.499	644.625	80.003	19.995	103.166	20.023	4.717	0.505
1135.999	644.905	80.004	19.996	103.173	20.022	4.781	0.505
1136.499	645.119	80.004	19.994	103.180	20.023	4.693	0.499
1136.999	645.387	80.003	19.994	103.184	20.024	4.612	0.488
1137.499	645.647	80.003	19.995	103.187	20.025	4.539	0.505
1137.999	645.909	80.003	19.995	103.186	20.023	4.652	0.525
1138.500	646.138	80.004	19.994	103.181	20.024	4.623	0.507
1139.000	646.411	80.004	19.996	103.180	20.022	4.743	0.496
1139.499	646.674	80.005	19.994	103.179	20.025	4.522	0.519
1139.999	646.926	80.004	19.994	103.179	20.023	4.672	0.526
1140.499	647.174	80.006	19.994	103.185	20.021	4.795	0.508
1140.999	647.451	80.003	19.994	103.190	20.022	4.756	0.512
1141.499	647.715	80.006	19.994	103.192	20.022	4.782	0.533
1141.999	647.952	80.004	19.995	103.192	20.024	4.617	0.521
1142.499	648.207	80.004	19.995	103.190	20.023	4.696	0.496
1143.000	648.465	80.004	19.994	103.186	20.021	4.805	0.502
1143.500	648.729	80.004	19.994	103.186	20.022	4.730	0.517
1143.999	649.018	80.002	19.994	103.186	20.019	4.944	0.538
1144.499	649.225	80.002	19.995	103.186	20.018	5.062	0.525
1144.999	649.522	80.002	19.995	103.188	20.021	4.817	0.500
1145.499	649.784	80.002	19.994	103.189	20.021	4.813	0.531
1145.999	650.053	80.004	19.994	103.190	20.023	4.710	0.545
1146.499	650.302	80.003	19.995	103.191	20.022	4.770	0.525
1146.999	650.541	80.003	19.995	103.191	20.019	4.980	0.503
1147.500	650.819	80.003	19.994	103.192	20.023	4.677	0.502
1148.000	651.081	80.002	19.995	103.192	20.021	4.802	0.528
1148.499	651.341	80.000	19.995	103.191	20.021	4.832	0.531
1148.999	651.540	80.001	19.995	103.190	20.021	4.828	0.490
1149.499	651.789	80.002	19.995	103.188	20.019	4.957	0.454
1149.999	652.062	80.002	19.995	103.187	20.018	5.050	0.486
1150.499	652.326	80.003	19.995	103.184	20.021	4.833	0.529
1150.999	652.593	80.003	19.995	103.180	20.020	4.859	0.533
1151.499	652.855	80.003	19.994	103.178	20.020	4.888	0.530
1151.999	653.111	80.001	19.995	103.178	20.023	4.712	0.524
1152.499	653.394	80.002	19.995	103.178	20.021	4.813	0.528
1153.000	653.620	80.002	19.995	103.180	20.020	4.893	0.523
1153.500	653.893	80.002	19.995	103.183	20.020	4.869	0.504
1153.999	654.130	80.003	19.994	103.187	20.022	4.785	0.505
1154.499	654.385	80.003	19.995	103.191	20.020	4.881	0.502
1154.999	654.648	80.002	19.995	103.195	20.019	4.933	0.505
1155.499	654.894	80.002	19.996	103.196	20.019	4.937	0.513
1155.999	655.201	80.002	19.995	103.196	20.018	4.998	0.530
1156.499	655.430	80.003	19.994	103.195	20.021	4.814	0.544
1156.999	655.673	80.001	19.995	103.194	20.020	4.869	0.504
1157.500	655.947	80.002	19.995	103.198	20.017	5.092	0.494
1158.001	656.178	80.003	19.995	103.201	20.020	4.880	0.511
1158.501	656.458	80.002	19.995	103.206	20.021	4.838	0.508
1159.001	656.677	80.002	19.995	103.208	20.022	4.787	0.505
1159.500	656.970	80.002	19.995	103.204	20.020	4.913	0.505
1159.999	657.197	80.002	19.995	103.198	20.019	4.978	0.516
1160.499	657.446	80.002	19.995	103.194	20.020	4.922	0.498
1160.999	657.722	80.003	19.995	103.189	20.019	4.965	0.500
1161.499	657.986	80.003	19.995	103.188	20.018	5.025	0.533
1161.999	658.235	80.002	19.994	103.190	20.018	5.042	0.527
1162.499	658.478	80.002	19.994	103.192	20.016	5.147	0.502
1162.999	658.734	80.001	19.995	103.192	20.017	5.091	0.495
1163.500	658.963	80.003	19.994	103.193	20.017	5.114	0.492
1164.000	659.231	80.002	19.995	103.200	20.018	5.035	0.491
1164.499	659.491	80.002	19.995	103.203	20.017	5.091	0.513
1164.999	659.731	80.002	19.994	103.206	20.017	5.091	0.514
1165.499	660.007	80.003	19.994	103.207	20.015	5.256	0.508
1165.999	660.250	80.003	19.994	103.207	20.014	5.327	0.517
1166.499	660.508	80.003	19.995	103.200	20.013	5.346	0.510
1166.999	660.753	80.003	19.994	103.194	20.016	5.146	0.502
1167.500	661.069	80.002	19.995	103.191	20.016	5.163	0.532
1168.000	661.286	80.002	19.994	103.193	20.016	5.177	0.547
1168.499	661.544	80.003	19.994	103.196	20.012	5.415	0.504
1168.999	661.819	80.005	19.993	103.200	20.014	5.295	0.504
1169.500	662.015	80.003	19.995	103.205	20.015	5.243	0.502
1170.000	662.272	80.004	19.994	103.208	20.013	5.408	0.462
1170.499	662.520	80.003	19.994	103.207	20.013	5.387	0.479
1170.999	662.797	80.002	19.995	103.210	20.009	5.627	0.515
1171.500	663.033	80.003	19.995	103.213	20.010	5.593	0.519
1172.001	663.289	80.004	19.994	103.213	20.012	5.443	0.503
1172.500	663.535	80.003	19.995	103.216	20.011	5.546	0.497
1172.999	663.797	80.001	19.995	103.221	20.011	5.531	0.505
1173.499	664.033	80.001	19.995	103.221	20.010	5.552	0.503
1173.999	664.301	80.002	19.993	103.222	20.011	5.504	0.501
1174.499	664.551	80.003	19.995	103.222	20.010	5.567	0.511
1174.999	664.788	80.001	19.994	103.220	20.012	5.474	0.502
1175.499	665.036	80.002	19.994	103.220	20.010	5.595	0.485
1175.999	665.287	80.002	19.994	103.221	20.013	5.395	0.492
1176.499	665.517	80.001	19.995	103.221	20.011	5.490	0.490
1176.999	665.783	80.002	19.995	103.224	20.012	5.434	0.489
1177.499	666.011	80.002	19.995	103.226	20.010	5.558	0.495
1177.999	666.230	80.001	19.996	103.226	20.011	5.537	0.470
1178.500	666.532	80.002	19.996	103.226	20.013	5.391	0.484
1179.000	666.755	80.001	19.996	103.226	20.010	5.584	0.523
1179.499	667.016	80.001	19.995	103.225	20.011	5.487	0.504
1179.999	667.280	80.001	19.996	103.226	20.009	5.661	0.504
1180.499	667.525	80.001	19.994	103.226	20.012	5.425	0.517
1180.999	667.743	80.001	19.995	103.226	20.010	5.566	0.486
1181.499	668.003	80.002	19.996	103.226	20.012	5.448	0.471
1181.999	668.250	80.001	19.995	103.226	20.012	5.442	0.493
1182.500	668.482	79.999	19.995	103.226	20.011	5.515	0.493
1183.000	668.758	80.000	19.995	103.226	20.011	5.516	0.493
1183.499	668.990	80.000	19.995	103.227	20.008	5.688	0.507
1183.999	669.244	80.001	19.996	103.227	20.010	5.591	0.497
1184.499	669.487	80.000	19.995	103.229	20.009	5.662	0.492
1185.000	669.728	80.000	19.996	103.230	20.009	5.631	0.490
1185.500	670.008	79.999	19.996	103.230	20.009	5.636	0.503
1185.999	670.233	80.002	19.996	103.230	20.008	5.751	0.513
1186.500	670.489	80.001	19.996	103.230	20.009	5.680	0.493
1187.001	670.711	80.001	19.995	103.229	20.010	5.575	0.479
1187.500	670.958	80.000	19.995	103.229	20.009	5.661	0.473
1187.999	671.245	80.001	19.995	103.232	20.008	5.743	0.502
1188.499	671.493	80.002	19.996	103.234	20.010	5.601	0.535
1188.999	671.733	80.001	19.995	103.234	20.011	5.489	0.511
1189.499	672.000	80.002	19.996	103.236	20.007	5.779	0.497
1189.999	672.273	80.002	19.996	103.238	20.010	5.610	0.523
1190.499	672.501	80.001	19.995	103.234	20.008	5.734	0.521
1190.999	672.752	80.001	19.995	103.236	20.005	5.919	0.490
1191.499	673.011	80.002	19.995	103.236	20.007	5.801	0.495
1191.999	673.255	80.002	19.996	103.234	20.005	5.918	0.506
1192.499	673.504	80.001	19.995	103.237	20.006	5.890	0.498
1192.999	673.730	80.003	19.994	103.242	20.006	5.847	0.484
1193.499	673.997	80.002	19.995	103.241	20.008	5.745	0.484
1193.999	674.286	80.004	19.994	103.247	20.004	6.026	0.525
1194.499	674.495	80.003	19.994	103.253	20.008	5.747	0.527
1194.999	674.762	80.003	19.994	103.254	20.005	5.938	0.487
1195.499	675.038	80.004	19.995	103.257	20.008	5.749	0.509
1195.999	675.260	80.004	19.996	103.262	20.005	5.942	0.520
1196.499	675.532	80.003	19.996	103.263	20.009	5.648	0.496
1196.999	675.744	80.002	19.994	103.264	20.003	6.061	0.489
1197.499	676.012	80.003	19.996	103.265	20.005	5.922	0.482
1197.999	676.237	80.002	19.995	103.265	20.006	5.840	0.486
1198.499	676.517	80.002	19.995	103.265	20.005	5.911	0.499
1199.000	676.762	80.002	19.996	103.267	20.007	5.808	0.515
1199.500	677.011	80.004	19.995	103.267	20.006	5.862	0.509
1199.999	677.230	80.003	19.995	103.266	20.003	6.073	0.481
1200.499	677.485	80.003	19.995	103.266	20.004	5.980	0.471
1200.999	677.740	80.002	19.995	103.266	20.005	5.925	0.492
1201.499	678.021	80.002	19.995	103.265	20.003	6.055	0.523
1201.999	678.275	80.002	19.995	103.265	20.005	5.901	0.535
1202.499	678.525	80.003	19.994	103.266	20.007	5.773	0.520
1202.999	678.811	80.002	19.995	103.266	20.005	5.929	0.521
1203.499	679.026	80.003	19.996	103.268	20.005	5.906	0.519
1203.999	679.242	80.002	19.995	103.269	20.007	5.783	0.466
1204.499	679.515	80.001	19.994	103.270	20.007	5.790	0.460
1204.999	679.728	80.002	19.995	103.271	20.003	6.096	0.487
1205.499	680.014	80.001	19.996	103.270	20.005	5.948	0.492
1205.999	680.238	80.002	19.996	103.271	20.002	6.107	0.504
1206.499	680.499	80.002	19.994	103.273	20.004	5.976	0.498
1207.000	680.729	80.001	19.997	103.276	20.005	5.895	0.489
1207.500	680.980	80.001	19.995	103.277	20.006	5.831	0.486
1207.999	681.244	80.002	19.994	103.282	20.004	5.979	0.498
1208.499	681.516	80.001	19.994	103.282	20.005	5.908	0.525
1208.999	681.763	80.001	19.996	103.279	20.005	5.940	0.527
1209.499	681.997	80.001	19.995	103.276	20.005	5.925	0.500
1209.999	682.209	80.001	19.995	103.277	20.003	6.064	0.464
1210.499	682.495	80.000	19.995	103.274	20.005	5.955	0.472
1210.999	682.727	80.002	19.996	103.274	20.003	6.038	0.508
1211.499	682.942	80.002	19.996	103.274	20.005	5.933	0.483
1211.999	683.234	80.001	19.997	103.273	20.005	5.946	0.477
1212.500	683.483	80.002	19.996	103.271	20.004	5.991	0.524
1213.000	683.724	80.002	19.996	103.269	20.004	5.966	0.516
1213.499	683.944	80.001	19.996	103.267	20.003	6.037	0.475
1213.999	684.251	80.002	19.996	103.266	20.003	6.082	0.494
1214.499	684.465	80.002	19.996	103.267	20.001	6.202	0.524
1214.999	684.755	80.002	19.996	103.268	20.002	6.103	0.512
1215.499	684.987	80.003	19.996	103.270	20.000	6.245	0.513
1216.000	685.236	80.002	19.996	103.273	20.001	6.187	0.502
1216.500	685.481	80.002	19.997	103.274	20.004	5.983	0.488
1216.999	685.773	80.002	19.996	103.272	20.006	5.880	0.516
1217.500	685.975	80.004	19.996	103.271	20.006	5.893	0.515
1218.000	686.251	80.003	19.996	103.268	20.005	5.962	0.486
1218.499	686.509	80.003	19.995	103.264	20.002	6.127	0.506
1218.999	686.759	80.004	19.996	103.263	20.002	6.110	0.521
1219.499	686.997	80.005	19.996	103.263	20.003	6.032	0.498
1219.999	687.248	80.003	19.996	103.263	20.004	6.017	0.489
1220.499	687.510	80.004	19.997	103.263	20.003	6.060	0.501
1220.999	687.757	80.005	19.995	103.266	20.003	6.084	0.511
1221.499	688.034	80.005	19.995	103.270	20.003	6.054	0.516
1221.999	688.258	80.004	19.995	103.272	20.000	6.279	0.513
1222.499	688.539	80.004	19.995	103.272	19.999	6.330	0.503
1222.999	688.777	80.003	19.995	103.271	20.001	6.198	0.512
1223.499	689.000	80.003	19.995	103.269	20.000	6.258	0.490
1223.999	689.293	80.005	19.995	103.265	19.998	6.425	0.488
1224.499	689.531	80.004	19.994	103.263	20.003	6.066	0.523
1224.999	689.796	80.004	19.994	103.263	19.999	6.318	0.517
1225.499	690.059	80.001	19.995	103.263	20.000	6.288	0.516
1226.000	690.288	80.005	19.995	103.263	20.001	6.206	0.509
1226.501	690.545	80.003	19.994	103.262	19.998	6.391	0.489
1227.000	690.774	80.002	19.994	103.261	19.998	6.397	0.486
1227.499	691.061	80.003	19.994	103.261	20.000	6.248	0.501
1227.999	691.327	80.003	19.994	103.260	20.001	6.211	0.535
1228.499	691.575	80.003	19.994	103.259	19.999	6.362	0.534
1228.999	691.785	80.002	19.994	103.260	20.000	6.248	0.486
1229.499	692.074	80.002	19.995	103.260	19.999	6.323	0.479
1229.999	692.356	80.002	19.995	103.261	20.000	6.280	0.535
1230.499	692.625	80.001	19.994	103.262	20.003	6.087	0.561
1231.000	692.864	80.002	19.994	103.263	20.001	6.194	0.529
1231.501	693.126	80.003	19.995	103.264	20.000	6.242	0.504
1232.001	693.382	80.001	19.995	103.264	20.001	6.236	0.509
1232.500	693.623	80.001	19.994	103.263	20.002	6.101	0.508
1232.999	693.864	80.001	19.995	103.265	20.004	6.017	0.490
1233.499	694.113	80.003	19.996	103.265	20.003	6.051	0.486
1234.000	694.388	80.003	19.994	103.265	20.005	5.916	0.507
1234.500	694.622	80.002	19.995	103.265	20.002	6.133	0.516
1234.999	694.908	80.001	19.995	103.266	20.001	6.204	0.514
1235.499	695.120	80.002	19.994	103.266	20.002	6.129	0.509
1236.000	695.382	80.001	19.994	103.265	20.006	5.863	0.486
1236.500	695.662	80.001	19.995	103.265	20.005	5.940	0.509
1236.999	695.877	80.002	19.995	103.264	20.004	5.969	0.518
1237.500	696.152	80.003	19.995	103.263	20.002	6.160	0.492
1238.001	696.403	80.002	19.995	103.262	20.004	6.003	0.508
1238.500	696.654	80.003	19.995	103.255	20.001	6.185	0.514
1238.999	696.905	80.003	19.996	103.248	20.003	6.091	0.502
1239.499	697.162	80.001	19.995	103.243	20.004	5.963	0.505
1239.999	697.408	80.002	19.994	103.241	20.004	6.011	0.505
1240.499	697.643	80.003	19.995	103.241	20.004	5.976	0.492
1240.999	697.917	80.002	19.994	103.244	20.005	5.932	0.495
1241.500	698.176	80.002	19.995	103.249	20.004	5.981	0.522
1242.000	698.404	80.004	19.996	103.247	20.005	5.902	0.510
1242.499	698.679	80.004	19.995	103.243	20.003	6.042	0.494
1242.999	698.932	80.003	19.995	103.237	20.005	5.917	0.515
1243.499	699.186	80.004	19.996	103.236	20.006	5.825	0.517
1243.999	699.457	80.003	19.995	103.234	20.009	5.647	0.516
1244.499	699.712	80.002	19.994	103.236	20.007	5.762	0.526
1244.999	699.960	80.003	19.995	103.237	20.007	5.760	0.515
1245.499	700.227	80.003	19.996	103.238	20.008	5.726	0.509
1245.999	700.481	80.002	19.995	103.236	20.012	5.457	0.518
1246.499	700.699	80.003	19.994	103.230	20.011	5.524	0.496
1247.000	700.948	80.003	19.995	103.228	20.011	5.497	0.469
1247.500	701.218	80.002	19.995	103.227	20.010	5.572	0.494
1247.999	701.518	80.003	19.995	103.224	20.010	5.578	0.545
1248.499	701.738	80.003	19.995	103.224	20.010	5.598	0.545
1248.999	701.971	80.003	19.995	103.225	20.010	5.592	0.486
1249.500	702.218	80.002	19.995	103.221	20.009	5.619	0.467
1250.000	702.522	80.000	19.995	103.216	20.010	5.613	0.516
1250.499	702.775	80.002	19.996	103.212	20.010	5.587	0.554
1250.999	703.017	80.002	19.995	103.206	20.008	5.742	0.525
1251.499	703.263	80.002	19.994	103.199	20.007	5.774	0.492
1251.999	703.518	80.002	19.996	103.198	20.007	5.813	0.495
1252.499	703.795	80.002	19.995	103.196	20.011	5.536	0.516
1252.999	704.063	80.002	19.995	103.193	20.008	5.717	0.538
1253.499	704.336	80.001	19.996	103.192	20.015	5.260	0.543
1253.999	704.558	80.003	19.994	103.192	20.015	5.258	0.518
1254.499	704.849	80.001	19.995	103.190	20.013	5.404	0.505
1254.999	705.069	80.002	19.994	103.191	20.014	5.316	0.512
1255.499	705.365	80.003	19.996	103.191	20.015	5.264	0.513
1255.999	705.583	80.003	19.995	103.191	20.014	5.318	0.515
1256.499	705.847	80.002	19.995	103.191	20.014	5.282	0.498
1256.999	706.112	80.003	19.995	103.191	20.015	5.206	0.506
1257.499	706.366	80.002	19.995	103.190	20.014	5.329	0.524
1258.000	706.646	80.003	19.995	103.187	20.016	5.138	0.527
1258.500	706.867	80.003	19.994	103.180	20.016	5.179	0.517
1258.999	707.149	80.004	19.994	103.179	20.014	5.325	0.502
1259.499	707.370	80.002	19.994	103.179	20.018	5.003	0.503
1259.999	707.643	80.002	19.995	103.177	20.015	5.203	0.498
1260.499	707.949	80.003	19.995	103.180	20.020	4.905	0.537
1260.999	708.180	80.002	19.994	103.185	20.019	4.930	0.558
1261.499	708.452	80.003	19.995	103.182	20.019	4.941	0.520
1261.999	708.703	80.001	19.994	103.178	20.018	5.012	0.513
1262.499	708.957	80.002	19.995	103.173	20.019	4.946	0.514
1262.999	709.229	80.001	19.995	103.166	20.019	4.935	0.515
1263.499	709.466	80.002	19.994	103.163	20.020	4.860	0.517
1263.999	709.727	80.001	19.994	103.163	20.020	4.891	0.503
1264.500	709.983	80.002	19.995	103.160	20.019	4.970	0.508
1265.000	710.256	80.002	19.995	103.161	20.024	4.590	0.524
1265.499	710.513	80.001	19.995	103.160	20.022	4.755	0.529
1265.999	710.683	80.000	19.994	103.157	20.023	4.693	0.478
1266.499	711.038	80.003	19.995	103.154	20.023	4.665	0.477
1266.999	711.187	80.000	19.994	103.154	20.023	4.693	0.515
1267.499	711.572	80.003	19.994	103.153	20.027	4.400	0.519
1268.000	711.779	80.000	19.995	103.153	20.021	4.802	0.563
1268.500	712.012	80.001	19.994	103.150	20.022	4.781	0.516
1268.999	712.330	80.003	19.994	103.145	20.023	4.691	0.495
1269.499	712.580	80.001	19.995	103.144	20.020	4.863	0.559
1269.999	712.817	80.002	19.995	103.142	20.021	4.846	0.528
1270.500	713.080	80.002	19.994	103.136	20.020	4.856	0.493
1271.000	713.299	80.002	19.996	103.132	20.022	4.751	0.491
1271.499	713.588	80.002	19.995	103.133	20.022	4.732	0.495
1272.000	713.853	80.003	19.995	103.134	20.022	4.743	0.531
1272.501	714.121	80.004	19.994	103.132	20.021	4.792	0.543
1273.000	714.365	80.002	19.994	103.130	20.022	4.723	0.523
1273.499	714.641	80.002	19.995	103.130	20.020	4.904	0.516
1273.999	714.870	80.002	19.996	103.127	20.021	4.807	0.512
1274.499	715.138	80.002	19.995	103.120	20.022	4.743	0.501
1274.999	715.428	80.004	19.995	103.117	20.022	4.777	0.528
1275.499	715.685	80.003	19.995	103.117	20.019	4.988	0.553
1275.999	715.927	80.002	19.995	103.116	20.021	4.792	0.523
1276.499	716.194	80.004	19.994	103.114	20.022	4.764	0.504
1276.999	716.447	80.004	19.994	103.114	20.023	4.670	0.514
1277.499	716.695	80.004	19.997	103.114	20.020	4.863	0.511
1277.999	716.990	80.003	19.995	103.115	20.024	4.614	0.522
1278.499	717.223	80.003	19.995	103.117	20.023	4.704	0.535
1278.999	717.463	80.003	19.997	103.117	20.024	4.629	0.501
1279.499	717.678	80.003	19.995	103.117	20.016	5.190	0.464
1279.999	717.937	80.003	19.996	103.116	20.022	4.730	0.465
1280.499	718.222	80.004	19.996	103.114	20.022	4.726	0.509
1280.999	718.490	80.003	19.996	103.112	20.024	4.637	0.549
1281.499	718.748	80.002	19.996	103.111	20.022	4.760	0.539
1281.999	718.975	80.005	19.996	103.110	20.024	4.618	0.505
1282.499	719.249	80.003	19.995	103.110	20.023	4.696	0.493
1282.999	719.500	80.002	19.996	103.110	20.021	4.812	0.513
1283.499	719.737	80.003	19.996	103.109	20.023	4.704	0.506
1283.999	720.003	80.003	19.996	103.109	20.023	4.689	0.495
1284.500	720.262	80.003	19.995	103.109	20.022	4.782	0.514
1285.000	720.496	80.003	19.996	103.108	20.023	4.715	0.509
1285.499	720.771	80.003	19.995	103.107	20.026	4.505	0.501
1286.000	721.033	80.002	19.995	103.106	20.022	4.717	0.522
1286.500	721.265	80.002	19.994	103.106	20.025	4.554	0.516
1286.999	721.512	80.003	19.994	103.105	20.021	4.811	0.487
1287.499	721.712	80.003	19.995	103.105	20.022	4.747	0.463
1287.999	722.004	80.003	19.995	103.107	20.022	4.751	0.469
1288.499	722.241	80.004	19.995	103.107	20.022	4.762	0.510
1289.000	722.508	80.002	19.995	103.108	20.028	4.360	0.516
1289.500	722.742	80.003	19.995	103.109	20.028	4.350	0.503
1289.999	723.022	80.002	19.995	103.108	20.028	4.369	0.508
1290.499	723.261	80.003	19.995	103.108	20.026	4.509	0.516
1290.999	723.528	80.003	19.995	103.108	20.026	4.496	0.513
1291.499	723.735	80.003	19.996	103.108	20.027	4.433	0.490
1291.999	724.005	80.003	19.995	103.108	20.027	4.397	0.475
1292.499	724.266	80.003	19.995	103.108	20.027	4.427	0.504
1293.000	724.513	80.003	19.995	103.108	20.028	4.326	0.520
1293.500	724.765	80.003	19.995	103.108	20.027	4.373	0.503
1293.999	725.027	80.003	19.995	103.108	20.024	4.637	0.506
1294.500	725.303	80.003	19.995	103.108	20.024	4.601	0.526
1295.001	725.559	80.003	19.995	103.107	20.027	4.410	0.535
1295.500	725.815	80.003	19.995	103.103	20.023	4.670	0.522
1295.999	726.063	80.003	19.995	103.102	20.025	4.569	0.508
1296.499	726.296	80.003	19.995	103.103	20.026	4.496	0.493
1296.999	726.521	80.004	19.995	103.102	20.025	4.517	0.470
1297.499	726.801	80.004	19.994	103.103	20.026	4.453	0.482
1298.000	727.048	80.004	19.996	103.106	20.024	4.599	0.517
1298.500	727.314	80.003	19.995	103.108	20.027	4.382	0.520
1298.999	727.554	80.004	19.995	103.107	20.023	4.659	0.509
1299.499	727.817	80.005	19.995	103.107	20.022	4.724	0.504
1299.999	728.102	80.003	19.994	103.107	20.025	4.528	0.526
1300.499	728.353	80.004	19.994	103.107	20.023	4.705	0.542
1300.999	728.601	80.004	19.996	103.107	20.022	4.739	0.518
1301.499	728.839	80.005	19.995	103.104	20.024	4.634	0.493
1301.999	729.086	80.004	19.995	103.104	20.021	4.839	0.486
1302.499	729.325	80.004	19.996	103.104	20.023	4.652	0.485
1302.999	729.660	80.004	19.995	103.104	20.020	4.871	0.529
1303.499	729.829	80.002	19.996	103.104	20.023	4.678	0.539
1303.999	730.170	80.004	19.995	103.107	20.024	4.585	0.507
1304.499	730.362	80.003	19.996	103.107	20.021	4.831	0.522
1304.999	730.625	80.004	19.995	103.107	20.021	4.796	0.493
1305.500	730.909	80.003	19.996	103.105	20.020	4.898	0.500
1306.000	731.126	80.003	19.996	103.104	20.019	4.943	0.524
1306.499	731.392	80.003	19.996	103.104	20.019	4.984	0.492
1306.999	731.615	80.003	19.995	103.105	20.018	5.040	0.486
1307.499	731.907	80.003	19.996	103.106	20.020	4.857	0.502
1307.999	732.183	80.003	19.996	103.107	20.021	4.829	0.542
1308.500	732.408	80.002	19.996	103.109	20.021	4.809	0.535
1309.000	732.667	80.002	19.996	103.108	20.023	4.674	0.493
1309.499	732.867	80.001	19.996	103.107	20.019	4.953	0.471
1309.999	733.144	80.001	19.996	103.103	20.021	4.798	0.468
1310.499	733.460	80.002	19.995	103.098	20.022	4.732	0.535
1310.999	733.686	80.001	19.996	103.097	20.020	4.910	0.568
1311.499	733.871	80.001	19.996	103.097	20.020	4.917	0.476
1311.999	734.185	80.001	19.996	103.097	20.023	4.695	0.455
1312.499	734.373	80.001	19.996	103.102	20.023	4.696	0.501
1313.000	734.643	80.001	19.995	103.108	20.022	4.775	0.480
1313.500	734.887	80.001	19.996	103.111	20.021	4.790	0.486
1313.999	735.127	80.002	19.997	103.114	20.020	4.887	0.499
1314.500	735.344	79.999	19.995	103.114	20.020	4.908	0.471
1315.001	735.622	80.001	19.996	103.113	20.022	4.785	0.476
1315.500	735.891	80.000	19.996	103.112	20.019	4.981	0.521
1315.999	736.107	80.001	19.996	103.110	20.017	5.108	0.516
1316.499	736.387	80.001	19.995	103.107	20.019	4.951	0.491
1316.999	736.611	80.002	19.995	103.105	20.024	4.590	0.500
1317.499	736.886	80.001	19.995	103.100	20.024	4.622	0.501
1317.999	737.163	80.001	19.996	103.100	20.020	4.914	0.525
1318.499	737.390	80.001	19.995	103.101	20.022	4.753	0.528
1318.999	737.667	80.000	19.995	103.102	20.021	4.824	0.504
1319.499	737.904	80.001	19.995	103.105	20.022	4.747	0.509
1320.000	738.145	80.001	19.994	103.111	20.023	4.682	0.496
1320.500	738.377	80.000	19.995	103.111	20.019	4.951	0.476
1320.999	738.679	80.000	19.994	103.111	20.017	5.071	0.503
1321.499	738.932	80.001	19.994	103.109	20.022	4.742	0.544
1321.999	739.156	80.001	19.995	103.108	20.019	4.979	0.516
1322.499	739.433	80.000	19.995	103.108	20.022	4.743	0.489
1322.999	739.671	80.001	19.994	103.107	20.021	4.800	0.508
1323.500	739.929	80.001	19.994	103.103	20.023	4.700	0.505
1324.001	740.176	80.002	19.993	103.105	20.022	4.727	0.501
1324.500	740.454	80.002	19.995	103.105	20.020	4.910	0.515
1324.999	740.687	80.001	19.995	103.108	20.023	4.714	0.518
1325.499	740.956	80.002	19.995	103.112	20.018	5.011	0.506
1325.999	741.189	80.001	19.996	103.116	20.020	4.886	0.502
1326.499	741.492	80.001	19.994	103.117	20.021	4.854	0.519
1326.999	741.681	80.000	19.995	103.117	20.022	4.730	0.514
1327.499	741.942	80.000	19.995	103.114	20.023	4.691	0.470
1327.999	742.215	80.000	19.994	103.112	20.025	4.573	0.491
1328.499	742.478	80.001	19.994	103.111	20.023	4.680	0.535
1328.999	742.717	80.002	19.995	103.111	20.024	4.627	0.519
1329.499	742.979	80.001	19.995	103.111	20.018	5.048	0.502
1329.999	743.227	80.001	19.995	103.111	20.024	4.594	0.506
1330.499	743.507	80.001	19.995	103.112	20.022	4.747	0.519
