Sample ID:	C:\MCC\MCC Cal\Test\Vinyl_Covering_81A_MCC_30K_min_220302_R2.txt
Sample Weight (mg):	4.79
Heating Rate (C/s):	0.5
Combustor Temp (C):	900
N2 Flow Rate (cc/min):	80
O2 Flow Rate (cc/min):	20
Calibration File:	C:\MCC\MCC Cal\Coeff1 JN10440_30_210304.txt.txt
T Correction Coefficients:	0	1.024463	0
Time Shift (s):	14
*
Time (s)	Temperature (C)	N2 flow rate (cc/min)	O2 flow rate (cc/min)	Flow Rate (cc/min)	Oxygen (%)	HRR (W/g)	Heating rate (C/s)
0.000	115.783	80.008	19.992	103.742	19.968	-0.127	0.022
0.500	115.753	80.008	19.994	103.742	19.968	-0.126	0.057
1.000	115.777	80.007	19.994	103.741	19.967	-0.052	0.016
1.500	115.767	80.007	19.993	103.740	19.968	-0.146	0.004
2.000	115.754	80.007	19.994	103.741	19.967	-0.064	-0.004
2.500	115.773	80.008	19.993	103.740	19.970	-0.268	-0.008
3.000	115.736	80.007	19.993	103.741	19.968	-0.139	-0.006
3.500	115.775	80.006	19.994	103.741	19.968	-0.167	-0.008
4.000	115.795	80.007	19.993	103.739	19.966	-0.032	0.031
4.500	115.787	80.006	19.993	103.733	19.967	-0.096	0.035
5.000	115.810	80.007	19.993	103.728	19.968	-0.165	0.013
5.500	115.773	80.007	19.993	103.727	19.965	0.079	0.001
6.000	115.807	80.008	19.994	103.724	19.964	0.124	-0.009
6.500	115.807	80.006	19.993	103.719	19.963	0.197	0.015
7.000	115.807	80.006	19.993	103.722	19.964	0.098	0.017
7.500	115.832	80.007	19.994	103.721	19.963	0.178	0.013
8.000	115.794	80.006	19.992	103.725	19.964	0.145	0.006
8.500	115.827	80.007	19.993	103.732	19.962	0.227	-0.009
9.000	115.784	80.008	19.992	103.739	19.960	0.392	-0.007
9.500	115.782	80.008	19.993	103.742	19.963	0.178	-0.027
10.000	115.802	80.008	19.994	103.749	19.963	0.180	-0.014
10.500	115.792	80.009	19.992	103.750	19.962	0.248	0.014
11.000	115.815	80.008	19.993	103.751	19.960	0.406	0.011
11.501	115.780	80.007	19.992	103.755	19.958	0.516	0.000
12.001	115.778	80.007	19.994	103.763	19.960	0.376	-0.024
12.500	115.791	80.006	19.993	103.771	19.959	0.430	-0.012
13.000	115.825	80.009	19.993	103.779	19.955	0.715	0.029
13.500	115.817	80.007	19.993	103.788	19.957	0.595	0.037
14.001	115.845	80.007	19.992	103.794	19.956	0.649	0.023
14.501	115.849	80.008	19.992	103.801	19.952	0.953	0.026
15.000	115.859	80.008	19.992	103.809	19.952	0.903	0.023
15.500	115.849	80.008	19.991	103.821	19.948	1.217	0.007
16.000	115.892	80.008	19.992	103.833	19.949	1.110	0.016
16.500	115.896	80.008	19.992	103.845	19.947	1.298	0.040
17.000	115.907	80.009	19.994	103.851	19.947	1.295	0.031
17.500	115.943	80.008	19.993	103.859	19.950	1.065	0.031
18.000	115.992	80.008	19.993	103.864	19.944	1.505	0.066
18.500	115.999	80.009	19.992	103.874	19.944	1.486	0.071
19.000	115.996	80.009	19.993	103.883	19.946	1.356	0.031
19.500	116.019	80.009	19.992	103.893	19.945	1.392	0.012
20.000	116.056	80.009	19.994	103.900	19.944	1.474	0.039
20.500	116.095	80.008	19.993	103.906	19.943	1.564	0.068
21.000	116.070	80.009	19.993	103.906	19.940	1.771	0.045
21.500	116.121	80.008	19.994	103.908	19.937	1.970	0.020
22.000	116.195	80.008	19.993	103.911	19.935	2.092	0.075
22.500	116.229	80.009	19.993	103.917	19.935	2.081	0.117
23.000	116.265	80.008	19.994	103.925	19.934	2.160	0.089
23.500	116.331	80.009	19.992	103.923	19.931	2.378	0.086
24.000	116.372	80.008	19.994	103.903	19.931	2.359	0.104
24.500	116.416	80.008	19.993	103.886	19.931	2.350	0.096
25.000	116.438	80.007	19.994	103.872	19.928	2.570	0.076
25.500	116.494	80.010	19.993	103.862	19.931	2.378	0.072
26.000	116.593	80.009	19.993	103.864	19.931	2.326	0.116
26.500	116.681	80.008	19.995	103.904	19.930	2.431	0.171
27.000	116.690	80.006	19.994	103.954	19.929	2.525	0.142
27.500	116.787	80.008	19.994	103.981	19.929	2.525	0.101
28.000	116.863	80.007	19.995	103.992	19.927	2.630	0.139
28.500	116.945	80.008	19.993	103.998	19.925	2.780	0.166
29.000	117.027	80.007	19.994	103.982	19.923	2.912	0.161
29.500	117.084	80.008	19.994	103.954	19.924	2.835	0.151
30.000	117.165	80.007	19.993	103.943	19.927	2.609	0.138
30.500	117.261	80.008	19.993	103.941	19.926	2.728	0.158
31.000	117.307	80.007	19.993	103.942	19.928	2.576	0.160
31.500	117.377	80.007	19.995	103.942	19.926	2.664	0.129
32.000	117.461	80.007	19.994	103.945	19.924	2.863	0.135
32.501	117.586	80.007	19.995	103.947	19.924	2.852	0.182
33.001	117.685	80.009	19.994	103.947	19.924	2.859	0.216
33.500	117.778	80.007	19.994	103.948	19.925	2.777	0.207
34.000	117.885	80.007	19.993	103.949	19.921	3.051	0.196
34.500	117.983	80.008	19.992	103.954	19.920	3.109	0.203
35.000	118.047	80.008	19.992	103.959	19.921	3.032	0.184
35.500	118.155	80.008	19.993	103.966	19.922	2.976	0.167
36.000	118.238	80.006	19.993	103.972	19.920	3.111	0.181
36.501	118.361	80.008	19.997	103.977	19.924	2.850	0.198
37.001	118.424	80.008	19.996	103.979	19.916	3.355	0.196
37.500	118.583	80.009	19.994	103.979	19.917	3.295	0.204
38.000	118.639	80.007	19.995	103.980	19.917	3.336	0.218
38.500	118.745	80.008	19.994	103.980	19.919	3.167	0.188
39.000	118.863	80.008	19.994	103.980	19.917	3.301	0.192
39.501	119.009	80.008	19.994	103.974	19.916	3.350	0.244
40.001	119.118	80.008	19.993	103.968	19.916	3.350	0.260
40.500	119.209	80.009	19.993	103.967	19.915	3.447	0.228
41.000	119.378	80.009	19.994	103.969	19.915	3.430	0.230
41.500	119.475	80.008	19.994	103.971	19.913	3.554	0.263
42.000	119.600	80.008	19.993	103.977	19.911	3.682	0.244
42.500	119.702	80.008	19.994	103.984	19.913	3.543	0.224
43.000	119.819	80.008	19.993	103.984	19.912	3.660	0.223
43.500	119.958	80.008	19.993	103.983	19.911	3.688	0.238
44.000	120.092	80.009	19.993	103.982	19.915	3.472	0.264
44.500	120.198	80.009	19.994	103.982	19.912	3.675	0.256
45.000	120.433	80.009	19.994	103.983	19.911	3.728	0.291
45.500	120.571	80.009	19.993	103.983	19.915	3.457	0.358
46.000	120.677	80.009	19.993	103.984	19.914	3.528	0.308
46.500	120.769	80.008	19.992	103.986	19.916	3.354	0.221
47.001	120.914	80.009	19.993	103.983	19.916	3.372	0.218
47.501	121.075	80.010	19.993	103.978	19.915	3.429	0.271
48.000	121.213	80.010	19.992	103.972	19.915	3.412	0.302
48.501	121.327	80.009	19.993	103.967	19.915	3.465	0.275
49.001	121.497	80.010	19.992	103.966	19.915	3.466	0.268
49.500	121.649	80.009	19.993	103.969	19.913	3.585	0.303
50.000	121.785	80.010	19.993	103.972	19.914	3.509	0.305
50.500	121.955	80.009	19.994	103.977	19.914	3.525	0.297
51.000	122.052	80.009	19.994	103.979	19.917	3.284	0.287
51.500	122.212	80.009	19.993	103.977	19.914	3.538	0.262
52.000	122.389	80.009	19.994	103.975	19.911	3.681	0.297
52.500	122.512	80.009	19.995	103.973	19.913	3.598	0.318
53.000	122.675	80.009	19.993	103.973	19.914	3.513	0.293
53.500	122.837	80.009	19.994	103.973	19.913	3.573	0.305
54.000	123.025	80.008	19.993	103.976	19.915	3.410	0.337
54.500	123.158	80.009	19.993	103.978	19.912	3.626	0.336
55.000	123.337	80.008	19.994	103.981	19.911	3.710	0.317
55.500	123.495	80.009	19.994	103.981	19.911	3.682	0.325
56.000	123.653	80.008	19.994	103.984	19.911	3.741	0.327
56.500	123.807	80.009	19.994	103.984	19.913	3.577	0.313
57.000	123.974	80.008	19.994	103.984	19.910	3.752	0.317
57.500	124.152	80.008	19.994	103.984	19.909	3.818	0.333
58.000	124.322	80.008	19.994	103.984	19.908	3.946	0.347
58.500	124.505	80.007	19.994	103.984	19.910	3.769	0.351
59.000	124.696	80.007	19.994	103.984	19.911	3.739	0.363
59.500	124.841	80.006	19.994	103.985	19.909	3.831	0.355
60.000	124.995	80.006	19.994	103.982	19.909	3.835	0.317
60.500	125.189	80.005	19.995	103.980	19.910	3.773	0.323
61.000	125.391	80.007	19.994	103.981	19.911	3.718	0.372
61.500	125.564	80.007	19.994	103.981	19.911	3.688	0.386
62.001	125.773	80.007	19.994	103.981	19.910	3.805	0.379
62.501	125.914	80.007	19.994	103.985	19.909	3.840	0.366
63.000	126.101	80.006	19.994	103.988	19.910	3.793	0.339
63.501	126.285	80.006	19.994	103.987	19.910	3.752	0.350
64.001	126.468	80.006	19.993	103.986	19.911	3.722	0.369
64.500	126.634	80.007	19.993	103.983	19.907	3.981	0.358
65.001	126.843	80.006	19.994	103.983	19.908	3.942	0.361
65.501	127.030	80.006	19.994	103.979	19.908	3.925	0.385
66.000	127.188	80.007	19.994	103.979	19.909	3.880	0.371
66.501	127.387	80.005	19.995	103.980	19.906	4.085	0.351
67.001	127.570	80.007	19.996	103.982	19.907	3.981	0.369
67.501	127.793	80.008	19.995	103.982	19.909	3.825	0.394
68.000	127.961	80.007	19.994	103.985	19.910	3.812	0.399
68.500	128.175	80.009	19.994	103.984	19.908	3.932	0.386
69.000	128.316	80.007	19.993	103.984	19.911	3.737	0.368
69.501	128.532	80.008	19.994	103.985	19.906	4.019	0.356
70.001	128.743	80.006	19.993	103.985	19.908	3.930	0.392
70.500	128.922	80.007	19.994	103.985	19.910	3.793	0.409
71.000	129.137	80.007	19.993	103.986	19.910	3.759	0.392
71.500	129.289	80.006	19.992	103.986	19.912	3.669	0.380
72.000	129.492	80.007	19.994	103.986	19.913	3.568	0.361
72.500	129.699	80.008	19.994	103.986	19.909	3.821	0.382
73.000	129.928	80.008	19.994	103.984	19.909	3.823	0.423
73.500	130.124	80.008	19.993	103.983	19.910	3.763	0.431
74.000	130.351	80.007	19.993	103.982	19.908	3.917	0.424
74.501	130.513	80.009	19.994	103.982	19.911	3.709	0.406
75.001	130.720	80.008	19.993	103.982	19.912	3.635	0.379
75.501	130.924	80.008	19.994	103.982	19.910	3.780	0.390
76.001	131.118	80.008	19.993	103.982	19.910	3.750	0.405
76.500	131.313	80.009	19.994	103.983	19.912	3.662	0.393
77.000	131.517	80.009	19.992	103.984	19.909	3.853	0.394
77.500	131.743	80.007	19.992	103.985	19.911	3.697	0.414
78.000	131.948	80.008	19.993	103.985	19.912	3.677	0.431
78.501	132.126	80.009	19.993	103.985	19.909	3.831	0.408
79.001	132.372	80.008	19.993	103.985	19.906	4.024	0.403
79.500	132.592	80.008	19.992	103.985	19.910	3.801	0.445
80.000	132.770	80.008	19.993	103.983	19.910	3.771	0.432
80.500	132.942	80.008	19.993	103.982	19.908	3.884	0.374
81.000	133.206	80.008	19.993	103.981	19.905	4.147	0.393
81.500	133.412	80.008	19.994	103.979	19.905	4.088	0.453
82.000	133.636	80.008	19.993	103.979	19.906	4.019	0.450
82.500	133.853	80.008	19.992	103.980	19.905	4.128	0.436
83.000	134.084	80.009	19.992	103.981	19.904	4.161	0.445
83.500	134.278	80.008	19.993	103.982	19.908	3.891	0.437
84.000	134.494	80.008	19.993	103.984	19.906	4.079	0.418
84.500	134.726	80.009	19.992	103.984	19.903	4.225	0.429
85.000	134.991	80.009	19.994	103.983	19.903	4.223	0.472
85.501	135.149	80.009	19.993	103.983	19.905	4.122	0.460
86.001	135.427	80.009	19.992	103.982	19.903	4.229	0.430
86.500	135.607	80.008	19.993	103.982	19.906	4.030	0.447
87.001	135.825	80.009	19.994	103.982	19.906	4.066	0.428
87.501	136.058	80.008	19.992	103.982	19.904	4.203	0.425
88.000	136.285	80.006	19.993	103.981	19.901	4.357	0.456
88.500	136.515	80.007	19.993	103.981	19.903	4.286	0.458
89.000	136.718	80.007	19.994	103.978	19.902	4.291	0.444
89.500	136.964	80.008	19.994	103.978	19.904	4.220	0.440
90.000	137.175	80.007	19.994	103.979	19.905	4.145	0.453
90.501	137.390	80.007	19.993	103.981	19.901	4.381	0.442
91.001	137.653	80.009	19.993	103.982	19.902	4.336	0.452
91.501	137.878	80.009	19.994	103.985	19.902	4.316	0.483
92.001	138.114	80.008	19.994	103.985	19.903	4.237	0.474
92.501	138.338	80.009	19.993	103.985	19.902	4.291	0.461
93.001	138.547	80.007	19.993	103.985	19.904	4.206	0.446
93.500	138.759	80.008	19.994	103.983	19.902	4.325	0.427
94.000	139.032	80.007	19.992	103.982	19.905	4.124	0.453
94.500	139.207	80.007	19.992	103.979	19.901	4.398	0.466
95.000	139.454	80.007	19.994	103.979	19.901	4.362	0.435
95.501	139.665	80.008	19.993	103.980	19.903	4.266	0.440
96.001	139.887	80.005	19.993	103.981	19.904	4.199	0.446
96.501	140.108	80.007	19.997	103.982	19.897	4.640	0.438
97.001	140.363	80.006	19.994	103.984	19.907	3.965	0.460
97.500	140.594	80.008	19.995	103.985	19.901	4.377	0.481
98.001	140.793	80.007	19.994	103.984	19.904	4.206	0.458
98.501	141.067	80.007	19.995	103.984	19.903	4.248	0.451
99.000	141.257	80.008	19.995	103.985	19.913	3.562	0.468
99.500	141.511	80.007	19.994	103.985	19.908	3.900	0.454
100.000	141.754	80.008	19.995	103.984	19.918	3.262	0.471
100.500	142.034	80.007	19.995	103.985	19.912	3.635	0.510
101.000	142.247	80.008	19.995	103.985	19.897	4.661	0.508
101.501	142.436	80.009	19.994	103.985	19.896	4.697	0.447
102.001	142.693	80.009	19.994	103.984	19.894	4.856	0.424
102.501	142.951	80.009	19.993	103.983	19.895	4.811	0.481
103.001	143.178	80.009	19.994	103.980	19.893	4.940	0.500
103.500	143.404	80.009	19.994	103.975	19.898	4.615	0.469
104.001	143.685	80.008	19.994	103.974	19.895	4.779	0.480
104.501	143.878	80.008	19.994	103.974	19.894	4.835	0.490
105.000	144.143	80.009	19.992	103.976	19.895	4.789	0.466
105.500	144.372	80.008	19.993	103.976	19.895	4.778	0.476
106.000	144.649	80.009	19.993	103.978	19.893	4.945	0.500
106.500	144.894	80.009	19.994	103.976	19.892	5.022	0.514
107.000	145.086	80.009	19.994	103.972	19.893	4.913	0.480
107.500	145.323	80.010	19.992	103.967	19.893	4.937	0.433
108.000	145.589	80.009	19.993	103.964	19.891	5.040	0.466
108.501	145.827	80.009	19.993	103.966	19.891	5.087	0.503
109.001	146.111	80.008	19.993	103.969	19.889	5.174	0.513
109.501	146.335	80.009	19.992	103.973	19.891	5.084	0.515
110.001	146.547	80.009	19.993	103.978	19.894	4.892	0.472
110.501	146.795	80.009	19.992	103.983	19.890	5.163	0.448
111.000	147.018	80.010	19.992	103.982	19.891	5.073	0.465
111.500	147.310	80.009	19.993	103.981	19.889	5.226	0.493
112.000	147.502	80.009	19.992	103.982	19.892	5.018	0.500
112.500	147.792	80.009	19.992	103.979	19.892	5.014	0.483
113.001	148.005	80.009	19.993	103.975	19.889	5.207	0.492
113.501	148.221	80.008	19.993	103.970	19.889	5.173	0.466
114.001	148.507	80.008	19.992	103.967	19.887	5.333	0.466
114.501	148.733	80.009	19.992	103.961	19.886	5.378	0.507
115.000	148.981	80.008	19.993	103.964	19.887	5.338	0.493
115.500	149.290	80.009	19.992	103.967	19.888	5.272	0.515
116.000	149.520	80.007	19.991	103.975	19.887	5.331	0.548
116.500	149.744	80.008	19.992	103.979	19.886	5.381	0.497
117.000	150.025	80.009	19.993	103.985	19.884	5.567	0.479
117.500	150.302	80.009	19.994	103.981	19.884	5.526	0.532
118.001	150.535	80.009	19.994	103.978	19.885	5.492	0.534
118.501	150.756	80.010	19.993	103.973	19.887	5.312	0.482
119.000	151.026	80.010	19.993	103.969	19.887	5.366	0.472
119.500	151.218	80.009	19.993	103.970	19.885	5.439	0.476
120.000	151.538	80.007	19.992	103.974	19.886	5.372	0.487
120.500	151.711	80.008	19.994	103.978	19.885	5.470	0.503
121.000	152.038	80.007	19.993	103.983	19.885	5.488	0.496
121.500	152.248	80.009	19.994	103.985	19.881	5.746	0.518
122.000	152.506	80.008	19.994	103.981	19.881	5.729	0.502
122.500	152.711	80.009	19.993	103.975	19.881	5.751	0.465
123.000	152.978	80.008	19.994	103.971	19.880	5.800	0.467
123.500	153.199	80.008	19.993	103.965	19.880	5.794	0.480
124.000	153.489	80.007	19.993	103.961	19.878	5.963	0.500
124.500	153.745	80.007	19.993	103.958	19.876	6.085	0.528
125.001	153.998	80.008	19.994	103.957	19.877	6.044	0.527
125.501	154.207	80.007	19.994	103.956	19.877	5.993	0.486
126.000	154.464	80.008	19.992	103.954	19.876	6.087	0.464
126.500	154.720	80.007	19.992	103.954	19.877	6.003	0.490
127.000	154.948	80.008	19.993	103.956	19.878	5.973	0.498
127.500	155.168	80.008	19.993	103.959	19.876	6.080	0.466
128.000	155.411	80.008	19.994	103.957	19.877	5.993	0.456
128.500	155.695	80.009	19.992	103.956	19.875	6.158	0.495
129.000	155.961	80.008	19.993	103.954	19.877	6.002	0.538
129.500	156.187	80.009	19.993	103.954	19.875	6.175	0.521
130.000	156.418	80.009	19.993	103.952	19.880	5.841	0.475
130.500	156.691	80.008	19.993	103.953	19.878	5.963	0.480
131.000	156.971	80.010	19.992	103.956	19.872	6.320	0.528
131.501	157.205	80.009	19.994	103.958	19.874	6.192	0.534
132.000	157.450	80.009	19.992	103.958	19.875	6.160	0.496
132.500	157.705	80.009	19.994	103.958	19.871	6.442	0.489
133.000	157.962	80.009	19.992	103.958	19.870	6.455	0.506
133.500	158.214	80.010	19.993	103.956	19.871	6.410	0.510
134.000	158.471	80.009	19.993	103.954	19.870	6.461	0.509
134.500	158.705	80.011	19.993	103.954	19.870	6.493	0.501
135.000	158.949	80.011	19.994	103.952	19.872	6.378	0.485
135.500	159.217	80.010	19.993	103.952	19.875	6.138	0.495
136.000	159.448	80.009	19.993	103.952	19.874	6.241	0.505
136.500	159.681	80.009	19.994	103.953	19.869	6.570	0.482
137.000	159.963	80.010	19.994	103.955	19.869	6.551	0.490
137.500	160.197	80.010	19.993	103.954	19.871	6.414	0.516
138.000	160.467	80.008	19.994	103.954	19.868	6.637	0.510
138.500	160.727	80.010	19.993	103.952	19.867	6.660	0.517
139.000	160.944	80.010	19.994	103.949	19.866	6.731	0.504
139.500	161.194	80.010	19.993	103.947	19.868	6.603	0.472
140.000	161.414	80.010	19.993	103.946	19.870	6.500	0.468
140.500	161.677	80.009	19.994	103.946	19.863	6.964	0.476
141.000	161.974	80.010	19.993	103.946	19.864	6.868	0.521
141.500	162.186	80.011	19.994	103.946	19.868	6.609	0.534
142.000	162.456	80.009	19.993	103.945	19.864	6.864	0.495
142.500	162.703	80.008	19.993	103.946	19.866	6.746	0.500
143.000	162.952	80.007	19.992	103.950	19.864	6.876	0.507
143.500	163.241	80.007	19.993	103.950	19.867	6.707	0.517
144.000	163.484	80.008	19.994	103.949	19.863	6.945	0.535
144.500	163.738	80.007	19.992	103.949	19.863	6.991	0.515
145.000	163.965	80.006	19.993	103.948	19.864	6.884	0.489
145.500	164.207	80.007	19.995	103.944	19.861	7.079	0.475
146.000	164.508	80.007	19.993	103.944	19.863	6.931	0.506
146.500	164.758	80.007	19.994	103.945	19.864	6.901	0.547
147.000	165.021	80.008	19.993	103.945	19.859	7.223	0.532
147.500	165.243	80.008	19.994	103.948	19.862	7.030	0.499
148.000	165.494	80.008	19.995	103.949	19.859	7.199	0.479
148.500	165.765	80.008	19.993	103.949	19.859	7.206	0.498
149.000	166.012	80.007	19.993	103.948	19.861	7.099	0.520
149.500	166.308	80.008	19.993	103.948	19.859	7.248	0.530
150.000	166.537	80.007	19.992	103.946	19.859	7.238	0.534
150.500	166.780	80.008	19.993	103.945	19.857	7.355	0.499
151.000	167.039	80.008	19.994	103.945	19.855	7.471	0.487
151.500	167.267	80.008	19.994	103.945	19.853	7.659	0.494
152.001	167.508	80.007	19.993	103.945	19.855	7.524	0.478
152.500	167.786	80.008	19.993	103.945	19.852	7.680	0.494
153.000	168.038	80.008	19.993	103.944	19.852	7.680	0.525
153.500	168.311	80.007	19.994	103.945	19.854	7.556	0.527
154.000	168.566	80.007	19.993	103.945	19.853	7.604	0.526
154.500	168.783	80.007	19.993	103.945	19.853	7.629	0.500
155.000	169.047	80.007	19.995	103.946	19.851	7.745	0.476
155.500	169.313	80.008	19.995	103.950	19.854	7.599	0.505
156.000	169.558	80.007	19.994	103.950	19.851	7.785	0.521
156.500	169.821	80.008	19.996	103.951	19.849	7.884	0.510
157.000	170.069	80.008	19.995	103.953	19.850	7.862	0.510
157.500	170.321	80.008	19.995	103.953	19.849	7.924	0.505
158.000	170.565	80.007	19.994	103.950	19.850	7.845	0.498
158.500	170.825	80.008	19.995	103.951	19.848	7.986	0.500
159.000	171.072	80.009	19.995	103.950	19.849	7.939	0.506
159.500	171.312	80.006	19.996	103.948	19.849	7.888	0.497
160.000	171.596	80.008	19.995	103.948	19.845	8.190	0.505
160.500	171.826	80.008	19.994	103.946	19.851	7.792	0.519
161.000	172.074	80.007	19.994	103.945	19.850	7.811	0.496
161.500	172.348	80.008	19.994	103.944	19.847	8.072	0.500
162.000	172.576	80.007	19.994	103.944	19.845	8.196	0.512
162.500	172.837	80.009	19.995	103.944	19.848	7.967	0.496
163.000	173.083	80.007	19.993	103.945	19.846	8.079	0.498
163.500	173.366	80.009	19.995	103.945	19.848	8.002	0.518
164.000	173.589	80.008	19.995	103.945	19.850	7.865	0.518
164.500	173.812	80.008	19.995	103.945	19.848	7.974	0.476
165.000	174.056	80.008	19.995	103.945	19.843	8.337	0.457
165.500	174.307	80.008	19.995	103.945	19.845	8.205	0.482
166.000	174.572	80.008	19.994	103.944	19.844	8.252	0.505
166.500	174.827	80.008	19.993	103.944	19.844	8.273	0.517
167.000	175.052	80.008	19.994	103.944	19.842	8.356	0.500
167.500	175.285	80.009	19.994	103.944	19.842	8.367	0.469
168.000	175.556	80.008	19.994	103.944	19.841	8.473	0.481
168.500	175.803	80.008	19.995	103.944	19.841	8.417	0.511
169.000	176.056	80.007	19.995	103.944	19.840	8.516	0.509
169.500	176.301	80.008	19.993	103.945	19.841	8.473	0.499
170.000	176.570	80.008	19.994	103.944	19.839	8.590	0.506
170.500	176.815	80.007	19.994	103.945	19.840	8.495	0.514
171.000	177.070	80.009	19.995	103.944	19.841	8.472	0.507
171.500	177.293	80.008	19.994	103.944	19.838	8.662	0.489
172.000	177.571	80.007	19.993	103.943	19.837	8.703	0.490
172.500	177.833	80.007	19.993	103.943	19.838	8.675	0.520
173.001	178.053	80.009	19.994	103.943	19.837	8.737	0.511
173.500	178.301	80.008	19.993	103.943	19.832	9.054	0.475
174.000	178.561	80.009	19.994	103.941	19.834	8.913	0.488
174.500	178.827	80.008	19.993	103.941	19.834	8.956	0.517
175.000	179.048	80.008	19.993	103.941	19.831	9.105	0.506
175.500	179.310	80.008	19.993	103.941	19.836	8.806	0.485
176.001	179.548	80.008	19.993	103.941	19.833	8.962	0.491
176.500	179.850	80.008	19.992	103.944	19.829	9.292	0.520
177.000	180.071	80.008	19.993	103.945	19.832	9.037	0.532
177.500	180.342	80.007	19.993	103.944	19.831	9.148	0.507
178.000	180.624	80.007	19.994	103.945	19.828	9.308	0.522
178.500	180.818	80.007	19.994	103.943	19.827	9.384	0.514
179.000	181.099	80.007	19.992	103.937	19.830	9.185	0.476
179.500	181.323	80.008	19.991	103.934	19.831	9.117	0.491
180.000	181.563	80.007	19.993	103.936	19.826	9.495	0.484
180.500	181.843	80.006	19.993	103.936	19.826	9.450	0.491
181.000	182.067	80.007	19.993	103.939	19.825	9.526	0.512
181.500	182.326	80.007	19.993	103.945	19.827	9.406	0.494
182.000	182.556	80.006	19.994	103.948	19.824	9.594	0.486
182.500	182.789	80.007	19.992	103.949	19.825	9.549	0.476
183.000	183.069	80.007	19.992	103.948	19.827	9.422	0.488
183.500	183.325	80.007	19.993	103.944	19.825	9.530	0.525
184.000	183.546	80.008	19.992	103.944	19.819	9.962	0.506
184.500	183.803	80.008	19.994	103.944	19.823	9.682	0.477
185.000	184.064	80.008	19.993	103.944	19.824	9.634	0.498
185.500	184.299	80.008	19.993	103.942	19.821	9.786	0.507
186.000	184.541	80.007	19.993	103.941	19.819	9.962	0.486
186.500	184.823	80.009	19.993	103.940	19.818	9.993	0.500
187.000	185.014	80.008	19.993	103.939	19.819	9.921	0.499
187.500	185.268	80.008	19.994	103.939	19.814	10.250	0.460
188.000	185.498	80.009	19.993	103.941	19.815	10.177	0.465
188.500	185.746	80.008	19.993	103.943	19.817	10.083	0.481
189.000	185.999	80.007	19.994	103.941	19.815	10.197	0.489
189.500	186.262	80.009	19.993	103.940	19.810	10.554	0.508
190.000	186.498	80.008	19.992	103.937	19.812	10.438	0.508
190.500	186.820	80.009	19.994	103.937	19.809	10.604	0.528
191.000	187.042	80.009	19.992	103.939	19.809	10.633	0.551
191.500	187.262	80.010	19.993	103.934	19.809	10.648	0.493
192.000	187.520	80.009	19.994	103.905	19.811	10.513	0.460
192.500	187.772	80.009	19.993	103.887	19.808	10.708	0.494
193.000	187.983	80.009	19.993	103.876	19.806	10.789	0.487
193.500	188.254	80.009	19.992	103.869	19.805	10.856	0.472
194.000	188.476	80.009	19.994	103.876	19.805	10.885	0.487
194.500	188.714	80.009	19.992	103.929	19.804	10.969	0.477
195.000	189.000	80.009	19.992	103.975	19.804	10.971	0.492
195.500	189.233	80.009	19.994	103.990	19.800	11.247	0.521
196.000	189.497	80.009	19.993	103.997	19.799	11.295	0.508
196.500	189.727	80.010	19.993	103.994	19.800	11.209	0.496
197.001	189.982	80.009	19.993	103.971	19.796	11.470	0.490
197.500	190.234	80.009	19.994	103.944	19.794	11.607	0.496
198.000	190.473	80.009	19.994	103.940	19.794	11.606	0.499
198.500	190.695	80.008	19.993	103.938	19.794	11.660	0.476
199.000	190.941	80.008	19.993	103.941	19.792	11.789	0.464
199.500	191.198	80.008	19.993	103.937	19.791	11.835	0.485
200.000	191.417	80.009	19.993	103.937	19.789	11.948	0.490
200.500	191.656	80.008	19.993	103.935	19.792	11.775	0.467
201.000	191.895	80.008	19.994	103.936	19.789	11.954	0.468
201.500	192.139	80.008	19.993	103.933	19.787	12.121	0.480
202.000	192.438	80.008	19.992	103.936	19.784	12.282	0.513
202.500	192.693	80.009	19.993	103.938	19.784	12.318	0.549
203.000	192.883	80.007	19.994	103.937	19.782	12.449	0.500
203.500	193.111	80.008	19.993	103.937	19.782	12.432	0.432
204.000	193.391	80.008	19.993	103.937	19.783	12.372	0.464
204.500	193.584	80.008	19.993	103.932	19.783	12.346	0.491
205.000	193.818	80.007	19.993	103.927	19.781	12.500	0.450
205.500	194.083	80.008	19.994	103.923	19.783	12.352	0.463
206.000	194.350	80.007	19.993	103.917	19.786	12.174	0.515
206.500	194.587	80.009	19.993	103.920	19.777	12.780	0.518
207.000	194.797	80.009	19.994	103.925	19.780	12.600	0.476
207.500	195.071	80.008	19.994	103.929	19.780	12.565	0.466
208.000	195.295	80.008	19.995	103.932	19.775	12.890	0.491
208.500	195.593	80.009	19.994	103.930	19.774	13.006	0.510
209.000	195.812	80.008	19.994	103.924	19.772	13.086	0.519
209.500	196.053	80.008	19.992	103.918	19.775	12.908	0.488
210.000	196.312	80.010	19.994	103.911	19.769	13.334	0.480
210.500	196.530	80.010	19.995	103.909	19.772	13.107	0.489
211.000	196.789	80.009	19.993	103.909	19.768	13.375	0.477
211.500	196.988	80.008	19.992	103.908	19.770	13.273	0.468
212.000	197.237	80.009	19.993	103.908	19.767	13.471	0.453
212.500	197.478	80.009	19.993	103.908	19.764	13.679	0.469
213.000	197.740	80.008	19.992	103.907	19.763	13.696	0.497
213.500	197.966	80.009	19.993	103.906	19.761	13.892	0.495
214.000	198.180	80.010	19.993	103.906	19.762	13.796	0.464
214.500	198.444	80.011	19.993	103.906	19.759	13.976	0.459
215.000	198.732	80.009	19.994	103.906	19.761	13.857	0.515
215.500	198.942	80.009	19.993	103.907	19.760	13.934	0.525
216.000	199.189	80.010	19.991	103.908	19.760	13.914	0.477
216.500	199.444	80.010	19.993	103.910	19.760	13.920	0.479
217.000	199.674	80.011	19.993	103.913	19.758	14.074	0.494
217.500	199.929	80.010	19.994	103.914	19.757	14.139	0.485
218.000	200.163	80.010	19.993	103.915	19.754	14.340	0.487
218.500	200.429	80.011	19.995	103.918	19.755	14.264	0.495
219.000	200.691	80.011	19.993	103.917	19.751	14.527	0.515
219.501	200.924	80.011	19.994	103.915	19.754	14.345	0.512
220.000	201.123	80.010	19.993	103.914	19.749	14.700	0.463
220.500	201.431	80.010	19.992	103.914	19.750	14.602	0.469
221.000	201.682	80.011	19.992	103.912	19.748	14.743	0.533
221.500	201.891	80.011	19.993	103.910	19.745	14.918	0.509
222.000	202.150	80.012	19.992	103.909	19.743	15.062	0.464
222.500	202.380	80.011	19.993	103.908	19.742	15.120	0.478
223.000	202.598	80.010	19.993	103.909	19.741	15.214	0.469
223.500	202.868	80.011	19.993	103.912	19.742	15.168	0.468
224.000	203.097	80.010	19.992	103.912	19.741	15.239	0.494
224.501	203.340	80.011	19.994	103.912	19.738	15.397	0.485
225.001	203.581	80.011	19.994	103.912	19.737	15.461	0.478
225.500	203.826	80.011	19.993	103.909	19.735	15.622	0.485
226.000	204.087	80.010	19.993	103.905	19.735	15.639	0.496
226.500	204.266	80.010	19.993	103.909	19.733	15.785	0.473
227.000	204.514	80.010	19.994	103.912	19.730	15.937	0.434
227.500	204.744	80.009	19.993	103.912	19.730	15.939	0.452
228.000	205.014	80.009	19.994	103.912	19.728	16.116	0.489
228.500	205.249	80.009	19.995	103.912	19.724	16.333	0.502
229.000	205.499	80.010	19.993	103.908	19.726	16.198	0.495
229.500	205.783	80.008	19.993	103.905	19.723	16.407	0.510
230.001	206.029	80.008	19.994	103.906	19.722	16.497	0.532
230.501	206.297	80.008	19.994	103.906	19.717	16.827	0.522
231.001	206.516	80.009	19.994	103.906	19.716	16.891	0.500
231.501	206.752	80.006	19.994	103.906	19.717	16.852	0.471
232.000	207.000	80.009	19.994	103.905	19.714	17.021	0.470
232.500	207.247	80.007	19.995	103.906	19.712	17.151	0.489
233.001	207.488	80.008	19.992	103.905	19.712	17.210	0.491
233.501	207.733	80.009	19.996	103.905	19.706	17.565	0.488
234.000	207.963	80.008	19.994	103.905	19.707	17.500	0.481
234.500	208.245	80.008	19.995	103.907	19.704	17.717	0.493
235.000	208.492	80.008	19.993	103.909	19.701	17.927	0.520
235.500	208.699	80.008	19.994	103.909	19.700	17.989	0.492
236.000	208.942	80.008	19.994	103.909	19.697	18.194	0.452
236.501	209.173	80.008	19.993	103.909	19.698	18.115	0.462
237.001	209.461	80.008	19.994	103.907	19.695	18.326	0.496
237.501	209.714	80.006	19.994	103.907	19.694	18.394	0.529
238.001	209.928	80.007	19.993	103.907	19.697	18.176	0.504
238.500	210.162	80.009	19.994	103.907	19.693	18.486	0.458
239.000	210.428	80.008	19.994	103.907	19.688	18.803	0.474
239.500	210.674	80.009	19.994	103.907	19.687	18.882	0.506
240.001	210.953	80.007	19.994	103.905	19.687	18.898	0.519
240.501	211.154	80.009	19.994	103.906	19.683	19.111	0.502
241.001	211.382	80.008	19.994	103.906	19.683	19.146	0.455
241.500	211.653	80.008	19.993	103.907	19.680	19.343	0.465
242.000	211.871	80.008	19.994	103.908	19.676	19.604	0.494
242.500	212.093	80.009	19.993	103.908	19.674	19.782	0.464
243.000	212.389	80.008	19.993	103.908	19.672	19.915	0.479
243.500	212.603	80.008	19.994	103.909	19.673	19.805	0.514
244.001	212.799	80.008	19.994	103.909	19.669	20.088	0.460
244.501	213.086	80.008	19.993	103.908	19.670	19.998	0.446
245.001	213.306	80.008	19.994	103.909	19.669	20.058	0.495
245.500	213.547	80.010	19.993	103.908	19.668	20.147	0.484
246.000	213.813	80.009	19.992	103.907	19.664	20.400	0.484
246.500	214.016	80.007	19.994	103.907	19.663	20.528	0.488
247.000	214.284	80.007	19.994	103.907	19.664	20.449	0.470
247.500	214.527	80.008	19.994	103.908	19.661	20.629	0.491
248.000	214.779	80.008	19.994	103.909	19.662	20.582	0.503
248.500	215.008	80.008	19.992	103.911	19.657	20.920	0.488
249.000	215.231	80.008	19.994	103.912	19.656	20.967	0.466
249.500	215.518	80.008	19.994	103.912	19.654	21.080	0.481
250.000	215.745	80.008	19.994	103.913	19.651	21.273	0.512
250.500	215.982	80.007	19.994	103.912	19.650	21.361	0.489
251.000	216.252	80.008	19.993	103.910	19.648	21.523	0.485
251.500	216.474	80.009	19.994	103.909	19.643	21.834	0.499
252.000	216.767	80.008	19.993	103.909	19.648	21.517	0.504
252.501	216.979	80.008	19.992	103.908	19.643	21.851	0.510
253.001	217.227	80.009	19.993	103.908	19.644	21.802	0.483
253.500	217.457	80.008	19.995	103.907	19.641	22.001	0.469
254.000	217.731	80.008	19.994	103.906	19.641	21.977	0.491
254.500	217.932	80.008	19.994	103.906	19.639	22.110	0.489
255.000	218.210	80.007	19.994	103.906	19.634	22.453	0.477
255.500	218.470	80.008	19.994	103.907	19.633	22.549	0.509
256.000	218.674	80.007	19.995	103.908	19.630	22.699	0.501
256.500	218.945	80.006	19.994	103.909	19.626	23.026	0.469
257.000	219.131	80.008	19.994	103.909	19.625	23.041	0.466
257.500	219.404	80.007	19.993	103.908	19.623	23.214	0.458
258.000	219.639	80.007	19.994	103.907	19.623	23.186	0.484
258.500	219.891	80.008	19.993	103.907	19.619	23.456	0.497
259.000	220.176	80.007	19.993	103.907	19.616	23.667	0.512
259.500	220.420	80.006	19.993	103.907	19.619	23.445	0.533
260.000	220.651	80.008	19.995	103.907	19.614	23.782	0.502
260.500	220.900	80.007	19.995	103.908	19.615	23.767	0.478
261.000	221.144	80.008	19.995	103.908	19.611	23.999	0.487
261.500	221.366	80.007	19.995	103.908	19.608	24.219	0.480
262.000	221.653	80.008	19.993	103.908	19.607	24.313	0.487
262.500	221.871	80.008	19.995	103.908	19.608	24.234	0.507
263.000	222.139	80.007	19.994	103.908	19.605	24.411	0.495
263.500	222.354	80.007	19.994	103.908	19.601	24.705	0.484
264.000	222.595	80.007	19.995	103.907	19.596	25.039	0.470
264.500	222.847	80.006	19.995	103.906	19.595	25.080	0.475
265.000	223.077	80.007	19.993	103.905	19.593	25.232	0.488
265.500	223.351	80.006	19.994	103.904	19.590	25.467	0.493
266.000	223.601	80.007	19.993	103.905	19.585	25.765	0.514
266.500	223.888	80.005	19.994	103.905	19.584	25.863	0.530
267.000	224.110	80.006	19.994	103.905	19.581	26.013	0.523
267.500	224.343	80.007	19.993	103.906	19.582	25.946	0.482
268.000	224.612	80.007	19.994	103.907	19.577	26.332	0.478
268.500	224.841	80.008	19.994	103.907	19.577	26.338	0.500
269.000	225.088	80.006	19.995	103.907	19.576	26.398	0.487
269.500	225.356	80.008	19.994	103.907	19.572	26.678	0.495
270.000	225.587	80.007	19.993	103.908	19.568	26.944	0.507
270.500	225.833	80.008	19.993	103.908	19.567	27.002	0.488
271.000	226.059	80.008	19.993	103.909	19.563	27.238	0.474
271.500	226.319	80.008	19.992	103.909	19.560	27.460	0.479
272.000	226.575	80.007	19.992	103.909	19.559	27.516	0.501
272.500	226.803	80.008	19.994	103.908	19.553	27.912	0.500
273.000	227.048	80.008	19.993	103.908	19.553	27.944	0.478
273.500	227.310	80.007	19.994	103.908	19.553	27.959	0.490
274.000	227.569	80.008	19.993	103.909	19.549	28.181	0.514
274.500	227.825	80.007	19.995	103.908	19.547	28.376	0.518
275.000	228.105	80.009	19.992	103.907	19.547	28.346	0.525
275.500	228.309	80.009	19.995	103.906	19.543	28.611	0.510
276.000	228.555	80.008	19.992	103.906	19.540	28.842	0.467
276.500	228.825	80.010	19.995	103.906	19.536	29.097	0.483
277.000	229.092	80.009	19.994	103.906	19.534	29.193	0.527
277.500	229.345	80.009	19.994	103.906	19.531	29.424	0.528
278.000	229.599	80.007	19.995	103.906	19.526	29.764	0.514
278.500	229.815	80.009	19.994	103.906	19.523	29.936	0.488
279.000	230.049	80.011	19.994	103.906	19.524	29.908	0.460
279.500	230.301	80.009	19.994	103.906	19.520	30.158	0.468
280.000	230.542	80.009	19.993	103.906	19.517	30.349	0.489
280.500	230.813	80.009	19.994	103.906	19.514	30.610	0.502
281.001	231.032	80.010	19.993	103.905	19.511	30.789	0.501
281.500	231.285	80.009	19.991	103.904	19.511	30.794	0.481
282.000	231.552	80.010	19.992	103.904	19.509	30.918	0.496
282.500	231.769	80.009	19.993	103.903	19.506	31.115	0.502
283.000	232.036	80.011	19.992	103.903	19.504	31.224	0.484
283.500	232.282	80.010	19.993	103.903	19.502	31.376	0.499
284.000	232.509	80.009	19.993	103.903	19.499	31.568	0.493
284.500	232.746	80.011	19.993	103.904	19.496	31.765	0.469
285.000	233.031	80.011	19.992	103.904	19.491	32.118	0.493
285.500	233.273	80.011	19.993	103.904	19.488	32.321	0.525
286.000	233.491	80.010	19.993	103.905	19.486	32.449	0.493
286.500	233.782	80.010	19.995	103.905	19.487	32.430	0.484
287.000	233.993	80.009	19.994	103.904	19.481	32.794	0.505
287.500	234.234	80.010	19.993	103.904	19.479	32.929	0.477
288.000	234.523	80.010	19.992	103.904	19.479	32.966	0.492
288.500	234.772	80.010	19.993	103.904	19.472	33.391	0.534
289.000	235.003	80.010	19.993	103.904	19.466	33.852	0.509
289.500	235.264	80.010	19.994	103.904	19.464	33.990	0.486
290.000	235.484	80.009	19.995	103.904	19.463	34.010	0.487
290.500	235.725	80.009	19.992	103.904	19.456	34.477	0.471
291.000	235.971	80.010	19.992	103.904	19.455	34.558	0.474
291.500	236.199	80.008	19.993	103.904	19.451	34.835	0.480
292.000	236.463	80.010	19.993	103.904	19.450	34.916	0.483
292.500	236.703	80.009	19.994	103.904	19.444	35.302	0.498
293.000	236.967	80.008	19.993	103.904	19.443	35.401	0.505
293.500	237.219	80.009	19.994	103.904	19.441	35.547	0.510
294.000	237.445	80.009	19.994	103.904	19.443	35.406	0.497
294.500	237.747	80.009	19.994	103.904	19.438	35.739	0.502
295.000	237.975	80.009	19.994	103.905	19.431	36.208	0.529
295.500	238.242	80.008	19.993	103.905	19.428	36.423	0.513
296.000	238.430	80.009	19.995	103.911	19.423	36.765	0.476
296.500	238.735	80.008	19.994	103.912	19.421	36.901	0.474
297.000	238.994	80.007	19.994	103.911	19.422	36.844	0.528
297.501	239.193	80.008	19.993	103.911	19.413	37.454	0.511
298.000	239.428	80.009	19.994	103.910	19.415	37.298	0.447
298.500	239.672	80.008	19.993	103.905	19.410	37.624	0.457
299.001	239.945	80.009	19.994	103.903	19.405	37.984	0.498
299.501	240.188	80.010	19.994	103.906	19.402	38.186	0.516
300.000	240.419	80.010	19.993	103.908	19.396	38.594	0.495
300.500	240.688	80.008	19.993	103.910	19.394	38.696	0.487
301.000	240.899	80.010	19.994	103.915	19.391	38.885	0.490
301.500	241.196	80.010	19.993	103.919	19.386	39.229	0.494
302.000	241.425	80.009	19.993	103.924	19.380	39.634	0.517
302.500	241.701	80.012	19.993	103.929	19.377	39.848	0.516
303.000	241.897	80.010	19.995	103.934	19.375	39.989	0.488
303.500	242.140	80.009	19.994	103.933	19.369	40.391	0.455
304.000	242.394	80.010	19.993	103.936	19.368	40.452	0.468
304.500	242.617	80.011	19.994	103.934	19.361	40.943	0.487
305.000	242.882	80.011	19.992	103.935	19.361	40.961	0.483
305.500	243.161	80.011	19.993	103.932	19.357	41.240	0.516
306.000	243.366	80.010	19.993	103.928	19.351	41.613	0.514
306.500	243.641	80.010	19.993	103.925	19.347	41.882	0.482
307.000	243.912	80.011	19.994	103.927	19.344	42.081	0.513
307.500	244.137	80.010	19.994	103.924	19.339	42.428	0.521
308.000	244.385	80.011	19.993	103.926	19.337	42.533	0.484
308.500	244.650	80.010	19.994	103.931	19.339	42.464	0.493
309.000	244.935	80.009	19.995	103.932	19.335	42.763	0.532
309.500	245.147	80.010	19.995	103.930	19.336	42.699	0.524
310.000	245.389	80.011	19.993	103.927	19.329	43.184	0.475
310.500	245.636	80.010	19.993	103.921	19.327	43.272	0.471
311.000	245.916	80.012	19.992	103.913	19.326	43.318	0.508
311.500	246.164	80.010	19.993	103.913	19.317	43.941	0.527
312.000	246.419	80.011	19.994	103.912	19.315	44.081	0.516
312.500	246.665	80.009	19.994	103.918	19.312	44.244	0.503
313.000	246.904	80.009	19.992	103.926	19.312	44.267	0.494
313.500	247.123	80.008	19.992	103.937	19.308	44.557	0.471
314.000	247.396	80.010	19.993	103.942	19.303	44.860	0.475
314.500	247.670	80.010	19.993	103.956	19.299	45.168	0.519
315.000	247.879	80.009	19.993	103.958	19.295	45.429	0.515
315.500	248.150	80.009	19.993	103.962	19.290	45.800	0.481
316.000	248.354	80.009	19.993	103.953	19.284	46.220	0.478
316.500	248.625	80.010	19.993	103.937	19.282	46.335	0.475
317.000	248.845	80.009	19.993	103.913	19.278	46.604	0.483
317.500	249.119	80.009	19.994	103.903	19.274	46.847	0.493
318.000	249.388	80.009	19.993	103.895	19.268	47.292	0.518
318.500	249.663	80.008	19.993	103.904	19.262	47.688	0.543
319.000	249.922	80.006	19.993	103.922	19.258	47.910	0.539
319.500	250.206	80.009	19.994	103.954	19.253	48.291	0.538
320.000	250.416	80.008	19.993	104.002	19.246	48.722	0.519
320.500	250.667	80.007	19.994	104.024	19.242	49.017	0.478
321.000	250.945	80.008	19.993	104.033	19.237	49.336	0.495
321.500	251.160	80.007	19.992	104.037	19.232	49.706	0.511
322.000	251.423	80.008	19.994	103.995	19.227	50.054	0.486
322.500	251.701	80.007	19.993	103.939	19.225	50.202	0.509
323.000	251.926	80.008	19.993	103.915	19.215	50.821	0.522
323.500	252.168	80.008	19.994	103.906	19.212	51.053	0.485
324.000	252.446	80.007	19.993	103.906	19.208	51.319	0.493
324.500	252.696	80.009	19.993	103.938	19.199	51.941	0.524
325.000	252.951	80.008	19.994	103.976	19.196	52.133	0.516
325.500	253.182	80.008	19.994	104.026	19.191	52.508	0.495
326.000	253.429	80.007	19.994	104.042	19.182	53.072	0.482
326.500	253.697	80.009	19.994	104.045	19.176	53.475	0.497
327.000	253.917	80.008	19.994	104.043	19.174	53.670	0.501
327.500	254.184	80.007	19.993	104.022	19.167	54.135	0.487
328.000	254.444	80.008	19.993	103.985	19.159	54.626	0.507
328.500	254.695	80.007	19.993	103.974	19.156	54.897	0.519
329.000	254.953	80.007	19.993	103.974	19.155	54.951	0.510
329.500	255.188	80.008	19.993	103.975	19.147	55.483	0.501
330.000	255.429	80.008	19.994	103.981	19.144	55.691	0.485
330.500	255.729	80.007	19.994	103.984	19.140	55.928	0.509
331.000	255.979	80.008	19.993	103.986	19.135	56.254	0.546
331.500	256.204	80.008	19.994	103.986	19.131	56.574	0.512
332.000	256.502	80.009	19.994	103.985	19.127	56.847	0.498
332.500	256.722	80.008	19.993	103.986	19.120	57.271	0.521
333.000	256.942	80.006	19.994	103.985	19.115	57.603	0.479
333.500	257.217	80.007	19.993	103.985	19.115	57.627	0.468
334.000	257.447	80.007	19.994	103.987	19.107	58.154	0.500
334.500	257.720	80.007	19.995	103.989	19.104	58.367	0.504
335.000	258.001	80.008	19.994	103.991	19.100	58.659	0.528
335.500	258.227	80.007	19.994	103.991	19.096	58.935	0.531
336.000	258.514	80.006	19.993	103.991	19.091	59.286	0.510
336.500	258.762	80.008	19.995	103.993	19.089	59.384	0.524
337.000	259.019	80.008	19.995	103.994	19.086	59.599	0.520
337.500	259.245	80.007	19.995	104.000	19.078	60.100	0.494
338.000	259.517	80.006	19.994	104.000	19.076	60.300	0.490
338.500	259.785	80.007	19.994	104.004	19.071	60.637	0.519
339.000	260.023	80.008	19.994	104.009	19.065	60.991	0.523
339.500	260.294	80.007	19.995	104.013	19.062	61.217	0.507
340.000	260.486	80.007	19.993	104.009	19.060	61.323	0.486
340.500	260.726	80.007	19.995	104.009	19.052	61.862	0.448
341.000	260.962	80.007	19.994	104.005	19.049	62.074	0.454
341.500	261.251	80.008	19.994	103.998	19.043	62.534	0.500
342.000	261.483	80.007	19.994	103.995	19.040	62.724	0.523
342.501	261.715	80.007	19.994	103.997	19.034	63.082	0.492
343.000	261.998	80.006	19.996	103.997	19.031	63.317	0.489
343.500	262.223	80.007	19.994	103.997	19.026	63.687	0.512
344.000	262.488	80.009	19.993	103.996	19.023	63.857	0.499
344.500	262.747	80.007	19.994	103.991	19.019	64.134	0.507
345.001	263.029	80.007	19.993	103.986	19.016	64.353	0.533
345.500	263.249	80.007	19.993	103.985	19.013	64.518	0.522
346.000	263.512	80.008	19.994	103.986	19.007	64.949	0.492
346.500	263.762	80.008	19.994	103.988	19.003	65.238	0.497
347.000	264.009	80.007	19.994	103.987	18.997	65.662	0.505
347.500	264.274	80.007	19.994	103.988	18.995	65.743	0.505
348.000	264.497	80.007	19.993	103.987	18.990	66.087	0.500
348.500	264.776	80.008	19.994	103.986	18.984	66.523	0.495
349.000	265.030	80.008	19.993	103.984	18.978	66.887	0.518
349.500	265.247	80.007	19.994	103.984	18.974	67.152	0.502
350.001	265.511	80.008	19.993	103.984	18.967	67.597	0.476
350.500	265.793	80.009	19.994	103.984	18.966	67.659	0.513
351.000	266.066	80.007	19.993	103.985	18.959	68.156	0.550
351.500	266.312	80.008	19.993	103.984	18.960	68.128	0.537
352.000	266.522	80.008	19.994	103.984	18.954	68.539	0.488
352.500	266.800	80.008	19.994	103.983	18.949	68.948	0.472
353.000	267.054	80.007	19.994	103.985	18.946	69.152	0.510
353.500	267.339	80.008	19.994	103.986	18.943	69.313	0.536
354.000	267.541	80.007	19.995	103.986	18.938	69.644	0.513
354.500	267.802	80.007	19.995	103.986	18.934	69.898	0.475
355.000	268.037	80.007	19.994	103.987	18.931	70.085	0.480
355.500	268.266	80.008	19.994	103.988	18.925	70.496	0.480
356.000	268.538	80.008	19.994	103.991	18.922	70.704	0.483
356.500	268.778	80.006	19.994	103.994	18.916	71.118	0.506
357.000	269.047	80.006	19.994	104.001	18.913	71.344	0.510
357.500	269.298	80.008	19.994	104.008	18.908	71.662	0.515
358.000	269.539	80.008	19.994	104.011	18.903	72.031	0.506
358.500	269.825	80.008	19.995	104.014	18.900	72.209	0.509
359.000	270.078	80.008	19.995	104.019	18.897	72.408	0.533
359.500	270.314	80.007	19.995	104.001	18.888	73.018	0.514
360.000	270.600	80.007	19.995	103.975	18.887	73.090	0.505
360.500	270.846	80.008	19.995	103.958	18.886	73.156	0.527
361.000	271.086	80.008	19.994	103.948	18.882	73.430	0.509
361.500	271.356	80.007	19.995	103.942	18.879	73.633	0.498
362.000	271.625	80.008	19.995	103.961	18.877	73.801	0.524
362.500	271.909	80.008	19.995	103.993	18.873	74.057	0.546
363.000	272.136	80.008	19.995	104.047	18.865	74.550	0.533
363.500	272.356	80.009	19.995	104.074	18.865	74.598	0.479
364.000	272.615	80.008	19.994	104.081	18.860	74.877	0.463
364.500	272.901	80.008	19.995	104.080	18.853	75.343	0.512
365.000	273.118	80.008	19.994	104.074	18.853	75.353	0.524
365.500	273.370	80.009	19.994	104.038	18.847	75.806	0.486
366.000	273.629	80.009	19.995	104.020	18.843	76.041	0.490
366.500	273.866	80.009	19.994	104.015	18.838	76.411	0.503
367.000	274.131	80.008	19.995	104.013	18.835	76.623	0.499
367.500	274.371	80.009	19.995	104.014	18.828	77.099	0.504
368.000	274.643	80.009	19.994	104.014	18.823	77.406	0.509
368.500	274.896	80.009	19.994	104.015	18.819	77.709	0.519
369.000	275.141	80.008	19.996	104.018	18.815	77.978	0.511
369.500	275.408	80.010	19.994	104.020	18.812	78.163	0.505
370.000	275.594	80.010	19.994	104.020	18.803	78.745	0.483
370.500	275.888	80.009	19.994	104.020	18.799	79.080	0.467
371.000	276.155	80.011	19.993	104.020	18.795	79.324	0.521
371.500	276.396	80.009	19.993	104.020	18.790	79.634	0.534
372.000	276.662	80.009	19.994	104.020	18.788	79.787	0.507
372.500	276.873	80.010	19.994	104.019	18.783	80.167	0.492
373.000	277.138	80.009	19.993	104.018	18.778	80.470	0.477
373.500	277.371	80.009	19.994	104.017	18.775	80.666	0.487
374.000	277.636	80.011	19.994	104.009	18.771	80.938	0.498
374.500	277.855	80.009	19.994	104.002	18.768	81.184	0.492
375.000	278.155	80.009	19.993	103.996	18.762	81.555	0.501
375.500	278.391	80.009	19.993	103.990	18.761	81.596	0.527
376.000	278.615	80.010	19.994	103.984	18.756	81.996	0.498
376.500	278.859	80.010	19.994	103.987	18.754	82.119	0.464
377.000	279.115	80.008	19.994	103.987	18.751	82.276	0.484
377.500	279.347	80.009	19.993	103.986	18.748	82.491	0.494
378.000	279.614	80.009	19.994	103.986	18.744	82.764	0.494
378.500	279.872	80.008	19.994	103.987	18.745	82.676	0.512
379.000	280.113	80.008	19.994	103.986	18.739	83.069	0.512
379.501	280.363	80.009	19.994	103.987	18.734	83.439	0.495
380.000	280.604	80.009	19.994	103.992	18.730	83.720	0.491
380.500	280.854	80.007	19.993	103.998	18.731	83.608	0.491
381.000	281.119	80.009	19.993	104.002	18.727	83.895	0.503
381.500	281.353	80.009	19.994	104.008	18.727	83.920	0.507
382.000	281.573	80.008	19.993	104.012	18.723	84.155	0.476
382.500	281.834	80.008	19.994	104.015	18.718	84.493	0.467
383.000	282.076	80.008	19.993	104.014	18.714	84.778	0.492
383.500	282.382	80.009	19.994	104.016	18.715	84.738	0.526
384.000	282.627	80.008	19.994	104.016	18.708	85.186	0.550
384.500	282.837	80.007	19.994	104.019	18.710	85.051	0.503
385.000	283.082	80.009	19.994	104.019	18.706	85.341	0.455
385.500	283.372	80.011	19.992	104.021	18.707	85.256	0.495
386.000	283.638	80.009	19.993	104.020	18.705	85.378	0.545
386.500	283.869	80.009	19.993	104.018	18.703	85.531	0.527
387.000	284.152	80.009	19.993	104.012	18.703	85.563	0.506
387.500	284.354	80.010	19.993	104.008	18.701	85.667	0.500
388.000	284.618	80.009	19.993	104.001	18.700	85.727	0.476
388.500	284.854	80.009	19.993	103.994	18.700	85.716	0.483
389.000	285.108	80.009	19.994	103.990	18.699	85.755	0.495
389.500	285.344	80.009	19.994	103.988	18.704	85.456	0.490
390.000	285.593	80.011	19.993	103.986	18.698	85.862	0.488
390.500	285.864	80.010	19.993	103.986	18.697	85.908	0.502
391.000	286.103	80.011	19.994	103.987	18.697	85.903	0.515
391.500	286.340	80.008	19.994	103.988	18.698	85.844	0.493
392.000	286.589	80.010	19.994	103.992	18.698	85.880	0.481
392.500	286.852	80.010	19.993	103.993	18.698	85.883	0.499
393.000	287.127	80.010	19.993	103.993	18.696	86.039	0.525
393.500	287.356	80.011	19.994	103.992	18.696	86.027	0.521
394.001	287.603	80.010	19.993	103.994	18.697	86.022	0.490
394.501	287.861	80.013	19.993	103.996	18.697	86.032	0.491
395.001	288.120	80.010	19.993	104.002	18.697	86.013	0.511
395.500	288.376	80.010	19.992	104.006	18.700	85.785	0.516
396.000	288.612	80.009	19.993	104.009	18.705	85.466	0.504
396.500	288.822	80.010	19.995	104.007	18.703	85.556	0.470
397.000	289.111	80.009	19.996	104.001	18.706	85.336	0.473
397.500	289.320	80.010	19.996	103.994	18.713	84.893	0.498
398.000	289.571	80.008	19.994	103.987	18.705	85.374	0.479
398.500	289.873	80.010	19.994	103.977	18.715	84.711	0.506
399.000	290.052	80.009	19.994	103.969	18.714	84.729	0.516
399.500	290.367	80.008	19.995	103.961	18.722	84.168	0.487
400.000	290.568	80.009	19.994	103.953	18.712	84.848	0.505
400.501	290.859	80.009	19.994	103.950	18.721	84.248	0.504
401.001	291.072	80.008	19.993	103.954	18.713	84.743	0.498
401.500	291.313	80.009	19.993	103.961	18.711	84.880	0.479
402.000	291.598	80.008	19.991	103.973	18.706	85.192	0.490
402.500	291.829	80.007	19.993	103.989	18.706	85.219	0.521
403.000	292.079	80.009	19.995	104.003	18.703	85.404	0.498
403.500	292.318	80.008	19.993	104.020	18.704	85.340	0.485
404.000	292.623	80.007	19.993	104.036	18.702	85.481	0.517
404.500	292.854	80.007	19.993	104.048	18.703	85.449	0.540
405.000	293.055	80.006	19.993	104.058	18.695	85.978	0.484
405.500	293.331	80.006	19.992	104.065	18.698	85.803	0.454
406.000	293.567	80.007	19.993	104.061	18.693	86.155	0.495
406.500	293.861	80.007	19.992	104.053	18.695	86.014	0.521
407.000	294.103	80.007	19.993	104.045	18.700	85.635	0.533
407.500	294.280	80.007	19.994	104.031	18.702	85.512	0.477
408.000	294.576	80.007	19.994	104.015	18.710	84.975	0.446
408.500	294.881	80.007	19.993	103.997	18.715	84.638	0.536
409.000	295.069	80.008	19.993	103.977	18.723	84.131	0.547
409.500	295.443	80.008	19.994	103.954	18.728	83.750	0.528
410.000	295.680	80.007	19.994	103.929	18.741	82.876	0.587
410.500	295.870	80.008	19.993	103.907	18.753	82.098	0.519
411.000	295.961	80.008	19.993	103.890	18.765	81.276	0.354
411.500	296.483	80.009	19.993	103.874	18.781	80.200	0.447
412.000	296.479	80.008	19.994	103.859	18.796	79.220	0.565
412.500	296.824	80.008	19.994	103.851	18.814	77.992	0.430
413.000	297.161	80.009	19.993	103.844	18.829	76.940	0.511
413.500	297.357	80.009	19.994	103.838	18.847	75.704	0.607
414.000	297.521	80.007	19.993	103.841	18.863	74.651	0.446
414.500	298.093	80.009	19.994	103.848	18.886	73.064	0.548
415.000	297.848	80.007	19.993	103.853	18.902	72.016	0.532
415.500	298.120	80.008	19.992	103.859	18.922	70.652	0.177
416.000	298.371	80.009	19.993	103.868	18.940	69.420	0.275
416.500	298.658	80.009	19.993	103.877	18.960	68.099	0.530
417.000	299.047	80.009	19.994	103.886	18.977	66.953	0.607
417.500	299.506	80.009	19.993	103.894	19.000	65.401	0.762
418.000	299.839	80.008	19.992	103.901	19.019	64.087	0.820
418.500	300.037	80.008	19.993	103.906	19.029	63.381	0.662
419.000	300.004	80.008	19.993	103.906	19.051	61.925	0.348
419.500	300.333	80.009	19.995	103.907	19.068	60.780	0.230
420.000	300.427	80.009	19.997	103.907	19.087	59.474	0.359
420.500	300.836	80.008	19.995	103.910	19.104	58.323	0.463
421.000	301.050	80.010	19.993	103.916	19.122	57.141	0.563
421.500	301.403	80.008	19.995	103.922	19.137	56.088	0.595
422.000	301.502	80.007	19.994	103.928	19.148	55.375	0.509
422.500	301.773	80.008	19.993	103.932	19.166	54.153	0.411
423.000	302.032	80.009	19.992	103.935	19.183	52.986	0.450
423.500	302.288	80.008	19.994	103.937	19.200	51.805	0.522
424.000	302.541	80.009	19.994	103.933	19.217	50.646	0.512
424.500	302.770	80.008	19.992	103.926	19.228	49.899	0.496
425.000	303.081	80.010	19.994	103.923	19.245	48.769	0.511
425.500	303.244	80.007	19.993	103.916	19.256	48.007	0.507
426.000	303.567	80.009	19.994	103.913	19.271	47.040	0.480
426.500	303.828	80.007	19.992	103.912	19.281	46.320	0.535
427.000	304.082	80.008	19.994	103.911	19.294	45.463	0.549
427.500	304.314	80.009	19.994	103.912	19.308	44.550	0.500
428.000	304.499	80.008	19.995	103.912	19.321	43.649	0.452
428.500	304.836	80.008	19.992	103.910	19.336	42.643	0.470
429.000	305.050	80.009	19.994	103.910	19.345	42.037	0.537
429.500	305.331	80.009	19.993	103.910	19.356	41.247	0.523
430.000	305.546	80.008	19.994	103.909	19.373	40.128	0.495
430.500	305.848	80.008	19.994	103.908	19.381	39.602	0.506
431.000	306.125	80.008	19.994	103.906	19.391	38.885	0.547
431.500	306.339	80.008	19.995	103.905	19.401	38.196	0.535
432.000	306.561	80.008	19.993	103.905	19.413	37.415	0.464
432.500	306.847	80.008	19.994	103.904	19.422	36.764	0.472
433.000	307.057	80.008	19.994	103.905	19.432	36.078	0.502
433.500	307.336	80.008	19.993	103.905	19.443	35.358	0.493
434.000	307.590	80.008	19.995	103.903	19.453	34.735	0.511
434.500	307.860	80.008	19.993	103.902	19.464	33.995	0.528
435.000	308.136	80.008	19.994	103.902	19.478	33.010	0.534
435.500	308.365	80.007	19.995	103.901	19.486	32.499	0.525
436.000	308.576	80.008	19.994	103.902	19.493	31.984	0.473
436.500	308.854	80.009	19.994	103.903	19.503	31.351	0.465
437.001	309.067	80.008	19.996	103.903	19.515	30.484	0.490
437.500	309.356	80.007	19.994	103.903	19.522	30.053	0.497
438.000	309.617	80.007	19.995	103.902	19.530	29.518	0.526
438.500	309.857	80.008	19.994	103.901	19.539	28.893	0.525
439.000	310.090	80.007	19.995	103.900	19.546	28.428	0.487
439.500	310.363	80.007	19.994	103.901	19.556	27.743	0.489
440.000	310.624	80.007	19.994	103.902	19.562	27.311	0.520
440.500	310.856	80.008	19.995	103.903	19.570	26.780	0.514
441.000	311.072	80.007	19.994	103.902	19.582	25.999	0.470
441.500	311.325	80.008	19.994	103.883	19.588	25.543	0.458
442.000	311.585	80.009	19.994	103.862	19.596	25.043	0.491
442.500	311.819	80.008	19.993	103.846	19.604	24.465	0.504
443.000	312.101	80.008	19.993	103.835	19.612	23.933	0.505
443.501	312.354	80.007	19.993	103.830	19.618	23.515	0.526
444.000	312.666	80.008	19.994	103.842	19.630	22.740	0.550
444.500	312.876	80.008	19.994	103.860	19.638	22.171	0.543
445.000	313.117	80.007	19.994	103.904	19.643	21.823	0.486
445.500	313.347	80.008	19.995	103.934	19.648	21.499	0.461
446.000	313.585	80.008	19.993	103.947	19.653	21.132	0.469
446.500	313.818	80.009	19.992	103.953	19.660	20.706	0.469
447.000	314.123	80.009	19.994	103.951	19.664	20.396	0.505
447.500	314.315	80.009	19.993	103.919	19.672	19.899	0.518
448.000	314.561	80.008	19.994	103.895	19.677	19.565	0.468
448.500	314.890	80.009	19.993	103.885	19.681	19.256	0.506
449.000	315.109	80.008	19.994	103.887	19.686	18.908	0.561
449.500	315.336	80.008	19.994	103.892	19.696	18.233	0.497
450.000	315.620	80.009	19.994	103.894	19.698	18.113	0.479
450.500	315.856	80.009	19.993	103.894	19.702	17.869	0.516
451.000	316.097	80.009	19.994	103.892	19.708	17.454	0.498
451.500	316.308	80.009	19.994	103.887	19.710	17.311	0.464
452.000	316.576	80.011	19.994	103.881	19.713	17.123	0.466
452.500	316.830	80.009	19.994	103.881	19.717	16.844	0.501
453.000	317.070	80.011	19.993	103.885	19.719	16.670	0.508
453.500	317.311	80.009	19.994	103.885	19.727	16.178	0.487
454.000	317.595	80.008	19.993	103.883	19.732	15.786	0.503
454.500	317.836	80.010	19.993	103.883	19.731	15.868	0.525
455.000	318.111	80.009	19.993	103.879	19.739	15.348	0.520
455.500	318.357	80.008	19.994	103.873	19.743	15.106	0.519
456.000	318.560	80.009	19.993	103.873	19.745	14.942	0.485
456.500	318.854	80.010	19.995	103.875	19.750	14.627	0.473
457.000	319.087	80.009	19.994	103.880	19.751	14.554	0.512
457.500	319.362	80.009	19.994	103.880	19.755	14.288	0.517
458.000	319.589	80.008	19.993	103.880	19.756	14.188	0.505
458.500	319.881	80.009	19.995	103.878	19.763	13.755	0.510
459.000	320.076	80.008	19.994	103.879	19.761	13.828	0.503
459.500	320.324	80.009	19.995	103.873	19.762	13.756	0.466
460.000	320.589	80.007	19.993	103.872	19.765	13.569	0.478
460.500	320.847	80.008	19.994	103.873	19.768	13.376	0.518
461.000	321.093	80.008	19.994	103.873	19.775	12.910	0.514
461.500	321.353	80.009	19.995	103.870	19.771	13.152	0.505
462.000	321.598	80.009	19.994	103.871	19.777	12.745	0.505
462.500	321.857	80.009	19.994	103.871	19.778	12.702	0.504
463.000	322.099	80.008	19.994	103.869	19.777	12.783	0.503
463.500	322.347	80.009	19.994	103.872	19.779	12.625	0.495
464.000	322.618	80.008	19.995	103.874	19.783	12.381	0.504
464.500	322.840	80.008	19.994	103.874	19.786	12.147	0.506
465.000	323.076	80.007	19.995	103.873	19.785	12.223	0.476
465.500	323.317	80.007	19.994	103.874	19.788	12.017	0.467
466.000	323.561	80.009	19.994	103.870	19.792	11.752	0.481
466.500	323.818	80.007	19.993	103.868	19.794	11.623	0.493
467.000	324.038	80.007	19.994	103.868	19.792	11.769	0.489
467.500	324.315	80.007	19.994	103.869	19.797	11.407	0.487
468.000	324.590	80.008	19.994	103.871	19.796	11.495	0.524
468.500	324.797	80.008	19.995	103.872	19.797	11.388	0.517
469.000	325.068	80.007	19.994	103.872	19.802	11.112	0.480
469.500	325.311	80.009	19.993	103.872	19.801	11.140	0.496
470.000	325.568	80.009	19.993	103.872	19.801	11.180	0.507
470.500	325.823	80.009	19.993	103.870	19.805	10.907	0.506
471.000	326.057	80.009	19.993	103.869	19.805	10.900	0.501
471.500	326.342	80.008	19.993	103.870	19.810	10.564	0.504
472.000	326.579	80.009	19.993	103.870	19.806	10.834	0.521
472.500	326.814	80.009	19.993	103.871	19.812	10.436	0.497
473.000	327.012	80.009	19.993	103.871	19.812	10.374	0.452
473.500	327.311	80.009	19.993	103.872	19.815	10.196	0.465
474.000	327.535	80.010	19.994	103.873	19.815	10.181	0.510
474.500	327.828	80.010	19.994	103.873	19.817	10.080	0.520
475.000	328.034	80.010	19.993	103.873	19.817	10.061	0.508
475.500	328.294	80.011	19.994	103.873	19.816	10.145	0.482
476.000	328.525	80.010	19.992	103.871	19.819	9.900	0.478
476.500	328.756	80.011	19.994	103.870	19.820	9.866	0.476
477.000	329.012	80.011	19.993	103.870	19.823	9.674	0.474
477.500	329.268	80.011	19.993	103.870	19.824	9.575	0.500
478.000	329.510	80.010	19.994	103.870	19.825	9.519	0.505
478.501	329.753	80.011	19.992	103.870	19.821	9.785	0.491
479.000	330.045	80.010	19.993	103.869	19.826	9.473	0.510
479.500	330.291	80.011	19.993	103.869	19.826	9.430	0.537
480.000	330.541	80.010	19.993	103.868	19.826	9.432	0.517
480.500	330.763	80.011	19.993	103.869	19.828	9.305	0.484
481.000	330.988	80.011	19.993	103.869	19.830	9.207	0.459
481.500	331.261	80.011	19.993	103.868	19.825	9.520	0.472
482.000	331.513	80.011	19.993	103.868	19.829	9.263	0.512
482.500	331.753	80.011	19.993	103.867	19.828	9.293	0.509
483.000	332.011	80.011	19.994	103.865	19.828	9.312	0.495
483.500	332.265	80.011	19.992	103.865	19.831	9.126	0.505
484.000	332.531	80.012	19.992	103.865	19.830	9.209	0.516
484.500	332.746	80.012	19.992	103.865	19.828	9.346	0.501
485.000	333.012	80.011	19.993	103.866	19.832	9.031	0.481
485.500	333.300	80.010	19.992	103.866	19.833	8.954	0.517
486.000	333.570	80.010	19.993	103.866	19.835	8.877	0.556
486.500	333.801	80.010	19.992	103.867	19.834	8.927	0.530
487.000	334.057	80.009	19.993	103.868	19.834	8.946	0.494
487.500	334.323	80.009	19.993	103.869	19.836	8.790	0.505
488.000	334.614	80.008	19.993	103.869	19.835	8.832	0.539
488.500	334.865	80.010	19.994	103.868	19.838	8.642	0.549
489.000	335.077	80.009	19.993	103.868	19.836	8.789	0.502
489.500	335.344	80.010	19.994	103.867	19.837	8.695	0.471
490.000	335.606	80.009	19.993	103.866	19.839	8.591	0.504
490.500	335.833	80.008	19.994	103.866	19.836	8.775	0.510
491.000	336.132	80.010	19.993	103.867	19.836	8.759	0.508
491.500	336.348	80.008	19.994	103.867	19.837	8.689	0.520
492.000	336.641	80.009	19.992	103.867	19.839	8.591	0.512
492.500	336.882	80.009	19.994	103.867	19.837	8.687	0.522
493.000	337.086	80.010	19.993	103.868	19.836	8.781	0.489
493.500	337.367	80.008	19.993	103.868	19.836	8.815	0.465
494.000	337.626	80.009	19.994	103.868	19.838	8.614	0.513
494.500	337.873	80.008	19.992	103.868	19.839	8.578	0.523
495.000	338.110	80.009	19.993	103.868	19.837	8.730	0.495
495.500	338.354	80.009	19.994	103.868	19.837	8.710	0.482
496.000	338.636	80.010	19.993	103.868	19.838	8.659	0.503
496.500	338.875	80.009	19.993	103.867	19.839	8.588	0.524
497.000	339.107	80.009	19.993	103.867	19.840	8.504	0.496
497.500	339.369	80.009	19.993	103.867	19.840	8.500	0.483
498.000	339.607	80.009	19.993	103.867	19.839	8.569	0.497
498.500	339.889	80.009	19.994	103.867	19.842	8.376	0.510
499.000	340.127	80.009	19.992	103.867	19.842	8.370	0.520
499.500	340.405	80.008	19.994	103.867	19.843	8.331	0.518
500.000	340.639	80.008	19.993	103.867	19.844	8.267	0.514
500.500	340.871	80.010	19.994	103.867	19.840	8.513	0.489
501.000	341.160	80.009	19.993	103.867	19.843	8.299	0.494
501.500	341.429	80.007	19.992	103.867	19.845	8.156	0.540
502.000	341.667	80.009	19.992	103.867	19.841	8.442	0.532
502.500	341.931	80.009	19.993	103.867	19.841	8.412	0.504
503.000	342.148	80.009	19.993	103.867	19.841	8.417	0.492
503.500	342.396	80.009	19.994	103.866	19.843	8.286	0.473
504.000	342.653	80.008	19.993	103.866	19.843	8.340	0.485
504.500	342.893	80.008	19.993	103.866	19.841	8.445	0.501
505.000	343.138	80.008	19.994	103.865	19.844	8.252	0.491
505.500	343.422	80.008	19.993	103.866	19.842	8.363	0.507
506.000	343.667	80.010	19.995	103.867	19.841	8.442	0.529
506.500	343.897	80.009	19.993	103.867	19.844	8.250	0.502
507.000	344.110	80.009	19.992	103.870	19.844	8.273	0.459
507.500	344.366	80.009	19.993	103.871	19.844	8.275	0.456
508.000	344.656	80.008	19.992	103.870	19.843	8.307	0.508
508.500	344.915	80.009	19.991	103.869	19.841	8.422	0.548
509.000	345.151	80.009	19.993	103.868	19.843	8.311	0.522
509.500	345.409	80.009	19.993	103.866	19.845	8.163	0.494
510.000	345.667	80.008	19.992	103.866	19.842	8.386	0.505
510.500	345.923	80.009	19.993	103.866	19.844	8.214	0.515
511.000	346.213	80.009	19.993	103.867	19.844	8.256	0.530
511.500	346.445	80.009	19.993	103.868	19.841	8.468	0.534
512.000	346.656	80.009	19.993	103.868	19.844	8.216	0.482
512.500	346.958	80.010	19.992	103.869	19.843	8.325	0.478
513.000	347.207	80.009	19.992	103.871	19.842	8.351	0.532
513.500	347.447	80.011	19.993	103.871	19.846	8.137	0.520
514.000	347.712	80.010	19.994	103.871	19.843	8.305	0.497
514.500	347.975	80.010	19.993	103.869	19.840	8.522	0.516
515.001	348.239	80.010	19.993	103.868	19.843	8.316	0.527
515.500	348.471	80.009	19.992	103.867	19.844	8.230	0.511
516.000	348.722	80.009	19.992	103.868	19.843	8.305	0.489
516.500	348.998	80.010	19.993	103.868	19.842	8.355	0.505
517.000	349.264	80.010	19.994	103.870	19.842	8.409	0.535
517.500	349.552	80.008	19.995	103.871	19.840	8.481	0.548
518.000	349.765	80.008	19.996	103.871	19.843	8.340	0.528
518.500	350.038	80.009	19.996	103.872	19.844	8.263	0.493
519.000	350.296	80.008	19.993	103.875	19.842	8.404	0.508
519.500	350.561	80.009	19.994	103.881	19.845	8.168	0.527
520.000	350.817	80.008	19.994	103.884	19.844	8.252	0.522
520.500	351.047	80.008	19.995	103.885	19.843	8.295	0.503
521.000	351.293	80.009	19.993	103.885	19.841	8.438	0.481
521.501	351.565	80.009	19.993	103.881	19.840	8.507	0.497
522.000	351.769	80.008	19.993	103.874	19.845	8.185	0.497
522.500	352.060	80.009	19.992	103.871	19.842	8.378	0.485
523.000	352.317	80.007	19.993	103.868	19.841	8.415	0.522
523.500	352.585	80.009	19.993	103.868	19.839	8.588	0.537
524.000	352.846	80.007	19.994	103.869	19.841	8.453	0.527
524.500	353.155	80.009	19.992	103.869	19.837	8.682	0.549
525.000	353.370	80.009	19.993	103.871	19.837	8.697	0.547
525.500	353.633	80.008	19.995	103.872	19.840	8.488	0.501
526.000	353.882	80.008	19.994	103.872	19.839	8.573	0.495
526.500	354.106	80.008	19.994	103.871	19.837	8.738	0.492
527.000	354.335	80.009	19.994	103.871	19.844	8.254	0.463
527.500	354.668	80.008	19.993	103.869	19.839	8.596	0.508
528.000	354.896	80.008	19.994	103.867	19.840	8.545	0.562
528.500	355.133	80.007	19.995	103.868	19.844	8.218	0.513
529.000	355.428	80.008	19.994	103.868	19.840	8.505	0.499
529.500	355.627	80.009	19.994	103.869	19.839	8.588	0.513
530.000	355.879	80.007	19.994	103.869	19.842	8.361	0.472
530.500	356.166	80.007	19.994	103.870	19.841	8.432	0.495
531.000	356.386	80.007	19.993	103.870	19.840	8.502	0.523
531.500	356.668	80.009	19.994	103.872	19.841	8.427	0.504
532.000	356.918	80.007	19.995	103.872	19.839	8.577	0.517
532.500	357.191	80.008	19.993	103.872	19.840	8.543	0.528
533.000	357.449	80.008	19.994	103.872	19.841	8.415	0.527
533.500	357.693	80.007	19.994	103.871	19.839	8.597	0.517
534.000	357.972	80.009	19.994	103.869	19.838	8.631	0.513
534.500	358.221	80.008	19.996	103.869	19.838	8.651	0.525
535.000	358.485	80.008	19.996	103.869	19.838	8.651	0.520
535.500	358.776	80.008	19.995	103.869	19.840	8.533	0.534
536.000	358.979	80.008	19.994	103.870	19.838	8.670	0.525
536.500	359.196	80.009	19.993	103.870	19.838	8.646	0.457
537.000	359.488	80.009	19.995	103.870	19.840	8.539	0.464
537.500	359.707	80.008	19.994	103.872	19.837	8.683	0.510
538.000	359.972	80.009	19.994	103.873	19.837	8.687	0.498
538.500	360.197	80.010	19.993	103.873	19.837	8.700	0.487
539.000	360.483	80.009	19.994	103.872	19.835	8.865	0.501
539.500	360.748	80.010	19.993	103.872	19.836	8.813	0.531
540.000	361.001	80.009	19.993	103.869	19.832	9.027	0.534
540.500	361.245	80.009	19.995	103.868	19.833	8.985	0.507
541.000	361.513	80.010	19.993	103.868	19.834	8.888	0.504
541.500	361.782	80.010	19.994	103.869	19.836	8.777	0.524
542.000	362.055	80.011	19.993	103.870	19.832	9.070	0.540
542.500	362.312	80.010	19.992	103.870	19.833	8.987	0.536
543.000	362.559	80.011	19.992	103.869	19.831	9.092	0.517
543.500	362.817	80.010	19.993	103.869	19.831	9.113	0.504
544.000	363.044	80.009	19.992	103.868	19.833	8.989	0.495
544.500	363.301	80.010	19.994	103.867	19.829	9.240	0.484
545.000	363.583	80.010	19.993	103.866	19.830	9.199	0.512
545.500	363.797	80.009	19.993	103.866	19.830	9.179	0.518
546.001	364.047	80.010	19.993	103.866	19.828	9.353	0.480
546.500	364.328	80.011	19.993	103.866	19.827	9.419	0.497
547.000	364.613	80.010	19.993	103.865	19.824	9.605	0.548
547.500	364.838	80.010	19.993	103.866	19.824	9.597	0.538
548.000	365.108	80.008	19.994	103.866	19.828	9.347	0.503
548.500	365.351	80.009	19.994	103.866	19.824	9.605	0.504
549.000	365.612	80.008	19.993	103.866	19.827	9.364	0.509
549.500	365.862	80.008	19.994	103.866	19.823	9.644	0.507
550.000	366.136	80.009	19.994	103.866	19.825	9.535	0.518
550.500	366.404	80.009	19.994	103.866	19.824	9.590	0.533
551.000	366.629	80.009	19.993	103.866	19.825	9.554	0.517
551.500	366.864	80.009	19.994	103.866	19.826	9.490	0.476
552.000	367.124	80.009	19.994	103.866	19.825	9.511	0.478
552.500	367.390	80.009	19.993	103.865	19.824	9.621	0.511
553.000	367.628	80.010	19.993	103.865	19.826	9.473	0.515
553.500	367.892	80.009	19.993	103.864	19.824	9.571	0.504
554.000	368.128	80.009	19.994	103.863	19.827	9.409	0.501
554.500	368.359	80.009	19.995	103.861	19.825	9.548	0.483
555.000	368.648	80.009	19.994	103.862	19.827	9.387	0.493
555.500	368.899	80.009	19.994	103.862	19.825	9.533	0.530
556.000	369.130	80.008	19.994	103.863	19.822	9.723	0.511
556.500	369.413	80.010	19.995	103.864	19.823	9.666	0.498
557.000	369.641	80.010	19.994	103.865	19.821	9.807	0.512
557.501	369.885	80.008	19.996	103.864	19.823	9.651	0.491
558.000	370.154	80.010	19.993	103.864	19.820	9.848	0.493
558.500	370.398	80.009	19.995	103.864	19.817	10.055	0.513
559.000	370.649	80.008	19.993	103.864	19.821	9.822	0.504
559.500	370.865	80.008	19.994	103.864	19.818	9.976	0.481
560.000	371.137	80.010	19.994	103.864	19.817	10.047	0.478
560.500	371.378	80.009	19.994	103.865	19.817	10.074	0.500
561.000	371.658	80.009	19.994	103.865	19.818	10.008	0.517
561.500	371.888	80.010	19.994	103.865	19.816	10.130	0.516
562.000	372.127	80.009	19.994	103.865	19.818	10.023	0.489
562.500	372.416	80.011	19.993	103.865	19.818	10.023	0.498
563.000	372.678	80.010	19.994	103.864	19.816	10.168	0.539
563.500	372.923	80.010	19.994	103.864	19.814	10.284	0.529
564.000	373.225	80.010	19.994	103.864	19.817	10.055	0.527
564.500	373.447	80.010	19.995	103.863	19.815	10.190	0.536
565.000	373.765	80.010	19.995	103.863	19.815	10.220	0.532
565.500	374.005	80.011	19.994	103.863	19.818	10.023	0.549
566.000	374.273	80.012	19.994	103.863	19.816	10.168	0.533
566.500	374.508	80.010	19.993	103.862	19.815	10.211	0.506
567.001	374.729	80.010	19.993	103.862	19.810	10.523	0.480
567.500	375.047	80.010	19.993	103.861	19.810	10.533	0.497
568.000	375.266	80.011	19.993	103.861	19.809	10.589	0.538
568.500	375.495	80.010	19.994	103.861	19.807	10.743	0.492
569.000	375.777	80.011	19.993	103.862	19.808	10.681	0.480
569.500	376.044	80.010	19.994	103.863	19.808	10.709	0.530
570.000	376.304	80.012	19.995	103.863	19.807	10.729	0.538
570.500	376.525	80.011	19.994	103.863	19.809	10.600	0.504
571.000	376.800	80.011	19.994	103.863	19.803	11.003	0.489
571.500	377.068	80.007	19.994	103.862	19.807	10.778	0.519
572.000	377.316	80.010	19.993	103.862	19.805	10.902	0.530
572.500	377.550	80.009	19.993	103.863	19.802	11.071	0.499
573.000	377.832	80.010	19.993	103.862	19.800	11.204	0.499
573.500	378.055	80.010	19.992	103.863	19.800	11.191	0.510
574.000	378.339	80.008	19.993	103.863	19.799	11.313	0.506
574.500	378.542	80.009	19.993	103.864	19.798	11.372	0.497
575.000	378.822	80.009	19.993	103.864	19.798	11.328	0.485
575.500	379.101	80.009	19.993	103.864	19.798	11.338	0.521
576.000	379.328	80.008	19.992	103.864	19.796	11.475	0.532
576.500	379.604	80.008	19.994	103.864	19.799	11.289	0.504
577.000	379.875	80.009	19.994	103.865	19.797	11.454	0.525
577.500	380.138	80.009	19.995	103.865	19.797	11.434	0.541
578.000	380.372	80.009	19.995	103.868	19.797	11.439	0.515
578.500	380.607	80.007	19.995	103.872	19.796	11.516	0.483
579.000	380.884	80.009	19.993	103.873	19.794	11.634	0.490
579.500	381.157	80.007	19.993	103.872	19.796	11.517	0.531
580.000	381.380	80.007	19.995	103.874	19.793	11.679	0.523
580.500	381.661	80.008	19.993	103.873	19.793	11.717	0.499
581.000	381.921	80.009	19.993	103.869	19.794	11.619	0.522
581.500	382.145	80.008	19.994	103.869	19.790	11.918	0.513
582.000	382.405	80.008	19.993	103.870	19.791	11.856	0.484
582.500	382.652	80.008	19.993	103.871	19.789	11.997	0.495
583.000	382.919	80.008	19.993	103.870	19.788	12.000	0.510
583.500	383.153	80.008	19.993	103.870	19.785	12.220	0.508
584.000	383.441	80.008	19.994	103.871	19.783	12.345	0.512
584.500	383.658	80.008	19.993	103.872	19.783	12.371	0.513
585.000	383.906	80.008	19.993	103.873	19.780	12.566	0.485
585.500	384.177	80.007	19.993	103.873	19.782	12.452	0.493
586.000	384.451	80.008	19.993	103.874	19.781	12.482	0.532
586.500	384.703	80.008	19.993	103.874	19.782	12.434	0.535
587.000	384.923	80.008	19.993	103.874	19.776	12.841	0.499
587.500	385.171	80.008	19.993	103.874	19.777	12.783	0.470
588.000	385.422	80.008	19.992	103.876	19.775	12.918	0.483
588.500	385.674	80.010	19.992	103.875	19.773	13.052	0.501
589.000	385.924	80.008	19.993	103.875	19.773	13.045	0.502
589.500	386.186	80.009	19.993	103.873	19.772	13.090	0.507
590.000	386.466	80.008	19.994	103.870	19.773	13.063	0.527
590.500	386.730	80.009	19.993	103.869	19.772	13.089	0.543
591.000	386.953	80.008	19.994	103.869	19.770	13.258	0.516
591.500	387.253	80.010	19.993	103.873	19.769	13.284	0.505
592.000	387.500	80.009	19.993	103.873	19.768	13.376	0.535
592.500	387.769	80.011	19.994	103.873	19.770	13.269	0.531
593.000	388.035	80.009	19.993	103.875	19.769	13.336	0.526
593.500	388.271	80.008	19.993	103.875	19.762	13.792	0.519
594.000	388.506	80.009	19.993	103.871	19.766	13.513	0.487
594.500	388.766	80.009	19.993	103.871	19.764	13.627	0.483
595.000	389.062	80.010	19.992	103.870	19.766	13.518	0.525
595.500	389.289	80.008	19.992	103.868	19.766	13.550	0.539
596.000	389.541	80.008	19.993	103.868	19.765	13.589	0.500
596.500	389.802	80.009	19.993	103.869	19.761	13.828	0.496
597.000	390.072	80.009	19.993	103.871	19.759	14.006	0.523
597.500	390.268	80.009	19.994	103.873	19.758	14.047	0.499
598.000	390.557	80.010	19.994	103.875	19.760	13.955	0.475
598.500	390.784	80.009	19.993	103.876	19.757	14.107	0.500
599.000	391.073	80.009	19.993	103.876	19.757	14.110	0.516
599.500	391.324	80.008	19.992	103.877	19.757	14.125	0.528
600.000	391.585	80.009	19.993	103.880	19.757	14.144	0.526
600.500	391.828	80.008	19.993	103.879	19.756	14.176	0.508
601.000	392.111	80.007	19.993	103.878	19.758	14.064	0.515
601.500	392.360	80.008	19.993	103.878	19.755	14.250	0.529
602.000	392.598	80.008	19.993	103.875	19.751	14.559	0.510
602.500	392.863	80.008	19.993	103.870	19.754	14.302	0.495
603.000	393.091	80.008	19.993	103.871	19.751	14.540	0.498
603.500	393.375	80.009	19.993	103.871	19.751	14.515	0.502
604.000	393.638	80.010	19.992	103.871	19.751	14.536	0.529
604.500	393.911	80.009	19.993	103.871	19.751	14.551	0.542
605.000	394.151	80.009	19.993	103.872	19.750	14.600	0.525
605.500	394.442	80.010	19.992	103.871	19.749	14.642	0.522
606.000	394.720	80.008	19.994	103.872	19.748	14.759	0.549
606.500	394.998	80.008	19.994	103.873	19.748	14.770	0.563
607.000	395.257	80.008	19.993	103.878	19.745	14.939	0.547
607.500	395.488	80.008	19.993	103.883	19.741	15.211	0.513
608.000	395.748	80.011	19.993	103.884	19.746	14.900	0.491
608.500	396.001	80.009	19.993	103.884	19.740	15.286	0.502
609.000	396.280	80.008	19.994	103.883	19.739	15.325	0.522
609.500	396.547	80.009	19.993	103.878	19.738	15.410	0.539
610.000	396.776	80.008	19.993	103.874	19.736	15.576	0.521
610.500	397.051	80.008	19.993	103.877	19.738	15.437	0.501
611.000	397.306	80.008	19.993	103.878	19.738	15.436	0.517
611.500	397.584	80.009	19.993	103.880	19.734	15.682	0.531
612.000	397.839	80.010	19.993	103.883	19.734	15.681	0.533
612.500	398.071	80.008	19.993	103.882	19.734	15.709	0.510
613.000	398.329	80.008	19.994	103.878	19.731	15.887	0.488
613.500	398.627	80.008	19.993	103.876	19.731	15.872	0.523
614.000	398.852	80.008	19.994	103.877	19.732	15.787	0.540
614.500	399.133	80.008	19.993	103.875	19.730	15.921	0.515
615.000	399.371	80.007	19.993	103.874	19.729	16.029	0.512
615.500	399.675	80.009	19.993	103.874	19.728	16.067	0.531
616.000	399.894	80.009	19.992	103.873	19.727	16.183	0.533
616.500	400.185	80.010	19.994	103.869	19.725	16.282	0.516
617.000	400.442	80.009	19.993	103.869	19.726	16.243	0.529
617.500	400.693	80.009	19.994	103.871	19.723	16.451	0.528
618.000	400.958	80.010	19.993	103.871	19.725	16.276	0.512
618.500	401.221	80.009	19.992	103.870	19.723	16.434	0.522
619.000	401.483	80.009	19.993	103.871	19.722	16.492	0.526
619.500	401.746	80.009	19.992	103.870	19.721	16.573	0.525
620.000	402.005	80.010	19.993	103.870	19.720	16.603	0.524
620.500	402.238	80.010	19.994	103.874	19.720	16.627	0.507
621.000	402.487	80.009	19.992	103.877	19.719	16.687	0.487
621.500	402.727	80.009	19.993	103.879	19.717	16.836	0.486
622.000	402.991	80.011	19.993	103.880	19.716	16.872	0.497
622.500	403.277	80.010	19.992	103.879	19.719	16.705	0.527
623.000	403.523	80.010	19.993	103.875	19.712	17.198	0.541
623.500	403.782	80.009	19.993	103.873	19.714	17.028	0.518
624.000	404.050	80.010	19.992	103.871	19.708	17.418	0.516
624.500	404.311	80.009	19.993	103.871	19.712	17.187	0.528
625.000	404.565	80.011	19.993	103.871	19.711	17.221	0.522
625.500	404.813	80.010	19.993	103.872	19.708	17.452	0.508
626.000	405.073	80.010	19.993	103.871	19.710	17.314	0.505
626.500	405.343	80.010	19.994	103.872	19.705	17.673	0.520
627.000	405.608	80.011	19.993	103.869	19.705	17.672	0.533
627.500	405.857	80.010	19.994	103.868	19.707	17.533	0.524
628.000	406.143	80.010	19.993	103.867	19.705	17.644	0.524
628.500	406.382	80.010	19.994	103.866	19.701	17.893	0.529
629.000	406.632	80.011	19.993	103.865	19.700	17.965	0.507
629.500	406.882	80.009	19.993	103.868	19.700	17.972	0.495
630.000	407.113	80.010	19.993	103.874	19.698	18.146	0.490
630.500	407.451	80.009	19.993	103.876	19.695	18.318	0.525
631.000	407.680	80.010	19.993	103.878	19.698	18.145	0.568
631.500	407.926	80.009	19.993	103.877	19.697	18.202	0.521
632.000	408.175	80.009	19.994	103.874	19.695	18.315	0.485
632.500	408.449	80.009	19.995	103.870	19.695	18.314	0.509
633.000	408.690	80.009	19.993	103.871	19.693	18.467	0.519
633.500	408.951	80.009	19.994	103.870	19.693	18.428	0.509
634.000	409.213	80.009	19.994	103.870	19.689	18.738	0.513
634.500	409.488	80.008	19.994	103.871	19.688	18.812	0.530
635.000	409.723	80.011	19.995	103.871	19.689	18.763	0.523
635.501	409.976	80.010	19.994	103.869	19.690	18.653	0.499
636.000	410.199	80.008	19.992	103.868	19.688	18.813	0.482
636.500	410.511	80.010	19.995	103.868	19.686	18.919	0.506
637.000	410.723	80.009	19.996	103.874	19.684	19.038	0.530
637.500	411.012	80.008	19.996	103.881	19.688	18.828	0.513
638.000	411.238	80.009	19.995	103.885	19.681	19.264	0.508
638.500	411.507	80.009	19.994	103.886	19.680	19.318	0.505
639.000	411.779	80.007	19.994	103.886	19.682	19.219	0.518
639.500	412.013	80.010	19.994	103.879	19.679	19.386	0.524
640.000	412.253	80.008	19.995	103.872	19.678	19.455	0.490
640.500	412.506	80.010	19.995	103.872	19.679	19.385	0.484
641.000	412.786	80.008	19.994	103.879	19.678	19.439	0.513
641.500	413.048	80.010	19.995	103.885	19.680	19.353	0.537
642.000	413.315	80.008	19.994	103.885	19.679	19.394	0.536
642.500	413.503	80.008	19.995	103.886	19.678	19.441	0.492
643.000	413.733	80.010	19.994	103.881	19.680	19.306	0.437
643.500	414.014	80.010	19.994	103.874	19.678	19.503	0.464
644.000	414.268	80.010	19.994	103.872	19.678	19.498	0.523
644.500	414.508	80.011	19.994	103.873	19.676	19.615	0.515
645.001	414.758	80.010	19.994	103.874	19.673	19.844	0.492
645.500	415.012	80.010	19.993	103.876	19.672	19.894	0.497
646.000	415.247	80.010	19.993	103.874	19.670	20.021	0.496
646.500	415.529	80.011	19.994	103.872	19.665	20.359	0.503
647.000	415.809	80.011	19.994	103.872	19.664	20.396	0.540
647.500	416.005	80.009	19.993	103.870	19.667	20.208	0.519
648.000	416.277	80.010	19.993	103.869	19.665	20.357	0.472
648.500	416.527	80.011	19.993	103.872	19.665	20.334	0.495
649.000	416.760	80.011	19.993	103.874	19.663	20.518	0.503
649.500	417.036	80.010	19.993	103.873	19.662	20.570	0.496
650.000	417.261	80.012	19.993	103.874	19.660	20.668	0.505
650.500	417.517	80.011	19.993	103.874	19.662	20.565	0.490
651.000	417.786	80.011	19.993	103.872	19.660	20.668	0.503
651.500	418.056	80.011	19.994	103.871	19.661	20.618	0.533
652.000	418.315	80.011	19.993	103.871	19.664	20.403	0.534
652.500	418.577	80.012	19.993	103.870	19.664	20.428	0.524
653.000	418.802	80.009	19.992	103.870	19.660	20.697	0.504
653.500	419.081	80.012	19.993	103.870	19.659	20.785	0.496
654.000	419.346	80.010	19.993	103.869	19.659	20.761	0.524
654.500	419.548	80.010	19.994	103.872	19.657	20.875	0.506
655.000	419.849	80.010	19.994	103.874	19.658	20.833	0.485
655.500	420.094	80.011	19.994	103.874	19.655	20.995	0.524
656.000	420.348	80.008	19.993	103.875	19.657	20.894	0.522
656.500	420.604	80.010	19.993	103.874	19.655	21.023	0.504
657.000	420.860	80.010	19.993	103.871	19.656	20.959	0.511
657.500	421.113	80.010	19.993	103.869	19.653	21.181	0.511
658.000	421.391	80.009	19.994	103.868	19.654	21.120	0.520
658.500	421.660	80.007	19.994	103.868	19.648	21.492	0.539
659.000	421.889	80.010	19.995	103.868	19.650	21.384	0.522
659.500	422.147	80.007	19.994	103.867	19.650	21.393	0.492
660.000	422.358	80.008	19.995	103.868	19.647	21.563	0.478
660.500	422.619	80.009	19.994	103.867	19.645	21.679	0.471
661.000	422.852	80.007	19.994	103.867	19.646	21.663	0.483
661.500	423.157	80.006	19.995	103.867	19.645	21.736	0.516
662.000	423.353	80.008	19.993	103.867	19.642	21.918	0.520
662.500	423.603	80.007	19.995	103.869	19.641	22.003	0.474
663.000	423.850	80.008	19.994	103.872	19.639	22.101	0.472
663.500	424.137	80.009	19.994	103.875	19.638	22.174	0.516
664.000	424.374	80.009	19.995	103.881	19.636	22.283	0.528
664.500	424.665	80.008	19.995	103.882	19.637	22.252	0.525
665.000	424.903	80.008	19.993	103.880	19.638	22.188	0.529
665.500	425.171	80.008	19.994	103.877	19.633	22.515	0.518
666.000	425.465	80.008	19.995	103.875	19.632	22.590	0.534
666.500	425.698	80.008	19.995	103.870	19.635	22.420	0.545
667.000	425.945	80.007	19.994	103.869	19.630	22.746	0.503
667.500	426.217	80.009	19.994	103.868	19.630	22.734	0.499
668.000	426.467	80.008	19.995	103.870	19.630	22.760	0.521
668.501	426.716	80.008	19.994	103.873	19.629	22.784	0.510
669.000	426.976	80.008	19.994	103.875	19.628	22.876	0.504
669.500	427.243	80.007	19.993	103.879	19.626	22.999	0.518
670.000	427.470	80.007	19.993	103.879	19.624	23.130	0.511
670.500	427.726	80.009	19.995	103.878	19.619	23.447	0.488
671.000	428.018	80.007	19.994	103.876	19.621	23.357	0.515
671.500	428.224	80.006	19.994	103.874	19.618	23.505	0.523
672.000	428.486	80.009	19.993	103.870	19.616	23.646	0.483
672.500	428.739	80.009	19.993	103.869	19.615	23.755	0.492
673.000	428.990	80.008	19.995	103.869	19.613	23.837	0.509
673.500	429.234	80.007	19.994	103.869	19.610	24.063	0.499
674.000	429.493	80.008	19.995	103.864	19.612	23.911	0.499
674.500	429.721	80.006	19.995	103.836	19.610	24.054	0.495
675.000	430.006	80.009	19.993	103.819	19.612	23.932	0.500
675.500	430.236	80.009	19.994	103.813	19.609	24.157	0.514
676.000	430.447	80.009	19.994	103.812	19.608	24.219	0.478
676.500	430.725	80.009	19.993	103.817	19.606	24.355	0.466
677.000	430.954	80.008	19.994	103.852	19.609	24.117	0.498
677.500	431.237	80.009	19.994	103.905	19.609	24.110	0.509
678.000	431.471	80.008	19.993	103.922	19.605	24.380	0.514
678.500	431.725	80.010	19.994	103.924	19.606	24.363	0.502
679.000	432.007	80.008	19.994	103.924	19.605	24.402	0.512
679.500	432.239	80.007	19.993	103.916	19.605	24.442	0.525
680.000	432.519	80.007	19.993	103.880	19.604	24.479	0.513
680.500	432.769	80.010	19.993	103.870	19.600	24.768	0.521
681.000	433.021	80.008	19.993	103.868	19.601	24.706	0.516
681.500	433.257	80.007	19.993	103.867	19.598	24.879	0.495
682.000	433.514	80.008	19.994	103.867	19.596	25.040	0.490
682.500	433.797	80.008	19.993	103.867	19.596	24.988	0.517
683.000	434.021	80.009	19.993	103.867	19.595	25.089	0.524
683.500	434.274	80.008	19.994	103.866	19.597	24.958	0.492
684.000	434.523	80.007	19.995	103.866	19.595	25.113	0.489
684.500	434.759	80.009	19.994	103.868	19.591	25.386	0.494
685.000	434.998	80.008	19.994	103.869	19.592	25.284	0.480
685.500	435.254	80.008	19.994	103.869	19.593	25.201	0.485
686.000	435.500	80.009	19.994	103.869	19.592	25.321	0.499
686.500	435.758	80.009	19.992	103.869	19.590	25.423	0.503
687.000	436.035	80.010	19.993	103.867	19.591	25.355	0.519
687.500	436.294	80.008	19.995	103.866	19.588	25.578	0.535
688.000	436.534	80.009	19.993	103.865	19.587	25.627	0.518
688.500	436.779	80.011	19.994	103.866	19.584	25.811	0.493
689.000	437.027	80.009	19.993	103.865	19.584	25.860	0.489
689.500	437.287	80.008	19.993	103.866	19.581	26.066	0.500
690.000	437.524	80.008	19.992	103.866	19.581	26.003	0.503
690.500	437.776	80.008	19.993	103.866	19.583	25.915	0.493
691.000	438.055	80.008	19.993	103.865	19.581	26.066	0.510
691.500	438.279	80.007	19.994	103.865	19.580	26.132	0.517
692.000	438.548	80.007	19.993	103.864	19.579	26.181	0.498
692.500	438.849	80.009	19.993	103.864	19.579	26.185	0.531
693.000	439.060	80.009	19.992	103.865	19.575	26.444	0.541
693.500	439.307	80.009	19.994	103.865	19.577	26.319	0.485
694.000	439.542	80.008	19.994	103.865	19.575	26.438	0.470
694.500	439.806	80.008	19.993	103.865	19.574	26.507	0.491
695.000	440.051	80.009	19.993	103.865	19.571	26.694	0.504
695.500	440.295	80.009	19.994	103.866	19.570	26.748	0.499
696.000	440.534	80.006	19.992	103.866	19.568	26.915	0.486
696.501	440.801	80.009	19.995	103.865	19.570	26.742	0.494
697.000	441.045	80.008	19.994	103.864	19.569	26.857	0.509
697.500	441.305	80.008	19.995	103.863	19.569	26.846	0.507
698.000	441.526	80.009	19.994	103.863	19.568	26.890	0.493
698.500	441.770	80.010	19.993	103.862	19.568	26.922	0.473
699.000	442.058	80.009	19.993	103.862	19.566	27.025	0.498
699.500	442.293	80.007	19.993	103.862	19.566	27.026	0.527
700.000	442.568	80.009	19.994	103.863	19.564	27.149	0.517
700.500	442.836	80.009	19.994	103.864	19.565	27.096	0.527
701.000	443.073	80.009	19.994	103.864	19.563	27.222	0.524
701.500	443.287	80.008	19.994	103.864	19.559	27.506	0.478
702.000	443.545	80.009	19.994	103.860	19.561	27.411	0.462
702.500	443.781	80.008	19.994	103.857	19.561	27.360	0.483
703.000	444.063	80.008	19.994	103.856	19.560	27.443	0.506
703.500	444.290	80.009	19.994	103.856	19.562	27.301	0.514
704.000	444.568	80.011	19.994	103.857	19.559	27.536	0.507
704.500	444.773	80.009	19.994	103.861	19.560	27.470	0.494
705.000	445.022	80.010	19.994	103.857	19.559	27.549	0.468
705.500	445.280	80.010	19.993	103.854	19.557	27.624	0.480
706.000	445.544	80.009	19.993	103.852	19.561	27.395	0.515
706.500	445.780	80.012	19.993	103.852	19.557	27.649	0.511
707.000	446.004	80.010	19.993	103.852	19.555	27.816	0.480
707.500	446.275	80.010	19.992	103.857	19.557	27.631	0.477
708.000	446.545	80.011	19.992	103.859	19.555	27.764	0.518
708.500	446.779	80.008	19.992	103.859	19.558	27.557	0.523
709.000	447.011	80.010	19.992	103.858	19.561	27.413	0.485
709.500	447.253	80.010	19.992	103.856	19.557	27.671	0.470
710.000	447.525	80.011	19.993	103.853	19.558	27.577	0.493
710.500	447.799	80.011	19.992	103.852	19.558	27.597	0.530
711.000	448.027	80.009	19.993	103.854	19.558	27.601	0.524
711.500	448.297	80.011	19.992	103.854	19.558	27.554	0.500
712.000	448.540	80.009	19.994	103.854	19.559	27.525	0.506
712.500	448.739	80.010	19.993	103.858	19.560	27.446	0.478
713.000	449.038	80.011	19.993	103.861	19.562	27.322	0.470
713.500	449.258	80.012	19.992	103.858	19.562	27.336	0.508
714.000	449.525	80.011	19.993	103.855	19.562	27.328	0.503
714.500	449.771	80.009	19.994	103.856	19.558	27.596	0.500
715.000	449.999	80.009	19.993	103.856	19.561	27.396	0.494
715.500	450.266	80.012	19.993	103.855	19.559	27.482	0.485
716.000	450.482	80.008	19.993	103.858	19.556	27.685	0.489
716.501	450.774	80.009	19.993	103.863	19.557	27.656	0.495
717.000	451.020	80.009	19.992	103.864	19.558	27.582	0.523
717.501	451.285	80.009	19.993	103.858	19.555	27.762	0.524
718.001	451.526	80.008	19.992	103.853	19.555	27.747	0.509
718.500	451.788	80.010	19.992	103.847	19.557	27.674	0.505
719.000	452.033	80.009	19.993	103.845	19.558	27.603	0.505
719.500	452.263	80.011	19.993	103.847	19.557	27.641	0.491
720.000	452.528	80.008	19.992	103.852	19.561	27.406	0.485
720.500	452.760	80.008	19.993	103.857	19.559	27.532	0.496
721.000	453.010	80.010	19.992	103.863	19.561	27.408	0.490
721.500	453.278	80.009	19.993	103.861	19.559	27.547	0.500
722.000	453.541	80.008	19.992	103.856	19.563	27.251	0.525
722.500	453.795	80.011	19.992	103.856	19.563	27.215	0.525
723.000	454.072	80.009	19.993	103.853	19.560	27.454	0.524
723.500	454.329	80.010	19.993	103.851	19.561	27.394	0.532
724.000	454.556	80.009	19.993	103.849	19.559	27.497	0.509
724.500	454.805	80.009	19.994	103.846	19.561	27.384	0.479
725.000	455.074	80.009	19.994	103.843	19.560	27.467	0.497
725.500	455.348	80.010	19.993	103.843	19.562	27.289	0.531
726.000	455.595	80.007	19.993	103.839	19.562	27.341	0.532
726.500	455.860	80.009	19.993	103.816	19.562	27.299	0.517
727.000	456.102	80.009	19.994	103.798	19.563	27.270	0.510
727.500	456.382	80.011	19.993	103.787	19.562	27.307	0.515
728.000	456.611	80.008	19.993	103.783	19.567	26.958	0.515
728.500	456.873	80.009	19.994	103.784	19.562	27.334	0.500
729.000	457.118	80.010	19.993	103.811	19.564	27.152	0.499
729.500	457.392	80.009	19.993	103.841	19.564	27.183	0.514
730.000	457.624	80.009	19.993	103.890	19.567	26.986	0.513
730.500	457.846	80.010	19.994	103.906	19.568	26.911	0.480
731.000	458.135	80.010	19.993	103.912	19.565	27.125	0.482
731.500	458.395	80.011	19.993	103.914	19.568	26.908	0.530
732.000	458.623	80.009	19.994	103.907	19.566	27.011	0.519
732.500	458.867	80.010	19.993	103.871	19.565	27.092	0.480
733.000	459.172	80.011	19.993	103.858	19.566	27.049	0.511
733.500	459.432	80.010	19.993	103.851	19.568	26.886	0.557
734.000	459.662	80.009	19.994	103.844	19.567	27.006	0.527
734.500	459.933	80.009	19.993	103.838	19.571	26.698	0.495
735.000	460.196	80.009	19.993	103.832	19.572	26.644	0.517
735.500	460.512	80.009	19.994	103.830	19.571	26.706	0.557
736.000	460.746	80.010	19.993	103.830	19.575	26.455	0.564
736.500	460.980	80.010	19.994	103.831	19.576	26.333	0.509
737.000	461.237	80.010	19.993	103.831	19.577	26.296	0.480
737.500	461.492	80.010	19.993	103.833	19.576	26.393	0.502
738.000	461.743	80.010	19.993	103.839	19.575	26.419	0.508
738.501	462.007	80.010	19.993	103.844	19.578	26.241	0.510
739.001	462.262	80.008	19.994	103.845	19.580	26.119	0.518
739.501	462.566	80.010	19.994	103.844	19.576	26.384	0.539
740.001	462.842	80.009	19.993	103.845	19.580	26.111	0.569
740.500	463.070	80.011	19.993	103.840	19.581	26.000	0.542
741.000	463.321	80.009	19.993	103.836	19.583	25.915	0.492
741.500	463.554	80.011	19.994	103.834	19.581	26.024	0.482
742.000	463.835	80.007	19.993	103.834	19.580	26.119	0.499
742.500	464.026	80.008	19.994	103.832	19.585	25.772	0.493
743.000	464.288	80.010	19.993	103.830	19.587	25.629	0.463
743.500	464.558	80.009	19.991	103.830	19.590	25.382	0.492
744.000	464.822	80.008	19.994	103.831	19.593	25.216	0.533
744.500	465.052	80.009	19.993	103.831	19.594	25.116	0.514
745.000	465.366	80.008	19.994	103.831	19.591	25.335	0.519
745.500	465.565	80.009	19.993	103.833	19.596	25.037	0.529
746.000	465.868	80.007	19.994	103.839	19.597	24.951	0.508
746.500	466.101	80.008	19.993	103.842	19.597	24.936	0.519
747.000	466.344	80.008	19.993	103.841	19.600	24.725	0.506
747.500	466.608	80.009	19.993	103.840	19.598	24.852	0.491
748.000	466.866	80.009	19.994	103.838	19.600	24.745	0.515
748.500	467.115	80.008	19.993	103.833	19.601	24.661	0.514
749.000	467.329	80.009	19.993	103.833	19.603	24.524	0.485
749.500	467.617	80.008	19.994	103.834	19.603	24.557	0.483
750.000	467.851	80.009	19.994	103.834	19.603	24.562	0.512
750.501	468.151	80.009	19.994	103.834	19.607	24.244	0.528
751.000	468.399	80.008	19.994	103.833	19.608	24.212	0.541
751.500	468.638	80.008	19.993	103.830	19.610	24.056	0.517
752.001	468.904	80.008	19.994	103.829	19.611	23.964	0.496
752.500	469.147	80.008	19.993	103.828	19.611	24.024	0.507
753.000	469.381	80.010	19.993	103.828	19.613	23.891	0.493
753.500	469.649	80.009	19.994	103.827	19.617	23.559	0.489
754.000	469.874	80.007	19.994	103.827	19.620	23.386	0.498
754.500	470.168	80.008	19.993	103.829	19.620	23.379	0.506
755.000	470.377	80.010	19.994	103.833	19.620	23.356	0.511
755.500	470.672	80.007	19.993	103.836	19.621	23.322	0.504
756.000	470.929	80.007	19.993	103.837	19.624	23.100	0.528
756.500	471.188	80.008	19.995	103.837	19.629	22.761	0.534
757.000	471.436	80.010	19.994	103.836	19.628	22.832	0.511
757.500	471.741	80.008	19.994	103.837	19.636	22.318	0.530
758.000	471.993	80.008	19.994	103.836	19.636	22.284	0.555
758.501	472.248	80.009	19.994	103.840	19.638	22.175	0.532
759.000	472.435	80.008	19.995	103.841	19.642	21.919	0.474
759.500	472.713	80.009	19.995	103.841	19.642	21.883	0.454
760.000	472.974	80.008	19.994	103.839	19.647	21.590	0.502
760.500	473.256	80.009	19.994	103.838	19.645	21.682	0.541
761.000	473.502	80.007	19.994	103.834	19.647	21.529	0.536
761.500	473.767	80.009	19.993	103.833	19.653	21.168	0.520
762.000	474.047	80.008	19.994	103.830	19.652	21.223	0.528
762.500	474.279	80.008	19.995	103.829	19.655	21.013	0.529
763.000	474.502	80.005	19.994	103.828	19.659	20.784	0.483
763.500	474.754	80.011	19.995	103.828	19.660	20.712	0.465
764.000	475.039	80.008	19.994	103.831	19.662	20.539	0.506
764.500	475.274	80.008	19.993	103.831	19.664	20.381	0.528
765.000	475.569	80.009	19.995	103.830	19.664	20.388	0.525
765.500	475.761	80.007	19.995	103.830	19.667	20.193	0.509
766.000	476.024	80.009	19.995	103.830	19.673	19.805	0.471
766.500	476.298	80.008	19.995	103.828	19.673	19.835	0.496
767.000	476.551	80.010	19.995	103.831	19.678	19.490	0.532
767.500	476.800	80.009	19.994	103.834	19.678	19.466	0.514
768.000	477.059	80.010	19.994	103.834	19.677	19.511	0.505
768.501	477.312	80.007	19.994	103.835	19.682	19.208	0.510
769.001	477.591	80.008	19.994	103.834	19.687	18.843	0.522
769.500	477.821	80.009	19.994	103.831	19.685	19.025	0.520
770.000	478.080	80.009	19.995	103.827	19.685	18.968	0.499
770.500	478.360	80.009	19.994	103.826	19.688	18.762	0.514
771.000	478.649	80.009	19.994	103.826	19.691	18.605	0.554
771.500	478.910	80.009	19.995	103.827	19.694	18.408	0.560
772.000	479.136	80.010	19.995	103.828	19.695	18.346	0.519
772.500	479.381	80.009	19.994	103.833	19.693	18.427	0.479
773.000	479.669	80.009	19.993	103.837	19.699	18.016	0.502
773.500	479.912	80.008	19.994	103.838	19.699	18.036	0.532
774.000	480.201	80.010	19.994	103.837	19.704	17.678	0.531
774.500	480.400	80.008	19.995	103.836	19.702	17.826	0.510
775.000	480.698	80.009	19.994	103.832	19.706	17.576	0.493
775.500	480.931	80.009	19.994	103.828	19.708	17.469	0.514
776.000	481.166	80.009	19.992	103.827	19.709	17.376	0.499
776.500	481.470	80.008	19.994	103.828	19.713	17.100	0.504
777.000	481.742	80.009	19.992	103.831	19.711	17.222	0.558
777.500	481.931	80.008	19.994	103.831	19.718	16.776	0.518
778.000	482.222	80.008	19.993	103.831	19.719	16.677	0.470
778.500	482.473	80.008	19.994	103.831	19.719	16.699	0.511
779.000	482.729	80.008	19.993	103.831	19.721	16.526	0.524
779.500	483.003	80.009	19.993	103.828	19.724	16.387	0.519
780.000	483.268	80.008	19.992	103.829	19.726	16.205	0.535
780.500	483.524	80.008	19.994	103.829	19.730	15.935	0.531
781.000	483.743	80.008	19.993	103.829	19.729	16.021	0.498
781.500	483.997	80.007	19.992	103.829	19.732	15.785	0.474
782.000	484.248	80.009	19.993	103.832	19.734	15.665	0.489
782.500	484.519	80.008	19.994	103.832	19.737	15.473	0.513
783.000	484.764	80.007	19.993	103.833	19.734	15.653	0.518
783.500	484.970	80.008	19.993	103.833	19.738	15.404	0.483
784.000	485.230	80.008	19.993	103.834	19.740	15.280	0.459
784.500	485.500	80.008	19.994	103.831	19.741	15.173	0.499
785.000	485.732	80.007	19.993	103.830	19.745	14.933	0.516
785.500	485.994	80.008	19.993	103.830	19.747	14.783	0.498
786.000	486.207	80.008	19.993	103.829	19.747	14.777	0.484
786.500	486.489	80.008	19.993	103.829	19.749	14.672	0.485
787.000	486.757	80.009	19.992	103.829	19.749	14.667	0.523
787.500	486.996	80.009	19.993	103.832	19.754	14.292	0.528
788.001	487.279	80.008	19.994	103.832	19.751	14.541	0.514
788.501	487.501	80.009	19.993	103.834	19.755	14.266	0.513
789.000	487.740	80.010	19.994	103.834	19.757	14.131	0.483
789.500	487.978	80.010	19.993	103.834	19.762	13.765	0.469
790.000	488.249	80.010	19.993	103.832	19.761	13.876	0.493
790.500	488.489	80.009	19.992	103.832	19.762	13.797	0.510
791.000	488.755	80.010	19.994	103.830	19.763	13.708	0.508
791.500	488.971	80.011	19.992	103.830	19.765	13.564	0.494
792.000	489.242	80.010	19.992	103.830	19.766	13.538	0.484
792.500	489.502	80.010	19.993	103.830	19.767	13.453	0.509
793.000	489.736	80.011	19.993	103.830	19.768	13.350	0.512
793.500	490.000	80.009	19.993	103.830	19.771	13.158	0.496
794.000	490.312	80.010	19.994	103.829	19.775	12.937	0.537
794.500	490.549	80.011	19.993	103.828	19.775	12.913	0.563
795.000	490.798	80.010	19.993	103.827	19.774	12.963	0.518
795.500	491.076	80.011	19.994	103.828	19.775	12.900	0.506
796.000	491.298	80.011	19.993	103.828	19.779	12.634	0.513
796.500	491.535	80.009	19.993	103.829	19.781	12.519	0.479
797.000	491.768	80.010	19.993	103.831	19.781	12.499	0.465
797.500	492.043	80.010	19.993	103.831	19.782	12.435	0.489
798.000	492.314	80.009	19.993	103.831	19.784	12.305	0.527
798.500	492.557	80.009	19.994	103.832	19.782	12.406	0.530
799.000	492.801	80.009	19.993	103.831	19.785	12.243	0.501
799.500	493.068	80.009	19.993	103.825	19.784	12.320	0.499
800.000	493.303	80.010	19.993	103.825	19.786	12.164	0.506
800.500	493.560	80.009	19.993	103.824	19.787	12.097	0.497
801.000	493.813	80.009	19.993	103.823	19.792	11.737	0.501
801.500	494.066	80.008	19.993	103.824	19.796	11.493	0.508
802.000	494.326	80.009	19.994	103.831	19.792	11.723	0.510
802.500	494.605	80.010	19.994	103.831	19.794	11.605	0.526
803.000	494.874	80.009	19.993	103.832	19.796	11.466	0.544
803.500	495.115	80.009	19.994	103.832	19.795	11.571	0.529
804.000	495.359	80.009	19.993	103.832	19.798	11.350	0.497
804.500	495.619	80.010	19.993	103.830	19.798	11.348	0.494
805.000	495.851	80.009	19.993	103.831	19.799	11.310	0.498
805.500	496.107	80.009	19.992	103.831	19.803	11.038	0.490
806.000	496.370	80.009	19.994	103.831	19.800	11.239	0.503
806.500	496.632	80.009	19.992	103.832	19.801	11.134	0.522
807.000	496.888	80.010	19.994	103.834	19.801	11.159	0.522
807.500	497.132	80.010	19.992	103.834	19.805	10.887	0.509
808.000	497.408	80.011	19.993	103.835	19.803	11.007	0.510
808.500	497.643	80.010	19.992	103.836	19.803	10.995	0.515
809.000	497.874	80.010	19.993	103.835	19.806	10.832	0.489
809.500	498.171	80.010	19.993	103.832	19.808	10.670	0.497
810.000	498.392	80.010	19.993	103.831	19.808	10.682	0.523
810.500	498.636	80.010	19.993	103.831	19.809	10.637	0.492
811.000	498.940	80.009	19.994	103.830	19.813	10.320	0.507
811.500	499.137	80.010	19.993	103.831	19.815	10.194	0.525
812.000	499.425	80.009	19.993	103.832	19.813	10.303	0.493
812.500	499.663	80.009	19.994	103.833	19.816	10.100	0.505
813.000	499.892	80.010	19.993	103.832	19.818	9.976	0.496
813.500	500.101	80.010	19.993	103.832	19.821	9.783	0.452
814.000	500.404	80.010	19.993	103.830	19.820	9.832	0.475
814.500	500.665	80.012	19.994	103.830	19.820	9.856	0.538
815.000	500.934	80.011	19.994	103.828	19.819	9.922	0.547
815.500	501.189	80.012	19.993	103.827	19.822	9.730	0.528
816.000	501.450	80.010	19.992	103.827	19.825	9.511	0.520
816.500	501.689	80.012	19.994	103.827	19.824	9.590	0.508
817.000	501.901	80.011	19.994	103.828	19.824	9.567	0.475
817.500	502.181	80.011	19.993	103.831	19.825	9.515	0.471
818.000	502.405	80.012	19.993	103.831	19.826	9.487	0.498
818.500	502.703	80.012	19.993	103.831	19.825	9.498	0.513
819.000	502.927	80.012	19.993	103.831	19.829	9.250	0.522
819.500	503.216	80.013	19.994	103.829	19.829	9.280	0.517
820.000	503.437	80.012	19.992	103.826	19.826	9.438	0.511
820.500	503.695	80.013	19.994	103.825	19.826	9.459	0.494
821.000	503.915	80.011	19.993	103.825	19.829	9.252	0.478
821.500	504.163	80.011	19.992	103.826	19.830	9.196	0.473
822.000	504.428	80.012	19.992	103.827	19.827	9.376	0.491
822.500	504.689	80.012	19.993	103.827	19.831	9.110	0.519
823.000	504.971	80.012	19.992	103.828	19.827	9.359	0.534
823.500	505.213	80.012	19.992	103.827	19.830	9.203	0.534
824.000	505.477	80.012	19.992	103.826	19.830	9.190	0.515
824.500	505.749	80.012	19.993	103.825	19.834	8.939	0.521
825.000	505.995	80.011	19.993	103.826	19.832	9.055	0.527
825.500	506.248	80.011	19.993	103.825	19.832	9.053	0.509
826.000	506.507	80.010	19.994	103.825	19.833	8.982	0.506
826.500	506.785	80.012	19.994	103.825	19.835	8.817	0.524
827.000	507.036	80.011	19.993	103.825	19.835	8.868	0.533
827.500	507.300	80.010	19.994	103.824	19.836	8.779	0.522
828.000	507.577	80.010	19.992	103.825	19.834	8.892	0.528
828.500	507.825	80.010	19.994	103.825	19.837	8.697	0.533
829.001	508.062	80.010	19.994	103.825	19.838	8.676	0.505
829.500	508.289	80.008	19.994	103.825	19.840	8.532	0.474
830.000	508.611	80.010	19.995	103.827	19.840	8.504	0.506
830.500	508.803	80.009	19.994	103.827	19.837	8.744	0.531
831.000	509.073	80.010	19.994	103.827	19.839	8.590	0.488
831.500	509.308	80.010	19.993	103.828	19.843	8.301	0.484
832.000	509.573	80.010	19.994	103.828	19.843	8.316	0.502
832.500	509.832	80.009	19.995	103.827	19.843	8.305	0.512
833.000	510.094	80.009	19.995	103.827	19.842	8.354	0.522
833.500	510.334	80.010	19.994	103.827	19.844	8.226	0.512
834.000	510.618	80.010	19.994	103.827	19.847	8.059	0.513
834.500	510.855	80.009	19.994	103.827	19.843	8.288	0.522
835.000	511.110	80.009	19.993	103.827	19.847	8.010	0.506
835.500	511.371	80.010	19.993	103.826	19.844	8.205	0.504
836.000	511.610	80.010	19.994	103.826	19.846	8.076	0.508
836.500	511.886	80.009	19.995	103.826	19.849	7.890	0.507
837.000	512.092	80.010	19.994	103.826	19.850	7.836	0.499
837.500	512.363	80.010	19.993	103.826	19.851	7.783	0.480
838.000	512.615	80.009	19.994	103.827	19.847	8.010	0.500
838.500	512.880	80.009	19.994	103.826	19.850	7.804	0.520
839.000	513.110	80.009	19.994	103.826	19.847	8.063	0.506
839.500	513.407	80.009	19.994	103.826	19.851	7.776	0.511
840.000	513.633	80.008	19.993	103.826	19.851	7.757	0.524
840.500	513.931	80.011	19.993	103.828	19.852	7.716	0.523
841.000	514.196	80.008	19.994	103.832	19.850	7.817	0.544
841.500	514.414	80.009	19.994	103.831	19.853	7.643	0.523
842.000	514.685	80.009	19.994	103.831	19.849	7.883	0.487
842.500	514.956	80.009	19.995	103.831	19.854	7.575	0.515
843.000	515.233	80.008	19.992	103.829	19.853	7.626	0.544
843.500	515.475	80.009	19.994	103.827	19.854	7.568	0.533
844.000	515.795	80.009	19.994	103.828	19.856	7.459	0.541
844.500	515.981	80.009	19.992	103.827	19.853	7.596	0.534
845.000	516.280	80.009	19.993	103.827	19.855	7.506	0.496
845.500	516.528	80.009	19.993	103.827	19.852	7.669	0.516
846.000	516.787	80.008	19.993	103.827	19.858	7.292	0.527
846.500	517.084	80.009	19.995	103.826	19.856	7.393	0.531
847.000	517.315	80.008	19.993	103.827	19.855	7.467	0.541
847.500	517.596	80.009	19.993	103.827	19.858	7.294	0.520
848.000	517.847	80.010	19.993	103.827	19.860	7.144	0.522
848.500	518.094	80.009	19.994	103.827	19.860	7.174	0.515
849.000	518.372	80.008	19.994	103.826	19.862	6.994	0.511
849.500	518.650	80.010	19.993	103.825	19.864	6.894	0.540
850.000	518.854	80.009	19.994	103.825	19.862	6.999	0.519
850.500	519.160	80.009	19.994	103.825	19.866	6.782	0.496
851.000	519.410	80.009	19.993	103.825	19.866	6.725	0.533
851.500	519.647	80.009	19.992	103.827	19.867	6.710	0.521
852.000	519.907	80.010	19.994	103.829	19.865	6.847	0.492
852.500	520.153	80.008	19.993	103.830	19.863	6.969	0.502
853.000	520.410	80.008	19.994	103.830	19.864	6.860	0.504
853.500	520.700	80.008	19.994	103.831	19.861	7.076	0.525
854.001	520.930	80.010	19.993	103.831	19.863	6.953	0.534
854.500	521.202	80.009	19.994	103.830	19.864	6.893	0.511
855.000	521.465	80.010	19.994	103.830	19.862	7.050	0.519
855.500	521.740	80.009	19.994	103.830	19.861	7.107	0.537
856.000	522.006	80.009	19.993	103.831	19.862	7.054	0.539
856.500	522.243	80.008	19.994	103.832	19.864	6.870	0.522
857.000	522.492	80.009	19.995	103.832	19.863	6.941	0.495
857.500	522.736	80.009	19.994	103.831	19.866	6.754	0.489
858.000	523.028	80.009	19.993	103.830	19.864	6.866	0.514
858.500	523.279	80.008	19.994	103.828	19.863	6.943	0.539
859.000	523.549	80.009	19.995	103.827	19.866	6.733	0.532
859.500	523.788	80.008	19.994	103.826	19.864	6.885	0.515
860.000	524.067	80.010	19.995	103.828	19.864	6.859	0.514
860.500	524.345	80.009	19.996	103.829	19.870	6.514	0.538
861.000	524.595	80.008	19.993	103.830	19.865	6.846	0.542
861.500	524.836	80.008	19.995	103.829	19.868	6.637	0.509
862.000	525.119	80.007	19.994	103.828	19.867	6.707	0.508
862.500	525.405	80.008	19.994	103.825	19.866	6.724	0.547
863.000	525.644	80.008	19.995	103.825	19.869	6.529	0.546
863.500	525.904	80.008	19.996	103.825	19.872	6.351	0.512
864.000	526.163	80.008	19.994	103.826	19.872	6.343	0.509
864.500	526.421	80.008	19.995	103.828	19.867	6.660	0.518
865.000	526.689	80.008	19.995	103.830	19.868	6.606	0.521
865.500	526.938	80.008	19.995	103.831	19.872	6.352	0.521
866.000	527.170	80.008	19.994	103.832	19.869	6.579	0.499
866.500	527.397	80.008	19.994	103.832	19.873	6.292	0.470
867.000	527.656	80.008	19.995	103.832	19.872	6.373	0.473
867.500	527.939	80.009	19.994	103.832	19.872	6.313	0.514
868.000	528.219	80.008	19.994	103.832	19.869	6.568	0.553
868.500	528.468	80.009	19.995	103.829	19.872	6.311	0.546
869.000	528.735	80.007	19.995	103.828	19.876	6.099	0.522
869.500	528.943	80.009	19.994	103.827	19.871	6.442	0.495
870.000	529.246	80.009	19.994	103.827	19.873	6.266	0.493
870.500	529.465	80.008	19.994	103.827	19.873	6.303	0.517
871.000	529.734	80.008	19.994	103.829	19.873	6.256	0.505
871.500	529.988	80.009	19.993	103.830	19.873	6.243	0.506
872.000	530.243	80.009	19.993	103.830	19.875	6.159	0.516
872.500	530.512	80.008	19.992	103.830	19.875	6.165	0.516
873.000	530.777	80.011	19.993	103.832	19.872	6.316	0.529
873.501	531.034	80.009	19.993	103.834	19.875	6.164	0.528
874.001	531.318	80.010	19.994	103.835	19.876	6.089	0.532
874.500	531.584	80.009	19.992	103.835	19.875	6.110	0.546
875.001	531.829	80.009	19.994	103.835	19.876	6.078	0.530
875.500	532.090	80.009	19.993	103.833	19.876	6.103	0.508
876.000	532.342	80.008	19.992	103.831	19.876	6.048	0.510
876.500	532.653	80.010	19.994	103.831	19.876	6.080	0.539
877.000	532.888	80.011	19.994	103.832	19.875	6.146	0.555
877.500	533.148	80.012	19.994	103.833	19.873	6.262	0.520
878.000	533.364	80.011	19.993	103.833	19.874	6.198	0.485
878.500	533.585	80.011	19.992	103.833	19.871	6.423	0.456
879.000	533.898	80.011	19.992	103.832	19.872	6.363	0.485
879.500	534.167	80.012	19.993	103.830	19.872	6.356	0.558
880.000	534.443	80.011	19.994	103.829	19.872	6.335	0.564
880.500	534.700	80.012	19.993	103.829	19.875	6.123	0.539
881.000	534.958	80.011	19.993	103.828	19.874	6.209	0.524
881.500	535.210	80.012	19.992	103.829	19.873	6.268	0.512
882.000	535.461	80.011	19.992	103.828	19.874	6.241	0.506
882.500	535.767	80.010	19.993	103.828	19.875	6.134	0.530
883.000	535.997	80.011	19.993	103.828	19.875	6.138	0.547
883.500	536.242	80.011	19.993	103.829	19.877	6.007	0.506
884.001	536.500	80.010	19.992	103.828	19.878	5.915	0.489
884.500	536.766	80.010	19.993	103.828	19.876	6.102	0.514
885.000	537.032	80.009	19.994	103.828	19.879	5.889	0.528
885.500	537.282	80.010	19.993	103.828	19.879	5.842	0.524
886.000	537.534	80.009	19.992	103.828	19.875	6.131	0.509
886.500	537.804	80.010	19.993	103.827	19.875	6.108	0.512
887.000	538.049	80.010	19.993	103.828	19.873	6.247	0.518
887.500	538.299	80.011	19.994	103.828	19.874	6.183	0.505
888.000	538.564	80.010	19.993	103.827	19.873	6.285	0.505
888.500	538.870	80.011	19.993	103.826	19.875	6.172	0.543
889.000	539.120	80.010	19.995	103.827	19.875	6.174	0.564
889.500	539.340	80.010	19.992	103.827	19.873	6.305	0.513
890.000	539.592	80.010	19.993	103.827	19.877	6.033	0.471
890.500	539.883	80.009	19.993	103.827	19.877	5.990	0.508
891.000	540.127	80.010	19.993	103.827	19.878	5.932	0.540
891.500	540.379	80.009	19.993	103.826	19.877	6.033	0.515
892.000	540.607	80.009	19.994	103.827	19.874	6.238	0.488
892.500	540.869	80.010	19.993	103.827	19.877	5.996	0.485
893.000	541.102	80.010	19.993	103.826	19.877	5.975	0.493
893.500	541.384	80.009	19.993	103.827	19.876	6.044	0.505
894.000	541.619	80.009	19.993	103.827	19.878	5.906	0.516
894.500	541.935	80.010	19.994	103.826	19.879	5.866	0.534
895.000	542.156	80.011	19.992	103.826	19.878	5.943	0.544
895.500	542.419	80.011	19.993	103.826	19.881	5.744	0.510
896.000	542.719	80.010	19.993	103.827	19.879	5.898	0.523
896.500	542.937	80.010	19.993	103.828	19.879	5.879	0.541
897.000	543.217	80.011	19.993	103.829	19.879	5.887	0.508
897.500	543.493	80.012	19.994	103.829	19.877	5.977	0.527
898.000	543.734	80.011	19.995	103.828	19.880	5.772	0.537
898.500	544.021	80.012	19.992	103.828	19.879	5.870	0.523
899.000	544.252	80.011	19.994	103.827	19.879	5.881	0.523
899.500	544.493	80.012	19.995	103.827	19.883	5.589	0.495
900.000	544.728	80.010	19.992	103.827	19.880	5.774	0.474
900.500	544.996	80.011	19.991	103.827	19.880	5.791	0.489
901.000	545.215	80.011	19.993	103.826	19.879	5.847	0.495
901.500	545.492	80.013	19.992	103.827	19.881	5.754	0.492
902.000	545.715	80.012	19.992	103.826	19.880	5.836	0.498
902.500	545.993	80.013	19.993	103.827	19.877	5.988	0.500
903.000	546.282	80.011	19.994	103.827	19.879	5.851	0.534
903.500	546.516	80.012	19.995	103.826	19.876	6.063	0.545
904.000	546.779	80.013	19.992	103.826	19.878	5.913	0.510
904.500	547.021	80.012	19.993	103.825	19.880	5.801	0.501
905.000	547.288	80.011	19.994	103.826	19.878	5.971	0.507
905.500	547.560	80.012	19.994	103.827	19.877	6.001	0.524
906.000	547.839	80.013	19.993	103.827	19.878	5.949	0.545
906.500	548.072	80.013	19.994	103.827	19.877	6.005	0.532
907.000	548.342	80.011	19.992	103.827	19.881	5.746	0.507
907.500	548.612	80.013	19.993	103.826	19.879	5.893	0.521
908.000	548.867	80.012	19.994	103.828	19.878	5.921	0.533
908.500	549.133	80.011	19.993	103.827	19.880	5.821	0.523
909.000	549.372	80.012	19.993	103.828	19.880	5.820	0.513
909.500	549.648	80.011	19.993	103.828	19.881	5.709	0.510
910.000	549.925	80.011	19.993	103.829	19.880	5.805	0.534
910.500	550.142	80.010	19.993	103.828	19.879	5.883	0.524
911.000	550.415	80.010	19.995	103.828	19.878	5.939	0.492
911.500	550.720	80.012	19.994	103.827	19.880	5.799	0.534
912.000	550.945	80.010	19.994	103.827	19.880	5.812	0.554
912.500	551.247	80.009	19.993	103.827	19.876	6.073	0.528
913.000	551.487	80.009	19.992	103.827	19.879	5.856	0.535
913.500	551.732	80.009	19.994	103.827	19.879	5.875	0.514
914.001	552.012	80.009	19.992	103.827	19.876	6.065	0.505
914.501	552.251	80.008	19.992	103.827	19.878	5.932	0.522
915.000	552.453	80.010	19.991	103.827	19.879	5.849	0.480
915.500	552.753	80.010	19.993	103.828	19.878	5.956	0.471
916.000	553.026	80.010	19.992	103.828	19.880	5.823	0.537
916.500	553.235	80.010	19.993	103.828	19.877	5.981	0.528
917.000	553.541	80.009	19.992	103.828	19.877	6.003	0.498
917.500	553.773	80.009	19.993	103.829	19.874	6.180	0.527
918.000	554.038	80.009	19.993	103.829	19.875	6.144	0.518
918.500	554.311	80.009	19.993	103.829	19.873	6.266	0.517
919.000	554.539	80.010	19.994	103.830	19.874	6.213	0.520
919.500	554.810	80.009	19.994	103.830	19.874	6.228	0.500
920.000	555.058	80.010	19.993	103.833	19.870	6.489	0.509
920.500	555.310	80.009	19.995	103.833	19.870	6.454	0.509
921.000	555.559	80.010	19.992	103.810	19.873	6.253	0.501
921.500	555.856	80.009	19.992	103.790	19.873	6.294	0.524
922.000	556.078	80.009	19.992	103.781	19.872	6.345	0.533
922.500	556.323	80.009	19.992	103.773	19.871	6.407	0.493
923.000	556.585	80.009	19.992	103.772	19.871	6.383	0.487
923.500	556.895	80.009	19.992	103.797	19.875	6.126	0.539
924.000	557.147	80.010	19.994	103.854	19.875	6.116	0.567
924.500	557.390	80.010	19.993	103.880	19.870	6.508	0.529
925.000	557.589	80.009	19.993	103.889	19.871	6.409	0.468
925.500	557.888	80.010	19.994	103.891	19.872	6.349	0.470
926.000	558.087	80.009	19.993	103.889	19.871	6.418	0.498
926.500	558.381	80.008	19.992	103.852	19.870	6.486	0.495
927.000	558.649	80.008	19.992	103.835	19.870	6.497	0.528
927.500	558.924	80.009	19.994	103.833	19.868	6.632	0.553
928.000	559.136	80.009	19.993	103.833	19.866	6.756	0.515
928.500	559.427	80.009	19.993	103.832	19.866	6.758	0.495
929.000	559.647	80.008	19.994	103.832	19.866	6.747	0.507
929.500	559.937	80.009	19.995	103.832	19.868	6.635	0.511
930.000	560.188	80.010	19.993	103.831	19.867	6.657	0.526
930.500	560.399	80.010	19.994	103.831	19.868	6.635	0.501
931.000	560.652	80.009	19.993	103.832	19.868	6.635	0.462
931.500	560.897	80.009	19.995	103.833	19.867	6.678	0.481
932.000	561.194	80.009	19.993	103.834	19.866	6.768	0.520
932.500	561.432	80.009	19.991	103.836	19.866	6.762	0.539
933.000	561.708	80.009	19.993	103.837	19.864	6.886	0.524
933.500	561.942	80.009	19.993	103.836	19.867	6.681	0.512
934.000	562.196	80.009	19.992	103.836	19.868	6.648	0.500
934.500	562.461	80.010	19.993	103.835	19.868	6.640	0.503
935.000	562.724	80.008	19.995	103.833	19.868	6.645	0.523
935.500	562.997	80.008	19.993	103.832	19.868	6.595	0.532
936.000	563.263	80.009	19.992	103.832	19.864	6.914	0.537
936.500	563.462	80.009	19.996	103.834	19.864	6.914	0.502
937.000	563.692	80.009	19.994	103.836	19.865	6.804	0.447
937.500	563.980	80.008	19.995	103.836	19.866	6.740	0.474
938.000	564.212	80.010	19.995	103.835	19.864	6.879	0.519
938.500	564.479	80.008	19.994	103.835	19.865	6.846	0.510
939.000	564.735	80.008	19.993	103.833	19.863	6.924	0.511
939.500	564.987	80.008	19.993	103.836	19.863	6.973	0.515
940.000	565.158	80.011	19.993	103.842	19.864	6.860	0.465
940.500	565.460	80.008	19.994	103.845	19.864	6.909	0.448
941.000	565.653	80.010	19.994	103.849	19.866	6.779	0.484
941.500	565.958	80.009	19.993	103.849	19.863	6.933	0.496
942.000	566.210	80.009	19.992	103.845	19.862	7.037	0.528
942.500	566.464	80.008	19.994	103.842	19.865	6.828	0.532
943.000	566.704	80.009	19.994	103.845	19.863	6.947	0.500
943.500	566.972	80.008	19.994	103.842	19.864	6.920	0.501
944.000	567.231	80.008	19.993	103.844	19.862	7.027	0.518
944.500	567.478	80.010	19.994	103.845	19.862	6.989	0.516
945.000	567.710	80.009	19.994	103.843	19.863	6.934	0.492
945.500	567.984	80.009	19.994	103.837	19.865	6.844	0.493
946.000	568.243	80.009	19.994	103.837	19.863	6.964	0.520
946.500	568.466	80.009	19.993	103.837	19.864	6.884	0.507
947.000	568.740	80.010	19.995	103.837	19.863	6.984	0.489
947.500	569.024	80.008	19.995	103.841	19.861	7.115	0.527
948.001	569.277	80.009	19.995	103.847	19.861	7.089	0.547
948.501	569.546	80.010	19.996	103.851	19.857	7.331	0.529
949.000	569.789	80.008	19.995	103.857	19.863	6.956	0.517
949.500	570.038	80.009	19.997	103.857	19.861	7.100	0.502
950.000	570.294	80.008	19.995	103.853	19.863	6.931	0.499
950.500	570.523	80.009	19.995	103.851	19.859	7.196	0.495
951.000	570.767	80.010	19.994	103.851	19.860	7.142	0.479
951.500	571.016	80.008	19.996	103.847	19.859	7.221	0.482
952.000	571.270	80.008	19.995	103.848	19.863	6.949	0.498
952.500	571.556	80.010	19.994	103.850	19.861	7.114	0.522
953.000	571.761	80.008	19.994	103.853	19.858	7.307	0.516
953.500	572.053	80.007	19.994	103.853	19.858	7.313	0.494
954.000	572.314	80.010	19.993	103.852	19.859	7.196	0.525
954.500	572.546	80.008	19.993	103.852	19.858	7.284	0.523
955.000	572.805	80.009	19.994	103.848	19.858	7.276	0.492
955.500	573.068	80.009	19.992	103.841	19.858	7.291	0.507
956.000	573.356	80.008	19.992	103.837	19.855	7.473	0.537
956.500	573.582	80.010	19.995	103.838	19.859	7.218	0.532
957.000	573.855	80.009	19.993	103.840	19.857	7.382	0.506
957.500	574.126	80.009	19.995	103.846	19.857	7.337	0.521
958.000	574.377	80.009	19.996	103.847	19.861	7.110	0.533
958.500	574.643	80.009	19.995	103.852	19.856	7.448	0.519
959.000	574.923	80.010	19.994	103.851	19.855	7.495	0.532
959.500	575.202	80.010	19.994	103.850	19.856	7.450	0.553
960.000	575.408	80.011	19.994	103.847	19.853	7.647	0.522
960.500	575.694	80.010	19.995	103.850	19.857	7.375	0.488
961.000	575.943	80.010	19.993	103.851	19.854	7.558	0.513
961.500	576.181	80.009	19.993	103.854	19.854	7.568	0.511
962.000	576.420	80.010	19.993	103.857	19.855	7.486	0.482
962.500	576.660	80.010	19.993	103.862	19.856	7.445	0.478
963.000	576.924	80.010	19.997	103.863	19.855	7.494	0.492
963.500	577.135	80.009	19.994	103.862	19.856	7.453	0.489
964.000	577.441	80.012	19.993	103.861	19.857	7.337	0.496
964.500	577.688	80.010	19.994	103.860	19.856	7.451	0.535
965.000	577.957	80.010	19.994	103.857	19.858	7.283	0.534
965.500	578.225	80.009	19.994	103.851	19.859	7.210	0.526
966.000	578.465	80.011	19.994	103.847	19.855	7.516	0.522
966.500	578.712	80.008	19.993	103.845	19.853	7.600	0.498
967.000	578.979	80.010	19.992	103.841	19.855	7.523	0.500
967.500	579.218	80.010	19.994	103.843	19.854	7.530	0.510
968.000	579.443	80.011	19.994	103.848	19.855	7.520	0.485
968.500	579.733	80.010	19.995	103.852	19.855	7.490	0.490
969.000	579.981	80.011	19.994	103.857	19.857	7.367	0.527
969.500	580.245	80.011	19.993	103.860	19.855	7.493	0.525
970.000	580.540	80.010	19.994	103.862	19.858	7.285	0.535
970.500	580.771	80.010	19.994	103.862	19.860	7.154	0.542
971.000	581.022	80.011	19.995	103.862	19.854	7.538	0.504
971.500	581.303	80.012	19.993	103.859	19.858	7.300	0.507
972.000	581.552	80.011	19.994	103.853	19.855	7.507	0.531
972.500	581.784	80.011	19.994	103.852	19.860	7.149	0.505
973.000	582.062	80.011	19.993	103.845	19.858	7.301	0.495
973.500	582.282	80.010	19.993	103.842	19.860	7.151	0.504
974.000	582.555	80.010	19.994	103.842	19.858	7.322	0.496
974.500	582.799	80.011	19.992	103.846	19.858	7.316	0.505
975.000	583.067	80.011	19.993	103.848	19.856	7.429	0.515
975.500	583.312	80.010	19.994	103.854	19.860	7.150	0.513
976.000	583.576	80.011	19.992	103.856	19.859	7.247	0.511
976.500	583.800	80.009	19.994	103.860	19.861	7.084	0.498
977.000	584.047	80.010	19.993	103.861	19.863	6.979	0.479
977.500	584.319	80.011	19.993	103.860	19.860	7.151	0.495
978.000	584.617	80.011	19.993	103.855	19.864	6.872	0.545
978.500	584.838	80.010	19.995	103.849	19.861	7.080	0.544
979.000	585.094	80.010	19.995	103.843	19.865	6.829	0.498
979.500	585.357	80.011	19.993	103.838	19.865	6.825	0.499
980.000	585.599	80.011	19.993	103.833	19.863	6.943	0.512
980.500	585.852	80.011	19.993	103.834	19.867	6.718	0.500
981.000	586.111	80.011	19.993	103.836	19.864	6.891	0.503
981.500	586.366	80.012	19.994	103.840	19.868	6.641	0.513
982.000	586.615	80.011	19.993	103.838	19.865	6.823	0.509
982.500	586.874	80.011	19.993	103.838	19.867	6.688	0.506
983.000	587.133	80.012	19.993	103.840	19.863	6.958	0.513
983.500	587.412	80.013	19.993	103.844	19.867	6.695	0.528
984.000	587.651	80.011	19.992	103.843	19.865	6.825	0.528
984.500	587.910	80.011	19.993	103.847	19.864	6.888	0.508
985.000	588.192	80.012	19.993	103.853	19.867	6.710	0.520
985.500	588.426	80.013	19.993	103.855	19.869	6.582	0.528
986.000	588.668	80.012	19.992	103.855	19.866	6.723	0.496
986.500	588.967	80.012	19.992	103.858	19.869	6.550	0.509
987.000	589.196	80.012	19.993	103.861	19.867	6.683	0.534
987.500	589.440	80.012	19.994	103.858	19.868	6.595	0.500
988.000	589.689	80.012	19.992	103.858	19.871	6.408	0.483
988.500	589.956	80.013	19.993	103.858	19.872	6.337	0.505
989.000	590.196	80.012	19.993	103.854	19.870	6.507	0.511
989.500	590.471	80.012	19.993	103.854	19.871	6.406	0.511
990.000	590.761	80.011	19.992	103.858	19.873	6.299	0.540
990.500	590.955	80.012	19.993	103.856	19.874	6.179	0.524
991.000	591.286	80.012	19.993	103.858	19.876	6.075	0.504
991.500	591.502	80.012	19.993	103.858	19.876	6.090	0.536
992.001	591.745	80.013	19.993	103.857	19.877	5.994	0.503
992.500	592.009	80.013	19.994	103.855	19.876	6.067	0.483
993.000	592.270	80.012	19.993	103.855	19.876	6.051	0.515
993.500	592.514	80.011	19.993	103.852	19.879	5.869	0.515
994.000	592.769	80.011	19.993	103.855	19.873	6.278	0.503
994.500	593.056	80.011	19.993	103.852	19.878	5.934	0.521
995.000	593.283	80.011	19.993	103.852	19.877	5.974	0.528
995.500	593.550	80.010	19.993	103.850	19.880	5.809	0.504
996.000	593.799	80.010	19.992	103.847	19.885	5.480	0.505
996.500	594.098	80.011	19.994	103.841	19.884	5.544	0.532
997.000	594.294	80.010	19.996	103.842	19.885	5.456	0.521
997.500	594.547	80.010	19.994	103.845	19.884	5.543	0.472
998.000	594.804	80.010	19.994	103.846	19.884	5.526	0.479
998.500	595.094	80.009	19.993	103.847	19.886	5.383	0.528
999.000	595.353	80.010	19.993	103.849	19.885	5.436	0.548
999.500	595.621	80.009	19.994	103.850	19.888	5.291	0.538
1000.000	595.868	80.009	19.993	103.848	19.887	5.300	0.521
1000.500	596.107	80.009	19.994	103.848	19.887	5.323	0.501
1001.000	596.385	80.010	19.993	103.850	19.886	5.414	0.501
1001.500	596.646	80.010	19.993	103.849	19.888	5.274	0.528
1002.000	596.931	80.009	19.993	103.844	19.885	5.440	0.543
1002.500	597.170	80.009	19.995	103.840	19.888	5.251	0.535
1003.000	597.406	80.009	19.993	103.838	19.891	5.048	0.499
1003.500	597.655	80.010	19.993	103.835	19.890	5.105	0.480
1004.000	597.918	80.009	19.993	103.837	19.890	5.105	0.499
1004.500	598.166	80.010	19.994	103.839	19.891	5.076	0.512
1005.000	598.455	80.010	19.993	103.840	19.889	5.193	0.524
1005.500	598.704	80.009	19.993	103.841	19.887	5.298	0.537
1006.000	598.904	80.008	19.994	103.841	19.891	5.060	0.493
1006.500	599.180	80.010	19.993	103.838	19.893	4.942	0.463
1007.000	599.420	80.010	19.992	103.839	19.889	5.202	0.496
1007.500	599.689	80.009	19.992	103.843	19.891	5.077	0.512
1008.000	599.918	80.010	19.992	103.845	19.894	4.855	0.503
1008.500	600.184	80.010	19.994	103.847	19.897	4.683	0.496
1009.000	600.457	80.010	19.993	103.848	19.896	4.707	0.517
1009.500	600.722	80.009	19.992	103.845	19.895	4.782	0.539
1010.000	600.998	80.010	19.993	103.843	19.895	4.822	0.540
1010.500	601.260	80.010	19.993	103.841	19.894	4.863	0.539
1011.000	601.494	80.009	19.994	103.839	19.893	4.944	0.517
1011.500	601.735	80.010	19.993	103.837	19.893	4.936	0.486
1012.000	602.037	80.010	19.993	103.836	19.891	5.035	0.509
1012.500	602.252	80.009	19.991	103.833	19.896	4.752	0.530
1013.000	602.538	80.010	19.992	103.830	19.895	4.782	0.509
1013.500	602.794	80.011	19.993	103.830	19.895	4.782	0.521
1014.000	603.037	80.010	19.993	103.830	19.893	4.939	0.520
1014.501	603.280	80.011	19.993	103.829	19.896	4.697	0.493
1015.000	603.550	80.010	19.994	103.829	19.899	4.495	0.500
1015.500	603.772	80.011	19.992	103.829	19.899	4.549	0.502
1016.000	604.030	80.010	19.993	103.828	19.897	4.656	0.486
1016.500	604.326	80.011	19.994	103.829	19.898	4.557	0.517
1017.000	604.553	80.010	19.994	103.831	19.900	4.474	0.539
1017.500	604.821	80.011	19.994	103.832	19.899	4.510	0.509
1018.000	605.047	80.010	19.992	103.832	19.899	4.544	0.495
1018.500	605.305	80.011	19.993	103.832	19.898	4.559	0.489
1019.000	605.533	80.010	19.994	103.831	19.898	4.559	0.485
1019.500	605.786	80.010	19.994	103.830	19.901	4.413	0.484
1020.000	606.062	80.009	19.993	103.835	19.898	4.553	0.505
1020.500	606.341	80.011	19.993	103.838	19.900	4.448	0.542
1021.000	606.550	80.010	19.994	103.839	19.902	4.302	0.521
1021.500	606.850	80.009	19.994	103.839	19.901	4.377	0.499
1022.000	607.095	80.009	19.993	103.838	19.901	4.407	0.527
1022.500	607.357	80.009	19.993	103.832	19.899	4.491	0.526
1023.000	607.604	80.010	19.994	103.829	19.903	4.257	0.508
1023.500	607.881	80.010	19.993	103.828	19.901	4.358	0.516
1024.000	608.127	80.009	19.994	103.828	19.903	4.281	0.523
1024.500	608.343	80.010	19.993	103.828	19.900	4.437	0.492
1025.000	608.627	80.009	19.993	103.829	19.901	4.379	0.481
1025.500	608.885	80.009	19.993	103.828	19.902	4.306	0.521
1026.000	609.165	80.009	19.993	103.829	19.900	4.427	0.540
1026.500	609.393	80.009	19.994	103.830	19.900	4.482	0.523
1027.001	609.671	80.009	19.994	103.830	19.902	4.307	0.507
1027.501	609.909	80.010	19.993	103.830	19.903	4.259	0.511
1028.000	610.196	80.008	19.994	103.830	19.902	4.341	0.520
1028.501	610.402	80.009	19.994	103.830	19.900	4.448	0.509
1029.001	610.719	80.008	19.994	103.833	19.904	4.165	0.508
1029.501	610.976	80.009	19.993	103.834	19.906	4.050	0.549
1030.001	611.214	80.009	19.994	103.837	19.902	4.306	0.534
1030.501	611.497	80.009	19.994	103.839	19.907	3.964	0.507
1031.001	611.741	80.010	19.994	103.839	19.905	4.085	0.524
1031.501	612.005	80.010	19.994	103.835	19.903	4.238	0.518
1032.001	612.261	80.009	19.994	103.833	19.904	4.210	0.514
1032.500	612.529	80.009	19.994	103.830	19.901	4.379	0.522
1033.000	612.765	80.009	19.993	103.829	19.901	4.365	0.514
1033.500	613.049	80.008	19.995	103.829	19.903	4.272	0.512
1034.000	613.325	80.009	19.995	103.829	19.902	4.332	0.540
1034.500	613.584	80.008	19.994	103.832	19.908	3.940	0.548
1035.000	613.850	80.010	19.994	103.832	19.903	4.215	0.530
1035.501	614.101	80.008	19.994	103.831	19.903	4.257	0.521
1036.001	614.294	80.009	19.994	103.831	19.903	4.240	0.480
1036.500	614.601	80.009	19.994	103.832	19.902	4.285	0.472
1037.000	614.890	80.009	19.994	103.829	19.901	4.362	0.548
1037.500	615.167	80.010	19.994	103.829	19.905	4.137	0.581
1038.000	615.405	80.009	19.993	103.832	19.903	4.218	0.541
1038.501	615.652	80.010	19.994	103.832	19.903	4.251	0.500
1039.001	615.892	80.010	19.995	103.832	19.904	4.148	0.486
1039.500	616.166	80.009	19.993	103.834	19.907	3.961	0.500
1040.000	616.436	80.010	19.994	103.835	19.905	4.129	0.529
1040.500	616.673	80.010	19.994	103.833	19.904	4.157	0.526
1041.001	616.952	80.010	19.994	103.841	19.902	4.322	0.512
1041.501	617.181	80.011	19.994	103.841	19.906	4.078	0.512
1042.000	617.417	80.011	19.993	103.840	19.906	4.018	0.486
1042.500	617.724	80.010	19.994	103.839	19.904	4.182	0.504
1043.000	617.971	80.011	19.993	103.837	19.908	3.900	0.548
1043.501	618.248	80.011	19.994	103.829	19.908	3.902	0.539
1044.001	618.499	80.011	19.993	103.828	19.908	3.881	0.526
1044.500	618.779	80.011	19.994	103.827	19.909	3.840	0.529
1045.000	619.009	80.010	19.993	103.827	19.909	3.863	0.520
1045.500	619.270	80.011	19.993	103.827	19.910	3.769	0.501
1046.001	619.545	80.011	19.994	103.826	19.909	3.827	0.514
1046.501	619.775	80.010	19.993	103.828	19.908	3.897	0.521
1047.000	620.056	80.010	19.993	103.831	19.908	3.942	0.508
1047.500	620.318	80.011	19.994	103.832	19.906	4.047	0.527
1048.000	620.565	80.011	19.994	103.835	19.910	3.805	0.525
1048.500	620.844	80.012	19.995	103.836	19.905	4.080	0.517
1049.000	621.061	80.011	19.994	103.837	19.909	3.829	0.511
1049.500	621.326	80.011	19.995	103.837	19.907	3.966	0.490
1050.000	621.561	80.010	19.994	103.837	19.906	4.062	0.491
1050.500	621.827	80.010	19.993	103.836	19.906	4.019	0.500
1051.000	622.106	80.010	19.993	103.836	19.904	4.184	0.523
1051.501	622.367	80.010	19.993	103.833	19.906	4.058	0.542
1052.001	622.633	80.011	19.993	103.831	19.905	4.082	0.533
1052.501	622.862	80.010	19.994	103.830	19.902	4.306	0.511
1053.000	623.151	80.010	19.994	103.829	19.906	4.036	0.506
1053.500	623.396	80.011	19.994	103.830	19.905	4.088	0.526
1054.000	623.646	80.010	19.994	103.830	19.906	4.018	0.515
1054.500	623.923	80.011	19.994	103.831	19.906	4.041	0.511
1055.000	624.169	80.009	19.994	103.830	19.906	4.052	0.525
1055.500	624.429	80.010	19.994	103.831	19.908	3.932	0.515
1056.001	624.688	80.009	19.993	103.831	19.907	3.990	0.513
1056.501	624.986	80.010	19.996	103.831	19.905	4.101	0.537
1057.000	625.245	80.010	19.995	103.832	19.906	4.064	0.557
1057.500	625.514	80.010	19.996	103.833	19.906	4.024	0.543
1058.000	625.794	80.011	19.995	103.833	19.907	3.951	0.538
1058.500	626.048	80.010	19.996	103.833	19.907	3.984	0.541
1059.000	626.336	80.009	19.995	103.834	19.906	4.020	0.538
1059.500	626.553	80.009	19.994	103.834	19.905	4.119	0.524
1060.000	626.801	80.009	19.996	103.833	19.908	3.905	0.485
1060.500	627.083	80.010	19.995	103.832	19.907	3.973	0.497
1061.000	627.328	80.009	19.993	103.833	19.909	3.875	0.528
1061.500	627.585	80.010	19.994	103.832	19.907	3.996	0.515
1062.000	627.858	80.009	19.995	103.831	19.905	4.116	0.516
1062.500	628.088	80.010	19.995	103.834	19.906	4.017	0.516
1063.000	628.361	80.010	19.994	103.836	19.907	3.962	0.503
1063.500	628.607	80.010	19.995	103.835	19.908	3.934	0.511
1064.000	628.869	80.009	19.994	103.835	19.910	3.752	0.513
1064.500	629.127	80.011	19.994	103.835	19.907	3.951	0.514
1065.000	629.357	80.010	19.994	103.825	19.907	3.987	0.504
1065.500	629.625	80.010	19.995	103.795	19.907	3.957	0.493
1066.000	629.887	80.010	19.994	103.779	19.907	3.992	0.514
1066.500	630.164	80.011	19.994	103.772	19.907	4.011	0.535
1067.000	630.397	80.012	19.995	103.769	19.908	3.887	0.524
1067.500	630.653	80.011	19.993	103.777	19.911	3.724	0.500
1068.000	630.930	80.011	19.995	103.808	19.910	3.777	0.511
1068.500	631.197	80.011	19.994	103.839	19.907	3.960	0.539
1069.000	631.484	80.011	19.993	103.888	19.911	3.700	0.549
1069.500	631.708	80.012	19.994	103.904	19.911	3.713	0.533
1070.000	631.980	80.012	19.992	103.911	19.910	3.750	0.504
1070.500	632.239	80.012	19.992	103.912	19.909	3.871	0.513
1071.000	632.511	80.011	19.993	103.898	19.906	4.036	0.531
1071.501	632.765	80.012	19.994	103.859	19.910	3.749	0.529
1072.001	633.043	80.011	19.993	103.847	19.912	3.662	0.529
1072.500	633.311	80.012	19.993	103.839	19.909	3.846	0.539
1073.000	633.578	80.012	19.992	103.834	19.911	3.687	0.540
1073.500	633.866	80.012	19.992	103.837	19.910	3.803	0.545
1074.001	634.137	80.011	19.993	103.838	19.907	4.006	0.557
1074.501	634.395	80.011	19.992	103.840	19.910	3.758	0.545
1075.001	634.631	80.011	19.993	103.840	19.908	3.912	0.512
1075.500	634.939	80.011	19.992	103.841	19.906	4.064	0.519
1076.000	635.162	80.011	19.993	103.837	19.904	4.163	0.537
1076.500	635.486	80.012	19.993	103.835	19.910	3.807	0.539
1077.001	635.733	80.010	19.993	103.834	19.907	4.004	0.559
1077.501	635.968	80.011	19.992	103.834	19.907	3.958	0.527
1078.000	636.250	80.013	19.992	103.835	19.909	3.859	0.500
1078.500	636.495	80.013	19.993	103.836	19.906	4.015	0.521
1079.001	636.769	80.012	19.992	103.835	19.906	4.075	0.523
1079.501	637.047	80.011	19.992	103.835	19.909	3.816	0.536
1080.001	637.261	80.011	19.992	103.838	19.908	3.910	0.522
1080.501	637.533	80.010	19.992	103.839	19.910	3.767	0.489
1081.000	637.803	80.011	19.993	103.839	19.908	3.893	0.514
1081.500	638.107	80.009	19.993	103.841	19.908	3.936	0.558
1082.000	638.328	80.009	19.994	103.844	19.906	4.067	0.549
1082.500	638.598	80.009	19.994	103.841	19.906	4.017	0.508
1083.000	638.858	80.010	19.994	103.842	19.905	4.125	0.511
1083.500	639.115	80.010	19.993	103.845	19.904	4.193	0.523
1084.000	639.431	80.009	19.993	103.846	19.906	4.028	0.544
1084.500	639.664	80.010	19.993	103.845	19.908	3.941	0.561
1085.000	639.919	80.009	19.992	103.845	19.906	4.012	0.519
1085.500	640.202	80.009	19.993	103.842	19.907	3.947	0.513
1086.001	640.466	80.009	19.993	103.841	19.908	3.936	0.543
1086.501	640.702	80.010	19.992	103.839	19.913	3.555	0.524
1087.000	640.975	80.009	19.994	103.837	19.910	3.792	0.505
1087.500	641.212	80.009	19.993	103.837	19.910	3.754	0.509
1088.000	641.502	80.010	19.994	103.836	19.907	3.970	0.518
1088.500	641.756	80.009	19.994	103.832	19.907	3.946	0.535
1089.000	642.005	80.009	19.994	103.829	19.909	3.814	0.524
1089.501	642.233	80.011	19.995	103.828	19.908	3.906	0.490
1090.001	642.505	80.008	19.992	103.828	19.909	3.833	0.488
1090.501	642.784	80.010	19.993	103.828	19.909	3.833	0.525
1091.001	643.011	80.009	19.994	103.829	19.908	3.893	0.529
1091.500	643.285	80.010	19.992	103.832	19.910	3.773	0.504
1092.001	643.529	80.009	19.994	103.832	19.912	3.639	0.510
1092.501	643.775	80.009	19.993	103.833	19.908	3.926	0.504
1093.000	644.079	80.010	19.993	103.832	19.909	3.863	0.520
1093.500	644.333	80.009	19.994	103.805	19.907	3.960	0.554
1094.000	644.599	80.010	19.992	103.784	19.908	3.898	0.539
1094.500	644.849	80.010	19.993	103.778	19.910	3.805	0.518
1095.001	645.044	80.010	19.994	103.776	19.910	3.776	0.480
1095.501	645.338	80.010	19.994	103.778	19.911	3.728	0.467
1096.000	645.594	80.009	19.992	103.811	19.912	3.647	0.520
1096.500	645.832	80.010	19.993	103.863	19.911	3.720	0.522
1097.000	646.115	80.011	19.994	103.882	19.909	3.829	0.508
1097.501	646.373	80.010	19.992	103.886	19.911	3.685	0.531
1098.001	646.651	80.008	19.994	103.890	19.914	3.518	0.539
1098.500	646.892	80.010	19.993	103.883	19.914	3.536	0.527
1099.000	647.182	80.010	19.992	103.849	19.912	3.639	0.525
1099.500	647.402	80.011	19.992	103.840	19.916	3.377	0.521
1100.001	647.702	80.009	19.993	103.839	19.913	3.594	0.515
1100.501	647.958	80.010	19.993	103.835	19.913	3.540	0.538
1101.000	648.218	80.010	19.994	103.835	19.911	3.683	0.536
1101.501	648.457	80.010	19.993	103.834	19.913	3.544	0.508
1102.001	648.723	80.011	19.993	103.831	19.911	3.700	0.502
1102.501	648.980	80.010	19.993	103.828	19.912	3.628	0.514
1103.000	649.232	80.011	19.993	103.828	19.912	3.615	0.516
1103.500	649.506	80.010	19.992	103.829	19.911	3.694	0.518
1104.000	649.745	80.011	19.993	103.829	19.913	3.578	0.520
1104.500	650.007	80.010	19.992	103.828	19.912	3.666	0.507
1105.000	650.303	80.010	19.993	103.828	19.910	3.794	0.529
1105.500	650.558	80.010	19.994	103.829	19.912	3.647	0.555
1106.000	650.829	80.011	19.993	103.828	19.912	3.615	0.539
1106.500	651.054	80.011	19.993	103.829	19.911	3.686	0.511
1107.000	651.325	80.012	19.993	103.831	19.911	3.673	0.496
1107.501	651.584	80.011	19.993	103.832	19.908	3.915	0.513
1108.001	651.840	80.012	19.992	103.832	19.911	3.724	0.523
1108.500	652.099	80.011	19.993	103.832	19.913	3.551	0.515
1109.000	652.404	80.012	19.992	103.831	19.911	3.715	0.540
1109.500	652.633	80.010	19.993	103.829	19.913	3.574	0.549
1110.000	652.912	80.011	19.993	103.828	19.912	3.660	0.520
1110.500	653.168	80.011	19.992	103.828	19.913	3.551	0.521
1111.001	653.425	80.011	19.993	103.828	19.910	3.763	0.524
1111.501	653.674	80.010	19.992	103.828	19.913	3.587	0.510
1112.001	653.938	80.010	19.993	103.831	19.913	3.576	0.509
1112.500	654.215	80.010	19.993	103.832	19.911	3.724	0.528
1113.000	654.474	80.011	19.992	103.832	19.906	4.032	0.539
1113.500	654.747	80.009	19.991	103.832	19.909	3.818	0.534
1114.000	655.031	80.011	19.993	103.833	19.911	3.720	0.545
1114.500	655.220	80.009	19.993	103.835	19.909	3.852	0.515
1115.000	655.479	80.010	19.994	103.835	19.911	3.730	0.460
1115.500	655.775	80.010	19.992	103.835	19.909	3.854	0.502
1116.000	656.026	80.007	19.991	103.835	19.908	3.897	0.551
1116.500	656.287	80.009	19.993	103.835	19.909	3.859	0.529
1117.000	656.539	80.009	19.994	103.832	19.910	3.750	0.513
1117.500	656.805	80.009	19.993	103.832	19.906	4.065	0.516
1118.000	657.029	80.010	19.993	103.833	19.908	3.930	0.504
1118.500	657.319	80.009	19.994	103.833	19.908	3.902	0.502
1119.001	657.556	80.009	19.993	103.834	19.906	4.077	0.520
1119.501	657.810	80.010	19.992	103.833	19.905	4.116	0.509
1120.001	658.111	80.008	19.993	103.833	19.908	3.928	0.523
1120.501	658.375	80.009	19.993	103.833	19.907	4.011	0.560
1121.001	658.603	80.009	19.992	103.833	19.908	3.921	0.528
1121.500	658.842	80.008	19.992	103.833	19.911	3.724	0.479
1122.000	659.096	80.009	19.992	103.833	19.905	4.088	0.480
1122.500	659.427	80.009	19.994	103.832	19.904	4.165	0.539
1123.000	659.638	80.009	19.993	103.833	19.908	3.893	0.563
1123.501	659.895	80.010	19.993	103.833	19.905	4.133	0.505
1124.001	660.166	80.011	19.993	103.833	19.906	4.054	0.498
1124.500	660.437	80.010	19.994	103.833	19.905	4.133	0.535
1125.000	660.652	80.009	19.993	103.838	19.908	3.915	0.514
1125.500	660.916	80.009	19.993	103.839	19.906	4.049	0.482
1126.001	661.151	80.011	19.994	103.839	19.908	3.936	0.488
1126.501	661.389	80.011	19.993	103.839	19.908	3.915	0.486
1127.000	661.666	80.011	19.992	103.839	19.909	3.827	0.494
1127.500	661.933	80.012	19.993	103.834	19.908	3.940	0.529
1128.001	662.199	80.011	19.993	103.832	19.912	3.653	0.538
1128.501	662.474	80.011	19.994	103.830	19.909	3.833	0.537
1129.001	662.753	80.011	19.993	103.830	19.913	3.600	0.547
1129.501	662.998	80.010	19.993	103.830	19.908	3.889	0.539
1130.000	663.223	80.011	19.993	103.830	19.913	3.598	0.498
1130.500	663.459	80.011	19.992	103.830	19.909	3.822	0.466
1131.000	663.737	80.012	19.993	103.830	19.910	3.779	0.487
1131.500	663.979	80.010	19.993	103.831	19.917	3.323	0.517
1132.000	664.232	80.012	19.994	103.832	19.910	3.809	0.508
1132.500	664.514	80.012	19.992	103.834	19.910	3.771	0.515
1133.001	664.731	80.011	19.993	103.836	19.907	3.985	0.517
1133.501	665.047	80.012	19.993	103.836	19.908	3.884	0.516
1134.000	665.269	80.011	19.993	103.834	19.910	3.793	0.536
1134.500	665.512	80.011	19.993	103.835	19.910	3.778	0.502
1135.001	665.781	80.012	19.994	103.833	19.914	3.533	0.488
1135.501	666.042	80.010	19.992	103.831	19.910	3.767	0.520
1136.001	666.276	80.011	19.993	103.831	19.909	3.837	0.512
1136.501	666.542	80.010	19.993	103.832	19.911	3.737	0.498
1137.001	666.818	80.011	19.992	103.831	19.912	3.642	0.521
1137.501	667.102	80.010	19.992	103.832	19.913	3.605	0.551
1138.000	667.318	80.010	19.993	103.832	19.908	3.882	0.530
1138.500	667.589	80.011	19.993	103.833	19.914	3.514	0.494
1139.001	667.831	80.011	19.993	103.833	19.911	3.677	0.500
1139.501	668.075	80.011	19.992	103.833	19.909	3.831	0.499
1140.000	668.385	80.012	19.993	103.834	19.911	3.694	0.520
1140.500	668.596	80.010	19.993	103.834	19.908	3.932	0.538
1141.000	668.856	80.011	19.993	103.835	19.913	3.538	0.496
1141.500	669.139	80.011	19.992	103.835	19.911	3.724	0.507
1142.000	669.369	80.010	19.994	103.836	19.913	3.583	0.528
1142.500	669.646	80.011	19.994	103.836	19.915	3.467	0.510
1143.001	669.928	80.009	19.993	103.837	19.917	3.305	0.534
1143.501	670.169	80.010	19.992	103.835	19.914	3.501	0.541
1144.000	670.435	80.010	19.994	103.834	19.913	3.587	0.515
1144.500	670.696	80.010	19.992	103.834	19.913	3.553	0.517
1145.000	670.927	80.011	19.992	103.834	19.913	3.583	0.510
1145.500	671.181	80.010	19.993	103.833	19.914	3.531	0.489
1146.000	671.450	80.009	19.994	103.831	19.914	3.525	0.504
1146.500	671.696	80.010	19.994	103.833	19.914	3.534	0.519
1147.000	671.937	80.010	19.993	103.837	19.914	3.484	0.501
1147.500	672.176	80.010	19.994	103.842	19.912	3.621	0.484
1148.000	672.462	80.010	19.993	103.847	19.911	3.679	0.502
1148.500	672.763	80.013	19.996	103.850	19.917	3.317	0.556
1149.001	673.005	80.011	19.994	103.847	19.912	3.664	0.565
1149.502	673.254	80.010	19.995	103.842	19.914	3.516	0.517
1150.001	673.489	80.010	19.994	103.837	19.911	3.701	0.487
1150.501	673.774	80.011	19.994	103.832	19.911	3.685	0.502
1151.001	674.035	80.011	19.994	103.829	19.910	3.765	0.533
1151.501	674.290	80.012	19.994	103.829	19.915	3.405	0.531
1152.000	674.573	80.011	19.993	103.829	19.912	3.624	0.527
1152.500	674.855	80.012	19.994	103.828	19.911	3.686	0.551
1153.000	675.080	80.011	19.994	103.827	19.915	3.420	0.536
1153.500	675.331	80.012	19.993	103.827	19.912	3.664	0.492
1154.000	675.609	80.013	19.994	103.826	19.915	3.463	0.502
1154.500	675.885	80.013	19.995	103.826	19.914	3.480	0.541
1155.000	676.112	80.013	19.994	103.826	19.914	3.471	0.529
1155.500	676.363	80.013	19.995	103.826	19.916	3.399	0.491
1156.000	676.617	80.011	19.994	103.826	19.915	3.427	0.491
1156.500	676.920	80.012	19.995	103.828	19.915	3.431	0.531
1157.000	677.175	80.012	19.994	103.828	19.914	3.474	0.557
1157.500	677.421	80.012	19.995	103.828	19.919	3.186	0.529
1158.000	677.684	80.012	19.994	103.828	19.918	3.234	0.505
1158.500	677.894	80.011	19.995	103.828	19.917	3.292	0.491
1159.000	678.201	80.014	19.994	103.826	19.916	3.339	0.495
1159.501	678.432	80.012	19.994	103.827	19.918	3.262	0.528
1160.001	678.654	80.011	19.994	103.831	19.919	3.157	0.495
1160.501	678.956	80.012	19.994	103.832	19.919	3.199	0.488
1161.000	679.128	80.012	19.994	103.832	19.917	3.276	0.499
1161.500	679.458	80.012	19.994	103.832	19.915	3.424	0.488
1162.001	679.682	80.011	19.994	103.832	19.915	3.412	0.528
1162.501	679.930	80.013	19.994	103.828	19.920	3.125	0.513
1163.001	680.183	80.012	19.994	103.827	19.919	3.195	0.487
1163.501	680.450	80.011	19.994	103.827	19.919	3.197	0.511
1164.001	680.681	80.011	19.993	103.828	19.917	3.302	0.509
1164.501	680.914	80.012	19.994	103.827	19.917	3.326	0.481
1165.001	681.188	80.011	19.994	103.827	19.916	3.381	0.485
1165.500	681.432	80.011	19.993	103.827	19.917	3.281	0.513
1166.000	681.689	80.011	19.993	103.827	19.919	3.184	0.509
1166.500	681.950	80.011	19.993	103.827	19.919	3.163	0.509
1167.000	682.203	80.012	19.993	103.827	19.917	3.324	0.516
1167.500	682.474	80.010	19.993	103.830	19.916	3.364	0.519
1168.000	682.723	80.012	19.993	103.831	19.913	3.572	0.522
1168.500	682.968	80.012	19.993	103.831	19.918	3.233	0.507
1169.001	683.247	80.012	19.993	103.831	19.914	3.507	0.509
1169.501	683.497	80.010	19.993	103.832	19.911	3.718	0.526
1170.000	683.724	80.011	19.993	103.830	19.910	3.782	0.503
1170.500	684.028	80.011	19.994	103.830	19.913	3.548	0.504
1171.000	684.240	80.011	19.993	103.831	19.915	3.441	0.524
1171.501	684.489	80.010	19.992	103.832	19.913	3.564	0.488
1172.001	684.751	80.011	19.993	103.831	19.915	3.469	0.486
1172.500	685.027	80.008	19.993	103.831	19.912	3.615	0.525
1173.000	685.270	80.012	19.993	103.830	19.912	3.640	0.529
1173.501	685.515	80.011	19.991	103.829	19.910	3.790	0.504
1174.001	685.743	80.009	19.994	103.828	19.911	3.675	0.480
1174.500	686.018	80.011	19.993	103.828	19.912	3.655	0.488
1175.000	686.228	80.010	19.992	103.827	19.916	3.386	0.494
1175.500	686.513	80.010	19.994	103.828	19.911	3.732	0.490
1176.000	686.792	80.008	19.993	103.828	19.916	3.396	0.530
1176.500	687.048	80.011	19.996	103.829	19.911	3.700	0.549
1177.000	687.259	80.010	19.995	103.831	19.913	3.555	0.501
1177.500	687.520	80.011	19.994	103.832	19.919	3.195	0.469
1178.000	687.752	80.012	19.993	103.835	19.914	3.520	0.483
1178.500	688.007	80.013	19.993	103.839	19.917	3.293	0.490
1179.000	688.288	80.010	19.995	103.840	19.917	3.308	0.512
1179.501	688.498	80.011	19.992	103.841	19.916	3.344	0.514
1180.001	688.739	80.010	19.993	103.840	19.917	3.326	0.471
1180.500	688.990	80.012	19.994	103.836	19.917	3.268	0.471
1181.000	689.241	80.011	19.993	103.832	19.916	3.349	0.497
1181.500	689.510	80.009	19.992	103.831	19.916	3.388	0.511
1182.000	689.698	80.010	19.993	103.828	19.917	3.321	0.488
1182.500	689.978	80.011	19.994	103.831	19.914	3.491	0.463
1183.000	690.178	80.012	19.993	103.834	19.917	3.309	0.474
1183.500	690.424	80.011	19.994	103.834	19.917	3.321	0.463
1184.001	690.696	80.011	19.994	103.834	19.914	3.527	0.482
1184.501	690.951	80.009	19.993	103.835	19.914	3.531	0.522
1185.001	691.204	80.010	19.993	103.837	19.915	3.454	0.518
1185.501	691.448	80.009	19.993	103.837	19.913	3.542	0.503
1186.000	691.727	80.009	19.993	103.837	19.915	3.465	0.509
1186.500	691.923	80.010	19.993	103.837	19.915	3.429	0.499
1187.000	692.192	80.013	19.992	103.836	19.914	3.482	0.470
1187.500	692.428	80.011	19.993	103.835	19.916	3.369	0.486
1188.000	692.675	80.011	19.995	103.836	19.911	3.696	0.494
1188.500	692.966	80.011	19.994	103.842	19.914	3.490	0.510
1189.000	693.184	80.009	19.992	103.850	19.914	3.523	0.524
1189.500	693.462	80.012	19.995	103.851	19.916	3.384	0.503
1190.000	693.705	80.011	19.993	103.848	19.914	3.472	0.508
1190.500	693.930	80.008	19.993	103.845	19.917	3.298	0.495
1191.000	694.206	80.009	19.994	103.839	19.915	3.418	0.484
1191.500	694.472	80.008	19.993	103.832	19.914	3.506	0.521
1192.000	694.737	80.012	19.993	103.830	19.917	3.302	0.536
1192.500	694.986	80.009	19.993	103.831	19.918	3.217	0.523
1193.000	695.252	80.010	19.993	103.831	19.918	3.247	0.515
1193.500	695.469	80.011	19.993	103.831	19.918	3.246	0.499
1194.000	695.772	80.010	19.992	103.831	19.916	3.351	0.502
1194.501	695.992	80.009	19.995	103.831	19.915	3.420	0.522
1195.001	696.259	80.009	19.993	103.830	19.916	3.379	0.505
1195.501	696.511	80.010	19.992	103.830	19.915	3.443	0.503
1196.001	696.768	80.010	19.994	103.829	19.915	3.409	0.514
1196.500	696.979	80.011	19.992	103.828	19.920	3.124	0.488
1197.000	697.254	80.010	19.993	103.828	19.914	3.489	0.477
1197.500	697.495	80.008	19.993	103.830	19.914	3.514	0.501
1198.000	697.719	80.011	19.993	103.831	19.911	3.673	0.491
1198.501	697.996	80.008	19.994	103.832	19.914	3.535	0.483
1199.001	698.222	80.009	19.993	103.834	19.913	3.542	0.502
1199.500	698.484	80.009	19.993	103.833	19.912	3.660	0.495
1200.000	698.739	80.012	19.993	103.830	19.915	3.441	0.502
1200.500	698.982	80.009	19.992	103.828	19.916	3.386	0.507
1201.000	699.220	80.009	19.993	103.828	19.915	3.441	0.490
1201.500	699.516	80.009	19.994	103.831	19.914	3.501	0.508
1202.000	699.756	80.011	19.993	103.831	19.916	3.381	0.535
1202.500	699.983	80.010	19.993	103.832	19.911	3.709	0.501
1203.001	700.220	80.011	19.992	103.834	19.914	3.517	0.466
1203.501	700.521	80.008	19.993	103.834	19.914	3.471	0.501
1204.000	700.756	80.009	19.994	103.833	19.915	3.442	0.537
1204.500	700.986	80.008	19.992	103.833	19.912	3.632	0.501
1205.000	701.246	80.011	19.992	103.833	19.915	3.407	0.477
1205.500	701.530	80.009	19.992	103.833	19.916	3.339	0.517
1206.000	701.740	80.008	19.992	103.833	19.913	3.559	0.519
1206.500	701.983	80.011	19.993	103.833	19.912	3.624	0.473
1207.000	702.287	80.011	19.992	103.833	19.912	3.613	0.500
1207.500	702.515	80.008	19.993	103.833	19.912	3.621	0.539
1208.001	702.755	80.011	19.992	103.833	19.913	3.557	0.500
1208.501	703.044	80.009	19.992	103.833	19.912	3.669	0.498
1209.000	703.307	80.015	19.993	103.832	19.915	3.448	0.540
1209.500	703.542	80.011	19.992	103.832	19.915	3.416	0.525
1210.000	703.756	80.011	19.993	103.832	19.913	3.549	0.474
1210.501	704.024	80.009	19.993	103.832	19.913	3.562	0.465
1211.001	704.281	80.011	19.993	103.831	19.916	3.375	0.503
1211.500	704.513	80.014	19.993	103.831	19.913	3.581	0.507
1212.000	704.760	80.013	19.992	103.831	19.917	3.334	0.484
1212.500	705.001	80.012	19.992	103.830	19.915	3.425	0.484
1213.000	705.241	80.012	19.992	103.830	19.915	3.465	0.484
1213.500	705.524	80.012	19.992	103.830	19.912	3.628	0.501
1214.000	705.761	80.011	19.992	103.829	19.914	3.506	0.521
1214.500	706.021	80.013	19.993	103.828	19.914	3.531	0.509
1215.000	706.221	80.010	19.993	103.827	19.916	3.339	0.478
1215.500	706.509	80.010	19.993	103.827	19.914	3.525	0.474
1216.000	706.772	80.012	19.992	103.826	19.913	3.540	0.519
1216.500	707.015	80.012	19.993	103.827	19.916	3.347	0.529
1217.000	707.275	80.014	19.993	103.828	19.916	3.360	0.505
1217.500	707.520	80.008	19.993	103.828	19.912	3.634	0.504
1218.000	707.749	80.012	19.994	103.827	19.915	3.457	0.489
1218.500	707.980	80.009	19.993	103.828	19.914	3.516	0.467
1219.000	708.265	80.012	19.994	103.827	19.916	3.345	0.488
1219.500	708.515	80.010	19.993	103.827	19.919	3.195	0.526
1220.001	708.774	80.010	19.993	103.827	19.919	3.165	0.522
1220.501	709.046	80.011	19.993	103.827	19.914	3.495	0.520
1221.001	709.263	80.010	19.994	103.827	19.915	3.439	0.510
1221.500	709.563	80.011	19.994	103.827	19.913	3.551	0.504
1222.000	709.753	80.009	19.994	103.826	19.916	3.384	0.504
1222.500	710.020	80.011	19.994	103.826	19.916	3.364	0.473
1223.000	710.288	80.010	19.994	103.827	19.913	3.577	0.496
1223.500	710.536	80.012	19.994	103.826	19.916	3.350	0.525
1224.001	710.805	80.010	19.993	103.825	19.916	3.335	0.517
1224.501	711.051	80.009	19.993	103.826	19.916	3.384	0.516
1225.001	711.291	80.010	19.994	103.826	19.917	3.276	0.500
1225.500	711.532	80.010	19.993	103.825	19.915	3.405	0.483
1226.000	711.813	80.010	19.994	103.825	19.914	3.514	0.502
1226.500	712.035	80.007	19.995	103.827	19.917	3.287	0.513
1227.001	712.335	80.012	19.993	103.827	19.917	3.289	0.513
1227.501	712.562	80.011	19.994	103.828	19.917	3.298	0.525
1228.000	712.852	80.010	19.993	103.828	19.918	3.217	0.522
1228.500	713.076	80.010	19.994	103.828	19.919	3.168	0.515
1229.000	713.340	80.011	19.994	103.826	19.915	3.405	0.501
1229.500	713.622	80.010	19.994	103.826	19.918	3.234	0.517
1230.000	713.831	80.012	19.993	103.826	19.916	3.365	0.518
1230.500	714.090	80.013	19.993	103.825	19.917	3.285	0.479
1231.000	714.366	80.013	19.993	103.826	19.918	3.232	0.502
1231.501	714.566	80.011	19.993	103.826	19.916	3.358	0.505
1232.001	714.863	80.010	19.993	103.826	19.918	3.238	0.487
1232.500	715.132	80.012	19.993	103.825	19.918	3.229	0.532
1233.000	715.399	80.011	19.992	103.825	19.916	3.373	0.551
1233.500	715.665	80.012	19.993	103.825	19.919	3.191	0.534
1234.000	715.910	80.012	19.993	103.826	19.915	3.454	0.522
1234.500	716.183	80.011	19.993	103.826	19.918	3.260	0.514
1235.000	716.437	80.014	19.993	103.827	19.917	3.273	0.523
1235.500	716.668	80.012	19.993	103.829	19.921	3.007	0.506
1236.000	716.935	80.013	19.992	103.829	19.919	3.140	0.492
1236.500	717.206	80.013	19.995	103.829	19.921	3.062	0.518
1237.000	717.468	80.014	19.995	103.829	19.924	2.821	0.535
1237.500	717.704	80.013	19.994	103.829	19.919	3.133	0.515
1238.000	717.951	80.012	19.994	103.827	19.919	3.197	0.490
1238.500	718.218	80.012	19.994	103.825	19.922	2.994	0.498
1239.000	718.478	80.015	19.993	103.824	19.921	3.022	0.521
1239.500	718.751	80.013	19.994	103.823	19.920	3.116	0.530
1240.001	718.973	80.015	19.994	103.824	19.922	2.988	0.514
1240.501	719.246	80.012	19.993	103.824	19.923	2.868	0.495
1241.000	719.489	80.012	19.993	103.824	19.923	2.908	0.506
1241.500	719.790	80.013	19.993	103.825	19.922	2.988	0.530
1242.001	719.995	80.012	19.993	103.825	19.923	2.923	0.525
1242.501	720.275	80.012	19.994	103.826	19.924	2.814	0.496
1243.000	720.555	80.013	19.993	103.827	19.922	2.947	0.522
1243.500	720.786	80.011	19.993	103.827	19.923	2.900	0.535
1244.001	721.050	80.013	19.994	103.827	19.924	2.816	0.503
1244.501	721.346	80.014	19.994	103.827	19.924	2.850	0.527
1245.001	721.575	80.011	19.994	103.825	19.925	2.748	0.542
1245.502	721.834	80.010	19.993	103.824	19.926	2.722	0.507
1246.001	722.038	80.012	19.994	103.825	19.925	2.737	0.475
1246.500	722.311	80.012	19.993	103.825	19.921	3.035	0.469
1247.001	722.577	80.011	19.994	103.826	19.923	2.885	0.508
1247.501	722.833	80.009	19.994	103.826	19.922	2.979	0.531
1248.000	723.086	80.010	19.994	103.826	19.919	3.157	0.515
1248.501	723.364	80.009	19.994	103.826	19.926	2.709	0.520
1249.001	723.619	80.010	19.994	103.827	19.923	2.887	0.532
1249.500	723.859	80.010	19.994	103.825	19.924	2.833	0.514
1250.000	724.150	80.009	19.994	103.826	19.922	2.945	0.513
1250.500	724.416	80.010	19.994	103.826	19.924	2.831	0.544
1251.000	724.630	80.011	19.995	103.825	19.922	2.953	0.519
1251.501	724.924	80.008	19.994	103.826	19.922	2.985	0.494
1252.001	725.194	80.009	19.995	103.828	19.921	3.052	0.536
1252.501	725.397	80.010	19.993	103.827	19.924	2.814	0.519
1253.001	725.699	80.008	19.995	103.825	19.922	2.941	0.489
1253.500	725.928	80.008	19.994	103.825	19.922	2.983	0.518
1254.000	726.203	80.012	19.994	103.824	19.920	3.073	0.518
1254.500	726.478	80.009	19.994	103.824	19.924	2.799	0.527
1255.000	726.705	80.008	19.995	103.824	19.922	2.949	0.526
1255.500	726.989	80.009	19.994	103.827	19.924	2.820	0.506
1256.000	727.225	80.009	19.995	103.827	19.923	2.921	0.515
1256.501	727.500	80.008	19.994	103.828	19.923	2.863	0.515
1257.001	727.789	80.009	19.995	103.828	19.923	2.880	0.537
1257.500	728.010	80.007	19.994	103.826	19.923	2.900	0.537
1258.000	728.257	80.008	19.995	103.825	19.924	2.853	0.489
1258.500	728.536	80.008	19.995	103.824	19.919	3.152	0.497
1259.000	728.753	80.009	19.995	103.823	19.928	2.589	0.511
1259.500	729.032	80.008	19.994	103.822	19.925	2.769	0.496
1260.000	729.298	80.007	19.995	103.824	19.927	2.600	0.520
1260.500	729.509	80.010	19.994	103.825	19.924	2.810	0.511
1261.000	729.789	80.009	19.995	103.822	19.921	3.020	0.484
1261.500	730.073	80.009	19.995	103.823	19.926	2.701	0.527
1262.000	730.290	80.008	19.994	103.824	19.926	2.707	0.532
1262.500	730.581	80.009	19.995	103.823	19.923	2.904	0.504
1263.000	730.839	80.008	19.994	103.823	19.920	3.071	0.529
1263.500	731.083	80.009	19.994	103.825	19.922	2.938	0.526
1264.000	731.326	80.009	19.994	103.826	19.922	2.985	0.495
1264.500	731.543	80.012	19.994	103.826	19.919	3.189	0.473
1265.000	731.854	80.010	19.993	103.827	19.923	2.921	0.494
1265.500	732.090	80.009	19.994	103.827	19.918	3.204	0.538
1266.000	732.350	80.010	19.993	103.829	19.918	3.200	0.522
1266.500	732.575	80.008	19.996	103.826	19.921	3.035	0.490
1267.001	732.853	80.008	19.993	103.826	19.918	3.204	0.494
1267.501	733.095	80.007	19.995	103.826	19.917	3.281	0.511
1268.001	733.350	80.010	19.992	103.826	19.919	3.142	0.508
1268.501	733.634	80.008	19.993	103.826	19.918	3.249	0.518
1269.000	733.909	80.007	19.993	103.829	19.922	2.964	0.549
1269.500	734.189	80.010	19.994	103.830	19.920	3.114	0.557
1270.000	734.396	80.010	19.994	103.830	19.920	3.125	0.521
1270.500	734.649	80.009	19.993	103.829	19.923	2.923	0.473
1271.000	734.910	80.008	19.994	103.829	19.921	3.007	0.486
1271.500	735.174	80.008	19.993	103.828	19.918	3.232	0.519
1272.000	735.391	80.010	19.993	103.826	19.923	2.911	0.503
1272.501	735.619	80.007	19.994	103.826	19.923	2.883	0.463
1273.001	735.926	80.010	19.993	103.826	19.920	3.075	0.490
1273.500	736.181	80.009	19.993	103.826	19.922	2.930	0.549
1274.000	736.421	80.008	19.994	103.826	19.921	3.063	0.528
1274.500	736.693	80.011	19.992	103.827	19.919	3.144	0.503
1275.000	736.900	80.007	19.994	103.827	19.924	2.829	0.496
1275.500	737.206	80.008	19.993	103.827	19.919	3.159	0.496
1276.000	737.423	80.008	19.992	103.828	19.921	3.020	0.517
1276.500	737.687	80.007	19.994	103.827	19.923	2.926	0.502
1277.000	737.931	80.008	19.993	103.828	19.920	3.110	0.495
1277.501	738.200	80.010	19.993	103.828	19.917	3.294	0.511
1278.001	738.397	80.009	19.993	103.829	19.918	3.240	0.490
1278.500	738.668	80.010	19.993	103.829	19.921	3.028	0.467
1279.000	738.913	80.009	19.995	103.829	19.917	3.313	0.492
1279.500	739.206	80.008	19.992	103.824	19.919	3.159	0.527
1280.000	739.464	80.009	19.994	103.822	19.921	3.013	0.544
1280.500	739.667	80.010	19.993	103.822	19.922	2.994	0.506
1281.000	739.950	80.010	19.994	103.822	19.917	3.302	0.474
1281.500	740.220	80.011	19.993	103.818	19.921	3.020	0.519
1282.000	740.454	80.009	19.994	103.820	19.916	3.345	0.528
1282.501	740.687	80.008	19.994	103.821	19.920	3.125	0.485
1283.001	740.957	80.008	19.992	103.819	19.920	3.075	0.485
1283.501	741.200	80.009	19.995	103.819	19.919	3.185	0.508
1284.000	741.471	80.011	19.994	103.823	19.921	3.052	0.513
1284.500	741.703	80.007	19.994	103.825	19.919	3.174	0.508
1285.000	741.990	80.010	19.993	103.823	19.918	3.255	0.511
1285.500	742.228	80.010	19.994	103.824	19.918	3.232	0.522
1286.001	742.473	80.010	19.994	103.823	19.917	3.285	0.504
1286.501	742.731	80.009	19.994	103.822	19.920	3.078	0.494
1287.000	743.009	80.008	19.993	103.821	19.920	3.084	0.520
1287.500	743.244	80.009	19.994	103.822	19.918	3.264	0.524
1288.000	743.475	80.009	19.994	103.822	19.918	3.257	0.489
1288.500	743.752	80.008	19.995	103.821	19.921	3.003	0.487
1289.000	744.009	80.009	19.993	103.820	19.915	3.465	0.521
1289.500	744.260	80.010	19.993	103.820	19.921	3.050	0.521
1290.000	744.458	80.009	19.994	103.821	19.920	3.080	0.479
1290.500	744.766	80.009	19.992	103.821	19.920	3.075	0.477
1291.001	744.995	80.010	19.995	103.821	19.922	2.969	0.521
1291.501	745.268	80.010	19.994	103.820	19.918	3.211	0.520
