Sample ID:	C:\MCC\MCC Cal\Test\Rayon_Bamboo_Pillowcase_MCC_30K_min_220112_R3.txt
Sample Weight (mg):	4.59
Heating Rate (C/s):	0.5
Combustor Temp (C):	900
N2 Flow Rate (cc/min):	80
O2 Flow Rate (cc/min):	20
Calibration File:	C:\MCC\MCC Cal\Coeff1 JN10440_30_210304.txt.txt
T Correction Coefficients:	0	1.024463	0
Time Shift (s):	14
*
Time (s)	Temperature (C)	N2 flow rate (cc/min)	O2 flow rate (cc/min)	Flow Rate (cc/min)	Oxygen (%)	HRR (W/g)	Heating rate (C/s)
0.000	110.967	80.011	19.995	104.094	19.961	0.403	0.006
0.500	110.937	80.011	19.995	104.066	19.961	0.428	-0.000
1.000	110.954	80.011	19.995	104.061	19.960	0.502	-0.010
1.500	110.974	80.011	19.996	104.057	19.961	0.440	0.012
2.000	110.958	80.010	19.996	104.053	19.960	0.449	0.021
2.500	110.956	80.011	19.995	104.053	19.962	0.354	-0.007
2.999	110.973	80.011	19.995	104.058	19.962	0.372	-0.002
3.500	110.990	80.010	19.995	104.063	19.962	0.356	0.025
4.000	110.963	80.012	19.994	104.064	19.960	0.451	0.012
4.500	110.988	80.010	19.995	104.064	19.960	0.467	-0.006
5.000	110.956	80.012	19.995	104.065	19.961	0.428	-0.005
5.500	110.934	80.011	19.995	104.062	19.960	0.467	-0.031
6.000	110.934	80.011	19.995	104.064	19.955	0.804	-0.038
6.500	110.917	80.011	19.995	104.065	19.955	0.807	-0.019
7.000	110.958	80.011	19.995	104.071	19.959	0.545	0.004
7.499	110.934	80.010	19.994	104.078	19.961	0.391	0.021
8.000	110.927	80.011	19.994	104.085	19.960	0.496	-0.007
8.500	110.936	80.010	19.995	104.086	19.959	0.568	-0.015
9.000	110.942	80.010	19.995	104.092	19.958	0.605	0.008
9.500	110.969	80.012	19.994	104.094	19.960	0.481	0.024
10.000	110.922	80.011	19.994	104.094	19.957	0.728	0.006
10.500	110.957	80.012	19.994	104.094	19.956	0.775	-0.016
11.000	110.942	80.011	19.993	104.094	19.957	0.670	0.004
11.500	110.958	80.011	19.993	104.090	19.955	0.825	0.011
12.000	110.971	80.012	19.993	104.088	19.960	0.469	0.015
12.500	110.969	80.011	19.994	104.087	19.957	0.728	0.020
13.000	110.957	80.012	19.994	104.085	19.961	0.421	-0.001
13.500	110.930	80.012	19.993	104.085	19.956	0.732	-0.027
14.000	110.952	80.012	19.994	104.090	19.957	0.670	-0.022
14.500	110.944	80.011	19.993	104.091	19.958	0.631	0.005
15.000	110.968	80.012	19.993	104.092	19.959	0.559	0.015
15.500	110.980	80.012	19.993	104.097	19.958	0.658	0.026
16.000	110.945	80.012	19.994	104.097	19.957	0.689	0.007
16.500	110.944	80.013	19.993	104.098	19.959	0.574	-0.029
17.000	110.981	80.012	19.994	104.099	19.958	0.647	-0.000
17.500	110.999	80.011	19.995	104.099	19.958	0.654	0.045
18.000	111.021	80.013	19.993	104.101	19.958	0.629	0.047
18.500	111.048	80.012	19.993	104.109	19.955	0.834	0.045
19.000	111.031	80.011	19.994	104.112	19.955	0.836	0.030
19.500	111.039	80.012	19.994	104.112	19.955	0.816	0.001
20.000	111.023	80.012	19.993	104.111	19.954	0.933	-0.009
20.500	110.997	80.013	19.993	104.111	19.956	0.779	-0.025
21.000	111.066	80.011	19.993	104.111	19.954	0.927	0.000
21.500	111.080	80.012	19.994	104.117	19.951	1.128	0.063
22.000	111.074	80.012	19.993	104.134	19.951	1.099	0.046
22.500	111.077	80.013	19.994	104.155	19.950	1.198	0.003
23.001	111.103	80.011	19.994	104.170	19.948	1.352	0.013
23.501	111.115	80.010	19.993	104.179	19.951	1.120	0.034
24.000	111.163	80.012	19.993	104.187	19.949	1.256	0.049
24.501	111.155	80.010	19.994	104.191	19.945	1.529	0.050
25.001	111.178	80.011	19.994	104.192	19.944	1.644	0.028
25.501	111.192	80.011	19.993	104.190	19.943	1.706	0.026
26.001	111.250	80.013	19.994	104.190	19.946	1.451	0.054
26.501	111.269	80.012	19.993	104.191	19.943	1.712	0.074
27.000	111.273	80.012	19.994	104.191	19.942	1.734	0.050
27.500	111.322	80.011	19.994	104.193	19.944	1.601	0.038
28.000	111.326	80.012	19.993	104.198	19.942	1.724	0.053
28.500	111.374	80.011	19.993	104.205	19.942	1.779	0.052
29.000	111.440	80.012	19.993	104.211	19.941	1.796	0.083
29.500	111.480	80.011	19.993	104.211	19.940	1.908	0.111
30.000	111.506	80.011	19.994	104.210	19.942	1.756	0.086
30.500	111.539	80.011	19.993	104.209	19.940	1.871	0.062
31.000	111.596	80.010	19.993	104.207	19.941	1.828	0.075
31.500	111.609	80.011	19.993	104.206	19.943	1.721	0.080
32.001	111.639	80.011	19.994	104.208	19.943	1.656	0.056
32.501	111.703	80.012	19.994	104.209	19.942	1.781	0.068
33.000	111.731	80.011	19.993	104.211	19.942	1.793	0.093
33.499	111.777	80.012	19.993	104.214	19.936	2.179	0.083
33.999	111.841	80.011	19.993	104.215	19.942	1.793	0.092
34.500	111.891	80.011	19.994	104.214	19.935	2.278	0.112
35.001	111.923	80.011	19.993	104.213	19.939	1.962	0.098
35.500	111.985	80.010	19.993	104.213	19.937	2.079	0.088
35.999	112.028	80.010	19.995	104.213	19.938	2.042	0.099
36.500	112.085	80.009	19.994	104.214	19.939	1.974	0.102
37.001	112.116	80.011	19.994	104.220	19.937	2.116	0.094
37.500	112.185	80.010	19.995	104.224	19.936	2.200	0.095
38.000	112.228	80.011	19.994	104.229	19.935	2.253	0.106
38.501	112.293	80.010	19.994	104.232	19.935	2.226	0.110
39.001	112.360	80.011	19.995	104.239	19.933	2.388	0.120
39.501	112.410	80.011	19.995	104.241	19.934	2.318	0.125
40.001	112.508	80.011	19.994	104.244	19.931	2.528	0.133
40.501	112.535	80.011	19.995	104.247	19.934	2.361	0.137
41.000	112.591	80.012	19.994	104.251	19.934	2.304	0.104
41.500	112.673	80.011	19.993	104.251	19.931	2.567	0.110
42.001	112.744	80.011	19.994	104.252	19.932	2.503	0.145
42.501	112.820	80.013	19.993	104.251	19.933	2.409	0.150
43.001	112.888	80.012	19.993	104.251	19.932	2.491	0.146
43.500	112.978	80.012	19.992	104.251	19.929	2.684	0.151
43.999	113.067	80.014	19.993	104.253	19.926	2.873	0.168
44.499	113.117	80.013	19.993	104.254	19.926	2.889	0.159
44.999	113.204	80.012	19.994	104.253	19.928	2.762	0.138
45.499	113.249	80.012	19.993	104.255	19.930	2.626	0.135
45.999	113.330	80.013	19.994	104.255	19.926	2.893	0.129
46.499	113.471	80.013	19.993	104.255	19.924	3.014	0.174
47.000	113.535	80.013	19.993	104.254	19.924	3.037	0.214
47.500	113.577	80.013	19.993	104.258	19.926	2.920	0.155
47.999	113.676	80.014	19.993	104.264	19.924	3.041	0.123
48.499	113.801	80.014	19.994	104.273	19.923	3.131	0.183
48.999	113.889	80.014	19.992	104.278	19.923	3.123	0.219
49.499	113.974	80.013	19.992	104.285	19.922	3.199	0.192
50.000	114.068	80.014	19.994	104.289	19.924	3.021	0.176
50.501	114.141	80.016	19.995	104.291	19.925	2.973	0.174
51.001	114.233	80.013	19.993	104.292	19.923	3.137	0.166
51.501	114.345	80.014	19.996	104.295	19.921	3.271	0.184
52.001	114.444	80.014	19.994	104.297	19.920	3.347	0.207
52.500	114.530	80.015	19.994	104.297	19.921	3.248	0.198
52.999	114.655	80.014	19.995	104.297	19.922	3.153	0.198
53.500	114.734	80.014	19.993	104.299	19.920	3.344	0.208
54.000	114.882	80.014	19.993	104.298	19.922	3.174	0.216
54.499	114.970	80.013	19.993	104.297	19.922	3.176	0.232
54.999	115.088	80.014	19.994	104.300	19.922	3.143	0.221
55.499	115.198	80.014	19.993	104.301	19.920	3.316	0.217
55.999	115.300	80.013	19.993	104.296	19.922	3.201	0.220
56.500	115.399	80.014	19.993	104.294	19.917	3.554	0.207
57.000	115.537	80.014	19.993	104.294	19.921	3.213	0.219
57.499	115.616	80.013	19.994	104.290	19.922	3.211	0.227
58.000	115.773	80.014	19.992	104.291	19.921	3.219	0.226
58.500	115.865	80.013	19.993	104.293	19.920	3.295	0.243
58.999	116.026	80.014	19.994	104.299	19.919	3.357	0.251
59.499	116.136	80.014	19.994	104.298	19.920	3.296	0.262
59.999	116.265	80.012	19.993	104.298	19.918	3.425	0.255
60.499	116.388	80.013	19.994	104.296	19.919	3.423	0.245
60.999	116.513	80.013	19.993	104.294	19.919	3.402	0.250
61.500	116.662	80.015	19.993	104.292	19.921	3.248	0.261
62.000	116.771	80.012	19.993	104.297	19.919	3.355	0.266
62.500	116.887	80.014	19.995	104.303	19.919	3.415	0.242
63.001	117.031	80.013	19.994	104.307	19.920	3.326	0.242
63.501	117.168	80.013	19.994	104.309	19.921	3.244	0.270
64.001	117.307	80.013	19.993	104.311	19.920	3.326	0.279
64.500	117.468	80.013	19.993	104.312	19.918	3.474	0.288
65.000	117.591	80.013	19.993	104.312	19.921	3.238	0.292
65.500	117.706	80.012	19.995	104.308	19.923	3.135	0.261
66.000	117.835	80.013	19.994	104.307	19.919	3.365	0.241
66.501	117.975	80.012	19.994	104.304	19.920	3.353	0.257
67.001	118.142	80.014	19.994	104.301	19.920	3.316	0.288
67.500	118.273	80.012	19.993	104.301	19.919	3.382	0.302
68.000	118.421	80.014	19.994	104.306	19.921	3.275	0.289
68.500	118.580	80.013	19.994	104.306	19.918	3.439	0.293
68.999	118.743	80.014	19.994	104.305	19.920	3.316	0.315
69.500	118.866	80.013	19.994	104.304	19.919	3.373	0.304
70.001	119.029	80.014	19.995	104.302	19.918	3.453	0.286
70.501	119.160	80.014	19.994	104.299	19.920	3.348	0.290
71.000	119.334	80.014	19.994	104.300	19.920	3.344	0.300
71.499	119.498	80.013	19.994	104.298	19.919	3.371	0.322
72.000	119.639	80.014	19.994	104.298	19.920	3.315	0.322
72.500	119.790	80.014	19.994	104.298	19.919	3.387	0.298
73.000	119.948	80.015	19.994	104.295	19.920	3.309	0.300
73.501	120.086	80.014	19.994	104.293	19.918	3.436	0.302
74.000	120.249	80.014	19.994	104.296	19.918	3.487	0.299
74.500	120.378	80.014	19.994	104.297	19.920	3.286	0.297
75.001	120.516	80.015	19.995	104.297	19.920	3.332	0.280
75.501	120.704	80.015	19.995	104.303	19.919	3.379	0.297
76.001	120.880	80.015	19.993	104.309	19.920	3.338	0.345
76.501	121.065	80.014	19.994	104.311	19.921	3.268	0.362
77.000	121.206	80.015	19.994	104.310	19.919	3.412	0.343
77.500	121.369	80.015	19.993	104.307	19.921	3.225	0.315
78.000	121.585	80.016	19.995	104.302	19.918	3.451	0.341
78.501	121.729	80.014	19.994	104.299	19.920	3.350	0.369
79.000	121.890	80.015	19.994	104.297	19.917	3.510	0.332
79.499	122.054	80.015	19.994	104.299	19.918	3.469	0.315
80.000	122.183	80.014	19.994	104.302	19.921	3.250	0.309
80.500	122.399	80.016	19.994	104.306	19.919	3.367	0.319
81.000	122.601	80.013	19.993	104.309	19.916	3.626	0.381
81.501	122.715	80.014	19.995	104.312	19.917	3.533	0.367
82.001	122.891	80.014	19.996	104.316	19.919	3.392	0.303
82.501	123.052	80.013	19.994	104.320	19.921	3.244	0.314
83.001	123.233	80.013	19.995	104.322	19.922	3.147	0.339
83.500	123.405	80.014	19.994	104.325	19.919	3.404	0.347
84.000	123.569	80.013	19.994	104.329	19.915	3.659	0.344
84.499	123.763	80.012	19.993	104.329	19.919	3.360	0.347
85.000	123.898	80.011	19.994	104.329	19.917	3.543	0.344
85.501	124.132	80.011	19.994	104.329	19.919	3.366	0.349
86.001	124.292	80.012	19.995	104.327	19.918	3.450	0.381
86.501	124.480	80.012	19.993	104.326	19.921	3.284	0.371
87.001	124.625	80.012	19.994	104.325	19.917	3.546	0.340
87.501	124.792	80.011	19.994	104.323	19.918	3.468	0.322
88.001	124.957	80.012	19.994	104.324	19.920	3.300	0.322
88.501	125.149	80.011	19.995	104.324	19.919	3.417	0.345
89.000	125.362	80.012	19.994	104.326	19.916	3.604	0.381
89.499	125.561	80.011	19.994	104.327	19.918	3.453	0.408
89.999	125.729	80.011	19.994	104.326	19.914	3.759	0.390
90.499	125.904	80.013	19.994	104.322	19.916	3.619	0.355
90.999	126.092	80.013	19.996	104.320	19.914	3.730	0.353
91.499	126.275	80.010	19.994	104.314	19.914	3.728	0.367
91.999	126.471	80.012	19.994	104.308	19.916	3.630	0.374
92.500	126.641	80.011	19.994	104.306	19.912	3.872	0.372
93.001	126.820	80.012	19.994	104.307	19.914	3.751	0.358
93.501	127.001	80.012	19.995	104.308	19.915	3.702	0.355
94.001	127.215	80.011	19.995	104.313	19.915	3.687	0.377
94.501	127.406	80.011	19.994	104.310	19.917	3.549	0.400
95.001	127.560	80.011	19.995	104.286	19.914	3.761	0.375
95.501	127.737	80.011	19.995	104.270	19.914	3.722	0.338
96.000	127.983	80.010	19.994	104.265	19.913	3.839	0.377
96.499	128.170	80.010	19.995	104.265	19.916	3.617	0.428
96.999	128.349	80.010	19.995	104.275	19.911	3.966	0.399
97.499	128.512	80.011	19.995	104.322	19.914	3.748	0.354
97.999	128.748	80.011	19.994	104.357	19.912	3.908	0.371
98.499	128.973	80.011	19.994	104.365	19.917	3.498	0.430
99.000	129.144	80.010	19.995	104.360	19.918	3.490	0.428
99.501	129.385	80.010	19.994	104.355	19.915	3.658	0.403
100.001	129.546	80.010	19.995	104.334	19.915	3.644	0.407
100.500	129.759	80.010	19.995	104.318	19.915	3.667	0.388
100.999	129.920	80.012	19.995	104.317	19.915	3.701	0.374
101.500	130.103	80.011	19.994	104.319	19.915	3.640	0.359
102.001	130.331	80.012	19.994	104.319	19.915	3.691	0.378
102.501	130.492	80.011	19.995	104.313	19.913	3.785	0.400
103.001	130.724	80.011	19.996	104.307	19.915	3.693	0.391
103.500	130.874	80.012	19.994	104.304	19.914	3.711	0.387
103.999	131.101	80.011	19.994	104.305	19.915	3.689	0.379
104.501	131.315	80.012	19.995	104.308	19.914	3.775	0.409
105.001	131.529	80.012	19.994	104.313	19.914	3.773	0.434
105.500	131.678	80.011	19.995	104.316	19.915	3.670	0.395
106.000	131.872	80.012	19.995	104.321	19.915	3.644	0.353
106.500	132.105	80.012	19.994	104.324	19.912	3.880	0.385
107.001	132.310	80.011	19.994	104.324	19.915	3.695	0.433
107.501	132.560	80.011	19.994	104.325	19.916	3.598	0.447
108.001	132.742	80.014	19.994	104.327	19.914	3.746	0.444
108.501	132.940	80.012	19.994	104.326	19.911	3.951	0.406
109.001	133.156	80.013	19.994	104.327	19.911	3.925	0.397
109.501	133.352	80.012	19.994	104.327	19.912	3.861	0.413
110.001	133.529	80.012	19.995	104.326	19.910	4.005	0.393
110.501	133.771	80.013	19.994	104.323	19.913	3.800	0.396
111.000	133.984	80.012	19.994	104.321	19.913	3.830	0.437
111.500	134.195	80.011	19.995	104.316	19.913	3.816	0.439
112.001	134.383	80.012	19.995	104.317	19.914	3.758	0.412
112.501	134.645	80.013	19.996	104.319	19.913	3.820	0.425
113.001	134.834	80.012	19.994	104.321	19.915	3.697	0.450
113.501	135.013	80.012	19.994	104.323	19.914	3.734	0.410
114.001	135.261	80.012	19.995	104.326	19.916	3.621	0.398
114.500	135.464	80.012	19.994	104.325	19.914	3.719	0.439
114.999	135.687	80.012	19.993	104.326	19.912	3.861	0.438
115.499	135.841	80.014	19.994	104.326	19.914	3.771	0.401
115.999	136.093	80.012	19.994	104.326	19.914	3.775	0.392
116.500	136.312	80.012	19.993	104.326	19.917	3.522	0.438
117.000	136.512	80.011	19.995	104.327	19.919	3.358	0.445
117.500	136.766	80.011	19.995	104.327	19.916	3.631	0.437
118.001	136.978	80.011	19.993	104.325	19.916	3.592	0.460
118.501	137.184	80.012	19.994	104.325	19.915	3.650	0.442
119.000	137.390	80.011	19.993	104.325	19.916	3.623	0.415
119.499	137.600	80.012	19.993	104.325	19.916	3.610	0.414
120.001	137.816	80.012	19.993	104.324	19.917	3.526	0.421
120.501	138.039	80.011	19.994	104.324	19.915	3.641	0.432
121.001	138.311	80.011	19.994	104.324	19.918	3.461	0.467
121.501	138.528	80.012	19.993	104.324	19.917	3.498	0.492
121.999	138.692	80.012	19.993	104.324	19.915	3.656	0.435
122.501	138.914	80.012	19.993	104.324	19.918	3.483	0.384
123.001	139.153	80.012	19.994	104.327	19.916	3.607	0.424
123.501	139.401	80.012	19.993	104.327	19.915	3.676	0.474
124.000	139.603	80.012	19.993	104.327	19.915	3.703	0.469
124.500	139.834	80.012	19.993	104.328	19.914	3.732	0.441
125.000	140.071	80.012	19.994	104.330	19.917	3.547	0.450
125.499	140.280	80.012	19.993	104.333	19.920	3.330	0.456
126.000	140.533	80.014	19.994	104.335	19.919	3.397	0.454
126.501	140.737	80.012	19.994	104.335	19.917	3.547	0.460
127.001	140.971	80.012	19.993	104.335	19.918	3.486	0.448
127.501	141.224	80.013	19.993	104.334	19.916	3.619	0.463
128.000	141.477	80.013	19.994	104.331	19.917	3.547	0.496
128.500	141.656	80.013	19.994	104.331	19.916	3.623	0.469
129.000	141.890	80.012	19.993	104.331	19.918	3.453	0.422
129.500	142.093	80.013	19.993	104.332	19.917	3.535	0.425
130.000	142.352	80.013	19.994	104.332	19.917	3.502	0.450
130.500	142.600	80.015	19.994	104.332	19.918	3.488	0.485
131.000	142.840	80.013	19.994	104.331	19.915	3.697	0.497
131.501	143.080	80.012	19.995	104.330	19.917	3.555	0.484
132.001	143.340	80.013	19.993	104.328	19.915	3.678	0.490
132.500	143.565	80.014	19.993	104.327	19.917	3.514	0.493
133.000	143.810	80.014	19.994	104.326	19.917	3.537	0.477
133.500	144.039	80.015	19.993	104.327	19.916	3.607	0.472
134.000	144.267	80.015	19.995	104.327	19.917	3.561	0.466
134.500	144.533	80.015	19.992	104.327	19.916	3.568	0.476
135.000	144.735	80.013	19.994	104.327	19.913	3.781	0.481
135.500	144.992	80.014	19.993	104.325	19.912	3.878	0.463
136.000	145.229	80.015	19.994	104.322	19.916	3.607	0.476
136.500	145.479	80.014	19.993	104.322	19.916	3.619	0.491
137.000	145.686	80.013	19.994	104.323	19.916	3.574	0.472
137.500	145.951	80.014	19.993	104.323	19.915	3.650	0.465
138.000	146.143	80.014	19.993	104.325	19.914	3.752	0.464
138.500	146.409	80.013	19.993	104.327	19.922	3.153	0.458
139.000	146.641	80.013	19.994	104.327	19.917	3.555	0.478
139.500	146.917	80.012	19.994	104.326	19.921	3.217	0.503
140.000	147.115	80.014	19.994	104.326	19.919	3.389	0.491
140.500	147.363	80.013	19.994	104.326	19.918	3.443	0.460
141.001	147.619	80.013	19.992	104.326	19.920	3.351	0.475
141.501	147.874	80.013	19.995	104.326	19.919	3.379	0.507
142.000	148.104	80.014	19.994	104.329	19.917	3.498	0.498
142.500	148.360	80.013	19.994	104.329	19.920	3.299	0.486
143.000	148.581	80.012	19.993	104.329	19.918	3.443	0.482
143.500	148.839	80.012	19.993	104.330	19.920	3.307	0.478
144.001	149.085	80.013	19.994	104.331	19.920	3.326	0.491
144.501	149.325	80.012	19.994	104.328	19.919	3.371	0.495
145.000	149.551	80.013	19.993	104.328	19.924	3.059	0.476
145.500	149.823	80.013	19.993	104.328	19.922	3.147	0.482
146.001	150.036	80.013	19.993	104.327	19.921	3.266	0.492
146.500	150.282	80.011	19.993	104.325	19.920	3.346	0.472
147.000	150.554	80.013	19.992	104.326	19.924	3.061	0.488
147.501	150.795	80.013	19.993	104.326	19.921	3.272	0.516
148.001	151.015	80.012	19.992	104.326	19.918	3.459	0.487
148.501	151.286	80.014	19.994	104.326	19.921	3.281	0.476
149.001	151.510	80.012	19.993	104.326	19.923	3.096	0.492
149.501	151.712	80.013	19.993	104.326	19.920	3.322	0.460
150.001	152.005	80.014	19.993	104.325	19.923	3.123	0.461
150.500	152.228	80.014	19.993	104.321	19.924	3.051	0.506
151.000	152.486	80.015	19.994	104.317	19.922	3.193	0.499
151.501	152.725	80.014	19.992	104.315	19.924	3.008	0.489
152.000	152.963	80.014	19.994	104.310	19.925	2.979	0.487
152.500	153.258	80.014	19.992	104.309	19.923	3.141	0.505
153.000	153.497	80.014	19.993	104.309	19.924	3.018	0.533
153.500	153.752	80.014	19.993	104.314	19.925	2.981	0.513
154.000	153.952	80.014	19.993	104.316	19.925	2.940	0.474
154.501	154.209	80.014	19.994	104.317	19.927	2.852	0.456
155.000	154.444	80.014	19.993	104.316	19.925	2.995	0.475
155.500	154.689	80.014	19.994	104.316	19.926	2.866	0.486
156.001	154.944	80.015	19.992	104.314	19.926	2.897	0.490
156.500	155.163	80.014	19.994	104.317	19.925	2.977	0.487
157.000	155.390	80.014	19.993	104.321	19.925	2.973	0.460
157.500	155.677	80.014	19.993	104.322	19.927	2.788	0.480
158.000	155.936	80.015	19.993	104.323	19.929	2.706	0.530
158.500	156.187	80.015	19.994	104.319	19.926	2.905	0.528
159.000	156.444	80.015	19.994	104.319	19.926	2.875	0.510
159.501	156.707	80.014	19.992	104.317	19.928	2.766	0.514
160.001	156.964	80.016	19.994	104.314	19.928	2.754	0.520
160.501	157.176	80.015	19.993	104.314	19.925	2.980	0.494
161.000	157.422	80.016	19.992	104.316	19.924	3.004	0.463
161.500	157.651	80.015	19.993	104.310	19.923	3.082	0.466
162.001	157.924	80.016	19.993	104.310	19.924	3.002	0.489
162.501	158.169	80.015	19.994	104.312	19.926	2.871	0.510
163.001	158.432	80.013	19.993	104.311	19.926	2.916	0.513
163.500	158.676	80.015	19.993	104.309	19.925	2.948	0.507
164.000	158.893	80.013	19.993	104.311	19.927	2.799	0.483
164.501	159.142	80.015	19.992	104.306	19.927	2.838	0.464
165.000	159.395	80.013	19.993	104.301	19.925	2.932	0.485
165.500	159.636	80.014	19.993	104.304	19.925	2.992	0.498
166.001	159.897	80.014	19.993	104.309	19.924	3.012	0.498
166.501	160.149	80.014	19.994	104.307	19.927	2.817	0.507
167.001	160.458	80.014	19.993	104.312	19.928	2.760	0.536
167.501	160.706	80.013	19.994	104.317	19.926	2.902	0.559
168.001	160.920	80.012	19.995	104.314	19.928	2.756	0.510
168.501	161.170	80.013	19.994	104.312	19.929	2.710	0.463
169.000	161.421	80.012	19.994	104.311	19.927	2.827	0.483
169.500	161.673	80.011	19.994	104.307	19.928	2.720	0.502
170.000	161.946	80.011	19.994	104.301	19.929	2.681	0.514
170.500	162.188	80.012	19.994	104.298	19.930	2.626	0.520
171.000	162.427	80.011	19.994	104.293	19.929	2.653	0.498
171.500	162.702	80.012	19.994	104.292	19.930	2.618	0.497
172.000	162.898	80.012	19.994	104.293	19.931	2.567	0.492
172.500	163.209	80.012	19.994	104.294	19.928	2.766	0.489
173.000	163.403	80.011	19.994	104.294	19.931	2.548	0.506
173.500	163.649	80.010	19.994	104.295	19.930	2.583	0.473
174.000	163.926	80.011	19.994	104.298	19.932	2.476	0.482
174.500	164.161	80.011	19.994	104.300	19.930	2.577	0.517
175.001	164.416	80.012	19.994	104.299	19.931	2.540	0.501
175.501	164.688	80.012	19.994	104.299	19.928	2.737	0.509
176.001	164.899	80.012	19.994	104.298	19.931	2.507	0.505
176.501	165.181	80.012	19.994	104.294	19.929	2.715	0.488
177.001	165.432	80.012	19.994	104.290	19.928	2.786	0.513
177.500	165.649	80.011	19.993	104.290	19.928	2.770	0.500
178.000	165.954	80.011	19.994	104.289	19.932	2.454	0.495
178.501	166.186	80.010	19.994	104.291	19.930	2.597	0.530
179.001	166.385	80.011	19.994	104.297	19.927	2.797	0.484
179.501	166.654	80.012	19.993	104.300	19.929	2.645	0.449
180.001	166.876	80.012	19.994	104.303	19.927	2.852	0.480
180.500	167.145	80.012	19.994	104.304	19.929	2.665	0.491
181.000	167.424	80.013	19.993	104.303	19.926	2.926	0.520
181.501	167.640	80.011	19.994	104.297	19.925	2.934	0.521
182.001	167.834	80.011	19.993	104.295	19.929	2.678	0.452
182.501	168.150	80.012	19.994	104.298	19.930	2.620	0.460
183.000	168.396	80.012	19.994	104.301	19.928	2.725	0.536
183.501	168.590	80.012	19.995	104.301	19.928	2.743	0.501
184.001	168.900	80.012	19.993	104.301	19.927	2.842	0.472
184.500	169.160	80.013	19.993	104.301	19.928	2.766	0.537
185.000	169.372	80.011	19.994	104.294	19.927	2.789	0.521
185.500	169.633	80.012	19.994	104.291	19.926	2.910	0.473
186.000	169.896	80.011	19.995	104.291	19.928	2.746	0.499
186.500	170.137	80.012	19.994	104.291	19.926	2.914	0.513
187.000	170.394	80.013	19.994	104.291	19.930	2.608	0.501
187.500	170.605	80.012	19.994	104.291	19.927	2.809	0.483
188.000	170.881	80.012	19.994	104.293	19.925	2.955	0.478
188.500	171.108	80.011	19.994	104.294	19.926	2.918	0.495
189.000	171.361	80.012	19.994	104.295	19.927	2.815	0.491
189.500	171.561	80.012	19.993	104.295	19.925	2.967	0.466
190.000	171.877	80.012	19.994	104.296	19.924	3.019	0.484
190.500	172.058	80.014	19.994	104.293	19.929	2.713	0.506
191.000	172.329	80.011	19.994	104.291	19.927	2.813	0.475
191.500	172.560	80.012	19.994	104.289	19.925	2.984	0.478
192.000	172.810	80.011	19.994	104.290	19.926	2.893	0.492
192.500	173.089	80.011	19.994	104.291	19.930	2.629	0.504
193.000	173.336	80.011	19.994	104.293	19.926	2.889	0.527
193.500	173.566	80.011	19.993	104.294	19.925	2.941	0.502
194.000	173.815	80.012	19.995	104.295	19.927	2.811	0.478
194.500	174.072	80.012	19.994	104.295	19.926	2.873	0.492
195.000	174.309	80.012	19.994	104.292	19.926	2.861	0.500
195.500	174.483	80.013	19.994	104.290	19.927	2.791	0.452
196.000	174.781	80.012	19.994	104.288	19.927	2.854	0.442
196.500	175.006	80.012	19.995	104.287	19.926	2.908	0.498
197.000	175.286	80.012	19.995	104.287	19.927	2.848	0.514
197.500	175.522	80.012	19.996	104.287	19.925	2.984	0.511
198.000	175.757	80.011	19.994	104.288	19.927	2.789	0.494
198.500	175.969	80.011	19.994	104.288	19.927	2.838	0.459
199.000	176.235	80.010	19.994	104.288	19.929	2.672	0.462
199.500	176.498	80.011	19.995	104.288	19.930	2.592	0.504
200.000	176.738	80.010	19.995	104.287	19.928	2.737	0.516
200.500	176.990	80.012	19.993	104.287	19.929	2.655	0.497
201.000	177.185	80.010	19.994	104.287	19.929	2.706	0.469
201.500	177.448	80.011	19.996	104.287	19.930	2.606	0.453
202.000	177.722	80.012	19.995	104.287	19.928	2.729	0.498
202.500	177.945	80.010	19.996	104.288	19.930	2.575	0.516
203.000	178.179	80.011	19.995	104.287	19.930	2.624	0.477
203.500	178.428	80.011	19.995	104.287	19.930	2.583	0.470
204.000	178.705	80.010	19.994	104.287	19.929	2.684	0.505
204.500	178.920	80.011	19.996	104.288	19.926	2.873	0.509
205.000	179.186	80.010	19.994	104.289	19.926	2.885	0.486
205.500	179.385	80.011	19.995	104.290	19.929	2.700	0.473
206.000	179.687	80.011	19.995	104.290	19.927	2.828	0.484
206.500	179.907	80.011	19.995	104.290	19.928	2.743	0.512
207.000	180.181	80.011	19.995	104.289	19.930	2.618	0.508
207.500	180.380	80.012	19.995	104.287	19.929	2.674	0.483
208.000	180.604	80.011	19.994	104.287	19.930	2.639	0.448
208.500	180.873	80.012	19.994	104.287	19.930	2.628	0.458
209.000	181.108	80.012	19.994	104.287	19.926	2.873	0.498
209.500	181.350	80.012	19.994	104.287	19.931	2.534	0.491
210.000	181.576	80.012	19.993	104.289	19.931	2.546	0.473
210.500	181.871	80.012	19.994	104.289	19.929	2.696	0.495
211.000	182.122	80.012	19.993	104.289	19.927	2.801	0.534
211.500	182.318	80.012	19.993	104.289	19.929	2.682	0.496
212.000	182.580	80.011	19.993	104.289	19.930	2.590	0.452
212.500	182.833	80.012	19.994	104.288	19.929	2.674	0.487
213.000	183.032	80.011	19.994	104.287	19.928	2.756	0.483
213.500	183.310	80.011	19.993	104.286	19.931	2.561	0.465
214.000	183.575	80.012	19.993	104.287	19.928	2.758	0.510
214.500	183.811	80.011	19.993	104.283	19.932	2.499	0.522
215.000	184.057	80.012	19.993	104.282	19.933	2.368	0.491
215.500	184.285	80.013	19.994	104.284	19.929	2.665	0.479
216.000	184.557	80.013	19.993	104.285	19.929	2.655	0.487
216.500	184.839	80.013	19.993	104.285	19.930	2.637	0.527
217.000	185.063	80.012	19.994	104.290	19.930	2.624	0.530
217.500	185.280	80.012	19.993	104.291	19.930	2.620	0.473
218.000	185.564	80.013	19.993	104.290	19.928	2.762	0.471
218.500	185.802	80.014	19.993	104.288	19.931	2.542	0.512
219.000	186.016	80.014	19.993	104.287	19.928	2.756	0.487
219.500	186.264	80.013	19.993	104.287	19.932	2.497	0.457
220.000	186.543	80.013	19.994	104.286	19.933	2.405	0.495
220.500	186.803	80.013	19.992	104.287	19.929	2.701	0.533
221.000	187.010	80.013	19.993	104.289	19.931	2.567	0.503
221.500	187.302	80.013	19.993	104.290	19.929	2.678	0.483
222.001	187.547	80.012	19.992	104.290	19.929	2.682	0.518
222.500	187.774	80.012	19.993	104.290	19.931	2.507	0.505
223.000	188.039	80.015	19.993	104.287	19.928	2.746	0.482
223.500	188.284	80.013	19.994	104.287	19.929	2.713	0.501
224.000	188.566	80.012	19.993	104.287	19.929	2.680	0.519
224.500	188.756	80.011	19.993	104.287	19.930	2.583	0.500
225.000	188.997	80.013	19.993	104.288	19.928	2.744	0.451
225.500	189.202	80.013	19.994	104.291	19.930	2.614	0.438
226.000	189.481	80.012	19.993	104.290	19.927	2.793	0.465
226.500	189.758	80.012	19.994	104.290	19.929	2.687	0.520
227.000	189.988	80.013	19.993	104.290	19.929	2.685	0.532
227.500	190.231	80.013	19.993	104.290	19.932	2.452	0.490
228.000	190.467	80.013	19.993	104.290	19.931	2.555	0.476
228.500	190.740	80.013	19.994	104.288	19.932	2.497	0.494
229.000	191.013	80.012	19.994	104.288	19.930	2.615	0.527
229.500	191.222	80.013	19.993	104.287	19.928	2.732	0.514
230.000	191.443	80.012	19.993	104.286	19.930	2.621	0.456
230.500	191.677	80.012	19.994	104.280	19.930	2.590	0.443
231.000	191.921	80.013	19.993	104.279	19.929	2.674	0.467
231.500	192.193	80.012	19.993	104.275	19.928	2.738	0.497
232.000	192.451	80.012	19.992	104.275	19.928	2.742	0.523
232.500	192.697	80.012	19.994	104.277	19.931	2.516	0.518
233.000	192.956	80.012	19.993	104.284	19.931	2.569	0.505
233.500	193.184	80.013	19.993	104.286	19.931	2.522	0.495
234.000	193.489	80.012	19.994	104.284	19.927	2.804	0.510
234.500	193.704	80.012	19.993	104.283	19.931	2.571	0.527
235.000	193.960	80.013	19.993	104.283	19.929	2.703	0.496
235.500	194.154	80.012	19.994	104.283	19.929	2.645	0.460
236.000	194.421	80.013	19.993	104.279	19.931	2.551	0.455
236.500	194.653	80.013	19.992	104.280	19.933	2.425	0.480
237.000	194.884	80.013	19.994	104.275	19.931	2.513	0.481
237.500	195.089	80.014	19.993	104.270	19.929	2.655	0.450
238.000	195.395	80.013	19.995	104.266	19.931	2.557	0.474
238.500	195.632	80.013	19.993	104.267	19.932	2.470	0.527
239.000	195.838	80.013	19.993	104.268	19.932	2.466	0.493
239.500	196.114	80.013	19.993	104.272	19.934	2.298	0.462
240.000	196.331	80.014	19.993	104.271	19.932	2.452	0.488
240.500	196.605	80.014	19.993	104.267	19.932	2.485	0.492
241.000	196.858	80.015	19.993	104.270	19.932	2.487	0.509
241.500	197.102	80.015	19.994	104.272	19.930	2.621	0.512
242.000	197.334	80.015	19.993	104.275	19.930	2.579	0.487
242.500	197.558	80.015	19.993	104.279	19.933	2.395	0.466
243.000	197.797	80.015	19.993	104.280	19.934	2.349	0.460
243.500	198.031	80.016	19.994	104.276	19.928	2.721	0.468
244.000	198.272	80.015	19.993	104.273	19.931	2.534	0.474
244.500	198.558	80.015	19.993	104.271	19.933	2.362	0.501
245.000	198.771	80.015	19.994	104.272	19.929	2.647	0.513
245.500	199.005	80.015	19.994	104.276	19.930	2.575	0.473
246.000	199.270	80.015	19.992	104.282	19.929	2.647	0.473
246.500	199.515	80.015	19.994	104.283	19.930	2.579	0.505
247.000	199.765	80.016	19.993	104.286	19.928	2.717	0.503
247.500	200.006	80.014	19.993	104.286	19.930	2.602	0.493
248.000	200.248	80.015	19.993	104.288	19.930	2.639	0.487
248.500	200.528	80.014	19.993	104.288	19.928	2.750	0.503
249.000	200.743	80.014	19.993	104.288	19.930	2.580	0.508
249.500	200.952	80.014	19.993	104.289	19.929	2.660	0.460
250.000	201.232	80.015	19.992	104.289	19.929	2.676	0.457
250.500	201.443	80.015	19.994	104.285	19.930	2.629	0.490
251.000	201.716	80.015	19.994	104.280	19.929	2.678	0.487
251.500	201.997	80.013	19.993	104.277	19.930	2.602	0.519
252.000	202.267	80.014	19.993	104.274	19.927	2.805	0.553
252.500	202.501	80.014	19.992	104.274	19.929	2.697	0.527
253.000	202.758	80.013	19.993	104.277	19.926	2.879	0.497
253.500	203.018	80.013	19.994	104.282	19.927	2.830	0.504
254.000	203.257	80.012	19.993	104.284	19.925	2.990	0.508
254.500	203.480	80.013	19.994	104.285	19.928	2.744	0.481
255.000	203.717	80.013	19.995	104.284	19.925	2.961	0.461
255.500	203.995	80.012	19.994	104.283	19.926	2.898	0.487
256.000	204.229	80.013	19.994	104.283	19.928	2.752	0.514
256.500	204.446	80.013	19.994	104.285	19.929	2.676	0.481
257.000	204.726	80.012	19.993	104.287	19.931	2.512	0.474
257.500	204.954	80.013	19.994	104.289	19.928	2.740	0.502
258.000	205.198	80.012	19.993	104.285	19.928	2.772	0.490
258.500	205.474	80.013	19.994	104.279	19.932	2.468	0.496
259.000	205.741	80.011	19.994	104.275	19.929	2.645	0.532
259.500	205.980	80.012	19.994	104.269	19.928	2.736	0.524
260.000	206.220	80.011	19.994	104.266	19.928	2.727	0.493
260.500	206.476	80.012	19.994	104.269	19.928	2.744	0.488
261.000	206.716	80.009	19.994	104.274	19.928	2.738	0.496
261.500	206.977	80.012	19.995	104.274	19.925	2.931	0.498
262.000	207.239	80.012	19.995	104.280	19.927	2.847	0.512
262.500	207.494	80.011	19.994	104.283	19.926	2.861	0.520
263.000	207.730	80.012	19.993	104.282	19.925	2.982	0.504
263.500	207.963	80.012	19.994	104.278	19.927	2.795	0.480
264.000	208.227	80.012	19.994	104.283	19.928	2.728	0.483
264.500	208.505	80.013	19.994	104.281	19.926	2.925	0.519
265.000	208.735	80.010	19.994	104.276	19.928	2.785	0.525
265.500	208.966	80.012	19.994	104.274	19.925	2.941	0.485
266.000	209.205	80.013	19.994	104.277	19.931	2.571	0.465
266.500	209.450	80.011	19.994	104.276	19.930	2.613	0.477
267.000	209.727	80.011	19.995	104.274	19.930	2.608	0.503
267.500	209.955	80.012	19.994	104.279	19.928	2.775	0.513
268.000	210.198	80.011	19.995	104.282	19.928	2.719	0.488
268.500	210.479	80.011	19.994	104.282	19.927	2.814	0.498
269.000	210.734	80.011	19.994	104.281	19.928	2.728	0.530
269.500	210.971	80.012	19.994	104.282	19.930	2.606	0.514
270.000	211.224	80.012	19.996	104.283	19.931	2.553	0.491
270.500	211.492	80.011	19.995	104.280	19.928	2.750	0.505
271.000	211.710	80.012	19.995	104.276	19.927	2.820	0.503
271.500	211.995	80.011	19.996	104.273	19.929	2.697	0.494
272.000	212.244	80.011	19.995	104.271	19.930	2.635	0.518
272.500	212.508	80.013	19.994	104.270	19.930	2.586	0.524
273.000	212.751	80.012	19.995	104.268	19.930	2.574	0.511
273.500	213.005	80.012	19.995	104.267	19.930	2.600	0.502
274.000	213.240	80.013	19.995	104.268	19.928	2.754	0.493
274.500	213.472	80.012	19.994	104.269	19.929	2.701	0.478
275.000	213.777	80.013	19.994	104.269	19.929	2.711	0.502
275.500	214.006	80.011	19.994	104.268	19.928	2.766	0.536
276.000	214.252	80.013	19.995	104.267	19.927	2.797	0.505
276.500	214.474	80.013	19.994	104.269	19.926	2.912	0.471
277.000	214.710	80.013	19.994	104.271	19.926	2.857	0.462
277.500	214.988	80.011	19.994	104.270	19.926	2.884	0.486
278.000	215.227	80.012	19.994	104.270	19.925	2.997	0.516
278.500	215.439	80.012	19.994	104.272	19.928	2.775	0.484
279.000	215.763	80.012	19.994	104.265	19.923	3.079	0.493
279.500	215.985	80.012	19.994	104.258	19.923	3.124	0.541
280.000	216.217	80.012	19.994	104.260	19.923	3.138	0.500
280.500	216.507	80.012	19.993	104.265	19.927	2.837	0.488
281.000	216.791	80.012	19.994	104.269	19.926	2.927	0.548
281.500	217.014	80.012	19.994	104.273	19.927	2.855	0.540
282.000	217.283	80.012	19.994	104.273	19.923	3.128	0.500
282.500	217.539	80.011	19.994	104.269	19.922	3.192	0.509
283.000	217.754	80.012	19.994	104.267	19.926	2.921	0.499
283.501	218.008	80.012	19.993	104.263	19.923	3.071	0.470
284.001	218.273	80.011	19.994	104.259	19.923	3.071	0.494
284.500	218.550	80.011	19.993	104.260	19.922	3.196	0.530
285.000	218.796	80.011	19.993	104.264	19.922	3.165	0.532
285.500	218.998	80.011	19.994	104.267	19.925	2.954	0.486
286.000	219.279	80.010	19.994	104.273	19.923	3.138	0.466
286.500	219.504	80.009	19.995	104.277	19.919	3.368	0.494
287.000	219.780	80.010	19.994	104.277	19.921	3.243	0.503
287.500	220.008	80.011	19.995	104.271	19.922	3.175	0.502
288.000	220.234	80.010	19.995	104.269	19.919	3.362	0.479
288.500	220.520	80.010	19.994	104.264	19.919	3.393	0.483
289.000	220.729	80.010	19.994	104.266	19.921	3.251	0.504
289.500	220.957	80.011	19.995	104.269	19.920	3.297	0.466
290.000	221.258	80.010	19.994	104.272	19.921	3.221	0.483
290.500	221.483	80.011	19.994	104.269	19.918	3.494	0.527
291.000	221.726	80.011	19.994	104.267	19.920	3.289	0.497
291.500	221.972	80.011	19.995	104.262	19.919	3.412	0.479
292.000	222.204	80.010	19.995	104.260	19.917	3.529	0.484
292.500	222.440	80.011	19.996	104.258	19.917	3.558	0.473
293.000	222.714	80.010	19.995	104.262	19.920	3.326	0.488
293.500	222.979	80.010	19.996	104.262	19.917	3.547	0.525
294.000	223.215	80.011	19.996	104.261	19.919	3.387	0.520
294.500	223.453	80.010	19.996	104.261	19.918	3.430	0.488
295.000	223.724	80.011	19.995	104.260	19.917	3.502	0.492
295.500	223.957	80.011	19.994	104.259	19.915	3.648	0.506
296.000	224.177	80.010	19.994	104.261	19.918	3.481	0.478
296.500	224.427	80.010	19.995	104.262	19.917	3.524	0.461
297.000	224.678	80.011	19.995	104.266	19.916	3.615	0.486
297.500	224.933	80.011	19.995	104.266	19.917	3.543	0.504
298.000	225.183	80.011	19.994	104.268	19.919	3.376	0.505
298.500	225.401	80.011	19.995	104.269	19.913	3.797	0.487
299.000	225.671	80.011	19.995	104.268	19.914	3.757	0.478
299.500	225.921	80.012	19.995	104.265	19.912	3.859	0.504
300.000	226.134	80.012	19.995	104.264	19.913	3.828	0.491
300.500	226.388	80.011	19.995	104.261	19.913	3.810	0.465
301.000	226.638	80.012	19.994	104.257	19.911	3.956	0.485
301.500	226.891	80.012	19.995	104.259	19.912	3.861	0.503
302.000	227.106	80.011	19.994	104.259	19.913	3.838	0.486
302.500	227.379	80.012	19.994	104.259	19.914	3.725	0.478
303.000	227.619	80.011	19.996	104.260	19.914	3.750	0.500
303.500	227.879	80.012	19.994	104.260	19.914	3.763	0.507
304.000	228.134	80.011	19.994	104.262	19.914	3.767	0.508
304.500	228.385	80.013	19.994	104.261	19.912	3.873	0.511
305.000	228.609	80.012	19.994	104.261	19.911	3.976	0.490
305.500	228.887	80.012	19.994	104.263	19.912	3.865	0.488
306.000	229.155	80.012	19.996	104.267	19.911	3.924	0.524
306.500	229.347	80.011	19.995	104.265	19.915	3.678	0.503
307.000	229.634	80.012	19.994	104.267	19.909	4.082	0.469
307.500	229.884	80.012	19.995	104.270	19.911	3.951	0.508
308.000	230.136	80.012	19.994	104.272	19.909	4.078	0.519
308.500	230.397	80.011	19.993	104.272	19.908	4.148	0.508
309.000	230.649	80.012	19.994	104.274	19.909	4.126	0.513
309.500	230.880	80.014	19.994	104.275	19.907	4.245	0.498
310.000	231.111	80.012	19.994	104.270	19.907	4.263	0.473
310.500	231.372	80.012	19.993	104.267	19.904	4.452	0.477
311.000	231.623	80.012	19.993	104.269	19.905	4.358	0.502
311.500	231.878	80.012	19.992	104.270	19.903	4.532	0.509
312.000	232.100	80.013	19.993	104.273	19.903	4.547	0.491
312.500	232.328	80.012	19.994	104.276	19.902	4.600	0.463
313.000	232.572	80.012	19.994	104.277	19.903	4.524	0.461
313.500	232.863	80.011	19.992	104.276	19.906	4.319	0.503
314.001	233.086	80.013	19.993	104.277	19.905	4.378	0.524
314.501	233.338	80.013	19.993	104.275	19.903	4.516	0.495
315.000	233.593	80.012	19.993	104.278	19.902	4.559	0.491
315.500	233.853	80.012	19.994	104.281	19.901	4.692	0.511
316.000	234.083	80.012	19.994	104.282	19.902	4.622	0.503
316.500	234.360	80.013	19.993	104.284	19.899	4.809	0.498
317.000	234.568	80.012	19.994	104.286	19.897	4.937	0.496
317.500	234.886	80.014	19.995	104.287	19.897	4.918	0.506
318.000	235.092	80.014	19.994	104.288	19.902	4.577	0.525
318.500	235.345	80.014	19.994	104.287	19.899	4.799	0.491
319.000	235.611	80.014	19.994	104.284	19.895	5.062	0.490
319.500	235.866	80.013	19.994	104.283	19.898	4.854	0.520
320.000	236.092	80.014	19.993	104.283	19.899	4.795	0.501
320.500	236.343	80.015	19.993	104.282	19.898	4.881	0.479
321.000	236.581	80.012	19.992	104.283	19.895	5.084	0.483
321.500	236.877	80.015	19.995	104.285	19.894	5.148	0.511
322.000	237.091	80.014	19.994	104.285	19.890	5.429	0.522
322.500	237.292	80.013	19.995	104.285	19.894	5.160	0.463
323.000	237.540	80.015	19.994	104.287	19.891	5.374	0.432
323.500	237.795	80.014	19.993	104.286	19.889	5.503	0.476
324.000	238.111	80.013	19.995	104.286	19.892	5.306	0.537
324.500	238.298	80.014	19.993	104.288	19.888	5.575	0.537
325.000	238.566	80.014	19.994	104.287	19.887	5.635	0.479
325.500	238.778	80.015	19.993	104.287	19.888	5.610	0.467
326.000	239.025	80.015	19.993	104.287	19.884	5.838	0.469
326.500	239.281	80.015	19.993	104.288	19.885	5.788	0.480
327.000	239.521	80.015	19.993	104.287	19.886	5.751	0.500
327.500	239.807	80.016	19.994	104.287	19.885	5.796	0.511
328.000	240.066	80.015	19.994	104.288	19.884	5.895	0.536
328.500	240.293	80.016	19.993	104.287	19.879	6.233	0.516
329.000	240.519	80.015	19.994	104.287	19.879	6.258	0.470
329.500	240.706	80.016	19.994	104.287	19.878	6.307	0.433
330.000	241.032	80.015	19.993	104.287	19.878	6.269	0.463
330.500	241.233	80.015	19.993	104.287	19.878	6.327	0.520
331.000	241.538	80.016	19.993	104.288	19.876	6.432	0.517
331.500	241.739	80.015	19.994	104.287	19.875	6.545	0.506
332.000	242.023	80.015	19.994	104.288	19.875	6.495	0.496
332.500	242.277	80.016	19.995	104.289	19.875	6.491	0.511
333.000	242.466	80.014	19.993	104.292	19.871	6.828	0.490
333.500	242.734	80.016	19.993	104.292	19.867	7.047	0.450
334.000	243.000	80.015	19.993	104.293	19.868	7.016	0.495
334.500	243.287	80.015	19.994	104.294	19.866	7.178	0.544
335.000	243.490	80.015	19.994	104.296	19.866	7.170	0.522
335.500	243.704	80.016	19.993	104.292	19.867	7.090	0.454
336.001	244.010	80.015	19.994	104.292	19.862	7.465	0.468
336.501	244.239	80.016	19.994	104.291	19.861	7.480	0.527
337.000	244.459	80.013	19.995	104.296	19.859	7.658	0.492
337.500	244.722	80.012	19.994	104.295	19.859	7.644	0.466
338.000	244.967	80.013	19.993	104.296	19.857	7.802	0.496
338.500	245.210	80.013	19.994	104.300	19.853	8.095	0.498
339.000	245.460	80.014	19.994	104.307	19.851	8.235	0.490
339.501	245.698	80.013	19.995	104.306	19.849	8.327	0.490
340.001	245.981	80.013	19.993	104.312	19.851	8.206	0.504
340.500	246.172	80.014	19.994	104.317	19.850	8.292	0.497
341.000	246.459	80.013	19.994	104.320	19.847	8.495	0.477
341.500	246.718	80.012	19.993	104.319	19.845	8.645	0.512
342.000	246.960	80.011	19.993	104.319	19.842	8.841	0.523
342.500	247.193	80.014	19.993	104.319	19.837	9.227	0.488
343.000	247.467	80.013	19.993	104.320	19.835	9.336	0.491
343.500	247.685	80.013	19.995	104.318	19.833	9.500	0.499
344.000	247.971	80.013	19.994	104.321	19.832	9.535	0.498
344.501	248.223	80.013	19.994	104.324	19.833	9.508	0.521
345.000	248.455	80.013	19.994	104.325	19.830	9.694	0.511
345.500	248.721	80.013	19.993	104.326	19.827	9.938	0.491
346.000	248.998	80.013	19.993	104.330	19.825	10.028	0.521
346.500	249.251	80.013	19.993	104.330	19.825	10.079	0.536
347.000	249.481	80.013	19.993	104.330	19.821	10.315	0.506
347.500	249.766	80.013	19.994	104.330	19.817	10.604	0.499
348.000	249.992	80.013	19.994	104.332	19.814	10.832	0.513
348.500	250.279	80.013	19.993	104.332	19.814	10.874	0.513
349.001	250.539	80.013	19.994	104.332	19.813	10.939	0.530
349.501	250.789	80.013	19.995	104.332	19.805	11.444	0.528
350.000	251.028	80.013	19.993	104.333	19.802	11.661	0.499
350.500	251.334	80.012	19.993	104.333	19.802	11.698	0.517
351.000	251.535	80.014	19.993	104.336	19.797	12.077	0.526
351.500	251.805	80.013	19.993	104.337	19.795	12.191	0.489
352.000	252.040	80.013	19.995	104.341	19.793	12.355	0.488
352.500	252.363	80.013	19.993	104.342	19.785	12.874	0.531
353.000	252.578	80.013	19.993	104.346	19.785	12.886	0.548
353.500	252.796	80.013	19.993	104.344	19.780	13.274	0.486
354.000	253.091	80.013	19.994	104.345	19.777	13.471	0.473
354.500	253.332	80.013	19.994	104.344	19.776	13.538	0.524
355.000	253.599	80.012	19.994	104.349	19.772	13.840	0.522
355.500	253.857	80.012	19.993	104.347	19.770	13.958	0.517
356.000	254.096	80.013	19.994	104.352	19.767	14.177	0.511
356.500	254.361	80.013	19.993	104.358	19.762	14.522	0.501
357.000	254.600	80.012	19.994	104.361	19.762	14.522	0.504
357.500	254.858	80.013	19.993	104.362	19.758	14.852	0.500
358.000	255.141	80.013	19.994	104.365	19.749	15.428	0.519
358.500	255.358	80.013	19.994	104.364	19.748	15.548	0.520
359.000	255.625	80.014	19.994	104.364	19.746	15.638	0.492
359.500	255.864	80.014	19.994	104.360	19.741	16.002	0.495
360.000	256.170	80.013	19.994	104.360	19.736	16.389	0.526
360.500	256.391	80.013	19.993	104.362	19.737	16.336	0.536
361.000	256.625	80.012	19.993	104.364	19.733	16.599	0.491
361.500	256.881	80.012	19.994	104.364	19.727	17.038	0.473
362.000	257.131	80.012	19.994	104.369	19.723	17.271	0.498
362.500	257.380	80.014	19.994	104.373	19.718	17.691	0.503
363.000	257.659	80.014	19.994	104.378	19.717	17.721	0.513
363.500	257.919	80.013	19.994	104.378	19.707	18.418	0.533
364.000	258.165	80.013	19.994	104.378	19.707	18.441	0.522
364.500	258.402	80.013	19.994	104.378	19.702	18.812	0.494
365.000	258.653	80.012	19.995	104.379	19.696	19.206	0.486
365.500	258.851	80.013	19.994	104.380	19.692	19.495	0.469
366.000	259.163	80.012	19.995	104.380	19.690	19.641	0.479
366.500	259.384	80.012	19.994	104.386	19.687	19.889	0.521
367.000	259.666	80.011	19.994	104.390	19.681	20.275	0.518
367.500	259.882	80.012	19.994	104.387	19.673	20.839	0.501
368.000	260.127	80.011	19.995	104.388	19.672	20.931	0.480
368.500	260.391	80.011	19.993	104.392	19.666	21.372	0.485
369.000	260.655	80.011	19.995	104.394	19.663	21.569	0.518
369.500	260.894	80.010	19.992	104.398	19.655	22.108	0.515
370.000	261.121	80.011	19.994	104.401	19.655	22.098	0.484
370.500	261.351	80.010	19.993	104.399	19.650	22.512	0.461
371.000	261.638	80.010	19.995	104.398	19.648	22.621	0.487
371.500	261.849	80.012	19.994	104.395	19.639	23.273	0.508
372.000	262.113	80.011	19.994	104.395	19.637	23.433	0.486
372.500	262.338	80.012	19.994	104.397	19.636	23.490	0.482
373.000	262.652	80.012	19.994	104.401	19.627	24.146	0.514
373.500	262.874	80.013	19.993	104.403	19.621	24.535	0.538
374.000	263.121	80.011	19.994	104.406	19.619	24.694	0.503
374.500	263.358	80.013	19.995	104.406	19.614	25.025	0.476
375.000	263.654	80.013	19.993	104.406	19.609	25.413	0.508
375.500	263.873	80.013	19.994	104.406	19.606	25.618	0.524
376.000	264.113	80.012	19.995	104.407	19.598	26.155	0.488
376.500	264.361	80.013	19.994	104.408	19.595	26.359	0.474
377.000	264.622	80.012	19.995	104.408	19.592	26.612	0.498
377.500	264.861	80.011	19.995	104.408	19.584	27.155	0.504
378.000	265.106	80.011	19.995	104.407	19.582	27.307	0.492
378.500	265.320	80.014	19.994	104.407	19.578	27.582	0.472
379.000	265.589	80.013	19.993	104.406	19.575	27.783	0.471
379.500	265.874	80.014	19.994	104.406	19.565	28.504	0.518
380.000	266.115	80.012	19.994	104.408	19.568	28.305	0.540
380.500	266.366	80.013	19.994	104.408	19.564	28.578	0.509
381.000	266.595	80.012	19.993	104.408	19.561	28.835	0.486
381.500	266.844	80.014	19.995	104.408	19.553	29.379	0.479
382.000	267.106	80.014	19.995	104.409	19.551	29.499	0.495
382.500	267.317	80.014	19.995	104.406	19.550	29.605	0.492
383.000	267.606	80.013	19.995	104.406	19.543	30.058	0.486
383.500	267.816	80.014	19.994	104.410	19.540	30.318	0.499
384.000	268.068	80.013	19.993	104.412	19.535	30.677	0.480
384.500	268.321	80.014	19.994	104.414	19.535	30.664	0.483
385.000	268.604	80.013	19.995	104.416	19.526	31.300	0.521
385.500	268.800	80.013	19.995	104.416	19.526	31.279	0.508
386.000	269.084	80.014	19.994	104.413	19.525	31.388	0.480
386.500	269.327	80.013	19.993	104.413	19.518	31.856	0.503
387.000	269.569	80.013	19.994	104.413	19.516	32.011	0.506
387.500	269.790	80.014	19.994	104.417	19.510	32.415	0.474
388.000	270.060	80.014	19.995	104.417	19.510	32.415	0.477
388.500	270.273	80.014	19.994	104.416	19.505	32.814	0.487
389.000	270.585	80.014	19.995	104.415	19.498	33.290	0.504
389.500	270.824	80.014	19.994	104.416	19.496	33.415	0.538
390.000	271.067	80.014	19.993	104.410	19.492	33.716	0.517
390.500	271.362	80.012	19.994	104.412	19.488	34.005	0.510
391.000	271.595	80.013	19.995	104.418	19.486	34.126	0.533
391.500	271.775	80.013	19.995	104.419	19.480	34.579	0.471
392.000	272.037	80.013	19.995	104.418	19.478	34.714	0.427
392.500	272.316	80.013	19.995	104.422	19.476	34.835	0.491
393.000	272.511	80.013	19.994	104.424	19.471	35.171	0.508
393.500	272.776	80.014	19.994	104.425	19.469	35.313	0.467
394.000	273.028	80.013	19.995	104.428	19.466	35.587	0.488
394.500	273.305	80.012	19.995	104.428	19.467	35.504	0.523
395.000	273.492	80.013	19.994	104.427	19.460	35.956	0.497
395.500	273.761	80.013	19.994	104.430	19.459	36.057	0.460
396.000	274.028	80.013	19.994	104.430	19.457	36.214	0.496
396.500	274.250	80.012	19.996	104.431	19.450	36.680	0.512
397.000	274.515	80.012	19.995	104.436	19.450	36.667	0.488
397.500	274.747	80.013	19.996	104.440	19.442	37.262	0.493
398.000	275.011	80.012	19.994	104.439	19.443	37.219	0.497
398.500	275.255	80.012	19.995	104.437	19.441	37.298	0.502
399.000	275.503	80.012	19.995	104.437	19.441	37.315	0.500
399.500	275.788	80.012	19.996	104.439	19.434	37.810	0.513
400.000	275.990	80.013	19.995	104.438	19.431	38.020	0.510
400.500	276.216	80.012	19.995	104.439	19.427	38.326	0.457
401.000	276.504	80.014	19.994	104.442	19.427	38.359	0.471
401.500	276.731	80.013	19.994	104.442	19.427	38.328	0.515
402.000	276.957	80.013	19.995	104.442	19.422	38.659	0.484
402.500	277.268	80.011	19.994	104.442	19.422	38.710	0.495
403.000	277.421	80.013	19.994	104.442	19.421	38.792	0.500
403.500	277.689	80.013	19.995	104.442	19.418	38.983	0.442
404.000	277.938	80.013	19.994	104.442	19.410	39.555	0.469
404.500	278.145	80.012	19.994	104.442	19.411	39.440	0.487
405.000	278.493	80.012	19.994	104.443	19.409	39.643	0.506
405.500	278.644	80.013	19.994	104.447	19.402	40.106	0.527
406.000	278.907	80.014	19.994	104.448	19.404	39.944	0.456
406.500	279.154	80.013	19.994	104.449	19.403	40.057	0.462
407.000	279.432	80.014	19.993	104.449	19.398	40.419	0.517
407.500	279.647	80.013	19.994	104.448	19.396	40.555	0.509
408.000	279.887	80.013	19.994	104.449	19.394	40.686	0.474
408.500	280.200	80.014	19.994	104.450	19.392	40.823	0.504
409.000	280.348	80.014	19.994	104.450	19.390	40.995	0.507
409.500	280.671	80.015	19.994	104.450	19.388	41.077	0.466
410.000	280.835	80.015	19.993	104.450	19.384	41.425	0.479
410.500	281.063	80.015	19.994	104.448	19.382	41.548	0.439
411.000	281.382	80.015	19.994	104.450	19.379	41.744	0.470
411.500	281.561	80.015	19.993	104.455	19.379	41.779	0.523
412.001	281.805	80.014	19.994	104.463	19.379	41.746	0.461
412.501	282.233	80.016	19.993	104.471	19.375	42.018	0.547
413.000	282.510	80.014	19.994	104.472	19.373	42.208	0.688
413.500	282.386	80.015	19.993	104.473	19.370	42.385	0.429
414.000	282.591	80.015	19.993	104.468	19.371	42.348	0.117
414.500	282.859	80.015	19.992	104.462	19.365	42.773	0.277
415.000	283.263	80.014	19.993	104.458	19.360	43.107	0.573
415.500	283.721	80.013	19.993	104.462	19.359	43.197	0.767
416.000	283.798	80.014	19.993	104.467	19.357	43.340	0.699
416.500	284.038	80.013	19.993	104.474	19.355	43.438	0.426
417.000	284.523	80.013	19.994	104.480	19.351	43.728	0.521
417.500	284.746	80.014	19.993	104.484	19.352	43.678	0.716
418.000	284.656	80.013	19.992	104.484	19.348	43.978	0.420
418.500	285.032	80.013	19.993	104.483	19.348	43.988	0.209
419.000	285.476	80.011	19.993	104.484	19.346	44.089	0.553
419.500	285.338	80.012	19.993	104.484	19.343	44.311	0.563
420.001	285.874	80.012	19.993	104.485	19.340	44.562	0.352
420.500	286.025	80.013	19.994	104.485	19.338	44.685	0.542
421.000	286.223	80.011	19.993	104.486	19.337	44.745	0.518
421.500	286.563	80.012	19.994	104.486	19.334	44.991	0.444
422.000	286.771	80.011	19.994	104.486	19.331	45.140	0.543
422.500	287.002	80.012	19.994	104.486	19.329	45.336	0.494
423.000	287.292	80.012	19.993	104.487	19.327	45.433	0.480
423.500	287.484	80.013	19.993	104.489	19.325	45.565	0.501
424.000	287.699	80.013	19.993	104.489	19.320	45.963	0.444
424.500	287.977	80.013	19.993	104.489	19.316	46.263	0.450
425.000	288.213	80.012	19.994	104.494	19.314	46.417	0.504
425.500	288.512	80.013	19.994	104.496	19.313	46.447	0.525
426.000	288.733	80.012	19.995	104.496	19.310	46.681	0.527
426.500	288.974	80.012	19.994	104.498	19.309	46.721	0.491
427.000	289.235	80.012	19.994	104.498	19.304	47.064	0.482
427.500	289.460	80.013	19.994	104.495	19.303	47.174	0.494
428.000	289.752	80.012	19.994	104.497	19.303	47.189	0.501
428.500	289.961	80.012	19.994	104.502	19.298	47.506	0.510
429.000	290.173	80.012	19.994	104.505	19.294	47.836	0.461
429.500	290.488	80.013	19.994	104.512	19.293	47.876	0.474
430.000	290.672	80.012	19.994	104.514	19.291	48.035	0.513
430.500	290.943	80.012	19.993	104.516	19.286	48.347	0.477
431.000	291.205	80.012	19.994	104.515	19.287	48.322	0.494
431.500	291.488	80.013	19.994	104.514	19.287	48.304	0.539
432.000	291.689	80.013	19.994	104.514	19.277	48.998	0.515
432.500	291.953	80.013	19.994	104.518	19.279	48.893	0.474
433.000	292.228	80.012	19.994	104.518	19.273	49.278	0.502
433.500	292.424	80.013	19.994	104.520	19.270	49.548	0.505
434.000	292.648	80.011	19.994	104.523	19.266	49.818	0.445
434.500	292.960	80.012	19.994	104.525	19.265	49.904	0.478
435.000	293.170	80.011	19.994	104.525	19.262	50.113	0.529
435.500	293.440	80.012	19.994	104.526	19.258	50.361	0.501
436.000	293.701	80.012	19.994	104.526	19.253	50.740	0.505
436.500	293.969	80.012	19.993	104.527	19.249	50.992	0.530
437.000	294.175	80.010	19.995	104.527	19.248	51.112	0.501
437.500	294.448	80.011	19.993	104.528	19.243	51.477	0.477
438.000	294.736	80.012	19.995	104.527	19.240	51.645	0.520
438.500	294.923	80.012	19.994	104.527	19.240	51.628	0.518
439.000	295.173	80.011	19.992	104.528	19.237	51.902	0.456
439.500	295.420	80.013	19.994	104.529	19.236	51.972	0.467
440.000	295.666	80.014	19.992	104.528	19.231	52.303	0.495
440.500	295.917	80.012	19.993	104.530	19.227	52.578	0.495
441.000	296.169	80.012	19.993	104.532	19.220	53.054	0.500
441.500	296.395	80.013	19.994	104.535	19.218	53.199	0.490
442.000	296.637	80.013	19.994	104.539	19.216	53.365	0.474
442.500	296.927	80.013	19.993	104.546	19.213	53.549	0.500
443.000	297.209	80.013	19.994	104.552	19.211	53.746	0.551
443.500	297.414	80.012	19.994	104.556	19.205	54.167	0.529
444.000	297.664	80.013	19.993	104.560	19.202	54.385	0.471
444.500	297.888	80.012	19.994	104.558	19.200	54.514	0.465
445.000	298.171	80.012	19.993	104.554	19.197	54.706	0.490
445.500	298.432	80.014	19.994	104.553	19.193	55.013	0.525
446.000	298.648	80.013	19.993	104.553	19.190	55.236	0.510
446.500	298.927	80.013	19.994	104.553	19.184	55.631	0.486
447.000	299.129	80.013	19.995	104.557	19.183	55.738	0.488
447.500	299.405	80.011	19.993	104.561	19.177	56.113	0.479
448.000	299.652	80.013	19.993	104.562	19.178	56.076	0.500
448.500	299.891	80.014	19.994	104.562	19.171	56.547	0.504
449.000	300.150	80.012	19.993	104.562	19.169	56.746	0.493
449.500	300.429	80.013	19.993	104.563	19.163	57.155	0.519
450.000	300.652	80.012	19.994	104.563	19.161	57.278	0.520
450.500	300.887	80.013	19.993	104.563	19.158	57.512	0.480
451.000	301.133	80.013	19.993	104.564	19.152	57.922	0.469
451.500	301.419	80.013	19.993	104.563	19.148	58.221	0.507
452.000	301.670	80.012	19.994	104.565	19.148	58.236	0.534
452.500	301.937	80.012	19.995	104.566	19.143	58.558	0.527
453.000	302.149	80.011	19.993	104.566	19.137	59.012	0.498
453.500	302.423	80.011	19.994	104.566	19.135	59.148	0.482
454.000	302.661	80.012	19.995	104.569	19.130	59.519	0.499
454.500	302.911	80.013	19.993	104.567	19.126	59.753	0.501
455.000	303.148	80.011	19.994	104.569	19.125	59.829	0.487
455.500	303.382	80.011	19.993	104.569	19.120	60.227	0.479
456.000	303.649	80.011	19.994	104.574	19.116	60.483	0.487
456.500	303.892	80.013	19.994	104.574	19.110	60.903	0.506
457.000	304.164	80.013	19.994	104.575	19.111	60.842	0.513
457.500	304.366	80.012	19.994	104.577	19.105	61.278	0.494
458.000	304.625	80.010	19.993	104.581	19.107	61.155	0.468
458.500	304.887	80.011	19.994	104.580	19.101	61.553	0.491
459.000	305.119	80.012	19.994	104.581	19.098	61.778	0.507
459.500	305.425	80.012	19.994	104.584	19.095	61.997	0.516
460.000	305.602	80.011	19.995	104.587	19.090	62.341	0.510
460.500	305.824	80.011	19.994	104.591	19.088	62.505	0.441
461.000	306.074	80.012	19.994	104.595	19.084	62.800	0.435
461.500	306.375	80.012	19.994	104.598	19.081	63.012	0.511
462.000	306.633	80.011	19.995	104.600	19.077	63.302	0.555
462.500	306.904	80.013	19.995	104.599	19.072	63.654	0.544
463.000	307.113	80.013	19.994	104.599	19.067	63.959	0.505
463.500	307.390	80.013	19.995	104.598	19.065	64.131	0.483
464.000	307.653	80.012	19.994	104.599	19.062	64.301	0.513
464.500	307.874	80.012	19.995	104.600	19.059	64.568	0.512
465.000	308.108	80.012	19.994	104.602	19.057	64.661	0.470
465.500	308.334	80.013	19.995	104.602	19.051	65.093	0.458
466.000	308.595	80.013	19.994	104.602	19.052	65.041	0.474
466.500	308.826	80.013	19.995	104.603	19.046	65.477	0.490
467.000	309.116	80.012	19.995	104.603	19.040	65.876	0.506
467.500	309.348	80.013	19.995	104.602	19.039	65.996	0.521
468.000	309.602	80.014	19.995	104.601	19.036	66.168	0.504
468.500	309.801	80.013	19.994	104.602	19.029	66.666	0.470
469.000	310.088	80.014	19.994	104.602	19.031	66.519	0.470
469.500	310.336	80.013	19.994	104.601	19.026	66.882	0.511
470.000	310.607	80.014	19.993	104.601	19.025	67.006	0.527
470.501	310.847	80.013	19.993	104.601	19.020	67.327	0.515
471.001	311.115	80.014	19.994	104.601	19.020	67.321	0.510
471.500	311.376	80.013	19.993	104.601	19.015	67.673	0.518
472.000	311.615	80.014	19.994	104.603	19.013	67.817	0.514
472.500	311.882	80.013	19.993	104.605	19.008	68.204	0.503
473.000	312.130	80.013	19.993	104.607	19.006	68.346	0.511
473.500	312.376	80.014	19.994	104.609	19.003	68.534	0.505
474.000	312.682	80.013	19.994	104.609	19.003	68.511	0.523
474.500	312.886	80.012	19.993	104.607	18.995	69.093	0.531
475.000	313.131	80.012	19.994	104.606	18.993	69.212	0.479
475.501	313.378	80.012	19.994	104.608	18.994	69.174	0.471
476.000	313.651	80.013	19.994	104.606	18.991	69.389	0.506
476.500	313.895	80.012	19.994	104.606	18.987	69.683	0.518
477.000	314.144	80.012	19.993	104.607	18.982	70.053	0.505
477.500	314.401	80.013	19.994	104.611	18.981	70.082	0.499
478.000	314.685	80.013	19.994	104.610	18.976	70.449	0.523
478.500	314.928	80.012	19.993	104.613	18.976	70.476	0.534
479.000	315.172	80.012	19.994	104.614	18.970	70.870	0.507
479.500	315.398	80.012	19.994	104.617	18.968	71.058	0.479
480.000	315.703	80.012	19.994	104.616	18.968	70.991	0.501
480.500	315.923	80.012	19.993	104.621	18.963	71.363	0.528
481.000	316.179	80.011	19.993	104.626	18.962	71.450	0.501
481.500	316.418	80.012	19.994	104.629	18.960	71.579	0.485
482.000	316.673	80.012	19.993	104.634	18.959	71.657	0.494
482.500	316.938	80.012	19.993	104.637	18.956	71.872	0.507
483.000	317.190	80.012	19.995	104.637	18.954	72.016	0.519
483.500	317.434	80.012	19.994	104.636	18.952	72.178	0.507
484.000	317.711	80.011	19.994	104.635	18.947	72.535	0.508
484.500	317.944	80.011	19.994	104.627	18.946	72.616	0.515
485.000	318.207	80.011	19.995	104.621	18.944	72.712	0.503
485.500	318.455	80.011	19.994	104.617	18.941	72.904	0.503
486.000	318.710	80.011	19.993	104.614	18.941	72.953	0.507
486.500	318.961	80.012	19.995	104.615	18.937	73.201	0.505
487.000	319.236	80.011	19.995	104.619	18.936	73.283	0.516
487.500	319.481	80.012	19.994	104.623	18.936	73.292	0.523
488.000	319.692	80.011	19.994	104.625	18.934	73.433	0.488
488.500	319.958	80.011	19.995	104.629	18.934	73.432	0.466
489.000	320.226	80.013	19.994	104.624	18.932	73.600	0.506
489.500	320.488	80.012	19.995	104.621	18.929	73.754	0.532
490.000	320.750	80.012	19.994	104.617	18.930	73.715	0.527
490.500	320.952	80.012	19.995	104.614	18.927	73.932	0.494
491.000	321.240	80.013	19.993	104.610	18.925	74.060	0.477
491.500	321.487	80.012	19.994	104.614	18.924	74.140	0.513
492.000	321.708	80.013	19.994	104.613	18.924	74.123	0.502
492.500	321.989	80.012	19.994	104.612	18.923	74.203	0.485
493.000	322.244	80.013	19.995	104.610	18.925	74.045	0.519
493.500	322.472	80.012	19.994	104.612	18.923	74.197	0.510
494.000	322.716	80.012	19.993	104.612	18.923	74.209	0.477
494.500	322.966	80.013	19.993	104.611	18.919	74.514	0.483
495.000	323.232	80.013	19.994	104.613	18.922	74.305	0.505
495.500	323.522	80.014	19.993	104.613	18.920	74.448	0.536
496.000	323.738	80.013	19.994	104.609	18.921	74.339	0.531
496.500	323.993	80.014	19.994	104.603	18.920	74.419	0.489
497.000	324.222	80.014	19.994	104.603	18.920	74.414	0.477
497.500	324.449	80.013	19.994	104.601	18.920	74.434	0.470
498.000	324.746	80.013	19.993	104.600	18.922	74.274	0.490
498.500	324.991	80.012	19.993	104.599	18.922	74.269	0.533
499.000	325.217	80.012	19.993	104.602	18.922	74.296	0.506
499.500	325.502	80.012	19.994	104.601	18.923	74.208	0.491
500.000	325.704	80.012	19.994	104.601	18.926	73.961	0.499
500.500	325.962	80.013	19.994	104.600	18.925	74.059	0.473
501.000	326.231	80.011	19.992	104.600	18.925	74.049	0.493
501.500	326.439	80.012	19.996	104.600	18.926	73.952	0.502
502.000	326.706	80.011	19.994	104.601	18.932	73.573	0.476
502.500	326.998	80.011	19.994	104.601	18.927	73.885	0.517
503.000	327.235	80.011	19.995	104.602	18.929	73.769	0.544
503.500	327.435	80.012	19.994	104.602	18.931	73.617	0.483
504.000	327.722	80.010	19.994	104.600	18.940	72.971	0.462
504.500	327.960	80.011	19.993	104.596	18.934	73.378	0.506
505.000	328.220	80.011	19.994	104.594	18.936	73.233	0.512
505.500	328.423	80.011	19.994	104.594	18.936	73.212	0.481
506.000	328.706	80.011	19.993	104.595	18.942	72.835	0.474
506.500	328.912	80.011	19.993	104.597	18.945	72.560	0.488
507.000	329.192	80.011	19.993	104.595	18.946	72.548	0.487
507.500	329.448	80.010	19.993	104.592	18.949	72.278	0.511
508.000	329.689	80.010	19.994	104.585	18.953	72.046	0.517
508.500	329.977	80.011	19.994	104.577	18.959	71.582	0.512
509.000	330.227	80.011	19.995	104.570	18.963	71.327	0.533
509.500	330.441	80.011	19.994	104.568	18.966	71.108	0.501
510.000	330.697	80.011	19.994	104.565	18.971	70.756	0.467
510.500	330.973	80.010	19.993	104.565	18.973	70.614	0.501
511.000	331.196	80.010	19.993	104.563	18.977	70.306	0.516
511.500	331.423	80.011	19.993	104.561	18.980	70.095	0.475
512.000	331.686	80.011	19.993	104.558	18.982	69.967	0.470
512.500	331.929	80.011	19.993	104.554	18.988	69.489	0.498
513.000	332.171	80.011	19.993	104.551	18.990	69.367	0.495
513.500	332.448	80.011	19.994	104.547	19.000	68.677	0.502
514.000	332.715	80.011	19.994	104.544	19.002	68.528	0.532
514.500	332.957	80.011	19.994	104.541	19.005	68.330	0.526
515.000	333.191	80.010	19.993	104.537	19.012	67.790	0.492
515.500	333.464	80.012	19.995	104.532	19.021	67.184	0.492
516.000	333.708	80.011	19.994	104.528	19.025	66.856	0.512
516.500	333.950	80.012	19.994	104.525	19.029	66.604	0.502
517.000	334.183	80.011	19.995	104.522	19.034	66.206	0.480
517.500	334.416	80.012	19.993	104.519	19.045	65.453	0.470
518.000	334.711	80.012	19.994	104.513	19.049	65.178	0.497
518.500	334.968	80.011	19.994	104.507	19.056	64.667	0.540
519.000	335.178	80.011	19.993	104.505	19.063	64.135	0.510
519.500	335.435	80.011	19.993	104.501	19.066	63.930	0.467
520.000	335.682	80.011	19.993	104.499	19.077	63.135	0.486
520.500	335.911	80.011	19.994	104.499	19.080	62.921	0.490
521.000	336.156	80.011	19.994	104.498	19.092	62.104	0.474
521.500	336.441	80.012	19.995	104.493	19.100	61.516	0.502
522.000	336.687	80.010	19.993	104.490	19.107	60.998	0.531
522.500	336.966	80.012	19.995	104.487	19.114	60.547	0.528
523.000	337.183	80.013	19.994	104.484	19.123	59.882	0.511
523.500	337.482	80.011	19.995	104.480	19.132	59.267	0.506
524.000	337.709	80.012	19.994	104.477	19.140	58.683	0.520
524.500	337.960	80.011	19.994	104.472	19.150	57.948	0.502
525.000	338.204	80.013	19.994	104.468	19.156	57.507	0.487
525.500	338.458	80.011	19.994	104.468	19.166	56.816	0.497
526.000	338.715	80.014	19.994	104.462	19.176	56.119	0.504
526.500	338.936	80.011	19.993	104.458	19.183	55.612	0.494
527.000	339.182	80.012	19.994	104.455	19.194	54.820	0.473
527.500	339.427	80.012	19.993	104.447	19.205	54.068	0.479
528.000	339.722	80.012	19.993	104.434	19.210	53.666	0.515
528.500	339.989	80.011	19.994	104.431	19.222	52.834	0.551
529.000	340.234	80.011	19.994	104.429	19.234	51.988	0.537
529.500	340.470	80.012	19.995	104.423	19.239	51.618	0.496
530.000	340.724	80.012	19.994	104.421	19.250	50.851	0.486
530.500	340.966	80.013	19.994	104.419	19.255	50.499	0.494
531.000	341.243	80.012	19.994	104.414	19.267	49.646	0.508
531.500	341.474	80.012	19.994	104.408	19.280	48.694	0.514
532.000	341.721	80.012	19.993	104.406	19.286	48.271	0.493
532.500	341.999	80.012	19.994	104.405	19.299	47.367	0.501
533.000	342.221	80.012	19.994	104.404	19.308	46.748	0.512
533.500	342.443	80.012	19.994	104.403	19.319	45.936	0.472
534.000	342.749	80.011	19.994	104.401	19.332	45.013	0.486
534.500	342.964	80.011	19.994	104.396	19.340	44.447	0.524
535.000	343.245	80.011	19.995	104.389	19.350	43.706	0.509
535.500	343.493	80.012	19.994	104.383	19.356	43.284	0.513
536.000	343.727	80.011	19.995	104.375	19.367	42.511	0.505
536.500	344.016	80.011	19.994	104.371	19.378	41.754	0.502
537.000	344.210	80.011	19.994	104.367	19.391	40.843	0.503
537.500	344.532	80.010	19.993	104.366	19.397	40.380	0.499
538.000	344.764	80.010	19.994	104.363	19.411	39.371	0.535
538.500	345.041	80.012	19.994	104.361	19.421	38.671	0.532
539.000	345.274	80.012	19.995	104.360	19.433	37.817	0.510
539.500	345.538	80.011	19.993	104.359	19.440	37.320	0.504
540.000	345.826	80.011	19.993	104.355	19.450	36.604	0.524
540.500	346.055	80.011	19.995	104.350	19.464	35.614	0.534
541.000	346.337	80.012	19.994	104.344	19.473	34.989	0.514
541.500	346.605	80.011	19.995	104.339	19.481	34.432	0.530
542.000	346.854	80.011	19.994	104.333	19.495	33.468	0.533
542.500	347.112	80.012	19.993	104.330	19.504	32.829	0.512
543.000	347.356	80.011	19.993	104.331	19.515	32.000	0.504
543.500	347.593	80.012	19.994	104.328	19.520	31.695	0.491
544.001	347.871	80.012	19.994	104.323	19.531	30.919	0.498
544.500	348.105	80.012	19.994	104.321	19.541	30.192	0.514
545.000	348.377	80.011	19.994	104.319	19.547	29.754	0.509
545.500	348.638	80.011	19.994	104.314	19.560	28.808	0.520
546.000	348.854	80.012	19.993	104.313	19.567	28.348	0.505
546.500	349.192	80.012	19.994	104.316	19.575	27.774	0.515
547.000	349.463	80.012	19.994	104.313	19.586	27.010	0.582
547.500	349.728	80.011	19.994	104.308	19.589	26.749	0.572
548.000	349.944	80.013	19.994	104.306	19.599	26.072	0.509
548.500	350.228	80.013	19.994	104.300	19.608	25.455	0.491
549.000	350.499	80.013	19.994	104.291	19.618	24.745	0.527
549.500	350.723	80.013	19.993	104.286	19.626	24.137	0.525
550.000	350.970	80.012	19.995	104.283	19.634	23.597	0.483
550.501	351.249	80.013	19.993	104.283	19.645	22.837	0.499
551.000	351.511	80.013	19.994	104.286	19.648	22.592	0.534
551.500	351.740	80.013	19.994	104.289	19.656	22.015	0.516
552.000	352.053	80.014	19.995	104.290	19.663	21.526	0.516
552.500	352.317	80.013	19.994	104.285	19.673	20.840	0.559
553.000	352.618	80.012	19.993	104.282	19.677	20.530	0.571
553.500	352.825	80.012	19.995	104.282	19.686	19.895	0.537
554.000	353.095	80.013	19.995	104.282	19.693	19.421	0.493
554.500	353.376	80.011	19.994	104.276	19.699	18.980	0.514
555.000	353.604	80.013	19.994	104.276	19.706	18.462	0.530
555.500	353.885	80.013	19.994	104.275	19.713	17.984	0.509
556.000	354.169	80.012	19.995	104.270	19.718	17.597	0.536
556.500	354.403	80.012	19.995	104.264	19.724	17.191	0.541
557.000	354.659	80.012	19.994	104.262	19.732	16.619	0.505
557.500	354.931	80.012	19.994	104.259	19.736	16.348	0.509
558.000	355.155	80.012	19.995	104.258	19.741	15.990	0.511
558.500	355.444	80.012	19.995	104.256	19.751	15.310	0.504
559.000	355.698	80.011	19.994	104.256	19.756	14.944	0.528
559.500	355.961	80.011	19.994	104.256	19.764	14.388	0.531
560.000	356.246	80.012	19.993	104.256	19.768	14.100	0.533
560.500	356.500	80.011	19.994	104.255	19.770	13.947	0.543
561.000	356.748	80.010	19.993	104.254	19.774	13.630	0.520
561.500	357.018	80.011	19.995	104.252	19.781	13.183	0.510
562.000	357.260	80.011	19.994	104.253	19.782	13.107	0.515
562.500	357.544	80.011	19.995	104.253	19.788	12.636	0.519
563.000	357.797	80.011	19.995	104.253	19.792	12.404	0.532
563.500	358.082	80.011	19.995	104.253	19.798	11.966	0.538
564.000	358.332	80.012	19.995	104.254	19.797	12.016	0.536
564.500	358.605	80.012	19.994	104.253	19.801	11.738	0.529
565.000	358.836	80.012	19.996	104.254	19.809	11.198	0.513
565.500	359.118	80.011	19.994	104.250	19.813	10.902	0.508
566.000	359.353	80.011	19.995	104.248	19.817	10.613	0.515
566.500	359.644	80.012	19.995	104.248	19.819	10.467	0.522
567.000	359.872	80.012	19.994	104.248	19.823	10.174	0.522
567.500	360.168	80.011	19.994	104.248	19.827	9.902	0.521
568.000	360.423	80.011	19.995	104.251	19.830	9.670	0.538
568.500	360.674	80.012	19.993	104.253	19.829	9.740	0.529
569.000	360.915	80.012	19.994	104.254	19.834	9.410	0.499
569.500	361.192	80.012	19.994	104.254	19.839	9.075	0.505
570.000	361.443	80.012	19.994	104.254	19.843	8.756	0.523
570.500	361.730	80.012	19.994	104.253	19.844	8.736	0.533
571.000	362.000	80.013	19.994	104.251	19.845	8.614	0.547
571.500	362.227	80.013	19.994	104.251	19.847	8.512	0.527
572.000	362.520	80.014	19.994	104.249	19.850	8.306	0.508
572.500	362.739	80.013	19.993	104.248	19.854	8.012	0.516
573.000	363.057	80.013	19.994	104.247	19.854	7.969	0.525
573.500	363.282	80.014	19.994	104.248	19.858	7.692	0.540
574.000	363.516	80.013	19.995	104.248	19.864	7.318	0.501
574.500	363.787	80.014	19.995	104.249	19.860	7.577	0.482
575.000	364.049	80.013	19.994	104.249	19.866	7.129	0.519
575.500	364.322	80.015	19.994	104.249	19.864	7.289	0.534
576.000	364.569	80.014	19.994	104.248	19.867	7.098	0.528
576.500	364.802	80.014	19.993	104.248	19.871	6.792	0.500
577.000	365.089	80.012	19.994	104.247	19.869	6.917	0.500
577.500	365.330	80.014	19.994	104.246	19.870	6.872	0.524
578.000	365.588	80.014	19.994	104.243	19.872	6.722	0.514
578.500	365.835	80.013	19.995	104.243	19.873	6.660	0.502
579.000	366.139	80.014	19.994	104.241	19.873	6.636	0.528
579.500	366.361	80.014	19.995	104.241	19.876	6.449	0.538
580.000	366.613	80.013	19.994	104.239	19.877	6.364	0.500
580.500	366.887	80.013	19.994	104.237	19.877	6.360	0.500
581.000	367.132	80.013	19.994	104.239	19.881	6.054	0.522
581.500	367.430	80.013	19.995	104.239	19.880	6.134	0.530
582.000	367.639	80.013	19.995	104.240	19.882	6.023	0.525
582.500	367.889	80.012	19.994	104.243	19.885	5.763	0.483
583.000	368.141	80.012	19.995	104.246	19.884	5.837	0.481
583.500	368.424	80.012	19.995	104.245	19.885	5.804	0.519
584.000	368.697	80.012	19.995	104.242	19.889	5.533	0.545
584.500	368.947	80.012	19.994	104.242	19.885	5.797	0.539
585.000	369.205	80.011	19.993	104.242	19.883	5.919	0.516
585.500	369.475	80.011	19.995	104.243	19.888	5.600	0.518
586.000	369.739	80.010	19.994	104.245	19.885	5.767	0.531
586.500	370.003	80.010	19.995	104.248	19.890	5.471	0.531
587.000	370.265	80.011	19.995	104.248	19.888	5.592	0.526
587.500	370.533	80.011	19.995	104.247	19.890	5.444	0.528
588.000	370.797	80.011	19.995	104.247	19.890	5.416	0.531
588.500	371.033	80.011	19.995	104.246	19.891	5.389	0.516
589.000	371.292	80.011	19.995	104.247	19.890	5.473	0.497
589.500	371.582	80.009	19.995	104.247	19.892	5.273	0.522
590.000	371.803	80.009	19.995	104.248	19.893	5.247	0.530
590.500	372.099	80.012	19.995	104.248	19.896	5.035	0.514
591.000	372.356	80.011	19.995	104.248	19.894	5.177	0.535
591.500	372.624	80.012	19.996	104.248	19.895	5.104	0.539
592.000	372.869	80.011	19.994	104.250	19.896	5.026	0.518
592.500	373.140	80.011	19.995	104.249	19.896	4.985	0.514
593.000	373.406	80.010	19.995	104.246	19.896	4.983	0.527
593.500	373.662	80.009	19.995	104.245	19.897	4.978	0.530
594.000	373.923	80.010	19.994	104.244	19.898	4.847	0.519
594.500	374.156	80.010	19.995	104.243	19.900	4.746	0.505
595.000	374.450	80.008	19.994	104.243	19.898	4.873	0.510
595.500	374.718	80.011	19.995	104.246	19.901	4.670	0.545
596.000	374.963	80.010	19.995	104.246	19.903	4.545	0.538
596.500	375.198	80.011	19.995	104.247	19.900	4.767	0.497
597.000	375.501	80.011	19.994	104.247	19.898	4.905	0.509
597.500	375.769	80.011	19.994	104.247	19.902	4.613	0.555
598.000	375.994	80.011	19.995	104.243	19.904	4.443	0.532
598.500	376.247	80.012	19.995	104.243	19.900	4.737	0.485
599.000	376.499	80.012	19.994	104.243	19.901	4.638	0.492
599.500	376.801	80.012	19.994	104.243	19.902	4.625	0.529
600.000	377.064	80.011	19.993	104.244	19.904	4.485	0.559
600.500	377.285	80.011	19.993	104.247	19.902	4.594	0.525
601.001	377.538	80.010	19.993	104.248	19.901	4.658	0.480
601.501	377.823	80.012	19.994	104.247	19.899	4.775	0.506
602.000	378.059	80.011	19.994	104.245	19.902	4.559	0.529
602.500	378.300	80.013	19.994	104.237	19.898	4.892	0.499
603.000	378.576	80.010	19.993	104.235	19.900	4.715	0.497
603.500	378.829	80.010	19.994	104.233	19.901	4.633	0.523
604.000	379.070	80.010	19.994	104.234	19.901	4.643	0.511
604.500	379.321	80.012	19.994	104.233	19.902	4.589	0.493
605.000	379.613	80.012	19.993	104.237	19.902	4.622	0.518
605.500	379.875	80.012	19.994	104.235	19.904	4.427	0.549
606.000	380.140	80.012	19.994	104.236	19.905	4.398	0.540
606.500	380.370	80.013	19.993	104.237	19.907	4.215	0.511
607.000	380.628	80.012	19.993	104.235	19.902	4.592	0.492
607.500	380.881	80.011	19.993	104.231	19.901	4.690	0.500
608.000	381.112	80.012	19.994	104.228	19.906	4.318	0.497
608.500	381.404	80.010	19.994	104.222	19.908	4.189	0.503
609.000	381.647	80.011	19.994	104.215	19.906	4.292	0.529
609.500	381.911	80.010	19.994	104.219	19.905	4.358	0.521
610.000	382.136	80.012	19.993	104.226	19.905	4.407	0.498
610.500	382.431	80.010	19.995	104.234	19.903	4.516	0.505
611.000	382.669	80.011	19.994	104.237	19.908	4.183	0.526
611.500	382.934	80.011	19.994	104.238	19.908	4.169	0.518
612.000	383.176	80.011	19.993	104.236	19.909	4.084	0.505
612.500	383.424	80.010	19.993	104.234	19.905	4.365	0.498
613.000	383.665	80.011	19.993	104.235	19.911	3.958	0.489
613.500	383.917	80.012	19.993	104.237	19.909	4.094	0.491
614.000	384.208	80.011	19.993	104.244	19.912	3.866	0.518
614.500	384.468	80.010	19.993	104.248	19.912	3.862	0.547
615.000	384.685	80.009	19.993	104.252	19.913	3.815	0.514
615.500	384.959	80.012	19.993	104.252	19.912	3.885	0.484
616.000	385.168	80.011	19.993	104.254	19.913	3.828	0.487
616.500	385.394	80.010	19.993	104.252	19.915	3.686	0.459
617.000	385.695	80.011	19.994	104.248	19.910	4.058	0.481
617.500	385.942	80.011	19.993	104.248	19.910	3.996	0.538
618.000	386.183	80.011	19.994	104.247	19.913	3.813	0.518
618.500	386.431	80.010	19.994	104.247	19.912	3.862	0.488
619.000	386.747	80.011	19.993	104.249	19.912	3.856	0.527
619.500	386.990	80.011	19.993	104.251	19.913	3.832	0.562
620.000	387.248	80.011	19.993	104.245	19.914	3.768	0.530
620.500	387.464	80.011	19.993	104.240	19.912	3.908	0.487
621.000	387.739	80.009	19.992	104.232	19.913	3.830	0.482
621.500	388.045	80.011	19.994	104.227	19.914	3.748	0.536
622.000	388.250	80.010	19.995	104.228	19.916	3.610	0.546
622.500	388.483	80.012	19.994	104.234	19.915	3.647	0.474
623.000	388.794	80.011	19.994	104.241	19.915	3.661	0.491
623.500	389.024	80.011	19.994	104.248	19.914	3.707	0.543
624.000	389.277	80.010	19.994	104.253	19.911	3.928	0.512
624.500	389.515	80.012	19.995	104.252	19.913	3.807	0.487
625.000	389.779	80.011	19.995	104.247	19.916	3.617	0.496
625.500	390.049	80.011	19.994	104.240	19.916	3.619	0.518
626.000	390.266	80.011	19.993	104.239	19.915	3.668	0.510
626.500	390.527	80.010	19.993	104.238	19.915	3.699	0.483
627.000	390.806	80.012	19.993	104.237	19.915	3.664	0.509
627.500	391.070	80.012	19.993	104.239	19.921	3.281	0.542
628.000	391.324	80.012	19.994	104.242	19.920	3.324	0.531
628.500	391.550	80.012	19.993	104.244	19.917	3.542	0.499
629.000	391.841	80.012	19.994	104.244	19.919	3.406	0.499
629.500	392.091	80.012	19.994	104.244	19.918	3.472	0.530
630.000	392.340	80.012	19.994	104.243	19.919	3.421	0.520
630.500	392.582	80.012	19.995	104.244	19.921	3.265	0.495
631.000	392.852	80.012	19.993	104.241	19.922	3.181	0.502
631.500	393.128	80.013	19.993	104.240	19.925	2.984	0.529
632.000	393.329	80.012	19.994	104.235	19.921	3.265	0.511
632.501	393.626	80.011	19.993	104.235	19.920	3.298	0.487
633.000	393.844	80.014	19.994	104.235	19.919	3.378	0.506
633.500	394.122	80.012	19.992	104.236	19.923	3.085	0.506
634.000	394.352	80.013	19.993	104.232	19.920	3.339	0.502
634.500	394.617	80.012	19.993	104.233	19.920	3.337	0.501
635.000	394.866	80.012	19.993	104.233	19.920	3.300	0.504
635.500	395.145	80.013	19.993	104.228	19.920	3.339	0.521
636.000	395.393	80.013	19.994	104.222	19.924	3.025	0.527
636.500	395.648	80.013	19.994	104.219	19.920	3.333	0.515
637.000	395.927	80.014	19.994	104.219	19.921	3.232	0.519
637.500	396.145	80.013	19.993	104.217	19.919	3.409	0.516
638.000	396.399	80.015	19.993	104.222	19.920	3.316	0.484
638.500	396.687	80.013	19.994	104.230	19.918	3.452	0.507
639.000	396.890	80.013	19.994	104.237	19.917	3.547	0.517
639.500	397.175	80.013	19.993	104.238	19.921	3.251	0.489
640.000	397.386	80.012	19.993	104.237	19.923	3.072	0.492
640.500	397.683	80.013	19.993	104.232	19.919	3.360	0.503
641.000	397.927	80.013	19.993	104.224	19.919	3.388	0.525
641.500	398.201	80.014	19.995	104.217	19.922	3.197	0.530
642.000	398.421	80.012	19.993	104.214	19.918	3.464	0.506
642.500	398.707	80.013	19.993	104.217	19.922	3.146	0.500
643.000	398.961	80.013	19.994	104.218	19.921	3.216	0.523
643.500	399.204	80.012	19.994	104.219	19.922	3.160	0.519
644.000	399.453	80.012	19.993	104.220	19.922	3.150	0.494
644.500	399.711	80.012	19.994	104.219	19.921	3.211	0.500
645.000	399.931	80.014	19.994	104.216	19.920	3.283	0.493
645.500	400.216	80.012	19.994	104.219	19.921	3.248	0.491
646.000	400.460	80.012	19.993	104.221	19.924	3.053	0.517
646.500	400.736	80.012	19.993	104.226	19.920	3.315	0.525
647.000	400.949	80.012	19.995	104.231	19.925	2.947	0.505
647.500	401.218	80.011	19.994	104.233	19.925	2.941	0.486
648.000	401.467	80.013	19.995	104.229	19.927	2.793	0.500
648.500	401.720	80.012	19.994	104.229	19.926	2.895	0.510
649.000	401.946	80.012	19.994	104.227	19.923	3.127	0.491
649.500	402.204	80.012	19.994	104.222	19.924	3.049	0.481
650.000	402.444	80.012	19.994	104.219	19.921	3.265	0.491
650.500	402.709	80.012	19.993	104.220	19.924	3.031	0.502
651.000	402.951	80.012	19.995	104.219	19.921	3.224	0.506
651.500	403.204	80.012	19.997	104.223	19.924	3.010	0.501
652.000	403.435	80.012	19.995	104.230	19.922	3.181	0.489
652.500	403.703	80.014	19.996	104.232	19.923	3.101	0.491
653.000	403.980	80.014	19.995	104.234	19.923	3.080	0.522
653.500	404.220	80.012	19.995	104.232	19.924	3.041	0.531
654.000	404.440	80.013	19.995	104.227	19.925	2.944	0.489
654.500	404.721	80.013	19.993	104.226	19.922	3.178	0.480
655.000	404.981	80.014	19.995	104.230	19.924	3.041	0.521
655.500	405.200	80.013	19.994	104.231	19.925	2.963	0.510
656.000	405.460	80.013	19.994	104.233	19.922	3.150	0.479
656.500	405.682	80.014	19.994	104.231	19.926	2.875	0.480
657.000	405.915	80.014	19.993	104.224	19.927	2.803	0.468
657.500	406.197	80.014	19.996	104.219	19.924	3.002	0.485
658.000	406.458	80.014	19.995	104.215	19.927	2.852	0.529
658.500	406.706	80.014	19.994	104.217	19.924	3.064	0.526
659.000	406.962	80.013	19.994	104.224	19.927	2.815	0.507
659.500	407.237	80.014	19.994	104.231	19.925	2.955	0.517
660.000	407.472	80.013	19.994	104.238	19.924	3.056	0.520
660.500	407.710	80.013	19.993	104.240	19.926	2.870	0.491
661.000	407.993	80.014	19.994	104.237	19.923	3.080	0.498
661.500	408.253	80.015	19.994	104.230	19.923	3.109	0.532
662.000	408.519	80.014	19.994	104.223	19.925	2.997	0.534
662.500	408.747	80.015	19.994	104.218	19.923	3.082	0.510
663.001	409.031	80.014	19.994	104.220	19.924	3.026	0.503
663.500	409.267	80.013	19.995	104.226	19.927	2.788	0.516
664.000	409.489	80.015	19.993	104.232	19.928	2.755	0.489
664.501	409.740	80.013	19.993	104.239	19.924	3.060	0.466
665.000	409.987	80.015	19.994	104.244	19.924	3.019	0.486
665.500	410.262	80.013	19.994	104.241	19.927	2.797	0.510
666.000	410.514	80.014	19.993	104.236	19.927	2.834	0.525
666.500	410.786	80.012	19.993	104.231	19.928	2.735	0.525
667.000	411.052	80.013	19.994	104.227	19.929	2.710	0.531
667.500	411.302	80.013	19.994	104.222	19.927	2.846	0.527
668.000	411.562	80.013	19.994	104.224	19.927	2.789	0.513
668.500	411.801	80.011	19.994	104.226	19.925	2.975	0.504
669.000	412.028	80.011	19.994	104.228	19.923	3.134	0.483
669.500	412.295	80.012	19.994	104.228	19.927	2.825	0.480
670.000	412.550	80.011	19.993	104.228	19.925	2.961	0.508
670.500	412.794	80.012	19.994	104.224	19.927	2.794	0.511
671.000	413.067	80.013	19.996	104.224	19.923	3.072	0.508
671.500	413.299	80.012	19.994	104.228	19.927	2.786	0.511
672.000	413.540	80.011	19.994	104.234	19.927	2.802	0.489
672.500	413.809	80.011	19.994	104.238	19.924	3.029	0.491
673.000	414.058	80.012	19.994	104.244	19.925	2.977	0.514
673.500	414.291	80.010	19.994	104.245	19.926	2.895	0.500
674.000	414.512	80.012	19.994	104.241	19.928	2.716	0.468
674.500	414.786	80.012	19.995	104.236	19.925	2.990	0.475
675.000	415.032	80.012	19.994	104.230	19.927	2.825	0.507
675.500	415.274	80.010	19.993	104.225	19.924	3.000	0.504
676.000	415.521	80.010	19.994	104.223	19.928	2.766	0.489
676.500	415.749	80.011	19.995	104.226	19.926	2.877	0.482
677.000	416.021	80.010	19.994	104.224	19.927	2.815	0.487
677.500	416.300	80.011	19.995	104.225	19.924	3.049	0.526
678.000	416.551	80.011	19.995	104.224	19.925	2.938	0.541
678.500	416.791	80.011	19.994	104.222	19.923	3.121	0.510
679.000	417.026	80.011	19.995	104.217	19.921	3.240	0.483
679.500	417.320	80.012	19.995	104.221	19.926	2.856	0.502
680.000	417.574	80.011	19.995	104.222	19.926	2.895	0.539
680.500	417.828	80.011	19.995	104.227	19.928	2.716	0.528
681.000	418.055	80.011	19.994	104.234	19.928	2.778	0.494
681.500	418.298	80.010	19.997	104.238	19.930	2.616	0.475
682.000	418.552	80.012	19.997	104.236	19.927	2.850	0.483
682.500	418.826	80.010	19.996	104.241	19.927	2.813	0.512
683.000	419.067	80.010	19.995	104.241	19.929	2.681	0.522
683.500	419.313	80.010	19.996	104.234	19.932	2.449	0.501
684.000	419.553	80.011	19.995	104.228	19.927	2.794	0.486
684.500	419.824	80.011	19.995	104.227	19.928	2.728	0.498
685.000	420.063	80.011	19.994	104.225	19.925	2.954	0.511
685.500	420.310	80.011	19.994	104.224	19.926	2.926	0.498
686.000	420.516	80.011	19.995	104.224	19.926	2.897	0.469
686.500	420.789	80.010	19.995	104.228	19.928	2.733	0.466
687.000	421.050	80.010	19.995	104.231	19.927	2.827	0.507
687.500	421.312	80.011	19.995	104.228	19.928	2.774	0.529
688.000	421.585	80.010	19.995	104.224	19.926	2.895	0.529
688.500	421.805	80.012	19.995	104.225	19.931	2.560	0.514
689.000	422.094	80.010	19.994	104.223	19.926	2.922	0.501
689.500	422.313	80.011	19.995	104.221	19.928	2.755	0.508
690.000	422.566	80.011	19.994	104.223	19.924	3.041	0.490
690.500	422.829	80.011	19.994	104.230	19.928	2.774	0.494
691.000	423.069	80.011	19.994	104.233	19.926	2.897	0.510
691.500	423.296	80.012	19.995	104.235	19.927	2.823	0.485
692.000	423.572	80.012	19.994	104.234	19.925	2.989	0.485
692.500	423.824	80.011	19.994	104.233	19.926	2.882	0.516
693.001	424.085	80.012	19.993	104.227	19.926	2.901	0.521
693.501	424.307	80.011	19.994	104.226	19.926	2.864	0.498
694.001	424.573	80.011	19.994	104.227	19.926	2.883	0.485
694.500	424.819	80.011	19.995	104.231	19.927	2.846	0.499
695.000	425.077	80.012	19.994	104.233	19.928	2.762	0.508
695.500	425.350	80.011	19.994	104.235	19.930	2.581	0.518
696.000	425.580	80.012	19.993	104.238	19.930	2.642	0.517
696.500	425.849	80.010	19.993	104.236	19.927	2.833	0.501
697.000	426.118	80.011	19.994	104.235	19.929	2.681	0.518
697.500	426.346	80.011	19.994	104.232	19.924	3.018	0.517
698.000	426.597	80.011	19.994	104.230	19.926	2.858	0.488
698.500	426.868	80.010	19.993	104.228	19.925	2.996	0.501
699.000	427.090	80.011	19.993	104.227	19.924	3.035	0.508
699.500	427.342	80.009	19.992	104.224	19.924	3.035	0.483
700.000	427.594	80.010	19.993	104.225	19.926	2.871	0.489
700.500	427.835	80.011	19.993	104.229	19.929	2.706	0.499
701.000	428.116	80.010	19.993	104.228	19.927	2.788	0.507
701.500	428.353	80.011	19.993	104.231	19.925	2.975	0.520
702.000	428.599	80.011	19.994	104.236	19.924	3.051	0.500
702.500	428.871	80.010	19.994	104.238	19.924	3.012	0.501
703.000	429.139	80.010	19.994	104.241	19.926	2.873	0.530
703.500	429.355	80.011	19.993	104.242	19.929	2.696	0.512
704.000	429.601	80.011	19.993	104.239	19.927	2.827	0.473
704.500	429.880	80.010	19.993	104.238	19.927	2.823	0.493
705.000	430.116	80.010	19.993	104.238	19.926	2.885	0.520
705.500	430.376	80.012	19.993	104.231	19.928	2.747	0.506
706.000	430.631	80.011	19.994	104.230	19.930	2.593	0.505
706.500	430.885	80.010	19.995	104.233	19.930	2.587	0.512
707.000	431.135	80.010	19.994	104.232	19.933	2.406	0.507
707.500	431.362	80.010	19.993	104.228	19.934	2.299	0.491
708.000	431.664	80.010	19.994	104.227	19.934	2.359	0.503
708.500	431.906	80.011	19.993	104.225	19.930	2.612	0.536
709.000	432.169	80.012	19.994	104.221	19.927	2.834	0.524
709.500	432.402	80.010	19.994	104.219	19.933	2.413	0.501
710.000	432.616	80.012	19.994	104.218	19.932	2.493	0.472
710.500	432.886	80.011	19.994	104.220	19.929	2.679	0.466
711.000	433.153	80.012	19.994	104.223	19.931	2.518	0.510
711.500	433.401	80.013	19.993	104.225	19.933	2.395	0.525
712.000	433.686	80.013	19.994	104.225	19.931	2.541	0.524
712.500	433.920	80.012	19.994	104.230	19.930	2.580	0.526
713.000	434.166	80.014	19.994	104.232	19.931	2.537	0.500
713.500	434.435	80.013	19.992	104.227	19.929	2.670	0.498
714.000	434.697	80.013	19.994	104.226	19.933	2.395	0.523
714.500	434.905	80.014	19.994	104.226	19.934	2.297	0.500
715.000	435.182	80.012	19.994	104.223	19.932	2.476	0.478
715.500	435.444	80.013	19.994	104.222	19.931	2.538	0.512
716.000	435.639	80.012	19.994	104.224	19.932	2.495	0.498
716.500	435.931	80.013	19.992	104.222	19.933	2.425	0.472
717.000	436.195	80.012	19.993	104.222	19.928	2.743	0.521
717.500	436.453	80.013	19.995	104.224	19.932	2.466	0.539
718.000	436.673	80.014	19.995	104.223	19.932	2.443	0.501
718.500	436.975	80.013	19.994	104.227	19.929	2.656	0.500
719.000	437.231	80.015	19.994	104.225	19.929	2.656	0.540
719.500	437.475	80.013	19.994	104.222	19.931	2.517	0.529
720.000	437.702	80.013	19.994	104.227	19.933	2.392	0.485
720.500	437.975	80.012	19.993	104.216	19.931	2.558	0.485
721.000	438.218	80.014	19.994	104.193	19.936	2.203	0.508
721.500	438.450	80.012	19.993	104.183	19.934	2.316	0.496
722.000	438.721	80.013	19.994	104.180	19.932	2.476	0.489
722.500	438.968	80.013	19.994	104.171	19.935	2.272	0.510
723.000	439.219	80.013	19.992	104.190	19.934	2.326	0.508
723.500	439.479	80.011	19.994	104.238	19.936	2.203	0.504
724.000	439.713	80.012	19.995	104.259	19.932	2.433	0.503
724.500	439.957	80.012	19.993	104.269	19.936	2.174	0.486
725.000	440.248	80.012	19.995	104.270	19.937	2.137	0.506
725.500	440.483	80.012	19.993	104.260	19.937	2.112	0.530
726.000	440.736	80.012	19.994	104.232	19.939	1.966	0.507
726.500	440.978	80.011	19.994	104.221	19.936	2.184	0.492
727.000	441.213	80.011	19.993	104.214	19.937	2.135	0.486
727.500	441.432	80.011	19.994	104.214	19.932	2.435	0.466
728.000	441.712	80.013	19.994	104.216	19.938	2.071	0.476
728.500	441.975	80.013	19.994	104.226	19.937	2.079	0.520
729.000	442.208	80.013	19.993	104.234	19.938	2.061	0.519
729.500	442.481	80.011	19.994	104.239	19.940	1.921	0.501
730.000	442.711	80.012	19.994	104.246	19.937	2.102	0.505
730.500	442.953	80.012	19.994	104.247	19.936	2.188	0.488
731.000	443.222	80.012	19.994	104.236	19.938	2.024	0.491
731.500	443.445	80.013	19.994	104.235	19.938	2.053	0.501
732.000	443.721	80.012	19.994	104.232	19.936	2.151	0.495
732.500	444.007	80.013	19.993	104.229	19.936	2.176	0.531
733.001	444.223	80.013	19.994	104.229	19.937	2.084	0.532
733.501	444.472	80.013	19.993	104.232	19.935	2.248	0.484
734.000	444.687	80.013	19.994	104.228	19.937	2.110	0.465
734.500	444.980	80.012	19.993	104.230	19.938	2.051	0.486
735.000	445.218	80.012	19.994	104.228	19.937	2.145	0.519
735.500	445.480	80.013	19.994	104.228	19.938	2.051	0.516
736.000	445.752	80.013	19.993	104.225	19.935	2.260	0.517
736.500	445.977	80.013	19.992	104.228	19.936	2.178	0.515
737.000	446.227	80.013	19.993	104.232	19.939	2.003	0.486
737.500	446.475	80.014	19.993	104.236	19.935	2.281	0.487
738.000	446.725	80.013	19.992	104.239	19.937	2.117	0.498
738.500	446.980	80.014	19.993	104.237	19.935	2.271	0.501
739.000	447.224	80.014	19.994	104.230	19.941	1.860	0.502
739.500	447.447	80.014	19.994	104.223	19.937	2.127	0.483
740.000	447.741	80.015	19.994	104.222	19.938	2.018	0.492
740.500	447.989	80.013	19.994	104.223	19.939	2.000	0.529
741.000	448.243	80.013	19.993	104.226	19.939	1.958	0.522
741.500	448.499	80.014	19.994	104.231	19.935	2.238	0.506
742.000	448.736	80.014	19.993	104.233	19.940	1.870	0.502
742.500	448.988	80.014	19.994	104.229	19.938	2.047	0.491
743.000	449.247	80.013	19.994	104.222	19.938	2.024	0.500
743.500	449.486	80.014	19.995	104.219	19.938	2.041	0.504
744.000	449.750	80.013	19.994	104.214	19.940	1.901	0.501
744.500	449.990	80.014	19.993	104.215	19.938	2.026	0.504
745.000	450.253	80.014	19.994	104.218	19.940	1.868	0.504
745.500	450.481	80.012	19.994	104.219	19.938	2.061	0.497
746.000	450.727	80.013	19.994	104.221	19.940	1.899	0.482
746.500	450.980	80.013	19.994	104.222	19.939	1.983	0.486
747.000	451.260	80.013	19.994	104.220	19.940	1.934	0.516
747.500	451.482	80.010	19.994	104.220	19.939	1.981	0.517
748.000	451.733	80.012	19.994	104.221	19.939	1.942	0.487
748.500	451.999	80.011	19.995	104.221	19.938	2.018	0.495
749.000	452.238	80.012	19.994	104.223	19.942	1.747	0.511
749.500	452.503	80.011	19.994	104.225	19.939	1.987	0.504
750.000	452.746	80.010	19.995	104.222	19.941	1.823	0.506
750.500	452.996	80.012	19.994	104.221	19.941	1.839	0.501
751.000	453.256	80.011	19.995	104.220	19.942	1.776	0.502
751.500	453.513	80.012	19.996	104.216	19.939	2.000	0.513
752.000	453.756	80.010	19.995	104.214	19.940	1.872	0.508
752.500	453.994	80.010	19.995	104.220	19.942	1.790	0.490
753.000	454.251	80.010	19.995	104.221	19.940	1.884	0.488
753.501	454.499	80.010	19.994	104.220	19.941	1.850	0.500
754.001	454.776	80.011	19.994	104.220	19.944	1.648	0.515
754.500	455.019	80.009	19.994	104.221	19.944	1.582	0.522
755.000	455.256	80.010	19.995	104.214	19.940	1.905	0.500
755.500	455.546	80.010	19.994	104.214	19.941	1.813	0.504
756.000	455.787	80.012	19.995	104.214	19.942	1.745	0.529
756.500	456.032	80.010	19.994	104.213	19.938	2.014	0.509
757.000	456.321	80.011	19.994	104.212	19.942	1.769	0.510
757.500	456.540	80.011	19.994	104.213	19.939	1.971	0.521
758.000	456.802	80.010	19.994	104.212	19.942	1.747	0.494
758.500	457.029	80.010	19.994	104.214	19.943	1.704	0.485
759.000	457.289	80.010	19.996	104.215	19.943	1.722	0.488
759.500	457.544	80.011	19.994	104.216	19.943	1.720	0.501
760.000	457.816	80.010	19.995	104.217	19.942	1.751	0.521
760.500	458.052	80.011	19.994	104.219	19.942	1.767	0.518
761.000	458.317	80.011	19.994	104.218	19.942	1.773	0.505
761.500	458.564	80.011	19.996	104.218	19.941	1.825	0.506
762.000	458.872	80.011	19.994	104.218	19.939	1.961	0.533
762.500	459.097	80.010	19.993	104.217	19.945	1.572	0.544
763.000	459.364	80.012	19.994	104.215	19.946	1.490	0.513
763.500	459.594	80.010	19.994	104.215	19.939	1.995	0.495
764.000	459.857	80.011	19.994	104.214	19.940	1.897	0.495
764.500	460.121	80.009	19.994	104.215	19.941	1.862	0.510
765.000	460.350	80.011	19.993	104.214	19.941	1.796	0.510
765.500	460.605	80.009	19.993	104.215	19.940	1.924	0.488
766.000	460.869	80.011	19.993	104.214	19.941	1.841	0.501
766.500	461.141	80.010	19.993	104.215	19.943	1.679	0.528
767.000	461.398	80.010	19.993	104.214	19.941	1.829	0.533
767.500	461.679	80.011	19.994	104.215	19.944	1.609	0.534
768.000	461.898	80.011	19.995	104.214	19.944	1.613	0.519
768.500	462.156	80.011	19.993	104.215	19.944	1.597	0.488
769.000	462.434	80.011	19.995	104.215	19.944	1.648	0.506
769.500	462.658	80.011	19.994	104.215	19.944	1.607	0.519
770.000	462.898	80.012	19.994	104.215	19.946	1.496	0.483
770.500	463.130	80.011	19.993	104.214	19.944	1.646	0.468
771.000	463.379	80.011	19.995	104.214	19.947	1.387	0.476
771.500	463.677	80.012	19.994	104.213	19.947	1.402	0.514
772.000	463.944	80.011	19.994	104.213	19.945	1.564	0.556
772.500	464.167	80.011	19.995	104.212	19.948	1.348	0.527
773.000	464.428	80.012	19.994	104.212	19.944	1.636	0.487
773.500	464.692	80.010	19.994	104.212	19.946	1.480	0.504
774.000	464.947	80.012	19.995	104.211	19.946	1.480	0.522
774.500	465.183	80.012	19.994	104.211	19.947	1.391	0.505
775.000	465.487	80.011	19.995	104.210	19.945	1.519	0.516
775.500	465.643	80.010	19.994	104.210	19.944	1.589	0.500
776.000	465.965	80.012	19.995	104.210	19.946	1.486	0.469
776.500	466.213	80.010	19.995	104.210	19.948	1.328	0.524
777.000	466.474	80.010	19.995	104.213	19.947	1.381	0.539
777.500	466.740	80.010	19.995	104.213	19.948	1.297	0.518
778.000	466.937	80.009	19.996	104.214	19.951	1.153	0.495
778.500	467.211	80.009	19.995	104.215	19.947	1.387	0.467
779.000	467.519	80.010	19.995	104.216	19.942	1.753	0.527
779.500	467.728	80.011	19.995	104.213	19.946	1.439	0.549
780.000	467.986	80.010	19.995	104.212	19.950	1.194	0.492
780.500	468.238	80.011	19.996	104.212	19.950	1.225	0.488
781.000	468.499	80.010	19.995	104.209	19.946	1.504	0.511
781.500	468.760	80.010	19.996	104.209	19.949	1.250	0.517
782.000	468.964	80.011	19.995	104.205	19.947	1.416	0.493
782.500	469.247	80.011	19.995	104.203	19.948	1.358	0.476
783.000	469.532	80.010	19.995	104.203	19.944	1.618	0.528
783.500	469.783	80.010	19.995	104.205	19.946	1.498	0.552
784.000	470.045	80.011	19.995	104.205	19.946	1.445	0.524
784.500	470.322	80.010	19.994	104.209	19.945	1.554	0.526
785.000	470.572	80.011	19.996	104.210	19.946	1.480	0.534
785.500	470.829	80.011	19.995	104.210	19.948	1.332	0.517
786.000	471.067	80.010	19.995	104.209	19.950	1.186	0.500
786.500	471.305	80.010	19.995	104.208	19.948	1.352	0.485
787.000	471.573	80.011	19.995	104.208	19.946	1.482	0.491
787.500	471.833	80.010	19.995	104.209	19.952	1.060	0.517
788.000	472.081	80.011	19.995	104.209	19.953	0.995	0.518
788.500	472.325	80.011	19.995	104.209	19.946	1.500	0.500
789.000	472.604	80.012	19.994	104.209	19.952	1.069	0.507
789.500	472.864	80.011	19.994	104.210	19.952	1.040	0.531
790.000	473.119	80.012	19.994	104.210	19.953	0.976	0.527
790.500	473.336	80.012	19.993	104.210	19.950	1.206	0.493
791.000	473.628	80.012	19.993	104.211	19.956	0.793	0.491
791.500	473.915	80.011	19.992	104.212	19.955	0.857	0.544
792.000	474.178	80.012	19.993	104.209	19.955	0.818	0.565
792.500	474.417	80.013	19.993	104.207	19.952	1.073	0.526
793.000	474.655	80.011	19.994	104.204	19.956	0.801	0.489
793.500	474.907	80.013	19.993	104.204	19.956	0.801	0.483
794.000	475.154	80.014	19.994	104.204	19.956	0.785	0.495
794.500	475.467	80.013	19.995	104.205	19.955	0.820	0.529
795.000	475.672	80.013	19.993	104.208	19.956	0.787	0.539
795.500	475.919	80.013	19.995	104.211	19.957	0.682	0.485
796.000	476.172	80.013	19.993	104.212	19.956	0.756	0.475
796.500	476.414	80.013	19.993	104.212	19.952	1.056	0.497
797.000	476.640	80.013	19.994	104.211	19.959	0.565	0.482
797.500	476.920	80.012	19.994	104.211	19.958	0.637	0.487
798.000	477.167	80.014	19.994	104.211	19.959	0.580	0.516
798.500	477.414	80.011	19.993	104.210	19.960	0.501	0.510
799.000	477.647	80.014	19.994	104.210	19.955	0.863	0.487
799.500	477.909	80.013	19.993	104.210	19.961	0.446	0.488
800.000	478.190	80.013	19.993	104.210	19.956	0.738	0.519
800.500	478.419	80.013	19.994	104.210	19.957	0.715	0.527
801.000	478.656	80.012	19.992	104.210	19.957	0.666	0.488
801.500	478.927	80.013	19.995	104.208	19.961	0.407	0.487
802.000	479.214	80.013	19.994	104.208	19.959	0.522	0.533
802.500	479.432	80.012	19.993	104.208	19.957	0.707	0.531
803.000	479.701	80.012	19.995	104.208	19.957	0.676	0.496
803.500	479.911	80.012	19.993	104.208	19.960	0.497	0.483
804.000	480.196	80.013	19.994	104.210	19.960	0.481	0.487
804.500	480.495	80.012	19.993	104.210	19.957	0.662	0.539
805.000	480.724	80.013	19.994	104.207	19.960	0.510	0.556
805.500	480.975	80.012	19.994	104.207	19.958	0.629	0.504
806.000	481.224	80.012	19.994	104.207	19.961	0.430	0.491
806.500	481.479	80.012	19.994	104.208	19.960	0.497	0.502
807.000	481.698	80.013	19.994	104.208	19.961	0.403	0.489
807.500	481.967	80.013	19.995	104.212	19.962	0.366	0.481
808.000	482.245	80.012	19.994	104.213	19.963	0.288	0.517
808.500	482.496	80.012	19.994	104.216	19.962	0.325	0.538
809.000	482.746	80.013	19.994	104.217	19.963	0.298	0.515
809.500	483.014	80.013	19.993	104.217	19.963	0.253	0.509
810.000	483.261	80.011	19.992	104.216	19.957	0.689	0.517
810.500	483.494	80.011	19.994	104.214	19.961	0.388	0.498
811.000	483.801	80.011	19.994	104.212	19.962	0.339	0.510
811.500	484.056	80.012	19.994	104.211	19.962	0.323	0.551
812.000	484.296	80.012	19.995	104.212	19.962	0.349	0.529
812.500	484.542	80.013	19.994	104.213	19.962	0.356	0.491
813.000	484.780	80.012	19.993	104.213	19.964	0.168	0.485
813.500	485.035	80.013	19.995	104.212	19.962	0.353	0.488
814.000	485.305	80.011	19.994	104.211	19.967	-0.019	0.509
814.500	485.562	80.011	19.993	104.211	19.966	0.078	0.526
815.000	485.799	80.013	19.993	104.210	19.967	0.012	0.511
815.500	486.065	80.012	19.994	104.211	19.969	-0.156	0.498
816.000	486.322	80.014	19.993	104.212	19.965	0.123	0.513
816.501	486.568	80.012	19.993	104.213	19.967	-0.033	0.513
817.001	486.787	80.013	19.993	104.212	19.970	-0.195	0.484
817.501	487.081	80.013	19.993	104.210	19.965	0.162	0.489
818.000	487.361	80.013	19.993	104.208	19.966	0.023	0.543
818.500	487.560	80.013	19.993	104.207	19.965	0.152	0.527
819.000	487.807	80.016	19.994	104.205	19.966	0.086	0.463
819.500	488.059	80.013	19.994	104.206	19.967	-0.004	0.472
820.000	488.369	80.013	19.993	104.209	19.965	0.099	0.530
820.500	488.593	80.014	19.993	104.209	19.967	0.016	0.548
821.000	488.840	80.012	19.993	104.207	19.969	-0.136	0.502
821.500	489.105	80.015	19.993	104.202	19.962	0.351	0.491
822.000	489.363	80.012	19.993	104.202	19.966	0.037	0.518
822.500	489.614	80.015	19.993	104.201	19.969	-0.168	0.516
823.000	489.880	80.014	19.993	104.202	19.973	-0.444	0.513
823.500	490.108	80.014	19.993	104.206	19.969	-0.125	0.505
824.000	490.354	80.012	19.993	104.212	19.968	-0.109	0.484
824.501	490.624	80.015	19.993	104.212	19.964	0.175	0.495
825.000	490.893	80.012	19.993	104.212	19.969	-0.152	0.528
825.500	491.126	80.013	19.993	104.212	19.968	-0.056	0.521
826.000	491.382	80.013	19.993	104.213	19.972	-0.397	0.495
826.501	491.643	80.012	19.992	104.213	19.968	-0.053	0.503
827.000	491.910	80.014	19.993	104.214	19.967	0.019	0.523
827.500	492.156	80.013	19.992	104.213	19.970	-0.220	0.520
828.000	492.440	80.013	19.992	104.213	19.970	-0.212	0.522
828.500	492.678	80.012	19.994	104.209	19.968	-0.115	0.527
829.000	492.917	80.013	19.993	104.208	19.965	0.111	0.500
829.500	493.187	80.013	19.993	104.208	19.972	-0.368	0.493
830.000	493.466	80.012	19.993	104.209	19.973	-0.430	0.529
830.500	493.725	80.012	19.993	104.210	19.970	-0.255	0.543
831.000	493.993	80.011	19.994	104.214	19.972	-0.333	0.532
831.500	494.231	80.011	19.994	104.215	19.971	-0.269	0.517
832.000	494.482	80.011	19.992	104.215	19.972	-0.374	0.498
832.500	494.715	80.013	19.993	104.215	19.970	-0.226	0.486
833.000	494.998	80.012	19.993	104.214	19.969	-0.158	0.499
833.500	495.277	80.011	19.993	104.214	19.970	-0.203	0.539
834.000	495.500	80.012	19.993	104.213	19.971	-0.298	0.532
834.500	495.779	80.011	19.993	104.214	19.967	-0.041	0.502
835.000	496.007	80.012	19.994	104.214	19.973	-0.432	0.504
835.500	496.281	80.011	19.993	104.214	19.973	-0.462	0.505
836.000	496.539	80.011	19.992	104.214	19.972	-0.358	0.517
836.500	496.803	80.012	19.993	104.214	19.975	-0.612	0.527
837.000	497.062	80.013	19.994	104.211	19.971	-0.282	0.522
837.500	497.323	80.012	19.994	104.212	19.974	-0.495	0.522
838.000	497.555	80.012	19.993	104.212	19.973	-0.436	0.507
838.500	497.805	80.011	19.993	104.211	19.974	-0.512	0.488
839.000	498.090	80.012	19.995	104.210	19.974	-0.543	0.508
839.500	498.314	80.012	19.995	104.211	19.972	-0.370	0.521
840.000	498.570	80.012	19.995	104.210	19.971	-0.310	0.495
840.500	498.825	80.012	19.994	104.209	19.974	-0.510	0.496
841.000	499.100	80.012	19.994	104.209	19.972	-0.386	0.521
841.500	499.342	80.012	19.994	104.207	19.973	-0.458	0.524
842.000	499.589	80.012	19.994	104.208	19.976	-0.662	0.502
842.500	499.831	80.013	19.994	104.208	19.975	-0.565	0.488
843.000	500.075	80.012	19.993	104.208	19.976	-0.668	0.487
843.500	500.328	80.011	19.995	104.209	19.977	-0.723	0.492
844.000	500.624	80.012	19.995	104.209	19.975	-0.615	0.523
844.500	500.836	80.011	19.994	104.203	19.974	-0.534	0.528
845.000	501.127	80.012	19.994	104.203	19.977	-0.732	0.506
845.500	501.366	80.011	19.994	104.203	19.971	-0.296	0.517
846.000	501.665	80.013	19.994	104.204	19.976	-0.682	0.534
846.500	501.890	80.012	19.994	104.204	19.972	-0.382	0.531
847.000	502.112	80.012	19.993	104.208	19.972	-0.390	0.485
847.500	502.372	80.011	19.993	104.207	19.976	-0.635	0.464
848.000	502.619	80.011	19.994	104.207	19.974	-0.479	0.494
848.500	502.898	80.011	19.995	104.208	19.976	-0.660	0.516
849.000	503.186	80.011	19.995	104.207	19.978	-0.802	0.547
849.500	503.404	80.011	19.995	104.206	19.978	-0.791	0.537
850.000	503.632	80.011	19.996	104.205	19.978	-0.771	0.476
850.500	503.911	80.011	19.994	104.203	19.975	-0.567	0.477
851.000	504.194	80.012	19.995	104.202	19.975	-0.612	0.535
851.500	504.452	80.011	19.995	104.201	19.979	-0.871	0.552
852.000	504.689	80.012	19.994	104.203	19.982	-1.063	0.518
852.500	504.941	80.012	19.995	104.202	19.981	-0.970	0.491
853.000	505.219	80.014	19.994	104.203	19.980	-0.952	0.509
853.500	505.457	80.012	19.995	104.204	19.977	-0.725	0.523
854.000	505.729	80.012	19.993	104.207	19.979	-0.863	0.514
854.500	505.956	80.012	19.995	104.207	19.978	-0.789	0.505
855.000	506.243	80.011	19.993	104.203	19.976	-0.674	0.506
855.500	506.463	80.013	19.994	104.202	19.982	-1.089	0.510
856.000	506.782	80.011	19.994	104.200	19.980	-0.950	0.523
856.500	507.021	80.012	19.994	104.200	19.982	-1.054	0.548
857.000	507.255	80.012	19.995	104.195	19.980	-0.933	0.515
857.500	507.523	80.012	19.994	104.196	19.981	-1.032	0.488
858.000	507.784	80.012	19.994	104.197	19.984	-1.205	0.516
858.500	508.064	80.011	19.993	104.196	19.980	-0.962	0.535
859.000	508.303	80.012	19.994	104.189	19.983	-1.126	0.530
859.500	508.557	80.013	19.994	104.188	19.983	-1.118	0.506
860.000	508.773	80.011	19.994	104.192	19.983	-1.116	0.482
860.500	509.054	80.012	19.993	104.193	19.982	-1.059	0.484
861.000	509.331	80.010	19.992	104.196	19.983	-1.151	0.528
861.500	509.574	80.011	19.995	104.201	19.986	-1.334	0.539
862.000	509.838	80.012	19.994	104.208	19.986	-1.332	0.513
862.500	510.100	80.011	19.995	104.208	19.984	-1.182	0.516
863.000	510.360	80.010	19.995	104.206	19.982	-1.075	0.524
863.500	510.601	80.011	19.995	104.203	19.989	-1.544	0.512
864.000	510.878	80.011	19.994	104.202	19.985	-1.313	0.510
864.500	511.122	80.011	19.994	104.202	19.983	-1.122	0.520
865.000	511.368	80.011	19.995	104.201	19.987	-1.437	0.505
865.500	511.666	80.011	19.994	104.201	19.982	-1.063	0.517
866.000	511.909	80.010	19.995	104.201	19.984	-1.223	0.542
866.500	512.163	80.011	19.995	104.203	19.982	-1.065	0.519
867.000	512.413	80.012	19.994	104.201	19.984	-1.235	0.501
867.500	512.696	80.009	19.994	104.198	19.978	-0.787	0.518
868.000	512.953	80.009	19.994	104.198	19.984	-1.204	0.536
868.500	513.186	80.009	19.994	104.194	19.985	-1.264	0.515
869.000	513.459	80.009	19.994	104.190	19.984	-1.209	0.498
869.500	513.736	80.011	19.994	104.190	19.985	-1.293	0.528
870.000	513.965	80.011	19.995	104.190	19.983	-1.165	0.528
870.500	514.244	80.010	19.995	104.190	19.984	-1.223	0.506
871.000	514.527	80.010	19.994	104.191	19.981	-1.009	0.535
871.500	514.795	80.010	19.994	104.192	19.984	-1.205	0.557
872.000	515.079	80.011	19.996	104.191	19.985	-1.320	0.552
872.501	515.312	80.011	19.995	104.191	19.988	-1.500	0.534
873.001	515.609	80.011	19.994	104.190	19.989	-1.579	0.523
873.501	515.861	80.011	19.994	104.193	19.986	-1.389	0.540
874.000	516.102	80.011	19.996	104.195	19.990	-1.624	0.521
874.500	516.369	80.011	19.995	104.198	19.987	-1.422	0.501
875.000	516.636	80.011	19.995	104.202	19.986	-1.350	0.521
875.500	516.889	80.012	19.995	104.203	19.984	-1.235	0.526
876.000	517.174	80.012	19.994	104.206	19.985	-1.281	0.529
876.500	517.450	80.012	19.994	104.208	19.986	-1.354	0.550
877.000	517.683	80.012	19.995	104.203	19.982	-1.091	0.535
877.500	517.971	80.012	19.996	104.198	19.984	-1.246	0.515
878.000	518.217	80.011	19.995	104.196	19.988	-1.474	0.527
878.500	518.470	80.013	19.994	104.194	19.987	-1.449	0.516
879.000	518.737	80.012	19.996	104.194	19.987	-1.402	0.509
879.500	519.001	80.012	19.994	104.198	19.987	-1.462	0.525
880.000	519.246	80.012	19.994	104.203	19.986	-1.338	0.520
880.500	519.541	80.012	19.994	104.203	19.988	-1.490	0.525
881.000	519.798	80.013	19.993	104.201	19.987	-1.439	0.546
881.500	520.009	80.012	19.993	104.200	19.983	-1.135	0.510
882.000	520.263	80.013	19.995	104.198	19.988	-1.478	0.467
882.500	520.554	80.013	19.994	104.194	19.987	-1.426	0.506
883.000	520.814	80.012	19.994	104.194	19.986	-1.369	0.548
883.500	521.079	80.014	19.994	104.193	19.988	-1.513	0.538
884.000	521.337	80.012	19.993	104.196	19.987	-1.406	0.524
884.500	521.572	80.014	19.995	104.198	19.985	-1.313	0.508
885.000	521.858	80.012	19.993	104.198	19.986	-1.393	0.507
885.500	522.109	80.013	19.993	104.200	19.987	-1.418	0.529
886.000	522.362	80.012	19.994	104.200	19.989	-1.568	0.521
886.500	522.644	80.012	19.994	104.197	19.989	-1.550	0.520
887.000	522.909	80.012	19.995	104.194	19.988	-1.474	0.541
887.500	523.163	80.012	19.993	104.199	19.991	-1.690	0.533
888.000	523.440	80.013	19.994	104.197	19.994	-1.940	0.525
888.500	523.680	80.012	19.994	104.195	19.993	-1.836	0.523
889.000	523.947	80.012	19.993	104.193	19.994	-1.899	0.512
889.500	524.219	80.011	19.994	104.190	19.993	-1.844	0.524
890.000	524.452	80.011	19.993	104.184	19.991	-1.739	0.522
890.500	524.692	80.012	19.994	104.183	19.993	-1.860	0.489
891.000	524.977	80.012	19.993	104.181	19.991	-1.700	0.499
891.500	525.190	80.011	19.993	104.184	19.994	-1.905	0.512
892.000	525.492	80.012	19.994	104.189	19.989	-1.599	0.507
892.500	525.774	80.012	19.994	104.196	19.992	-1.776	0.549
893.000	526.011	80.012	19.994	104.202	19.991	-1.747	0.551
893.500	526.225	80.012	19.994	104.208	19.994	-1.893	0.485
894.000	526.500	80.012	19.993	104.211	19.990	-1.657	0.470
894.500	526.773	80.010	19.993	104.210	19.991	-1.745	0.519
895.000	527.050	80.012	19.994	104.206	19.998	-2.197	0.549
895.500	527.269	80.011	19.993	104.204	19.994	-1.951	0.523
896.000	527.514	80.012	19.994	104.204	19.993	-1.871	0.480
896.500	527.813	80.012	19.992	104.204	19.991	-1.688	0.504
897.000	528.078	80.013	19.994	104.202	19.990	-1.614	0.554
897.500	528.310	80.013	19.993	104.199	19.990	-1.671	0.531
898.000	528.605	80.012	19.993	104.198	19.991	-1.722	0.512
898.500	528.854	80.012	19.994	104.194	19.990	-1.611	0.535
899.000	529.118	80.013	19.995	104.190	19.993	-1.821	0.528
899.500	529.346	80.013	19.993	104.191	19.992	-1.813	0.502
900.000	529.628	80.014	19.993	104.195	19.995	-1.984	0.501
900.500	529.902	80.013	19.994	104.198	19.993	-1.889	0.533
901.000	530.172	80.014	19.993	104.202	19.992	-1.778	0.550
901.500	530.424	80.014	19.993	104.200	19.991	-1.731	0.533
902.000	530.654	80.013	19.994	104.197	19.995	-1.977	0.503
902.500	530.940	80.013	19.994	104.197	19.992	-1.762	0.499
903.000	531.191	80.014	19.995	104.197	19.993	-1.831	0.526
903.500	531.481	80.013	19.993	104.195	19.995	-1.985	0.539
904.000	531.701	80.014	19.994	104.196	19.994	-1.955	0.526
904.500	532.000	80.015	19.995	104.195	19.995	-2.016	0.515
905.000	532.212	80.014	19.993	104.192	19.996	-2.099	0.515
905.500	532.484	80.015	19.995	104.189	19.996	-2.080	0.497
906.000	532.730	80.014	19.993	104.186	19.994	-1.939	0.501
906.500	532.983	80.013	19.995	104.186	19.994	-1.955	0.509
907.000	533.271	80.014	19.993	104.189	19.997	-2.152	0.520
907.500	533.535	80.015	19.995	104.193	19.994	-1.937	0.547
908.000	533.788	80.015	19.995	104.195	19.994	-1.928	0.534
908.500	534.060	80.014	19.994	104.201	19.993	-1.834	0.521
909.000	534.303	80.015	19.995	104.202	19.998	-2.204	0.520
909.500	534.570	80.013	19.993	104.204	19.996	-2.095	0.512
910.000	534.838	80.014	19.994	104.199	19.996	-2.062	0.522
910.500	535.056	80.013	19.992	104.198	19.996	-2.089	0.511
911.000	535.287	80.013	19.994	104.195	19.998	-2.197	0.468
911.500	535.578	80.012	19.993	104.196	19.998	-2.210	0.486
912.000	535.805	80.012	19.993	104.196	19.998	-2.191	0.520
912.500	536.075	80.012	19.993	104.197	19.998	-2.183	0.507
913.000	536.344	80.011	19.994	104.195	19.993	-1.865	0.518
913.500	536.611	80.012	19.994	104.196	19.995	-1.994	0.538
914.000	536.851	80.012	19.994	104.197	19.998	-2.237	0.522
914.500	537.122	80.012	19.994	104.197	19.994	-1.918	0.509
915.000	537.349	80.011	19.993	104.194	20.002	-2.465	0.504
915.500	537.629	80.010	19.993	104.190	19.998	-2.202	0.503
916.000	537.872	80.013	19.994	104.184	19.997	-2.121	0.515
916.500	538.100	80.012	19.994	104.178	19.996	-2.054	0.497
917.000	538.372	80.011	19.993	104.173	20.001	-2.403	0.485
917.500	538.627	80.010	19.994	104.173	19.997	-2.140	0.513
918.000	538.905	80.011	19.994	104.176	19.995	-1.979	0.530
918.500	539.160	80.010	19.993	104.177	19.995	-1.965	0.533
919.000	539.402	80.013	19.995	104.177	19.997	-2.130	0.515
919.500	539.650	80.012	19.994	104.177	19.999	-2.255	0.493
920.000	539.943	80.012	19.994	104.177	19.997	-2.148	0.515
920.500	540.193	80.012	19.993	104.174	19.993	-1.873	0.542
921.000	540.457	80.012	19.992	104.175	19.996	-2.081	0.528
921.500	540.687	80.011	19.993	104.180	19.997	-2.144	0.504
922.000	540.935	80.012	19.995	104.186	19.995	-1.990	0.486
922.500	541.208	80.011	19.994	104.187	19.996	-2.045	0.500
923.000	541.432	80.011	19.994	104.188	19.996	-2.037	0.509
923.500	541.732	80.012	19.993	104.186	19.998	-2.193	0.510
924.000	541.962	80.012	19.993	104.180	20.000	-2.372	0.527
924.500	542.239	80.012	19.995	104.175	19.997	-2.121	0.519
925.001	542.467	80.012	19.992	104.177	19.997	-2.162	0.506
925.501	542.686	80.013	19.994	104.177	19.999	-2.308	0.476
926.000	542.987	80.012	19.993	104.178	19.997	-2.173	0.483
926.500	543.262	80.011	19.993	104.180	20.000	-2.383	0.548
927.000	543.500	80.013	19.994	104.183	20.002	-2.506	0.545
927.500	543.737	80.013	19.994	104.185	19.997	-2.169	0.494
928.000	544.020	80.012	19.993	104.192	19.995	-1.967	0.498
928.500	544.243	80.011	19.993	104.195	19.997	-2.154	0.513
929.000	544.501	80.013	19.994	104.195	20.001	-2.409	0.494
929.500	544.774	80.012	19.993	104.196	19.997	-2.113	0.506
930.000	545.015	80.012	19.994	104.190	20.005	-2.707	0.522
930.500	545.265	80.013	19.994	104.182	19.998	-2.177	0.503
931.000	545.534	80.013	19.994	104.179	20.004	-2.611	0.505
931.500	545.788	80.013	19.994	104.177	20.002	-2.469	0.521
932.000	546.042	80.012	19.993	104.174	20.002	-2.498	0.516
932.500	546.322	80.012	19.993	104.179	20.002	-2.479	0.521
933.000	546.531	80.012	19.994	104.185	19.999	-2.298	0.511
933.500	546.818	80.012	19.994	104.187	20.001	-2.405	0.492
934.000	547.066	80.012	19.995	104.190	20.000	-2.386	0.515
934.501	547.346	80.011	19.994	104.194	20.001	-2.399	0.531
935.000	547.607	80.012	19.994	104.193	20.002	-2.465	0.535
935.500	547.868	80.011	19.994	104.189	20.000	-2.385	0.532
936.000	548.172	80.012	19.993	104.186	20.005	-2.691	0.544
936.500	548.410	80.011	19.994	104.188	20.004	-2.619	0.553
937.000	548.625	80.012	19.993	104.186	20.004	-2.652	0.497
937.500	548.957	80.011	19.994	104.185	20.002	-2.496	0.500
938.000	549.230	80.011	19.995	104.184	20.000	-2.358	0.577
938.500	549.466	80.012	19.995	104.184	20.003	-2.570	0.557
939.000	549.756	80.011	19.994	104.183	20.002	-2.491	0.517
939.500	550.017	80.012	19.995	104.183	20.004	-2.608	0.538
940.000	550.261	80.010	19.994	104.181	20.000	-2.353	0.528
940.500	550.559	80.011	19.994	104.184	20.002	-2.522	0.523
941.000	550.817	80.012	19.995	104.184	20.007	-2.880	0.549
941.500	551.074	80.011	19.994	104.182	20.004	-2.645	0.535
942.000	551.368	80.011	19.993	104.180	20.004	-2.645	0.533
942.500	551.608	80.011	19.994	104.180	20.005	-2.678	0.543
943.000	551.869	80.011	19.995	104.179	20.003	-2.594	0.518
943.500	552.167	80.011	19.995	104.184	20.005	-2.732	0.530
944.000	552.406	80.011	19.994	104.185	20.003	-2.598	0.548
944.500	552.695	80.011	19.994	104.188	20.006	-2.779	0.532
945.000	552.932	80.012	19.994	104.188	20.001	-2.395	0.527
945.500	553.234	80.011	19.994	104.191	20.005	-2.677	0.533
946.000	553.511	80.011	19.995	104.190	20.004	-2.644	0.559
946.500	553.783	80.011	19.995	104.187	20.005	-2.711	0.564
947.000	554.063	80.011	19.993	104.185	20.003	-2.578	0.551
947.500	554.334	80.009	19.994	104.187	20.004	-2.602	0.552
948.001	554.629	80.011	19.994	104.183	20.005	-2.713	0.558
948.500	554.892	80.013	19.993	104.181	19.998	-2.224	0.562
949.000	555.208	80.011	19.993	104.182	20.004	-2.643	0.568
949.500	555.479	80.011	19.994	104.185	20.007	-2.828	0.583
950.000	555.746	80.011	19.994	104.191	20.005	-2.687	0.563
950.500	556.033	80.011	19.994	104.196	20.006	-2.744	0.546
951.001	556.277	80.011	19.994	104.200	20.001	-2.428	0.542
951.500	556.577	80.011	19.994	104.200	20.011	-3.151	0.538
952.000	556.811	80.011	19.993	104.196	20.008	-2.892	0.540
952.500	557.104	80.012	19.994	104.190	20.009	-2.999	0.531
953.000	557.396	80.011	19.994	104.191	20.007	-2.843	0.556
953.500	557.701	80.011	19.993	104.189	20.010	-3.052	0.590
954.000	557.950	80.011	19.994	104.190	20.008	-2.890	0.576
954.500	558.217	80.012	19.994	104.190	20.007	-2.868	0.536
955.000	558.495	80.011	19.994	104.189	20.011	-3.153	0.531
955.500	558.842	80.011	19.993	104.184	20.008	-2.925	0.585
956.000	559.058	80.013	19.994	104.181	20.008	-2.902	0.594
956.500	559.318	80.012	19.995	104.179	20.007	-2.861	0.520
957.000	559.600	80.011	19.993	104.178	20.011	-3.147	0.509
957.500	559.893	80.013	19.994	104.183	20.009	-2.962	0.559
958.000	560.128	80.012	19.994	104.186	20.005	-2.676	0.551
958.500	560.414	80.012	19.994	104.189	20.009	-2.985	0.524
959.000	560.728	80.012	19.994	104.190	20.012	-3.207	0.560
959.500	560.987	80.012	19.994	104.194	20.010	-3.088	0.587
960.001	561.299	80.012	19.992	104.195	20.009	-2.981	0.572
960.501	561.548	80.012	19.993	104.194	20.006	-2.800	0.566
961.000	561.810	80.012	19.993	104.193	20.016	-3.453	0.536
961.500	562.102	80.012	19.994	104.191	20.012	-3.176	0.532
962.000	562.379	80.012	19.993	104.187	20.010	-3.046	0.562
962.500	562.658	80.012	19.994	104.187	20.012	-3.186	0.563
963.000	562.944	80.014	19.995	104.191	20.011	-3.130	0.560
963.500	563.197	80.012	19.995	104.194	20.011	-3.130	0.552
964.000	563.515	80.012	19.994	104.194	20.011	-3.157	0.555
964.500	563.750	80.011	19.995	104.193	20.007	-2.879	0.562
965.000	564.044	80.012	19.994	104.187	20.009	-3.005	0.541
965.500	564.341	80.012	19.995	104.180	20.009	-3.019	0.560
966.000	564.646	80.011	19.995	104.180	20.011	-3.124	0.597
966.500	564.871	80.011	19.995	104.185	20.011	-3.094	0.567
967.000	565.177	80.010	19.995	104.189	20.011	-3.098	0.531
967.500	565.434	80.011	19.995	104.189	20.010	-3.088	0.547
968.000	565.719	80.010	19.994	104.193	20.012	-3.205	0.553
968.500	566.014	80.011	19.995	104.190	20.013	-3.248	0.561
969.000	566.290	80.011	19.996	104.187	20.011	-3.137	0.575
969.500	566.561	80.010	19.995	104.184	20.009	-3.008	0.559
970.000	566.867	80.011	19.995	104.184	20.008	-2.913	0.562
970.500	567.123	80.011	19.996	104.181	20.008	-2.890	0.570
971.000	567.393	80.013	19.996	104.185	20.012	-3.221	0.544
971.500	567.673	80.010	19.994	104.183	20.008	-2.931	0.537
972.000	567.957	80.011	19.995	104.186	20.010	-3.042	0.557
972.500	568.262	80.012	19.994	104.187	20.009	-2.989	0.577
973.000	568.534	80.013	19.996	104.190	20.009	-2.962	0.583
973.500	568.802	80.012	19.995	104.190	20.011	-3.106	0.558
974.000	569.090	80.011	19.995	104.193	20.016	-3.454	0.549
974.500	569.356	80.011	19.993	104.197	20.012	-3.222	0.555
975.000	569.613	80.012	19.997	104.200	20.013	-3.271	0.538
975.500	569.975	80.012	19.994	104.202	20.014	-3.365	0.571
976.000	570.242	80.011	19.994	104.203	20.014	-3.353	0.624
976.500	570.484	80.012	19.995	104.202	20.016	-3.458	0.569
977.000	570.777	80.011	19.994	104.195	20.014	-3.335	0.522
977.500	571.026	80.013	19.994	104.189	20.015	-3.400	0.539
978.001	571.299	80.011	19.994	104.182	20.014	-3.351	0.532
978.501	571.575	80.011	19.993	104.176	20.014	-3.365	0.536
979.000	571.854	80.012	19.994	104.177	20.011	-3.111	0.552
979.500	572.116	80.012	19.995	104.179	20.017	-3.542	0.548
980.000	572.409	80.013	19.994	104.179	20.016	-3.470	0.548
980.500	572.675	80.014	19.994	104.179	20.019	-3.690	0.557
981.000	572.964	80.012	19.992	104.181	20.018	-3.637	0.557
981.500	573.231	80.013	19.995	104.178	20.017	-3.573	0.555
982.000	573.533	80.014	19.994	104.180	20.019	-3.672	0.562
982.500	573.805	80.014	19.993	104.184	20.018	-3.614	0.571
983.000	574.070	80.013	19.993	104.187	20.016	-3.503	0.555
983.500	574.344	80.013	19.995	104.185	20.018	-3.629	0.538
984.000	574.630	80.014	19.993	104.186	20.015	-3.397	0.550
984.500	574.932	80.013	19.994	104.181	20.017	-3.545	0.574
985.000	575.168	80.013	19.993	104.177	20.019	-3.666	0.562
985.500	575.425	80.013	19.992	104.175	20.014	-3.368	0.515
986.000	575.692	80.014	19.994	104.174	20.019	-3.711	0.509
986.500	576.000	80.013	19.993	104.173	20.023	-3.964	0.550
987.000	576.241	80.013	19.992	104.173	20.021	-3.863	0.562
987.500	576.507	80.014	19.993	104.175	20.022	-3.914	0.527
988.000	576.777	80.015	19.994	104.174	20.020	-3.754	0.522
988.500	577.036	80.012	19.993	104.175	20.018	-3.657	0.533
989.000	577.307	80.014	19.994	104.175	20.023	-3.980	0.529
989.500	577.512	80.014	19.995	104.175	20.025	-4.130	0.503
990.000	577.782	80.014	19.992	104.173	20.023	-3.978	0.476
990.500	578.068	80.013	19.995	104.173	20.021	-3.857	0.516
991.000	578.327	80.012	19.993	104.173	20.025	-4.149	0.550
991.500	578.594	80.013	19.992	104.172	20.021	-3.834	0.535
992.000	578.815	80.012	19.993	104.171	20.019	-3.670	0.507
992.500	579.071	80.012	19.993	104.169	20.024	-4.040	0.483
993.000	579.325	80.011	19.993	104.169	20.025	-4.155	0.493
993.500	579.584	80.012	19.993	104.168	20.023	-3.978	0.511
994.000	579.829	80.012	19.993	104.166	20.021	-3.834	0.509
994.500	580.066	80.013	19.994	104.166	20.024	-4.024	0.493
995.000	580.334	80.011	19.994	104.167	20.026	-4.221	0.493
995.500	580.570	80.011	19.993	104.168	20.023	-3.976	0.504
996.000	580.812	80.011	19.994	104.168	20.025	-4.141	0.491
996.500	581.057	80.011	19.993	104.171	20.026	-4.184	0.483
997.000	581.277	80.012	19.992	104.172	20.024	-4.038	0.477
997.500	581.518	80.010	19.994	104.173	20.031	-4.519	0.463
998.000	581.757	80.011	19.993	104.173	20.028	-4.309	0.470
998.500	581.990	80.011	19.993	104.173	20.028	-4.334	0.476
999.000	582.263	80.011	19.994	104.172	20.027	-4.282	0.489
999.500	582.526	80.011	19.994	104.172	20.025	-4.097	0.521
1000.000	582.709	80.011	19.993	104.172	20.024	-4.083	0.491
1000.500	582.985	80.011	19.995	104.172	20.021	-3.869	0.452
1001.000	583.184	80.011	19.994	104.168	20.025	-4.128	0.467
1001.500	583.445	80.011	19.994	104.169	20.024	-4.060	0.467
1002.000	583.666	80.011	19.993	104.170	20.022	-3.916	0.471
1002.500	583.913	80.011	19.994	104.171	20.024	-4.038	0.475
1003.000	584.127	80.012	19.993	104.171	20.021	-3.851	0.465
1003.500	584.368	80.011	19.995	104.175	20.028	-4.332	0.458
1004.000	584.607	80.011	19.994	104.173	20.030	-4.462	0.468
1004.500	584.850	80.009	19.993	104.168	20.027	-4.228	0.481
1005.000	585.075	80.011	19.994	104.168	20.027	-4.289	0.475
1005.500	585.299	80.012	19.993	104.168	20.027	-4.271	0.458
1006.000	585.520	80.012	19.992	104.166	20.030	-4.447	0.447
1006.500	585.761	80.013	19.993	104.166	20.028	-4.344	0.454
1007.000	585.982	80.012	19.994	104.170	20.029	-4.410	0.462
1007.500	586.238	80.012	19.993	104.171	20.030	-4.468	0.469
1008.000	586.458	80.012	19.994	104.170	20.032	-4.637	0.476
1008.500	586.688	80.012	19.993	104.170	20.031	-4.561	0.463
1009.000	586.912	80.013	19.993	104.172	20.036	-4.900	0.453
1009.500	587.174	80.011	19.993	104.172	20.028	-4.355	0.470
1010.000	587.388	80.011	19.993	104.172	20.036	-4.893	0.480
1010.500	587.639	80.010	19.993	104.172	20.032	-4.599	0.470
1011.000	587.899	80.011	19.992	104.173	20.034	-4.739	0.488
1011.500	588.092	80.011	19.994	104.173	20.031	-4.549	0.482
1012.000	588.318	80.011	19.993	104.173	20.029	-4.386	0.436
1012.500	588.553	80.011	19.993	104.173	20.028	-4.321	0.440
1013.000	588.815	80.010	19.993	104.173	20.029	-4.376	0.479
1013.500	589.009	80.013	19.993	104.174	20.029	-4.371	0.477
1014.000	589.234	80.011	19.993	104.174	20.031	-4.521	0.437
1014.500	589.476	80.011	19.994	104.166	20.029	-4.420	0.443
1015.000	589.717	80.012	19.993	104.158	20.029	-4.370	0.475
1015.500	589.927	80.011	19.993	104.158	20.033	-4.680	0.467
1016.000	590.148	80.010	19.993	104.158	20.028	-4.306	0.441
1016.500	590.400	80.011	19.993	104.159	20.033	-4.667	0.452
1017.000	590.621	80.012	19.992	104.166	20.029	-4.388	0.473
1017.500	590.844	80.012	19.993	104.171	20.027	-4.238	0.459
1018.000	591.065	80.012	19.993	104.166	20.031	-4.534	0.444
1018.500	591.330	80.011	19.993	104.159	20.033	-4.659	0.465
1019.000	591.562	80.012	19.993	104.154	20.028	-4.309	0.491
1019.500	591.804	80.013	19.994	104.149	20.025	-4.133	0.485
1020.000	592.034	80.010	19.994	104.153	20.026	-4.162	0.473
1020.500	592.263	80.011	19.993	104.150	20.026	-4.197	0.466
1021.000	592.499	80.011	19.992	104.135	20.031	-4.528	0.462
1021.500	592.737	80.011	19.993	104.124	20.027	-4.248	0.469
1022.000	592.956	80.010	19.993	104.118	20.029	-4.396	0.466
1022.500	593.204	80.012	19.992	104.109	20.031	-4.573	0.462
1023.000	593.425	80.011	19.993	104.120	20.028	-4.315	0.468
1023.500	593.673	80.012	19.993	104.173	20.034	-4.749	0.469
1024.000	593.905	80.011	19.994	104.198	20.035	-4.852	0.475
1024.499	594.133	80.010	19.993	104.211	20.031	-4.554	0.470
1025.000	594.346	80.011	19.994	104.217	20.029	-4.410	0.451
1025.501	594.598	80.010	19.995	104.215	20.031	-4.552	0.453
1026.001	594.808	80.010	19.994	104.182	20.033	-4.694	0.464
1026.500	595.081	80.010	19.993	104.167	20.031	-4.571	0.473
1027.000	595.288	80.009	19.994	104.161	20.033	-4.714	0.481
1027.501	595.507	80.010	19.994	104.161	20.030	-4.499	0.453
1028.000	595.738	80.010	19.993	104.156	20.029	-4.400	0.438
1028.500	595.962	80.010	19.993	104.157	20.033	-4.714	0.453
1029.001	596.190	80.009	19.994	104.162	20.032	-4.613	0.453
1029.501	596.448	80.011	19.995	104.166	20.033	-4.652	0.469
1030.000	596.649	80.011	19.993	104.165	20.033	-4.698	0.472
1030.499	596.884	80.011	19.994	104.166	20.033	-4.721	0.448
1030.999	597.103	80.011	19.995	104.164	20.030	-4.447	0.445
1031.499	597.338	80.011	19.993	104.161	20.034	-4.774	0.454
1032.000	597.572	80.011	19.995	104.159	20.033	-4.673	0.462
1032.501	597.783	80.010	19.994	104.161	20.028	-4.343	0.457
1033.001	598.056	80.011	19.995	104.163	20.028	-4.330	0.464
1033.501	598.269	80.010	19.994	104.166	20.024	-4.030	0.485
1034.001	598.493	80.011	19.995	104.171	20.029	-4.380	0.461
1034.500	598.720	80.011	19.994	104.173	20.031	-4.532	0.444
1034.999	598.980	80.011	19.994	104.169	20.034	-4.789	0.470
1035.500	599.183	80.010	19.994	104.168	20.034	-4.751	0.475
1036.001	599.447	80.013	19.994	104.168	20.031	-4.573	0.465
1036.501	599.693	80.012	19.993	104.168	20.031	-4.570	0.489
1037.000	599.909	80.012	19.993	104.166	20.038	-5.008	0.486
1037.500	600.139	80.011	19.994	104.167	20.039	-5.130	0.454
1038.000	600.376	80.012	19.994	104.168	20.036	-4.922	0.456
1038.500	600.640	80.013	19.995	104.169	20.040	-5.161	0.484
1039.001	600.878	80.012	19.994	104.169	20.034	-4.725	0.501
1039.501	601.127	80.012	19.994	104.170	20.038	-5.041	0.495
1040.001	601.313	80.013	19.994	104.172	20.040	-5.195	0.462
1040.501	601.559	80.013	19.994	104.173	20.049	-5.827	0.434
1041.000	601.813	80.012	19.994	104.171	20.037	-4.988	0.466
1041.499	602.037	80.013	19.995	104.167	20.042	-5.355	0.489
1041.999	602.288	80.012	19.994	104.166	20.037	-4.957	0.476
1042.500	602.505	80.012	19.994	104.166	20.036	-4.883	0.472
1043.000	602.764	80.013	19.994	104.164	20.036	-4.920	0.472
1043.500	602.962	80.012	19.994	104.162	20.041	-5.241	0.466
1044.000	603.239	80.013	19.994	104.162	20.041	-5.222	0.465
1044.500	603.527	80.012	19.994	104.161	20.041	-5.266	0.520
1045.000	603.715	80.013	19.993	104.160	20.042	-5.303	0.521
1045.500	604.008	80.014	19.994	104.161	20.041	-5.267	0.479
1046.000	604.229	80.012	19.994	104.163	20.041	-5.244	0.498
1046.500	604.446	80.011	19.993	104.167	20.039	-5.086	0.476
1047.000	604.670	80.013	19.994	104.169	20.043	-5.394	0.439
1047.500	604.916	80.013	19.994	104.170	20.041	-5.289	0.455
1048.000	605.166	80.012	19.994	104.171	20.041	-5.228	0.483
1048.500	605.426	80.013	19.994	104.170	20.041	-5.263	0.503
1049.000	605.737	80.012	19.995	104.169	20.038	-5.021	0.541
1049.500	605.984	80.012	19.994	104.169	20.038	-5.031	0.564
1050.000	606.167	80.012	19.994	104.169	20.039	-5.084	0.494
1050.500	606.519	80.012	19.993	104.170	20.039	-5.076	0.483
1050.999	606.685	80.013	19.993	104.171	20.041	-5.250	0.526
1051.500	606.964	80.013	19.994	104.172	20.041	-5.281	0.481
1052.000	607.223	80.012	19.994	104.170	20.039	-5.118	0.492
1052.500	607.522	80.012	19.994	104.148	20.036	-4.916	0.548
1053.000	607.750	80.013	19.993	104.132	20.038	-5.036	0.542
1053.500	607.996	80.012	19.994	104.124	20.040	-5.210	0.501
1054.000	608.293	80.012	19.994	104.117	20.042	-5.311	0.509
1054.501	608.536	80.013	19.994	104.117	20.041	-5.226	0.542
1055.000	608.805	80.011	19.994	104.139	20.041	-5.245	0.526
1055.500	609.069	80.014	19.995	104.159	20.042	-5.356	0.522
1056.000	609.324	80.012	19.994	104.189	20.041	-5.259	0.526
1056.500	609.617	80.012	19.995	104.221	20.040	-5.185	0.534
1057.000	609.870	80.013	19.993	104.223	20.039	-5.099	0.547
1057.500	610.127	80.013	19.995	104.222	20.041	-5.218	0.528
1058.000	610.436	80.013	19.994	104.218	20.041	-5.241	0.538
1058.500	610.675	80.013	19.994	104.194	20.041	-5.270	0.557
1058.999	610.946	80.012	19.995	104.169	20.038	-5.050	0.529
1059.499	611.209	80.013	19.995	104.166	20.040	-5.210	0.522
1059.999	611.469	80.012	19.994	104.165	20.038	-5.062	0.528
1060.500	611.765	80.012	19.993	104.162	20.039	-5.097	0.539
1061.000	611.997	80.012	19.994	104.143	20.036	-4.931	0.542
1061.500	612.259	80.013	19.995	104.125	20.041	-5.262	0.511
1062.000	612.556	80.013	19.995	104.118	20.035	-4.824	0.527
1062.500	612.841	80.013	19.994	104.113	20.038	-5.040	0.571
1063.000	613.080	80.014	19.994	104.109	20.041	-5.256	0.553
1063.500	613.304	80.014	19.995	104.129	20.039	-5.122	0.493
1064.000	613.585	80.014	19.995	104.159	20.041	-5.272	0.484
1064.500	613.859	80.014	19.995	104.196	20.039	-5.109	0.530
1065.000	614.150	80.013	19.994	104.206	20.043	-5.377	0.560
1065.500	614.419	80.014	19.995	104.212	20.039	-5.122	0.562
1066.000	614.679	80.014	19.995	104.213	20.044	-5.467	0.544
1066.500	614.944	80.014	19.994	104.200	20.041	-5.243	0.527
1067.000	615.190	80.015	19.994	104.172	20.045	-5.531	0.518
1067.500	615.493	80.014	19.995	104.169	20.043	-5.426	0.530
1068.000	615.769	80.014	19.995	104.169	20.041	-5.243	0.564
1068.500	616.035	80.014	19.994	104.169	20.040	-5.192	0.561
1069.000	616.302	80.014	19.993	104.165	20.043	-5.416	0.538
1069.499	616.548	80.013	19.994	104.162	20.042	-5.317	0.523
1069.999	616.808	80.014	19.994	104.160	20.043	-5.412	0.509
1070.500	617.078	80.014	19.995	104.160	20.047	-5.708	0.518
1071.000	617.326	80.012	19.993	104.161	20.042	-5.352	0.524
1071.500	617.600	80.014	19.994	104.164	20.042	-5.302	0.519
1072.000	617.854	80.012	19.994	104.161	20.043	-5.366	0.525
1072.500	618.106	80.013	19.994	104.157	20.044	-5.494	0.517
1073.000	618.414	80.013	19.994	104.155	20.047	-5.705	0.533
1073.501	618.618	80.013	19.994	104.155	20.041	-5.280	0.536
1074.001	618.931	80.012	19.994	104.157	20.048	-5.737	0.514
1074.500	619.158	80.012	19.993	104.162	20.047	-5.646	0.528
1075.000	619.420	80.012	19.993	104.167	20.046	-5.580	0.515
1075.500	619.661	80.012	19.992	104.165	20.044	-5.465	0.497
1076.000	619.938	80.012	19.993	104.162	20.044	-5.496	0.511
1076.500	620.194	80.011	19.993	104.161	20.044	-5.432	0.525
1077.000	620.451	80.012	19.994	104.159	20.046	-5.615	0.523
1077.500	620.767	80.012	19.993	104.158	20.047	-5.707	0.543
1078.000	620.985	80.013	19.994	104.162	20.047	-5.706	0.554
1078.500	621.245	80.012	19.993	104.165	20.044	-5.498	0.506
1079.000	621.489	80.012	19.993	104.165	20.046	-5.617	0.491
1079.500	621.766	80.011	19.993	104.163	20.048	-5.763	0.513
1080.000	622.034	80.013	19.993	104.160	20.046	-5.617	0.533
1080.500	622.302	80.012	19.992	104.161	20.045	-5.502	0.540
1081.000	622.539	80.011	19.993	104.162	20.044	-5.492	0.521
1081.500	622.790	80.012	19.994	104.162	20.047	-5.671	0.497
1082.000	623.081	80.012	19.994	104.166	20.046	-5.627	0.515
1082.500	623.320	80.012	19.994	104.171	20.045	-5.543	0.536
1082.999	623.594	80.012	19.993	104.170	20.046	-5.572	0.521
1083.499	623.862	80.011	19.994	104.166	20.049	-5.802	0.528
1084.000	624.097	80.012	19.994	104.167	20.043	-5.385	0.522
1084.501	624.364	80.011	19.993	104.166	20.045	-5.552	0.502
1085.001	624.605	80.010	19.992	104.161	20.046	-5.600	0.505
1085.500	624.875	80.009	19.994	104.161	20.043	-5.384	0.510
1085.999	625.146	80.011	19.994	104.163	20.043	-5.374	0.526
1086.500	625.378	80.011	19.993	104.163	20.048	-5.725	0.522
1087.000	625.664	80.012	19.993	104.164	20.048	-5.719	0.510
1087.500	625.915	80.011	19.992	104.168	20.046	-5.623	0.528
1088.000	626.171	80.010	19.993	104.166	20.044	-5.470	0.522
1088.500	626.418	80.012	19.994	104.167	20.045	-5.530	0.505
1089.000	626.692	80.011	19.994	104.166	20.047	-5.699	0.512
1089.500	626.938	80.011	19.994	104.163	20.046	-5.629	0.521
1090.000	627.226	80.011	19.993	104.164	20.047	-5.700	0.527
1090.500	627.446	80.010	19.994	104.167	20.045	-5.525	0.521
1091.000	627.737	80.012	19.994	104.167	20.044	-5.439	0.509
1091.500	627.947	80.010	19.993	104.164	20.048	-5.759	0.506
1092.000	628.237	80.011	19.994	104.165	20.049	-5.833	0.501
1092.500	628.486	80.011	19.993	104.167	20.051	-5.985	0.519
1093.000	628.758	80.011	19.994	104.167	20.049	-5.839	0.530
1093.500	629.009	80.012	19.994	104.167	20.052	-6.029	0.522
1094.000	629.258	80.010	19.992	104.165	20.051	-5.990	0.512
1094.499	629.501	80.012	19.993	104.162	20.049	-5.846	0.496
1095.000	629.746	80.013	19.993	104.156	20.054	-6.178	0.490
1095.501	629.985	80.011	19.993	104.151	20.049	-5.787	0.486
1096.001	630.260	80.013	19.994	104.144	20.047	-5.657	0.499
1096.500	630.523	80.012	19.993	104.142	20.047	-5.649	0.526
1096.999	630.760	80.011	19.993	104.142	20.050	-5.920	0.519
1097.500	631.029	80.013	19.994	104.142	20.046	-5.632	0.503
1098.000	631.253	80.012	19.994	104.140	20.046	-5.596	0.499
1098.500	631.566	80.011	19.993	104.142	20.048	-5.760	0.515
1099.001	631.803	80.013	19.993	104.143	20.048	-5.721	0.543
1099.500	632.049	80.012	19.993	104.143	20.049	-5.832	0.517
1099.999	632.292	80.011	19.993	104.141	20.048	-5.728	0.486
1100.499	632.585	80.013	19.994	104.144	20.047	-5.709	0.513
1101.000	632.833	80.010	19.993	104.148	20.047	-5.664	0.538
1101.500	633.080	80.012	19.994	104.151	20.048	-5.738	0.518
1101.999	633.287	80.011	19.994	104.156	20.046	-5.596	0.475
1102.500	633.573	80.011	19.994	104.162	20.049	-5.840	0.473
1103.000	633.824	80.012	19.994	104.164	20.055	-6.229	0.514
1103.500	634.042	80.012	19.994	104.161	20.047	-5.666	0.503
1104.001	634.313	80.012	19.994	104.160	20.046	-5.600	0.480
1104.500	634.566	80.011	19.994	104.153	20.051	-5.935	0.507
1104.999	634.834	80.011	19.994	104.150	20.050	-5.923	0.522
1105.500	635.076	80.012	19.994	104.148	20.045	-5.549	0.515
1106.001	635.354	80.011	19.994	104.146	20.044	-5.433	0.515
1106.500	635.599	80.011	19.992	104.144	20.049	-5.819	0.521
1107.000	635.868	80.011	19.994	104.147	20.050	-5.916	0.519
1107.500	636.086	80.012	19.994	104.150	20.049	-5.850	0.501
1108.000	636.380	80.012	19.995	104.149	20.054	-6.148	0.499
1108.500	636.632	80.011	19.994	104.149	20.048	-5.724	0.529
1109.000	636.887	80.011	19.994	104.148	20.049	-5.834	0.527
1109.500	637.104	80.011	19.993	104.148	20.048	-5.746	0.490
1110.000	637.339	80.011	19.993	104.144	20.053	-6.093	0.461
1110.500	637.598	80.011	19.993	104.143	20.051	-5.972	0.473
1111.000	637.815	80.011	19.993	104.142	20.049	-5.824	0.486
1111.500	638.076	80.013	19.993	104.141	20.052	-6.050	0.477
1112.000	638.320	80.013	19.995	104.139	20.048	-5.741	0.491
1112.499	638.552	80.013	19.994	104.143	20.051	-5.952	0.491
1112.999	638.785	80.013	19.993	104.142	20.050	-5.882	0.471
1113.499	639.066	80.013	19.993	104.144	20.051	-5.964	0.489
1114.000	639.286	80.012	19.994	104.146	20.049	-5.815	0.507
1114.500	639.516	80.012	19.993	104.144	20.052	-6.006	0.476
1115.000	639.717	80.012	19.994	104.139	20.049	-5.833	0.440
1115.499	639.949	80.013	19.994	104.142	20.053	-6.099	0.432
1116.000	640.212	80.013	19.994	104.140	20.053	-6.110	0.464
1116.500	640.433	80.014	19.993	104.141	20.051	-5.933	0.489
1117.000	640.704	80.014	19.995	104.148	20.050	-5.857	0.488
1117.500	640.932	80.014	19.994	104.154	20.051	-5.962	0.496
1118.000	641.185	80.014	19.994	104.154	20.052	-6.013	0.490
1118.500	641.386	80.013	19.994	104.159	20.052	-6.025	0.467
1119.000	641.614	80.014	19.994	104.161	20.051	-5.947	0.442
1119.500	641.857	80.014	19.993	104.158	20.050	-5.881	0.451
1120.000	642.100	80.013	19.993	104.153	20.048	-5.776	0.478
1120.499	642.327	80.013	19.994	104.150	20.048	-5.743	0.478
1120.999	642.583	80.014	19.995	104.147	20.055	-6.229	0.477
1121.499	642.837	80.014	19.993	104.146	20.054	-6.201	0.497
1121.999	643.071	80.015	19.995	104.146	20.049	-5.796	0.499
1122.499	643.278	80.014	19.993	104.151	20.053	-6.076	0.465
1123.000	643.538	80.014	19.994	104.158	20.055	-6.251	0.454
1123.500	643.751	80.014	19.994	104.162	20.058	-6.490	0.470
1124.000	644.017	80.015	19.994	104.167	20.054	-6.184	0.476
1124.500	644.194	80.013	19.995	104.170	20.054	-6.196	0.461
1125.000	644.422	80.014	19.995	104.164	20.054	-6.191	0.424
1125.500	644.664	80.013	19.995	104.163	20.050	-5.897	0.437
1126.001	644.920	80.012	19.993	104.160	20.055	-6.220	0.484
1126.500	645.158	80.014	19.995	104.154	20.058	-6.490	0.496
1126.999	645.355	80.011	19.994	104.150	20.055	-6.229	0.464
1127.499	645.615	80.012	19.994	104.150	20.053	-6.130	0.446
1127.999	645.829	80.013	19.994	104.145	20.056	-6.338	0.466
1128.500	646.033	80.014	19.995	104.142	20.052	-6.034	0.446
1129.001	646.310	80.013	19.994	104.147	20.054	-6.161	0.449
1129.501	646.543	80.013	19.995	104.149	20.053	-6.104	0.495
1130.000	646.760	80.013	19.994	104.149	20.053	-6.129	0.480
1130.499	647.022	80.012	19.994	104.150	20.057	-6.412	0.464
1131.000	647.248	80.012	19.994	104.156	20.056	-6.334	0.483
1131.500	647.517	80.012	19.995	104.154	20.057	-6.350	0.491
1131.999	647.705	80.014	19.994	104.154	20.056	-6.321	0.476
1132.500	647.966	80.012	19.994	104.160	20.056	-6.340	0.454
1133.000	648.202	80.012	19.994	104.160	20.053	-6.088	0.474
1133.500	648.443	80.012	19.995	104.154	20.057	-6.389	0.487
1134.000	648.708	80.014	19.994	104.152	20.057	-6.393	0.491
1134.499	648.917	80.012	19.995	104.152	20.056	-6.334	0.490
1135.000	649.146	80.013	19.995	104.151	20.058	-6.452	0.456
1135.500	649.417	80.011	19.994	104.154	20.058	-6.460	0.469
1136.000	649.662	80.012	19.993	104.155	20.058	-6.467	0.509
1136.500	649.870	80.012	19.994	104.154	20.058	-6.438	0.484
1137.000	650.144	80.013	19.993	104.151	20.055	-6.244	0.467
1137.501	650.384	80.013	19.994	104.148	20.057	-6.359	0.498
1138.001	650.589	80.013	19.994	104.146	20.057	-6.366	0.480
1138.501	650.855	80.013	19.993	104.147	20.057	-6.401	0.458
1139.000	651.078	80.012	19.994	104.147	20.057	-6.362	0.480
1139.501	651.325	80.013	19.993	104.146	20.059	-6.517	0.480
1140.001	651.568	80.013	19.994	104.145	20.059	-6.525	0.481
1140.500	651.814	80.015	19.994	104.143	20.058	-6.485	0.490
1141.001	652.053	80.013	19.994	104.141	20.061	-6.675	0.487
1141.501	652.281	80.013	19.994	104.143	20.057	-6.370	0.476
1142.001	652.549	80.015	19.993	104.149	20.063	-6.833	0.481
1142.501	652.769	80.013	19.993	104.155	20.058	-6.483	0.492
1143.001	653.034	80.013	19.993	104.154	20.061	-6.645	0.486
1143.500	653.255	80.015	19.994	104.149	20.057	-6.407	0.486
1143.999	653.472	80.014	19.994	104.138	20.062	-6.711	0.462
1144.499	653.741	80.014	19.993	104.124	20.059	-6.535	0.462
1144.999	654.006	80.016	19.993	104.117	20.058	-6.490	0.510
1145.500	654.237	80.016	19.994	104.117	20.062	-6.737	0.515
1146.000	654.497	80.014	19.993	104.128	20.059	-6.552	0.494
1146.499	654.762	80.013	19.993	104.143	20.059	-6.508	0.508
1146.999	654.993	80.013	19.995	104.158	20.060	-6.593	0.510
1147.500	655.234	80.013	19.994	104.165	20.060	-6.611	0.484
1148.001	655.479	80.014	19.994	104.169	20.056	-6.317	0.479
1148.500	655.737	80.013	19.994	104.164	20.063	-6.777	0.495
1149.000	655.980	80.013	19.994	104.158	20.057	-6.395	0.502
1149.500	656.214	80.014	19.994	104.153	20.060	-6.601	0.489
1150.000	656.468	80.012	19.994	104.149	20.056	-6.317	0.483
1150.499	656.765	80.011	19.993	104.150	20.059	-6.506	0.519
1150.999	656.997	80.012	19.994	104.152	20.058	-6.436	0.540
1151.500	657.225	80.013	19.993	104.155	20.059	-6.541	0.495
1152.000	657.481	80.014	19.994	104.155	20.059	-6.495	0.472
1152.500	657.744	80.013	19.994	104.157	20.059	-6.531	0.501
1153.000	658.024	80.013	19.994	104.158	20.055	-6.245	0.531
1153.500	658.266	80.014	19.994	104.160	20.056	-6.282	0.533
1154.000	658.499	80.013	19.994	104.165	20.059	-6.492	0.499
1154.500	658.754	80.011	19.994	104.165	20.060	-6.623	0.481
1155.000	658.978	80.009	19.995	104.160	20.059	-6.499	0.483
1155.500	659.238	80.011	19.994	104.157	20.056	-6.338	0.481
1156.000	659.544	80.012	19.995	104.150	20.058	-6.484	0.525
1156.500	659.748	80.011	19.995	104.144	20.058	-6.470	0.539
1156.999	660.038	80.011	19.995	104.146	20.059	-6.494	0.502
1157.499	660.245	80.010	19.996	104.151	20.055	-6.275	0.495
1157.999	660.528	80.011	19.995	104.152	20.056	-6.306	0.493
1158.499	660.768	80.010	19.995	104.155	20.055	-6.238	0.506
1158.999	660.999	80.011	19.995	104.156	20.055	-6.225	0.497
1159.500	661.280	80.011	19.995	104.156	20.055	-6.225	0.492
1160.000	661.536	80.011	19.995	104.158	20.053	-6.120	0.525
1160.500	661.823	80.011	19.995	104.157	20.055	-6.269	0.540
1161.000	662.048	80.010	19.995	104.156	20.055	-6.240	0.527
1161.499	662.313	80.011	19.996	104.160	20.053	-6.088	0.501
1162.000	662.569	80.012	19.996	104.162	20.055	-6.215	0.505
1162.500	662.830	80.013	19.997	104.161	20.056	-6.332	0.519
1163.000	663.076	80.010	19.995	104.161	20.056	-6.312	0.512
1163.500	663.359	80.011	19.996	104.158	20.058	-6.453	0.518
1164.000	663.568	80.010	19.994	104.154	20.057	-6.358	0.511
1164.500	663.790	80.011	19.995	104.151	20.060	-6.599	0.462
1165.000	664.101	80.013	19.994	104.151	20.064	-6.860	0.482
1165.500	664.326	80.012	19.994	104.154	20.058	-6.434	0.534
1166.000	664.583	80.012	19.995	104.163	20.057	-6.411	0.509
1166.500	664.829	80.011	19.995	104.170	20.059	-6.531	0.493
1166.999	665.085	80.012	19.995	104.174	20.060	-6.605	0.503
1167.500	665.386	80.012	19.994	104.174	20.063	-6.788	0.529
1168.000	665.637	80.012	19.994	104.174	20.061	-6.641	0.554
1168.499	665.895	80.012	19.995	104.173	20.057	-6.384	0.531
1169.000	666.148	80.012	19.992	104.172	20.056	-6.318	0.510
1169.500	666.379	80.012	19.994	104.172	20.054	-6.176	0.497
1170.001	666.665	80.012	19.993	104.172	20.061	-6.637	0.500
1170.500	666.947	80.014	19.993	104.172	20.061	-6.653	0.542
1171.000	667.219	80.013	19.994	104.172	20.054	-6.188	0.561
1171.500	667.439	80.013	19.993	104.172	20.061	-6.650	0.523
1172.000	667.672	80.011	19.993	104.171	20.061	-6.685	0.473
1172.500	667.960	80.012	19.995	104.171	20.066	-7.033	0.487
1173.000	668.222	80.013	19.994	104.171	20.060	-6.574	0.535
1173.500	668.481	80.012	19.994	104.169	20.063	-6.793	0.536
1174.000	668.694	80.012	19.993	104.161	20.063	-6.791	0.496
1174.500	669.039	80.012	19.993	104.155	20.062	-6.748	0.515
1175.000	669.269	80.013	19.993	104.148	20.062	-6.708	0.567
1175.500	669.532	80.012	19.994	104.146	20.064	-6.895	0.534
1176.000	669.797	80.012	19.994	104.148	20.062	-6.745	0.510
1176.500	670.101	80.013	19.994	104.153	20.059	-6.512	0.549
1177.000	670.362	80.012	19.994	104.155	20.059	-6.502	0.567
1177.500	670.602	80.013	19.994	104.155	20.059	-6.508	0.533
1178.000	670.847	80.012	19.994	104.150	20.061	-6.699	0.493
1178.500	671.147	80.012	19.994	104.145	20.056	-6.341	0.516
1178.999	671.367	80.011	19.995	104.141	20.059	-6.492	0.533
1179.500	671.637	80.011	19.992	104.139	20.064	-6.912	0.505
1180.000	671.915	80.012	19.994	104.140	20.059	-6.536	0.519
1180.500	672.151	80.012	19.995	104.139	20.058	-6.460	0.531
1181.000	672.423	80.011	19.995	104.139	20.064	-6.914	0.511
1181.500	672.692	80.012	19.994	104.143	20.061	-6.653	0.525
1182.000	672.946	80.013	19.994	104.146	20.056	-6.301	0.532
1182.500	673.182	80.011	19.994	104.148	20.060	-6.598	0.506
1183.000	673.442	80.013	19.993	104.153	20.057	-6.357	0.493
1183.500	673.712	80.012	19.994	104.153	20.058	-6.487	0.513
1184.000	673.958	80.013	19.996	104.148	20.056	-6.337	0.523
1184.500	674.256	80.012	19.994	104.145	20.059	-6.497	0.530
1185.000	674.526	80.011	19.994	104.141	20.062	-6.736	0.556
1185.500	674.778	80.011	19.994	104.139	20.061	-6.662	0.545
1185.999	675.081	80.012	19.995	104.141	20.057	-6.405	0.538
1186.500	675.355	80.011	19.995	104.144	20.065	-6.950	0.566
1187.000	675.604	80.010	19.992	104.150	20.065	-6.937	0.550
1187.500	675.848	80.013	19.995	104.155	20.060	-6.623	0.508
1188.000	676.113	80.012	19.994	104.157	20.060	-6.571	0.501
1188.499	676.375	80.012	19.994	104.157	20.062	-6.759	0.518
1189.000	676.640	80.012	19.994	104.162	20.057	-6.405	0.527
1189.500	676.892	80.009	19.994	104.156	20.064	-6.897	0.522
1190.000	677.152	80.011	19.995	104.152	20.057	-6.387	0.515
1190.500	677.414	80.009	19.994	104.148	20.065	-6.918	0.517
1191.000	677.645	80.011	19.995	104.143	20.059	-6.525	0.508
1191.500	677.938	80.012	19.994	104.138	20.063	-6.825	0.509
1192.000	678.203	80.010	19.994	104.140	20.060	-6.632	0.541
1192.500	678.447	80.011	19.994	104.147	20.059	-6.559	0.533
1193.000	678.672	80.012	19.994	104.154	20.063	-6.779	0.489
1193.500	678.955	80.011	19.993	104.161	20.060	-6.582	0.488
1194.000	679.245	80.013	19.994	104.165	20.062	-6.738	0.540
1194.500	679.481	80.011	19.995	104.170	20.064	-6.859	0.550
1195.000	679.728	80.011	19.995	104.167	20.066	-7.022	0.505
1195.500	680.006	80.013	19.995	104.162	20.066	-7.020	0.504
1196.000	680.259	80.012	19.993	104.159	20.064	-6.913	0.528
1196.499	680.485	80.012	19.993	104.158	20.064	-6.854	0.505
1196.999	680.767	80.012	19.994	104.155	20.060	-6.618	0.493
1197.499	681.020	80.012	19.993	104.156	20.065	-6.924	0.521
1197.999	681.240	80.011	19.993	104.162	20.065	-6.953	0.504
1198.499	681.493	80.014	19.994	104.164	20.061	-6.690	0.473
1198.999	681.770	80.013	19.994	104.162	20.063	-6.842	0.502
1199.499	682.074	80.013	19.995	104.160	20.066	-7.020	0.556
1200.000	682.346	80.012	19.993	104.160	20.064	-6.907	0.579
1200.500	682.572	80.015	19.993	104.153	20.063	-6.817	0.537
1201.000	682.847	80.012	19.992	104.148	20.065	-6.975	0.499
1201.500	683.082	80.014	19.993	104.146	20.065	-6.979	0.505
1202.000	683.373	80.013	19.993	104.148	20.062	-6.728	0.518
1202.500	683.614	80.014	19.995	104.149	20.066	-7.028	0.530
1202.999	683.869	80.013	19.992	104.151	20.061	-6.672	0.514
1203.499	684.107	80.014	19.994	104.157	20.064	-6.895	0.494
1204.000	684.354	80.013	19.993	104.162	20.064	-6.890	0.489
1204.500	684.618	80.013	19.994	104.162	20.059	-6.543	0.498
1205.000	684.872	80.015	19.993	104.162	20.061	-6.691	0.515
1205.501	685.151	80.013	19.993	104.163	20.064	-6.896	0.526
1206.001	685.406	80.013	19.992	104.161	20.064	-6.912	0.533
1206.500	685.647	80.013	19.993	104.157	20.066	-7.042	0.515
1207.000	685.922	80.012	19.993	104.153	20.064	-6.910	0.506
1207.500	686.172	80.014	19.993	104.151	20.067	-7.124	0.521
1208.000	686.437	80.014	19.994	104.149	20.065	-6.982	0.520
1208.500	686.724	80.014	19.994	104.145	20.063	-6.806	0.533
1209.000	686.961	80.012	19.994	104.146	20.062	-6.726	0.538
1209.500	687.218	80.012	19.994	104.145	20.067	-7.092	0.509
1210.000	687.433	80.014	19.993	104.146	20.065	-6.974	0.483
1210.500	687.719	80.012	19.992	104.150	20.068	-7.139	0.486
1210.999	687.999	80.012	19.993	104.151	20.066	-7.018	0.533
1211.499	688.261	80.013	19.992	104.150	20.066	-7.012	0.554
1212.000	688.512	80.013	19.993	104.152	20.065	-6.928	0.528
1212.501	688.753	80.013	19.992	104.153	20.064	-6.897	0.502
1213.000	689.014	80.012	19.994	104.151	20.063	-6.801	0.496
1213.500	689.294	80.012	19.994	104.156	20.066	-6.994	0.522
1213.999	689.520	80.012	19.993	104.156	20.066	-7.017	0.524
1214.500	689.791	80.012	19.992	104.154	20.068	-7.149	0.501
1215.000	690.052	80.012	19.994	104.156	20.069	-7.221	0.514
1215.500	690.275	80.013	19.994	104.156	20.066	-7.037	0.508
1216.000	690.546	80.013	19.995	104.155	20.068	-7.129	0.489
1216.500	690.826	80.012	19.994	104.161	20.070	-7.275	0.523
1217.000	691.055	80.013	19.994	104.169	20.067	-7.110	0.530
1217.499	691.324	80.012	19.993	104.169	20.068	-7.139	0.503
1217.999	691.580	80.012	19.994	104.168	20.066	-6.991	0.511
1218.499	691.875	80.012	19.993	104.169	20.066	-7.000	0.538
1218.999	692.119	80.012	19.994	104.167	20.064	-6.889	0.545
1219.499	692.350	80.014	19.994	104.163	20.065	-6.959	0.507
1219.999	692.622	80.014	19.994	104.162	20.062	-6.754	0.489
1220.499	692.880	80.013	19.995	104.163	20.066	-6.988	0.517
1220.999	693.145	80.012	19.995	104.163	20.066	-7.013	0.526
1221.499	693.405	80.012	19.995	104.158	20.065	-6.943	0.524
1222.000	693.675	80.014	19.995	104.158	20.069	-7.231	0.528
1222.500	693.892	80.014	19.995	104.158	20.069	-7.206	0.509
1223.000	694.103	80.013	19.994	104.154	20.067	-7.093	0.457
1223.499	694.386	80.014	19.994	104.149	20.068	-7.144	0.461
1223.999	694.647	80.014	19.994	104.148	20.068	-7.183	0.519
1224.500	694.897	80.013	19.994	104.144	20.067	-7.059	0.527
1225.000	695.165	80.015	19.995	104.140	20.066	-6.988	0.515
1225.500	695.401	80.014	19.994	104.139	20.067	-7.080	0.511
1226.000	695.651	80.015	19.993	104.140	20.066	-7.051	0.495
1226.500	695.926	80.014	19.994	104.145	20.064	-6.876	0.506
1226.999	696.186	80.015	19.994	104.150	20.065	-6.940	0.530
1227.499	696.415	80.015	19.994	104.154	20.068	-7.197	0.512
1227.999	696.707	80.015	19.994	104.158	20.063	-6.792	0.505
1228.499	696.924	80.014	19.995	104.162	20.064	-6.848	0.515
1228.999	697.210	80.013	19.995	104.156	20.067	-7.088	0.506
1229.499	697.447	80.014	19.994	104.150	20.062	-6.716	0.513
1229.999	697.730	80.014	19.993	104.146	20.066	-6.989	0.522
1230.499	697.939	80.013	19.994	104.141	20.064	-6.849	0.506
1230.999	698.211	80.014	19.994	104.136	20.062	-6.709	0.486
1231.499	698.459	80.014	19.993	104.141	20.064	-6.886	0.500
1232.000	698.735	80.014	19.993	104.143	20.067	-7.084	0.522
1232.500	698.981	80.014	19.994	104.143	20.063	-6.809	0.523
1233.000	699.205	80.011	19.994	104.141	20.062	-6.722	0.496
1233.499	699.457	80.014	19.994	104.143	20.066	-7.013	0.473
1234.000	699.699	80.012	19.993	104.145	20.066	-7.048	0.485
1234.500	699.965	80.012	19.994	104.148	20.066	-7.056	0.502
1235.000	700.237	80.013	19.995	104.148	20.068	-7.173	0.523
1235.500	700.494	80.011	19.994	104.151	20.065	-6.935	0.533
1236.000	700.716	80.011	19.995	104.151	20.068	-7.128	0.504
1236.500	701.014	80.011	19.994	104.147	20.065	-6.978	0.500
1237.000	701.233	80.011	19.994	104.148	20.064	-6.860	0.518
1237.500	701.512	80.011	19.994	104.154	20.065	-6.918	0.508
1238.000	701.739	80.012	19.994	104.158	20.070	-7.299	0.502
1238.500	701.981	80.011	19.995	104.156	20.068	-7.198	0.487
1239.000	702.219	80.012	19.994	104.154	20.067	-7.059	0.474
1239.499	702.481	80.010	19.995	104.150	20.068	-7.182	0.490
1240.000	702.770	80.010	19.993	104.151	20.070	-7.277	0.525
1240.500	703.035	80.012	19.995	104.152	20.068	-7.168	0.553
1241.000	703.229	80.012	19.996	104.156	20.067	-7.115	0.507
1241.500	703.533	80.012	19.995	104.160	20.070	-7.288	0.478
1242.000	703.771	80.011	19.994	104.164	20.067	-7.084	0.520
1242.500	704.014	80.011	19.994	104.158	20.070	-7.319	0.511
1243.000	704.268	80.012	19.996	104.155	20.068	-7.181	0.489
1243.500	704.509	80.012	19.994	104.151	20.069	-7.227	0.496
1244.000	704.775	80.010	19.995	104.148	20.069	-7.260	0.501
1244.500	705.013	80.011	19.995	104.143	20.066	-7.040	0.506
1245.000	705.243	80.012	19.993	104.140	20.072	-7.446	0.487
1245.500	705.553	80.010	19.995	104.137	20.067	-7.070	0.504
1246.000	705.767	80.011	19.996	104.140	20.070	-7.323	0.531
1246.499	706.003	80.012	19.995	104.142	20.069	-7.202	0.487
1246.999	706.261	80.010	19.994	104.144	20.070	-7.270	0.472
1247.500	706.509	80.011	19.995	104.145	20.070	-7.337	0.500
1248.000	706.781	80.010	19.995	104.145	20.067	-7.063	0.513
1248.500	707.022	80.012	19.995	104.141	20.070	-7.304	0.517
1249.000	707.289	80.011	19.995	104.141	20.073	-7.534	0.510
1249.500	707.566	80.011	19.995	104.146	20.068	-7.190	0.526
1249.999	707.774	80.011	19.995	104.153	20.065	-6.932	0.515
1250.500	707.994	80.010	19.995	104.158	20.068	-7.166	0.457
1251.000	708.303	80.011	19.995	104.158	20.066	-7.002	0.479
1251.499	708.540	80.010	19.995	104.158	20.069	-7.220	0.538
1251.999	708.783	80.011	19.996	104.154	20.071	-7.385	0.513
1252.500	709.081	80.011	19.995	104.151	20.066	-7.038	0.510
1253.000	709.341	80.011	19.995	104.149	20.071	-7.364	0.550
1253.500	709.563	80.013	19.995	104.148	20.071	-7.400	0.520
1254.000	709.812	80.012	19.996	104.144	20.071	-7.375	0.476
1254.500	710.076	80.012	19.996	104.144	20.070	-7.297	0.492
1254.999	710.293	80.012	19.994	104.141	20.068	-7.194	0.497
1255.499	710.592	80.012	19.995	104.143	20.072	-7.475	0.498
1255.999	710.813	80.010	19.995	104.147	20.067	-7.115	0.518
1256.500	711.077	80.011	19.995	104.147	20.064	-6.854	0.502
1257.001	711.319	80.012	19.995	104.145	20.068	-7.174	0.495
1257.500	711.575	80.012	19.996	104.145	20.069	-7.213	0.502
1258.000	711.826	80.012	19.996	104.147	20.069	-7.224	0.503
1258.500	712.090	80.012	19.995	104.149	20.070	-7.333	0.511
1259.000	712.363	80.011	19.994	104.154	20.069	-7.261	0.526
1259.500	712.613	80.013	19.995	104.157	20.076	-7.744	0.529
1260.000	712.853	80.010	19.995	104.159	20.066	-7.057	0.506
1260.500	713.099	80.011	19.994	104.159	20.067	-7.059	0.488
1261.000	713.340	80.013	19.994	104.153	20.070	-7.322	0.487
1261.500	713.559	80.011	19.995	104.150	20.067	-7.076	0.473
1262.000	713.806	80.011	19.994	104.147	20.071	-7.411	0.463
1262.499	714.075	80.011	19.993	104.145	20.075	-7.629	0.491
1262.999	714.381	80.011	19.994	104.141	20.068	-7.162	0.545
1263.499	714.573	80.010	19.993	104.141	20.069	-7.234	0.536
1263.999	714.867	80.013	19.994	104.142	20.066	-6.998	0.491
1264.499	715.122	80.009	19.993	104.140	20.069	-7.234	0.517
1264.999	715.388	80.010	19.994	104.139	20.069	-7.220	0.535
1265.499	715.630	80.011	19.995	104.139	20.068	-7.179	0.515
1265.999	715.889	80.011	19.995	104.139	20.066	-7.049	0.505
1266.499	716.138	80.011	19.994	104.142	20.068	-7.178	0.505
1267.000	716.384	80.011	19.994	104.150	20.071	-7.351	0.502
1267.500	716.594	80.011	19.994	104.151	20.065	-6.948	0.476
1268.000	716.900	80.010	19.994	104.153	20.068	-7.163	0.486
1268.500	717.149	80.011	19.993	104.157	20.071	-7.390	0.535
1269.000	717.366	80.011	19.994	104.158	20.068	-7.143	0.510
1269.500	717.631	80.011	19.994	104.152	20.067	-7.083	0.474
1270.000	717.879	80.011	19.995	104.156	20.067	-7.114	0.497
1270.500	718.100	80.009	19.994	104.156	20.069	-7.231	0.491
1271.000	718.378	80.010	19.993	104.155	20.070	-7.332	0.484
1271.500	718.632	80.010	19.994	104.157	20.070	-7.319	0.516
1272.000	718.901	80.011	19.994	104.158	20.068	-7.161	0.528
1272.500	719.103	80.012	19.993	104.155	20.072	-7.426	0.497
1272.999	719.372	80.011	19.995	104.156	20.066	-7.003	0.471
1273.500	719.632	80.012	19.995	104.155	20.065	-6.945	0.500
1274.000	719.855	80.011	19.995	104.152	20.070	-7.307	0.506
1274.499	720.102	80.012	19.994	104.150	20.067	-7.059	0.477
1275.000	720.361	80.011	19.995	104.151	20.070	-7.283	0.488
1275.500	720.606	80.012	19.994	104.149	20.071	-7.376	0.505
1276.000	720.883	80.012	19.994	104.147	20.072	-7.464	0.512
1276.500	721.130	80.012	19.995	104.149	20.072	-7.449	0.523
1277.000	721.392	80.012	19.993	104.155	20.070	-7.315	0.517
1277.500	721.627	80.012	19.993	104.158	20.061	-6.655	0.503
1278.000	721.883	80.013	19.993	104.161	20.063	-6.791	0.494
1278.500	722.107	80.012	19.992	104.164	20.064	-6.865	0.486
1279.000	722.395	80.012	19.994	104.165	20.067	-7.098	0.496
1279.500	722.627	80.012	19.992	104.161	20.075	-7.647	0.516
1280.000	722.871	80.012	19.994	104.161	20.072	-7.427	0.498
1280.500	723.137	80.013	19.994	104.161	20.066	-7.010	0.493
1281.000	723.388	80.011	19.992	104.163	20.066	-7.000	0.513
1281.500	723.607	80.012	19.994	104.163	20.069	-7.240	0.493
1281.999	723.890	80.013	19.996	104.166	20.070	-7.335	0.486
1282.499	724.155	80.012	19.993	104.168	20.069	-7.247	0.526
1283.000	724.406	80.012	19.993	104.172	20.072	-7.463	0.532
1283.501	724.623	80.013	19.992	104.174	20.068	-7.160	0.492
1284.000	724.899	80.012	19.993	104.171	20.070	-7.294	0.480
1284.500	725.125	80.012	19.995	104.166	20.072	-7.433	0.497
1285.000	725.370	80.011	19.993	104.162	20.070	-7.287	0.487
1285.500	725.656	80.011	19.993	104.159	20.069	-7.260	0.501
1285.999	725.886	80.011	19.993	104.156	20.068	-7.155	0.523
1286.500	726.146	80.011	19.993	104.158	20.067	-7.071	0.503
1287.000	726.340	80.012	19.994	104.162	20.069	-7.238	0.472
1287.500	726.612	80.012	19.993	104.165	20.070	-7.283	0.460
1288.000	726.872	80.013	19.993	104.166	20.069	-7.232	0.499
1288.499	727.122	80.012	19.994	104.169	20.066	-7.004	0.521
1288.999	727.406	80.013	19.992	104.169	20.069	-7.208	0.523
1289.499	727.627	80.009	19.993	104.164	20.071	-7.389	0.519
1289.999	727.946	80.015	19.994	104.160	20.069	-7.228	0.522
1290.500	728.133	80.012	19.995	104.158	20.066	-7.052	0.523
1291.000	728.423	80.014	19.993	104.157	20.067	-7.086	0.492
1291.500	728.674	80.013	19.993	104.156	20.068	-7.166	0.509
1292.000	728.886	80.011	19.993	104.154	20.067	-7.113	0.501
1292.500	729.099	80.013	19.992	104.154	20.069	-7.228	0.444
1293.000	729.412	80.012	19.992	104.151	20.070	-7.304	0.476
1293.500	729.642	80.013	19.995	104.143	20.072	-7.471	0.535
1293.999	729.906	80.014	19.994	104.144	20.067	-7.082	0.519
1294.500	730.144	80.013	19.995	104.151	20.069	-7.200	0.498
1295.000	730.420	80.013	19.992	104.156	20.070	-7.334	0.508
1295.500	730.693	80.012	19.993	104.160	20.070	-7.326	0.532
1296.000	730.940	80.012	19.994	104.166	20.070	-7.315	0.535
1296.500	731.204	80.013	19.995	104.167	20.074	-7.621	0.516
1296.999	731.446	80.013	19.994	104.161	20.072	-7.453	0.508
1297.499	731.730	80.012	19.993	104.156	20.068	-7.132	0.516
1297.999	731.989	80.013	19.993	104.154	20.074	-7.586	0.534
1298.499	732.261	80.013	19.993	104.155	20.070	-7.309	0.537
1299.000	732.469	80.012	19.994	104.151	20.071	-7.353	0.505
1299.500	732.749	80.013	19.993	104.151	20.069	-7.264	0.484
1300.000	733.013	80.013	19.993	104.150	20.077	-7.813	0.516
1300.500	733.255	80.012	19.993	104.151	20.071	-7.374	0.525
1301.000	733.494	80.014	19.994	104.145	20.069	-7.253	0.493
1301.500	733.774	80.014	19.992	104.147	20.071	-7.395	0.500
1302.001	734.013	80.012	19.992	104.151	20.076	-7.744	0.520
1302.501	734.247	80.014	19.994	104.149	20.069	-7.243	0.496
1303.001	734.526	80.015	19.993	104.148	20.065	-6.927	0.492
1303.500	734.782	80.016	19.994	104.152	20.068	-7.165	0.524
1304.000	735.030	80.013	19.992	104.153	20.073	-7.495	0.520
1304.500	735.309	80.014	19.994	104.151	20.069	-7.207	0.515
1305.000	735.540	80.014	19.993	104.151	20.071	-7.361	0.518
1305.500	735.788	80.013	19.993	104.147	20.064	-6.867	0.494
1306.001	736.044	80.013	19.993	104.143	20.070	-7.321	0.492
1306.501	736.316	80.015	19.993	104.138	20.078	-7.880	0.517
1307.000	736.556	80.014	19.993	104.140	20.068	-7.157	0.520
1307.500	736.827	80.014	19.994	104.145	20.066	-7.044	0.512
1308.000	737.086	80.014	19.994	104.148	20.070	-7.334	0.520
1308.500	737.324	80.013	19.993	104.148	20.078	-7.893	0.513
1309.000	737.599	80.013	19.993	104.147	20.063	-6.799	0.505
1309.500	737.867	80.014	19.993	104.141	20.073	-7.491	0.528
1310.000	738.128	80.013	19.993	104.136	20.072	-7.450	0.536
1310.500	738.372	80.013	19.993	104.139	20.071	-7.370	0.517
1310.999	738.626	80.014	19.994	104.142	20.074	-7.561	0.501
1311.499	738.880	80.014	19.994	104.146	20.066	-7.000	0.503
1312.000	739.148	80.014	19.994	104.150	20.067	-7.082	0.515
1312.500	739.408	80.014	19.995	104.153	20.071	-7.380	0.526
1313.000	739.681	80.013	19.994	104.148	20.067	-7.125	0.530
1313.500	739.924	80.013	19.995	104.145	20.066	-7.051	0.524
1314.000	740.171	80.014	19.994	104.140	20.065	-6.947	0.503
1314.500	740.422	80.013	19.995	104.139	20.068	-7.181	0.494
1315.000	740.659	80.013	19.994	104.136	20.070	-7.323	0.493
1315.500	740.904	80.012	19.994	104.136	20.067	-7.093	0.485
1316.000	741.153	80.013	19.995	104.137	20.067	-7.124	0.488
1316.500	741.385	80.012	19.995	104.140	20.073	-7.498	0.487
1317.000	741.641	80.011	19.994	104.144	20.072	-7.479	0.485
1317.500	741.871	80.012	19.994	104.145	20.065	-6.965	0.488
1318.000	742.162	80.012	19.995	104.145	20.069	-7.265	0.504
1318.500	742.433	80.010	19.993	104.143	20.073	-7.520	0.541
1318.999	742.659	80.011	19.995	104.142	20.064	-6.880	0.530
1319.499	742.947	80.010	19.994	104.141	20.064	-6.857	0.506
1320.000	743.206	80.011	19.994	104.145	20.068	-7.135	0.530
1320.500	743.457	80.012	19.996	104.151	20.074	-7.616	0.528
