Sample ID:	C:\MCC\MCC Cal\Test\Rayon_Bamboo_Pillowcase_MCC_30K_min_220110_R1.txt
Sample Weight (mg):	4.93
Heating Rate (C/s):	0.5
Combustor Temp (C):	900
N2 Flow Rate (cc/min):	80
O2 Flow Rate (cc/min):	20
Calibration File:	C:\MCC\MCC Cal\Coeff1 JN10440_30_210304.txt.txt
T Correction Coefficients:	0	1.024463	0
Time Shift (s):	14
*
Time (s)	Temperature (C)	N2 flow rate (cc/min)	O2 flow rate (cc/min)	Flow Rate (cc/min)	Oxygen (%)	HRR (W/g)	Heating rate (C/s)
0.000	111.446	80.001	19.993	103.990	20.213	-0.096	0.006
0.500	111.426	80.002	19.993	103.987	20.213	-0.085	-0.027
1.000	111.420	80.001	19.993	103.987	20.210	0.079	-0.038
1.501	111.452	80.002	19.993	103.985	20.212	-0.022	-0.000
2.001	111.420	80.001	19.992	103.985	20.212	-0.043	0.013
2.501	111.470	80.002	19.997	103.988	20.213	-0.085	0.009
3.000	111.470	80.002	19.996	103.998	20.210	0.099	0.035
3.500	111.458	80.003	19.995	104.006	20.212	-0.047	0.019
4.000	111.432	80.003	19.995	104.006	20.212	-0.032	-0.025
4.501	111.441	80.004	19.994	104.006	20.214	-0.123	-0.028
5.000	111.448	80.004	19.994	104.005	20.213	-0.079	-0.000
5.500	111.452	80.004	19.994	104.000	20.216	-0.262	0.014
6.001	111.436	80.002	19.992	103.998	20.214	-0.141	-0.000
6.500	111.427	80.005	19.993	104.002	20.215	-0.197	-0.018
7.000	111.451	80.003	19.994	104.002	20.213	-0.065	-0.005
7.500	111.437	80.004	19.992	104.002	20.211	0.049	0.012
8.000	111.422	80.004	19.992	104.001	20.214	-0.141	-0.010
8.501	111.401	80.003	19.993	103.996	20.213	-0.054	-0.033
9.000	111.448	80.004	19.995	103.994	20.210	0.132	-0.005
9.500	111.459	80.005	19.996	103.999	20.213	-0.103	0.042
10.000	111.434	80.003	19.994	103.998	20.212	-0.032	0.022
10.500	111.428	80.005	19.993	103.997	20.213	-0.061	-0.022
11.000	111.421	80.005	19.995	103.996	20.210	0.099	-0.022
11.500	111.460	80.004	19.994	103.994	20.213	-0.060	0.009
12.001	111.464	80.005	19.994	103.989	20.211	0.074	0.038
12.500	111.464	80.004	19.993	103.989	20.211	0.018	0.024
13.000	111.465	80.004	19.994	103.990	20.208	0.213	0.002
13.500	111.457	80.004	19.993	103.990	20.213	-0.063	-0.003
14.000	111.458	80.004	19.994	103.991	20.209	0.202	-0.006
14.500	111.449	80.004	19.993	103.991	20.210	0.121	-0.007
15.000	111.476	80.004	19.993	103.993	20.209	0.199	0.005
15.500	111.454	80.003	19.993	103.993	20.209	0.148	0.011
16.000	111.444	80.002	19.993	103.993	20.211	0.058	-0.014
16.500	111.444	80.003	19.993	103.993	20.208	0.219	-0.021
17.000	111.478	80.004	19.992	103.992	20.209	0.168	0.012
17.500	111.463	80.002	19.994	103.996	20.205	0.436	0.027
18.000	111.484	80.002	19.993	104.003	20.202	0.607	0.012
18.500	111.480	80.003	19.994	104.011	20.207	0.338	0.011
19.000	111.486	80.003	19.994	104.023	20.203	0.604	0.009
19.500	111.479	80.003	19.993	104.038	20.202	0.638	0.000
20.000	111.495	80.001	19.994	104.049	20.201	0.694	0.004
20.500	111.497	80.002	19.993	104.059	20.201	0.709	0.014
21.000	111.515	80.001	19.994	104.075	20.200	0.797	0.019
21.501	111.497	80.000	19.994	104.086	20.199	0.819	0.010
22.001	111.548	80.000	19.994	104.094	20.194	1.144	0.016
22.501	111.532	80.001	19.994	104.102	20.193	1.222	0.034
23.001	111.520	80.001	19.994	104.112	20.191	1.345	0.004
23.501	111.567	80.001	19.994	104.120	20.190	1.446	0.003
24.000	111.591	80.001	19.995	104.132	20.188	1.584	0.053
24.500	111.589	80.000	19.995	104.145	20.187	1.634	0.046
25.000	111.620	80.002	19.996	104.160	20.186	1.663	0.025
25.500	111.615	80.001	19.995	104.171	20.187	1.659	0.027
26.001	111.676	80.002	19.994	104.179	20.182	1.954	0.041
26.501	111.711	80.002	19.994	104.183	20.183	1.864	0.076
27.001	111.714	80.001	19.995	104.185	20.182	1.978	0.067
27.500	111.755	80.001	19.996	104.186	20.180	2.110	0.041
28.000	111.744	80.001	19.994	104.186	20.181	2.034	0.037
28.500	111.846	80.001	19.995	104.186	20.179	2.149	0.061
29.001	111.862	80.002	19.995	104.192	20.180	2.115	0.105
29.500	111.895	80.003	19.994	104.198	20.180	2.095	0.083
30.000	111.999	80.003	19.994	104.202	20.179	2.175	0.093
30.501	112.027	80.002	19.994	104.207	20.176	2.332	0.134
31.001	112.068	80.002	19.995	104.211	20.180	2.082	0.100
31.501	112.129	80.001	19.994	104.213	20.174	2.514	0.085
32.000	112.163	80.002	19.993	104.214	20.174	2.487	0.099
32.500	112.233	80.002	19.994	104.216	20.172	2.632	0.100
33.001	112.306	80.002	19.995	104.220	20.169	2.836	0.124
33.501	112.361	80.002	19.994	104.222	20.171	2.655	0.135
34.001	112.408	80.003	19.994	104.223	20.171	2.652	0.114
34.501	112.493	80.002	19.993	104.223	20.173	2.524	0.117
35.001	112.566	80.002	19.994	104.221	20.169	2.811	0.145
35.500	112.630	80.002	19.994	104.221	20.170	2.742	0.148
36.000	112.705	80.001	19.994	104.221	20.170	2.762	0.138
36.500	112.764	80.002	19.995	104.221	20.169	2.798	0.136
37.000	112.862	80.001	19.995	104.222	20.171	2.712	0.145
37.500	112.927	80.002	19.995	104.224	20.169	2.804	0.160
38.000	113.024	80.002	19.994	104.224	20.168	2.869	0.163
38.500	113.088	80.002	19.995	104.224	20.169	2.818	0.162
39.000	113.187	80.002	19.994	104.223	20.168	2.849	0.162
39.500	113.265	80.004	19.993	104.222	20.165	3.091	0.170
40.000	113.348	80.003	19.994	104.223	20.166	3.024	0.169
40.500	113.493	80.003	19.995	104.223	20.167	2.943	0.194
41.000	113.566	80.003	19.994	104.223	20.167	2.947	0.223
41.500	113.670	80.002	19.994	104.223	20.167	2.920	0.198
42.000	113.749	80.002	19.994	104.223	20.166	3.002	0.180
42.500	113.875	80.002	19.995	104.222	20.167	2.975	0.194
43.000	113.957	80.002	19.993	104.223	20.164	3.152	0.207
43.500	114.055	80.003	19.995	104.223	20.165	3.063	0.194
44.000	114.199	80.003	19.996	104.222	20.168	2.897	0.211
44.500	114.292	80.002	19.995	104.222	20.163	3.209	0.239
45.000	114.390	80.002	19.996	104.223	20.166	2.989	0.214
45.500	114.521	80.002	19.995	104.224	20.165	3.061	0.211
46.000	114.560	80.003	19.995	104.225	20.166	2.983	0.200
46.500	114.762	80.002	19.995	104.226	20.166	2.996	0.205
47.000	114.828	80.001	19.995	104.225	20.165	3.052	0.254
47.501	114.953	80.001	19.996	104.224	20.166	3.020	0.229
48.000	115.049	80.001	19.995	104.224	20.165	3.052	0.206
48.500	115.152	80.001	19.995	104.223	20.166	3.005	0.210
49.000	115.291	80.001	19.996	104.222	20.166	3.025	0.220
49.500	115.383	80.001	19.995	104.222	20.163	3.197	0.237
50.000	115.537	80.001	19.995	104.227	20.165	3.081	0.239
50.500	115.694	80.002	19.994	104.229	20.164	3.143	0.278
51.001	115.803	80.001	19.995	104.229	20.164	3.134	0.288
51.500	115.925	80.001	19.995	104.233	20.166	3.047	0.248
52.000	116.059	79.999	19.995	104.240	20.164	3.176	0.243
52.500	116.168	80.003	19.995	104.243	20.164	3.179	0.250
53.000	116.307	80.000	19.996	104.248	20.165	3.083	0.245
53.500	116.432	80.000	19.995	104.256	20.164	3.163	0.256
54.000	116.545	80.001	19.995	104.255	20.167	2.962	0.251
54.500	116.715	80.001	19.995	104.253	20.166	3.038	0.260
55.000	116.804	80.001	19.995	104.248	20.165	3.101	0.271
55.500	116.952	80.001	19.995	104.246	20.167	2.977	0.248
56.000	117.113	80.001	19.995	104.244	20.166	3.018	0.273
56.500	117.264	80.001	19.996	104.246	20.163	3.228	0.310
57.000	117.378	80.002	19.994	104.247	20.165	3.092	0.288
57.500	117.542	80.001	19.994	104.251	20.161	3.376	0.271
58.000	117.694	80.001	19.995	104.252	20.163	3.237	0.297
58.500	117.819	80.002	19.993	104.254	20.163	3.201	0.297
59.000	117.974	80.001	19.995	104.258	20.162	3.259	0.278
59.500	118.152	80.001	19.995	104.260	20.163	3.184	0.307
60.000	118.274	80.003	19.995	104.260	20.162	3.280	0.317
60.501	118.408	80.003	19.995	104.261	20.161	3.347	0.278
61.001	118.617	80.003	19.993	104.262	20.160	3.429	0.299
61.500	118.707	80.003	19.994	104.262	20.162	3.289	0.320
62.000	118.878	80.002	19.993	104.262	20.160	3.425	0.280
62.500	119.030	80.002	19.993	104.263	20.163	3.201	0.292
63.001	119.173	80.003	19.995	104.263	20.159	3.501	0.309
63.501	119.366	80.002	19.995	104.265	20.160	3.441	0.316
64.001	119.502	80.003	19.993	104.265	20.160	3.428	0.332
64.500	119.643	80.001	19.994	104.265	20.158	3.513	0.303
65.001	119.828	80.004	19.994	104.265	20.160	3.421	0.302
65.501	119.973	80.003	19.994	104.265	20.160	3.378	0.328
66.001	120.143	80.003	19.993	104.263	20.161	3.329	0.322
66.501	120.344	80.003	19.993	104.263	20.163	3.233	0.343
67.001	120.531	80.002	19.993	104.264	20.164	3.148	0.379
67.501	120.686	80.004	19.993	104.263	20.161	3.316	0.365
68.001	120.819	80.003	19.993	104.262	20.164	3.143	0.315
68.501	121.028	80.003	19.992	104.261	20.159	3.490	0.315
69.001	121.184	80.004	19.995	104.260	20.161	3.367	0.353
69.501	121.307	80.002	19.994	104.260	20.159	3.501	0.322
70.001	121.553	80.002	19.995	104.260	20.163	3.233	0.324
70.501	121.742	80.004	19.994	104.260	20.163	3.197	0.402
71.001	121.910	80.003	19.994	104.260	20.160	3.380	0.396
71.501	122.048	80.002	19.994	104.258	20.162	3.264	0.332
72.001	122.246	80.003	19.994	104.258	20.161	3.371	0.321
72.501	122.401	80.002	19.993	104.258	20.161	3.338	0.344
73.001	122.617	80.002	19.994	104.258	20.163	3.197	0.362
73.501	122.779	80.003	19.994	104.254	20.161	3.371	0.375
74.001	122.966	80.003	19.993	104.250	20.159	3.452	0.364
74.501	123.147	80.002	19.994	104.250	20.163	3.201	0.358
75.001	123.328	80.002	19.994	104.247	20.161	3.358	0.365
75.501	123.490	80.002	19.994	104.248	20.159	3.490	0.353
76.000	123.668	80.001	19.994	104.252	20.161	3.371	0.342
76.501	123.844	80.004	19.994	104.258	20.157	3.613	0.347
77.001	124.036	80.002	19.993	104.258	20.161	3.365	0.361
77.501	124.235	80.003	19.993	104.257	20.163	3.228	0.380
78.001	124.383	80.002	19.994	104.257	20.159	3.450	0.369
78.501	124.615	80.002	19.993	104.256	20.159	3.472	0.364
79.000	124.815	80.001	19.994	104.256	20.157	3.601	0.406
79.500	124.980	80.003	19.993	104.258	20.161	3.374	0.398
80.001	125.205	80.001	19.993	104.260	20.157	3.597	0.377
80.501	125.389	80.003	19.993	104.259	20.158	3.532	0.400
81.001	125.587	80.002	19.994	104.258	20.160	3.441	0.396
81.501	125.768	80.003	19.993	104.254	20.157	3.586	0.380
82.001	125.962	80.001	19.994	104.254	20.154	3.783	0.377
82.501	126.154	80.001	19.994	104.254	20.157	3.575	0.381
83.000	126.396	80.003	19.993	104.255	20.157	3.590	0.410
83.500	126.558	80.003	19.993	104.255	20.158	3.566	0.418
84.000	126.751	80.001	19.993	104.257	20.156	3.673	0.379
84.500	126.988	80.002	19.994	104.257	20.159	3.479	0.392
85.001	127.146	80.002	19.993	104.257	20.156	3.673	0.413
85.501	127.394	80.002	19.993	104.259	20.157	3.602	0.401
86.001	127.548	80.002	19.993	104.261	20.156	3.677	0.404
86.501	127.761	80.003	19.994	104.262	20.155	3.762	0.384
87.001	127.992	80.002	19.994	104.263	20.159	3.476	0.405
87.501	128.186	80.002	19.993	104.263	20.154	3.787	0.435
88.001	128.389	80.002	19.993	104.263	20.157	3.640	0.411
88.501	128.579	80.003	19.994	104.263	20.159	3.487	0.395
89.001	128.771	80.002	19.994	104.262	20.157	3.577	0.387
89.501	129.007	80.004	19.993	104.263	20.158	3.572	0.404
90.000	129.201	80.004	19.994	104.263	20.156	3.704	0.429
90.500	129.426	80.005	19.994	104.264	20.158	3.532	0.425
91.000	129.614	80.005	19.994	104.264	20.157	3.577	0.416
91.500	129.848	80.004	19.993	104.264	20.156	3.693	0.417
92.000	130.057	80.004	19.993	104.265	20.158	3.574	0.432
92.500	130.249	80.004	19.991	104.264	20.156	3.678	0.423
93.001	130.471	80.004	19.993	104.262	20.156	3.693	0.408
93.501	130.681	80.005	19.993	104.261	20.156	3.642	0.423
94.001	130.860	80.004	19.994	104.261	20.157	3.637	0.410
94.501	131.111	80.004	19.994	104.258	20.156	3.700	0.410
95.001	131.292	80.004	19.995	104.258	20.158	3.530	0.431
95.501	131.538	80.003	19.993	104.260	20.161	3.325	0.429
96.001	131.734	80.003	19.994	104.263	20.157	3.606	0.434
96.501	131.920	80.003	19.994	104.263	20.158	3.510	0.412
97.001	132.118	80.004	19.994	104.264	20.158	3.528	0.383
97.501	132.357	80.003	19.993	104.265	20.158	3.513	0.410
98.001	132.603	80.004	19.993	104.263	20.158	3.555	0.461
98.501	132.817	80.003	19.994	104.266	20.157	3.635	0.472
99.001	133.012	80.004	19.993	104.266	20.160	3.430	0.435
99.501	133.271	80.003	19.994	104.267	20.158	3.548	0.432
100.001	133.475	80.004	19.993	104.270	20.158	3.517	0.459
100.501	133.685	80.001	19.994	104.276	20.160	3.392	0.438
101.001	133.941	80.002	19.993	104.275	20.156	3.654	0.440
101.501	134.097	80.003	19.995	104.275	20.160	3.417	0.439
102.001	134.350	80.002	19.994	104.274	20.156	3.656	0.411
102.501	134.544	80.002	19.994	104.273	20.162	3.300	0.428
103.001	134.788	80.003	19.993	104.267	20.154	3.797	0.442
103.501	135.001	80.002	19.993	104.263	20.158	3.528	0.448
104.001	135.228	80.002	19.994	104.263	20.157	3.617	0.448
104.501	135.467	80.001	19.994	104.263	20.158	3.535	0.453
105.001	135.679	80.000	19.994	104.262	20.158	3.537	0.459
105.501	135.915	80.002	19.995	104.261	20.158	3.522	0.449
106.001	136.136	80.001	19.994	104.255	20.154	3.786	0.453
106.501	136.364	80.003	19.995	104.254	20.156	3.643	0.453
107.001	136.602	80.002	19.993	104.251	20.153	3.860	0.457
107.501	136.804	80.002	19.995	104.251	20.154	3.779	0.453
108.001	137.080	80.001	19.993	104.251	20.153	3.863	0.460
108.501	137.323	80.001	19.993	104.256	20.156	3.669	0.499
109.001	137.549	80.002	19.994	104.256	20.154	3.805	0.493
109.501	137.756	80.001	19.995	104.259	20.156	3.693	0.451
110.001	138.010	80.001	19.994	104.258	20.156	3.680	0.447
110.501	138.233	80.001	19.994	104.253	20.156	3.680	0.469
111.001	138.445	80.003	19.993	104.251	20.156	3.644	0.456
111.500	138.684	80.001	19.993	104.250	20.157	3.600	0.443
112.001	138.889	80.002	19.994	104.250	20.155	3.752	0.447
112.501	139.145	80.001	19.994	104.248	20.157	3.635	0.453
113.001	139.339	80.002	19.996	104.253	20.158	3.517	0.456
113.501	139.632	80.002	19.994	104.256	20.155	3.765	0.468
114.001	139.856	80.002	19.994	104.257	20.154	3.813	0.502
114.501	140.084	80.002	19.995	104.259	20.155	3.721	0.485
115.001	140.289	80.002	19.994	104.262	20.156	3.690	0.443
115.500	140.544	80.002	19.994	104.261	20.157	3.630	0.447
116.000	140.769	80.001	19.993	104.257	20.158	3.538	0.470
116.501	140.999	80.002	19.996	104.254	20.155	3.744	0.467
117.001	141.269	80.000	19.994	104.250	20.155	3.731	0.478
117.500	141.488	80.002	19.994	104.249	20.156	3.651	0.495
118.001	141.739	80.001	19.994	104.251	20.156	3.691	0.480
118.501	141.993	80.001	19.995	104.254	20.158	3.552	0.487
119.001	142.223	80.002	19.994	104.257	20.155	3.769	0.494
119.501	142.454	80.002	19.995	104.259	20.154	3.787	0.473
120.001	142.645	80.002	19.993	104.260	20.157	3.608	0.442
120.501	142.888	80.002	19.994	104.260	20.159	3.478	0.428
121.001	143.149	80.002	19.994	104.260	20.157	3.615	0.469
121.501	143.397	80.003	19.994	104.260	20.157	3.611	0.506
122.001	143.653	80.002	19.994	104.260	20.158	3.571	0.506
122.501	143.890	80.003	19.994	104.260	20.155	3.708	0.499
123.001	144.138	80.002	19.994	104.260	20.154	3.793	0.489
123.501	144.376	80.001	19.994	104.260	20.159	3.465	0.485
124.001	144.616	80.002	19.994	104.263	20.155	3.727	0.482
124.501	144.875	80.001	19.995	104.271	20.157	3.622	0.488
125.000	145.108	80.001	19.993	104.279	20.156	3.673	0.496
125.501	145.328	80.001	19.995	104.283	20.156	3.644	0.473
126.001	145.593	80.002	19.994	104.284	20.157	3.606	0.469
126.500	145.865	80.002	19.994	104.282	20.158	3.543	0.511
127.000	146.064	80.002	19.994	104.274	20.156	3.706	0.504
127.500	146.337	80.000	19.994	104.266	20.157	3.617	0.472
128.000	146.587	80.000	19.993	104.263	20.155	3.747	0.498
128.500	146.817	80.000	19.994	104.263	20.157	3.594	0.502
129.000	147.083	80.000	19.995	104.263	20.157	3.581	0.488
129.500	147.321	80.001	19.997	104.264	20.157	3.615	0.500
130.000	147.556	80.001	19.995	104.264	20.155	3.756	0.489
130.500	147.797	80.000	19.996	104.269	20.154	3.799	0.475
131.000	148.049	80.001	19.994	104.269	20.155	3.751	0.485
131.501	148.247	80.001	19.995	104.266	20.158	3.573	0.471
132.000	148.528	80.001	19.994	104.259	20.153	3.881	0.464
132.500	148.772	80.000	19.993	104.254	20.153	3.888	0.502
133.000	149.033	80.000	19.994	104.244	20.154	3.805	0.515
133.500	149.252	80.002	19.994	104.243	20.153	3.875	0.492
134.000	149.522	80.001	19.994	104.246	20.154	3.834	0.484
134.500	149.816	79.999	19.996	104.253	20.152	3.964	0.527
135.000	150.031	80.000	19.994	104.258	20.156	3.676	0.537
135.500	150.236	80.000	19.995	104.264	20.157	3.629	0.465
136.000	150.527	80.000	19.995	104.266	20.153	3.904	0.458
136.500	150.752	80.001	19.995	104.268	20.155	3.768	0.506
137.001	151.029	80.000	19.994	104.269	20.155	3.728	0.509
137.501	151.262	80.000	19.994	104.272	20.155	3.750	0.506
138.001	151.524	80.001	19.996	104.275	20.156	3.665	0.502
138.500	151.766	80.001	19.994	104.274	20.160	3.389	0.500
139.000	152.061	80.000	19.995	104.274	20.158	3.548	0.521
139.500	152.262	80.001	19.996	104.274	20.155	3.722	0.517
140.000	152.538	80.000	19.995	104.270	20.155	3.738	0.486
140.500	152.774	80.000	19.996	104.266	20.158	3.523	0.494
141.000	152.979	80.000	19.996	104.265	20.157	3.611	0.476
141.500	153.279	80.001	19.994	104.264	20.153	3.886	0.473
142.000	153.508	80.001	19.993	104.263	20.151	4.000	0.517
142.500	153.763	80.000	19.994	104.263	20.155	3.709	0.507
143.000	154.012	80.002	19.995	104.258	20.156	3.664	0.494
143.500	154.230	80.000	19.995	104.256	20.152	3.915	0.485
144.000	154.462	80.003	19.995	104.255	20.156	3.691	0.459
144.501	154.710	80.002	19.995	104.255	20.154	3.777	0.465
145.000	154.953	80.002	19.994	104.255	20.155	3.763	0.486
145.500	155.237	80.002	19.994	104.259	20.155	3.738	0.509
146.000	155.472	80.001	19.994	104.260	20.157	3.638	0.523
146.500	155.723	80.002	19.995	104.253	20.156	3.705	0.502
147.000	156.003	80.002	19.995	104.248	20.155	3.714	0.508
147.500	156.247	80.002	19.994	104.245	20.155	3.770	0.528
148.001	156.470	80.002	19.994	104.241	20.157	3.602	0.496
148.500	156.711	80.002	19.995	104.241	20.155	3.752	0.465
149.000	156.989	80.001	19.995	104.248	20.155	3.745	0.491
149.501	157.206	80.001	19.995	104.253	20.153	3.843	0.507
150.000	157.450	80.003	19.994	104.256	20.153	3.904	0.478
150.500	157.748	80.002	19.995	104.261	20.152	3.960	0.501
151.000	158.016	80.005	19.994	104.262	20.157	3.639	0.554
151.501	158.276	80.003	19.993	104.261	20.157	3.587	0.547
152.000	158.487	80.003	19.994	104.261	20.157	3.632	0.500
152.500	158.765	80.003	19.994	104.262	20.156	3.701	0.480
153.001	158.986	80.003	19.994	104.262	20.154	3.810	0.493
153.500	159.280	80.005	19.995	104.262	20.155	3.739	0.507
154.000	159.525	80.004	19.994	104.261	20.156	3.705	0.527
154.500	159.749	80.003	19.994	104.258	20.153	3.864	0.504
155.000	160.010	80.003	19.994	104.255	20.155	3.708	0.477
155.501	160.259	80.002	19.993	104.252	20.155	3.749	0.498
156.001	160.496	80.002	19.993	104.250	20.156	3.688	0.498
156.501	160.757	80.004	19.995	104.251	20.155	3.755	0.492
157.001	160.958	80.003	19.994	104.252	20.155	3.710	0.480
157.500	161.258	80.003	19.994	104.251	20.154	3.780	0.481
158.000	161.528	80.002	19.994	104.250	20.158	3.556	0.536
158.500	161.798	80.003	19.994	104.250	20.161	3.343	0.555
159.000	162.042	80.003	19.994	104.250	20.156	3.662	0.527
159.500	162.297	80.003	19.993	104.251	20.157	3.628	0.506
160.000	162.518	80.002	19.995	104.254	20.158	3.527	0.488
160.500	162.778	80.004	19.993	104.254	20.158	3.543	0.478
161.000	163.030	80.001	19.993	104.248	20.158	3.520	0.496
161.500	163.270	80.003	19.994	104.241	20.155	3.710	0.502
162.000	163.515	80.003	19.994	104.233	20.159	3.458	0.488
162.500	163.772	80.002	19.994	104.230	20.159	3.505	0.493
163.000	164.046	80.002	19.994	104.233	20.157	3.599	0.517
163.500	164.282	80.002	19.993	104.241	20.157	3.583	0.521
164.001	164.543	80.003	19.994	104.244	20.157	3.623	0.504
164.500	164.817	80.002	19.994	104.245	20.159	3.482	0.516
165.000	165.084	80.002	19.993	104.240	20.157	3.614	0.537
165.501	165.332	80.002	19.994	104.235	20.154	3.831	0.528
166.001	165.593	80.003	19.994	104.229	20.157	3.583	0.512
166.501	165.860	80.003	19.993	104.228	20.154	3.773	0.519
167.000	166.086	80.002	19.993	104.227	20.157	3.622	0.511
167.500	166.327	80.003	19.993	104.228	20.158	3.566	0.480
168.000	166.595	80.005	19.994	104.226	20.154	3.831	0.488
168.501	166.825	80.003	19.995	104.226	20.155	3.721	0.504
169.000	167.114	80.004	19.994	104.224	20.157	3.605	0.509
169.500	167.340	80.003	19.994	104.226	20.156	3.665	0.517
170.000	167.600	80.004	19.994	104.225	20.160	3.403	0.501
170.500	167.840	80.003	19.993	104.224	20.159	3.502	0.492
171.001	168.118	80.005	19.994	104.223	20.159	3.459	0.509
171.500	168.368	80.005	19.993	104.228	20.158	3.535	0.523
172.000	168.599	80.004	19.994	104.231	20.156	3.705	0.505
172.501	168.854	80.004	19.993	104.232	20.156	3.658	0.484
173.000	169.113	80.004	19.993	104.232	20.156	3.663	0.500
173.500	169.393	80.004	19.993	104.231	20.158	3.566	0.526
174.000	169.644	80.005	19.994	104.225	20.155	3.761	0.535
174.500	169.903	80.004	19.993	104.220	20.156	3.681	0.520
175.000	170.164	80.005	19.994	104.220	20.157	3.614	0.515
175.500	170.402	80.005	19.993	104.223	20.157	3.583	0.510
176.001	170.661	80.005	19.993	104.225	20.157	3.582	0.498
176.500	170.866	80.005	19.993	104.231	20.158	3.557	0.480
177.000	171.158	80.004	19.993	104.238	20.159	3.447	0.481
177.501	171.410	80.004	19.994	104.243	20.159	3.501	0.521
178.000	171.656	80.003	19.993	104.243	20.159	3.478	0.521
178.500	171.914	80.003	19.993	104.245	20.158	3.557	0.501
179.000	172.170	80.004	19.994	104.239	20.161	3.346	0.509
179.500	172.404	80.004	19.993	104.233	20.161	3.324	0.502
180.000	172.659	80.003	19.993	104.229	20.160	3.389	0.490
180.500	172.920	80.003	19.994	104.232	20.160	3.389	0.502
181.000	173.164	80.001	19.994	104.237	20.159	3.503	0.510
181.500	173.410	80.001	19.994	104.245	20.159	3.462	0.498
182.000	173.713	80.001	19.994	104.251	20.160	3.423	0.520
182.500	173.910	80.002	19.994	104.254	20.159	3.492	0.525
183.000	174.155	80.004	19.995	104.255	20.161	3.376	0.471
183.500	174.466	80.003	19.993	104.255	20.160	3.393	0.499
184.000	174.693	80.003	19.993	104.253	20.159	3.479	0.547
184.500	174.944	80.002	19.993	104.253	20.162	3.285	0.508
185.000	175.187	80.002	19.993	104.249	20.162	3.265	0.486
185.500	175.409	80.002	19.994	104.242	20.160	3.379	0.480
186.000	175.673	80.003	19.994	104.234	20.161	3.370	0.476
186.500	175.924	80.002	19.993	104.222	20.160	3.413	0.500
187.000	176.178	80.002	19.994	104.209	20.162	3.252	0.510
187.500	176.418	80.002	19.994	104.208	20.160	3.414	0.500
188.000	176.657	80.002	19.994	104.205	20.163	3.230	0.486
188.500	176.889	80.002	19.994	104.204	20.158	3.533	0.475
189.000	177.179	80.001	19.997	104.212	20.158	3.533	0.496
189.500	177.451	80.002	19.996	104.217	20.159	3.458	0.542
190.000	177.653	80.002	19.993	104.218	20.161	3.366	0.518
190.500	177.920	80.002	19.995	104.221	20.161	3.344	0.471
191.000	178.211	80.000	19.994	104.223	20.162	3.299	0.513
191.500	178.454	80.002	19.994	104.223	20.160	3.386	0.546
192.000	178.686	80.002	19.994	104.225	20.163	3.180	0.505
192.500	178.937	80.002	19.993	104.233	20.159	3.481	0.479
193.000	179.174	80.001	19.994	104.243	20.160	3.384	0.486
193.500	179.429	80.002	19.993	104.253	20.161	3.317	0.490
194.000	179.711	80.001	19.994	104.261	20.162	3.306	0.514
194.500	179.957	80.003	19.994	104.265	20.160	3.386	0.532
195.000	180.190	80.001	19.993	104.258	20.164	3.133	0.503
195.500	180.407	80.002	19.993	104.248	20.161	3.366	0.464
196.000	180.696	80.001	19.995	104.240	20.159	3.491	0.478
196.500	180.954	80.001	19.994	104.232	20.159	3.460	0.526
197.000	181.183	80.001	19.993	104.225	20.162	3.294	0.517
197.500	181.444	80.001	19.994	104.219	20.158	3.568	0.488
198.000	181.672	80.002	19.993	104.212	20.161	3.339	0.490
198.500	181.970	80.001	19.994	104.204	20.162	3.248	0.508
199.000	182.172	80.000	19.994	104.200	20.161	3.310	0.513
199.500	182.451	80.001	19.994	104.198	20.158	3.541	0.491
200.001	182.697	80.001	19.995	104.203	20.160	3.427	0.503
200.500	182.952	80.001	19.994	104.210	20.158	3.545	0.513
201.000	183.179	80.002	19.994	104.216	20.163	3.192	0.491
201.500	183.443	80.001	19.993	104.219	20.162	3.301	0.486
202.000	183.706	80.002	19.994	104.222	20.161	3.323	0.509
202.500	183.929	80.001	19.994	104.222	20.160	3.400	0.507
203.000	184.131	80.001	19.994	104.220	20.165	3.077	0.455
203.500	184.414	80.003	19.994	104.217	20.162	3.245	0.455
204.000	184.627	80.000	19.994	104.218	20.159	3.475	0.490
204.500	184.892	80.000	19.995	104.218	20.160	3.413	0.487
205.000	185.174	80.001	19.995	104.215	20.162	3.281	0.513
205.500	185.436	80.000	19.995	104.217	20.161	3.339	0.546
206.000	185.700	80.001	19.993	104.224	20.161	3.335	0.535
206.500	185.944	80.002	19.994	104.226	20.160	3.378	0.517
207.000	186.182	80.001	19.994	104.226	20.160	3.403	0.495
207.500	186.446	80.001	19.994	104.228	20.160	3.412	0.492
208.000	186.688	80.000	19.994	104.228	20.157	3.573	0.504
208.500	186.955	80.002	19.994	104.221	20.164	3.166	0.508
209.001	187.172	80.000	19.994	104.219	20.164	3.174	0.496
209.500	187.444	79.998	19.994	104.219	20.164	3.148	0.486
210.000	187.684	80.001	19.994	104.219	20.162	3.282	0.501
210.501	187.910	80.000	19.994	104.220	20.163	3.179	0.489
211.000	188.176	80.000	19.994	104.223	20.162	3.252	0.479
211.500	188.431	80.001	19.993	104.225	20.160	3.409	0.506
212.000	188.676	80.001	19.994	104.223	20.160	3.378	0.510
212.500	188.924	80.001	19.994	104.222	20.163	3.201	0.496
213.000	189.158	80.001	19.994	104.221	20.162	3.304	0.488
213.500	189.421	80.000	19.995	104.222	20.159	3.450	0.490
214.000	189.652	80.001	19.994	104.225	20.162	3.291	0.495
214.500	189.917	80.002	19.994	104.234	20.164	3.125	0.495
215.000	190.131	80.001	19.994	104.239	20.161	3.315	0.488
215.500	190.396	80.001	19.995	104.239	20.161	3.371	0.479
216.000	190.633	80.001	19.993	104.233	20.160	3.393	0.490
216.500	190.898	80.001	19.994	104.222	20.160	3.400	0.502
217.000	191.157	80.001	19.995	104.207	20.158	3.545	0.512
217.500	191.404	80.001	19.995	104.195	20.160	3.388	0.515
218.000	191.632	80.002	19.994	104.190	20.158	3.525	0.491
218.500	191.881	80.000	19.994	104.194	20.160	3.398	0.476
219.000	192.102	80.001	19.994	104.196	20.161	3.364	0.474
219.500	192.370	80.001	19.994	104.198	20.162	3.292	0.479
220.000	192.566	80.001	19.994	104.203	20.160	3.407	0.476
220.501	192.845	80.001	19.994	104.203	20.165	3.107	0.470
221.000	193.099	80.001	19.994	104.202	20.162	3.306	0.504
221.500	193.332	80.001	19.994	104.206	20.162	3.295	0.510
222.000	193.604	80.002	19.994	104.208	20.161	3.315	0.496
222.500	193.828	80.002	19.994	104.207	20.165	3.085	0.500
223.000	194.114	80.002	19.994	104.202	20.162	3.273	0.503
223.500	194.331	80.003	19.993	104.198	20.161	3.347	0.506
224.000	194.627	80.002	19.994	104.200	20.160	3.418	0.508
224.500	194.838	80.002	19.993	104.203	20.162	3.268	0.510
225.000	195.080	80.002	19.993	104.207	20.161	3.331	0.480
225.500	195.316	80.002	19.994	104.213	20.164	3.166	0.465
226.000	195.565	80.003	19.994	104.217	20.162	3.244	0.481
226.500	195.830	80.003	19.994	104.217	20.160	3.403	0.500
227.000	196.046	80.002	19.994	104.217	20.163	3.190	0.498
227.500	196.281	80.003	19.994	104.217	20.164	3.150	0.466
228.000	196.533	80.003	19.994	104.218	20.162	3.275	0.469
228.500	196.775	80.003	19.995	104.220	20.161	3.374	0.490
229.000	197.027	80.003	19.994	104.219	20.165	3.080	0.494
229.501	197.271	80.003	19.994	104.219	20.163	3.233	0.495
230.000	197.490	80.002	19.995	104.218	20.160	3.420	0.479
230.500	197.764	80.003	19.994	104.218	20.162	3.259	0.478
231.001	198.019	80.002	19.995	104.216	20.164	3.176	0.511
231.500	198.269	80.002	19.995	104.215	20.162	3.282	0.517
232.000	198.506	80.003	19.994	104.210	20.159	3.474	0.496
232.500	198.761	80.002	19.994	104.208	20.162	3.297	0.489
233.000	199.000	80.003	19.994	104.204	20.165	3.051	0.493
233.500	199.243	80.002	19.995	104.203	20.162	3.273	0.488
234.000	199.484	80.003	19.994	104.204	20.163	3.239	0.483
234.500	199.747	80.002	19.997	104.208	20.164	3.150	0.494
235.001	200.002	80.002	19.995	104.209	20.163	3.188	0.510
235.500	200.233	80.003	19.995	104.211	20.164	3.130	0.502
236.000	200.437	80.003	19.995	104.207	20.163	3.208	0.461
236.500	200.689	80.002	19.995	104.200	20.163	3.203	0.446
237.001	200.949	80.004	19.994	104.194	20.162	3.272	0.484
237.501	201.200	80.001	19.995	104.192	20.160	3.433	0.511
238.001	201.441	80.003	19.995	104.192	20.162	3.302	0.501
238.500	201.731	80.002	19.994	104.193	20.160	3.398	0.512
239.000	201.948	80.001	19.996	104.195	20.161	3.346	0.519
239.500	202.189	80.003	19.996	104.198	20.162	3.244	0.482
240.000	202.446	80.002	19.994	104.200	20.160	3.411	0.478
240.500	202.679	80.002	19.996	104.202	20.160	3.412	0.493
241.000	202.951	80.001	19.995	104.208	20.161	3.309	0.497
241.500	203.179	80.002	19.995	104.213	20.159	3.450	0.503
242.000	203.435	80.003	19.994	104.213	20.160	3.393	0.492
242.500	203.653	80.002	19.995	104.212	20.160	3.402	0.479
243.000	203.930	80.002	19.995	104.207	20.160	3.429	0.485
243.500	204.154	80.001	19.995	104.207	20.161	3.337	0.498
244.000	204.404	80.002	19.995	104.202	20.160	3.380	0.488
244.500	204.647	80.002	19.995	104.198	20.161	3.358	0.484
245.001	204.883	80.003	19.995	104.198	20.161	3.346	0.486
245.500	205.123	80.003	19.994	104.198	20.159	3.496	0.477
246.000	205.371	80.002	19.995	104.193	20.161	3.333	0.482
246.500	205.650	80.002	19.994	104.197	20.158	3.539	0.507
247.000	205.902	80.002	19.995	104.204	20.161	3.368	0.529
247.500	206.129	80.003	19.995	104.207	20.161	3.312	0.505
248.000	206.402	80.003	19.993	104.211	20.158	3.572	0.489
248.500	206.627	80.002	19.994	104.217	20.162	3.303	0.499
249.000	206.886	80.004	19.997	104.216	20.161	3.332	0.491
249.500	207.130	80.004	19.995	104.211	20.163	3.234	0.493
250.000	207.425	80.005	19.995	104.212	20.159	3.467	0.521
250.501	207.674	80.004	19.994	104.211	20.159	3.443	0.542
251.001	207.914	80.003	19.994	104.209	20.157	3.624	0.516
251.500	208.102	80.004	19.994	104.206	20.159	3.486	0.458
252.000	208.361	80.004	19.994	104.209	20.160	3.418	0.438
252.500	208.608	80.004	19.994	104.206	20.159	3.496	0.477
253.000	208.875	80.006	19.994	104.206	20.163	3.239	0.510
253.500	209.108	80.003	19.994	104.207	20.161	3.318	0.507
254.001	209.333	80.004	19.994	104.213	20.159	3.459	0.479
254.500	209.614	80.004	19.993	104.210	20.156	3.654	0.481
255.000	209.836	80.004	19.993	104.210	20.159	3.455	0.504
255.500	210.101	80.005	19.994	104.207	20.159	3.504	0.495
256.000	210.313	80.004	19.993	104.208	20.160	3.412	0.482
256.500	210.564	80.004	19.993	104.208	20.161	3.347	0.470
257.000	210.843	80.004	19.994	104.212	20.157	3.609	0.497
257.501	211.085	80.004	19.993	104.215	20.159	3.476	0.525
258.000	211.313	80.004	19.994	104.219	20.157	3.629	0.495
258.500	211.547	80.004	19.993	104.219	20.157	3.581	0.466
259.000	211.782	80.004	19.994	104.220	20.158	3.557	0.466
259.500	212.014	80.002	19.993	104.220	20.159	3.460	0.468
260.000	212.313	80.004	19.993	104.220	20.155	3.732	0.499
260.500	212.551	80.002	19.993	104.214	20.159	3.483	0.535
261.000	212.856	80.004	19.992	104.210	20.155	3.722	0.540
261.500	213.079	80.003	19.993	104.208	20.159	3.476	0.535
262.000	213.285	80.002	19.994	104.206	20.157	3.628	0.479
262.501	213.579	80.002	19.994	104.202	20.157	3.617	0.465
263.001	213.824	80.001	19.993	104.206	20.159	3.505	0.519
263.500	214.058	80.001	19.994	104.206	20.158	3.548	0.509
264.000	214.302	80.001	19.994	104.201	20.157	3.628	0.478
264.500	214.511	80.003	19.993	104.197	20.157	3.622	0.465
265.000	214.784	80.001	19.992	104.195	20.156	3.698	0.467
265.500	215.033	80.001	19.993	104.191	20.157	3.609	0.502
266.000	215.275	80.001	19.994	104.191	20.157	3.591	0.506
266.500	215.532	80.003	19.993	104.194	20.153	3.864	0.495
267.000	215.813	80.001	19.994	104.195	20.157	3.636	0.519
267.500	216.060	80.000	19.993	104.199	20.159	3.494	0.533
268.000	216.275	80.002	19.993	104.200	20.153	3.844	0.495
268.500	216.506	80.001	19.992	104.203	20.156	3.700	0.454
269.000	216.763	80.001	19.994	104.206	20.158	3.563	0.467
269.500	217.018	80.002	19.993	104.208	20.156	3.689	0.500
270.000	217.288	80.003	19.993	104.207	20.153	3.859	0.518
270.500	217.514	80.002	19.993	104.211	20.154	3.792	0.510
271.000	217.766	80.003	19.993	104.210	20.156	3.669	0.487
271.500	218.020	80.002	19.994	104.212	20.157	3.617	0.493
272.000	218.290	80.002	19.994	104.216	20.155	3.767	0.515
272.500	218.508	80.002	19.994	104.220	20.154	3.803	0.506
273.000	218.777	80.002	19.993	104.222	20.157	3.615	0.487
273.500	219.022	80.002	19.994	104.224	20.154	3.801	0.501
274.000	219.246	80.001	19.993	104.222	20.153	3.855	0.492
274.500	219.482	80.002	19.993	104.215	20.152	3.905	0.465
275.000	219.738	80.002	19.994	104.207	20.153	3.902	0.476
275.500	219.986	80.001	19.994	104.201	20.154	3.798	0.498
276.000	220.233	80.003	19.993	104.194	20.152	3.939	0.499
276.500	220.448	80.001	19.995	104.190	20.152	3.952	0.478
277.000	220.723	80.002	19.994	104.191	20.153	3.854	0.476
277.500	220.972	80.002	19.994	104.193	20.154	3.776	0.507
278.000	221.224	80.002	19.993	104.194	20.155	3.716	0.513
278.501	221.481	80.002	19.994	104.199	20.155	3.734	0.505
279.001	221.745	80.002	19.994	104.205	20.153	3.857	0.515
279.500	221.982	80.001	19.993	104.212	20.151	3.971	0.512
280.000	222.228	80.003	19.993	104.217	20.154	3.776	0.492
280.500	222.469	80.003	19.993	104.219	20.152	3.968	0.484
281.000	222.774	80.003	19.995	104.218	20.152	3.928	0.516
281.500	223.001	80.003	19.993	104.217	20.155	3.747	0.539
282.000	223.206	80.002	19.994	104.216	20.149	4.159	0.482
282.500	223.469	80.003	19.995	104.216	20.152	3.968	0.450
283.000	223.758	80.003	19.994	104.216	20.148	4.170	0.510
283.500	223.973	80.002	19.994	104.210	20.152	3.928	0.528
284.000	224.216	80.004	19.994	104.203	20.152	3.961	0.481
284.500	224.476	80.003	19.994	104.197	20.152	3.944	0.480
285.000	224.728	80.005	19.994	104.194	20.150	4.043	0.507
285.500	224.981	80.002	19.994	104.196	20.148	4.170	0.509
286.000	225.202	80.002	19.994	104.203	20.150	4.087	0.489
286.500	225.462	80.003	19.993	104.210	20.151	4.025	0.478
287.000	225.736	80.002	19.993	104.217	20.147	4.239	0.508
287.500	225.963	80.002	19.993	104.221	20.149	4.118	0.517
288.000	226.226	80.001	19.993	104.222	20.147	4.253	0.495
288.500	226.444	80.002	19.994	104.220	20.147	4.257	0.486
289.000	226.712	80.000	19.994	104.214	20.147	4.297	0.484
289.500	226.964	80.002	19.993	104.210	20.145	4.383	0.503
290.000	227.172	80.002	19.993	104.210	20.145	4.367	0.490
290.500	227.446	80.001	19.993	104.211	20.150	4.074	0.471
291.000	227.680	80.000	19.993	104.211	20.147	4.248	0.495
291.500	227.930	80.001	19.993	104.215	20.146	4.302	0.496
292.000	228.226	80.001	19.995	104.218	20.145	4.365	0.515
292.500	228.438	80.000	19.994	104.218	20.145	4.400	0.527
293.000	228.729	80.001	19.994	104.218	20.146	4.342	0.506
293.500	228.967	80.001	19.993	104.219	20.143	4.557	0.516
294.000	229.240	80.001	19.995	104.222	20.145	4.407	0.519
294.501	229.490	80.001	19.995	104.220	20.145	4.428	0.517
295.000	229.741	80.002	19.994	104.218	20.145	4.370	0.512
295.500	229.990	80.002	19.993	104.218	20.149	4.164	0.501
296.001	230.221	80.001	19.996	104.213	20.142	4.625	0.490
296.500	230.509	80.000	19.995	104.210	20.144	4.493	0.499
297.000	230.750	80.001	19.995	104.212	20.143	4.531	0.524
297.500	231.005	80.001	19.994	104.212	20.145	4.392	0.513
298.000	231.223	80.001	19.994	104.211	20.144	4.484	0.485
298.500	231.500	80.000	19.994	104.215	20.142	4.596	0.484
299.000	231.743	80.001	19.995	104.217	20.142	4.563	0.508
299.501	231.966	80.002	19.995	104.215	20.143	4.543	0.493
300.001	232.265	80.001	19.995	104.216	20.139	4.806	0.493
300.501	232.507	80.002	19.995	104.218	20.138	4.866	0.531
301.001	232.720	80.002	19.995	104.218	20.139	4.777	0.499
301.500	232.966	80.003	19.996	104.217	20.138	4.882	0.457
302.000	233.185	80.001	19.995	104.216	20.139	4.821	0.462
302.500	233.454	80.001	19.995	104.214	20.139	4.817	0.477
303.000	233.738	80.002	19.996	104.215	20.137	4.942	0.521
303.500	233.976	80.002	19.995	104.214	20.134	5.122	0.537
304.000	234.249	80.001	19.995	104.215	20.132	5.258	0.516
304.500	234.514	80.002	19.994	104.212	20.135	5.070	0.525
305.000	234.708	80.003	19.994	104.210	20.137	4.922	0.498
305.500	235.005	80.002	19.994	104.208	20.134	5.117	0.475
306.000	235.232	80.002	19.995	104.206	20.134	5.139	0.508
306.500	235.529	80.003	19.994	104.201	20.135	5.031	0.524
307.000	235.774	80.002	19.994	104.203	20.131	5.336	0.533
307.500	236.010	80.003	19.994	104.207	20.135	5.074	0.511
308.000	236.215	80.002	19.994	104.202	20.135	5.069	0.461
308.500	236.515	80.002	19.996	104.197	20.132	5.286	0.473
309.000	236.772	80.003	19.996	104.198	20.131	5.324	0.531
309.500	236.997	80.002	19.996	104.197	20.130	5.394	0.519
310.000	237.267	80.002	19.996	104.194	20.129	5.443	0.488
310.500	237.513	80.003	19.996	104.196	20.129	5.425	0.506
311.000	237.789	80.004	19.995	104.204	20.129	5.459	0.520
311.500	238.052	80.002	19.993	104.208	20.129	5.487	0.530
312.000	238.294	80.002	19.994	104.213	20.126	5.640	0.521
312.500	238.507	80.002	19.994	104.214	20.128	5.503	0.480
313.000	238.776	80.002	19.993	104.217	20.127	5.605	0.469
313.500	239.048	80.002	19.995	104.213	20.125	5.705	0.511
314.001	239.252	80.002	19.994	104.213	20.123	5.846	0.509
314.500	239.516	80.003	19.995	104.212	20.123	5.840	0.472
315.000	239.723	80.002	19.994	104.213	20.121	5.989	0.469
315.500	240.011	80.003	19.993	104.215	20.119	6.134	0.483
316.000	240.266	80.002	19.994	104.216	20.117	6.215	0.519
316.501	240.485	80.002	19.995	104.216	20.116	6.344	0.508
317.001	240.771	80.002	19.993	104.218	20.117	6.234	0.490
317.501	241.009	80.002	19.994	104.218	20.117	6.236	0.515
318.000	241.219	80.001	19.994	104.219	20.117	6.234	0.486
318.500	241.514	80.002	19.995	104.222	20.115	6.407	0.476
319.000	241.765	80.002	19.995	104.222	20.113	6.494	0.526
319.500	242.006	80.002	19.994	104.222	20.114	6.428	0.519
320.000	242.264	80.001	19.995	104.223	20.113	6.529	0.496
320.500	242.537	80.002	19.994	104.223	20.111	6.611	0.515
321.000	242.797	80.002	19.994	104.223	20.110	6.703	0.532
321.500	243.061	80.002	19.996	104.224	20.111	6.616	0.529
322.000	243.323	80.001	19.995	104.225	20.112	6.593	0.525
322.500	243.531	80.002	19.995	104.225	20.110	6.738	0.498
323.000	243.807	80.002	19.996	104.225	20.107	6.932	0.477
323.501	244.067	80.001	19.995	104.222	20.106	6.978	0.510
324.001	244.295	80.002	19.995	104.216	20.105	7.047	0.512
324.500	244.585	80.003	19.994	104.216	20.102	7.219	0.503
325.000	244.787	80.001	19.995	104.215	20.105	7.035	0.505
325.500	245.075	80.002	19.996	104.215	20.100	7.339	0.491
326.000	245.305	80.002	19.995	104.221	20.101	7.326	0.504
326.501	245.554	80.002	19.996	104.231	20.099	7.436	0.499
327.000	245.828	80.002	19.994	104.232	20.100	7.373	0.502
327.500	246.069	80.003	19.995	104.233	20.098	7.513	0.519
328.001	246.325	80.002	19.994	104.237	20.097	7.540	0.505
328.500	246.613	80.001	19.996	104.236	20.096	7.634	0.521
329.000	246.841	80.002	19.994	104.237	20.092	7.896	0.530
329.500	247.079	80.002	19.995	104.237	20.092	7.900	0.491
330.001	247.325	80.002	19.994	104.243	20.090	8.060	0.475
330.500	247.570	80.002	19.994	104.247	20.090	8.061	0.487
331.000	247.795	80.001	19.994	104.251	20.087	8.206	0.481
331.500	248.076	80.003	19.995	104.251	20.085	8.335	0.488
332.000	248.321	80.003	19.995	104.250	20.080	8.671	0.516
332.500	248.602	80.003	19.995	104.243	20.082	8.526	0.526
333.001	248.863	80.003	19.995	104.234	20.076	8.960	0.534
333.501	249.077	80.002	19.994	104.228	20.074	9.058	0.509
334.001	249.358	80.002	19.993	104.222	20.073	9.134	0.485
334.501	249.633	80.001	19.993	104.222	20.074	9.098	0.525
335.001	249.910	80.004	19.994	104.224	20.074	9.082	0.554
335.500	250.177	80.004	19.994	104.232	20.071	9.261	0.548
336.000	250.409	80.003	19.994	104.237	20.072	9.207	0.522
336.500	250.669	80.004	19.993	104.240	20.069	9.445	0.496
337.000	250.904	80.003	19.994	104.242	20.065	9.713	0.493
337.500	251.172	80.003	19.994	104.242	20.062	9.909	0.499
338.000	251.442	80.003	19.994	104.236	20.062	9.856	0.521
338.500	251.676	80.002	19.994	104.229	20.061	9.955	0.521
339.001	251.965	80.003	19.995	104.226	20.057	10.227	0.513
339.501	252.188	80.003	19.993	104.225	20.053	10.485	0.517
340.001	252.450	80.002	19.993	104.223	20.054	10.378	0.499
340.500	252.716	80.003	19.993	104.229	20.047	10.863	0.506
341.000	252.960	80.003	19.994	104.238	20.046	10.930	0.519
341.500	253.187	80.002	19.993	104.247	20.043	11.139	0.491
342.000	253.454	80.003	19.994	104.254	20.043	11.113	0.483
342.500	253.689	80.002	19.994	104.259	20.041	11.260	0.498
343.000	253.942	80.002	19.994	104.261	20.038	11.483	0.495
343.500	254.184	80.001	19.995	104.261	20.035	11.642	0.492
344.000	254.460	80.001	19.995	104.261	20.035	11.668	0.507
344.500	254.722	80.002	19.995	104.261	20.031	11.907	0.528
345.000	254.966	80.002	19.994	104.262	20.030	11.961	0.522
345.500	255.196	80.003	19.993	104.262	20.028	12.140	0.490
346.000	255.466	80.001	19.995	104.262	20.023	12.426	0.487
346.500	255.715	80.000	19.994	104.267	20.022	12.547	0.510
347.000	255.932	80.000	19.994	104.273	20.020	12.644	0.493
347.501	256.206	80.003	19.994	104.277	20.015	12.985	0.479
348.001	256.442	80.003	19.993	104.285	20.014	13.040	0.500
348.501	256.685	80.002	19.994	104.288	20.010	13.289	0.494
349.000	256.969	79.999	19.994	104.286	20.006	13.597	0.503
349.500	257.175	80.001	19.995	104.282	20.005	13.674	0.508
350.000	257.453	80.002	19.994	104.283	20.001	13.899	0.487
350.500	257.685	80.001	19.994	104.275	19.999	14.058	0.497
351.000	257.992	80.004	19.993	104.274	19.995	14.325	0.525
351.500	258.151	80.002	19.994	104.279	19.990	14.613	0.503
352.000	258.450	80.001	19.994	104.279	19.987	14.800	0.462
352.500	258.711	80.002	19.993	104.277	19.984	15.049	0.509
353.000	258.987	80.002	19.994	104.284	19.979	15.332	0.548
353.500	259.218	80.002	19.995	104.289	19.975	15.609	0.522
354.000	259.500	80.001	19.995	104.291	19.975	15.620	0.510
354.500	259.694	80.001	19.994	104.294	19.967	16.141	0.494
355.000	259.973	80.001	19.996	104.300	19.967	16.147	0.474
355.501	260.223	80.000	19.994	104.300	19.961	16.552	0.501
356.000	260.432	80.002	19.996	104.300	19.959	16.655	0.494
356.500	260.738	80.001	19.995	104.300	19.952	17.150	0.487
357.001	260.987	80.003	19.995	104.300	19.947	17.491	0.535
357.500	261.210	80.001	19.993	104.294	19.945	17.636	0.514
358.000	261.453	80.000	19.994	104.288	19.940	17.931	0.469
358.500	261.744	80.003	19.995	104.286	19.934	18.320	0.500
359.000	261.930	80.002	19.994	104.286	19.929	18.669	0.505
359.500	262.204	80.002	19.994	104.286	19.925	18.930	0.468
360.001	262.421	80.003	19.995	104.291	19.921	19.196	0.475
360.501	262.683	80.002	19.995	104.298	19.918	19.404	0.485
361.001	262.909	80.002	19.994	104.299	19.912	19.765	0.483
361.500	263.172	80.003	19.994	104.297	19.906	20.180	0.488
362.000	263.429	80.002	19.995	104.296	19.901	20.487	0.505
362.500	263.708	80.002	19.995	104.298	19.896	20.839	0.528
363.000	263.927	80.001	19.994	104.299	19.891	21.159	0.517
363.500	264.193	80.003	19.994	104.300	19.885	21.602	0.491
364.000	264.413	80.003	19.995	104.302	19.883	21.725	0.486
364.500	264.709	80.003	19.994	104.303	19.875	22.239	0.502
365.000	264.958	80.003	19.994	104.303	19.871	22.521	0.531
365.500	265.210	80.002	19.995	104.305	19.867	22.785	0.523
366.000	265.404	80.002	19.993	104.311	19.864	22.935	0.473
366.501	265.691	80.003	19.994	104.319	19.858	23.328	0.463
367.001	265.920	80.002	19.995	104.327	19.854	23.650	0.498
367.500	266.181	80.002	19.994	104.335	19.847	24.111	0.503
368.000	266.414	80.003	19.992	104.339	19.840	24.555	0.492
368.501	266.669	80.001	19.994	104.339	19.839	24.626	0.492
369.000	266.925	80.001	19.996	104.339	19.829	25.274	0.500
369.500	267.157	80.002	19.994	104.339	19.825	25.558	0.499
370.000	267.440	80.001	19.995	104.338	19.823	25.701	0.502
370.500	267.655	80.001	19.994	104.340	19.817	26.088	0.507
371.000	267.929	80.002	19.994	104.341	19.811	26.463	0.493
371.500	268.164	80.001	19.994	104.341	19.803	26.972	0.499
372.000	268.415	80.003	19.994	104.343	19.801	27.115	0.497
372.500	268.649	80.001	19.994	104.347	19.797	27.387	0.485
373.000	268.888	80.002	19.995	104.352	19.787	28.059	0.479
373.500	269.134	80.001	19.995	104.356	19.784	28.258	0.480
374.000	269.385	80.001	19.994	104.358	19.780	28.513	0.491
374.500	269.642	80.001	19.994	104.356	19.772	29.053	0.502
375.000	269.881	80.001	19.994	104.352	19.771	29.135	0.502
375.500	270.148	80.002	19.993	104.346	19.764	29.604	0.501
376.000	270.390	80.002	19.995	104.341	19.760	29.852	0.508
376.500	270.666	80.001	19.994	104.341	19.755	30.147	0.514
377.000	270.929	80.000	19.995	104.341	19.750	30.539	0.529
377.500	271.148	80.001	19.994	104.341	19.746	30.788	0.511
378.000	271.404	80.000	19.995	104.342	19.743	30.991	0.478
378.500	271.653	80.001	19.994	104.349	19.738	31.308	0.490
379.000	271.924	80.002	19.994	104.348	19.734	31.587	0.513
379.500	272.138	80.001	19.995	104.351	19.726	32.086	0.503
380.000	272.428	80.001	19.996	104.353	19.725	32.165	0.494
380.500	272.702	80.000	19.993	104.358	19.720	32.452	0.534
381.000	272.904	80.000	19.995	104.358	19.716	32.734	0.520
381.500	273.140	80.002	19.993	104.365	19.708	33.244	0.457
382.000	273.364	80.000	19.993	104.371	19.706	33.376	0.449
382.500	273.674	80.001	19.994	104.373	19.703	33.634	0.497
383.000	273.893	80.000	19.994	104.368	19.699	33.864	0.531
383.500	274.129	80.001	19.994	104.363	19.696	34.045	0.492
384.000	274.385	80.002	19.994	104.362	19.692	34.324	0.473
384.500	274.673	80.001	19.994	104.362	19.687	34.638	0.518
385.000	274.880	80.002	19.994	104.370	19.682	34.983	0.520
385.500	275.134	80.003	19.994	104.379	19.680	35.133	0.478
386.000	275.364	80.001	19.995	104.392	19.675	35.471	0.472
386.500	275.647	80.001	19.994	104.400	19.672	35.663	0.498
387.001	275.877	80.002	19.994	104.406	19.669	35.843	0.513
387.501	276.139	80.001	19.993	104.409	19.667	35.966	0.503
388.001	276.357	80.003	19.993	104.415	19.662	36.280	0.486
388.500	276.635	80.002	19.995	104.415	19.661	36.373	0.487
389.000	276.876	80.004	19.994	104.412	19.655	36.785	0.507
389.501	277.099	80.002	19.995	104.406	19.656	36.735	0.492
390.001	277.396	80.002	19.995	104.399	19.653	36.891	0.492
390.501	277.614	80.002	19.994	104.391	19.648	37.266	0.518
391.001	277.867	80.003	19.995	104.384	19.641	37.727	0.493
391.501	278.108	80.003	19.995	104.380	19.638	37.885	0.482
392.001	278.357	80.002	19.995	104.379	19.636	38.016	0.492
392.500	278.663	80.003	19.995	104.378	19.633	38.233	0.522
393.000	278.869	80.002	19.994	104.378	19.631	38.362	0.534
393.501	279.141	80.002	19.994	104.378	19.621	39.001	0.495
394.000	279.392	80.002	19.994	104.381	19.620	39.097	0.500
394.500	279.611	80.002	19.994	104.385	19.620	39.120	0.496
395.000	279.891	80.004	19.994	104.387	19.615	39.438	0.485
395.500	280.118	80.002	19.994	104.387	19.611	39.721	0.503
396.000	280.321	80.002	19.995	104.386	19.607	39.951	0.468
396.500	280.601	80.002	19.994	104.381	19.607	39.946	0.456
397.000	280.841	80.001	19.995	104.377	19.604	40.157	0.501
397.500	281.143	80.001	19.995	104.374	19.602	40.309	0.531
398.000	281.365	80.000	19.995	104.375	19.595	40.747	0.533
398.500	281.584	80.001	19.995	104.375	19.594	40.821	0.483
399.000	281.838	80.003	19.994	104.378	19.594	40.835	0.457
399.500	282.113	80.000	19.994	104.384	19.585	41.441	0.501
400.000	282.358	80.002	19.996	104.392	19.586	41.374	0.524
400.500	282.578	80.001	19.993	104.394	19.584	41.456	0.493
401.001	282.839	80.002	19.994	104.395	19.583	41.568	0.473
401.500	283.080	80.001	19.995	104.395	19.583	41.564	0.491
402.000	283.353	80.001	19.994	104.389	19.576	42.007	0.508
402.500	283.625	80.001	19.993	104.386	19.574	42.119	0.530
403.000	283.843	80.001	19.995	104.386	19.569	42.488	0.517
403.500	284.128	80.001	19.995	104.391	19.568	42.560	0.496
404.000	284.404	80.000	19.995	104.398	19.568	42.515	0.532
404.500	284.612	80.002	19.995	104.406	19.562	42.920	0.522
405.000	284.870	80.002	19.994	104.412	19.563	42.881	0.475
405.500	285.098	80.002	19.994	104.419	19.561	43.003	0.476
406.000	285.354	80.002	19.993	104.422	19.558	43.186	0.485
406.500	285.621	80.002	19.994	104.423	19.556	43.365	0.504
407.000	285.875	80.003	19.995	104.427	19.550	43.749	0.522
407.500	286.102	80.002	19.994	104.430	19.545	44.077	0.501
408.000	286.341	80.002	19.994	104.428	19.545	44.069	0.474
408.500	286.601	80.002	19.995	104.427	19.543	44.188	0.482
409.000	286.860	80.002	19.995	104.425	19.541	44.342	0.509
409.500	287.106	80.004	19.994	104.420	19.538	44.564	0.512
410.000	287.359	80.003	19.995	104.415	19.535	44.748	0.502
410.500	287.632	80.002	19.995	104.412	19.528	45.201	0.512
411.000	287.879	80.003	19.995	104.408	19.530	45.086	0.523
411.500	288.111	80.003	19.996	104.402	19.527	45.283	0.500
412.000	288.370	80.003	19.994	104.400	19.526	45.357	0.485
412.500	288.644	80.004	19.995	104.400	19.523	45.544	0.512
413.000	288.868	80.005	19.995	104.401	19.514	46.152	0.516
413.500	289.135	80.003	19.995	104.402	19.514	46.143	0.494
414.000	289.352	80.005	19.995	104.408	19.512	46.257	0.487
414.500	289.631	80.004	19.994	104.407	19.507	46.589	0.491
415.000	289.895	80.004	19.995	104.409	19.504	46.802	0.520
415.500	290.163	80.003	19.996	104.410	19.503	46.883	0.537
416.000	290.398	80.004	19.996	104.414	19.502	46.940	0.517
416.500	290.634	80.004	19.995	104.420	19.498	47.200	0.487
417.000	290.907	80.004	19.995	104.429	19.497	47.223	0.490
417.500	291.184	80.003	19.995	104.437	19.497	47.275	0.530
418.000	291.427	80.004	19.996	104.444	19.490	47.733	0.535
418.500	291.681	80.004	19.995	104.450	19.484	48.108	0.508
419.000	291.940	80.003	19.995	104.451	19.485	48.070	0.505
419.500	292.169	80.003	19.995	104.451	19.482	48.208	0.500
420.000	292.456	80.002	19.995	104.451	19.484	48.113	0.502
420.500	292.693	80.003	19.995	104.453	19.478	48.486	0.520
421.000	292.939	80.002	19.995	104.456	19.476	48.612	0.504
421.500	293.187	80.002	19.995	104.457	19.470	49.012	0.488
422.001	293.437	80.002	19.995	104.457	19.467	49.241	0.496
422.501	293.690	80.001	19.995	104.456	19.468	49.184	0.500
423.000	293.928	80.001	19.996	104.455	19.465	49.347	0.497
423.500	294.185	80.000	19.994	104.456	19.466	49.288	0.493
424.000	294.441	80.001	19.996	104.464	19.456	49.973	0.504
424.501	294.698	80.002	19.994	104.476	19.453	50.131	0.513
425.001	294.947	80.001	19.997	104.483	19.450	50.373	0.510
425.500	295.196	80.000	19.994	104.480	19.449	50.454	0.502
426.000	295.466	80.001	19.994	104.474	19.445	50.675	0.509
426.500	295.727	80.001	19.994	104.462	19.437	51.228	0.526
427.000	295.955	80.000	19.996	104.452	19.438	51.139	0.510
427.501	296.208	80.002	19.995	104.446	19.431	51.593	0.485
428.000	296.417	80.002	19.995	104.449	19.431	51.639	0.471
428.500	296.691	80.001	19.995	104.454	19.427	51.905	0.472
429.000	296.959	80.002	19.996	104.459	19.423	52.124	0.513
429.500	297.196	80.002	19.996	104.462	19.420	52.340	0.524
430.000	297.457	80.001	19.996	104.465	19.417	52.567	0.501
430.500	297.698	80.002	19.996	104.465	19.415	52.694	0.500
431.000	297.976	80.002	19.996	104.465	19.406	53.272	0.511
431.500	298.224	80.002	19.996	104.463	19.406	53.262	0.522
432.000	298.508	80.001	19.995	104.462	19.403	53.465	0.529
432.501	298.724	80.001	19.995	104.462	19.401	53.627	0.516
433.000	298.974	80.001	19.995	104.464	19.397	53.882	0.483
433.500	299.223	80.002	19.995	104.466	19.394	54.075	0.482
434.000	299.511	80.001	19.995	104.469	19.388	54.483	0.518
434.500	299.758	80.003	19.994	104.471	19.386	54.640	0.536
435.000	299.991	80.002	19.994	104.470	19.382	54.908	0.508
435.500	300.267	80.002	19.994	104.472	19.379	55.108	0.495
436.000	300.496	80.002	19.995	104.476	19.374	55.407	0.507
436.501	300.733	80.002	19.996	104.479	19.372	55.573	0.486
437.000	300.974	80.002	19.994	104.480	19.363	56.135	0.472
437.500	301.291	80.002	19.994	104.484	19.360	56.363	0.518
438.000	301.541	80.002	19.994	104.483	19.358	56.448	0.562
438.500	301.745	80.001	19.994	104.481	19.357	56.558	0.511
439.000	302.028	80.001	19.994	104.480	19.352	56.888	0.471
439.501	302.274	80.001	19.995	104.482	19.347	57.195	0.508
440.000	302.496	80.003	19.993	104.484	19.340	57.637	0.498
440.500	302.744	80.001	19.995	104.486	19.338	57.801	0.469
441.000	303.010	80.002	19.994	104.486	19.333	58.095	0.492
441.500	303.259	80.001	19.994	104.487	19.328	58.470	0.515
442.000	303.516	80.000	19.995	104.486	19.324	58.682	0.511
442.500	303.791	80.003	19.993	104.486	19.325	58.657	0.519
443.000	304.023	80.002	19.995	104.491	19.318	59.103	0.519
443.500	304.255	80.002	19.995	104.497	19.313	59.453	0.486
444.000	304.510	80.001	19.996	104.499	19.312	59.544	0.475
444.500	304.752	80.002	19.995	104.501	19.309	59.724	0.491
445.000	305.026	80.002	19.995	104.504	19.305	59.966	0.507
445.500	305.257	80.001	19.994	104.508	19.301	60.248	0.511
446.000	305.535	80.002	19.994	104.513	19.295	60.610	0.507
446.500	305.752	80.001	19.993	104.518	19.296	60.596	0.502
447.000	306.015	80.002	19.995	104.517	19.289	61.014	0.488
447.500	306.275	80.001	19.995	104.520	19.284	61.372	0.502
448.000	306.501	80.002	19.993	104.517	19.278	61.748	0.504
448.500	306.774	80.002	19.994	104.512	19.276	61.885	0.492
449.000	307.019	80.001	19.995	104.508	19.273	62.127	0.508
449.500	307.244	80.001	19.993	104.507	19.267	62.477	0.494
450.000	307.493	80.001	19.994	104.504	19.266	62.568	0.472
450.500	307.733	80.002	19.994	104.503	19.261	62.895	0.482
451.000	307.981	80.002	19.994	104.502	19.258	63.064	0.488
451.500	308.257	80.000	19.993	104.504	19.254	63.360	0.505
452.001	308.480	80.002	19.993	104.504	19.247	63.809	0.511
452.500	308.733	80.002	19.994	104.504	19.246	63.905	0.488
453.000	308.965	80.002	19.994	104.506	19.243	64.098	0.481
453.500	309.239	80.002	19.995	104.507	19.238	64.452	0.496
454.000	309.504	80.000	19.995	104.507	19.230	64.936	0.522
454.501	309.751	79.999	19.994	104.514	19.229	65.053	0.525
455.000	309.980	80.001	19.994	104.521	19.223	65.396	0.494
455.500	310.208	80.001	19.993	104.522	19.220	65.648	0.466
456.001	310.476	80.001	19.993	104.524	19.217	65.846	0.477
456.500	310.733	80.001	19.994	104.529	19.213	66.097	0.511
457.000	310.990	79.999	19.995	104.525	19.210	66.306	0.520
457.501	311.226	80.001	19.994	104.525	19.205	66.643	0.504
458.000	311.483	80.001	19.995	104.525	19.199	66.994	0.493
458.500	311.714	79.999	19.993	104.525	19.197	67.166	0.490
459.000	312.012	80.000	19.995	104.527	19.194	67.375	0.508
459.501	312.266	79.998	19.994	104.531	19.190	67.644	0.541
460.001	312.518	80.000	19.994	104.529	19.185	67.972	0.529
460.501	312.778	80.001	19.994	104.537	19.181	68.220	0.509
461.000	313.027	80.001	19.993	104.539	19.177	68.467	0.510
461.500	313.280	80.002	19.993	104.540	19.176	68.583	0.505
462.000	313.493	80.000	19.995	104.542	19.172	68.828	0.484
462.500	313.790	80.001	19.995	104.544	19.169	69.019	0.488
463.000	314.037	80.001	19.993	104.543	19.167	69.164	0.527
463.501	314.240	80.001	19.994	104.550	19.163	69.390	0.497
464.001	314.511	80.000	19.994	104.557	19.164	69.361	0.462
464.500	314.742	80.003	19.995	104.564	19.160	69.584	0.488
465.000	315.007	80.001	19.994	104.571	19.156	69.883	0.499
465.500	315.293	80.001	19.994	104.573	19.152	70.142	0.523
466.000	315.516	80.002	19.993	104.568	19.149	70.305	0.529
466.501	315.804	80.002	19.993	104.564	19.147	70.462	0.510
467.001	316.034	80.002	19.996	104.562	19.142	70.811	0.515
467.501	316.287	80.003	19.994	104.561	19.138	71.036	0.501
468.001	316.493	80.002	19.993	104.564	19.136	71.205	0.471
468.500	316.753	80.004	19.994	104.569	19.132	71.463	0.463
469.000	317.000	80.002	19.995	104.573	19.129	71.628	0.487
469.501	317.236	80.003	19.994	104.576	19.131	71.527	0.495
470.000	317.488	80.003	19.994	104.576	19.125	71.915	0.485
470.500	317.764	80.003	19.992	104.580	19.124	71.994	0.508
471.000	317.992	80.003	19.994	104.583	19.124	71.984	0.516
471.501	318.245	80.002	19.994	104.585	19.114	72.606	0.492
472.001	318.492	80.002	19.993	104.587	19.115	72.593	0.490
472.501	318.729	80.004	19.993	104.593	19.111	72.807	0.492
473.001	318.971	80.003	19.994	104.594	19.108	73.052	0.481
473.500	319.233	80.003	19.993	104.591	19.106	73.181	0.492
474.000	319.477	80.003	19.994	104.589	19.101	73.481	0.505
474.500	319.710	80.003	19.994	104.582	19.102	73.465	0.492
475.000	319.965	80.003	19.995	104.570	19.096	73.860	0.483
475.500	320.192	80.003	19.994	104.563	19.096	73.807	0.485
476.000	320.454	80.003	19.994	104.562	19.092	74.100	0.485
476.501	320.669	80.001	19.994	104.562	19.090	74.240	0.483
477.001	320.994	80.003	19.994	104.565	19.085	74.537	0.509
477.500	321.231	80.003	19.993	104.570	19.084	74.640	0.551
478.000	321.488	80.003	19.996	104.573	19.083	74.695	0.528
478.500	321.722	80.004	19.993	104.573	19.077	75.072	0.493
479.000	321.990	80.002	19.994	104.573	19.077	75.107	0.497
479.500	322.229	80.002	19.994	104.573	19.075	75.210	0.504
480.001	322.495	80.002	19.994	104.573	19.071	75.499	0.505
480.501	322.736	80.003	19.997	104.573	19.067	75.775	0.506
481.001	322.997	80.002	19.995	104.571	19.067	75.738	0.505
481.500	323.234	80.000	19.994	104.565	19.064	75.951	0.500
482.000	323.500	80.001	19.994	104.561	19.064	75.936	0.501
482.500	323.724	80.002	19.994	104.561	19.057	76.374	0.496
483.000	323.974	80.001	19.995	104.561	19.055	76.533	0.481
483.500	324.216	80.004	19.995	104.563	19.055	76.539	0.483
484.000	324.477	80.002	19.994	104.568	19.053	76.686	0.498
484.500	324.732	80.002	19.996	104.574	19.052	76.744	0.510
485.000	325.016	80.001	19.995	104.575	19.047	77.044	0.527
485.500	325.266	80.002	19.995	104.575	19.051	76.825	0.536
486.000	325.488	80.002	19.995	104.575	19.046	77.149	0.504
486.500	325.761	80.001	19.995	104.575	19.044	77.266	0.484
487.000	325.990	80.001	19.993	104.573	19.044	77.262	0.498
487.500	326.249	80.001	19.994	104.573	19.043	77.328	0.495
488.001	326.516	80.004	19.993	104.572	19.043	77.286	0.507
488.501	326.769	80.002	19.995	104.573	19.040	77.526	0.523
489.001	327.012	80.003	19.995	104.576	19.041	77.473	0.508
489.500	327.267	80.001	19.998	104.577	19.037	77.717	0.497
490.000	327.513	80.004	19.997	104.577	19.035	77.853	0.499
490.500	327.766	80.003	19.996	104.577	19.033	77.999	0.500
491.000	328.034	80.004	19.995	104.577	19.036	77.789	0.510
491.500	328.259	80.005	19.994	104.574	19.036	77.801	0.507
492.000	328.536	80.005	19.995	104.566	19.033	77.945	0.497
492.500	328.813	80.004	19.994	104.562	19.033	77.962	0.528
493.001	329.055	80.003	19.994	104.561	19.034	77.924	0.537
493.501	329.310	80.005	19.996	104.561	19.038	77.651	0.508
494.001	329.543	80.004	19.995	104.561	19.034	77.932	0.492
494.500	329.790	80.004	19.993	104.567	19.033	77.983	0.484
495.000	330.032	80.005	19.996	104.567	19.035	77.857	0.484
495.500	330.257	80.004	19.994	104.560	19.034	77.908	0.478
496.000	330.505	80.004	19.996	104.552	19.035	77.867	0.470
496.501	330.745	80.004	19.994	104.545	19.034	77.894	0.480
497.001	331.004	80.004	19.995	104.538	19.036	77.790	0.494
497.501	331.227	80.005	19.994	104.535	19.034	77.887	0.490
498.000	331.505	80.004	19.994	104.535	19.039	77.581	0.491
498.500	331.766	80.006	19.994	104.535	19.040	77.473	0.520
499.000	332.003	80.002	19.995	104.533	19.040	77.499	0.518
499.501	332.253	80.005	19.998	104.531	19.045	77.178	0.493
500.000	332.523	80.007	19.996	104.530	19.044	77.222	0.503
500.500	332.745	80.003	19.995	104.530	19.046	77.084	0.506
501.000	333.049	80.001	19.995	104.530	19.045	77.149	0.509
501.500	333.288	80.005	19.996	104.531	19.050	76.789	0.534
502.000	333.516	80.003	19.996	104.531	19.050	76.786	0.505
502.500	333.810	80.001	19.995	104.531	19.056	76.412	0.495
503.000	334.022	80.004	19.997	104.529	19.060	76.105	0.514
503.500	334.293	80.001	19.995	104.524	19.060	76.124	0.495
504.000	334.543	80.001	19.995	104.525	19.065	75.776	0.502
504.500	334.811	80.001	19.994	104.524	19.070	75.481	0.519
505.000	335.046	80.001	19.996	104.524	19.070	75.452	0.511
505.500	335.313	80.001	19.995	104.524	19.077	74.994	0.503
506.000	335.581	80.000	19.996	104.528	19.080	74.762	0.518
506.500	335.769	80.001	19.995	104.528	19.086	74.396	0.495
507.000	336.080	80.000	19.995	104.527	19.089	74.170	0.478
507.501	336.285	80.001	19.996	104.526	19.094	73.885	0.508
508.001	336.568	80.001	19.996	104.520	19.099	73.520	0.502
508.500	336.791	80.001	19.995	104.515	19.104	73.172	0.497
509.000	337.068	79.999	19.997	104.507	19.114	72.521	0.503
509.500	337.316	80.000	19.996	104.501	19.117	72.325	0.512
510.000	337.580	80.001	19.995	104.495	19.120	72.141	0.518
510.500	337.819	80.001	19.996	104.490	19.127	71.620	0.508
511.000	338.065	80.001	19.995	104.483	19.133	71.262	0.494
511.500	338.318	80.000	19.996	104.475	19.136	71.050	0.493
512.001	338.560	80.001	19.996	104.470	19.143	70.556	0.497
512.500	338.801	80.001	19.995	104.463	19.153	69.932	0.489
513.000	339.063	80.000	19.995	104.460	19.158	69.588	0.493
513.501	339.348	80.000	19.995	104.458	19.165	69.131	0.525
514.001	339.610	79.999	19.995	104.457	19.173	68.619	0.547
514.500	339.850	80.001	19.995	104.456	19.179	68.191	0.524
515.000	340.070	79.999	19.996	104.456	19.183	67.922	0.480
515.500	340.317	80.000	19.996	104.453	19.194	67.225	0.463
516.001	340.559	80.001	19.996	104.446	19.204	66.566	0.478
516.501	340.829	80.003	19.996	104.439	19.214	65.859	0.501
517.001	341.055	80.001	19.995	104.432	19.216	65.757	0.504
517.501	341.327	80.002	19.995	104.424	19.227	65.006	0.497
518.001	341.567	80.001	19.994	104.419	19.237	64.339	0.505
518.501	341.808	80.002	19.994	104.415	19.243	63.912	0.496
519.001	342.072	80.003	19.995	104.412	19.255	63.167	0.493
519.501	342.342	80.002	19.995	104.404	19.264	62.553	0.519
520.001	342.611	80.003	19.994	104.396	19.274	61.913	0.537
520.501	342.847	80.001	19.993	104.389	19.284	61.234	0.522
521.000	343.106	80.003	19.994	104.384	19.292	60.712	0.500
521.500	343.360	80.002	19.992	104.380	19.305	59.801	0.504
522.001	343.598	80.001	19.993	104.378	19.313	59.268	0.502
522.501	343.849	80.002	19.992	104.371	19.324	58.572	0.490
523.000	344.110	80.002	19.995	104.364	19.335	57.836	0.501
523.500	344.330	80.002	19.993	104.360	19.343	57.328	0.497
524.001	344.593	80.002	19.994	104.356	19.354	56.572	0.482
524.500	344.833	80.003	19.994	104.350	19.364	55.926	0.493
525.000	345.100	80.002	19.995	104.349	19.378	55.016	0.505
525.500	345.367	80.003	19.993	104.349	19.390	54.207	0.521
526.000	345.603	80.002	19.994	104.344	19.397	53.732	0.519
526.500	345.891	80.003	19.994	104.340	19.411	52.840	0.513
527.001	346.137	79.999	19.994	104.338	19.421	52.130	0.529
527.500	346.374	80.001	19.992	104.333	19.434	51.285	0.509
528.000	346.641	80.003	19.994	104.326	19.445	50.600	0.494
528.501	346.879	80.001	19.992	104.320	19.455	49.883	0.505
529.001	347.118	80.001	19.994	104.313	19.468	49.033	0.491
529.500	347.345	80.002	19.993	104.307	19.480	48.228	0.471
530.000	347.638	80.002	19.994	104.301	19.495	47.273	0.493
530.500	347.882	80.001	19.994	104.294	19.505	46.635	0.529
531.000	348.142	80.002	19.993	104.286	19.519	45.706	0.521
531.500	348.379	80.001	19.995	104.277	19.531	44.920	0.500
532.000	348.666	80.003	19.995	104.271	19.537	44.488	0.510
532.500	348.900	80.002	19.994	104.265	19.552	43.470	0.522
533.000	349.169	80.004	19.993	104.260	19.565	42.639	0.512
533.500	349.415	80.000	19.994	104.254	19.577	41.881	0.509
534.000	349.687	80.001	19.994	104.246	19.588	41.106	0.516
534.500	349.934	80.002	19.996	104.239	19.603	40.162	0.518
535.000	350.202	80.002	19.995	104.240	19.613	39.479	0.517
535.501	350.459	80.003	19.995	104.243	19.622	38.897	0.520
536.001	350.681	80.001	19.995	104.244	19.634	38.104	0.502
536.500	350.913	80.000	19.995	104.247	19.644	37.404	0.466
537.000	351.194	80.001	19.996	104.244	19.654	36.775	0.484
537.501	351.426	80.003	19.996	104.236	19.665	36.031	0.513
538.000	351.677	80.003	19.994	104.230	19.678	35.214	0.498
538.500	351.952	80.002	19.993	104.225	19.687	34.571	0.505
539.000	352.205	80.002	19.996	104.220	19.695	34.067	0.527
539.500	352.461	80.002	19.995	104.218	19.710	33.087	0.518
540.000	352.673	80.001	19.995	104.214	19.721	32.355	0.489
540.500	352.964	80.002	19.995	104.209	19.731	31.701	0.486
541.000	353.224	80.001	19.993	104.202	19.740	31.100	0.527
541.500	353.440	80.001	19.996	104.203	19.752	30.293	0.513
542.000	353.701	80.002	19.994	104.202	19.759	29.870	0.476
542.500	353.975	79.999	19.993	104.203	19.774	28.883	0.506
543.001	354.223	80.001	19.995	104.203	19.782	28.339	0.528
543.500	354.511	80.002	19.993	104.203	19.789	27.882	0.529
544.000	354.781	80.002	19.993	104.202	19.800	27.110	0.547
544.500	355.025	80.002	19.994	104.200	19.810	26.474	0.536
545.000	355.254	80.002	19.995	104.197	19.817	26.008	0.494
545.500	355.514	80.003	19.995	104.196	19.830	25.137	0.481
546.000	355.773	80.002	19.994	104.195	19.838	24.654	0.504
546.500	356.031	80.003	19.994	104.191	19.850	23.857	0.518
547.001	356.298	80.003	19.996	104.188	19.857	23.393	0.521
547.500	356.550	80.004	19.994	104.186	19.866	22.808	0.521
548.000	356.811	80.003	19.994	104.185	19.874	22.275	0.516
548.500	357.048	80.002	19.994	104.185	19.881	21.808	0.506
549.000	357.315	80.003	19.995	104.184	19.887	21.369	0.501
549.500	357.567	80.003	19.995	104.187	19.898	20.687	0.511
550.000	357.796	80.003	19.996	104.188	19.903	20.331	0.500
550.501	358.129	80.004	19.994	104.195	19.911	19.815	0.521
551.000	358.351	80.003	19.994	104.201	19.918	19.366	0.559
551.500	358.586	80.004	19.994	104.202	19.923	19.037	0.506
552.001	358.846	80.005	19.994	104.198	19.930	18.593	0.476
552.500	359.112	80.003	19.993	104.197	19.939	17.994	0.510
553.000	359.335	80.003	19.993	104.190	19.936	18.201	0.508
553.500	359.590	80.003	19.994	104.183	19.946	17.509	0.483
554.000	359.827	80.004	19.994	104.181	19.953	17.053	0.485
554.501	360.077	80.004	19.994	104.181	19.958	16.699	0.489
555.000	360.362	80.003	19.994	104.181	19.963	16.404	0.511
555.500	360.616	80.004	19.995	104.181	19.969	15.983	0.537
556.000	360.849	80.004	19.993	104.181	19.971	15.884	0.513
556.500	361.121	80.002	19.994	104.181	19.981	15.222	0.496
557.001	361.369	80.002	19.993	104.181	19.983	15.105	0.513
557.500	361.600	80.004	19.994	104.180	19.989	14.703	0.500
558.000	361.849	80.002	19.993	104.180	19.990	14.602	0.480
558.500	362.132	80.002	19.993	104.173	19.998	14.114	0.506
559.000	362.391	80.002	19.994	104.166	19.998	14.093	0.537
559.500	362.653	80.003	19.994	104.161	20.007	13.475	0.531
560.000	362.894	80.003	19.993	104.155	20.009	13.369	0.512
560.500	363.171	80.002	19.995	104.149	20.013	13.123	0.511
561.001	363.416	80.003	19.994	104.149	20.017	12.847	0.520
561.500	363.687	80.002	19.993	104.148	20.022	12.518	0.519
562.000	363.932	80.004	19.994	104.145	20.023	12.421	0.516
562.500	364.202	80.003	19.994	104.145	20.024	12.377	0.516
563.000	364.454	80.002	19.994	104.147	20.032	11.870	0.519
563.500	364.685	80.003	19.994	104.151	20.033	11.776	0.503
564.000	364.941	80.003	19.994	104.156	20.037	11.512	0.485
564.501	365.202	80.003	19.995	104.164	20.041	11.250	0.502
565.001	365.475	80.003	19.993	104.172	20.042	11.179	0.525
565.500	365.735	80.004	19.995	104.177	20.043	11.146	0.533
566.000	365.991	80.003	19.994	104.181	20.046	10.945	0.524
566.500	366.198	80.002	19.996	104.183	20.050	10.667	0.489
567.000	366.446	80.002	19.994	104.183	20.049	10.737	0.459
567.500	366.698	80.002	19.993	104.178	20.055	10.357	0.478
568.001	366.962	80.002	19.993	104.171	20.053	10.486	0.508
568.501	367.192	80.002	19.994	104.163	20.055	10.297	0.505
569.000	367.458	80.001	19.994	104.157	20.054	10.405	0.495
569.500	367.734	80.002	19.995	104.150	20.060	10.024	0.519
570.000	367.967	80.002	19.994	104.146	20.060	10.024	0.526
570.500	368.227	80.002	19.996	104.145	20.063	9.813	0.501
571.000	368.486	80.001	19.995	104.145	20.064	9.703	0.505
571.500	368.733	80.003	19.994	104.145	20.065	9.649	0.512
572.000	368.962	80.002	19.992	104.145	20.067	9.510	0.491
572.501	369.251	80.003	19.994	104.147	20.069	9.420	0.497
573.000	369.489	80.003	19.994	104.150	20.070	9.340	0.522
573.500	369.743	80.003	19.995	104.158	20.070	9.365	0.510
574.000	370.008	80.002	19.994	104.166	20.070	9.365	0.506
574.500	370.249	80.002	19.995	104.168	20.075	8.987	0.512
575.000	370.486	80.004	19.993	104.167	20.074	9.054	0.492
575.501	370.738	80.004	19.994	104.165	20.076	8.963	0.484
576.000	371.016	80.003	19.995	104.160	20.078	8.781	0.510
576.500	371.263	80.003	19.993	104.152	20.079	8.769	0.528
577.000	371.522	80.004	19.993	104.145	20.079	8.742	0.516
577.500	371.770	80.003	19.993	104.145	20.083	8.511	0.507
578.000	372.009	80.004	19.993	104.143	20.083	8.502	0.497
578.500	372.256	80.005	19.995	104.140	20.084	8.437	0.486
579.000	372.531	80.002	19.994	104.143	20.083	8.467	0.503
579.500	372.766	80.003	19.994	104.150	20.086	8.305	0.516
580.000	373.029	80.002	19.994	104.151	20.087	8.238	0.504
580.500	373.311	80.003	19.994	104.150	20.086	8.312	0.522
581.000	373.573	80.002	19.995	104.153	20.087	8.200	0.545
581.500	373.831	80.001	19.994	104.154	20.091	7.974	0.532
582.000	374.058	80.003	19.994	104.154	20.093	7.839	0.502
582.500	374.322	80.002	19.994	104.155	20.087	8.189	0.489
583.000	374.532	80.002	19.994	104.162	20.087	8.200	0.483
583.500	374.784	80.001	19.993	104.159	20.088	8.123	0.468
584.000	375.045	80.002	19.994	104.157	20.092	7.899	0.488
584.500	375.301	80.001	19.993	104.154	20.089	8.087	0.515
585.000	375.552	80.001	19.994	104.154	20.092	7.886	0.512
585.500	375.865	80.001	19.994	104.148	20.090	8.031	0.536
586.000	376.083	80.002	19.994	104.147	20.093	7.817	0.548
586.500	376.317	80.001	19.994	104.147	20.094	7.771	0.491
587.000	376.570	80.002	19.995	104.153	20.093	7.810	0.469
587.500	376.809	80.001	19.993	104.160	20.096	7.658	0.490
588.000	377.065	80.001	19.993	104.163	20.093	7.848	0.494
588.500	377.329	80.001	19.994	104.164	20.093	7.825	0.507
589.001	377.578	80.001	19.992	104.162	20.092	7.919	0.516
589.501	377.816	80.001	19.994	104.156	20.096	7.599	0.500
590.001	378.075	80.000	19.993	104.155	20.096	7.654	0.492
590.501	378.315	80.001	19.993	104.159	20.095	7.692	0.498
591.000	378.604	80.000	19.995	104.160	20.095	7.665	0.514
591.500	378.821	80.001	19.994	104.160	20.098	7.500	0.518
592.001	379.093	80.000	19.995	104.156	20.094	7.731	0.498
592.501	379.307	80.002	19.994	104.149	20.095	7.671	0.487
593.001	379.587	80.001	19.994	104.139	20.094	7.738	0.490
593.501	379.836	80.001	19.994	104.138	20.099	7.422	0.511
594.001	380.094	80.000	19.995	104.139	20.094	7.764	0.518
594.500	380.360	80.001	19.995	104.138	20.099	7.410	0.515
595.000	380.603	80.000	19.994	104.138	20.095	7.672	0.517
595.501	380.846	80.001	19.996	104.140	20.099	7.430	0.498
596.000	381.105	80.002	19.994	104.141	20.100	7.349	0.494
596.500	381.357	80.000	19.995	104.145	20.099	7.435	0.506
597.000	381.561	80.001	19.994	104.151	20.099	7.445	0.484
597.500	381.825	80.000	19.994	104.152	20.100	7.376	0.462
598.000	382.055	80.002	19.995	104.155	20.099	7.403	0.481
598.500	382.287	80.001	19.994	104.161	20.100	7.337	0.478
599.000	382.580	80.000	19.994	104.162	20.098	7.501	0.493
599.500	382.803	80.002	19.995	104.162	20.100	7.348	0.520
600.000	383.081	80.002	19.994	104.164	20.101	7.300	0.509
600.501	383.333	79.999	19.995	104.162	20.100	7.365	0.516
601.001	383.569	80.002	19.996	104.156	20.100	7.329	0.509
601.500	383.800	80.001	19.995	104.150	20.103	7.157	0.477
602.000	384.087	80.000	19.996	104.148	20.101	7.276	0.493
602.500	384.324	80.002	19.995	104.144	20.101	7.278	0.521
603.000	384.584	80.001	19.995	104.144	20.100	7.338	0.510
603.500	384.842	79.999	19.995	104.142	20.099	7.423	0.507
604.000	385.092	80.000	19.995	104.142	20.100	7.377	0.513
604.501	385.366	80.000	19.994	104.142	20.104	7.119	0.516
605.000	385.584	80.001	19.994	104.144	20.100	7.329	0.508
605.500	385.843	80.003	19.994	104.145	20.102	7.213	0.484
606.000	386.095	80.000	19.994	104.150	20.104	7.099	0.494
606.501	386.348	80.002	19.995	104.152	20.106	6.948	0.508
607.001	386.593	80.002	19.994	104.152	20.106	6.977	0.501
607.501	386.809	80.002	19.994	104.151	20.104	7.105	0.480
608.001	387.061	80.000	19.994	104.155	20.104	7.123	0.465
608.500	387.307	80.001	19.996	104.154	20.107	6.899	0.483
609.000	387.536	80.002	19.996	104.154	20.105	7.018	0.486
609.500	387.822	80.002	19.996	104.160	20.108	6.865	0.495
610.001	388.084	80.000	19.995	104.165	20.105	7.048	0.531
610.500	388.333	80.001	19.994	104.161	20.106	6.952	0.529
611.000	388.585	80.002	19.995	104.156	20.104	7.063	0.507
611.500	388.840	80.001	19.993	104.155	20.107	6.924	0.504
612.000	389.086	80.001	19.994	104.149	20.109	6.744	0.504
612.500	389.313	80.003	19.994	104.147	20.107	6.895	0.487
613.001	389.565	80.000	19.994	104.150	20.105	7.062	0.476
613.501	389.830	80.000	19.995	104.150	20.108	6.861	0.498
614.000	390.107	80.002	19.995	104.150	20.107	6.878	0.529
614.500	390.341	80.002	19.994	104.148	20.108	6.814	0.526
615.000	390.589	80.001	19.995	104.146	20.107	6.890	0.496
615.500	390.823	80.001	19.994	104.144	20.108	6.809	0.482
616.000	391.128	80.001	19.994	104.147	20.111	6.654	0.511
616.500	391.306	80.001	19.994	104.149	20.111	6.621	0.511
617.000	391.578	80.001	19.993	104.150	20.112	6.555	0.466
617.500	391.830	80.001	19.994	104.150	20.112	6.559	0.487
618.000	392.078	80.000	19.994	104.152	20.109	6.757	0.512
618.500	392.330	80.001	19.996	104.150	20.109	6.770	0.500
619.000	392.579	80.001	19.995	104.149	20.112	6.597	0.501
619.500	392.849	80.002	19.994	104.148	20.111	6.655	0.510
620.000	393.116	80.000	19.994	104.143	20.107	6.888	0.528
620.500	393.362	80.000	19.995	104.137	20.114	6.454	0.525
621.000	393.597	80.000	19.994	104.134	20.108	6.850	0.497
621.500	393.880	80.000	19.994	104.128	20.108	6.832	0.500
622.000	394.178	80.001	19.993	104.121	20.108	6.853	0.549
622.500	394.414	80.002	19.994	104.122	20.110	6.682	0.558
623.000	394.664	80.003	19.994	104.124	20.106	6.980	0.510
623.500	394.873	80.003	19.995	104.124	20.107	6.924	0.473
624.000	395.139	80.002	19.993	104.126	20.110	6.683	0.467
624.500	395.384	80.002	19.994	104.129	20.110	6.721	0.493
625.000	395.645	80.002	19.993	104.130	20.110	6.714	0.509
625.500	395.932	80.002	19.993	104.128	20.110	6.678	0.527
626.000	396.181	80.003	19.995	104.126	20.109	6.741	0.542
626.500	396.394	80.002	19.994	104.130	20.109	6.738	0.499
627.000	396.655	80.002	19.992	104.134	20.110	6.729	0.468
627.501	396.913	80.004	19.994	104.134	20.111	6.615	0.496
628.000	397.128	80.002	19.994	104.137	20.111	6.667	0.496
628.500	397.393	80.003	19.993	104.141	20.115	6.364	0.477
629.000	397.669	80.002	19.993	104.142	20.114	6.465	0.511
629.500	397.915	80.002	19.994	104.142	20.110	6.689	0.531
630.000	398.182	80.004	19.994	104.145	20.112	6.573	0.517
630.500	398.387	80.003	19.994	104.145	20.112	6.582	0.492
631.000	398.671	80.003	19.995	104.145	20.117	6.236	0.480
631.500	398.907	80.005	19.995	104.146	20.114	6.431	0.505
632.000	399.154	80.003	19.994	104.146	20.115	6.346	0.502
632.500	399.423	80.004	19.994	104.146	20.115	6.391	0.500
633.000	399.689	80.004	19.993	104.144	20.113	6.527	0.525
633.500	399.904	80.002	19.994	104.145	20.113	6.472	0.508
634.000	400.168	80.003	19.994	104.145	20.112	6.539	0.480
634.500	400.411	80.003	19.995	104.144	20.113	6.507	0.493
635.000	400.661	80.001	19.995	104.145	20.114	6.422	0.500
635.500	400.914	80.003	19.994	104.146	20.113	6.481	0.498
636.000	401.139	80.003	19.993	104.145	20.114	6.448	0.491
636.500	401.455	80.003	19.994	104.145	20.114	6.405	0.510
637.000	401.679	80.003	19.993	104.146	20.114	6.423	0.541
637.500	401.883	80.003	19.994	104.146	20.115	6.370	0.484
638.000	402.188	80.003	19.994	104.146	20.117	6.253	0.468
638.500	402.430	80.004	19.995	104.144	20.118	6.188	0.528
639.000	402.657	80.001	19.994	104.145	20.115	6.372	0.508
639.500	402.925	80.002	19.994	104.145	20.115	6.374	0.482
640.001	403.155	80.001	19.994	104.146	20.116	6.297	0.496
640.500	403.394	80.001	19.993	104.146	20.115	6.358	0.483
641.000	403.646	80.002	19.994	104.147	20.114	6.418	0.480
641.500	403.878	80.003	19.995	104.147	20.114	6.467	0.488
642.000	404.158	80.002	19.994	104.147	20.118	6.144	0.498
642.500	404.408	80.001	19.993	104.147	20.116	6.301	0.521
643.000	404.645	80.001	19.994	104.147	20.119	6.097	0.508
643.500	404.878	80.002	19.994	104.147	20.118	6.201	0.478
644.000	405.116	80.001	19.993	104.148	20.120	6.071	0.471
644.500	405.382	80.002	19.993	104.148	20.119	6.134	0.488
645.000	405.642	80.002	19.994	104.148	20.119	6.087	0.515
645.500	405.895	80.002	19.992	104.148	20.117	6.252	0.520
646.000	406.147	80.002	19.993	104.147	20.115	6.346	0.509
646.500	406.387	80.002	19.993	104.145	20.116	6.306	0.498
647.000	406.620	80.001	19.994	104.142	20.117	6.257	0.482
647.500	406.894	80.002	19.993	104.140	20.113	6.492	0.490
648.000	407.125	80.002	19.993	104.135	20.118	6.143	0.507
648.500	407.366	80.003	19.993	104.133	20.116	6.329	0.489
649.000	407.658	80.003	19.993	104.133	20.116	6.286	0.502
649.500	407.911	80.002	19.994	104.136	20.115	6.353	0.539
650.000	408.149	80.004	19.993	104.138	20.118	6.141	0.518
650.500	408.390	80.002	19.993	104.142	20.114	6.430	0.485
651.000	408.680	80.003	19.993	104.146	20.117	6.259	0.505
651.500	408.915	80.003	19.993	104.147	20.119	6.076	0.528
652.000	409.166	80.002	19.993	104.147	20.117	6.246	0.506
652.500	409.404	80.003	19.993	104.148	20.118	6.205	0.488
653.000	409.694	80.005	19.992	104.150	20.119	6.123	0.509
653.500	409.915	80.006	19.993	104.150	20.117	6.244	0.519
654.000	410.164	80.004	19.994	104.149	20.118	6.179	0.491
654.500	410.393	80.005	19.993	104.150	20.121	5.993	0.474
655.000	410.684	80.005	19.993	104.149	20.120	6.057	0.499
655.500	410.940	80.003	19.993	104.147	20.122	5.923	0.533
656.000	411.174	80.005	19.993	104.146	20.119	6.138	0.518
656.500	411.425	80.005	19.992	104.146	20.123	5.867	0.487
657.000	411.698	80.003	19.992	104.146	20.122	5.927	0.505
657.501	411.948	80.005	19.994	104.146	20.119	6.087	0.524
658.000	412.226	80.002	19.993	104.146	20.121	5.954	0.526
658.500	412.455	80.003	19.994	104.145	20.121	6.006	0.518
659.000	412.732	80.003	19.994	104.144	20.119	6.082	0.506
659.501	412.931	80.002	19.993	104.144	20.119	6.131	0.491
660.001	413.232	80.003	19.993	104.144	20.122	5.911	0.488
660.501	413.458	80.002	19.993	104.143	20.120	6.010	0.514
661.000	413.714	80.003	19.993	104.143	20.120	6.042	0.504
661.500	413.936	80.002	19.993	104.142	20.119	6.077	0.479
662.000	414.193	80.004	19.994	104.142	20.120	6.014	0.478
662.500	414.430	80.002	19.993	104.142	20.121	5.963	0.487
663.000	414.684	80.004	19.994	104.142	20.121	5.957	0.493
663.500	414.946	80.001	19.994	104.143	20.117	6.221	0.504
664.000	415.181	80.002	19.995	104.143	20.121	5.975	0.506
664.500	415.435	80.002	19.995	104.143	20.121	5.945	0.493
665.000	415.681	80.001	19.994	104.143	20.121	5.974	0.494
665.500	415.952	80.001	19.995	104.142	20.122	5.932	0.509
666.000	416.221	80.001	19.994	104.144	20.121	6.008	0.529
666.501	416.460	80.000	19.994	104.144	20.124	5.755	0.524
667.001	416.682	80.002	19.996	104.145	20.118	6.151	0.484
667.501	416.990	80.000	19.993	104.145	20.121	5.995	0.495
668.001	417.249	80.001	19.994	104.145	20.120	6.012	0.549
668.500	417.486	80.001	19.994	104.145	20.122	5.923	0.532
669.000	417.759	80.001	19.995	104.148	20.125	5.717	0.503
669.500	418.004	80.002	19.995	104.148	20.123	5.860	0.513
670.000	418.250	80.002	19.993	104.149	20.122	5.910	0.504
670.500	418.503	80.002	19.996	104.149	20.124	5.758	0.495
671.000	418.784	80.001	19.996	104.148	20.121	5.946	0.517
671.500	418.992	80.001	19.994	104.146	20.121	5.975	0.512
672.000	419.270	80.000	19.995	104.148	20.123	5.862	0.487
672.500	419.536	80.001	19.994	104.148	20.125	5.679	0.515
673.000	419.806	80.002	19.993	104.148	20.124	5.804	0.540
673.500	420.030	80.000	19.993	104.148	20.123	5.874	0.515
674.000	420.297	79.999	19.993	104.147	20.122	5.888	0.493
674.500	420.572	80.001	19.994	104.145	20.124	5.764	0.517
675.000	420.787	80.000	19.995	104.145	20.120	6.031	0.516
675.500	421.040	80.001	19.994	104.145	20.117	6.209	0.479
676.000	421.317	80.001	19.993	104.146	20.127	5.596	0.499
676.501	421.573	80.001	19.994	104.146	20.123	5.822	0.531
677.001	421.834	80.002	19.995	104.146	20.120	6.064	0.525
677.500	422.083	79.999	19.993	104.147	20.121	5.950	0.514
678.000	422.301	80.000	19.993	104.149	20.125	5.692	0.488
678.500	422.599	80.001	19.994	104.148	20.122	5.882	0.491
679.000	422.836	80.002	19.994	104.149	20.122	5.876	0.526
679.500	423.079	80.003	19.995	104.147	20.123	5.841	0.508
680.001	423.332	80.002	19.992	104.144	20.122	5.913	0.488
680.500	423.592	80.001	19.994	104.142	20.124	5.809	0.505
681.000	423.851	80.001	19.995	104.142	20.122	5.924	0.516
681.500	424.093	80.002	19.995	104.142	20.122	5.916	0.510
682.000	424.349	80.002	19.994	104.139	20.122	5.927	0.499
682.500	424.642	80.002	19.994	104.132	20.120	6.013	0.524
683.000	424.889	80.003	19.996	104.124	20.121	5.992	0.545
683.500	425.139	80.002	19.996	104.117	20.121	5.963	0.519
684.001	425.383	80.002	19.994	104.110	20.121	5.968	0.495
684.500	425.638	80.003	19.996	104.106	20.120	6.061	0.496
685.000	425.906	80.003	19.994	104.109	20.121	5.978	0.511
685.500	426.139	80.002	19.995	104.111	20.118	6.170	0.512
686.000	426.404	80.004	19.995	104.115	20.116	6.276	0.500
686.500	426.669	80.003	19.994	104.116	20.120	6.074	0.514
687.000	426.947	80.001	19.996	104.116	20.120	6.017	0.537
687.500	427.172	80.002	19.996	104.117	20.117	6.256	0.523
688.000	427.403	80.001	19.995	104.116	20.116	6.284	0.480
688.500	427.678	80.001	19.994	104.110	20.119	6.114	0.481
689.000	427.923	80.002	19.995	104.113	20.120	6.026	0.513
689.500	428.196	80.003	19.994	104.120	20.118	6.189	0.519
690.000	428.469	80.002	19.995	104.120	20.119	6.084	0.532
690.500	428.700	80.001	19.996	104.126	20.121	5.974	0.525
691.000	428.972	80.001	19.995	104.134	20.120	6.044	0.503
691.500	429.241	79.999	19.995	104.138	20.122	5.918	0.522
692.000	429.483	80.003	19.994	104.139	20.122	5.894	0.526
692.500	429.754	80.002	19.995	104.144	20.119	6.102	0.513
693.000	429.974	80.000	19.996	104.144	20.122	5.937	0.502
693.500	430.242	80.000	19.994	104.144	20.122	5.907	0.489
694.000	430.515	80.002	19.995	104.144	20.123	5.863	0.514
694.500	430.738	80.002	19.994	104.146	20.121	5.956	0.519
695.001	430.984	80.002	19.994	104.148	20.122	5.899	0.482
695.500	431.248	80.002	19.995	104.150	20.122	5.930	0.489
696.000	431.509	80.002	19.996	104.153	20.125	5.742	0.518
696.500	431.784	80.001	19.996	104.160	20.123	5.844	0.531
697.000	432.052	80.001	19.994	104.162	20.122	5.900	0.539
697.500	432.258	80.002	19.995	104.158	20.123	5.813	0.508
698.000	432.551	80.001	19.994	104.154	20.122	5.902	0.487
698.500	432.832	80.001	19.995	104.149	20.123	5.819	0.537
699.000	433.024	80.000	19.994	104.143	20.123	5.836	0.524
699.500	433.296	80.000	19.995	104.140	20.125	5.691	0.468
700.000	433.562	80.001	19.995	104.141	20.124	5.760	0.501
700.500	433.833	80.001	19.994	104.146	20.125	5.731	0.537
701.000	434.076	80.000	19.994	104.149	20.121	5.994	0.525
701.500	434.354	80.001	19.994	104.151	20.121	5.999	0.518
702.001	434.642	80.001	19.995	104.150	20.120	6.068	0.544
702.501	434.863	80.000	19.994	104.148	20.123	5.871	0.537
703.001	435.107	80.002	19.995	104.145	20.121	5.963	0.487
703.500	435.390	80.001	19.993	104.143	20.121	5.970	0.496
704.000	435.644	80.002	19.995	104.141	20.118	6.176	0.532
704.500	435.907	80.001	19.994	104.141	20.122	5.878	0.527
705.000	436.172	80.002	19.994	104.144	20.123	5.859	0.522
705.500	436.389	80.004	19.994	104.145	20.124	5.787	0.504
706.000	436.681	80.003	19.994	104.144	20.121	5.944	0.495
706.500	436.923	80.002	19.994	104.138	20.122	5.917	0.522
707.001	437.158	80.004	19.994	104.131	20.124	5.783	0.506
707.501	437.418	80.003	19.994	104.126	20.125	5.698	0.486
708.001	437.681	80.002	19.994	104.123	20.126	5.617	0.509
708.501	437.947	80.002	19.994	104.122	20.123	5.825	0.526
709.001	438.208	80.003	19.992	104.124	20.123	5.832	0.528
709.501	438.474	80.001	19.993	104.130	20.122	5.930	0.527
710.000	438.743	80.005	19.993	104.134	20.125	5.741	0.531
710.500	438.979	80.003	19.995	104.134	20.124	5.792	0.520
711.000	439.239	80.003	19.994	104.130	20.123	5.871	0.501
711.500	439.473	80.004	19.994	104.127	20.126	5.663	0.495
712.000	439.719	80.004	19.993	104.126	20.123	5.844	0.487
712.500	439.966	80.003	19.994	104.120	20.121	5.965	0.486
713.000	440.237	80.003	19.992	104.115	20.121	5.983	0.506
713.500	440.537	80.002	19.994	104.117	20.121	5.945	0.545
714.000	440.744	80.004	19.993	104.118	20.120	6.028	0.539
714.500	441.005	80.003	19.993	104.114	20.122	5.936	0.488
715.000	441.272	80.004	19.994	104.117	20.122	5.923	0.498
715.500	441.507	80.003	19.993	104.123	20.123	5.838	0.515
716.001	441.748	80.001	19.994	104.129	20.125	5.715	0.489
716.500	442.040	80.004	19.994	104.135	20.126	5.633	0.505
717.000	442.259	80.002	19.994	104.138	20.125	5.680	0.522
717.500	442.534	80.002	19.992	104.134	20.124	5.765	0.502
718.000	442.744	80.002	19.993	104.133	20.128	5.491	0.490
718.500	443.020	80.003	19.993	104.130	20.127	5.607	0.485
719.000	443.288	80.004	19.994	104.129	20.126	5.630	0.515
719.500	443.544	80.004	19.993	104.133	20.125	5.704	0.535
720.000	443.794	80.003	19.993	104.139	20.125	5.705	0.515
720.500	444.043	80.003	19.994	104.132	20.125	5.698	0.502
721.000	444.303	80.004	19.993	104.129	20.124	5.765	0.503
721.500	444.545	80.002	19.993	104.122	20.126	5.658	0.506
722.001	444.786	80.002	19.994	104.120	20.125	5.701	0.493
722.500	445.040	80.002	19.994	104.116	20.128	5.501	0.489
723.000	445.323	80.002	19.994	104.116	20.125	5.698	0.516
723.500	445.559	80.003	19.995	104.115	20.122	5.887	0.528
724.000	445.838	80.003	19.994	104.117	20.125	5.717	0.518
724.500	446.063	80.003	19.995	104.113	20.126	5.616	0.510
725.000	446.274	80.002	19.995	104.111	20.128	5.535	0.470
725.500	446.571	80.003	19.994	104.112	20.124	5.762	0.472
726.000	446.836	80.003	19.993	104.112	20.125	5.729	0.534
726.501	447.091	80.005	19.994	104.110	20.126	5.661	0.541
727.001	447.298	80.002	19.993	104.112	20.125	5.728	0.492
727.501	447.576	80.002	19.996	104.119	20.126	5.660	0.474
728.000	447.785	80.003	19.994	104.124	20.125	5.745	0.486
728.500	448.012	80.003	19.996	104.131	20.126	5.666	0.461
729.000	448.300	80.003	19.997	104.139	20.127	5.588	0.475
729.500	448.545	80.002	19.996	104.143	20.126	5.671	0.524
730.000	448.811	80.003	19.995	104.141	20.123	5.835	0.522
730.501	449.050	80.002	19.995	104.136	20.127	5.604	0.508
731.000	449.319	80.003	19.994	104.130	20.121	5.946	0.506
731.500	449.571	80.001	19.994	104.128	20.123	5.823	0.515
732.000	449.837	80.003	19.994	104.126	20.126	5.637	0.520
732.500	450.061	80.005	19.995	104.122	20.126	5.641	0.504
733.000	450.298	80.003	19.994	104.121	20.124	5.787	0.476
733.501	450.561	80.004	19.994	104.120	20.123	5.824	0.481
734.001	450.812	80.004	19.994	104.122	20.125	5.708	0.507
734.500	451.080	80.004	19.994	104.117	20.123	5.814	0.516
735.000	451.299	80.004	19.995	104.116	20.125	5.724	0.503
735.500	451.578	80.003	19.993	104.116	20.126	5.659	0.492
736.000	451.826	80.005	19.994	104.113	20.124	5.778	0.512
736.500	452.045	80.004	19.996	104.106	20.127	5.567	0.497
737.000	452.352	80.006	19.995	104.107	20.125	5.726	0.497
737.500	452.558	80.004	19.993	104.111	20.124	5.773	0.520
738.000	452.828	80.005	19.993	104.116	20.128	5.511	0.494
738.500	453.037	80.005	19.994	104.124	20.128	5.498	0.477
739.000	453.312	80.005	19.994	104.130	20.130	5.381	0.481
739.500	453.535	80.006	19.994	104.130	20.128	5.529	0.492
740.000	453.771	80.004	19.994	104.128	20.125	5.686	0.479
740.500	454.043	80.004	19.992	104.127	20.129	5.480	0.484
741.000	454.267	80.003	19.993	104.126	20.126	5.627	0.501
741.500	454.530	80.005	19.993	104.127	20.129	5.472	0.491
742.000	454.782	80.005	19.993	104.131	20.127	5.548	0.501
742.501	455.032	80.005	19.992	104.136	20.126	5.678	0.508
743.001	455.264	80.005	19.994	104.138	20.128	5.529	0.492
743.501	455.545	80.004	19.994	104.134	20.128	5.532	0.498
744.001	455.774	80.002	19.993	104.128	20.125	5.681	0.512
744.500	456.042	80.006	19.994	104.122	20.125	5.704	0.503
745.000	456.286	80.003	19.993	104.116	20.125	5.737	0.504
745.500	456.538	80.001	19.993	104.110	20.124	5.780	0.504
746.000	456.808	80.001	19.994	104.105	20.124	5.800	0.509
746.500	457.039	80.003	19.994	104.103	20.123	5.851	0.512
747.001	457.238	80.001	19.994	104.103	20.122	5.921	0.465
747.501	457.540	80.004	19.994	104.103	20.124	5.759	0.465
748.001	457.767	80.001	19.993	104.102	20.125	5.721	0.515
748.500	458.040	80.002	19.994	104.105	20.128	5.522	0.515
749.000	458.272	80.004	19.993	104.106	20.126	5.634	0.503
749.500	458.517	80.002	19.994	104.106	20.127	5.602	0.491
750.001	458.778	80.004	19.994	104.106	20.129	5.480	0.492
750.500	459.048	80.003	19.994	104.106	20.125	5.698	0.518
751.000	459.287	80.002	19.993	104.106	20.128	5.519	0.520
751.500	459.554	80.002	19.994	104.107	20.129	5.464	0.508
752.000	459.804	80.002	19.994	104.112	20.128	5.493	0.512
752.500	460.044	80.002	19.995	104.115	20.130	5.380	0.503
753.000	460.285	80.003	19.995	104.122	20.128	5.494	0.485
753.500	460.542	80.003	19.994	104.126	20.128	5.515	0.490
754.000	460.797	80.001	19.994	104.131	20.126	5.627	0.506
754.500	461.061	80.002	19.994	104.134	20.129	5.452	0.516
755.000	461.282	80.002	19.995	104.139	20.130	5.375	0.502
755.500	461.504	80.002	19.995	104.139	20.130	5.393	0.464
756.000	461.797	80.002	19.994	104.143	20.131	5.299	0.479
756.501	462.028	80.002	19.994	104.145	20.130	5.396	0.519
757.000	462.288	80.002	19.995	104.144	20.127	5.551	0.507
757.500	462.531	80.000	19.995	104.144	20.128	5.493	0.497
758.000	462.825	80.001	19.994	104.144	20.129	5.480	0.520
758.500	463.032	80.005	19.995	104.145	20.132	5.276	0.519
759.000	463.280	80.001	19.994	104.149	20.130	5.365	0.478
759.500	463.547	80.002	19.995	104.150	20.131	5.330	0.485
760.000	463.768	80.002	19.993	104.150	20.131	5.320	0.502
760.500	464.042	80.002	19.993	104.150	20.130	5.408	0.492
761.000	464.314	80.002	19.994	104.144	20.128	5.534	0.520
761.500	464.546	80.004	19.995	104.133	20.129	5.435	0.525
762.000	464.792	80.002	19.992	104.118	20.129	5.421	0.491
762.500	465.043	80.002	19.994	104.106	20.130	5.360	0.488
763.000	465.259	80.001	19.995	104.099	20.130	5.363	0.482
763.500	465.542	80.003	19.994	104.097	20.129	5.422	0.483
764.000	465.769	80.001	19.993	104.099	20.128	5.492	0.504
764.500	466.056	80.001	19.994	104.109	20.126	5.668	0.512
765.001	466.293	80.002	19.993	104.119	20.132	5.283	0.519
765.500	466.567	80.003	19.994	104.126	20.130	5.362	0.518
766.000	466.837	80.002	19.993	104.129	20.131	5.326	0.528
766.500	467.046	80.002	19.993	104.129	20.132	5.253	0.511
767.000	467.309	80.002	19.994	104.128	20.132	5.244	0.475
767.500	467.558	80.002	19.993	104.122	20.136	5.002	0.492
768.000	467.825	80.001	19.995	104.115	20.137	4.921	0.514
768.500	468.072	80.002	19.994	104.112	20.133	5.166	0.515
769.000	468.313	80.001	19.994	104.111	20.135	5.056	0.501
769.500	468.597	80.002	19.994	104.108	20.136	4.969	0.506
770.000	468.801	80.002	19.994	104.108	20.133	5.186	0.507
770.500	469.090	80.001	19.995	104.108	20.134	5.094	0.491
771.001	469.295	80.003	19.995	104.106	20.135	5.031	0.493
771.500	469.589	80.000	19.994	104.106	20.134	5.141	0.496
772.000	469.813	80.001	19.995	104.106	20.131	5.284	0.509
772.500	470.107	80.001	19.995	104.106	20.136	4.998	0.518
773.000	470.349	80.000	19.995	104.108	20.137	4.920	0.527
773.500	470.601	80.002	19.994	104.113	20.137	4.951	0.515
774.001	470.863	79.999	19.993	104.117	20.135	5.078	0.504
774.500	471.123	80.002	19.994	104.123	20.134	5.145	0.518
775.000	471.356	80.002	19.994	104.131	20.134	5.119	0.507
775.500	471.586	80.002	19.995	104.132	20.136	4.969	0.478
776.000	471.837	80.002	19.996	104.130	20.135	5.025	0.473
776.500	472.115	80.002	19.995	104.134	20.134	5.102	0.505
777.000	472.358	80.001	19.995	104.128	20.139	4.765	0.524
777.501	472.584	80.000	19.993	104.120	20.137	4.939	0.495
778.001	472.865	80.000	19.994	104.116	20.137	4.933	0.488
778.501	473.128	79.999	19.995	104.115	20.137	4.951	0.526
779.000	473.406	80.001	19.994	104.109	20.135	5.081	0.542
779.500	473.636	80.002	19.995	104.109	20.135	5.034	0.524
780.000	473.900	79.999	19.995	104.109	20.138	4.886	0.501
780.500	474.147	80.002	19.995	104.110	20.140	4.743	0.502
781.000	474.386	80.000	19.995	104.110	20.136	4.998	0.499
781.500	474.688	80.001	19.994	104.110	20.140	4.739	0.514
782.000	474.962	80.000	19.994	104.112	20.139	4.769	0.559
782.501	475.193	80.000	19.995	104.119	20.138	4.832	0.540
783.001	475.487	80.000	19.995	104.127	20.140	4.740	0.515
783.501	475.691	80.001	19.995	104.135	20.139	4.821	0.511
784.000	475.964	80.000	19.994	104.144	20.140	4.743	0.487
784.500	476.214	80.001	19.995	104.149	20.139	4.819	0.500
785.001	476.445	80.002	19.996	104.142	20.136	4.964	0.502
785.501	476.701	80.000	19.995	104.127	20.140	4.722	0.484
786.000	476.957	80.002	19.995	104.112	20.139	4.819	0.500
786.500	477.182	80.002	19.995	104.100	20.139	4.821	0.497
787.001	477.426	80.001	19.996	104.092	20.140	4.724	0.475
787.501	477.696	80.002	19.995	104.093	20.138	4.836	0.491
788.001	477.953	80.001	19.994	104.107	20.141	4.648	0.520
788.501	478.205	80.001	19.994	104.122	20.139	4.766	0.518
789.001	478.462	80.003	19.997	104.133	20.142	4.607	0.509
789.501	478.722	80.002	19.998	104.144	20.143	4.548	0.513
790.001	478.986	80.004	19.997	104.149	20.143	4.531	0.521
790.501	479.215	80.004	19.998	104.148	20.144	4.484	0.508
791.001	479.474	80.004	19.996	104.146	20.143	4.551	0.490
791.501	479.756	80.002	19.995	104.143	20.141	4.675	0.514
792.000	479.988	80.004	19.995	104.134	20.143	4.540	0.528
792.500	480.206	80.004	19.996	104.127	20.139	4.805	0.482
793.000	480.481	80.002	19.995	104.120	20.139	4.792	0.472
793.500	480.724	80.005	19.994	104.113	20.139	4.765	0.505
794.001	480.973	80.004	19.994	104.106	20.139	4.814	0.505
794.501	481.251	80.004	19.993	104.105	20.141	4.666	0.510
795.000	481.501	80.003	19.994	104.105	20.140	4.693	0.528
795.500	481.777	80.003	19.994	104.105	20.143	4.532	0.527
796.000	482.003	80.003	19.994	104.105	20.141	4.632	0.514
796.500	482.250	80.003	19.995	104.105	20.141	4.644	0.488
797.000	482.522	80.003	19.994	104.105	20.139	4.821	0.496
797.500	482.743	80.004	19.994	104.107	20.140	4.709	0.506
798.000	483.028	80.005	19.993	104.108	20.137	4.926	0.499
798.500	483.266	80.003	19.994	104.110	20.141	4.662	0.515
799.000	483.520	80.003	19.992	104.115	20.137	4.901	0.508
799.500	483.770	80.003	19.993	104.122	20.140	4.715	0.498
800.000	484.006	80.002	19.993	104.127	20.139	4.797	0.495
800.500	484.259	80.002	19.994	104.130	20.137	4.896	0.487
801.000	484.494	80.002	19.993	104.129	20.141	4.649	0.488
801.500	484.789	80.001	19.993	104.124	20.140	4.755	0.509
802.001	485.033	80.002	19.994	104.117	20.141	4.626	0.535
802.501	485.276	80.003	19.993	104.110	20.140	4.745	0.513
803.000	485.521	80.003	19.994	104.107	20.141	4.687	0.488
803.500	485.784	80.001	19.994	104.106	20.140	4.744	0.498
804.000	486.012	80.005	19.994	104.106	20.138	4.875	0.500
804.500	486.324	80.002	19.994	104.107	20.140	4.753	0.516
805.000	486.540	80.004	19.992	104.108	20.139	4.778	0.534
805.500	486.768	80.001	19.993	104.109	20.141	4.686	0.486
806.000	487.040	80.004	19.995	104.110	20.140	4.749	0.472
806.500	487.281	80.003	19.993	104.111	20.138	4.854	0.507
807.000	487.543	80.004	19.994	104.112	20.142	4.622	0.509
807.500	487.788	80.002	19.993	104.111	20.137	4.940	0.505
808.000	488.044	80.003	19.994	104.110	20.141	4.646	0.503
808.500	488.282	80.003	19.993	104.108	20.138	4.886	0.497
809.001	488.542	80.005	19.992	104.104	20.140	4.738	0.496
809.500	488.761	80.004	19.993	104.106	20.143	4.547	0.489
810.000	489.003	80.004	19.994	104.114	20.138	4.848	0.470
810.500	489.278	80.004	19.994	104.122	20.142	4.570	0.489
811.000	489.539	80.004	19.994	104.130	20.142	4.572	0.527
811.500	489.793	80.005	19.994	104.134	20.142	4.621	0.525
812.000	490.026	80.004	19.994	104.128	20.142	4.623	0.501
812.500	490.271	80.002	19.994	104.118	20.143	4.493	0.483
813.000	490.548	80.002	19.994	104.110	20.142	4.578	0.500
813.501	490.753	80.003	19.993	104.104	20.147	4.251	0.502
814.000	491.027	80.004	19.994	104.103	20.146	4.332	0.481
814.500	491.291	80.004	19.994	104.106	20.146	4.300	0.508
815.001	491.558	80.006	19.995	104.108	20.141	4.637	0.535
815.501	491.780	80.003	19.994	104.107	20.140	4.729	0.510
816.001	492.037	80.006	19.994	104.106	20.143	4.556	0.484
816.500	492.260	80.005	19.994	104.106	20.143	4.544	0.480
817.000	492.523	80.005	19.994	104.104	20.144	4.475	0.483
817.500	492.777	80.003	19.994	104.103	20.142	4.567	0.501
818.000	493.014	80.004	19.994	104.103	20.143	4.542	0.504
818.500	493.279	80.004	19.992	104.104	20.144	4.491	0.497
819.000	493.516	80.004	19.994	104.105	20.143	4.509	0.503
819.500	493.815	80.005	19.993	104.105	20.141	4.650	0.519
820.000	494.073	80.004	19.993	104.106	20.144	4.442	0.546
820.500	494.314	80.005	19.993	104.106	20.143	4.500	0.528
821.000	494.528	80.006	19.993	104.107	20.143	4.543	0.477
821.501	494.827	80.001	19.994	104.106	20.145	4.368	0.484
822.000	495.080	80.002	19.993	104.107	20.140	4.744	0.533
822.500	495.349	80.003	19.995	104.110	20.142	4.619	0.537
823.000	495.591	80.004	19.994	104.114	20.143	4.516	0.516
823.500	495.821	80.005	19.995	104.120	20.142	4.598	0.491
824.000	496.112	80.002	19.995	104.124	20.141	4.666	0.497
824.500	496.345	80.002	19.994	104.124	20.141	4.632	0.523
825.001	496.626	80.004	19.995	104.120	20.146	4.332	0.519
825.500	496.884	80.003	19.993	104.117	20.141	4.645	0.526
826.000	497.131	80.002	19.993	104.114	20.142	4.592	0.522
826.501	497.382	80.002	19.992	104.113	20.145	4.410	0.502
827.001	497.612	80.002	19.994	104.118	20.141	4.677	0.489
827.501	497.853	80.003	19.995	104.124	20.143	4.542	0.476
828.001	498.135	80.002	19.994	104.125	20.142	4.614	0.497
828.501	498.377	80.003	19.994	104.125	20.146	4.312	0.524
829.000	498.645	80.003	19.994	104.124	20.149	4.137	0.517
829.500	498.897	80.002	19.993	104.120	20.144	4.471	0.515
830.001	499.170	80.002	19.993	104.115	20.145	4.365	0.523
830.500	499.381	80.002	19.994	104.113	20.144	4.489	0.504
831.000	499.670	80.001	19.993	104.111	20.146	4.314	0.492
831.500	499.898	80.003	19.994	104.108	20.145	4.402	0.509
832.000	500.185	80.002	19.993	104.108	20.148	4.211	0.516
832.500	500.404	80.001	19.994	104.111	20.146	4.300	0.511
833.000	500.673	80.003	19.993	104.111	20.147	4.253	0.497
833.500	500.901	80.001	19.995	104.112	20.149	4.150	0.492
834.000	501.165	80.001	19.994	104.115	20.147	4.285	0.494
834.500	501.443	80.002	19.994	104.117	20.147	4.233	0.517
835.000	501.673	80.000	19.994	104.115	20.146	4.354	0.525
835.500	501.925	80.002	19.993	104.116	20.147	4.267	0.495
836.001	502.178	80.001	19.993	104.115	20.148	4.213	0.493
836.501	502.441	80.001	19.994	104.114	20.147	4.240	0.510
837.000	502.713	80.001	19.993	104.111	20.145	4.394	0.525
837.500	502.958	80.001	19.993	104.111	20.146	4.307	0.526
838.000	503.202	80.001	19.994	104.114	20.147	4.233	0.503
838.500	503.450	80.001	19.994	104.117	20.146	4.298	0.491
839.001	503.720	80.002	19.994	104.116	20.145	4.406	0.505
839.501	503.968	80.003	19.994	104.117	20.147	4.290	0.518
840.001	504.216	80.001	19.993	104.116	20.146	4.343	0.507
840.501	504.497	80.001	19.994	104.114	20.146	4.355	0.513
841.000	504.743	80.001	19.992	104.111	20.146	4.352	0.528
841.500	504.994	80.002	19.993	104.111	20.145	4.373	0.512
842.001	505.242	80.002	19.993	104.110	20.150	4.094	0.498
842.501	505.520	80.000	19.994	104.111	20.143	4.493	0.513
843.001	505.764	80.001	19.993	104.112	20.148	4.227	0.524
843.501	506.053	80.003	19.993	104.112	20.147	4.238	0.527
844.000	506.259	80.002	19.994	104.115	20.147	4.258	0.514
844.500	506.519	80.000	19.993	104.119	20.146	4.296	0.481
845.000	506.787	80.001	19.994	104.118	20.150	4.096	0.497
845.500	507.069	80.001	19.993	104.117	20.146	4.305	0.538
846.000	507.294	80.002	19.994	104.116	20.150	4.061	0.529
846.500	507.553	80.002	19.993	104.116	20.146	4.338	0.496
847.000	507.807	80.002	19.994	104.116	20.146	4.334	0.499
847.500	508.085	80.003	19.995	104.115	20.148	4.179	0.522
848.000	508.330	80.000	19.994	104.114	20.146	4.327	0.527
848.500	508.576	80.001	19.993	104.114	20.153	3.877	0.507
849.000	508.835	80.003	19.995	104.111	20.150	4.074	0.498
849.500	509.074	80.002	19.994	104.107	20.149	4.144	0.501
850.001	509.336	80.001	19.995	104.108	20.147	4.229	0.500
850.501	509.585	80.001	19.994	104.109	20.151	3.978	0.506
851.000	509.891	80.000	19.994	104.109	20.148	4.218	0.533
851.500	510.124	80.001	19.994	104.108	20.149	4.121	0.547
852.000	510.378	80.002	19.995	104.109	20.150	4.086	0.513
852.500	510.585	80.001	19.995	104.108	20.150	4.090	0.474
853.000	510.868	80.002	19.994	104.107	20.152	3.946	0.475
853.500	511.119	80.001	19.994	104.107	20.151	4.013	0.512
854.000	511.376	80.001	19.995	104.106	20.152	3.955	0.521
854.501	511.632	80.004	19.994	104.107	20.152	3.919	0.511
855.001	511.864	80.002	19.995	104.109	20.151	4.018	0.500
855.500	512.111	80.002	19.994	104.110	20.151	4.009	0.483
856.000	512.370	80.002	19.995	104.113	20.150	4.077	0.493
856.501	512.630	80.001	19.995	104.114	20.154	3.770	0.513
857.000	512.879	80.003	19.994	104.117	20.149	4.112	0.514
857.500	513.146	80.000	19.995	104.120	20.150	4.050	0.513
858.000	513.403	80.000	19.994	104.122	20.153	3.843	0.520
858.500	513.661	79.999	19.995	104.120	20.150	4.056	0.519
859.000	513.900	80.000	19.993	104.120	20.150	4.057	0.506
859.500	514.191	80.001	19.994	104.117	20.153	3.848	0.513
860.000	514.459	80.001	19.995	104.115	20.153	3.857	0.545
860.501	514.730	80.001	19.993	104.114	20.154	3.817	0.549
861.000	514.990	80.001	19.993	104.114	20.153	3.842	0.535
861.500	515.253	80.003	19.994	104.113	20.153	3.855	0.527
862.001	515.502	80.000	19.995	104.113	20.154	3.806	0.518
862.501	515.762	80.002	19.995	104.110	20.156	3.651	0.510
863.001	515.959	80.000	19.994	104.111	20.151	3.990	0.483
863.500	516.264	80.002	19.995	104.114	20.154	3.817	0.480
864.000	516.538	80.001	19.996	104.116	20.154	3.772	0.541
864.500	516.793	80.001	19.996	104.116	20.151	3.981	0.554
865.001	517.057	80.000	19.995	104.117	20.153	3.839	0.524
865.501	517.318	80.001	19.995	104.113	20.152	3.902	0.521
866.001	517.551	80.001	19.993	104.111	20.151	4.003	0.509
866.500	517.802	80.002	19.995	104.112	20.153	3.853	0.489
867.000	518.063	80.002	19.995	104.113	20.150	4.079	0.498
867.500	518.357	80.004	19.993	104.111	20.153	3.871	0.534
868.000	518.608	80.004	19.995	104.111	20.152	3.905	0.550
868.500	518.881	80.002	19.995	104.112	20.154	3.788	0.535
869.001	519.114	80.001	19.994	104.108	20.151	4.025	0.515
869.501	519.361	80.000	19.995	104.106	20.152	3.900	0.493
870.000	519.636	80.001	19.993	104.106	20.153	3.850	0.500
870.500	519.882	80.004	19.996	104.106	20.153	3.889	0.521
871.000	520.122	80.001	19.994	104.105	20.150	4.052	0.504
871.500	520.414	80.005	19.995	104.104	20.150	4.055	0.509
872.000	520.637	80.003	19.995	104.103	20.152	3.913	0.523
872.500	520.916	80.004	19.994	104.103	20.153	3.848	0.509
873.001	521.153	80.005	19.994	104.102	20.153	3.860	0.509
873.501	521.434	80.003	19.996	104.099	20.151	3.978	0.517
874.001	521.675	80.006	19.996	104.094	20.148	4.223	0.520
874.500	521.934	80.003	19.994	104.094	20.151	4.014	0.511
875.000	522.235	80.002	19.995	104.094	20.150	4.084	0.530
875.500	522.453	80.003	19.995	104.094	20.151	3.990	0.539
876.000	522.672	80.005	19.995	104.098	20.149	4.146	0.478
876.500	522.968	80.003	19.995	104.103	20.150	4.046	0.477
877.000	523.252	80.004	19.995	104.104	20.150	4.041	0.548
877.501	523.448	80.004	19.995	104.104	20.151	4.014	0.530
878.001	523.737	80.003	19.994	104.102	20.154	3.828	0.482
878.500	523.976	80.003	19.993	104.101	20.151	3.982	0.506
879.000	524.253	80.004	19.995	104.100	20.152	3.956	0.522
879.501	524.518	80.002	19.995	104.100	20.150	4.059	0.529
880.000	524.721	80.003	19.994	104.101	20.151	4.014	0.505
880.500	525.031	80.000	19.994	104.103	20.148	4.204	0.491
881.000	525.242	80.002	19.994	104.103	20.153	3.889	0.517
881.500	525.501	80.003	19.994	104.103	20.150	4.045	0.496
882.000	525.775	80.003	19.995	104.103	20.150	4.043	0.501
882.500	526.028	80.003	19.995	104.102	20.152	3.926	0.530
883.000	526.257	80.000	19.995	104.102	20.149	4.128	0.504
883.500	526.521	80.003	19.994	104.101	20.152	3.962	0.488
884.000	526.765	80.001	19.994	104.101	20.150	4.094	0.501
884.500	527.060	80.004	19.995	104.102	20.148	4.164	0.524
885.000	527.294	80.001	19.994	104.102	20.151	3.969	0.534
885.500	527.541	80.002	19.992	104.102	20.150	4.039	0.505
886.000	527.790	80.002	19.993	104.102	20.152	3.963	0.488
886.500	528.050	80.004	19.993	104.102	20.150	4.055	0.502
887.000	528.307	80.002	19.993	104.103	20.151	3.965	0.513
887.500	528.572	80.004	19.993	104.104	20.152	3.945	0.520
888.000	528.810	80.003	19.994	104.105	20.151	3.972	0.513
888.500	529.090	80.003	19.991	104.106	20.150	4.095	0.511
889.000	529.331	80.003	19.992	104.106	20.150	4.077	0.520
889.500	529.595	80.004	19.994	104.106	20.152	3.905	0.513
890.001	529.845	80.001	19.993	104.106	20.152	3.904	0.510
890.501	530.113	80.003	19.993	104.107	20.150	4.073	0.516
891.001	530.328	80.002	19.994	104.107	20.154	3.779	0.501
891.500	530.616	80.002	19.994	104.107	20.153	3.842	0.493
892.000	530.849	80.003	19.993	104.107	20.155	3.761	0.512
892.500	531.144	80.003	19.991	104.107	20.153	3.864	0.524
893.000	531.367	80.003	19.992	104.108	20.152	3.952	0.523
893.500	531.641	80.003	19.993	104.108	20.154	3.801	0.507
894.000	531.884	80.006	19.993	104.109	20.151	4.030	0.507
894.500	532.153	80.005	19.993	104.110	20.153	3.874	0.515
895.000	532.434	80.005	19.993	104.109	20.150	4.040	0.531
895.500	532.639	80.004	19.993	104.107	20.153	3.854	0.518
896.000	532.884	80.004	19.993	104.107	20.152	3.916	0.468
896.500	533.164	80.004	19.993	104.105	20.149	4.153	0.488
897.000	533.445	80.004	19.994	104.105	20.149	4.131	0.543
897.500	533.680	80.004	19.993	104.105	20.150	4.074	0.538
898.000	533.904	80.002	19.993	104.105	20.154	3.816	0.488
898.500	534.159	80.004	19.993	104.103	20.150	4.090	0.469
899.000	534.429	80.006	19.993	104.103	20.150	4.061	0.502
899.501	534.691	80.001	19.994	104.103	20.150	4.083	0.529
900.001	534.901	80.003	19.993	104.102	20.150	4.049	0.502
900.501	535.173	80.002	19.993	104.100	20.147	4.255	0.477
901.000	535.438	80.002	19.993	104.098	20.148	4.177	0.509
901.500	535.750	80.004	19.993	104.097	20.147	4.245	0.558
902.000	535.943	80.003	19.993	104.097	20.149	4.130	0.541
902.500	536.201	80.002	19.993	104.097	20.147	4.274	0.478
903.000	536.463	80.001	19.993	104.097	20.148	4.208	0.485
903.500	536.712	80.005	19.993	104.100	20.147	4.249	0.515
904.000	536.978	80.003	19.994	104.099	20.149	4.099	0.513
904.501	537.238	80.002	19.992	104.094	20.149	4.112	0.521
905.001	537.493	80.002	19.995	104.092	20.149	4.161	0.521
905.501	537.740	80.004	19.994	104.089	20.145	4.398	0.509
906.000	538.005	80.003	19.994	104.085	20.148	4.174	0.507
906.500	538.225	80.004	19.992	104.086	20.149	4.109	0.498
907.001	538.490	80.003	19.993	104.092	20.145	4.395	0.485
907.501	538.731	80.002	19.993	104.095	20.150	4.089	0.496
908.000	538.985	79.999	19.993	104.101	20.152	3.957	0.500
908.500	539.219	80.001	19.994	104.107	20.147	4.275	0.491
909.001	539.520	80.002	19.995	104.111	20.147	4.286	0.511
909.500	539.731	80.003	19.994	104.116	20.150	4.047	0.524
910.000	539.971	80.001	19.995	104.118	20.154	3.832	0.482
910.500	540.213	80.001	19.993	104.118	20.151	3.998	0.466
911.000	540.461	80.001	19.994	104.118	20.148	4.164	0.486
911.500	540.709	80.001	19.994	104.115	20.149	4.127	0.493
912.000	540.956	80.001	19.995	104.110	20.152	3.920	0.495
912.501	541.200	80.002	19.992	104.107	20.149	4.135	0.493
913.000	541.451	80.003	19.996	104.107	20.150	4.080	0.493
913.500	541.706	80.001	19.997	104.108	20.151	3.965	0.501
914.000	541.956	80.001	19.997	104.114	20.150	4.044	0.506
914.500	542.201	80.002	19.995	104.116	20.150	4.073	0.500
915.000	542.423	80.001	19.995	104.117	20.150	4.064	0.481
915.500	542.684	80.003	19.995	104.118	20.152	3.963	0.475
916.000	542.935	80.002	19.994	104.124	20.152	3.914	0.497
916.500	543.193	80.001	19.993	104.125	20.152	3.928	0.510
917.001	543.421	80.001	19.994	104.130	20.152	3.900	0.498
917.500	543.690	80.003	19.993	104.136	20.153	3.848	0.492
918.000	543.943	80.001	19.994	104.143	20.153	3.856	0.509
918.500	544.167	80.003	19.995	104.138	20.152	3.916	0.500
919.000	544.422	80.003	19.994	104.131	20.153	3.880	0.478
919.501	544.691	80.003	19.993	104.126	20.152	3.956	0.501
920.000	544.896	80.003	19.995	104.122	20.155	3.707	0.499
920.500	545.155	80.004	19.994	104.115	20.153	3.856	0.469
921.000	545.404	80.003	19.993	104.112	20.154	3.831	0.486
921.500	545.673	80.001	19.993	104.111	20.153	3.886	0.513
922.000	545.889	80.001	19.994	104.104	20.152	3.960	0.501
922.500	546.144	80.001	19.992	104.099	20.151	3.996	0.478
923.000	546.388	80.000	19.994	104.096	20.151	4.018	0.485
923.500	546.645	80.003	19.993	104.094	20.150	4.070	0.500
924.001	546.943	80.002	19.993	104.093	20.151	4.019	0.528
924.501	547.160	80.002	19.994	104.094	20.151	4.001	0.535
925.001	547.446	80.002	19.994	104.093	20.153	3.839	0.509
925.500	547.692	80.002	19.992	104.094	20.153	3.889	0.517
926.000	547.902	80.004	19.993	104.090	20.150	4.061	0.494
926.500	548.179	80.004	19.993	104.086	20.149	4.097	0.472
927.000	548.431	80.003	19.993	104.084	20.149	4.104	0.508
927.500	548.649	80.002	19.994	104.086	20.153	3.856	0.499
928.000	548.921	80.003	19.995	104.092	20.151	4.028	0.480
928.500	549.128	80.003	19.994	104.106	20.153	3.863	0.484
929.001	549.418	80.002	19.994	104.119	20.153	3.871	0.488
929.500	549.673	80.002	19.995	104.131	20.153	3.898	0.521
930.000	549.921	80.003	19.993	104.143	20.153	3.842	0.524
930.500	550.164	80.002	19.994	104.152	20.155	3.739	0.497
931.000	550.411	80.002	19.994	104.148	20.155	3.710	0.491
931.500	550.680	80.003	19.994	104.139	20.155	3.701	0.503
932.000	550.928	80.002	19.995	104.130	20.154	3.813	0.517
932.501	551.155	80.001	19.994	104.123	20.152	3.952	0.495
933.000	551.415	80.002	19.993	104.110	20.154	3.817	0.481
933.500	551.694	80.003	19.994	104.108	20.153	3.835	0.514
934.000	551.897	80.001	19.994	104.108	20.155	3.763	0.511
934.500	552.188	80.002	19.994	104.108	20.152	3.960	0.488
935.000	552.438	80.002	19.994	104.104	20.152	3.958	0.517
935.501	552.666	80.001	19.994	104.103	20.153	3.864	0.510
936.000	552.904	80.004	19.995	104.102	20.155	3.718	0.472
936.500	553.133	80.001	19.994	104.103	20.154	3.828	0.466
937.000	553.407	80.001	19.994	104.101	20.152	3.951	0.485
937.500	553.665	80.004	19.995	104.096	20.153	3.866	0.517
938.000	553.903	80.000	19.995	104.094	20.154	3.794	0.514
938.500	554.138	80.002	19.996	104.092	20.152	3.938	0.485
939.000	554.375	80.002	19.995	104.085	20.153	3.874	0.472
939.500	554.667	80.002	19.995	104.081	20.149	4.099	0.500
940.001	554.894	80.002	19.996	104.085	20.153	3.888	0.524
940.501	555.155	80.002	19.994	104.087	20.150	4.093	0.504
941.001	555.384	80.002	19.994	104.085	20.154	3.791	0.489
941.501	555.653	80.002	19.995	104.089	20.153	3.861	0.494
942.000	555.882	80.002	19.995	104.094	20.151	3.969	0.498
942.500	556.128	80.001	19.993	104.091	20.153	3.870	0.487
943.000	556.386	80.001	19.993	104.092	20.151	3.975	0.489
943.500	556.650	80.001	19.995	104.097	20.149	4.104	0.513
944.000	556.892	80.003	19.994	104.099	20.151	3.985	0.514
944.500	557.125	80.002	19.994	104.103	20.151	4.016	0.490
945.000	557.381	80.001	19.994	104.107	20.153	3.853	0.482
945.500	557.668	80.002	19.995	104.107	20.152	3.960	0.516
946.000	557.859	80.002	19.995	104.108	20.152	3.925	0.511
946.500	558.166	80.002	19.994	104.114	20.155	3.750	0.488
947.001	558.424	80.002	19.995	104.117	20.153	3.842	0.531
947.501	558.633	80.000	19.994	104.118	20.151	3.965	0.516
948.001	558.874	80.003	19.995	104.117	20.153	3.870	0.459
948.501	559.156	80.002	19.995	104.116	20.152	3.918	0.486
949.001	559.384	80.003	19.993	104.112	20.150	4.059	0.516
949.500	559.620	80.004	19.995	104.114	20.154	3.801	0.487
950.000	559.883	80.004	19.995	104.121	20.153	3.889	0.481
950.501	560.145	80.003	19.993	104.119	20.150	4.066	0.512
951.000	560.381	80.003	19.993	104.111	20.153	3.873	0.512
951.500	560.642	80.003	19.994	104.102	20.153	3.853	0.498
952.000	560.887	80.004	19.994	104.087	20.152	3.940	0.502
952.500	561.120	80.005	19.994	104.071	20.155	3.705	0.492
953.001	561.333	80.004	19.995	104.067	20.152	3.935	0.462
953.501	561.617	80.004	19.994	104.073	20.151	3.973	0.471
954.001	561.849	80.002	19.993	104.081	20.152	3.938	0.506
954.501	562.135	80.002	19.992	104.089	20.149	4.133	0.517
955.000	562.373	80.002	19.994	104.097	20.152	3.909	0.521
955.500	562.609	80.004	19.994	104.104	20.151	3.990	0.499
956.000	562.872	80.004	19.993	104.103	20.154	3.783	0.486
956.500	563.103	80.005	19.994	104.103	20.151	4.016	0.497
957.000	563.366	80.004	19.994	104.103	20.154	3.817	0.494
957.501	563.625	80.003	19.994	104.105	20.153	3.839	0.508
958.000	563.873	80.003	19.994	104.105	20.154	3.815	0.514
958.500	564.087	80.003	19.994	104.108	20.151	3.996	0.484
959.000	564.318	80.003	19.993	104.108	20.151	3.971	0.454
959.500	564.588	80.004	19.995	104.108	20.149	4.104	0.473
960.000	564.818	80.004	19.994	104.104	20.153	3.850	0.500
960.500	565.095	80.004	19.994	104.102	20.150	4.050	0.504
961.000	565.318	80.005	19.994	104.102	20.153	3.899	0.504
961.500	565.576	80.003	19.994	104.101	20.154	3.814	0.491
962.000	565.815	80.001	19.993	104.101	20.150	4.045	0.489
962.501	566.063	80.005	19.993	104.104	20.148	4.226	0.492
963.001	566.332	80.003	19.994	104.107	20.150	4.038	0.502
963.500	566.578	80.001	19.994	104.109	20.153	3.847	0.516
964.000	566.847	80.001	19.994	104.111	20.150	4.055	0.515
964.500	567.101	80.002	19.994	104.111	20.153	3.894	0.519
965.000	567.313	80.001	19.995	104.109	20.153	3.843	0.494
965.500	567.598	80.001	19.995	104.108	20.150	4.080	0.482
966.000	567.856	80.001	19.995	104.105	20.149	4.161	0.520
966.501	568.116	80.002	19.995	104.101	20.151	4.031	0.530
967.001	568.368	80.002	19.994	104.102	20.148	4.180	0.515
967.500	568.652	80.002	19.994	104.102	20.148	4.164	0.525
968.000	568.905	79.999	19.995	104.102	20.149	4.103	0.537
968.500	569.122	80.001	19.995	104.104	20.149	4.112	0.503
969.000	569.388	80.001	19.995	104.107	20.148	4.216	0.476
969.500	569.656	80.002	19.996	104.108	20.146	4.306	0.509
970.000	569.943	80.003	19.996	104.108	20.147	4.243	0.545
970.500	570.152	80.002	19.995	104.109	20.149	4.117	0.526
971.000	570.409	80.002	19.994	104.109	20.149	4.140	0.481
971.500	570.670	80.002	19.995	104.111	20.150	4.088	0.492
972.001	570.933	80.002	19.995	104.113	20.152	3.958	0.521
972.500	571.213	80.004	19.995	104.119	20.149	4.113	0.533
973.000	571.442	80.003	19.994	104.121	20.149	4.113	0.526
973.500	571.736	80.004	19.995	104.124	20.147	4.273	0.516
974.000	571.985	80.004	19.994	104.125	20.150	4.066	0.533
974.500	572.262	80.006	19.996	104.129	20.151	4.005	0.534
975.000	572.523	80.006	19.996	104.129	20.152	3.963	0.532
975.500	572.738	80.005	19.994	104.131	20.153	3.893	0.507
976.001	573.049	80.003	19.994	104.128	20.149	4.149	0.501
976.500	573.281	80.004	19.993	104.126	20.152	3.958	0.534
977.000	573.553	80.005	19.994	104.123	20.147	4.231	0.524
977.500	573.839	80.005	19.995	104.120	20.149	4.130	0.531
978.000	574.097	80.004	19.993	104.114	20.150	4.061	0.550
978.500	574.392	80.005	19.993	104.113	20.151	4.029	0.548
979.000	574.658	80.004	19.994	104.112	20.154	3.823	0.557
979.500	574.941	80.005	19.993	104.107	20.151	3.978	0.555
980.001	575.231	80.005	19.995	104.102	20.148	4.188	0.561
980.501	575.452	80.004	19.993	104.100	20.149	4.139	0.542
981.000	575.716	80.007	19.994	104.099	20.153	3.859	0.498
981.500	575.990	80.005	19.994	104.099	20.148	4.174	0.511
982.000	576.246	80.004	19.994	104.099	20.150	4.051	0.534
982.500	576.482	80.005	19.992	104.097	20.151	4.024	0.511
983.001	576.766	80.006	19.993	104.093	20.147	4.259	0.506
983.500	577.009	80.006	19.993	104.093	20.150	4.085	0.524
984.000	577.287	80.005	19.994	104.090	20.149	4.135	0.524
984.500	577.579	80.003	19.992	104.089	20.147	4.251	0.545
985.000	577.776	80.006	19.994	104.092	20.149	4.134	0.530
985.500	578.119	80.004	19.993	104.097	20.148	4.215	0.515
986.000	578.384	80.002	19.994	104.098	20.146	4.338	0.574
986.500	578.630	80.002	19.993	104.101	20.148	4.186	0.559
987.000	578.874	80.003	19.993	104.103	20.147	4.269	0.501
987.501	579.141	80.003	19.993	104.103	20.147	4.291	0.501
988.001	579.443	80.003	19.994	104.103	20.147	4.280	0.540
988.500	579.745	80.003	19.993	104.104	20.148	4.188	0.587
989.000	579.987	80.003	19.994	104.111	20.146	4.313	0.574
989.500	580.254	80.003	19.993	104.112	20.147	4.267	0.526
990.000	580.517	80.002	19.994	104.113	20.146	4.338	0.520
990.500	580.768	80.003	19.994	104.115	20.149	4.160	0.522
991.000	581.041	80.003	19.994	104.119	20.148	4.169	0.519
991.500	581.343	80.002	19.994	104.120	20.148	4.198	0.550
992.000	581.553	80.003	19.995	104.125	20.152	3.958	0.544
992.500	581.866	80.002	19.993	104.132	20.150	4.095	0.517
993.000	582.163	80.002	19.993	104.133	20.148	4.198	0.566
993.500	582.370	80.003	19.995	104.131	20.150	4.039	0.557
994.000	582.658	80.003	19.994	104.129	20.151	3.985	0.499
994.500	582.895	80.005	19.994	104.122	20.153	3.888	0.510
995.001	583.213	80.002	19.994	104.117	20.148	4.193	0.540
995.500	583.431	80.002	19.993	104.122	20.151	3.972	0.546
996.000	583.722	80.003	19.995	104.126	20.147	4.231	0.522
996.501	584.009	80.003	19.995	104.126	20.149	4.102	0.543
997.001	584.256	80.003	19.995	104.127	20.151	3.985	0.556
997.501	584.487	80.003	19.995	104.126	20.150	4.093	0.506
998.000	584.772	80.003	19.994	104.122	20.149	4.144	0.496
998.500	585.020	80.004	19.994	104.121	20.152	3.906	0.525
999.000	585.326	80.004	19.994	104.124	20.149	4.142	0.544
999.500	585.588	80.003	19.994	104.127	20.152	3.947	0.561
1000.000	585.841	80.002	19.994	104.127	20.152	3.908	0.541
1000.500	586.122	80.002	19.995	104.123	20.153	3.879	0.524
1001.000	586.357	80.003	19.994	104.115	20.149	4.146	0.525
1001.501	586.652	80.003	19.993	104.107	20.150	4.032	0.523
1002.001	586.881	80.003	19.994	104.103	20.151	3.965	0.527
1002.500	587.172	80.002	19.993	104.102	20.151	3.992	0.522
1003.000	587.413	80.003	19.995	104.104	20.150	4.050	0.526
1003.500	587.671	80.003	19.995	104.105	20.149	4.115	0.516
1004.000	587.971	80.004	19.993	104.108	20.152	3.951	0.529
1004.500	588.241	80.002	19.994	104.109	20.151	3.990	0.564
1005.000	588.478	80.004	19.993	104.108	20.151	3.965	0.538
1005.500	588.769	80.003	19.994	104.107	20.152	3.909	0.517
1006.000	589.035	80.004	19.993	104.105	20.149	4.140	0.543
1006.500	589.285	80.003	19.994	104.103	20.150	4.075	0.537
1007.000	589.548	80.001	19.994	104.102	20.154	3.814	0.515
1007.500	589.812	80.003	19.993	104.103	20.149	4.142	0.520
1008.000	590.062	80.003	19.994	104.105	20.152	3.927	0.521
1008.500	590.326	80.003	19.995	104.106	20.148	4.180	0.514
1009.000	590.573	80.002	19.994	104.110	20.149	4.121	0.512
1009.500	590.886	80.003	19.995	104.109	20.152	3.960	0.535
1010.001	591.160	80.001	19.994	104.109	20.151	3.998	0.574
1010.500	591.378	80.003	19.995	104.109	20.151	4.027	0.540
1011.000	591.641	80.003	19.994	104.110	20.147	4.279	0.486
1011.500	591.908	80.004	19.993	104.106	20.149	4.115	0.505
1012.000	592.211	80.003	19.994	104.105	20.149	4.131	0.550
1012.500	592.492	80.004	19.994	104.103	20.148	4.164	0.577
1013.000	592.742	80.002	19.994	104.103	20.148	4.223	0.558
1013.500	592.990	80.003	19.993	104.102	20.149	4.109	0.514
1014.000	593.278	80.005	19.993	104.102	20.149	4.111	0.517
1014.501	593.523	80.003	19.994	104.100	20.147	4.255	0.534
1015.000	593.834	80.004	19.992	104.100	20.152	3.957	0.545
1015.500	594.097	80.003	19.994	104.101	20.150	4.060	0.565
1016.000	594.340	80.000	19.994	104.101	20.150	4.071	0.540
1016.500	594.626	80.003	19.995	104.102	20.150	4.053	0.518
1017.000	594.906	80.002	19.993	104.104	20.149	4.109	0.548
1017.500	595.168	80.002	19.993	104.106	20.149	4.131	0.554
1018.000	595.461	79.999	19.993	104.106	20.152	3.956	0.548
1018.501	595.677	80.000	19.993	104.104	20.147	4.232	0.532
1019.000	595.958	79.999	19.994	104.104	20.150	4.075	0.503
1019.500	596.217	80.002	19.992	104.104	20.148	4.180	0.519
1020.001	596.514	80.003	19.992	104.105	20.147	4.286	0.548
1020.501	596.762	80.002	19.994	104.105	20.149	4.134	0.550
1021.000	597.037	80.001	19.992	104.105	20.148	4.192	0.534
1021.500	597.304	80.000	19.993	104.105	20.146	4.304	0.533
1022.000	597.564	80.001	19.993	104.106	20.150	4.089	0.535
1022.500	597.823	80.001	19.993	104.104	20.148	4.190	0.523
1023.000	598.111	80.002	19.994	104.105	20.150	4.091	0.533
1023.500	598.346	80.004	19.995	104.102	20.150	4.070	0.535
1024.001	598.625	80.002	19.994	104.094	20.150	4.043	0.518
1024.500	598.885	80.002	19.994	104.090	20.149	4.110	0.526
1025.000	599.139	80.003	19.993	104.091	20.152	3.949	0.526
1025.500	599.433	80.002	19.994	104.091	20.148	4.191	0.531
1026.000	599.685	80.002	19.994	104.091	20.150	4.054	0.547
1026.500	599.923	80.001	19.994	104.090	20.148	4.177	0.518
1027.000	600.200	80.003	19.993	104.087	20.148	4.193	0.503
1027.500	600.434	80.000	19.993	104.086	20.149	4.144	0.513
1028.000	600.735	80.002	19.993	104.085	20.150	4.086	0.523
1028.501	600.984	80.000	19.993	104.089	20.146	4.346	0.543
1029.001	601.254	80.003	19.996	104.097	20.148	4.191	0.535
1029.501	601.498	80.004	19.994	104.101	20.147	4.260	0.517
1030.000	601.774	80.001	19.996	104.101	20.149	4.106	0.517
1030.501	602.045	80.002	19.995	104.101	20.148	4.218	0.533
1031.001	602.270	80.001	19.995	104.095	20.148	4.223	0.521
1031.500	602.495	80.003	19.995	104.087	20.147	4.267	0.473
1032.000	602.774	80.001	19.995	104.084	20.146	4.332	0.478
1032.501	603.076	80.001	19.994	104.081	20.144	4.473	0.543
1033.001	603.323	80.003	19.994	104.077	20.149	4.151	0.565
1033.501	603.582	80.005	19.994	104.081	20.147	4.250	0.527
1034.001	603.837	80.005	19.993	104.088	20.148	4.193	0.510
1034.501	604.097	80.003	19.993	104.094	20.145	4.371	0.514
1035.000	604.380	80.003	19.994	104.098	20.147	4.285	0.529
1035.500	604.599	80.003	19.994	104.104	20.147	4.254	0.523
1036.000	604.889	80.003	19.992	104.106	20.145	4.361	0.505
1036.501	605.151	80.003	19.992	104.108	20.144	4.483	0.530
1037.001	605.426	80.004	19.993	104.108	20.147	4.234	0.544
1037.501	605.651	80.003	19.993	104.108	20.147	4.279	0.519
1038.001	605.913	80.003	19.993	104.107	20.148	4.209	0.494
1038.501	606.198	80.005	19.994	104.107	20.149	4.157	0.517
1039.001	606.501	80.003	19.995	104.106	20.147	4.283	0.568
1039.501	606.695	80.005	19.995	104.105	20.147	4.267	0.542
1040.000	606.981	80.005	19.994	104.105	20.150	4.084	0.488
1040.501	607.274	80.003	19.994	104.105	20.148	4.225	0.530
1041.001	607.527	80.003	19.993	104.105	20.147	4.239	0.562
1041.501	607.763	80.003	19.993	104.105	20.148	4.225	0.518
1042.001	608.038	80.002	19.994	104.105	20.146	4.310	0.500
1042.500	608.292	80.004	19.993	104.104	20.146	4.297	0.520
1043.001	608.591	80.002	19.994	104.104	20.150	4.073	0.541
1043.501	608.847	80.002	19.995	104.104	20.146	4.330	0.554
1044.000	609.094	80.000	19.993	104.103	20.143	4.503	0.529
1044.500	609.355	80.004	19.995	104.103	20.146	4.344	0.505
1045.000	609.656	80.002	19.994	104.103	20.147	4.229	0.535
1045.500	609.895	80.002	19.995	104.103	20.148	4.214	0.551
1046.000	610.159	80.003	19.994	104.104	20.146	4.301	0.522
1046.500	610.410	80.001	19.994	104.104	20.146	4.326	0.509
1047.000	610.705	80.003	19.994	104.103	20.145	4.409	0.530
1047.500	610.958	80.003	19.995	104.102	20.146	4.315	0.547
1048.000	611.251	80.003	19.994	104.102	20.146	4.348	0.547
1048.500	611.498	80.003	19.994	104.102	20.146	4.357	0.543
1049.001	611.749	80.004	19.997	104.102	20.146	4.295	0.519
1049.501	612.031	80.002	19.993	104.102	20.145	4.422	0.516
1050.001	612.270	80.003	19.995	104.103	20.146	4.299	0.527
1050.501	612.574	80.002	19.994	104.102	20.146	4.357	0.532
1051.001	612.852	80.003	19.994	104.101	20.149	4.162	0.563
1051.501	613.129	80.002	19.995	104.100	20.150	4.082	0.568
1052.001	613.359	80.003	19.995	104.095	20.146	4.359	0.531
1052.501	613.641	80.004	19.997	104.095	20.147	4.276	0.510
1053.001	613.946	80.003	19.995	104.096	20.149	4.149	0.549
1053.501	614.193	80.004	19.995	104.096	20.150	4.068	0.569
1054.001	614.472	80.004	19.995	104.098	20.148	4.202	0.539
1054.501	614.728	80.005	19.995	104.103	20.147	4.258	0.531
1055.000	615.003	80.004	19.994	104.102	20.146	4.350	0.533
1055.501	615.279	80.004	19.995	104.102	20.150	4.068	0.541
1056.001	615.550	80.003	19.994	104.102	20.147	4.234	0.549
1056.500	615.810	80.005	19.995	104.102	20.145	4.368	0.539
1057.000	616.049	80.002	19.995	104.100	20.147	4.290	0.515
1057.500	616.358	80.006	19.995	104.101	20.145	4.393	0.523
1058.000	616.601	80.003	19.995	104.101	20.147	4.241	0.550
1058.500	616.851	80.004	19.995	104.101	20.149	4.137	0.523
1059.001	617.108	80.003	19.995	104.101	20.147	4.229	0.500
1059.501	617.386	80.003	19.994	104.101	20.151	3.994	0.521
1060.000	617.688	80.003	19.996	104.099	20.148	4.205	0.557
1060.500	617.939	80.003	19.994	104.098	20.145	4.373	0.566
1061.000	618.164	80.003	19.994	104.097	20.148	4.169	0.515
1061.500	618.456	80.004	19.995	104.097	20.149	4.120	0.497
1062.000	618.756	80.004	19.994	104.097	20.147	4.270	0.554
1062.500	618.991	80.007	19.997	104.098	20.148	4.225	0.563
1063.000	619.264	80.005	19.996	104.098	20.145	4.405	0.521
1063.500	619.564	80.003	19.995	104.099	20.150	4.058	0.541
1064.001	619.792	80.004	19.995	104.099	20.151	3.981	0.551
1064.501	620.068	80.005	19.996	104.099	20.152	3.956	0.516
1065.001	620.319	80.005	19.996	104.100	20.149	4.126	0.515
1065.500	620.570	80.002	19.994	104.100	20.149	4.145	0.514
1066.000	620.897	80.003	19.993	104.099	20.149	4.134	0.540
1066.501	621.149	80.004	19.994	104.099	20.146	4.333	0.579
1067.001	621.397	80.004	19.995	104.099	20.145	4.394	0.540
1067.500	621.639	80.003	19.994	104.100	20.148	4.210	0.495
1068.000	621.886	80.001	19.995	104.101	20.149	4.149	0.489
1068.500	622.211	80.003	19.994	104.102	20.148	4.189	0.531
1069.000	622.432	80.001	19.995	104.102	20.149	4.145	0.560
1069.500	622.714	80.003	19.994	104.102	20.148	4.192	0.525
1070.000	622.932	80.004	19.994	104.101	20.150	4.087	0.501
1070.500	623.224	80.002	19.993	104.101	20.148	4.169	0.505
1071.000	623.459	80.001	19.993	104.102	20.148	4.199	0.519
1071.500	623.748	80.002	19.993	104.100	20.148	4.179	0.525
1072.001	624.011	80.003	19.994	104.098	20.148	4.188	0.538
1072.501	624.259	80.003	19.993	104.096	20.149	4.130	0.531
1073.001	624.528	80.003	19.995	104.091	20.146	4.356	0.514
1073.501	624.778	80.002	19.994	104.087	20.148	4.170	0.518
1074.000	625.029	80.002	19.994	104.083	20.148	4.222	0.510
1074.501	625.264	80.002	19.993	104.087	20.148	4.199	0.493
1075.001	625.542	80.001	19.992	104.090	20.150	4.034	0.500
1075.500	625.785	80.004	19.994	104.092	20.149	4.143	0.517
1076.000	626.048	80.002	19.994	104.094	20.148	4.166	0.514
1076.500	626.331	80.001	19.994	104.095	20.149	4.110	0.526
1077.000	626.580	80.002	19.994	104.093	20.151	3.989	0.539
1077.500	626.848	80.002	19.994	104.092	20.150	4.081	0.524
1078.000	627.086	80.002	19.994	104.093	20.149	4.125	0.511
1078.501	627.351	80.002	19.993	104.091	20.148	4.165	0.505
1079.001	627.575	80.003	19.994	104.095	20.150	4.089	0.496
1079.500	627.853	80.003	19.994	104.096	20.148	4.217	0.496
1080.000	628.082	80.002	19.993	104.091	20.153	3.853	0.505
1080.500	628.351	80.002	19.993	104.088	20.149	4.132	0.503
1081.000	628.623	80.002	19.993	104.091	20.150	4.058	0.519
1081.501	628.883	80.002	19.994	104.089	20.149	4.122	0.536
1082.001	629.074	80.003	19.994	104.084	20.149	4.138	0.492
1082.500	629.392	80.003	19.994	104.082	20.150	4.067	0.480
1083.000	629.618	80.003	19.993	104.084	20.146	4.304	0.526
1083.500	629.864	80.002	19.993	104.078	20.148	4.215	0.507
1084.000	630.149	80.003	19.993	104.073	20.144	4.441	0.501
1084.500	630.402	80.002	19.993	104.073	20.147	4.280	0.535
1085.000	630.640	80.002	19.993	104.072	20.145	4.362	0.515
1085.500	630.915	80.001	19.994	104.070	20.147	4.288	0.502
1086.000	631.132	80.002	19.993	104.070	20.142	4.581	0.502
1086.500	631.425	80.002	19.993	104.072	20.148	4.214	0.501
1087.000	631.668	80.004	19.995	104.071	20.145	4.398	0.523
1087.500	631.918	80.002	19.993	104.072	20.148	4.183	0.515
1088.001	632.158	80.003	19.993	104.071	20.149	4.129	0.492
1088.501	632.403	80.001	19.994	104.072	20.148	4.200	0.488
1089.000	632.677	80.003	19.995	104.075	20.146	4.304	0.501
1089.500	632.982	80.002	19.994	104.077	20.147	4.243	0.549
1090.000	633.191	80.002	19.996	104.084	20.146	4.328	0.547
1090.501	633.448	80.002	19.996	104.089	20.147	4.248	0.490
1091.001	633.685	80.002	19.994	104.090	20.147	4.248	0.480
1091.501	633.995	80.002	19.993	104.087	20.145	4.408	0.520
1092.000	634.216	80.002	19.993	104.088	20.144	4.464	0.539
1092.500	634.483	80.002	19.995	104.085	20.148	4.167	0.510
1093.000	634.705	80.001	19.993	104.081	20.147	4.258	0.489
1093.500	635.007	80.000	19.994	104.081	20.149	4.156	0.506
1094.001	635.249	80.003	19.996	104.081	20.143	4.530	0.534
1094.501	635.479	80.001	19.994	104.080	20.145	4.400	0.508
1095.001	635.740	80.001	19.994	104.082	20.145	4.384	0.481
1095.501	635.989	80.003	19.995	104.086	20.147	4.267	0.500
1096.000	636.226	80.001	19.994	104.091	20.146	4.355	0.498
1096.501	636.472	80.002	19.994	104.093	20.145	4.361	0.485
1097.001	636.703	79.999	19.994	104.097	20.144	4.473	0.480
1097.500	636.973	80.001	19.993	104.094	20.148	4.220	0.489
1098.000	637.199	80.002	19.993	104.090	20.147	4.286	0.498
1098.500	637.460	80.003	19.994	104.091	20.147	4.268	0.491
1099.000	637.719	80.003	19.993	104.094	20.149	4.145	0.504
1099.501	637.952	80.003	19.994	104.094	20.146	4.296	0.506
1100.001	638.233	80.001	19.992	104.094	20.146	4.340	0.502
1100.501	638.463	80.005	19.995	104.097	20.147	4.249	0.512
1101.001	638.700	80.001	19.993	104.096	20.147	4.239	0.489
1101.501	638.953	80.003	19.994	104.096	20.146	4.298	0.478
1102.000	639.215	80.003	19.994	104.098	20.150	4.069	0.503
1102.501	639.436	80.001	19.994	104.103	20.148	4.174	0.499
1103.001	639.708	80.001	19.993	104.104	20.150	4.044	0.488
1103.501	639.984	80.002	19.994	104.103	20.147	4.289	0.520
1104.001	640.203	80.001	19.995	104.101	20.150	4.047	0.521
1104.501	640.480	80.001	19.992	104.101	20.150	4.091	0.496
1105.000	640.732	80.002	19.994	104.101	20.145	4.369	0.513
1105.500	640.965	80.000	19.994	104.103	20.147	4.281	0.507
1106.001	641.252	80.003	19.992	104.103	20.146	4.355	0.502
1106.501	641.441	80.001	19.993	104.104	20.146	4.299	0.498
1107.000	641.693	80.004	19.994	104.104	20.148	4.167	0.459
1107.500	642.007	80.003	19.993	104.104	20.148	4.216	0.503
1108.000	642.233	80.004	19.995	104.103	20.150	4.068	0.553
1108.500	642.476	80.004	19.993	104.099	20.150	4.053	0.505
1109.000	642.718	80.005	19.994	104.094	20.147	4.232	0.477
1109.500	642.934	80.003	19.994	104.089	20.152	3.929	0.471
1110.001	643.227	80.003	19.993	104.081	20.146	4.304	0.483
1110.501	643.493	80.004	19.993	104.075	20.147	4.234	0.534
1111.000	643.721	80.002	19.993	104.075	20.151	4.013	0.526
1111.500	643.994	80.004	19.995	104.078	20.146	4.342	0.498
1112.001	644.232	80.003	19.995	104.078	20.147	4.239	0.506
1112.501	644.451	80.003	19.993	104.080	20.149	4.132	0.484
1113.000	644.736	80.005	19.995	104.083	20.150	4.092	0.480
1113.501	644.967	80.000	19.992	104.085	20.150	4.067	0.510
1114.001	645.242	80.005	19.992	104.083	20.145	4.419	0.511
1114.501	645.496	80.004	19.993	104.082	20.150	4.058	0.517
1115.001	645.750	80.002	19.992	104.085	20.143	4.523	0.519
1115.501	645.965	80.004	19.994	104.089	20.146	4.353	0.489
1116.000	646.259	80.004	19.995	104.091	20.146	4.348	0.489
1116.500	646.529	80.004	19.994	104.095	20.148	4.196	0.536
1117.000	646.775	80.002	19.993	104.101	20.145	4.384	0.540
1117.500	647.038	80.004	19.991	104.103	20.146	4.335	0.513
1118.000	647.280	80.004	19.994	104.103	20.148	4.207	0.507
1118.500	647.542	80.004	19.993	104.102	20.142	4.559	0.504
1119.000	647.789	80.006	19.995	104.098	20.144	4.474	0.506
1119.500	648.047	80.003	19.993	104.097	20.146	4.317	0.507
1120.000	648.340	80.002	19.994	104.095	20.150	4.091	0.528
1120.501	648.533	80.003	19.994	104.092	20.147	4.276	0.519
1121.001	648.799	80.002	19.994	104.093	20.146	4.321	0.472
1121.501	649.066	80.004	19.995	104.094	20.145	4.422	0.496
1122.000	649.347	80.004	19.995	104.089	20.147	4.283	0.540
1122.500	649.573	80.004	19.993	104.085	20.148	4.168	0.527
1123.001	649.842	80.003	19.994	104.080	20.147	4.244	0.501
1123.501	650.125	80.005	19.994	104.073	20.145	4.370	0.524
1124.000	650.389	80.003	19.993	104.072	20.149	4.119	0.550
1124.500	650.644	80.002	19.994	104.074	20.146	4.296	0.533
1125.000	650.889	80.005	19.994	104.080	20.144	4.477	0.510
1125.500	651.104	80.004	19.993	104.085	20.145	4.403	0.480
1126.000	651.363	80.004	19.995	104.090	20.146	4.329	0.466
1126.500	651.653	80.003	19.995	104.094	20.144	4.429	0.512
1127.000	651.919	80.004	19.993	104.096	20.146	4.324	0.553
1127.500	652.152	80.004	19.994	104.097	20.149	4.133	0.528
1128.000	652.421	80.005	19.994	104.099	20.149	4.135	0.500
1128.500	652.652	80.003	19.994	104.102	20.147	4.261	0.501
1129.001	652.901	80.004	19.996	104.102	20.146	4.303	0.490
1129.501	653.173	80.003	19.994	104.103	20.147	4.281	0.500
1130.000	653.413	80.002	19.993	104.099	20.150	4.090	0.516
1130.501	653.654	80.003	19.996	104.092	20.143	4.523	0.496
1131.001	653.932	80.004	19.994	104.084	20.146	4.309	0.500
1131.500	654.164	80.004	19.993	104.076	20.144	4.480	0.515
1132.000	654.451	80.006	19.993	104.068	20.149	4.157	0.514
1132.500	654.671	80.004	19.993	104.064	20.147	4.292	0.513
1133.000	654.952	80.004	19.994	104.064	20.146	4.300	0.504
1133.500	655.217	80.005	19.994	104.065	20.147	4.248	0.524
1134.000	655.462	80.004	19.994	104.067	20.148	4.219	0.528
1134.500	655.741	80.004	19.993	104.069	20.146	4.326	0.517
1135.000	656.000	80.005	19.993	104.069	20.147	4.271	0.531
1135.500	656.244	80.005	19.993	104.069	20.147	4.293	0.521
1136.000	656.492	80.004	19.994	104.071	20.148	4.201	0.497
1136.500	656.725	80.005	19.993	104.076	20.148	4.172	0.486
1137.000	657.004	80.006	19.995	104.083	20.146	4.356	0.497
1137.501	657.236	80.005	19.994	104.090	20.147	4.245	0.512
1138.001	657.506	80.005	19.995	104.098	20.147	4.240	0.507
1138.500	657.765	80.004	19.993	104.101	20.147	4.280	0.515
1139.001	657.967	80.005	19.993	104.102	20.151	4.006	0.495
1139.501	658.245	80.004	19.994	104.102	20.148	4.172	0.471
1140.001	658.465	80.004	19.991	104.102	20.146	4.332	0.489
1140.501	658.743	80.006	19.995	104.101	20.143	4.521	0.498
1141.001	658.980	80.003	19.993	104.098	20.150	4.082	0.507
1141.501	659.235	80.005	19.994	104.091	20.146	4.338	0.504
1142.001	659.489	80.004	19.995	104.084	20.144	4.450	0.500
1142.501	659.747	80.005	19.995	104.077	20.146	4.354	0.510
1143.000	659.998	80.004	19.995	104.071	20.143	4.502	0.511
1143.500	660.255	80.003	19.993	104.071	20.145	4.367	0.509
1144.001	660.506	80.005	19.994	104.078	20.147	4.286	0.508
1144.501	660.743	80.001	19.993	104.086	20.143	4.509	0.497
1145.001	660.982	80.004	19.994	104.090	20.145	4.366	0.482
1145.501	661.225	80.002	19.993	104.090	20.146	4.332	0.480
1146.001	661.525	80.003	19.994	104.086	20.144	4.451	0.512
1146.501	661.757	80.002	19.994	104.081	20.150	4.070	0.537
1147.001	662.005	80.002	19.995	104.080	20.146	4.305	0.506
1147.500	662.252	80.003	19.995	104.082	20.147	4.251	0.487
1148.000	662.521	80.000	19.994	104.090	20.148	4.204	0.506
1148.500	662.778	80.001	19.995	104.098	20.143	4.504	0.521
1149.001	663.023	80.003	19.998	104.112	20.152	3.919	0.514
1149.501	663.240	80.001	19.996	104.122	20.144	4.477	0.482
1150.000	663.531	80.002	19.996	104.122	20.145	4.390	0.485
1150.500	663.744	80.003	19.995	104.119	20.147	4.233	0.506
1151.000	664.020	80.002	19.995	104.117	20.148	4.183	0.496
1151.501	664.275	80.002	19.995	104.104	20.146	4.321	0.510
1152.001	664.533	80.003	19.995	104.091	20.145	4.376	0.522
1152.500	664.763	80.002	19.995	104.090	20.148	4.188	0.501
1153.000	665.018	80.002	19.996	104.090	20.146	4.308	0.486
1153.501	665.290	80.001	19.995	104.081	20.148	4.209	0.506
1154.001	665.488	80.001	19.994	104.081	20.144	4.484	0.499
1154.501	665.756	80.002	19.996	104.085	20.145	4.417	0.468
1155.001	665.995	80.002	19.995	104.083	20.144	4.480	0.487
1155.501	666.238	80.002	19.995	104.075	20.142	4.619	0.495
1156.000	666.510	80.002	19.995	104.072	20.149	4.142	0.499
1156.500	666.719	80.000	19.994	104.068	20.143	4.509	0.498
1157.000	666.938	80.001	19.995	104.061	20.145	4.389	0.454
1157.501	667.257	80.000	19.994	104.062	20.141	4.624	0.483
1158.001	667.473	80.001	19.995	104.069	20.143	4.503	0.537
1158.500	667.721	80.001	19.993	104.075	20.139	4.806	0.500
1159.001	667.935	80.002	19.993	104.078	20.143	4.512	0.463
1159.501	668.189	80.002	19.994	104.083	20.138	4.866	0.465
1160.000	668.477	80.002	19.994	104.085	20.141	4.672	0.504
1160.500	668.786	80.001	19.995	104.084	20.143	4.497	0.569
1161.000	668.970	80.002	19.993	104.080	20.140	4.710	0.545
1161.500	669.184	80.004	19.994	104.079	20.144	4.488	0.446
1162.000	669.432	80.003	19.993	104.076	20.144	4.470	0.430
1162.501	669.669	80.000	19.993	104.070	20.143	4.492	0.473
1163.001	669.913	80.004	19.994	104.073	20.145	4.367	0.483
1163.500	670.213	80.000	19.994	104.084	20.143	4.519	0.513
1164.001	670.455	80.002	19.994	104.092	20.145	4.365	0.543
1164.501	670.669	80.003	19.994	104.102	20.143	4.552	0.499
1165.000	670.916	80.002	19.994	104.108	20.144	4.446	0.459
1165.500	671.172	80.001	19.992	104.110	20.145	4.399	0.482
1166.000	671.416	80.003	19.993	104.111	20.140	4.737	0.501
1166.500	671.643	80.002	19.993	104.112	20.143	4.539	0.486
1167.001	671.858	80.002	19.992	104.105	20.141	4.664	0.457
1167.501	672.146	80.002	19.994	104.105	20.144	4.446	0.472
1168.000	672.350	80.003	19.993	104.100	20.147	4.229	0.498
1168.500	672.625	80.002	19.994	104.092	20.147	4.229	0.486
1169.001	672.871	80.002	19.993	104.090	20.146	4.330	0.500
1169.501	673.086	80.002	19.993	104.093	20.141	4.658	0.490
1170.001	673.382	80.002	19.995	104.091	20.144	4.485	0.486
1170.501	673.586	80.003	19.994	104.092	20.144	4.427	0.506
1171.001	673.832	80.002	19.995	104.090	20.149	4.132	0.475
1171.500	674.091	80.002	19.994	104.086	20.145	4.374	0.478
1172.001	674.342	80.002	19.993	104.085	20.141	4.627	0.508
1172.501	674.569	80.004	19.994	104.087	20.148	4.165	0.494
1173.001	674.849	80.004	19.995	104.089	20.143	4.551	0.492
1173.501	675.048	80.001	19.995	104.094	20.146	4.299	0.493
1174.001	675.321	80.002	19.994	104.091	20.143	4.519	0.476
1174.501	675.573	80.000	19.994	104.087	20.144	4.460	0.498
1175.001	675.786	80.001	19.994	104.079	20.143	4.498	0.495
1175.501	676.045	80.000	19.994	104.070	20.142	4.615	0.469
1176.001	676.314	80.001	19.994	104.065	20.146	4.319	0.500
1176.501	676.540	80.002	19.994	104.071	20.144	4.468	0.512
1177.001	676.806	80.002	19.994	104.078	20.141	4.687	0.494
1177.501	677.015	80.001	19.995	104.091	20.144	4.450	0.483
1178.001	677.288	80.001	19.995	104.101	20.148	4.193	0.478
1178.501	677.516	80.003	19.995	104.107	20.141	4.663	0.491
1179.001	677.763	80.001	19.995	104.109	20.147	4.260	0.488
1179.500	678.100	80.002	19.998	104.107	20.144	4.464	0.530
1180.000	678.219	80.001	19.995	104.099	20.145	4.397	0.520
1180.500	678.492	80.001	19.994	104.095	20.144	4.440	0.424
1181.001	678.776	80.003	19.994	104.089	20.146	4.332	0.474
1181.501	678.998	80.001	19.995	104.084	20.144	4.440	0.532
1182.001	679.217	80.003	19.995	104.079	20.143	4.493	0.474
1182.500	679.465	80.002	19.995	104.078	20.149	4.117	0.454
1183.000	679.705	80.002	19.995	104.080	20.162	3.280	0.478
1183.501	679.945	80.000	19.993	104.088	20.141	4.629	0.484
1184.001	680.220	80.001	19.993	104.092	20.148	4.186	0.497
1184.501	680.466	80.001	19.993	104.099	20.147	4.242	0.518
1185.001	680.701	80.002	19.995	104.101	20.148	4.201	0.501
1185.501	680.942	80.002	19.994	104.103	20.148	4.170	0.478
1186.001	681.188	80.002	19.993	104.102	20.143	4.513	0.481
1186.501	681.403	80.003	19.994	104.104	20.146	4.319	0.474
1187.001	681.687	80.002	19.993	104.100	20.145	4.411	0.481
1187.500	681.922	80.001	19.994	104.092	20.145	4.400	0.509
1188.001	682.154	80.003	19.994	104.085	20.146	4.348	0.493
1188.501	682.422	80.002	19.993	104.080	20.149	4.102	0.483
1189.000	682.679	80.003	19.995	104.075	20.145	4.418	0.513
1189.500	682.886	80.003	19.993	104.075	20.148	4.214	0.495
1190.000	683.173	80.002	19.993	104.075	20.149	4.142	0.479
1190.501	683.420	80.002	19.994	104.074	20.143	4.497	0.514
1191.001	683.662	80.002	19.993	104.071	20.151	3.985	0.511
1191.500	683.905	80.003	19.992	104.067	20.146	4.347	0.487
1192.001	684.169	80.004	19.993	104.063	20.137	4.903	0.496
1192.501	684.425	80.004	19.994	104.067	20.145	4.363	0.513
1193.001	684.636	80.004	19.994	104.069	20.143	4.504	0.493
1193.501	684.898	80.003	19.994	104.072	20.148	4.222	0.470
1194.001	685.207	80.003	19.995	104.075	20.147	4.240	0.522
1194.501	685.463	80.004	19.994	104.080	20.144	4.487	0.568
1195.001	685.685	80.004	19.994	104.077	20.144	4.469	0.522
1195.500	686.004	80.005	19.994	104.075	20.140	4.694	0.509
1196.001	686.160	80.005	19.992	104.077	20.146	4.308	0.508
1196.501	686.633	80.005	19.993	104.082	20.144	4.445	0.552
1197.001	687.264	80.004	19.995	104.084	20.147	4.277	0.867
1197.501	686.807	80.004	19.993	104.091	20.147	4.288	0.639
1198.000	687.338	80.003	19.993	104.099	20.144	4.490	0.124
1198.501	687.550	80.003	19.993	104.104	20.148	4.200	0.409
1199.001	687.776	80.003	19.993	104.104	20.144	4.463	0.590
1199.500	688.065	80.005	19.994	104.104	20.144	4.433	0.477
1200.001	688.407	80.003	19.993	104.104	20.151	4.030	0.573
1200.501	688.587	80.004	19.994	104.100	20.146	4.306	0.576
1201.001	688.824	80.003	19.994	104.098	20.142	4.569	0.469
1201.500	689.130	80.004	19.994	104.095	20.137	4.946	0.480
1202.001	689.412	80.003	19.993	104.091	20.141	4.627	0.566
1202.501	689.644	80.003	19.993	104.087	20.141	4.634	0.551
1203.001	689.889	80.002	19.993	104.084	20.147	4.228	0.495
1203.500	690.190	80.004	19.994	104.080	20.141	4.651	0.511
1204.001	690.471	80.005	19.995	104.075	20.145	4.407	0.564
1204.501	690.680	80.002	19.994	104.073	20.143	4.496	0.536
1205.000	691.006	80.002	19.994	104.071	20.143	4.541	0.512
1205.500	691.237	80.002	19.993	104.070	20.146	4.308	0.545
1206.001	691.519	80.002	19.992	104.074	20.138	4.863	0.535
1206.501	691.780	80.002	19.993	104.081	20.144	4.471	0.528
1207.001	692.032	80.004	19.993	104.087	20.140	4.698	0.528
1207.501	692.299	80.004	19.994	104.092	20.141	4.635	0.516
1208.001	692.591	80.004	19.994	104.098	20.143	4.542	0.539
1208.501	692.855	80.002	19.994	104.096	20.145	4.404	0.557
1209.001	693.107	80.002	19.997	104.097	20.144	4.441	0.536
1209.500	693.367	80.005	19.994	104.099	20.145	4.419	0.514
1210.000	693.619	80.003	19.994	104.101	20.141	4.640	0.512
1210.500	693.942	80.003	19.996	104.103	20.140	4.736	0.544
1211.000	694.170	80.004	19.997	104.107	20.142	4.615	0.563
1211.500	694.420	80.003	19.996	104.100	20.140	4.726	0.514
1212.000	694.701	80.003	19.996	104.090	20.139	4.755	0.504
1212.500	694.984	80.004	19.995	104.083	20.143	4.495	0.548
1213.000	695.253	80.003	19.994	104.076	20.146	4.338	0.558
1213.500	695.519	80.004	19.995	104.073	20.143	4.546	0.544
1214.001	695.782	80.005	19.995	104.080	20.143	4.539	0.532
1214.501	696.047	80.005	19.995	104.088	20.142	4.593	0.528
1215.001	696.296	80.004	19.994	104.095	20.146	4.308	0.520
1215.501	696.591	80.004	19.994	104.098	20.143	4.511	0.529
1216.001	696.859	80.004	19.994	104.101	20.142	4.568	0.554
1216.501	697.111	80.005	19.994	104.108	20.143	4.527	0.541
1217.000	697.377	80.005	19.995	104.109	20.143	4.496	0.519
1217.501	697.641	80.005	19.994	104.104	20.146	4.308	0.524
1218.001	697.892	80.005	19.993	104.099	20.142	4.598	0.522
1218.501	698.145	80.004	19.994	104.091	20.145	4.397	0.509
1219.001	698.444	80.005	19.994	104.078	20.145	4.359	0.528
1219.500	698.640	80.005	19.993	104.069	20.143	4.551	0.523
1220.001	698.947	80.004	19.992	104.073	20.140	4.723	0.499
1220.501	699.211	80.005	19.994	104.081	20.143	4.555	0.537
1221.000	699.468	80.005	19.993	104.088	20.139	4.772	0.546
1221.500	699.713	80.004	19.994	104.091	20.145	4.360	0.511
1222.001	699.981	80.004	19.993	104.091	20.139	4.761	0.507
1222.501	700.247	80.004	19.994	104.085	20.141	4.656	0.524
1223.000	700.498	80.003	19.994	104.080	20.142	4.564	0.525
1223.501	700.769	80.003	19.995	104.080	20.142	4.575	0.519
1224.001	701.036	80.005	19.993	104.079	20.138	4.855	0.530
1224.500	701.291	80.004	19.992	104.086	20.142	4.562	0.530
1225.000	701.612	80.004	19.993	104.093	20.139	4.807	0.549
1225.500	701.781	80.004	19.992	104.099	20.141	4.679	0.533
1226.000	702.074	80.003	19.994	104.099	20.141	4.639	0.476
1226.501	702.323	80.004	19.994	104.105	20.140	4.737	0.502
1227.001	702.682	80.002	19.994	104.106	20.140	4.708	0.575
1227.501	702.897	80.002	19.994	104.103	20.140	4.733	0.591
1228.000	703.159	80.002	19.994	104.096	20.141	4.625	0.525
1228.500	703.395	80.002	19.995	104.088	20.142	4.588	0.487
1229.000	703.661	80.000	19.994	104.082	20.143	4.520	0.500
1229.501	703.931	80.002	19.994	104.076	20.139	4.783	0.519
1230.001	704.204	80.003	19.993	104.075	20.143	4.516	0.539
1230.501	704.436	80.002	19.995	104.081	20.139	4.812	0.524
1231.001	704.715	80.002	19.994	104.090	20.146	4.298	0.508
1231.501	704.968	80.003	19.995	104.096	20.147	4.269	0.522
1232.001	705.203	80.003	19.995	104.095	20.141	4.624	0.510
1232.501	705.495	80.004	19.995	104.091	20.143	4.534	0.507
1233.001	705.716	80.005	19.997	104.084	20.142	4.561	0.519
1233.500	706.008	80.002	19.995	104.079	20.140	4.747	0.513
1234.001	706.256	80.003	19.995	104.078	20.142	4.574	0.526
1234.501	706.512	80.003	19.994	104.083	20.144	4.475	0.522
1235.001	706.791	80.001	19.995	104.086	20.143	4.536	0.520
1235.500	707.042	79.999	19.994	104.087	20.146	4.305	0.533
1236.000	707.282	80.002	19.995	104.084	20.148	4.218	0.510
1236.501	707.520	80.002	19.996	104.078	20.142	4.570	0.484
1237.001	707.748	80.003	19.995	104.075	20.141	4.637	0.472
1237.500	708.000	80.003	19.995	104.075	20.150	4.092	0.473
1238.000	708.228	79.999	19.993	104.073	20.145	4.419	0.480
1238.500	708.521	80.001	19.995	104.072	20.144	4.447	0.501
1239.001	708.816	80.000	19.996	104.071	20.147	4.253	0.554
1239.501	709.038	80.001	19.995	104.067	20.149	4.152	0.552
1240.001	709.295	80.001	19.996	104.063	20.149	4.101	0.498
1240.501	709.550	80.000	19.995	104.064	20.145	4.388	0.496
1241.001	709.777	80.002	19.994	104.066	20.146	4.331	0.497
1241.501	710.048	79.999	19.997	104.066	20.149	4.155	0.490
1242.000	710.289	80.002	19.996	104.066	20.149	4.126	0.505
1242.501	710.560	80.002	19.995	104.066	20.142	4.565	0.512
1243.001	710.800	80.002	19.995	104.062	20.143	4.525	0.511
1243.500	711.052	80.003	19.995	104.061	20.144	4.440	0.501
1244.001	711.275	80.001	19.995	104.061	20.143	4.518	0.484
1244.501	711.549	80.001	19.994	104.060	20.143	4.504	0.486
1245.001	711.794	80.000	19.995	104.060	20.137	4.892	0.508
1245.501	712.046	80.003	19.996	104.065	20.138	4.821	0.508
1246.000	712.276	80.001	19.994	104.068	20.142	4.598	0.490
1246.500	712.514	80.001	19.995	104.068	20.138	4.827	0.475
1247.001	712.745	80.003	19.994	104.067	20.143	4.493	0.468
1247.501	713.001	80.003	19.995	104.067	20.140	4.721	0.478
1248.001	713.237	80.003	19.994	104.066	20.145	4.392	0.489
1248.501	713.513	80.002	19.994	104.065	20.145	4.414	0.502
1249.001	713.742	80.002	19.994	104.066	20.144	4.452	0.508
1249.501	713.975	80.002	19.994	104.066	20.145	4.412	0.483
1250.000	714.255	80.005	19.996	104.069	20.149	4.147	0.488
1250.500	714.509	80.004	19.994	104.070	20.140	4.703	0.523
1251.001	714.755	80.003	19.994	104.073	20.146	4.351	0.517
1251.501	715.043	80.004	19.995	104.076	20.147	4.249	0.517
1252.001	715.287	80.004	19.994	104.077	20.140	4.733	0.533
1252.501	715.515	80.004	19.995	104.073	20.139	4.760	0.502
1253.001	715.785	80.004	19.995	104.071	20.139	4.791	0.485
1253.500	716.056	80.004	19.993	104.067	20.145	4.387	0.520
1254.000	716.272	80.002	19.995	104.063	20.145	4.421	0.514
1254.500	716.534	80.002	19.994	104.064	20.140	4.698	0.482
1255.000	716.767	80.005	19.995	104.066	20.149	4.161	0.487
1255.500	717.012	80.004	19.993	104.068	20.144	4.470	0.487
1256.000	717.254	80.004	19.994	104.071	20.144	4.457	0.482
1256.500	717.460	79.999	19.994	104.074	20.141	4.634	0.467
1257.000	717.725	80.000	19.995	104.076	20.143	4.543	0.460
1257.500	717.957	80.002	19.994	104.078	20.144	4.478	0.484
1258.000	718.216	80.003	19.994	104.083	20.145	4.379	0.494
1258.500	718.459	80.002	19.995	104.082	20.138	4.865	0.496
1259.000	718.723	80.000	19.993	104.079	20.143	4.518	0.505
1259.500	718.937	80.001	19.993	104.080	20.142	4.567	0.492
1260.000	719.256	80.002	19.992	104.083	20.146	4.349	0.505
1260.501	719.438	80.000	19.994	104.080	20.145	4.401	0.517
1261.001	719.704	80.001	19.994	104.081	20.144	4.462	0.474
1261.500	719.943	80.004	19.993	104.082	20.137	4.912	0.477
1262.000	720.217	80.003	19.994	104.080	20.148	4.195	0.509
1262.500	720.420	80.002	19.994	104.076	20.144	4.482	0.495
1263.001	720.694	80.002	19.994	104.075	20.141	4.645	0.477
1263.501	720.907	80.003	19.995	104.079	20.147	4.249	0.482
1264.000	721.199	80.004	19.996	104.085	20.148	4.219	0.496
1264.500	721.412	80.002	19.994	104.085	20.149	4.147	0.505
1265.000	721.644	80.004	19.995	104.088	20.148	4.220	0.475
1265.501	721.923	80.004	19.996	104.089	20.147	4.284	0.478
1266.001	722.158	80.004	19.995	104.084	20.148	4.163	0.513
1266.500	722.376	80.002	19.994	104.077	20.146	4.347	0.483
1267.000	722.601	80.002	19.994	104.077	20.146	4.297	0.448
1267.500	722.827	80.004	19.996	104.072	20.142	4.596	0.447
1268.000	723.086	80.002	19.996	104.069	20.143	4.493	0.468
1268.500	723.337	80.001	19.996	104.068	20.144	4.486	0.497
1269.000	723.588	80.003	19.998	104.070	20.150	4.044	0.506
1269.501	723.828	80.004	19.996	104.076	20.143	4.504	0.496
1270.001	724.059	80.003	19.996	104.076	20.143	4.508	0.481
1270.501	724.319	80.003	19.993	104.080	20.142	4.594	0.481
1271.000	724.528	80.004	19.995	104.084	20.141	4.656	0.480
1271.500	724.808	80.001	19.995	104.083	20.144	4.444	0.479
1272.000	725.031	80.004	19.996	104.077	20.149	4.137	0.496
1272.500	725.312	80.003	19.995	104.080	20.146	4.307	0.503
1273.000	725.509	80.003	19.994	104.078	20.146	4.357	0.491
1273.500	725.775	80.004	19.995	104.077	20.145	4.410	0.471
1274.001	726.023	80.004	19.995	104.079	20.143	4.520	0.489
1274.501	726.270	80.006	19.994	104.079	20.144	4.431	0.505
1275.001	726.523	80.005	19.995	104.079	20.146	4.312	0.498
1275.501	726.743	80.003	19.992	104.078	20.141	4.662	0.487
1276.001	726.999	80.006	19.995	104.077	20.147	4.258	0.474
1276.501	727.248	80.003	19.993	104.076	20.141	4.636	0.490
1277.000	727.490	80.004	19.994	104.076	20.141	4.679	0.498
1277.500	727.756	80.002	19.994	104.078	20.141	4.679	0.499
1278.000	727.974	80.005	19.994	104.083	20.142	4.600	0.496
1278.500	728.207	80.003	19.995	104.083	20.147	4.284	0.468
1279.000	728.453	80.003	19.994	104.081	20.139	4.778	0.465
1279.501	728.715	80.004	19.995	104.080	20.140	4.693	0.494
1280.001	728.940	80.003	19.996	104.078	20.147	4.285	0.498
1280.500	729.188	80.003	19.995	104.078	20.145	4.410	0.480
1281.000	729.425	80.003	19.994	104.077	20.139	4.808	0.479
1281.500	729.670	80.004	19.995	104.077	20.140	4.723	0.484
1282.000	729.928	80.003	19.994	104.077	20.146	4.335	0.492
1282.500	730.165	80.003	19.993	104.075	20.146	4.349	0.499
1283.000	730.433	80.003	19.995	104.069	20.139	4.782	0.500
1283.500	730.667	80.004	19.995	104.068	20.147	4.240	0.503
1284.000	730.902	80.004	19.994	104.068	20.143	4.511	0.486
1284.501	731.139	80.003	19.994	104.069	20.141	4.627	0.471
1285.001	731.384	80.002	19.994	104.069	20.144	4.472	0.477
1285.501	731.662	80.002	19.994	104.068	20.144	4.459	0.503
1286.001	731.914	80.004	19.995	104.068	20.146	4.306	0.526
1286.500	732.145	80.003	19.993	104.068	20.141	4.641	0.506
1287.001	732.366	80.004	19.993	104.070	20.144	4.432	0.467
1287.501	732.603	80.002	19.993	104.075	20.143	4.527	0.455
1288.001	732.887	80.002	19.994	104.078	20.145	4.410	0.489
1288.501	733.115	80.003	19.993	104.079	20.145	4.388	0.517
1289.001	733.359	80.003	19.994	104.079	20.145	4.383	0.492
1289.501	733.579	80.001	19.994	104.077	20.145	4.386	0.468
1290.001	733.846	80.004	19.994	104.074	20.146	4.345	0.475
1290.501	734.100	80.003	19.993	104.074	20.148	4.213	0.504
1291.001	734.326	80.004	19.992	104.076	20.144	4.437	0.501
1291.501	734.544	80.003	19.996	104.080	20.148	4.179	0.462
1292.001	734.779	80.004	19.995	104.084	20.144	4.489	0.448
1292.501	735.045	80.004	19.996	104.086	20.146	4.343	0.477
1293.001	735.278	80.004	19.993	104.086	20.142	4.569	0.500
1293.501	735.536	80.004	19.995	104.084	20.145	4.370	0.495
1294.001	735.769	80.005	19.995	104.081	20.144	4.466	0.491
1294.501	736.028	80.005	19.994	104.077	20.143	4.513	0.492
1295.001	736.228	80.003	19.993	104.078	20.140	4.690	0.475
1295.500	736.489	80.005	19.995	104.078	20.141	4.636	0.460
1296.000	736.776	80.005	19.994	104.080	20.139	4.784	0.504
1296.500	736.968	80.004	19.996	104.080	20.141	4.672	0.513
1297.001	737.252	80.005	19.993	104.081	20.144	4.444	0.478
1297.501	737.491	80.006	19.995	104.078	20.146	4.296	0.500
1298.001	737.727	80.007	19.994	104.076	20.141	4.666	0.499
1298.501	737.977	80.005	19.994	104.073	20.141	4.636	0.480
1299.000	738.182	80.004	19.995	104.070	20.140	4.690	0.470
1299.501	738.443	80.004	19.994	104.067	20.137	4.916	0.460
1300.001	738.712	80.006	19.995	104.072	20.136	4.963	0.498
1300.501	738.957	80.004	19.994	104.073	20.134	5.128	0.522
1301.001	739.237	80.005	19.993	104.073	20.137	4.953	0.520
1301.501	739.489	80.003	19.994	104.073	20.139	4.821	0.529
1302.001	739.706	80.006	19.994	104.072	20.141	4.687	0.501
1302.501	739.984	80.004	19.994	104.066	20.142	4.564	0.482
1303.001	740.266	80.004	19.994	104.067	20.140	4.691	0.527
1303.501	740.492	80.004	19.994	104.069	20.143	4.528	0.534
1304.001	740.742	80.004	19.994	104.072	20.137	4.952	0.492
1304.501	741.004	80.004	19.995	104.080	20.143	4.519	0.494
1305.000	741.281	80.003	19.995	104.084	20.142	4.589	0.526
1305.501	741.524	80.002	19.994	104.085	20.141	4.678	0.529
1306.001	741.804	80.003	19.994	104.086	20.140	4.725	0.521
1306.501	742.072	80.002	19.994	104.086	20.145	4.376	0.535
1307.001	742.302	80.003	19.994	104.079	20.139	4.782	0.523
1307.501	742.567	80.003	19.994	104.075	20.137	4.916	0.497
1308.001	742.809	80.003	19.995	104.074	20.137	4.936	0.501
1308.501	743.068	80.002	19.994	104.073	20.136	4.963	0.504
1309.001	743.338	80.001	19.994	104.076	20.143	4.511	0.515
