Sample ID:	C:\MCC\MCC Cal\Test\Polyester_Microfiber_Sheet_MCC_30K_min_211209_R1.txt
Sample Weight (mg):	4.19
Heating Rate (C/s):	0.5
Combustor Temp (C):	900
N2 Flow Rate (cc/min):	80
O2 Flow Rate (cc/min):	20
Calibration File:	C:\MCC\MCC Cal\Coeff1 JN10440_30_210304.txt.txt
T Correction Coefficients:	0	1.024463	0
Time Shift (s):	14
*
Time (s)	Temperature (C)	N2 flow rate (cc/min)	O2 flow rate (cc/min)	Flow Rate (cc/min)	Oxygen (%)	HRR (W/g)	Heating rate (C/s)
0.000	108.610	80.009	19.994	103.070	20.145	-0.101	0.019
0.500	108.569	80.007	19.994	103.074	20.143	0.032	-0.027
1.000	108.569	80.007	19.995	103.078	20.142	0.105	-0.050
1.500	108.610	80.008	19.994	103.082	20.140	0.257	-0.000
2.000	108.591	80.007	19.994	103.082	20.140	0.282	0.032
2.500	108.600	80.007	19.995	103.080	20.143	0.046	0.006
3.000	108.610	80.007	19.995	103.076	20.140	0.292	0.004
3.500	108.596	80.007	19.995	103.069	20.143	0.061	0.008
4.000	108.594	80.006	19.993	103.065	20.143	0.025	-0.009
4.500	108.604	80.006	19.995	103.069	20.143	0.048	-0.004
5.001	108.598	80.007	19.994	103.071	20.138	0.477	0.006
5.500	108.602	80.006	19.995	103.075	20.142	0.101	0.001
6.000	108.600	80.006	19.995	103.078	20.139	0.334	0.000
6.500	108.611	80.006	19.994	103.078	20.143	0.082	0.005
7.001	108.631	80.005	19.993	103.073	20.140	0.303	0.020
7.501	108.576	80.010	19.997	103.068	20.140	0.284	-0.002
8.000	108.585	80.006	19.996	103.069	20.139	0.368	-0.041
8.500	108.585	80.007	19.996	103.072	20.141	0.191	-0.019
9.001	108.577	80.006	19.996	103.076	20.141	0.234	0.000
9.500	108.575	80.006	19.995	103.084	20.139	0.328	-0.009
10.000	108.591	80.006	19.995	103.087	20.140	0.305	0.002
10.500	108.608	80.006	19.995	103.085	20.139	0.332	0.024
11.000	108.604	80.006	19.995	103.080	20.140	0.269	0.023
11.500	108.591	80.007	19.996	103.076	20.138	0.434	-0.002
12.000	108.601	80.006	19.995	103.070	20.141	0.225	-0.010
12.500	108.583	80.007	19.995	103.071	20.138	0.406	-0.005
13.000	108.608	80.007	19.994	103.074	20.139	0.398	-0.000
13.500	108.610	80.006	19.995	103.079	20.137	0.549	0.017
14.000	108.573	80.007	19.995	103.083	20.138	0.425	-0.004
14.500	108.567	80.007	19.995	103.089	20.137	0.512	-0.039
15.000	108.593	80.006	19.995	103.090	20.135	0.707	-0.011
15.500	108.592	80.008	19.995	103.091	20.135	0.667	0.023
16.000	108.587	80.007	19.995	103.091	20.135	0.682	0.010
16.500	108.601	80.006	19.996	103.093	20.135	0.697	0.001
17.000	108.629	80.007	19.994	103.098	20.133	0.796	0.025
17.500	108.630	80.007	19.996	103.106	20.134	0.758	0.035
18.000	108.616	80.008	19.996	103.112	20.134	0.724	0.008
18.500	108.614	80.007	19.994	103.118	20.137	0.520	-0.014
19.000	108.624	80.009	19.995	103.119	20.134	0.769	-0.005
19.500	108.592	80.008	19.996	103.116	20.133	0.817	-0.008
20.000	108.619	80.008	19.995	103.112	20.132	0.914	-0.013
20.500	108.593	80.007	19.995	103.110	20.131	1.009	-0.001
21.000	108.605	80.007	19.996	103.112	20.131	0.990	-0.006
21.500	108.611	80.009	19.996	103.120	20.131	0.990	0.002
22.000	108.667	80.008	19.996	103.133	20.128	1.193	0.040
22.500	108.625	80.008	19.996	103.146	20.129	1.102	0.038
23.000	108.615	80.008	19.995	103.155	20.128	1.203	-0.019
23.500	108.650	80.008	19.995	103.163	20.127	1.294	-0.013
24.000	108.693	80.008	19.995	103.168	20.126	1.372	0.051
24.500	108.693	80.007	19.995	103.168	20.127	1.258	0.060
25.000	108.733	80.007	19.994	103.169	20.126	1.328	0.042
25.500	108.746	80.008	19.995	103.168	20.128	1.201	0.047
26.000	108.731	80.007	19.994	103.168	20.123	1.631	0.025
26.500	108.755	80.007	19.994	103.168	20.125	1.471	0.003
27.000	108.775	80.008	19.994	103.168	20.123	1.573	0.026
27.500	108.777	80.008	19.994	103.168	20.119	1.866	0.033
28.000	108.822	80.007	19.993	103.174	20.119	1.876	0.034
28.500	108.804	80.007	19.994	103.181	20.118	2.005	0.037
29.000	108.855	80.008	19.993	103.193	20.118	1.965	0.030
29.500	108.872	80.007	19.993	103.209	20.118	2.017	0.050
30.000	108.909	80.007	19.993	103.225	20.115	2.243	0.060
30.500	108.932	80.006	19.993	103.239	20.113	2.355	0.057
31.000	108.974	80.006	19.993	103.248	20.110	2.614	0.063
31.500	109.014	80.007	19.994	103.255	20.105	2.949	0.074
32.001	109.029	80.008	19.993	103.260	20.109	2.696	0.069
32.500	109.088	80.007	19.994	103.268	20.105	2.968	0.065
33.000	109.130	80.008	19.995	103.275	20.102	3.200	0.088
33.500	109.177	80.008	19.994	103.282	20.102	3.232	0.095
34.000	109.216	80.007	19.994	103.287	20.101	3.297	0.087
34.500	109.281	80.007	19.993	103.290	20.100	3.354	0.095
35.000	109.329	80.007	19.994	103.290	20.100	3.344	0.109
35.500	109.376	80.008	19.993	103.290	20.104	3.076	0.104
36.000	109.406	80.007	19.994	103.296	20.099	3.462	0.085
36.500	109.487	80.009	19.994	103.303	20.098	3.551	0.094
37.000	109.571	80.009	19.994	103.307	20.098	3.557	0.138
37.500	109.612	80.009	19.994	103.311	20.092	3.947	0.145
38.000	109.712	80.008	19.995	103.317	20.096	3.707	0.133
38.500	109.802	80.009	19.994	103.318	20.091	4.051	0.166
39.000	109.821	80.008	19.994	103.318	20.093	3.943	0.150
39.500	109.917	80.009	19.994	103.321	20.091	4.071	0.112
40.000	109.975	80.009	19.993	103.321	20.092	3.951	0.134
40.500	110.055	80.009	19.994	103.320	20.091	4.067	0.146
41.000	110.109	80.008	19.993	103.320	20.088	4.265	0.136
41.501	110.224	80.009	19.994	103.319	20.090	4.162	0.151
42.000	110.286	80.010	19.993	103.319	20.090	4.103	0.173
42.500	110.379	80.009	19.993	103.322	20.091	4.092	0.166
43.000	110.475	80.010	19.994	103.322	20.091	4.042	0.172
43.500	110.562	80.010	19.994	103.323	20.088	4.297	0.186
44.000	110.666	80.008	19.994	103.323	20.088	4.261	0.187
44.500	110.743	80.008	19.995	103.323	20.090	4.116	0.186
45.000	110.810	80.010	19.994	103.327	20.086	4.434	0.162
45.500	110.964	80.009	19.993	103.332	20.084	4.562	0.182
46.000	111.029	80.010	19.994	103.333	20.086	4.476	0.220
46.500	111.150	80.008	19.994	103.337	20.086	4.436	0.203
47.000	111.264	80.009	19.994	103.341	20.085	4.507	0.210
47.500	111.364	80.008	19.994	103.340	20.084	4.600	0.225
48.000	111.505	80.008	19.994	103.342	20.083	4.665	0.227
48.500	111.616	80.008	19.994	103.346	20.086	4.410	0.246
49.000	111.685	80.009	19.993	103.345	20.082	4.743	0.216
49.500	111.825	80.010	19.994	103.344	20.085	4.516	0.195
50.000	111.950	80.009	19.994	103.342	20.085	4.495	0.237
50.500	112.085	80.009	19.994	103.339	20.085	4.488	0.262
51.000	112.174	80.008	19.994	103.339	20.084	4.632	0.242
51.500	112.306	80.009	19.994	103.337	20.087	4.345	0.222
52.000	112.410	80.009	19.994	103.335	20.086	4.440	0.229
52.500	112.574	80.008	19.993	103.335	20.086	4.467	0.252
53.000	112.690	80.008	19.995	103.333	20.085	4.548	0.274
53.500	112.827	80.008	19.994	103.332	20.083	4.664	0.266
54.000	112.973	80.007	19.994	103.335	20.083	4.666	0.268
54.501	113.086	80.007	19.993	103.339	20.083	4.659	0.271
55.000	113.263	80.007	19.994	103.339	20.084	4.628	0.274
55.500	113.371	80.007	19.994	103.337	20.084	4.611	0.287
56.000	113.540	80.007	19.995	103.333	20.081	4.805	0.281
56.501	113.643	80.007	19.994	103.331	20.083	4.699	0.275
57.001	113.833	80.007	19.993	103.326	20.083	4.710	0.283
57.500	113.958	80.006	19.994	103.325	20.081	4.851	0.304
58.000	114.083	80.006	19.995	103.326	20.081	4.845	0.283
58.500	114.255	80.007	19.994	103.327	20.082	4.752	0.274
59.000	114.431	80.006	19.995	103.326	20.079	5.014	0.322
59.500	114.565	80.008	19.993	103.326	20.082	4.723	0.329
60.000	114.759	80.007	19.993	103.326	20.081	4.851	0.319
60.500	114.831	80.007	19.994	103.327	20.082	4.716	0.297
61.000	115.051	80.007	19.994	103.326	20.080	4.896	0.279
61.500	115.190	80.007	19.993	103.325	20.081	4.834	0.326
62.001	115.349	80.007	19.994	103.325	20.084	4.605	0.328
62.501	115.467	80.008	19.993	103.324	20.085	4.546	0.287
63.000	115.679	80.009	19.994	103.324	20.084	4.596	0.303
63.500	115.820	80.008	19.994	103.326	20.084	4.619	0.341
64.000	115.983	80.007	19.994	103.330	20.079	4.944	0.328
64.500	116.187	80.007	19.994	103.331	20.081	4.862	0.336
65.001	116.303	80.007	19.994	103.333	20.082	4.780	0.344
65.501	116.494	80.008	19.994	103.332	20.080	4.915	0.314
66.000	116.644	80.009	19.994	103.331	20.083	4.704	0.324
66.500	116.805	80.007	19.993	103.328	20.082	4.742	0.326
67.000	116.945	80.009	19.993	103.327	20.085	4.527	0.306
67.500	117.156	80.007	19.993	103.326	20.084	4.620	0.325
68.000	117.308	80.008	19.994	103.329	20.082	4.782	0.357
68.500	117.486	80.008	19.994	103.328	20.084	4.626	0.347
69.000	117.672	80.008	19.993	103.334	20.081	4.841	0.347
69.501	117.813	80.008	19.995	103.334	20.083	4.698	0.345
70.001	118.013	80.007	19.994	103.334	20.083	4.707	0.334
70.500	118.186	80.007	19.994	103.331	20.084	4.614	0.357
71.000	118.370	80.006	19.994	103.331	20.082	4.776	0.365
71.500	118.532	80.009	19.994	103.331	20.083	4.675	0.352
72.000	118.706	80.008	19.994	103.332	20.082	4.717	0.341
72.500	118.891	80.008	19.994	103.333	20.085	4.536	0.347
73.000	119.027	80.006	19.994	103.333	20.086	4.418	0.340
73.500	119.251	80.007	19.995	103.334	20.085	4.496	0.341
74.000	119.424	80.006	19.994	103.329	20.084	4.582	0.379
74.500	119.593	80.007	19.994	103.330	20.082	4.776	0.369
75.000	119.786	80.008	19.994	103.332	20.088	4.327	0.351
75.500	120.005	80.007	19.995	103.332	20.081	4.843	0.387
76.001	120.134	80.007	19.994	103.336	20.081	4.835	0.380
76.501	120.320	80.007	19.995	103.341	20.084	4.614	0.332
77.000	120.553	80.006	19.994	103.342	20.086	4.473	0.367
77.500	120.691	80.008	19.994	103.341	20.086	4.422	0.395
78.000	120.872	80.007	19.994	103.341	20.082	4.739	0.345
78.500	121.112	80.007	19.995	103.336	20.083	4.669	0.370
79.000	121.283	80.007	19.994	103.333	20.084	4.616	0.416
79.500	121.490	80.006	19.995	103.335	20.084	4.587	0.395
80.000	121.688	80.006	19.995	103.339	20.086	4.437	0.391
80.500	121.920	80.007	19.994	103.345	20.085	4.546	0.417
81.001	122.100	80.008	19.995	103.349	20.083	4.637	0.421
81.501	122.302	80.009	19.996	103.353	20.083	4.696	0.397
82.000	122.515	80.006	19.996	103.354	20.080	4.905	0.399
82.500	122.678	80.007	19.996	103.356	20.085	4.492	0.395
83.000	122.899	80.008	19.995	103.357	20.082	4.785	0.380
83.501	123.069	80.008	19.995	103.360	20.084	4.585	0.388
84.001	123.306	80.006	19.995	103.361	20.087	4.386	0.399
84.500	123.461	80.007	19.994	103.356	20.080	4.893	0.400
85.000	123.708	80.006	19.994	103.352	20.084	4.627	0.397
85.500	123.890	80.006	19.994	103.347	20.087	4.403	0.415
86.001	124.126	80.007	19.994	103.342	20.086	4.409	0.423
86.501	124.351	80.007	19.994	103.342	20.084	4.561	0.439
87.001	124.562	80.008	19.994	103.345	20.083	4.673	0.449
87.501	124.760	80.006	19.995	103.349	20.086	4.443	0.423
88.000	124.961	80.006	19.994	103.354	20.085	4.544	0.404
88.501	125.128	80.006	19.995	103.361	20.086	4.440	0.384
89.001	125.398	80.006	19.995	103.360	20.087	4.396	0.402
89.501	125.593	80.005	19.994	103.362	20.085	4.493	0.451
90.001	125.802	80.006	19.994	103.358	20.084	4.588	0.434
90.501	126.029	80.006	19.995	103.353	20.082	4.734	0.420
91.001	126.224	80.007	19.995	103.347	20.084	4.565	0.429
91.500	126.449	80.006	19.995	103.347	20.083	4.647	0.421
92.000	126.679	80.007	19.995	103.343	20.082	4.721	0.437
92.500	126.891	80.006	19.994	103.346	20.089	4.249	0.449
93.000	127.084	80.006	19.994	103.350	20.083	4.637	0.424
93.500	127.316	80.006	19.995	103.355	20.084	4.626	0.415
94.000	127.551	80.007	19.995	103.359	20.086	4.447	0.446
94.500	127.740	80.006	19.994	103.362	20.085	4.525	0.445
95.000	127.964	80.007	19.994	103.360	20.084	4.598	0.418
95.500	128.188	80.007	19.994	103.358	20.084	4.577	0.431
96.001	128.392	80.007	19.994	103.357	20.086	4.428	0.438
96.501	128.614	80.008	19.994	103.354	20.082	4.727	0.427
97.001	128.881	80.007	19.995	103.353	20.083	4.709	0.457
97.501	129.073	80.007	19.994	103.351	20.087	4.369	0.473
98.001	129.280	80.005	19.994	103.351	20.086	4.454	0.429
98.500	129.518	80.007	19.995	103.347	20.084	4.571	0.423
99.000	129.744	80.006	19.995	103.343	20.087	4.373	0.455
99.501	129.981	80.009	19.994	103.339	20.086	4.436	0.463
100.001	130.205	80.008	19.995	103.339	20.084	4.584	0.462
100.500	130.372	80.010	19.994	103.338	20.084	4.601	0.426
101.001	130.670	80.008	19.994	103.340	20.085	4.527	0.428
101.501	130.886	80.009	19.994	103.343	20.087	4.405	0.489
102.000	131.102	80.009	19.994	103.346	20.085	4.540	0.473
102.500	131.336	80.009	19.995	103.347	20.087	4.371	0.441
103.001	131.573	80.008	19.994	103.349	20.088	4.255	0.461
103.501	131.799	80.009	19.994	103.352	20.088	4.305	0.467
104.001	132.016	80.009	19.994	103.353	20.087	4.405	0.453
104.501	132.226	80.007	19.995	103.349	20.086	4.460	0.436
105.000	132.476	80.009	19.995	103.347	20.086	4.480	0.444
105.500	132.695	80.010	19.995	103.343	20.085	4.518	0.464
106.000	132.939	80.009	19.994	103.336	20.084	4.563	0.466
106.501	133.180	80.009	19.995	103.335	20.085	4.483	0.473
107.002	133.408	80.008	19.996	103.339	20.086	4.438	0.477
107.501	133.654	80.009	19.994	103.343	20.085	4.554	0.472
108.001	133.913	80.008	19.995	103.348	20.084	4.573	0.490
108.501	134.116	80.009	19.994	103.352	20.085	4.546	0.484
109.000	134.344	80.008	19.995	103.351	20.084	4.561	0.446
109.500	134.585	80.008	19.996	103.347	20.084	4.588	0.450
110.000	134.813	80.007	19.996	103.344	20.088	4.291	0.469
110.501	135.073	80.007	19.995	103.343	20.088	4.301	0.478
111.001	135.303	80.008	19.995	103.345	20.085	4.506	0.489
111.500	135.542	80.007	19.996	103.348	20.084	4.624	0.480
112.000	135.795	80.007	19.995	103.352	20.085	4.506	0.481
112.501	136.048	80.007	19.995	103.349	20.086	4.415	0.498
113.001	136.247	80.008	19.995	103.345	20.085	4.533	0.479
113.501	136.511	80.007	19.995	103.346	20.084	4.571	0.458
114.000	136.743	80.008	19.995	103.343	20.085	4.531	0.479
114.500	136.984	80.008	19.995	103.338	20.089	4.213	0.484
115.001	137.228	80.008	19.995	103.340	20.084	4.626	0.479
115.501	137.513	80.008	19.995	103.342	20.084	4.591	0.508
116.000	137.699	80.006	19.996	103.335	20.086	4.424	0.500
116.500	137.984	80.007	19.996	103.335	20.086	4.464	0.471
117.000	138.204	80.008	19.996	103.338	20.085	4.512	0.488
117.500	138.464	80.008	19.995	103.341	20.085	4.556	0.492
118.000	138.706	80.008	19.995	103.338	20.084	4.571	0.491
118.500	138.947	80.007	19.995	103.342	20.085	4.554	0.493
119.000	139.209	80.007	19.995	103.340	20.084	4.569	0.493
119.500	139.423	80.008	19.995	103.339	20.084	4.598	0.490
120.001	139.701	80.010	19.994	103.338	20.087	4.368	0.484
120.501	139.944	80.010	19.994	103.340	20.087	4.404	0.506
121.001	140.168	80.008	19.994	103.338	20.087	4.345	0.494
121.500	140.395	80.008	19.994	103.342	20.086	4.466	0.459
122.000	140.695	80.009	19.994	103.344	20.085	4.493	0.489
122.500	140.935	80.009	19.995	103.342	20.085	4.531	0.533
123.001	141.173	80.008	19.994	103.345	20.084	4.590	0.509
123.501	141.415	80.010	19.994	103.348	20.084	4.632	0.479
124.000	141.652	80.009	19.994	103.341	20.084	4.621	0.480
124.500	141.921	80.008	19.994	103.338	20.082	4.773	0.492
125.000	142.158	80.010	19.994	103.342	20.082	4.735	0.506
125.500	142.401	80.010	19.993	103.343	20.083	4.680	0.493
126.000	142.696	80.010	19.994	103.344	20.081	4.834	0.509
126.500	142.924	80.010	19.993	103.349	20.084	4.615	0.531
127.000	143.167	80.008	19.994	103.351	20.086	4.476	0.497
127.500	143.412	80.009	19.994	103.348	20.083	4.682	0.480
128.000	143.715	80.010	19.994	103.342	20.083	4.687	0.518
128.500	143.970	80.010	19.993	103.339	20.085	4.556	0.553
129.000	144.160	80.010	19.995	103.336	20.086	4.408	0.501
129.500	144.462	80.009	19.994	103.333	20.086	4.446	0.469
130.000	144.689	80.010	19.993	103.331	20.087	4.362	0.511
130.500	144.933	80.010	19.994	103.333	20.083	4.661	0.500
131.000	145.204	80.010	19.994	103.334	20.086	4.410	0.493
131.500	145.432	80.011	19.992	103.336	20.087	4.332	0.507
132.000	145.722	80.009	19.994	103.337	20.087	4.360	0.508
132.500	145.971	80.009	19.993	103.335	20.086	4.446	0.529
133.000	146.202	80.009	19.994	103.332	20.088	4.307	0.510
133.500	146.436	80.008	19.994	103.330	20.087	4.400	0.472
134.000	146.731	80.008	19.993	103.327	20.083	4.703	0.497
134.500	146.968	80.009	19.994	103.325	20.088	4.322	0.530
135.000	147.229	80.010	19.994	103.324	20.085	4.524	0.515
135.500	147.456	80.009	19.993	103.325	20.082	4.737	0.493
136.000	147.712	80.010	19.994	103.323	20.085	4.541	0.485
136.500	147.956	80.008	19.994	103.323	20.085	4.520	0.492
137.001	148.237	80.005	19.994	103.323	20.086	4.442	0.513
137.500	148.482	80.008	19.994	103.324	20.084	4.623	0.525
138.000	148.734	80.009	19.995	103.325	20.088	4.290	0.511
138.500	148.985	80.009	19.993	103.326	20.088	4.290	0.500
139.000	149.244	80.005	19.994	103.326	20.086	4.410	0.507
139.500	149.484	80.007	19.993	103.326	20.086	4.425	0.505
140.000	149.753	80.005	19.994	103.326	20.089	4.225	0.504
140.500	149.996	80.007	19.994	103.325	20.083	4.670	0.510
141.000	150.276	80.009	19.994	103.325	20.088	4.259	0.517
141.500	150.545	80.006	19.994	103.327	20.085	4.512	0.536
142.000	150.756	80.009	19.993	103.329	20.085	4.547	0.514
142.500	151.036	80.009	19.994	103.329	20.088	4.311	0.486
143.000	151.299	80.008	19.996	103.330	20.089	4.244	0.517
143.500	151.557	80.007	19.995	103.329	20.089	4.178	0.532
144.000	151.806	80.005	19.994	103.327	20.090	4.126	0.514
144.500	152.052	80.007	19.993	103.327	20.089	4.180	0.501
145.000	152.307	80.006	19.995	103.327	20.086	4.469	0.498
145.500	152.585	80.004	19.994	103.326	20.089	4.214	0.517
146.000	152.829	80.004	19.995	103.326	20.089	4.216	0.528
146.500	153.102	80.008	19.995	103.327	20.088	4.259	0.519
147.000	153.334	80.010	19.995	103.327	20.087	4.353	0.511
147.500	153.575	80.006	19.994	103.327	20.087	4.372	0.489
148.000	153.830	80.008	19.994	103.327	20.088	4.296	0.484
148.500	154.062	80.007	19.994	103.328	20.090	4.100	0.491
149.000	154.318	80.008	19.994	103.327	20.086	4.461	0.487
149.500	154.569	80.007	19.993	103.327	20.087	4.400	0.498
150.000	154.816	80.008	19.994	103.327	20.090	4.149	0.503
150.500	155.094	80.007	19.994	103.327	20.088	4.260	0.511
151.000	155.330	80.005	19.996	103.326	20.087	4.353	0.519
151.500	155.558	80.005	19.995	103.326	20.090	4.163	0.490
152.000	155.868	80.006	19.994	103.326	20.086	4.441	0.501
152.500	156.086	80.010	19.994	103.326	20.087	4.338	0.533
153.000	156.372	80.008	19.994	103.326	20.086	4.461	0.516
153.500	156.624	80.007	19.993	103.324	20.085	4.532	0.521
154.000	156.840	80.008	19.994	103.323	20.090	4.170	0.503
154.500	157.099	80.006	19.994	103.323	20.087	4.387	0.472
155.000	157.361	80.007	19.994	103.324	20.089	4.206	0.498
155.500	157.625	80.006	19.994	103.324	20.087	4.359	0.523
156.000	157.871	80.008	19.994	103.325	20.090	4.146	0.518
156.500	158.127	80.006	19.994	103.326	20.087	4.336	0.506
157.000	158.371	80.007	19.994	103.326	20.088	4.321	0.501
157.500	158.618	80.007	19.993	103.325	20.090	4.165	0.496
158.000	158.913	80.006	19.995	103.324	20.089	4.197	0.516
158.500	159.144	80.008	19.993	103.323	20.091	4.081	0.533
159.000	159.403	80.009	19.994	103.323	20.086	4.431	0.508
159.501	159.644	80.008	19.993	103.323	20.090	4.140	0.496
160.001	159.919	80.006	19.993	103.323	20.089	4.243	0.508
160.500	160.189	80.005	19.994	103.325	20.088	4.285	0.530
161.000	160.391	80.009	19.993	103.321	20.089	4.192	0.508
161.500	160.684	80.009	19.993	103.318	20.088	4.272	0.484
162.000	160.923	80.008	19.995	103.317	20.094	3.834	0.514
162.500	161.207	80.007	19.994	103.317	20.091	4.060	0.528
163.000	161.436	80.008	19.993	103.315	20.092	3.965	0.518
163.500	161.704	80.007	19.994	103.320	20.091	4.068	0.505
164.000	161.945	80.006	19.994	103.322	20.090	4.167	0.503
164.500	162.190	80.006	19.993	103.323	20.092	3.967	0.497
165.000	162.457	80.007	19.994	103.324	20.090	4.122	0.500
165.500	162.725	80.007	19.993	103.324	20.093	3.907	0.523
166.000	162.962	80.008	19.992	103.321	20.096	3.697	0.519
166.500	163.184	80.007	19.993	103.318	20.093	3.925	0.482
167.000	163.453	80.008	19.994	103.314	20.093	3.866	0.475
167.500	163.713	80.005	19.993	103.312	20.094	3.844	0.510
168.000	163.953	80.008	19.995	103.311	20.094	3.855	0.514
168.500	164.194	80.006	19.995	103.313	20.092	3.952	0.490
169.000	164.455	80.004	19.994	103.314	20.093	3.876	0.492
169.500	164.718	80.008	19.995	103.316	20.094	3.808	0.513
170.000	165.004	80.005	19.995	103.311	20.095	3.779	0.536
170.500	165.258	80.003	19.994	103.306	20.093	3.914	0.545
171.000	165.506	80.006	19.994	103.304	20.093	3.905	0.521
171.500	165.767	80.006	19.994	103.302	20.092	3.971	0.505
172.000	166.032	80.007	19.994	103.302	20.091	4.036	0.517
172.500	166.278	80.005	19.994	103.303	20.092	4.000	0.519
173.000	166.510	80.006	19.995	103.305	20.094	3.835	0.495
173.500	166.782	80.009	19.994	103.305	20.093	3.937	0.491
174.000	167.025	80.008	19.994	103.305	20.094	3.854	0.509
174.500	167.292	80.008	19.995	103.305	20.090	4.143	0.513
175.000	167.513	80.007	19.995	103.302	20.094	3.798	0.499
175.500	167.755	80.006	19.995	103.300	20.093	3.905	0.475
176.001	168.041	80.006	19.994	103.297	20.091	4.093	0.495
176.501	168.279	80.006	19.994	103.297	20.092	3.979	0.526
177.001	168.526	80.006	19.996	103.299	20.094	3.863	0.505
177.501	168.750	80.006	19.995	103.302	20.093	3.892	0.478
178.000	169.004	80.009	19.995	103.302	20.092	3.966	0.475
178.500	169.311	80.006	19.994	103.303	20.092	3.954	0.519
179.001	169.551	80.007	19.994	103.300	20.090	4.103	0.554
179.501	169.798	80.006	19.994	103.293	20.091	4.057	0.517
180.000	170.059	80.008	19.994	103.292	20.090	4.101	0.497
180.500	170.305	80.009	19.995	103.293	20.092	4.002	0.507
181.001	170.595	80.006	19.995	103.293	20.095	3.757	0.521
181.501	170.802	80.010	19.995	103.297	20.095	3.762	0.517
182.001	171.113	80.006	19.995	103.299	20.092	3.998	0.508
182.501	171.326	80.009	19.994	103.297	20.091	4.095	0.521
183.000	171.582	80.010	19.995	103.296	20.091	4.048	0.497
183.501	171.812	80.006	19.996	103.293	20.094	3.831	0.478
184.001	172.074	80.010	19.995	103.288	20.093	3.909	0.489
184.501	172.290	80.007	19.995	103.288	20.092	3.994	0.485
185.001	172.574	80.009	19.995	103.287	20.091	4.029	0.489
185.501	172.821	80.008	19.995	103.288	20.093	3.937	0.515
186.000	173.088	80.008	19.994	103.291	20.095	3.743	0.522
186.501	173.322	80.011	19.995	103.291	20.094	3.825	0.508
187.001	173.541	80.008	19.995	103.289	20.093	3.937	0.477
187.500	173.812	80.012	19.994	103.290	20.093	3.865	0.471
188.000	174.040	80.009	19.994	103.288	20.094	3.850	0.494
188.500	174.329	80.010	19.994	103.285	20.090	4.109	0.508
189.000	174.540	80.007	19.995	103.286	20.091	4.088	0.509
189.500	174.819	80.008	19.994	103.289	20.093	3.909	0.495
190.000	175.051	80.009	19.995	103.290	20.092	3.954	0.500
190.500	175.306	80.010	19.993	103.291	20.090	4.116	0.499
191.001	175.559	80.007	19.994	103.291	20.092	3.998	0.497
191.501	175.789	80.009	19.995	103.290	20.093	3.916	0.495
192.000	176.051	80.006	19.994	103.287	20.092	3.952	0.487
192.500	176.269	80.008	19.995	103.285	20.090	4.162	0.486
193.000	176.522	80.008	19.994	103.287	20.093	3.935	0.476
193.501	176.805	80.010	19.994	103.287	20.093	3.907	0.504
194.001	177.053	80.007	19.995	103.286	20.093	3.903	0.533
194.501	177.316	80.008	19.995	103.289	20.093	3.890	0.521
195.001	177.526	80.007	19.994	103.291	20.092	3.970	0.492
195.500	177.772	80.007	19.994	103.289	20.094	3.810	0.464
196.000	178.033	80.008	19.995	103.289	20.094	3.810	0.481
196.500	178.245	80.004	19.995	103.289	20.095	3.766	0.490
197.000	178.502	80.008	19.994	103.287	20.092	3.949	0.471
197.500	178.755	80.009	19.996	103.286	20.095	3.787	0.490
198.000	179.013	80.007	19.996	103.288	20.094	3.814	0.511
198.500	179.268	80.006	19.995	103.288	20.091	4.019	0.512
199.000	179.503	80.006	19.994	103.287	20.093	3.913	0.502
199.500	179.758	80.007	19.995	103.286	20.091	4.034	0.490
200.001	179.946	80.008	19.995	103.287	20.094	3.863	0.467
200.501	180.236	80.007	19.994	103.288	20.092	3.983	0.460
201.000	180.498	80.007	19.995	103.288	20.092	3.985	0.515
201.501	180.726	80.007	19.996	103.294	20.095	3.764	0.521
202.001	180.968	80.009	19.996	103.300	20.097	3.595	0.480
202.501	181.238	80.008	19.996	103.298	20.095	3.728	0.491
203.001	181.477	80.007	19.997	103.297	20.096	3.642	0.510
203.501	181.736	80.008	19.996	103.297	20.096	3.665	0.504
204.000	181.930	80.007	19.995	103.292	20.094	3.821	0.476
204.500	182.194	80.009	19.995	103.286	20.094	3.789	0.455
205.000	182.476	80.007	19.995	103.285	20.094	3.789	0.502
205.501	182.693	80.007	19.995	103.285	20.093	3.896	0.523
206.001	182.944	80.009	19.994	103.284	20.094	3.806	0.484
206.500	183.182	80.008	19.995	103.285	20.095	3.751	0.479
207.001	183.409	80.009	19.995	103.288	20.094	3.814	0.477
207.501	183.662	80.007	19.995	103.288	20.094	3.812	0.472
208.000	183.931	80.008	19.995	103.290	20.096	3.694	0.500
208.500	184.162	80.008	19.995	103.290	20.093	3.875	0.511
209.000	184.427	80.007	19.995	103.289	20.095	3.780	0.498
209.500	184.711	80.010	19.995	103.288	20.093	3.869	0.522
210.000	184.929	80.007	19.995	103.288	20.093	3.867	0.525
210.501	185.173	80.008	19.994	103.287	20.093	3.878	0.482
211.001	185.403	80.009	19.995	103.288	20.096	3.682	0.468
211.500	185.650	80.007	19.995	103.289	20.092	3.993	0.476
212.000	185.919	80.010	19.995	103.288	20.095	3.787	0.497
212.500	186.141	80.009	19.995	103.288	20.096	3.690	0.504
213.001	186.422	80.007	19.994	103.290	20.098	3.547	0.497
213.501	186.661	80.010	19.995	103.288	20.093	3.888	0.512
214.000	186.901	80.007	19.993	103.288	20.093	3.935	0.500
214.500	187.129	80.008	19.995	103.286	20.092	3.960	0.474
215.000	187.393	80.009	19.994	103.286	20.095	3.711	0.480
215.500	187.666	80.011	19.994	103.284	20.092	3.966	0.514
216.000	187.944	80.010	19.996	103.284	20.091	4.033	0.544
216.500	188.157	80.008	19.994	103.284	20.097	3.633	0.521
217.001	188.404	80.010	19.995	103.284	20.094	3.818	0.475
217.501	188.649	80.009	19.994	103.284	20.097	3.559	0.476
218.001	188.898	80.008	19.994	103.281	20.096	3.686	0.494
218.500	189.118	80.009	19.994	103.281	20.097	3.583	0.482
219.001	189.352	80.008	19.994	103.281	20.095	3.751	0.461
219.501	189.611	80.008	19.994	103.281	20.097	3.618	0.473
220.001	189.868	80.007	19.994	103.282	20.094	3.829	0.505
220.501	190.090	80.006	19.993	103.285	20.090	4.141	0.498
221.001	190.366	80.006	19.994	103.286	20.094	3.812	0.489
221.500	190.612	80.007	19.994	103.286	20.093	3.875	0.510
222.000	190.854	80.006	19.993	103.286	20.093	3.932	0.505
222.500	191.044	80.005	19.994	103.286	20.092	3.993	0.460
223.000	191.307	80.008	19.994	103.286	20.095	3.766	0.442
223.500	191.548	80.007	19.994	103.286	20.089	4.172	0.478
224.001	191.807	80.007	19.994	103.287	20.093	3.936	0.502
224.501	192.075	80.007	19.995	103.287	20.091	4.048	0.514
225.000	192.302	80.008	19.993	103.287	20.095	3.732	0.511
225.500	192.555	80.007	19.994	103.287	20.093	3.875	0.487
226.000	192.808	80.006	19.995	103.287	20.093	3.913	0.493
226.500	193.040	80.005	19.994	103.283	20.092	3.977	0.495
227.000	193.231	80.003	19.994	103.282	20.093	3.899	0.454
227.500	193.540	80.007	19.994	103.282	20.096	3.643	0.462
228.000	193.734	80.004	19.994	103.282	20.097	3.618	0.502
228.500	193.980	80.005	19.994	103.282	20.097	3.624	0.471
229.000	194.255	80.008	19.994	103.286	20.096	3.669	0.480
229.500	194.516	80.008	19.993	103.288	20.093	3.892	0.528
230.000	194.754	80.009	19.994	103.287	20.094	3.827	0.518
230.500	195.003	80.006	19.995	103.286	20.095	3.728	0.493
231.001	195.239	80.008	19.993	103.286	20.097	3.559	0.486
231.501	195.503	80.007	19.995	103.286	20.095	3.713	0.493
232.000	195.737	80.007	19.994	103.286	20.094	3.820	0.499
232.500	195.975	80.007	19.994	103.284	20.099	3.403	0.484
233.000	196.209	80.007	19.994	103.283	20.096	3.689	0.472
233.500	196.473	80.007	19.994	103.278	20.098	3.504	0.485
234.000	196.700	80.008	19.995	103.276	20.097	3.618	0.495
234.501	196.903	80.007	19.994	103.276	20.096	3.692	0.461
235.001	197.154	80.007	19.995	103.277	20.096	3.652	0.442
235.500	197.380	80.007	19.994	103.279	20.097	3.622	0.465
236.001	197.615	80.008	19.994	103.283	20.096	3.643	0.468
236.501	197.849	80.008	19.995	103.285	20.094	3.808	0.465
237.001	198.161	80.007	19.994	103.284	20.098	3.490	0.508
237.501	198.350	80.008	19.993	103.285	20.097	3.597	0.524
238.001	198.613	80.007	19.994	103.282	20.097	3.614	0.476
238.500	198.868	80.008	19.993	103.280	20.093	3.882	0.485
239.000	199.116	80.008	19.994	103.279	20.098	3.506	0.510
239.500	199.344	80.008	19.994	103.278	20.096	3.696	0.489
240.000	199.590	80.008	19.995	103.279	20.096	3.641	0.475
240.501	199.825	80.008	19.994	103.280	20.096	3.687	0.478
241.001	200.046	80.009	19.994	103.282	20.098	3.540	0.469
241.500	200.312	80.008	19.994	103.282	20.097	3.599	0.472
242.000	200.611	80.007	19.995	103.280	20.098	3.504	0.526
242.500	200.805	80.007	19.994	103.276	20.096	3.681	0.529
243.000	201.056	80.008	19.994	103.277	20.095	3.763	0.469
243.501	201.271	80.007	19.994	103.273	20.100	3.357	0.455
244.001	201.516	80.007	19.994	103.272	20.098	3.536	0.463
244.501	201.775	80.010	19.994	103.274	20.097	3.591	0.482
245.000	202.013	80.007	19.994	103.277	20.100	3.401	0.501
245.500	202.275	80.008	19.993	103.277	20.098	3.485	0.499
246.001	202.502	80.008	19.994	103.280	20.099	3.437	0.494
246.501	202.788	80.008	19.994	103.280	20.101	3.308	0.501
247.000	203.036	80.008	19.994	103.279	20.102	3.209	0.524
247.500	203.286	80.007	19.995	103.280	20.100	3.337	0.516
248.001	203.498	80.008	19.994	103.280	20.098	3.537	0.480
248.501	203.753	80.007	19.994	103.280	20.101	3.249	0.464
249.001	203.965	80.009	19.995	103.282	20.097	3.605	0.467
249.500	204.197	80.009	19.995	103.281	20.097	3.563	0.456
250.001	204.498	80.008	19.994	103.277	20.098	3.532	0.489
250.501	204.711	80.006	19.995	103.274	20.095	3.759	0.524
251.001	204.925	80.008	19.994	103.272	20.093	3.928	0.471
251.500	205.178	80.008	19.994	103.270	20.096	3.679	0.447
252.000	205.434	80.007	19.994	103.270	20.094	3.852	0.488
252.500	205.676	80.008	19.993	103.273	20.094	3.835	0.504
253.001	205.877	80.008	19.995	103.272	20.097	3.568	0.471
253.501	206.190	80.008	19.994	103.274	20.096	3.700	0.478
254.001	206.406	80.008	19.995	103.278	20.095	3.728	0.521
254.501	206.618	80.009	19.994	103.279	20.093	3.890	0.478
255.001	206.887	80.007	19.994	103.281	20.097	3.609	0.455
255.500	207.114	80.010	19.994	103.284	20.096	3.671	0.489
256.000	207.405	80.005	19.994	103.281	20.096	3.692	0.507
256.500	207.604	80.007	19.994	103.276	20.095	3.759	0.504
257.000	207.863	80.008	19.994	103.270	20.093	3.896	0.474
257.500	208.102	80.008	19.995	103.263	20.094	3.832	0.478
258.000	208.355	80.009	19.994	103.258	20.095	3.776	0.495
258.500	208.610	80.007	19.995	103.259	20.093	3.925	0.500
259.000	208.820	80.007	19.994	103.262	20.096	3.677	0.487
259.500	209.055	80.007	19.995	103.264	20.096	3.635	0.456
260.000	209.323	80.009	19.994	103.268	20.095	3.744	0.474
260.500	209.583	80.009	19.993	103.273	20.094	3.816	0.515
261.000	209.840	80.009	19.994	103.273	20.096	3.677	0.522
261.500	210.061	80.007	19.996	103.275	20.095	3.766	0.498
262.000	210.292	80.010	19.996	103.279	20.093	3.871	0.465
262.500	210.548	80.007	19.995	103.282	20.094	3.812	0.469
263.000	210.812	80.007	19.996	103.282	20.096	3.635	0.503
263.500	211.001	80.009	19.996	103.283	20.094	3.820	0.487
264.000	211.246	80.007	19.994	103.278	20.095	3.744	0.443
264.500	211.436	80.009	19.996	103.276	20.098	3.534	0.434
265.000	211.700	80.008	19.995	103.275	20.098	3.504	0.445
265.500	211.938	80.007	19.995	103.275	20.097	3.589	0.478
266.000	212.176	80.008	19.995	103.274	20.096	3.700	0.489
266.500	212.433	80.007	19.995	103.275	20.096	3.698	0.486
267.000	212.679	80.008	19.995	103.272	20.095	3.740	0.499
267.500	212.927	80.009	19.994	103.267	20.094	3.842	0.499
268.000	213.171	80.007	19.996	103.261	20.096	3.671	0.493
268.500	213.408	80.009	19.995	103.261	20.095	3.743	0.486
269.000	213.648	80.009	19.994	103.264	20.094	3.850	0.479
269.500	213.881	80.010	19.996	103.268	20.094	3.820	0.475
270.000	214.115	80.009	19.995	103.267	20.092	3.949	0.470
270.500	214.350	80.009	19.994	103.274	20.095	3.734	0.468
271.000	214.600	80.008	19.995	103.276	20.096	3.675	0.477
271.500	214.837	80.008	19.994	103.275	20.096	3.652	0.486
272.000	215.080	80.005	19.995	103.274	20.092	3.945	0.483
272.500	215.310	80.008	19.995	103.281	20.097	3.606	0.476
273.000	215.520	80.008	19.996	103.279	20.096	3.703	0.457
273.500	215.806	80.009	19.996	103.277	20.097	3.593	0.468
274.000	216.046	80.005	19.995	103.278	20.097	3.576	0.511
274.500	216.290	80.008	19.995	103.277	20.099	3.467	0.505
275.000	216.551	80.008	19.997	103.277	20.095	3.736	0.494
275.500	216.764	80.009	19.995	103.279	20.094	3.789	0.489
276.000	217.020	80.008	19.995	103.279	20.096	3.645	0.471
276.500	217.265	80.007	19.994	103.278	20.093	3.938	0.486
277.000	217.508	80.007	19.996	103.281	20.097	3.565	0.495
277.500	217.728	80.007	19.996	103.279	20.097	3.631	0.475
278.000	217.972	80.009	19.995	103.279	20.095	3.755	0.464
278.500	218.267	80.008	19.995	103.281	20.095	3.762	0.502
279.000	218.479	80.008	19.995	103.284	20.098	3.507	0.523
279.500	218.718	80.008	19.995	103.281	20.099	3.466	0.479
280.000	218.962	80.008	19.995	103.277	20.097	3.612	0.467
280.500	219.212	80.007	19.995	103.275	20.097	3.601	0.488
281.000	219.455	80.008	19.995	103.272	20.096	3.660	0.493
281.500	219.676	80.008	19.994	103.269	20.098	3.553	0.478
282.000	219.917	80.007	19.994	103.271	20.098	3.540	0.463
282.500	220.162	80.008	19.995	103.277	20.098	3.553	0.474
283.000	220.402	80.009	19.994	103.278	20.099	3.416	0.485
283.500	220.635	80.009	19.996	103.281	20.097	3.616	0.479
284.000	220.892	80.008	19.995	103.283	20.098	3.485	0.482
284.500	221.140	80.008	19.995	103.283	20.101	3.323	0.498
285.000	221.400	80.008	19.995	103.283	20.099	3.451	0.506
285.500	221.678	80.009	19.994	103.283	20.102	3.232	0.523
286.000	221.865	80.009	19.994	103.278	20.101	3.295	0.501
286.500	222.147	80.008	19.995	103.277	20.098	3.489	0.467
287.000	222.393	80.009	19.994	103.278	20.101	3.298	0.499
287.500	222.642	80.009	19.995	103.278	20.102	3.192	0.512
288.000	222.887	80.007	19.994	103.278	20.097	3.569	0.494
288.500	223.097	80.008	19.993	103.282	20.100	3.359	0.474
289.000	223.372	80.009	19.994	103.282	20.101	3.304	0.470
289.500	223.587	80.009	19.994	103.283	20.100	3.359	0.488
290.000	223.827	80.008	19.995	103.283	20.100	3.365	0.473
290.500	224.060	80.009	19.994	103.279	20.101	3.317	0.463
291.000	224.319	80.010	19.995	103.279	20.099	3.479	0.482
291.500	224.588	80.008	19.994	103.276	20.102	3.209	0.510
292.000	224.802	80.009	19.994	103.275	20.099	3.414	0.506
292.500	225.061	80.008	19.994	103.275	20.099	3.466	0.478
293.000	225.341	80.009	19.994	103.279	20.099	3.456	0.507
293.500	225.562	80.011	19.995	103.281	20.100	3.344	0.520
294.000	225.787	80.009	19.994	103.283	20.099	3.445	0.473
294.500	226.065	80.011	19.996	103.280	20.102	3.232	0.474
295.000	226.311	80.009	19.995	103.279	20.097	3.630	0.513
295.500	226.557	80.010	19.994	103.277	20.101	3.270	0.508
296.001	226.814	80.010	19.996	103.273	20.100	3.384	0.497
296.501	227.045	80.012	19.994	103.270	20.100	3.369	0.495
297.000	227.290	80.009	19.995	103.270	20.098	3.491	0.482
297.500	227.545	80.010	19.995	103.271	20.100	3.348	0.488
298.000	227.797	80.009	19.994	103.270	20.099	3.453	0.503
298.500	228.059	80.009	19.995	103.270	20.098	3.498	0.511
299.000	228.312	80.009	19.995	103.268	20.098	3.481	0.515
299.500	228.569	80.010	19.995	103.268	20.103	3.097	0.513
300.000	228.849	80.011	19.995	103.268	20.100	3.373	0.523
300.500	229.075	80.009	19.996	103.268	20.101	3.251	0.521
301.000	229.358	80.008	19.995	103.268	20.100	3.365	0.508
301.500	229.604	80.009	19.996	103.274	20.100	3.388	0.519
302.001	229.856	80.007	19.996	103.277	20.101	3.308	0.513
302.501	230.085	80.006	19.996	103.277	20.100	3.340	0.489
303.000	230.303	80.006	19.996	103.277	20.098	3.489	0.464
303.500	230.610	80.007	19.996	103.278	20.101	3.316	0.486
304.000	230.834	80.006	19.996	103.278	20.104	3.042	0.528
304.500	231.099	80.007	19.996	103.275	20.101	3.261	0.511
305.000	231.367	80.007	19.995	103.271	20.100	3.396	0.511
305.500	231.607	80.006	19.996	103.271	20.102	3.226	0.520
306.000	231.816	80.006	19.996	103.265	20.103	3.122	0.479
306.500	232.108	80.004	19.996	103.265	20.099	3.405	0.475
307.000	232.352	80.007	19.996	103.264	20.102	3.228	0.518
307.500	232.595	80.007	19.996	103.269	20.104	3.083	0.511
308.001	232.840	80.007	19.995	103.271	20.101	3.300	0.488
308.500	233.091	80.008	19.995	103.273	20.102	3.190	0.492
309.000	233.353	80.008	19.995	103.270	20.102	3.181	0.504
309.500	233.603	80.009	19.996	103.272	20.102	3.207	0.513
310.000	233.839	80.007	19.995	103.269	20.102	3.236	0.499
310.500	234.100	80.006	19.996	103.267	20.101	3.318	0.491
311.000	234.352	80.007	19.996	103.267	20.098	3.512	0.505
311.501	234.604	80.008	19.995	103.270	20.102	3.215	0.509
312.001	234.879	80.006	19.995	103.269	20.100	3.354	0.515
312.500	235.123	80.007	19.995	103.266	20.100	3.361	0.523
313.001	235.374	80.007	19.995	103.268	20.100	3.331	0.507
313.501	235.613	80.007	19.996	103.266	20.100	3.354	0.492
314.000	235.892	80.007	19.995	103.261	20.102	3.241	0.504
314.500	236.123	80.006	19.995	103.262	20.097	3.586	0.514
315.000	236.358	80.008	19.995	103.261	20.099	3.468	0.488
315.500	236.643	80.006	19.995	103.259	20.101	3.297	0.493
316.000	236.865	80.007	19.994	103.260	20.099	3.464	0.514
316.500	237.155	80.006	19.994	103.263	20.100	3.344	0.510
317.000	237.384	80.009	19.995	103.263	20.101	3.255	0.516
317.500	237.697	80.009	19.994	103.270	20.103	3.169	0.530
318.000	237.923	80.008	19.995	103.270	20.102	3.181	0.540
318.500	238.164	80.008	19.995	103.272	20.100	3.369	0.503
319.000	238.445	80.007	19.995	103.270	20.101	3.306	0.495
319.500	238.681	80.007	19.996	103.265	20.101	3.308	0.520
320.000	238.970	80.008	19.995	103.261	20.101	3.310	0.521
320.500	239.226	80.009	19.994	103.266	20.103	3.171	0.535
321.000	239.447	80.007	19.994	103.264	20.101	3.317	0.510
321.500	239.715	80.008	19.996	103.266	20.100	3.331	0.483
322.000	239.952	80.009	19.996	103.271	20.101	3.260	0.497
322.500	240.191	80.009	19.996	103.273	20.102	3.176	0.491
323.000	240.427	80.007	19.994	103.272	20.101	3.310	0.475
323.500	240.683	80.009	19.995	103.276	20.098	3.525	0.483
324.001	240.909	80.007	19.994	103.278	20.101	3.304	0.487
324.501	241.151	80.008	19.995	103.272	20.098	3.544	0.476
325.000	241.409	80.008	19.994	103.266	20.101	3.261	0.484
325.500	241.665	80.008	19.995	103.260	20.103	3.110	0.507
326.000	241.941	80.010	19.995	103.254	20.101	3.293	0.523
326.500	242.219	80.008	19.994	103.256	20.101	3.295	0.543
327.000	242.466	80.005	19.995	103.258	20.101	3.314	0.540
327.500	242.732	80.009	19.994	103.261	20.101	3.291	0.519
328.000	242.948	80.007	19.994	103.263	20.100	3.359	0.497
328.500	243.213	80.008	19.996	103.264	20.100	3.354	0.481
329.000	243.454	80.010	19.995	103.258	20.105	2.988	0.493
329.500	243.711	80.006	19.995	103.257	20.104	3.091	0.502
330.000	243.928	80.007	19.994	103.260	20.102	3.244	0.486
330.500	244.191	80.008	19.995	103.261	20.103	3.112	0.477
331.000	244.470	80.006	19.995	103.261	20.100	3.354	0.511
331.500	244.722	80.009	19.995	103.266	20.104	3.084	0.536
332.000	244.961	80.007	19.995	103.270	20.099	3.441	0.511
332.500	245.220	80.007	19.995	103.272	20.101	3.299	0.495
333.000	245.467	80.008	19.994	103.276	20.103	3.097	0.502
333.500	245.749	80.006	19.996	103.279	20.099	3.459	0.517
334.000	245.976	80.008	19.995	103.274	20.100	3.350	0.519
334.500	246.250	80.008	19.994	103.272	20.103	3.147	0.505
335.000	246.495	80.008	19.995	103.268	20.099	3.417	0.511
335.501	246.746	80.008	19.996	103.262	20.100	3.331	0.508
336.001	246.999	80.007	19.995	103.259	20.098	3.481	0.500
336.501	247.240	80.007	19.995	103.261	20.104	3.038	0.499
337.001	247.478	80.007	19.995	103.264	20.102	3.245	0.487
337.500	247.738	80.007	19.994	103.268	20.100	3.399	0.488
338.000	247.987	80.007	19.994	103.269	20.102	3.188	0.503
338.500	248.248	80.007	19.994	103.273	20.106	2.918	0.509
339.001	248.502	80.007	19.995	103.272	20.105	3.017	0.512
339.500	248.774	80.006	19.994	103.269	20.102	3.190	0.521
340.000	249.015	80.007	19.995	103.263	20.103	3.099	0.519
340.500	249.319	80.007	19.994	103.260	20.101	3.301	0.529
341.000	249.520	80.007	19.995	103.255	20.104	3.038	0.525
341.500	249.777	80.007	19.994	103.259	20.101	3.286	0.482
342.000	250.083	80.007	19.995	103.261	20.102	3.211	0.511
342.500	250.342	80.007	19.995	103.261	20.100	3.331	0.564
343.000	250.587	80.008	19.993	103.263	20.100	3.373	0.534
343.501	250.807	80.008	19.994	103.264	20.101	3.276	0.485
344.000	251.039	80.009	19.994	103.258	20.100	3.381	0.459
344.500	251.342	80.010	19.994	103.253	20.103	3.156	0.494
345.000	251.564	80.009	19.994	103.252	20.100	3.327	0.530
345.500	251.855	80.009	19.994	103.252	20.103	3.101	0.519
346.000	252.087	80.010	19.995	103.254	20.101	3.276	0.518
346.500	252.335	80.008	19.995	103.257	20.100	3.362	0.501
347.000	252.563	80.009	19.994	103.263	20.102	3.198	0.478
347.500	252.832	80.010	19.994	103.266	20.101	3.284	0.486
348.000	253.094	80.013	19.995	103.266	20.101	3.248	0.514
348.500	253.341	80.010	19.995	103.267	20.101	3.261	0.520
349.000	253.611	80.008	19.994	103.268	20.103	3.129	0.513
349.500	253.817	80.009	19.994	103.262	20.103	3.103	0.496
350.000	254.095	80.007	19.995	103.259	20.104	3.091	0.480
350.500	254.322	80.007	19.995	103.257	20.101	3.259	0.495
351.000	254.541	80.009	19.993	103.258	20.102	3.194	0.476
351.500	254.837	80.009	19.994	103.255	20.101	3.265	0.480
352.000	255.083	80.009	19.994	103.254	20.099	3.430	0.529
352.500	255.341	80.009	19.995	103.254	20.102	3.179	0.523
353.000	255.592	80.010	19.994	103.254	20.100	3.343	0.506
353.500	255.804	80.008	19.995	103.251	20.100	3.331	0.486
354.000	256.104	80.010	19.994	103.249	20.099	3.442	0.487
354.500	256.317	80.009	19.994	103.251	20.098	3.514	0.512
355.000	256.584	80.010	19.993	103.253	20.099	3.409	0.496
355.500	256.845	80.009	19.994	103.255	20.097	3.604	0.504
356.000	257.070	80.008	19.994	103.255	20.099	3.402	0.507
356.500	257.306	80.009	19.993	103.255	20.100	3.364	0.474
357.000	257.557	80.009	19.993	103.254	20.098	3.545	0.474
357.501	257.805	80.008	19.994	103.252	20.097	3.590	0.493
358.000	258.065	80.009	19.994	103.252	20.097	3.594	0.504
358.500	258.337	80.009	19.994	103.251	20.099	3.453	0.520
359.000	258.553	80.008	19.995	103.251	20.100	3.350	0.510
359.500	258.809	80.008	19.995	103.256	20.099	3.409	0.480
360.000	259.077	80.009	19.994	103.261	20.101	3.284	0.498
360.500	259.318	80.005	19.994	103.264	20.101	3.263	0.517
361.000	259.563	80.009	19.994	103.265	20.099	3.417	0.498
361.500	259.802	80.009	19.994	103.264	20.100	3.389	0.485
362.000	260.041	80.010	19.994	103.259	20.103	3.126	0.481
362.500	260.335	80.008	19.994	103.254	20.099	3.476	0.506
363.000	260.535	80.009	19.994	103.252	20.099	3.450	0.514
363.500	260.827	80.009	19.994	103.253	20.097	3.589	0.493
364.000	261.048	80.007	19.995	103.252	20.098	3.550	0.502
364.500	261.306	80.008	19.994	103.252	20.096	3.672	0.496
365.000	261.539	80.008	19.995	103.252	20.102	3.208	0.485
365.500	261.796	80.008	19.995	103.251	20.097	3.592	0.490
366.000	262.036	80.010	19.995	103.250	20.099	3.436	0.493
366.500	262.324	80.009	19.996	103.249	20.095	3.758	0.512
367.000	262.517	80.009	19.995	103.249	20.096	3.655	0.504
367.500	262.750	80.009	19.996	103.249	20.095	3.754	0.453
368.001	262.973	80.009	19.994	103.251	20.098	3.493	0.441
368.501	263.262	80.009	19.996	103.254	20.098	3.501	0.484
369.000	263.477	80.008	19.995	103.253	20.102	3.244	0.508
369.500	263.738	80.009	19.995	103.254	20.099	3.438	0.490
370.000	264.022	80.009	19.995	103.254	20.095	3.747	0.510
370.500	264.253	80.007	19.995	103.251	20.095	3.720	0.530
371.000	264.481	80.009	19.995	103.246	20.095	3.786	0.487
371.501	264.746	80.009	19.995	103.247	20.097	3.630	0.476
372.000	264.995	80.010	19.995	103.245	20.097	3.590	0.503
372.500	265.257	80.009	19.995	103.244	20.096	3.699	0.512
373.000	265.476	80.010	19.995	103.244	20.095	3.767	0.496
373.500	265.722	80.009	19.994	103.244	20.099	3.470	0.473
374.000	265.992	80.009	19.994	103.244	20.103	3.124	0.491
374.500	266.203	80.010	19.995	103.244	20.098	3.541	0.499
375.000	266.500	80.009	19.994	103.246	20.094	3.855	0.494
375.500	266.710	80.012	19.995	103.250	20.095	3.764	0.507
376.000	266.996	80.009	19.994	103.252	20.097	3.583	0.501
376.500	267.201	80.010	19.994	103.254	20.099	3.406	0.494
377.000	267.470	80.009	19.994	103.254	20.096	3.653	0.483
377.500	267.708	80.010	19.994	103.253	20.093	3.882	0.491
378.000	267.953	80.011	19.994	103.248	20.097	3.606	0.495
378.500	268.200	80.010	19.994	103.247	20.095	3.745	0.487
379.000	268.459	80.010	19.994	103.245	20.093	3.895	0.499
379.500	268.720	80.009	19.994	103.246	20.097	3.585	0.513
380.001	268.981	80.010	19.994	103.244	20.100	3.387	0.521
380.501	269.180	80.010	19.994	103.243	20.097	3.619	0.491
381.000	269.455	80.008	19.995	103.243	20.096	3.642	0.467
381.500	269.727	80.009	19.995	103.248	20.101	3.278	0.511
382.000	269.959	80.009	19.995	103.250	20.098	3.535	0.526
382.500	270.228	80.008	19.995	103.251	20.094	3.823	0.502
383.001	270.478	80.008	19.996	103.252	20.095	3.769	0.510
383.500	270.674	80.009	19.996	103.255	20.098	3.493	0.483
384.000	270.936	80.008	19.996	103.250	20.095	3.710	0.452
384.500	271.185	80.007	19.994	103.247	20.094	3.823	0.485
385.000	271.455	80.006	19.994	103.248	20.097	3.604	0.515
385.500	271.717	80.007	19.995	103.247	20.093	3.874	0.526
386.000	271.990	80.007	19.994	103.245	20.095	3.779	0.533
386.500	272.244	80.005	19.995	103.245	20.092	3.941	0.531
387.000	272.480	80.010	19.995	103.245	20.094	3.796	0.508
387.500	272.739	80.007	19.995	103.244	20.095	3.769	0.493
388.000	273.001	80.007	19.994	103.245	20.092	4.000	0.508
388.500	273.232	80.008	19.995	103.245	20.095	3.731	0.507
389.000	273.506	80.008	19.994	103.245	20.094	3.830	0.499
389.500	273.717	80.008	19.995	103.245	20.091	4.034	0.495
390.000	273.972	80.007	19.995	103.245	20.097	3.585	0.475
390.500	274.225	80.006	19.995	103.244	20.094	3.796	0.487
391.000	274.446	80.006	19.995	103.244	20.093	3.872	0.491
391.500	274.712	80.006	19.995	103.244	20.097	3.623	0.481
392.000	274.945	80.006	19.995	103.245	20.096	3.668	0.493
392.500	275.236	80.008	19.996	103.247	20.097	3.632	0.511
393.000	275.458	80.008	19.995	103.246	20.096	3.638	0.518
393.500	275.753	80.007	19.996	103.246	20.094	3.861	0.514
394.000	275.960	80.006	19.996	103.247	20.096	3.666	0.509
394.501	276.261	80.005	19.996	103.246	20.094	3.842	0.506
395.001	276.475	80.009	19.996	103.244	20.095	3.783	0.512
395.500	276.715	80.006	19.996	103.244	20.090	4.100	0.484
396.000	276.962	80.006	19.996	103.245	20.092	3.975	0.470
396.500	277.195	80.005	19.996	103.244	20.094	3.805	0.483
397.000	277.456	80.008	19.996	103.244	20.092	3.944	0.487
397.500	277.703	80.007	19.996	103.244	20.096	3.701	0.501
398.000	277.944	80.005	19.995	103.243	20.095	3.752	0.498
398.500	278.196	80.007	19.995	103.243	20.093	3.876	0.491
399.000	278.444	80.005	19.996	103.243	20.096	3.678	0.497
399.500	278.720	80.008	19.995	103.244	20.094	3.803	0.512
400.000	278.942	80.007	19.995	103.245	20.095	3.769	0.511
400.500	279.216	80.009	19.995	103.245	20.094	3.851	0.497
401.000	279.451	80.007	19.995	103.245	20.096	3.702	0.502
401.500	279.722	80.008	19.996	103.245	20.095	3.742	0.507
402.000	279.992	80.009	19.996	103.247	20.093	3.893	0.524
402.500	280.221	80.009	19.996	103.247	20.093	3.874	0.520
403.000	280.456	80.007	19.995	103.249	20.095	3.773	0.481
403.500	280.716	80.008	19.996	103.250	20.096	3.680	0.480
404.000	280.965	80.006	19.995	103.250	20.095	3.758	0.502
404.500	281.215	80.006	19.995	103.250	20.094	3.819	0.504
405.000	281.498	80.007	19.995	103.250	20.095	3.752	0.516
405.501	281.721	80.007	19.996	103.249	20.098	3.531	0.519
406.000	282.013	80.007	19.995	103.249	20.099	3.472	0.510
406.500	282.231	80.008	19.994	103.250	20.096	3.678	0.513
407.000	282.495	80.009	19.994	103.248	20.096	3.706	0.496
407.500	282.747	80.009	19.994	103.248	20.095	3.731	0.499
408.000	282.986	80.008	19.993	103.249	20.095	3.731	0.504
408.500	283.260	80.007	19.994	103.250	20.095	3.754	0.502
409.000	283.489	80.011	19.993	103.251	20.094	3.838	0.508
409.500	283.755	80.007	19.994	103.251	20.094	3.796	0.499
410.000	283.961	80.008	19.995	103.253	20.097	3.613	0.483
410.500	284.248	80.006	19.994	103.256	20.096	3.661	0.482
411.000	284.504	80.008	19.993	103.257	20.096	3.676	0.518
411.500	284.741	80.007	19.994	103.256	20.098	3.543	0.518
412.000	285.019	80.006	19.993	103.256	20.097	3.623	0.504
412.501	285.260	80.006	19.993	103.254	20.095	3.760	0.517
413.000	285.478	80.007	19.993	103.250	20.098	3.548	0.489
413.500	285.751	80.008	19.994	103.248	20.096	3.651	0.474
414.000	285.999	80.009	19.993	103.248	20.094	3.807	0.506
414.500	286.237	80.007	19.993	103.248	20.095	3.775	0.504
415.000	286.562	80.010	19.994	103.248	20.098	3.524	0.525
415.500	286.768	80.009	19.993	103.247	20.097	3.579	0.548
416.000	287.031	80.008	19.994	103.247	20.096	3.705	0.500
416.500	287.287	80.006	19.993	103.247	20.094	3.838	0.494
417.000	287.531	80.007	19.994	103.246	20.098	3.528	0.509
417.500	287.783	80.007	19.994	103.246	20.094	3.804	0.498
418.000	288.063	80.007	19.995	103.249	20.100	3.392	0.514
418.500	288.296	80.007	19.993	103.250	20.098	3.548	0.522
419.000	288.531	80.006	19.994	103.250	20.095	3.733	0.490
419.500	288.816	80.006	19.994	103.251	20.098	3.531	0.494
420.000	289.055	80.008	19.994	103.251	20.096	3.701	0.522
420.500	289.278	80.007	19.994	103.248	20.097	3.585	0.493
421.000	289.531	80.007	19.994	103.248	20.096	3.693	0.470
421.500	289.801	80.008	19.995	103.248	20.094	3.792	0.500
422.000	290.023	80.007	19.995	103.247	20.093	3.882	0.507
422.500	290.272	80.006	19.994	103.247	20.095	3.752	0.481
423.000	290.549	80.007	19.994	103.249	20.095	3.762	0.499
423.500	290.815	80.006	19.994	103.249	20.096	3.695	0.534
424.000	291.067	80.005	19.994	103.249	20.096	3.638	0.530
424.500	291.340	80.007	19.995	103.249	20.095	3.739	0.521
425.000	291.612	80.006	19.995	103.250	20.096	3.678	0.535
425.500	291.840	80.007	19.995	103.250	20.096	3.634	0.523
426.000	292.123	80.007	19.995	103.250	20.095	3.752	0.505
426.500	292.345	80.007	19.995	103.250	20.096	3.636	0.508
427.000	292.607	80.008	19.994	103.247	20.098	3.537	0.495
427.501	292.876	80.007	19.995	103.247	20.098	3.488	0.508
428.000	293.114	80.008	19.995	103.246	20.095	3.760	0.519
428.500	293.336	80.008	19.995	103.246	20.095	3.720	0.484
429.000	293.591	80.009	19.993	103.245	20.097	3.583	0.468
429.500	293.852	80.009	19.994	103.248	20.094	3.828	0.496
430.000	294.108	80.009	19.994	103.248	20.096	3.676	0.516
430.500	294.353	80.009	19.995	103.247	20.097	3.594	0.510
431.001	294.596	80.009	19.995	103.247	20.096	3.642	0.494
431.500	294.859	80.009	19.994	103.248	20.099	3.453	0.496
432.000	295.136	80.009	19.994	103.247	20.091	4.026	0.523
432.500	295.375	80.010	19.994	103.247	20.093	3.916	0.529
433.000	295.640	80.010	19.993	103.247	20.096	3.651	0.510
433.500	295.873	80.009	19.993	103.246	20.095	3.729	0.501
434.000	296.160	80.009	19.994	103.246	20.096	3.659	0.509
434.500	296.390	80.010	19.995	103.244	20.097	3.608	0.518
435.000	296.629	80.009	19.994	103.244	20.096	3.676	0.492
435.500	296.892	80.009	19.994	103.243	20.096	3.667	0.485
436.000	297.119	80.009	19.994	103.243	20.093	3.931	0.496
436.500	297.361	80.008	19.994	103.244	20.093	3.884	0.480
437.000	297.605	80.009	19.993	103.245	20.094	3.834	0.478
437.500	297.916	80.009	19.995	103.244	20.092	3.948	0.520
438.000	298.129	80.010	19.994	103.244	20.094	3.842	0.539
438.501	298.394	80.008	19.995	103.244	20.092	3.960	0.501
439.001	298.647	80.009	19.995	103.243	20.093	3.909	0.498
439.500	298.897	80.009	19.995	103.243	20.092	3.964	0.510
440.000	299.157	80.008	19.995	103.243	20.094	3.808	0.507
440.500	299.420	80.009	19.993	103.243	20.096	3.680	0.517
441.000	299.691	80.009	19.994	103.243	20.093	3.924	0.528
441.500	299.922	80.010	19.995	103.244	20.093	3.924	0.518
442.000	300.149	80.009	19.995	103.243	20.096	3.693	0.480
442.500	300.401	80.008	19.994	103.243	20.093	3.878	0.469
443.000	300.679	80.009	19.994	103.244	20.092	3.986	0.505
443.500	300.907	80.008	19.994	103.245	20.093	3.935	0.518
444.000	301.166	80.008	19.993	103.245	20.092	3.968	0.496
444.500	301.432	80.009	19.994	103.244	20.092	3.943	0.506
445.000	301.675	80.009	19.994	103.244	20.093	3.909	0.517
445.500	301.945	80.009	19.993	103.244	20.093	3.863	0.511
446.000	302.199	80.009	19.993	103.243	20.093	3.865	0.518
446.500	302.386	80.010	19.994	103.244	20.096	3.680	0.482
447.000	302.672	80.010	19.994	103.244	20.096	3.695	0.457
447.500	302.909	80.009	19.994	103.243	20.092	3.941	0.498
448.000	303.183	80.010	19.993	103.242	20.093	3.867	0.517
448.500	303.424	80.010	19.994	103.242	20.096	3.684	0.513
449.000	303.684	80.010	19.994	103.239	20.094	3.819	0.508
449.500	303.945	80.009	19.995	103.238	20.093	3.891	0.511
450.000	304.203	80.010	19.994	103.239	20.093	3.882	0.520
450.500	304.425	80.010	19.994	103.239	20.094	3.844	0.499
451.000	304.688	80.010	19.994	103.239	20.094	3.861	0.482
451.500	304.925	80.011	19.993	103.241	20.091	4.078	0.493
452.000	305.193	80.009	19.994	103.244	20.093	3.880	0.503
452.500	305.466	80.009	19.994	103.244	20.092	3.981	0.523
453.000	305.651	80.010	19.993	103.245	20.093	3.924	0.499
453.500	305.973	80.009	19.993	103.245	20.091	4.044	0.482
454.000	306.200	80.011	19.994	103.245	20.092	3.956	0.528
454.500	306.472	80.010	19.995	103.241	20.092	3.956	0.524
455.001	306.711	80.009	19.994	103.236	20.088	4.293	0.505
455.501	306.963	80.010	19.994	103.233	20.092	3.996	0.501
456.000	307.222	80.010	19.994	103.233	20.091	4.061	0.500
456.500	307.498	80.009	19.994	103.233	20.090	4.129	0.523
457.000	307.722	80.011	19.995	103.236	20.091	4.023	0.517
457.500	307.968	80.010	19.995	103.240	20.093	3.926	0.485
458.000	308.209	80.012	19.994	103.240	20.095	3.726	0.479
458.501	308.465	80.008	19.994	103.239	20.092	3.972	0.492
459.000	308.718	80.010	19.995	103.237	20.095	3.741	0.503
459.500	308.959	80.012	19.994	103.234	20.098	3.543	0.501
460.001	309.201	80.011	19.994	103.236	20.096	3.693	0.489
460.501	309.499	80.011	19.994	103.238	20.096	3.699	0.511
461.000	309.739	80.011	19.995	103.239	20.093	3.869	0.539
461.500	310.019	80.010	19.994	103.241	20.093	3.875	0.529
462.000	310.237	80.011	19.994	103.241	20.093	3.886	0.509
462.500	310.469	80.011	19.995	103.240	20.094	3.798	0.474
463.000	310.731	80.010	19.994	103.237	20.096	3.674	0.472
463.501	311.002	80.011	19.995	103.237	20.091	4.061	0.514
464.000	311.233	80.011	19.995	103.237	20.094	3.815	0.518
464.500	311.521	80.010	19.995	103.239	20.098	3.497	0.510
465.000	311.779	80.010	19.994	103.240	20.097	3.632	0.532
465.500	312.038	80.009	19.995	103.243	20.096	3.657	0.532
466.000	312.302	80.009	19.995	103.243	20.097	3.564	0.520
466.500	312.577	80.009	19.994	103.243	20.096	3.640	0.531
467.000	312.793	80.009	19.995	103.243	20.094	3.792	0.515
467.500	313.061	80.008	19.994	103.240	20.096	3.682	0.488
468.000	313.308	80.008	19.995	103.236	20.094	3.831	0.499
468.500	313.557	80.008	19.996	103.234	20.096	3.682	0.505
469.000	313.801	80.007	19.995	103.234	20.096	3.665	0.494
469.500	314.086	80.007	19.994	103.234	20.095	3.775	0.511
470.000	314.274	80.008	19.994	103.237	20.094	3.810	0.501
470.500	314.555	80.008	19.995	103.238	20.094	3.846	0.471
471.000	314.812	80.007	19.995	103.238	20.090	4.139	0.503
471.500	315.102	80.007	19.995	103.233	20.092	3.958	0.543
472.001	315.332	80.008	19.994	103.231	20.095	3.745	0.534
472.501	315.635	80.007	19.995	103.231	20.094	3.808	0.527
473.000	315.876	80.008	19.994	103.233	20.094	3.810	0.538
473.500	316.130	80.008	19.995	103.235	20.090	4.122	0.519
474.000	316.400	80.008	19.994	103.240	20.093	3.939	0.510
474.500	316.620	80.007	19.994	103.240	20.093	3.911	0.508
475.000	316.883	80.008	19.994	103.241	20.094	3.808	0.486
475.500	317.097	80.008	19.994	103.240	20.094	3.819	0.480
476.000	317.356	80.007	19.994	103.241	20.094	3.846	0.475
476.500	317.639	80.008	19.995	103.238	20.095	3.751	0.507
477.000	317.907	80.009	19.995	103.241	20.094	3.791	0.547
477.500	318.183	80.008	19.994	103.240	20.093	3.903	0.548
478.000	318.420	80.006	19.994	103.239	20.093	3.924	0.528
478.500	318.641	80.009	19.994	103.235	20.091	4.052	0.485
479.000	318.924	80.009	19.994	103.233	20.093	3.900	0.481
479.500	319.220	80.006	19.994	103.231	20.094	3.789	0.542
480.000	319.434	80.007	19.994	103.232	20.094	3.806	0.544
480.500	319.634	80.006	19.995	103.235	20.092	3.997	0.462
481.000	319.941	80.006	19.994	103.238	20.094	3.856	0.461
481.500	320.186	80.007	19.994	103.242	20.094	3.810	0.529
482.000	320.441	80.008	19.994	103.237	20.095	3.742	0.526
482.500	320.708	80.006	19.995	103.232	20.096	3.639	0.511
483.001	320.940	80.007	19.994	103.228	20.091	4.037	0.510
483.500	321.182	80.006	19.995	103.224	20.090	4.111	0.486
484.000	321.476	80.007	19.993	103.222	20.091	4.027	0.505
484.500	321.707	80.007	19.994	103.230	20.093	3.862	0.530
485.000	321.926	80.007	19.995	103.234	20.093	3.862	0.488
485.500	322.186	80.006	19.994	103.233	20.090	4.140	0.465
486.000	322.429	80.008	19.994	103.237	20.089	4.174	0.491
486.500	322.690	80.007	19.995	103.238	20.093	3.887	0.503
487.000	322.979	80.006	19.995	103.235	20.093	3.864	0.527
487.500	323.208	80.006	19.995	103.231	20.091	4.024	0.534
488.000	323.471	80.006	19.994	103.230	20.092	3.993	0.505
488.500	323.717	80.007	19.995	103.225	20.089	4.182	0.501
489.000	323.961	80.005	19.995	103.220	20.088	4.264	0.500
489.500	324.226	80.007	19.995	103.218	20.094	3.808	0.499
490.000	324.480	80.007	19.995	103.222	20.090	4.136	0.514
490.500	324.718	80.008	19.994	103.225	20.089	4.214	0.506
491.000	325.033	80.005	19.995	103.225	20.094	3.820	0.522
491.500	325.210	80.006	19.995	103.225	20.096	3.707	0.522
492.000	325.478	80.007	19.995	103.222	20.090	4.126	0.468
492.500	325.719	80.007	19.994	103.219	20.091	4.067	0.477
493.000	325.955	80.008	19.996	103.217	20.088	4.248	0.494
493.500	326.230	80.007	19.996	103.220	20.092	3.976	0.494
494.000	326.467	80.007	19.995	103.218	20.089	4.174	0.511
494.500	326.736	80.007	19.994	103.218	20.093	3.881	0.509
495.000	326.979	80.007	19.995	103.215	20.089	4.188	0.508
495.500	327.231	80.006	19.995	103.210	20.091	4.071	0.503
496.000	327.474	80.007	19.995	103.209	20.091	4.092	0.495
496.500	327.755	80.007	19.995	103.210	20.093	3.889	0.510
497.000	327.987	80.006	19.995	103.210	20.093	3.864	0.518
497.501	328.245	80.007	19.995	103.211	20.093	3.877	0.501
498.000	328.498	80.006	19.995	103.212	20.093	3.900	0.501
498.500	328.774	80.006	19.995	103.211	20.088	4.260	0.520
499.000	329.007	80.007	19.996	103.214	20.089	4.210	0.519
499.500	329.282	80.007	19.995	103.213	20.090	4.153	0.508
500.000	329.525	80.007	19.994	103.214	20.090	4.166	0.513
500.500	329.782	80.007	19.994	103.215	20.092	3.949	0.509
501.000	330.052	80.007	19.995	103.214	20.089	4.206	0.513
501.500	330.308	80.007	19.996	103.217	20.091	4.018	0.526
502.000	330.540	80.008	19.996	103.223	20.089	4.206	0.507
502.500	330.765	80.008	19.995	103.228	20.090	4.111	0.473
503.000	331.017	80.008	19.995	103.228	20.091	4.090	0.467
503.500	331.284	80.007	19.995	103.229	20.089	4.195	0.497
504.000	331.560	80.008	19.995	103.224	20.087	4.349	0.531
504.501	331.810	80.008	19.994	103.218	20.090	4.164	0.535
505.000	332.022	80.007	19.994	103.213	20.087	4.353	0.494
505.500	332.278	80.006	19.994	103.210	20.085	4.549	0.465
506.000	332.508	80.007	19.994	103.209	20.084	4.555	0.477
506.500	332.834	80.007	19.994	103.209	20.091	4.077	0.521
507.000	333.077	80.007	19.994	103.209	20.088	4.254	0.562
507.500	333.319	80.007	19.994	103.209	20.092	3.967	0.527
508.000	333.589	80.008	19.995	103.210	20.091	4.020	0.499
508.500	333.841	80.009	19.995	103.209	20.085	4.521	0.517
509.000	334.129	80.007	19.994	103.211	20.086	4.460	0.531
509.500	334.396	80.007	19.993	103.212	20.094	3.809	0.547
510.000	334.646	80.008	19.994	103.216	20.094	3.839	0.536
510.500	334.834	80.007	19.993	103.216	20.089	4.186	0.478
511.000	335.182	80.008	19.994	103.216	20.088	4.321	0.487
511.500	335.314	80.008	19.994	103.214	20.086	4.448	0.508
512.000	335.663	80.009	19.995	103.215	20.085	4.499	0.480
512.500	335.831	80.009	19.994	103.214	20.089	4.239	0.499
513.000	336.130	80.009	19.995	103.216	20.086	4.460	0.492
513.500	336.396	80.009	19.994	103.220	20.084	4.566	0.516
514.000	336.711	80.008	19.993	103.223	20.084	4.576	0.573
514.500	336.879	80.009	19.994	103.222	20.086	4.412	0.532
515.000	337.154	80.009	19.994	103.219	20.086	4.468	0.463
515.500	337.343	80.009	19.993	103.219	20.085	4.494	0.454
516.000	337.704	80.009	19.994	103.215	20.084	4.599	0.507
516.500	337.926	80.008	19.994	103.212	20.086	4.441	0.566
517.000	338.124	80.009	19.994	103.212	20.086	4.424	0.501
517.500	338.402	80.010	19.994	103.214	20.087	4.368	0.448
518.000	338.627	80.009	19.994	103.211	20.089	4.195	0.489
518.500	338.945	80.010	19.994	103.210	20.089	4.206	0.523
519.000	339.207	80.008	19.993	103.209	20.088	4.267	0.562
519.500	339.429	80.010	19.995	103.208	20.086	4.475	0.532
520.000	339.523	80.010	19.993	103.208	20.087	4.370	0.400
520.500	340.078	80.010	19.994	103.208	20.089	4.246	0.483
521.000	340.040	80.010	19.994	103.209	20.088	4.319	0.583
521.500	340.735	80.008	19.994	103.212	20.085	4.519	0.587
522.000	340.790	80.008	19.994	103.216	20.087	4.370	0.703
522.500	340.688	80.007	19.994	103.217	20.085	4.515	0.352
523.000	341.120	80.010	19.994	103.221	20.084	4.607	0.141
523.501	341.649	80.008	19.995	103.221	20.083	4.652	0.645
524.000	341.914	80.008	19.994	103.216	20.086	4.433	0.877
524.500	342.247	80.009	19.995	103.212	20.087	4.387	0.696
525.000	342.093	80.007	19.994	103.210	20.084	4.576	0.388
525.501	342.523	80.008	19.995	103.206	20.083	4.707	0.228
526.000	342.797	80.008	19.994	103.207	20.081	4.818	0.490
526.500	343.094	80.010	19.994	103.209	20.078	5.016	0.637
527.000	343.206	80.008	19.995	103.208	20.082	4.763	0.490
527.500	343.460	80.008	19.994	103.207	20.086	4.462	0.388
528.000	343.783	80.009	19.994	103.208	20.080	4.869	0.472
528.500	344.025	80.010	19.993	103.213	20.084	4.574	0.571
529.000	344.241	80.008	19.995	103.215	20.081	4.844	0.511
529.500	344.526	80.008	19.993	103.216	20.082	4.774	0.479
530.000	344.816	80.009	19.994	103.221	20.083	4.707	0.538
530.500	345.025	80.008	19.994	103.222	20.087	4.372	0.538
531.000	345.255	80.009	19.995	103.217	20.082	4.751	0.469
531.500	345.572	80.009	19.994	103.216	20.085	4.547	0.493
532.000	345.773	80.008	19.994	103.216	20.083	4.680	0.533
532.500	346.119	80.009	19.995	103.211	20.081	4.857	0.532
533.000	346.288	80.009	19.994	103.209	20.081	4.848	0.530
533.500	346.572	80.009	19.993	103.209	20.081	4.804	0.484
534.000	346.844	80.011	19.994	103.209	20.077	5.157	0.505
534.500	347.074	80.010	19.995	103.211	20.078	5.040	0.529
535.000	347.331	80.012	19.994	103.212	20.076	5.231	0.495
535.500	347.566	80.010	19.993	103.212	20.079	4.976	0.490
536.000	347.865	80.010	19.994	103.212	20.079	5.004	0.513
536.500	348.078	80.010	19.994	103.210	20.079	4.983	0.522
537.000	348.379	80.010	19.993	103.208	20.079	4.970	0.513
537.500	348.570	80.010	19.993	103.211	20.083	4.700	0.503
538.000	348.897	80.011	19.994	103.212	20.077	5.149	0.505
538.500	349.093	80.011	19.993	103.214	20.080	4.881	0.520
539.000	349.356	80.012	19.993	103.219	20.081	4.787	0.491
539.500	349.586	80.012	19.993	103.218	20.080	4.898	0.476
540.000	349.837	80.010	19.993	103.214	20.084	4.574	0.487
540.500	350.100	80.011	19.993	103.214	20.082	4.717	0.497
541.000	350.344	80.012	19.993	103.213	20.080	4.896	0.510
541.500	350.629	80.013	19.993	103.213	20.081	4.820	0.518
542.000	350.881	80.012	19.993	103.216	20.079	4.949	0.533
542.500	351.126	80.010	19.993	103.221	20.080	4.907	0.517
543.000	351.394	80.012	19.993	103.220	20.081	4.799	0.505
543.500	351.674	80.011	19.993	103.224	20.080	4.886	0.531
544.000	351.939	80.010	19.993	103.220	20.079	4.965	0.547
544.500	352.180	80.011	19.994	103.217	20.079	4.972	0.525
545.000	352.431	80.011	19.994	103.216	20.078	5.050	0.499
545.500	352.676	80.011	19.993	103.218	20.077	5.130	0.494
546.000	352.947	80.010	19.993	103.214	20.078	5.044	0.506
546.500	353.214	80.011	19.994	103.214	20.076	5.191	0.527
547.000	353.471	80.010	19.994	103.217	20.077	5.153	0.531
547.500	353.712	80.010	19.994	103.214	20.077	5.128	0.511
548.000	353.943	80.008	19.993	103.211	20.077	5.130	0.485
548.500	354.225	80.009	19.993	103.213	20.075	5.256	0.492
549.000	354.476	80.007	19.993	103.214	20.078	5.056	0.523
549.500	354.731	80.007	19.993	103.211	20.076	5.244	0.520
550.000	355.041	80.008	19.994	103.212	20.077	5.142	0.536
550.500	355.258	80.008	19.994	103.212	20.077	5.105	0.546
551.000	355.545	80.007	19.994	103.210	20.077	5.159	0.516
551.500	355.812	80.008	19.994	103.209	20.077	5.161	0.529
552.000	356.018	80.007	19.994	103.210	20.080	4.892	0.513
552.500	356.312	80.008	19.995	103.211	20.076	5.176	0.487
553.000	356.574	80.007	19.994	103.211	20.077	5.168	0.529
553.500	356.796	80.008	19.995	103.212	20.075	5.303	0.520
554.000	357.053	80.008	19.995	103.212	20.075	5.303	0.481
554.500	357.322	80.007	19.995	103.211	20.070	5.676	0.502
555.000	357.621	80.006	19.993	103.209	20.073	5.404	0.547
555.500	357.866	80.007	19.994	103.212	20.076	5.206	0.556
556.000	358.108	80.007	19.994	103.213	20.075	5.282	0.516
556.500	358.363	80.007	19.994	103.213	20.070	5.644	0.492
557.000	358.635	80.007	19.994	103.213	20.071	5.621	0.511
557.500	358.903	80.006	19.994	103.213	20.069	5.728	0.533
558.000	359.120	80.007	19.994	103.211	20.070	5.703	0.513
558.500	359.393	80.007	19.995	103.211	20.071	5.605	0.488
559.000	359.651	80.007	19.995	103.211	20.071	5.576	0.511
559.500	359.901	80.007	19.995	103.213	20.068	5.808	0.519
560.000	360.158	80.009	19.995	103.213	20.066	5.949	0.507
560.500	360.396	80.006	19.995	103.212	20.067	5.915	0.501
561.000	360.669	80.007	19.994	103.211	20.066	5.945	0.503
561.500	360.927	80.008	19.996	103.212	20.066	5.978	0.521
562.000	361.212	80.007	19.995	103.213	20.066	5.947	0.538
562.500	361.419	80.007	19.995	103.213	20.065	6.040	0.518
563.000	361.720	80.008	19.996	103.213	20.066	5.979	0.500
563.500	361.987	80.009	19.994	103.214	20.071	5.606	0.538
564.000	362.210	80.008	19.994	103.215	20.065	6.040	0.529
564.500	362.488	80.008	19.995	103.216	20.064	6.155	0.495
565.000	362.761	80.008	19.995	103.220	20.065	6.058	0.526
565.500	363.026	80.008	19.994	103.218	20.066	6.006	0.545
566.000	363.261	80.009	19.995	103.217	20.062	6.256	0.519
566.500	363.521	80.008	19.995	103.216	20.066	5.938	0.497
567.000	363.763	80.009	19.996	103.216	20.065	6.016	0.498
567.500	364.007	80.009	19.995	103.212	20.063	6.185	0.494
568.000	364.262	80.009	19.995	103.212	20.062	6.305	0.493
568.500	364.509	80.009	19.994	103.212	20.062	6.297	0.500
569.000	364.777	80.009	19.994	103.210	20.060	6.415	0.509
569.500	365.038	80.009	19.993	103.206	20.058	6.579	0.522
570.000	365.305	80.009	19.995	103.206	20.059	6.545	0.528
570.500	365.562	80.009	19.994	103.207	20.058	6.598	0.526
571.000	365.815	80.009	19.995	103.208	20.059	6.486	0.517
571.500	366.065	80.009	19.994	103.207	20.057	6.636	0.507
572.000	366.342	80.009	19.994	103.207	20.054	6.922	0.515
572.500	366.570	80.009	19.994	103.208	20.053	6.958	0.516
573.000	366.802	80.008	19.994	103.210	20.054	6.870	0.482
573.500	367.079	80.010	19.993	103.212	20.051	7.110	0.485
574.000	367.322	80.008	19.994	103.213	20.053	6.943	0.515
574.500	367.583	80.008	19.994	103.214	20.049	7.301	0.512
575.000	367.823	80.009	19.994	103.214	20.049	7.276	0.502
575.500	368.113	80.009	19.994	103.213	20.049	7.309	0.516
576.000	368.348	80.008	19.995	103.210	20.046	7.531	0.528
576.500	368.625	80.009	19.994	103.209	20.046	7.510	0.518
577.000	368.856	80.008	19.994	103.208	20.043	7.763	0.510
577.500	369.152	80.008	19.994	103.208	20.044	7.653	0.518
578.001	369.396	80.008	19.994	103.207	20.040	7.966	0.533
578.501	369.653	80.009	19.995	103.214	20.040	8.002	0.520
579.000	369.927	80.008	19.994	103.214	20.039	8.069	0.516
579.500	370.148	80.009	19.995	103.214	20.040	7.947	0.513
580.000	370.440	80.008	19.995	103.216	20.037	8.195	0.504
580.500	370.674	80.008	19.995	103.216	20.037	8.184	0.520
581.000	370.955	80.008	19.995	103.210	20.035	8.369	0.520
581.500	371.194	80.007	19.995	103.212	20.031	8.643	0.517
582.000	371.455	80.008	19.995	103.210	20.034	8.399	0.510
582.500	371.696	80.007	19.994	103.211	20.029	8.814	0.501
583.000	371.956	80.007	19.996	103.210	20.029	8.856	0.502
583.500	372.230	80.009	19.995	103.213	20.030	8.732	0.518
584.000	372.476	80.007	19.995	103.217	20.031	8.685	0.527
584.501	372.760	80.008	19.996	103.218	20.026	9.037	0.525
585.001	373.022	80.008	19.995	103.215	20.023	9.281	0.537
585.501	373.269	80.007	19.996	103.218	20.023	9.316	0.527
586.000	373.496	80.007	19.995	103.217	20.024	9.198	0.492
586.500	373.817	80.008	19.996	103.212	20.020	9.485	0.512
587.000	374.071	80.007	19.995	103.213	20.022	9.378	0.562
587.500	374.315	80.008	19.995	103.218	20.016	9.843	0.536
588.000	374.573	80.008	19.996	103.217	20.018	9.656	0.499
588.500	374.819	80.008	19.996	103.221	20.018	9.656	0.503
589.000	375.068	80.007	19.996	103.227	20.017	9.707	0.500
589.500	375.345	80.008	19.996	103.232	20.016	9.823	0.511
590.000	375.659	80.008	19.995	103.231	20.011	10.234	0.559
590.500	375.867	80.008	19.996	103.231	20.010	10.291	0.557
591.000	376.091	80.007	19.995	103.225	20.009	10.360	0.477
591.500	376.341	80.007	19.996	103.218	20.008	10.427	0.453
592.000	376.690	80.008	19.996	103.216	20.011	10.233	0.536
592.501	376.905	80.007	19.995	103.216	20.010	10.275	0.581
593.000	377.072	80.007	19.995	103.216	20.004	10.707	0.473
593.500	377.349	80.008	19.996	103.222	20.004	10.779	0.413
594.000	377.673	80.009	19.996	103.224	20.005	10.699	0.522
594.500	377.927	80.008	19.995	103.224	20.003	10.847	0.589
595.000	378.159	80.009	19.996	103.222	19.996	11.323	0.532
595.500	378.460	80.009	19.995	103.222	19.996	11.321	0.510
596.000	378.692	80.010	19.994	103.221	19.994	11.477	0.534
596.500	378.981	80.009	19.995	103.227	19.997	11.302	0.527
597.000	379.261	80.010	19.994	103.231	19.992	11.702	0.545
597.500	379.492	80.011	19.994	103.235	19.990	11.852	0.540
598.000	379.788	80.009	19.993	103.237	19.987	12.025	0.519
598.500	380.016	80.011	19.994	103.239	19.985	12.168	0.526
599.000	380.265	80.012	19.995	103.239	19.988	12.006	0.500
599.500	380.521	80.018	19.996	103.240	19.983	12.341	0.491
600.000	380.779	80.029	19.997	103.242	19.984	12.309	0.510
600.500	381.011	80.027	19.998	103.245	19.982	12.416	0.502
601.001	381.288	80.025	19.996	103.246	19.983	12.351	0.499
601.500	381.573	80.017	19.996	103.246	19.980	12.612	0.535
602.000	381.835	80.013	19.996	103.245	19.978	12.749	0.555
602.500	382.088	80.010	19.995	103.243	19.973	13.090	0.531
603.000	382.351	80.009	19.995	103.243	19.973	13.152	0.515
603.500	382.591	80.009	19.995	103.242	19.972	13.181	0.510
604.000	382.822	80.009	19.995	103.242	19.969	13.468	0.487
604.500	383.095	80.010	19.993	103.243	19.965	13.723	0.488
605.000	383.361	80.010	19.994	103.245	19.965	13.765	0.521
605.500	383.636	80.009	19.995	103.246	19.961	14.070	0.540
606.000	383.878	80.009	19.995	103.246	19.960	14.114	0.530
606.500	384.150	80.009	19.996	103.247	19.959	14.176	0.515
607.000	384.385	80.009	19.994	103.248	19.956	14.444	0.510
607.500	384.624	80.008	19.994	103.248	19.952	14.771	0.491
608.000	384.893	80.009	19.995	103.247	19.950	14.886	0.491
608.500	385.151	80.010	19.994	103.249	19.950	14.910	0.517
609.000	385.363	80.008	19.994	103.250	19.946	15.239	0.498
609.500	385.633	80.008	19.994	103.249	19.945	15.317	0.476
610.000	385.910	80.008	19.994	103.249	19.943	15.415	0.515
610.500	386.164	80.007	19.994	103.250	19.937	15.862	0.539
611.000	386.385	80.009	19.994	103.249	19.938	15.854	0.503
611.500	386.667	80.010	19.994	103.248	19.933	16.240	0.489
612.000	386.876	80.008	19.995	103.248	19.933	16.245	0.497
612.500	387.166	80.008	19.995	103.247	19.931	16.349	0.495
613.000	387.426	80.008	19.994	103.246	19.928	16.610	0.524
613.500	387.666	80.008	19.993	103.248	19.923	16.994	0.525
614.000	387.964	80.009	19.994	103.249	19.925	16.857	0.520
614.500	388.210	80.008	19.994	103.249	19.923	16.989	0.541
615.000	388.462	80.009	19.993	103.249	19.917	17.470	0.521
615.500	388.696	80.009	19.994	103.251	19.913	17.742	0.492
616.000	388.970	80.009	19.994	103.255	19.910	17.953	0.497
616.500	389.238	80.008	19.994	103.261	19.907	18.182	0.526
617.000	389.528	80.009	19.994	103.264	19.904	18.435	0.550
617.500	389.782	80.008	19.994	103.268	19.903	18.539	0.551
618.000	390.011	80.010	19.994	103.270	19.904	18.463	0.514
618.500	390.254	80.010	19.994	103.271	19.893	19.262	0.477
619.000	390.537	80.010	19.993	103.270	19.893	19.312	0.498
619.500	390.804	80.009	19.994	103.274	19.888	19.683	0.538
620.000	391.045	80.009	19.993	103.275	19.884	20.011	0.529
620.500	391.271	80.008	19.992	103.275	19.884	19.955	0.488
621.000	391.566	80.009	19.994	103.269	19.881	20.185	0.494
621.500	391.807	80.009	19.993	103.271	19.878	20.460	0.528
622.000	392.030	80.010	19.995	103.273	19.872	20.927	0.500
622.500	392.270	80.010	19.994	103.277	19.868	21.217	0.463
623.000	392.553	80.010	19.995	103.279	19.867	21.275	0.493
623.500	392.843	80.009	19.994	103.285	19.861	21.787	0.548
624.000	393.097	80.009	19.994	103.286	19.856	22.099	0.559
624.500	393.321	80.010	19.993	103.286	19.855	22.245	0.511
625.000	393.605	80.011	19.994	103.285	19.847	22.804	0.493
625.500	393.903	80.011	19.994	103.285	19.845	22.990	0.545
626.001	394.154	80.011	19.993	103.285	19.840	23.351	0.565
626.501	394.387	80.011	19.993	103.286	19.837	23.564	0.516
627.000	394.661	80.011	19.993	103.286	19.836	23.704	0.495
627.500	394.960	80.011	19.993	103.285	19.835	23.788	0.540
628.000	395.231	80.011	19.993	103.285	19.833	23.925	0.571
628.500	395.499	80.010	19.993	103.286	19.827	24.366	0.555
629.000	395.742	80.011	19.993	103.288	19.821	24.808	0.525
629.500	395.984	80.010	19.993	103.287	19.820	24.922	0.498
630.000	396.258	80.009	19.992	103.287	19.817	25.169	0.501
630.500	396.459	80.010	19.993	103.286	19.814	25.350	0.496
631.000	396.747	80.009	19.993	103.283	19.809	25.717	0.482
631.500	397.024	80.009	19.994	103.279	19.812	25.486	0.526
632.000	397.267	80.009	19.994	103.280	19.808	25.860	0.542
632.500	397.519	80.009	19.993	103.284	19.805	26.078	0.508
633.000	397.785	80.009	19.993	103.291	19.802	26.310	0.507
633.500	398.024	80.008	19.993	103.297	19.795	26.867	0.511
634.000	398.310	80.008	19.993	103.302	19.793	26.973	0.515
634.500	398.591	80.007	19.993	103.309	19.787	27.464	0.546
635.000	398.845	80.007	19.994	103.312	19.785	27.603	0.551
635.501	399.105	80.009	19.993	103.314	19.782	27.862	0.525
636.000	399.361	80.009	19.994	103.317	19.780	28.007	0.515
636.500	399.600	80.007	19.993	103.320	19.771	28.664	0.505
637.000	399.883	80.008	19.994	103.320	19.764	29.194	0.508
637.500	400.133	80.007	19.993	103.321	19.758	29.691	0.528
638.000	400.368	80.009	19.993	103.322	19.755	29.912	0.509
638.501	400.633	80.008	19.994	103.322	19.748	30.480	0.493
639.000	400.922	80.009	19.993	103.323	19.743	30.859	0.527
639.500	401.177	80.009	19.994	103.323	19.739	31.152	0.549
640.000	401.404	80.008	19.994	103.322	19.730	31.831	0.513
640.500	401.703	80.009	19.993	103.322	19.724	32.295	0.504
641.000	401.957	80.008	19.993	103.322	19.719	32.704	0.539
641.500	402.209	80.009	19.994	103.323	19.714	33.066	0.529
642.000	402.492	80.007	19.995	103.323	19.708	33.518	0.521
642.500	402.715	80.009	19.994	103.325	19.704	33.866	0.521
643.000	402.987	80.007	19.993	103.328	19.703	33.907	0.501
643.501	403.236	80.007	19.993	103.333	19.693	34.722	0.508
644.001	403.501	80.008	19.995	103.333	19.690	34.905	0.518
644.500	403.757	80.009	19.994	103.335	19.680	35.715	0.517
645.000	404.007	80.009	19.993	103.337	19.676	36.002	0.513
645.500	404.261	80.007	19.994	103.338	19.670	36.473	0.505
646.000	404.497	80.007	19.994	103.337	19.666	36.757	0.497
646.500	404.775	80.007	19.994	103.344	19.655	37.596	0.502
647.000	405.022	80.009	19.994	103.349	19.651	37.932	0.519
647.500	405.268	80.008	19.995	103.353	19.646	38.335	0.509
648.000	405.530	80.009	19.994	103.356	19.638	38.955	0.501
648.500	405.780	80.009	19.994	103.359	19.631	39.483	0.510
649.000	406.039	80.008	19.995	103.360	19.622	40.166	0.510
649.500	406.289	80.007	19.994	103.362	19.611	41.036	0.509
650.000	406.563	80.008	19.994	103.367	19.607	41.368	0.517
650.500	406.785	80.008	19.994	103.373	19.597	42.120	0.511
651.000	407.075	80.007	19.994	103.380	19.590	42.660	0.504
651.500	407.294	80.008	19.994	103.387	19.582	43.284	0.510
652.000	407.543	80.008	19.995	103.392	19.573	43.950	0.488
652.500	407.838	80.008	19.995	103.394	19.566	44.550	0.506
653.000	408.082	80.008	19.995	103.396	19.557	45.233	0.541
653.500	408.354	80.009	19.995	103.398	19.547	45.946	0.527
654.000	408.602	80.008	19.994	103.399	19.541	46.455	0.518
654.500	408.856	80.008	19.995	103.401	19.532	47.152	0.511
655.000	409.105	80.009	19.995	103.401	19.523	47.855	0.502
655.500	409.346	80.008	19.995	103.401	19.514	48.563	0.497
656.001	409.617	80.007	19.996	103.400	19.506	49.126	0.502
656.501	409.865	80.009	19.996	103.400	19.497	49.796	0.515
657.000	410.109	80.008	19.996	103.399	19.492	50.185	0.505
657.500	410.380	80.009	19.995	103.398	19.485	50.791	0.503
658.000	410.675	80.008	19.995	103.399	19.478	51.262	0.540
658.500	410.898	80.009	19.995	103.399	19.471	51.872	0.542
659.000	411.142	80.008	19.995	103.399	19.463	52.465	0.493
659.500	411.402	80.007	19.996	103.400	19.457	52.959	0.486
660.001	411.668	80.008	19.994	103.408	19.444	53.958	0.515
660.501	411.892	80.007	19.994	103.416	19.436	54.579	0.508
661.000	412.177	80.008	19.995	103.423	19.424	55.456	0.499
661.500	412.425	80.008	19.995	103.430	19.415	56.148	0.521
662.000	412.684	80.008	19.995	103.441	19.404	57.016	0.521
662.500	412.910	80.008	19.994	103.449	19.395	57.741	0.496
663.001	413.138	80.008	19.996	103.457	19.384	58.594	0.469
663.501	413.414	80.008	19.995	103.466	19.373	59.427	0.479
664.000	413.677	80.008	19.995	103.474	19.364	60.172	0.521
664.500	413.890	80.006	19.995	103.479	19.355	60.811	0.507
665.000	414.160	80.007	19.994	103.479	19.345	61.642	0.479
665.500	414.436	80.007	19.995	103.480	19.333	62.552	0.515
666.000	414.701	80.008	19.995	103.480	19.325	63.179	0.544
666.500	414.918	80.006	19.994	103.480	19.312	64.190	0.512
667.000	415.167	80.007	19.994	103.480	19.302	64.931	0.474
667.500	415.381	80.006	19.994	103.480	19.294	65.523	0.465
668.000	415.623	80.007	19.994	103.481	19.277	66.828	0.459
668.500	415.886	80.006	19.994	103.481	19.270	67.374	0.480
669.000	416.152	80.006	19.994	103.481	19.257	68.365	0.517
669.500	416.371	80.007	19.995	103.482	19.246	69.234	0.507
670.000	416.651	80.008	19.995	103.485	19.237	69.911	0.492
670.500	416.872	80.006	19.994	103.490	19.225	70.896	0.500
671.000	417.144	80.006	19.995	103.497	19.214	71.732	0.497
671.500	417.425	80.005	19.994	103.506	19.198	72.966	0.523
672.000	417.647	80.007	19.994	103.519	19.181	74.248	0.528
672.500	417.929	80.006	19.995	103.530	19.166	75.410	0.503
673.000	418.138	80.007	19.994	103.540	19.149	76.734	0.498
673.501	418.431	80.006	19.995	103.548	19.133	77.976	0.497
674.001	418.674	80.007	19.994	103.558	19.117	79.214	0.519
674.500	418.875	80.006	19.995	103.568	19.101	80.511	0.490
675.000	419.190	80.007	19.995	103.577	19.080	82.111	0.480
675.500	419.432	80.008	19.993	103.581	19.065	83.280	0.537
676.000	419.649	80.007	19.994	103.589	19.051	84.422	0.508
676.500	419.886	80.007	19.995	103.594	19.035	85.645	0.457
677.000	420.135	80.007	19.995	103.594	19.020	86.796	0.470
677.500	420.390	80.009	19.995	103.595	19.007	87.855	0.495
678.000	420.671	80.008	19.995	103.597	18.996	88.642	0.520
678.500	420.888	80.009	19.995	103.590	18.978	90.059	0.517
679.000	421.164	80.008	19.996	103.584	18.965	91.026	0.496
679.500	421.433	80.008	19.995	103.580	18.957	91.669	0.519
680.000	421.635	80.008	19.994	103.576	18.943	92.702	0.508
680.500	421.910	80.007	19.995	103.577	18.934	93.425	0.474
681.000	422.109	80.009	19.994	103.578	18.924	94.198	0.476
681.500	422.381	80.008	19.995	103.578	18.909	95.299	0.473
682.000	422.628	80.008	19.995	103.582	18.898	96.172	0.495
682.500	422.869	80.009	19.997	103.585	18.883	97.359	0.503
683.000	423.096	80.008	19.995	103.593	18.869	98.405	0.478
683.500	423.348	80.009	19.996	103.607	18.853	99.681	0.473
684.000	423.594	80.009	19.995	103.625	18.829	101.502	0.489
684.500	423.844	80.008	19.995	103.640	18.810	103.023	0.497
685.000	424.142	80.008	19.994	103.656	18.783	105.149	0.522
685.501	424.369	80.008	19.997	103.667	18.764	106.600	0.536
686.001	424.616	80.010	19.996	103.690	18.738	108.618	0.500
686.501	424.853	80.008	19.997	103.723	18.716	110.347	0.479
687.000	425.094	80.008	19.996	103.742	18.700	111.595	0.481
687.500	425.367	80.007	19.995	103.757	18.680	113.140	0.496
688.000	425.604	80.008	19.995	103.770	18.661	114.601	0.512
688.500	425.853	80.008	19.995	103.770	18.642	116.123	0.499
689.000	426.104	80.007	19.997	103.756	18.625	117.379	0.493
689.500	426.312	80.007	19.995	103.750	18.608	118.698	0.479
690.000	426.592	80.008	19.994	103.742	18.590	120.121	0.473
690.500	426.828	80.008	19.995	103.730	18.577	121.110	0.502
691.000	427.059	80.008	19.995	103.716	18.553	122.984	0.492
691.500	427.306	80.007	19.995	103.703	18.543	123.740	0.473
692.000	427.586	80.007	19.995	103.695	18.526	125.089	0.503
692.500	427.783	80.009	19.996	103.691	18.509	126.426	0.502
693.000	428.100	80.009	19.994	103.688	18.494	127.577	0.496
693.500	428.305	80.008	19.995	103.686	18.481	128.546	0.518
694.000	428.580	80.008	19.994	103.689	18.466	129.765	0.501
694.500	428.817	80.008	19.995	103.694	18.452	130.842	0.496
695.000	429.049	80.009	19.996	103.706	18.438	131.941	0.490
695.500	429.353	80.008	19.993	103.730	18.426	132.863	0.502
696.000	429.552	80.008	19.995	103.754	18.413	133.830	0.520
696.500	429.810	80.009	19.994	103.777	18.402	134.723	0.480
697.000	430.072	80.010	19.994	103.799	18.391	135.606	0.488
697.500	430.337	80.007	19.995	103.814	18.376	136.741	0.523
698.000	430.583	80.009	19.994	103.821	18.365	137.626	0.519
698.500	430.821	80.008	19.995	103.823	18.356	138.308	0.497
699.000	431.041	80.009	19.994	103.817	18.346	139.105	0.471
699.500	431.312	80.008	19.994	103.810	18.336	139.909	0.475
700.000	431.540	80.009	19.994	103.806	18.325	140.770	0.496
700.500	431.766	80.007	19.994	103.806	18.315	141.546	0.477
701.000	432.049	80.010	19.994	103.811	18.303	142.439	0.481
701.501	432.319	80.010	19.993	103.820	18.296	143.008	0.531
702.001	432.558	80.010	19.993	103.827	18.285	143.867	0.531
702.500	432.827	80.010	19.993	103.830	18.275	144.604	0.509
703.000	433.042	80.011	19.994	103.832	18.268	145.184	0.496
703.500	433.309	80.010	19.994	103.834	18.254	146.273	0.483
704.000	433.580	80.011	19.994	103.835	18.246	146.885	0.510
704.500	433.806	80.011	19.993	103.841	18.237	147.589	0.517
705.000	434.071	80.011	19.993	103.849	18.230	148.143	0.494
705.500	434.329	80.011	19.994	103.856	18.221	148.805	0.507
706.000	434.602	80.011	19.995	103.862	18.210	149.685	0.527
706.500	434.825	80.010	19.994	103.869	18.199	150.524	0.514
707.000	435.135	80.011	19.993	103.871	18.189	151.302	0.514
707.500	435.368	80.011	19.993	103.878	18.176	152.307	0.538
708.000	435.612	80.011	19.994	103.885	18.168	152.945	0.510
708.500	435.838	80.012	19.994	103.893	18.156	153.823	0.474
709.000	436.092	80.012	19.993	103.898	18.141	155.037	0.475
709.500	436.335	80.010	19.994	103.906	18.130	155.911	0.488
710.000	436.630	80.011	19.994	103.912	18.116	156.960	0.518
710.500	436.863	80.010	19.993	103.920	18.104	157.952	0.534
711.000	437.126	80.011	19.994	103.927	18.092	158.833	0.512
711.501	437.373	80.010	19.994	103.935	18.079	159.862	0.503
712.000	437.623	80.011	19.993	103.942	18.066	160.857	0.503
712.500	437.894	80.008	19.994	103.944	18.054	161.805	0.509
713.000	438.091	80.010	19.995	103.944	18.041	162.820	0.494
713.500	438.345	80.011	19.995	103.945	18.033	163.408	0.460
714.000	438.621	80.011	19.995	103.945	18.022	164.318	0.491
714.500	438.878	80.010	19.994	103.945	18.014	164.947	0.532
715.000	439.112	80.010	19.994	103.945	18.001	165.898	0.512
715.500	439.369	80.008	19.993	103.945	17.990	166.785	0.491
716.000	439.604	80.009	19.995	103.945	17.980	167.534	0.492
716.500	439.878	80.009	19.994	103.945	17.974	168.041	0.501
717.000	440.099	80.008	19.994	103.945	17.961	168.985	0.502
717.500	440.374	80.008	19.993	103.945	17.954	169.568	0.496
718.000	440.566	80.008	19.994	103.945	17.949	169.965	0.481
718.500	440.855	80.008	19.993	103.945	17.939	170.687	0.474
719.000	441.107	80.008	19.994	103.945	17.930	171.414	0.511
719.500	441.355	80.009	19.993	103.948	17.919	172.251	0.521
720.000	441.603	80.008	19.994	103.953	17.910	172.970	0.498
720.500	441.850	80.008	19.994	103.961	17.903	173.517	0.495
721.000	442.143	80.007	19.994	103.970	17.899	173.792	0.517
721.500	442.344	80.008	19.994	103.978	17.891	174.397	0.517
722.000	442.654	80.010	19.994	103.986	17.888	174.638	0.503
722.500	442.913	80.008	19.995	103.992	17.879	175.327	0.540
723.000	443.082	80.008	19.994	103.993	17.873	175.851	0.498
723.500	443.390	80.007	19.995	103.992	17.867	176.253	0.452
724.000	443.636	80.008	19.994	103.993	17.864	176.515	0.515
724.500	443.869	80.008	19.994	103.992	17.860	176.861	0.516
725.000	444.141	80.008	19.995	103.992	17.854	177.246	0.492
725.500	444.378	80.008	19.994	103.992	17.850	177.617	0.507
726.000	444.657	80.009	19.994	103.992	17.847	177.821	0.513
726.500	444.935	80.009	19.994	103.992	17.847	177.822	0.537
727.000	445.140	80.008	19.994	103.991	17.843	178.095	0.520
727.500	445.400	80.008	19.994	103.989	17.843	178.063	0.474
728.000	445.674	80.008	19.993	103.988	17.841	178.205	0.499
728.500	445.884	80.008	19.994	103.988	17.838	178.452	0.509
729.000	446.168	80.008	19.994	103.989	17.839	178.367	0.489
729.500	446.399	80.009	19.993	103.991	17.840	178.316	0.505
730.000	446.654	80.009	19.994	103.993	17.840	178.329	0.501
730.500	446.898	80.009	19.994	103.994	17.842	178.139	0.493
731.000	447.130	80.008	19.993	103.994	17.844	177.936	0.487
731.500	447.356	80.009	19.995	103.992	17.848	177.618	0.466
732.000	447.644	80.008	19.994	103.991	17.853	177.242	0.486
732.500	447.916	80.009	19.993	103.988	17.858	176.829	0.537
733.000	448.148	80.008	19.994	103.987	17.865	176.279	0.532
733.500	448.416	80.008	19.993	103.987	17.868	176.036	0.502
734.000	448.646	80.009	19.994	103.987	17.877	175.331	0.499
734.500	448.899	80.008	19.994	103.986	17.888	174.470	0.491
735.000	449.176	80.009	19.993	103.983	17.893	174.080	0.506
735.500	449.405	80.009	19.994	103.982	17.903	173.283	0.518
736.000	449.669	80.009	19.994	103.979	17.915	172.366	0.499
736.500	449.913	80.009	19.994	103.976	17.922	171.789	0.501
737.001	450.186	80.010	19.993	103.970	17.934	170.881	0.513
737.500	450.419	80.008	19.995	103.966	17.945	169.974	0.512
738.000	450.673	80.009	19.994	103.960	17.959	168.907	0.497
738.500	450.926	80.009	19.994	103.954	17.974	167.744	0.497
739.000	451.171	80.009	19.994	103.948	17.991	166.425	0.502
739.500	451.419	80.008	19.994	103.948	18.006	165.240	0.496
740.000	451.686	80.009	19.994	103.947	18.023	163.884	0.503
740.500	451.933	80.008	19.992	103.944	18.033	163.099	0.514
741.000	452.175	80.008	19.994	103.939	18.053	161.582	0.502
741.500	452.411	80.008	19.994	103.933	18.070	160.246	0.483
742.000	452.697	80.008	19.994	103.925	18.089	158.719	0.500
742.500	452.948	80.007	19.993	103.917	18.108	157.271	0.530
743.000	453.180	80.009	19.995	103.913	18.129	155.651	0.510
743.500	453.420	80.006	19.994	103.910	18.147	154.258	0.477
744.000	453.666	80.008	19.994	103.901	18.168	152.615	0.479
744.500	453.907	80.007	19.995	103.893	18.185	151.270	0.487
745.000	454.173	80.008	19.994	103.885	18.205	149.699	0.497
745.500	454.436	80.007	19.994	103.877	18.228	147.936	0.518
746.000	454.654	80.007	19.994	103.868	18.250	146.220	0.505
746.501	454.950	80.007	19.995	103.865	18.272	144.485	0.498
747.001	455.202	80.008	19.993	103.857	18.299	142.398	0.531
747.500	455.458	80.009	19.994	103.849	18.322	140.602	0.528
748.000	455.694	80.007	19.994	103.842	18.346	138.767	0.500
748.500	456.009	80.008	19.995	103.834	18.370	136.847	0.521
749.000	456.223	80.006	19.995	103.823	18.395	134.955	0.540
749.500	456.487	80.008	19.995	103.814	18.419	133.044	0.504
750.000	456.729	80.006	19.995	103.806	18.445	131.033	0.492
750.501	456.967	80.007	19.995	103.798	18.468	129.259	0.493
751.001	457.253	80.006	19.993	103.788	18.496	127.092	0.502
751.500	457.516	80.008	19.995	103.779	18.522	125.137	0.536
752.000	457.730	80.005	19.995	103.771	18.546	123.277	0.513
752.500	457.999	80.006	19.994	103.763	18.575	120.990	0.480
753.001	458.300	80.007	19.995	103.756	18.599	119.110	0.526
753.500	458.496	80.006	19.994	103.749	18.628	116.913	0.534
754.000	458.790	80.007	19.994	103.741	18.656	114.744	0.494
754.500	458.988	80.006	19.994	103.734	18.687	112.325	0.491
755.000	459.272	80.006	19.995	103.727	18.712	110.413	0.487
755.500	459.570	80.007	19.994	103.719	18.743	107.981	0.532
756.000	459.804	80.007	19.994	103.709	18.774	105.581	0.557
756.500	460.065	80.008	19.994	103.701	18.803	103.325	0.513
757.000	460.320	80.008	19.995	103.691	18.830	101.237	0.505
757.500	460.563	80.008	19.995	103.676	18.862	98.772	0.507
758.000	460.812	80.007	19.994	103.662	18.890	96.604	0.495
758.500	461.063	80.007	19.995	103.653	18.922	94.141	0.496
759.000	461.306	80.009	19.995	103.643	18.945	92.341	0.497
759.500	461.546	80.008	19.994	103.631	18.980	89.691	0.488
760.000	461.822	80.008	19.996	103.625	19.005	87.714	0.500
760.500	462.095	80.008	19.994	103.617	19.037	85.241	0.533
761.000	462.332	80.009	19.994	103.612	19.062	83.341	0.530
761.500	462.591	80.009	19.995	103.606	19.092	81.006	0.503
762.000	462.884	80.009	19.994	103.604	19.117	79.058	0.524
762.500	463.110	80.009	19.995	103.601	19.141	77.240	0.536
763.000	463.378	80.008	19.995	103.599	19.165	75.399	0.507
763.500	463.624	80.010	19.994	103.589	19.190	73.438	0.504
764.000	463.928	80.010	19.995	103.582	19.215	71.499	0.532
764.500	464.168	80.010	19.995	103.575	19.236	69.921	0.547
765.000	464.409	80.009	19.994	103.567	19.260	68.054	0.512
765.500	464.677	80.008	19.994	103.560	19.282	66.340	0.495
766.000	464.947	80.009	19.995	103.554	19.304	64.647	0.524
766.500	465.142	80.008	19.996	103.544	19.325	63.058	0.502
767.000	465.431	80.010	19.994	103.535	19.345	61.520	0.475
767.500	465.707	80.008	19.994	103.528	19.364	60.027	0.524
768.000	465.949	80.008	19.993	103.520	19.384	58.495	0.542
768.500	466.194	80.009	19.995	103.513	19.404	56.920	0.503
769.000	466.447	80.009	19.995	103.508	19.420	55.745	0.492
769.500	466.700	80.009	19.996	103.500	19.440	54.142	0.502
770.000	466.968	80.009	19.995	103.486	19.455	53.018	0.513
770.500	467.214	80.008	19.994	103.472	19.471	51.790	0.517
771.000	467.485	80.010	19.994	103.459	19.490	50.330	0.516
771.501	467.727	80.008	19.994	103.450	19.503	49.301	0.516
772.000	467.955	80.009	19.995	103.442	19.519	48.067	0.492
772.500	468.234	80.008	19.995	103.437	19.529	47.320	0.488
773.001	468.489	80.009	19.995	103.434	19.547	45.936	0.520
773.500	468.717	80.009	19.995	103.433	19.559	45.036	0.509
774.000	469.023	80.008	19.994	103.429	19.572	44.004	0.508
774.500	469.234	80.009	19.995	103.422	19.591	42.550	0.526
775.000	469.563	80.008	19.995	103.417	19.599	41.884	0.529
775.501	469.784	80.008	19.995	103.411	19.613	40.872	0.544
776.001	470.074	80.008	19.996	103.405	19.625	39.906	0.530
776.500	470.327	80.007	19.994	103.400	19.636	39.029	0.527
777.000	470.582	80.009	19.995	103.399	19.650	38.012	0.525
777.500	470.819	80.009	19.995	103.398	19.658	37.350	0.500
778.000	471.077	80.007	19.995	103.395	19.672	36.315	0.493
778.501	471.344	80.008	19.995	103.392	19.680	35.644	0.510
779.001	471.594	80.008	19.996	103.385	19.694	34.636	0.521
779.500	471.830	80.008	19.996	103.377	19.698	34.291	0.501
780.000	472.109	80.007	19.995	103.370	19.709	33.424	0.500
780.501	472.343	80.007	19.994	103.365	19.719	32.675	0.514
781.000	472.617	80.007	19.994	103.361	19.731	31.716	0.510
781.500	472.882	80.009	19.996	103.359	19.738	31.233	0.524
782.000	473.149	80.007	19.995	103.359	19.747	30.538	0.536
782.500	473.407	80.008	19.994	103.358	19.756	29.838	0.529
783.000	473.639	80.008	19.995	103.358	19.762	29.401	0.507
783.500	473.943	80.009	19.995	103.358	19.771	28.638	0.513
784.001	474.177	80.007	19.995	103.356	19.777	28.177	0.537
784.501	474.430	80.008	19.995	103.348	19.789	27.306	0.513
785.000	474.714	80.009	19.994	103.345	19.795	26.828	0.512
785.500	474.955	80.010	19.994	103.342	19.803	26.179	0.531
786.000	475.225	80.009	19.996	103.337	19.807	25.890	0.517
786.500	475.453	80.008	19.994	103.332	19.814	25.382	0.504
787.000	475.707	80.010	19.995	103.331	19.818	25.038	0.490
787.500	475.976	80.010	19.995	103.327	19.827	24.342	0.503
788.000	476.227	80.011	19.994	103.324	19.830	24.101	0.521
788.500	476.476	80.010	19.995	103.323	19.842	23.204	0.510
789.000	476.740	80.009	19.995	103.323	19.845	22.993	0.507
789.500	477.016	80.009	19.994	103.323	19.850	22.570	0.527
790.001	477.230	80.010	19.994	103.322	19.857	22.076	0.515
790.501	477.530	80.009	19.994	103.317	19.867	21.313	0.502
791.000	477.759	80.011	19.994	103.315	19.865	21.423	0.521
791.500	478.042	80.012	19.994	103.314	19.871	20.961	0.520
792.000	478.330	80.010	19.994	103.315	19.873	20.805	0.541
792.500	478.577	80.010	19.994	103.313	19.876	20.610	0.553
793.000	478.801	80.011	19.995	103.313	19.885	19.897	0.503
793.500	479.031	80.011	19.994	103.308	19.888	19.667	0.463
794.000	479.319	80.011	19.994	103.303	19.890	19.511	0.486
794.500	479.567	80.010	19.993	103.297	19.898	18.885	0.527
795.000	479.836	80.010	19.994	103.292	19.901	18.670	0.527
795.500	480.116	80.010	19.994	103.290	19.903	18.495	0.533
796.000	480.351	80.010	19.994	103.291	19.911	17.883	0.532
796.500	480.596	80.009	19.993	103.290	19.916	17.508	0.497
797.000	480.871	80.010	19.994	103.289	19.918	17.371	0.500
797.500	481.111	80.008	19.994	103.288	19.923	16.959	0.517
798.000	481.407	80.010	19.994	103.286	19.924	16.867	0.525
798.500	481.673	80.009	19.995	103.283	19.928	16.608	0.549
799.000	481.935	80.009	19.994	103.282	19.930	16.422	0.545
799.500	482.184	80.008	19.994	103.283	19.934	16.107	0.519
800.000	482.470	80.008	19.994	103.283	19.940	15.645	0.523
800.500	482.693	80.007	19.993	103.284	19.937	15.894	0.522
801.000	482.950	80.007	19.993	103.283	19.945	15.294	0.495
801.500	483.172	80.006	19.994	103.283	19.949	14.953	0.480
802.000	483.470	80.008	19.994	103.283	19.949	14.984	0.499
802.500	483.702	80.009	19.994	103.283	19.955	14.532	0.525
803.000	483.946	80.008	19.994	103.283	19.957	14.332	0.503
803.500	484.214	80.007	19.994	103.284	19.958	14.268	0.494
804.000	484.462	80.009	19.994	103.281	19.960	14.102	0.514
804.500	484.739	80.008	19.995	103.280	19.964	13.855	0.520
805.000	484.964	80.008	19.995	103.280	19.970	13.370	0.514
805.500	485.226	80.008	19.995	103.279	19.969	13.436	0.495
806.000	485.426	80.007	19.994	103.279	19.971	13.280	0.475
806.500	485.716	80.008	19.994	103.278	19.974	13.059	0.476
807.001	485.988	80.008	19.994	103.275	19.976	12.863	0.526
807.500	486.253	80.007	19.994	103.271	19.979	12.703	0.549
808.000	486.510	80.004	19.994	103.270	19.982	12.473	0.530
808.500	486.741	80.007	19.993	103.264	19.981	12.538	0.505
809.000	486.989	80.008	19.994	103.260	19.983	12.359	0.483
809.500	487.260	80.006	19.993	103.256	19.981	12.519	0.499
810.001	487.519	80.007	19.994	103.253	19.988	11.952	0.525
810.500	487.771	80.008	19.994	103.247	19.987	12.060	0.521
811.000	488.059	80.005	19.993	103.247	19.988	11.969	0.526
811.500	488.357	80.007	19.994	103.247	19.991	11.747	0.563
812.000	488.582	80.006	19.994	103.246	19.991	11.769	0.554
812.500	488.833	80.008	19.993	103.248	19.991	11.775	0.500
813.000	489.101	80.006	19.993	103.249	19.995	11.423	0.497
813.500	489.354	80.008	19.995	103.250	19.997	11.303	0.520
814.000	489.597	80.007	19.993	103.250	20.000	11.038	0.508
814.500	489.846	80.007	19.993	103.250	20.000	11.052	0.494
815.000	490.110	80.006	19.994	103.249	20.003	10.846	0.503
815.500	490.357	80.005	19.994	103.248	20.003	10.787	0.512
816.000	490.637	80.007	19.993	103.247	20.011	10.199	0.519
816.500	490.884	80.007	19.994	103.247	20.008	10.460	0.527
817.000	491.161	80.008	19.994	103.247	20.005	10.698	0.526
817.500	491.391	80.007	19.994	103.247	20.004	10.770	0.516
818.001	491.665	80.008	19.993	103.247	20.008	10.467	0.505
818.500	491.904	80.007	19.995	103.246	20.010	10.281	0.508
819.000	492.220	80.007	19.994	103.246	20.014	9.995	0.535
819.500	492.439	80.008	19.995	103.246	20.012	10.159	0.545
820.000	492.708	80.007	19.994	103.246	20.012	10.133	0.511
820.501	492.972	80.008	19.994	103.245	20.014	9.987	0.510
821.001	493.225	80.007	19.994	103.244	20.016	9.852	0.525
821.500	493.466	80.008	19.994	103.244	20.017	9.731	0.506
822.000	493.727	80.008	19.993	103.241	20.013	10.020	0.498
822.500	494.011	80.007	19.993	103.239	20.018	9.687	0.523
823.000	494.267	80.008	19.994	103.241	20.017	9.728	0.543
823.500	494.531	80.007	19.993	103.241	20.016	9.795	0.530
824.000	494.782	80.008	19.994	103.236	20.019	9.587	0.517
824.501	495.038	80.007	19.993	103.239	20.019	9.557	0.511
825.000	495.291	80.007	19.994	103.241	20.017	9.778	0.509
825.500	495.517	80.008	19.993	103.237	20.019	9.601	0.494
826.000	495.797	80.008	19.993	103.237	20.020	9.493	0.492
826.500	496.034	80.008	19.993	103.237	20.019	9.563	0.511
827.000	496.318	80.008	19.994	103.234	20.022	9.369	0.519
827.500	496.572	80.008	19.994	103.233	20.025	9.099	0.530
828.000	496.845	80.007	19.993	103.235	20.028	8.859	0.532
828.500	497.095	80.008	19.993	103.235	20.026	9.057	0.525
829.000	497.351	80.007	19.994	103.237	20.030	8.773	0.515
829.500	497.599	80.009	19.994	103.238	20.027	8.983	0.505
830.000	497.873	80.010	19.995	103.235	20.027	8.973	0.513
830.500	498.110	80.009	19.995	103.232	20.029	8.848	0.517
831.000	498.353	80.007	19.993	103.227	20.027	8.994	0.495
831.500	498.636	80.009	19.994	103.219	20.028	8.884	0.503
832.000	498.879	80.007	19.993	103.215	20.027	8.956	0.526
832.500	499.122	80.009	19.994	103.213	20.027	8.996	0.506
833.000	499.383	80.007	19.993	103.215	20.025	9.147	0.495
833.500	499.665	80.007	19.993	103.216	20.029	8.844	0.524
834.000	499.902	80.008	19.995	103.219	20.028	8.886	0.531
834.500	500.129	80.009	19.993	103.219	20.029	8.781	0.491
835.000	500.371	80.008	19.994	103.220	20.029	8.792	0.467
835.500	500.678	80.008	19.995	103.217	20.028	8.918	0.509
836.000	500.889	80.008	19.993	103.214	20.027	8.966	0.534
836.500	501.163	80.008	19.994	103.213	20.030	8.756	0.502
837.000	501.406	80.008	19.995	103.212	20.031	8.697	0.501
837.500	501.654	80.007	19.994	103.211	20.034	8.408	0.504
838.000	501.917	80.008	19.995	103.210	20.031	8.633	0.501
838.500	502.147	80.009	19.994	103.210	20.034	8.461	0.502
839.000	502.390	80.007	19.993	103.210	20.036	8.267	0.483
839.500	502.669	80.009	19.995	103.209	20.034	8.467	0.498
840.000	502.920	80.006	19.994	103.208	20.038	8.130	0.526
840.500	503.172	80.008	19.994	103.207	20.033	8.532	0.517
841.000	503.442	80.009	19.995	103.206	20.036	8.242	0.512
841.500	503.711	80.009	19.995	103.206	20.041	7.865	0.530
842.000	503.982	80.008	19.995	103.206	20.034	8.440	0.540
842.500	504.212	80.009	19.994	103.206	20.034	8.452	0.521
843.000	504.489	80.010	19.994	103.206	20.033	8.547	0.504
843.500	504.718	80.009	19.993	103.206	20.034	8.469	0.507
844.000	504.970	80.009	19.994	103.205	20.035	8.339	0.493
844.500	505.222	80.009	19.994	103.205	20.038	8.141	0.492
845.000	505.487	80.010	19.994	103.204	20.038	8.162	0.510
845.500	505.729	80.009	19.994	103.207	20.039	8.012	0.513
846.000	505.969	80.010	19.995	103.207	20.043	7.772	0.495
846.500	506.253	80.009	19.995	103.208	20.036	8.282	0.503
847.000	506.478	80.009	19.993	103.208	20.038	8.124	0.517
847.500	506.727	80.010	19.995	103.208	20.038	8.149	0.491
848.000	506.971	80.010	19.994	103.206	20.039	8.071	0.483
848.500	507.245	80.010	19.996	103.206	20.038	8.130	0.506
849.000	507.492	80.010	19.995	103.204	20.043	7.772	0.520
849.500	507.741	80.010	19.995	103.204	20.036	8.271	0.508
850.000	508.024	80.011	19.994	103.204	20.039	8.054	0.514
850.500	508.286	80.010	19.996	103.203	20.041	7.869	0.539
851.000	508.527	80.009	19.994	103.202	20.043	7.747	0.524
851.500	508.814	80.010	19.995	103.203	20.041	7.863	0.515
852.000	509.067	80.010	19.997	103.203	20.042	7.840	0.534
852.500	509.292	80.009	19.996	103.204	20.041	7.861	0.509
853.000	509.565	80.011	19.995	103.204	20.039	8.042	0.487
853.501	509.838	80.009	19.994	103.204	20.040	7.964	0.522
854.000	510.079	80.011	19.996	103.203	20.042	7.819	0.530
854.500	510.328	80.009	19.995	103.204	20.040	7.958	0.502
855.000	510.603	80.010	19.994	103.204	20.045	7.555	0.507
855.500	510.843	80.010	19.995	103.205	20.043	7.718	0.520
856.000	511.103	80.010	19.995	103.205	20.043	7.713	0.508
856.500	511.341	80.009	19.995	103.205	20.039	8.086	0.499
857.000	511.585	80.009	19.993	103.205	20.044	7.684	0.490
857.500	511.835	80.010	19.995	103.204	20.044	7.629	0.488
858.000	512.118	80.009	19.995	103.205	20.044	7.697	0.514
858.500	512.358	80.009	19.995	103.205	20.041	7.888	0.528
859.000	512.609	80.010	19.995	103.205	20.043	7.762	0.507
859.500	512.891	80.010	19.995	103.205	20.044	7.650	0.512
860.000	513.145	80.009	19.994	103.204	20.042	7.808	0.535
860.500	513.388	80.007	19.994	103.204	20.042	7.848	0.517
861.000	513.682	80.007	19.995	103.204	20.041	7.919	0.517
861.501	513.910	80.010	19.995	103.204	20.044	7.683	0.530
862.000	514.183	80.007	19.997	103.204	20.045	7.591	0.511
862.500	514.461	80.009	19.995	103.205	20.047	7.416	0.525
863.000	514.674	80.008	19.996	103.207	20.041	7.919	0.521
863.500	514.937	80.009	19.994	103.207	20.049	7.286	0.484
864.000	515.211	80.008	19.995	103.208	20.045	7.616	0.507
864.500	515.414	80.009	19.995	103.208	20.042	7.827	0.507
865.000	515.740	80.009	19.995	103.208	20.041	7.865	0.503
865.500	515.983	80.009	19.995	103.208	20.050	7.195	0.549
866.000	516.245	80.009	19.995	103.207	20.046	7.496	0.537
866.500	516.534	80.008	19.994	103.207	20.045	7.568	0.528
867.000	516.762	80.008	19.994	103.206	20.044	7.696	0.534
867.500	517.060	80.008	19.995	103.206	20.046	7.515	0.522
868.000	517.280	80.009	19.995	103.206	20.050	7.224	0.522
868.500	517.536	80.008	19.996	103.207	20.043	7.708	0.497
869.000	517.780	80.010	19.995	103.207	20.048	7.363	0.488
869.500	518.055	80.010	19.994	103.208	20.047	7.409	0.509
870.000	518.332	80.010	19.996	103.208	20.045	7.569	0.536
870.500	518.561	80.007	19.994	103.208	20.045	7.550	0.529
871.000	518.851	80.009	19.995	103.205	20.048	7.335	0.512
871.500	519.085	80.009	19.996	103.202	20.046	7.518	0.522
872.000	519.382	80.011	19.995	103.200	20.048	7.331	0.527
872.501	519.609	80.008	19.995	103.199	20.047	7.409	0.527
873.000	519.871	80.010	19.995	103.198	20.047	7.464	0.507
873.500	520.143	80.010	19.994	103.199	20.045	7.588	0.512
874.000	520.398	80.009	19.995	103.202	20.042	7.824	0.531
874.501	520.644	80.010	19.994	103.204	20.042	7.812	0.514
875.001	520.927	80.011	19.994	103.205	20.048	7.353	0.515
875.501	521.177	80.010	19.996	103.205	20.043	7.753	0.531
876.000	521.441	80.009	19.995	103.205	20.045	7.622	0.524
876.500	521.655	80.010	19.995	103.205	20.048	7.393	0.496
877.000	521.983	80.009	19.995	103.204	20.043	7.738	0.510
877.500	522.225	80.010	19.995	103.202	20.047	7.452	0.556
878.000	522.461	80.010	19.995	103.201	20.044	7.669	0.524
878.500	522.725	80.009	19.995	103.198	20.050	7.223	0.489
879.000	522.988	80.008	19.995	103.196	20.048	7.330	0.513
879.500	523.234	80.009	19.995	103.194	20.049	7.256	0.518
880.000	523.531	80.010	19.994	103.197	20.044	7.673	0.526
880.500	523.774	80.009	19.994	103.196	20.044	7.633	0.542
881.000	524.045	80.008	19.993	103.194	20.045	7.563	0.527
881.500	524.293	80.011	19.995	103.190	20.045	7.559	0.516
882.000	524.600	80.009	19.995	103.191	20.048	7.330	0.537
882.500	524.839	80.008	19.995	103.188	20.042	7.787	0.550
883.000	525.063	80.008	19.995	103.188	20.039	8.020	0.505
883.500	525.329	80.009	19.995	103.195	20.043	7.711	0.477
884.000	525.630	80.007	19.994	103.200	20.048	7.325	0.529
884.500	525.827	80.006	19.994	103.197	20.040	7.935	0.533
885.000	526.085	80.008	19.994	103.199	20.041	7.922	0.477
885.500	526.350	80.007	19.994	103.199	20.041	7.880	0.489
886.000	526.624	80.007	19.994	103.198	20.043	7.760	0.531
886.500	526.832	80.008	19.995	103.197	20.040	7.947	0.511
887.000	527.124	80.007	19.995	103.197	20.043	7.769	0.492
887.501	527.358	80.007	19.995	103.197	20.042	7.803	0.513
888.000	527.642	80.007	19.993	103.200	20.043	7.761	0.522
888.500	527.876	80.009	19.994	103.201	20.046	7.506	0.518
889.000	528.141	80.008	19.995	103.203	20.046	7.478	0.508
889.500	528.400	80.008	19.994	103.208	20.044	7.636	0.511
890.000	528.673	80.008	19.994	103.209	20.046	7.528	0.528
890.500	528.935	80.007	19.993	103.206	20.051	7.119	0.534
891.000	529.202	80.008	19.993	103.203	20.048	7.374	0.532
891.500	529.455	80.009	19.994	103.200	20.047	7.455	0.524
892.000	529.702	80.008	19.993	103.198	20.048	7.348	0.510
892.500	529.974	80.009	19.993	103.198	20.043	7.710	0.509
893.000	530.207	80.009	19.994	103.200	20.049	7.308	0.512
893.500	530.467	80.009	19.993	103.201	20.052	7.070	0.499
894.000	530.730	80.009	19.994	103.200	20.048	7.321	0.508
894.501	530.981	80.008	19.994	103.197	20.048	7.327	0.518
895.000	531.211	80.009	19.995	103.193	20.046	7.529	0.498
895.500	531.481	80.008	19.994	103.185	20.047	7.449	0.491
896.000	531.703	80.010	19.994	103.180	20.051	7.093	0.496
896.500	531.998	80.008	19.993	103.179	20.051	7.149	0.504
897.000	532.274	80.008	19.994	103.180	20.049	7.278	0.544
897.500	532.480	80.008	19.994	103.182	20.049	7.270	0.526
898.000	532.761	80.009	19.996	103.185	20.047	7.451	0.485
898.500	532.978	80.007	19.994	103.190	20.046	7.504	0.493
899.000	533.243	80.011	19.993	103.192	20.051	7.153	0.490
899.500	533.488	80.009	19.994	103.188	20.050	7.197	0.496
900.000	533.784	80.008	19.994	103.183	20.046	7.487	0.525
900.500	534.001	80.008	19.994	103.180	20.044	7.642	0.526
901.000	534.268	80.008	19.994	103.176	20.049	7.314	0.498
901.500	534.523	80.009	19.994	103.172	20.044	7.690	0.503
902.000	534.813	80.008	19.994	103.175	20.051	7.105	0.533
902.500	535.057	80.009	19.994	103.182	20.045	7.613	0.540
903.001	535.308	80.009	19.994	103.188	20.045	7.562	0.515
903.500	535.628	80.008	19.993	103.192	20.045	7.624	0.533
904.000	535.836	80.009	19.994	103.196	20.045	7.571	0.549
904.500	536.088	80.009	19.994	103.196	20.042	7.841	0.494
905.000	536.318	80.009	19.993	103.190	20.045	7.571	0.471
905.500	536.627	80.009	19.994	103.186	20.046	7.516	0.510
906.000	536.840	80.009	19.995	103.184	20.045	7.594	0.530
906.500	537.120	80.008	19.993	103.186	20.047	7.445	0.507
907.000	537.411	80.008	19.995	103.183	20.043	7.742	0.532
907.500	537.663	80.008	19.995	103.182	20.045	7.578	0.557
908.000	537.921	80.009	19.994	103.185	20.042	7.788	0.526
908.500	538.172	80.008	19.993	103.188	20.045	7.574	0.509
909.000	538.407	80.008	19.995	103.189	20.042	7.799	0.497
909.501	538.708	80.009	19.994	103.194	20.042	7.835	0.511
910.000	538.954	80.008	19.993	103.198	20.043	7.759	0.542
910.500	539.179	80.008	19.995	103.196	20.045	7.575	0.509
911.000	539.467	80.007	19.994	103.192	20.043	7.704	0.492
911.500	539.718	80.008	19.994	103.186	20.047	7.441	0.526
912.000	539.975	80.008	19.993	103.183	20.048	7.331	0.524
912.500	540.254	80.008	19.994	103.181	20.047	7.467	0.522
913.000	540.518	80.008	19.994	103.178	20.045	7.555	0.539
913.500	540.748	80.008	19.994	103.182	20.042	7.854	0.518
914.000	541.022	80.008	19.994	103.188	20.049	7.315	0.499
914.500	541.265	80.009	19.994	103.192	20.047	7.429	0.511
915.000	541.532	80.008	19.994	103.194	20.045	7.625	0.513
915.500	541.807	80.009	19.994	103.197	20.043	7.763	0.525
916.000	542.064	80.008	19.995	103.192	20.043	7.738	0.537
916.500	542.284	80.008	19.995	103.188	20.047	7.424	0.505
917.000	542.547	80.009	19.994	103.189	20.045	7.596	0.480
917.500	542.837	80.008	19.995	103.190	20.046	7.545	0.518
918.000	543.105	80.007	19.994	103.190	20.042	7.810	0.555
918.500	543.362	80.008	19.995	103.194	20.041	7.924	0.541
919.000	543.582	80.008	19.994	103.198	20.042	7.819	0.501
919.500	543.849	80.008	19.994	103.197	20.042	7.835	0.482
920.000	544.121	80.008	19.995	103.199	20.042	7.792	0.513
920.500	544.403	80.008	19.995	103.197	20.044	7.680	0.546
921.000	544.663	80.007	19.996	103.193	20.042	7.841	0.548
921.501	544.911	80.008	19.995	103.190	20.043	7.738	0.525
922.000	545.168	80.007	19.995	103.190	20.041	7.906	0.506
922.500	545.424	80.008	19.994	103.191	20.046	7.516	0.509
923.000	545.702	80.009	19.995	103.196	20.038	8.122	0.524
923.501	545.949	80.010	19.994	103.201	20.040	7.973	0.530
924.000	546.168	80.009	19.994	103.203	20.042	7.836	0.495
924.500	546.465	80.008	19.995	103.203	20.040	7.967	0.491
925.000	546.744	80.009	19.993	103.201	20.041	7.925	0.546
925.500	547.000	80.010	19.995	103.201	20.042	7.839	0.555
926.000	547.284	80.009	19.993	103.202	20.046	7.494	0.537
926.500	547.554	80.010	19.994	103.201	20.046	7.494	0.548
927.000	547.812	80.008	19.994	103.195	20.041	7.893	0.541
927.500	548.074	80.009	19.995	103.192	20.043	7.737	0.524
928.000	548.334	80.010	19.994	103.187	20.042	7.840	0.521
928.500	548.582	80.010	19.993	103.181	20.043	7.758	0.515
929.000	548.823	80.010	19.993	103.177	20.040	7.936	0.499
929.500	549.119	80.009	19.994	103.179	20.038	8.149	0.513
930.000	549.412	80.010	19.994	103.177	20.038	8.086	0.562
930.500	549.662	80.010	19.993	103.178	20.042	7.847	0.566
931.000	549.916	80.010	19.993	103.182	20.043	7.729	0.524
931.500	550.193	80.010	19.993	103.189	20.042	7.805	0.518
932.000	550.445	80.009	19.993	103.193	20.040	7.940	0.530
932.500	550.670	80.010	19.994	103.194	20.041	7.927	0.503
933.000	550.929	80.009	19.993	103.193	20.041	7.866	0.481
933.500	551.203	80.009	19.993	103.190	20.039	8.042	0.508
934.000	551.459	80.009	19.994	103.187	20.038	8.140	0.531
934.500	551.749	80.009	19.993	103.182	20.041	7.873	0.538
935.000	551.995	80.011	19.993	103.182	20.039	8.083	0.541
935.500	552.218	80.011	19.994	103.186	20.035	8.362	0.503
936.000	552.475	80.009	19.994	103.191	20.037	8.196	0.475
936.500	552.771	80.009	19.995	103.191	20.038	8.122	0.517
937.000	553.007	80.007	19.994	103.195	20.043	7.776	0.543
937.500	553.329	80.009	19.994	103.197	20.042	7.791	0.545
938.000	553.586	80.009	19.994	103.194	20.039	8.078	0.568
938.500	553.865	80.009	19.994	103.190	20.038	8.141	0.558
939.000	554.135	80.008	19.993	103.185	20.039	8.030	0.543
939.501	554.362	80.009	19.995	103.180	20.037	8.218	0.523
940.000	554.671	80.008	19.994	103.176	20.040	7.952	0.516
940.500	554.907	80.010	19.996	103.179	20.034	8.405	0.540
941.000	555.178	80.008	19.995	103.184	20.037	8.234	0.526
941.500	555.454	80.008	19.995	103.191	20.038	8.143	0.527
942.000	555.682	80.010	19.994	103.196	20.039	8.065	0.526
942.500	555.964	80.009	19.995	103.199	20.041	7.874	0.507
943.000	556.240	80.008	19.994	103.194	20.039	8.080	0.534
943.501	556.468	80.009	19.994	103.193	20.041	7.893	0.530
944.000	556.723	80.008	19.994	103.190	20.037	8.228	0.494
944.500	556.967	80.009	19.995	103.187	20.038	8.137	0.491
945.000	557.275	80.009	19.995	103.190	20.038	8.120	0.525
945.500	557.533	80.008	19.995	103.196	20.035	8.330	0.559
946.000	557.780	80.008	19.995	103.191	20.036	8.275	0.535
946.500	558.024	80.008	19.997	103.186	20.036	8.278	0.498
947.000	558.268	80.009	19.996	103.182	20.036	8.242	0.490
947.500	558.517	80.008	19.994	103.177	20.038	8.092	0.491
948.000	558.830	80.009	19.993	103.171	20.038	8.094	0.527
948.500	559.089	80.009	19.994	103.173	20.037	8.175	0.567
949.000	559.341	80.008	19.994	103.179	20.038	8.124	0.542
949.500	559.610	80.008	19.994	103.186	20.040	7.977	0.516
950.000	559.868	80.009	19.995	103.191	20.039	8.076	0.524
950.500	560.089	80.009	19.994	103.193	20.038	8.093	0.504
951.000	560.379	80.009	19.994	103.191	20.035	8.340	0.495
951.500	560.632	80.009	19.994	103.187	20.040	7.988	0.527
952.000	560.892	80.010	19.994	103.182	20.039	8.034	0.528
952.500	561.108	80.008	19.994	103.178	20.042	7.853	0.495
953.000	561.402	80.008	19.994	103.181	20.041	7.911	0.493
953.500	561.663	80.008	19.993	103.184	20.036	8.315	0.532
954.000	561.919	80.008	19.995	103.189	20.038	8.088	0.536
954.500	562.189	80.009	19.993	103.190	20.039	8.043	0.521
955.000	562.443	80.010	19.994	103.188	20.037	8.220	0.525
955.500	562.736	80.009	19.993	103.184	20.035	8.361	0.535
956.000	562.989	80.009	19.995	103.183	20.042	7.837	0.547
956.500	563.218	80.010	19.993	103.178	20.044	7.690	0.515
957.001	563.487	80.009	19.994	103.177	20.042	7.854	0.490
957.501	563.762	80.010	19.994	103.178	20.038	8.086	0.521
958.001	564.002	80.010	19.993	103.176	20.041	7.921	0.529
958.501	564.262	80.009	19.993	103.176	20.037	8.225	0.507
959.000	564.533	80.010	19.994	103.179	20.040	7.936	0.515
959.500	564.756	80.010	19.993	103.183	20.042	7.827	0.513
960.000	565.017	80.010	19.993	103.184	20.040	7.989	0.489
960.500	565.287	80.011	19.994	103.187	20.036	8.284	0.507
961.000	565.557	80.009	19.993	103.191	20.039	8.067	0.536
961.500	565.829	80.012	19.994	103.192	20.036	8.261	0.541
962.000	566.083	80.010	19.994	103.190	20.038	8.149	0.534
962.500	566.314	80.011	19.993	103.186	20.032	8.593	0.506
963.000	566.649	80.009	19.993	103.184	20.037	8.180	0.526
963.500	566.863	80.010	19.994	103.181	20.038	8.151	0.557
964.000	567.141	80.011	19.993	103.175	20.038	8.119	0.520
964.500	567.397	80.010	19.995	103.174	20.038	8.142	0.513
965.000	567.679	80.009	19.993	103.173	20.042	7.814	0.536
965.500	567.947	80.009	19.994	103.172	20.040	7.969	0.544
966.000	568.163	80.009	19.994	103.171	20.039	8.077	0.517
966.500	568.414	80.008	19.995	103.172	20.040	7.959	0.475
967.000	568.691	80.008	19.995	103.171	20.038	8.136	0.498
967.500	568.952	80.007	19.994	103.174	20.036	8.250	0.533
968.000	569.181	80.007	19.994	103.176	20.038	8.113	0.513
968.500	569.455	80.007	19.995	103.173	20.037	8.206	0.497
969.000	569.702	80.008	19.994	103.172	20.036	8.251	0.512
969.500	569.982	80.008	19.994	103.175	20.038	8.116	0.524
970.000	570.239	80.008	19.996	103.174	20.038	8.141	0.532
970.500	570.554	80.007	19.995	103.178	20.039	8.053	0.555
971.001	570.780	80.007	19.995	103.179	20.043	7.733	0.556
971.500	571.052	80.006	19.995	103.178	20.036	8.246	0.519
972.000	571.266	80.008	19.995	103.176	20.037	8.168	0.492
972.500	571.516	80.007	19.995	103.176	20.036	8.315	0.475
973.000	571.817	80.008	19.996	103.172	20.039	8.016	0.507
973.501	572.090	80.008	19.997	103.173	20.036	8.260	0.562
974.000	572.319	80.007	19.995	103.172	20.037	8.230	0.538
974.500	572.600	80.007	19.996	103.170	20.039	8.012	0.506
975.000	572.856	80.008	19.996	103.168	20.038	8.138	0.524
975.500	573.134	80.007	19.994	103.167	20.036	8.281	0.535
976.000	573.372	80.007	19.995	103.167	20.036	8.271	0.525
976.500	573.657	80.008	19.995	103.167	20.036	8.263	0.520
977.000	573.920	80.008	19.996	103.169	20.035	8.324	0.536
977.500	574.151	80.008	19.996	103.172	20.036	8.271	0.521
978.000	574.422	80.007	19.995	103.174	20.036	8.301	0.498
978.500	574.704	80.007	19.995	103.177	20.038	8.159	0.527
979.000	574.992	80.007	19.996	103.180	20.035	8.325	0.561
979.500	575.267	80.008	19.995	103.181	20.035	8.384	0.566
980.000	575.530	80.007	19.996	103.182	20.034	8.431	0.550
980.500	575.802	80.008	19.995	103.185	20.034	8.427	0.537
981.000	576.035	80.008	19.995	103.185	20.035	8.357	0.520
981.500	576.289	80.009	19.995	103.185	20.032	8.553	0.496
982.000	576.523	80.007	19.995	103.184	20.032	8.617	0.487
982.501	576.784	80.008	19.995	103.179	20.032	8.612	0.491
983.001	577.059	80.008	19.995	103.174	20.035	8.349	0.515
983.501	577.291	80.009	19.994	103.170	20.030	8.770	0.522
984.001	577.557	80.009	19.995	103.168	20.036	8.300	0.503
984.501	577.821	80.009	19.994	103.165	20.032	8.609	0.514
985.000	578.086	80.009	19.995	103.167	20.032	8.563	0.529
985.500	578.356	80.009	19.994	103.169	20.032	8.588	0.532
986.000	578.611	80.008	19.995	103.170	20.033	8.475	0.530
986.500	578.850	80.009	19.994	103.172	20.032	8.572	0.509
987.000	579.100	80.008	19.994	103.177	20.035	8.341	0.491
987.500	579.345	80.009	19.994	103.180	20.034	8.400	0.492
988.000	579.595	80.009	19.993	103.179	20.034	8.461	0.495
988.500	579.839	80.009	19.994	103.179	20.035	8.320	0.495
989.000	580.092	80.008	19.994	103.176	20.035	8.319	0.495
989.500	580.363	80.008	19.994	103.172	20.032	8.557	0.510
990.001	580.603	80.010	19.994	103.167	20.033	8.515	0.518
990.500	580.883	80.009	19.995	103.166	20.031	8.664	0.516
991.000	581.132	80.010	19.993	103.171	20.037	8.187	0.525
991.500	581.354	80.009	19.994	103.173	20.036	8.275	0.500
992.000	581.652	80.008	19.995	103.176	20.035	8.322	0.496
992.500	581.876	80.008	19.994	103.179	20.037	8.219	0.521
993.000	582.162	80.009	19.994	103.180	20.035	8.329	0.516
993.500	582.411	80.009	19.994	103.175	20.032	8.547	0.523
994.000	582.689	80.010	19.994	103.173	20.032	8.589	0.531
994.500	582.904	80.008	19.993	103.171	20.035	8.387	0.510
995.000	583.135	80.009	19.994	103.168	20.030	8.715	0.469
995.500	583.428	80.009	19.994	103.168	20.033	8.483	0.485
996.000	583.673	80.008	19.993	103.168	20.032	8.576	0.531
996.500	583.937	80.007	19.994	103.170	20.034	8.433	0.524
997.000	584.173	80.009	19.995	103.174	20.038	8.120	0.504
997.500	584.439	80.006	19.994	103.179	20.036	8.261	0.501
998.000	584.665	80.008	19.995	103.184	20.037	8.210	0.497
998.500	584.960	80.008	19.994	103.185	20.033	8.509	0.506
999.000	585.189	80.007	19.994	103.185	20.034	8.460	0.522
999.500	585.463	80.007	19.995	103.181	20.033	8.473	0.514
1000.000	585.690	80.006	19.995	103.176	20.033	8.534	0.502
1000.500	585.991	80.008	19.994	103.171	20.036	8.269	0.514
1001.000	586.263	80.006	19.995	103.171	20.032	8.612	0.550
1001.500	586.498	80.008	19.994	103.170	20.033	8.521	0.540
1002.000	586.760	80.008	19.995	103.173	20.031	8.629	0.502
1002.500	587.055	80.007	19.993	103.175	20.036	8.267	0.527
1003.000	587.265	80.008	19.995	103.179	20.036	8.260	0.531
1003.500	587.510	80.007	19.994	103.183	20.029	8.785	0.480
1004.000	587.780	80.006	19.994	103.186	20.025	9.105	0.486
1004.500	588.082	80.009	19.993	103.183	20.028	8.923	0.544
1005.000	588.294	80.007	19.994	103.181	20.030	8.759	0.543
1005.500	588.549	80.007	19.994	103.177	20.028	8.879	0.490
1006.000	588.824	80.008	19.994	103.174	20.031	8.681	0.498
1006.500	589.055	80.006	19.995	103.171	20.028	8.867	0.519
1007.000	589.325	80.007	19.994	103.172	20.030	8.713	0.504
1007.500	589.543	80.007	19.994	103.176	20.027	8.938	0.494
1008.000	589.852	80.007	19.994	103.179	20.027	8.938	0.507
1008.500	590.108	80.007	19.994	103.178	20.027	8.991	0.546
1009.000	590.345	80.008	19.994	103.178	20.026	9.007	0.529
1009.500	590.649	80.008	19.994	103.177	20.031	8.652	0.517
1010.000	590.876	80.010	19.994	103.173	20.027	8.997	0.536
1010.500	591.146	80.009	19.994	103.170	20.031	8.692	0.514
1011.000	591.392	80.007	19.994	103.170	20.025	9.111	0.507
1011.500	591.656	80.007	19.994	103.171	20.028	8.896	0.513
1012.000	591.926	80.008	19.994	103.173	20.028	8.854	0.522
1012.500	592.152	80.008	19.993	103.172	20.025	9.092	0.515
1013.000	592.398	80.008	19.994	103.174	20.032	8.593	0.484
1013.500	592.673	80.010	19.993	103.176	20.026	9.031	0.497
1014.000	592.906	80.009	19.993	103.175	20.026	9.045	0.514
1014.500	593.219	80.009	19.993	103.176	20.026	9.064	0.526
1015.000	593.406	80.010	19.994	103.176	20.024	9.233	0.523
1015.500	593.692	80.009	19.993	103.174	20.023	9.301	0.487
1016.000	593.957	80.009	19.993	103.172	20.024	9.213	0.512
1016.500	594.196	80.008	19.994	103.171	20.024	9.213	0.528
1017.000	594.457	80.009	19.993	103.170	20.026	9.063	0.502
1017.500	594.706	80.009	19.993	103.173	20.026	9.029	0.505
1018.000	594.956	80.008	19.993	103.173	20.024	9.229	0.505
1018.501	595.186	80.008	19.992	103.174	20.022	9.353	0.490
1019.001	595.450	80.009	19.993	103.173	20.024	9.195	0.487
1019.501	595.724	80.009	19.994	103.175	20.024	9.178	0.516
1020.000	595.990	80.009	19.995	103.172	20.025	9.098	0.539
1020.500	596.190	80.009	19.993	103.173	20.022	9.315	0.503
1021.000	596.418	80.011	19.994	103.173	20.021	9.462	0.447
1021.500	596.676	80.009	19.993	103.173	20.028	8.906	0.457
1022.000	596.926	80.009	19.994	103.173	20.022	9.336	0.497
1022.500	597.222	80.008	19.994	103.174	20.025	9.138	0.528
1023.000	597.501	80.006	19.992	103.175	20.024	9.176	0.561
1023.500	597.719	80.008	19.994	103.175	20.022	9.323	0.536
1024.000	597.966	80.009	19.993	103.175	20.024	9.203	0.481
1024.500	598.199	80.009	19.993	103.173	20.031	8.647	0.473
1025.000	598.459	80.009	19.993	103.172	20.026	9.037	0.486
1025.500	598.712	80.009	19.994	103.174	20.024	9.182	0.503
1026.000	598.998	80.010	19.995	103.180	20.027	8.935	0.526
1026.500	599.221	80.009	19.995	103.183	20.023	9.240	0.524
1027.000	599.506	80.009	19.995	103.186	20.025	9.133	0.508
1027.500	599.726	80.009	19.994	103.188	20.023	9.266	0.506
1028.000	600.010	80.009	19.993	103.186	20.026	9.045	0.504
1028.500	600.215	80.008	19.994	103.182	20.023	9.304	0.497
1029.000	600.464	80.008	19.995	103.182	20.024	9.182	0.472
1029.501	600.728	80.010	19.995	103.180	20.023	9.260	0.484
1030.001	600.971	80.009	19.994	103.177	20.023	9.289	0.510
1030.501	601.247	80.010	19.995	103.176	20.021	9.422	0.513
1031.001	601.469	80.010	19.994	103.173	20.025	9.119	0.509
1031.500	601.757	80.009	19.994	103.170	20.027	8.973	0.504
1032.000	601.964	80.009	19.994	103.169	20.025	9.150	0.502
1032.500	602.213	80.009	19.995	103.169	20.024	9.232	0.476
1033.000	602.535	80.010	19.993	103.169	20.027	8.999	0.513
1033.500	602.756	80.009	19.994	103.168	20.023	9.281	0.557
1034.000	603.025	80.011	19.994	103.168	20.028	8.891	0.517
1034.500	603.261	80.007	19.996	103.169	20.023	9.255	0.498
1035.001	603.495	80.009	19.994	103.169	20.024	9.196	0.487
1035.501	603.751	80.009	19.995	103.169	20.023	9.270	0.480
1036.000	604.012	80.010	19.995	103.169	20.025	9.119	0.503
1036.500	604.276	80.010	19.994	103.168	20.021	9.447	0.522
1037.000	604.559	80.010	19.994	103.166	20.024	9.188	0.536
1037.500	604.772	80.010	19.994	103.163	20.022	9.354	0.521
1038.000	605.072	80.009	19.994	103.163	20.025	9.114	0.504
1038.500	605.321	80.009	19.995	103.164	20.023	9.257	0.531
1039.001	605.550	80.012	19.994	103.166	20.022	9.318	0.514
1039.501	605.815	80.009	19.995	103.167	20.023	9.280	0.486
1040.000	606.037	80.012	19.994	103.169	20.022	9.342	0.491
1040.500	606.296	80.010	19.995	103.170	20.020	9.518	0.484
1041.001	606.566	80.011	19.995	103.169	20.023	9.249	0.505
1041.501	606.821	80.011	19.995	103.167	20.016	9.779	0.527
1042.001	607.064	80.010	19.994	103.167	20.025	9.125	0.512
1042.500	607.343	80.011	19.995	103.167	20.024	9.236	0.510
1043.000	607.550	80.011	19.996	103.166	20.023	9.272	0.504
1043.500	607.803	80.010	19.994	103.165	20.024	9.198	0.473
1044.000	608.075	80.011	19.995	103.166	20.021	9.415	0.493
1044.500	608.288	80.011	19.994	103.165	20.018	9.668	0.505
1045.000	608.569	80.011	19.994	103.165	20.022	9.348	0.490
1045.500	608.851	80.011	19.995	103.166	20.021	9.451	0.528
1046.000	609.075	80.010	19.995	103.167	20.026	9.081	0.534
1046.500	609.355	80.012	19.994	103.166	20.024	9.186	0.505
1047.000	609.630	80.011	19.995	103.167	20.029	8.849	0.530
1047.500	609.852	80.010	19.994	103.167	20.024	9.186	0.526
1048.000	610.112	80.009	19.994	103.165	20.024	9.173	0.489
1048.501	610.344	80.009	19.993	103.164	20.017	9.714	0.487
1049.001	610.627	80.009	19.994	103.164	20.024	9.236	0.504
1049.500	610.862	80.009	19.995	103.164	20.023	9.245	0.516
1050.000	611.137	80.009	19.994	103.164	20.028	8.923	0.514
1050.500	611.346	80.007	19.994	103.164	20.028	8.883	0.497
1051.000	611.616	80.009	19.995	103.165	20.026	9.024	0.481
1051.501	611.894	80.008	19.995	103.166	20.025	9.098	0.513
1052.001	612.150	80.008	19.995	103.166	20.026	9.041	0.541
1052.500	612.393	80.007	19.994	103.166	20.021	9.424	0.517
1053.000	612.651	80.008	19.994	103.167	20.025	9.108	0.500
1053.500	612.903	80.007	19.994	103.166	20.021	9.409	0.505
1054.000	613.167	80.009	19.994	103.166	20.028	8.929	0.513
1054.500	613.421	80.008	19.995	103.166	20.027	8.959	0.517
1055.000	613.651	80.008	19.994	103.165	20.026	9.083	0.501
1055.501	613.933	80.007	19.994	103.165	20.024	9.209	0.498
1056.001	614.211	80.009	19.995	103.166	20.023	9.266	0.536
1056.501	614.444	80.007	19.995	103.166	20.027	8.995	0.535
1057.001	614.676	80.008	19.995	103.166	20.031	8.660	0.488
1057.501	614.935	80.009	19.994	103.166	20.028	8.860	0.478
1058.001	615.222	80.006	19.994	103.166	20.028	8.925	0.519
1058.501	615.483	80.007	19.994	103.165	20.028	8.910	0.547
1059.001	615.737	80.008	19.994	103.165	20.026	9.028	0.532
1059.501	615.972	80.007	19.996	103.166	20.025	9.093	0.502
1060.000	616.281	80.008	19.995	103.167	20.026	9.018	0.517
1060.500	616.504	80.008	19.995	103.166	20.028	8.872	0.538
1061.000	616.757	80.008	19.995	103.167	20.023	9.291	0.504
1061.500	617.052	80.007	19.994	103.167	20.027	8.980	0.512
1062.001	617.308	80.006	19.995	103.167	20.031	8.656	0.549
1062.501	617.546	80.007	19.994	103.167	20.032	8.601	0.522
1063.001	617.778	80.007	19.995	103.167	20.028	8.870	0.482
1063.500	618.024	80.007	19.995	103.167	20.027	8.957	0.474
1064.000	618.293	80.008	19.995	103.168	20.029	8.839	0.497
1064.501	618.531	80.009	19.996	103.168	20.029	8.847	0.511
1065.001	618.799	80.007	19.994	103.168	20.030	8.767	0.506
1065.500	619.036	80.006	19.995	103.170	20.028	8.902	0.505
1066.000	619.280	80.008	19.997	103.169	20.025	9.085	0.493
1066.500	619.512	80.007	19.995	103.170	20.027	8.961	0.479
1067.000	619.802	80.006	19.994	103.171	20.029	8.832	0.499
1067.501	620.014	80.007	19.994	103.171	20.030	8.710	0.512
1068.001	620.291	80.006	19.996	103.169	20.033	8.519	0.495
1068.500	620.573	80.008	19.995	103.168	20.029	8.780	0.524
1069.000	620.802	80.008	19.995	103.167	20.030	8.725	0.535
1069.501	621.075	80.007	19.996	103.166	20.030	8.704	0.507
1070.001	621.327	80.007	19.995	103.166	20.029	8.788	0.514
1070.501	621.599	80.007	19.995	103.167	20.029	8.830	0.525
1071.001	621.872	80.007	19.997	103.168	20.029	8.841	0.534
1071.500	622.060	80.006	19.995	103.169	20.029	8.839	0.503
1072.000	622.330	80.007	19.996	103.169	20.031	8.628	0.459
1072.500	622.610	80.006	19.996	103.169	20.028	8.862	0.504
1073.000	622.842	80.008	19.995	103.169	20.032	8.595	0.531
1073.500	623.131	80.008	19.995	103.168	20.026	9.031	0.516
1074.000	623.366	80.008	19.996	103.168	20.029	8.812	0.522
1074.500	623.603	80.007	19.994	103.167	20.031	8.664	0.498
1075.000	623.881	80.008	19.996	103.167	20.030	8.770	0.494
1075.500	624.135	80.008	19.996	103.166	20.034	8.464	0.524
1076.000	624.408	80.008	19.994	103.165	20.032	8.553	0.529
1076.501	624.630	80.008	19.995	103.165	20.035	8.344	0.510
1077.001	624.879	80.006	19.995	103.165	20.031	8.681	0.483
1077.500	625.161	80.008	19.995	103.166	20.030	8.727	0.502
1078.001	625.387	80.008	19.995	103.167	20.034	8.412	0.520
1078.502	625.662	80.007	19.995	103.169	20.033	8.473	0.505
1079.001	625.918	80.007	19.994	103.170	20.035	8.323	0.516
1079.500	626.127	80.008	19.994	103.170	20.034	8.420	0.498
1080.000	626.373	80.007	19.994	103.170	20.031	8.658	0.460
1080.501	626.662	80.009	19.995	103.170	20.035	8.388	0.494
1081.001	626.941	80.008	19.994	103.170	20.033	8.513	0.551
1081.500	627.188	80.008	19.995	103.169	20.035	8.336	0.547
1082.000	627.467	80.008	19.995	103.169	20.035	8.380	0.526
1082.500	627.681	80.009	19.994	103.169	20.035	8.329	0.509
1083.000	627.961	80.007	19.994	103.169	20.035	8.390	0.493
1083.500	628.182	80.007	19.995	103.169	20.036	8.306	0.497
1084.000	628.477	80.007	19.994	103.170	20.033	8.483	0.508
1084.500	628.711	80.006	19.994	103.171	20.036	8.306	0.523
1085.001	628.978	80.008	19.994	103.171	20.035	8.388	0.515
1085.501	629.211	80.008	19.993	103.172	20.035	8.340	0.500
1086.001	629.484	80.006	19.992	103.172	20.036	8.241	0.503
1086.501	629.753	80.006	19.993	103.172	20.033	8.524	0.524
1087.001	629.948	80.008	19.994	103.171	20.037	8.200	0.503
1087.500	630.232	80.008	19.993	103.171	20.037	8.166	0.471
1088.000	630.487	80.008	19.994	103.171	20.035	8.343	0.509
1088.500	630.760	80.007	19.993	103.171	20.036	8.244	0.534
1089.000	631.028	80.008	19.994	103.171	20.035	8.356	0.534
1089.500	631.279	80.006	19.994	103.171	20.036	8.272	0.530
1090.000	631.551	80.008	19.994	103.170	20.032	8.563	0.521
1090.500	631.788	80.007	19.993	103.170	20.033	8.510	0.517
1091.000	632.081	80.006	19.994	103.170	20.036	8.304	0.520
1091.501	632.308	80.008	19.994	103.170	20.033	8.523	0.525
1092.001	632.552	80.008	19.994	103.170	20.034	8.407	0.496
1092.500	632.794	80.007	19.994	103.171	20.033	8.500	0.478
1093.000	633.061	80.007	19.994	103.170	20.037	8.196	0.497
1093.500	633.263	80.008	19.994	103.169	20.038	8.152	0.489
1094.000	633.561	80.008	19.994	103.169	20.036	8.314	0.485
1094.500	633.841	80.008	19.994	103.169	20.037	8.165	0.540
1095.000	634.118	80.008	19.994	103.169	20.035	8.388	0.568
1095.500	634.331	80.009	19.994	103.168	20.036	8.274	0.523
1096.000	634.617	80.009	19.995	103.167	20.034	8.451	0.495
1096.500	634.858	80.009	19.995	103.165	20.035	8.369	0.514
1097.001	635.139	80.010	19.994	103.163	20.041	7.893	0.525
1097.501	635.390	80.010	19.995	103.159	20.034	8.439	0.527
1098.001	635.665	80.009	19.992	103.157	20.036	8.300	0.529
1098.500	635.871	80.010	19.994	103.156	20.038	8.144	0.503
1099.000	636.161	80.009	19.995	103.157	20.037	8.182	0.488
1099.501	636.407	80.010	19.994	103.158	20.038	8.159	0.516
1100.001	636.660	80.009	19.995	103.162	20.039	8.037	0.517
1100.500	636.916	80.010	19.994	103.164	20.040	7.995	0.504
1101.000	637.197	80.009	19.994	103.165	20.035	8.357	0.523
1101.501	637.442	80.008	19.995	103.165	20.037	8.230	0.531
1102.001	637.670	80.010	19.994	103.165	20.043	7.750	0.500
1102.500	637.939	80.010	19.995	103.165	20.038	8.093	0.485
1103.000	638.192	80.008	19.993	103.164	20.038	8.102	0.509
1103.500	638.464	80.010	19.994	103.164	20.036	8.281	0.523
1104.000	638.710	80.008	19.995	103.165	20.038	8.117	0.522
1104.501	638.938	80.009	19.994	103.166	20.034	8.399	0.496
1105.001	639.207	80.010	19.994	103.166	20.036	8.241	0.486
1105.500	639.464	80.009	19.994	103.167	20.039	8.020	0.512
1106.000	639.712	80.009	19.994	103.166	20.037	8.199	0.516
1106.500	639.986	80.009	19.994	103.166	20.042	7.841	0.514
1107.001	640.282	80.009	19.994	103.164	20.040	7.931	0.546
1107.501	640.501	80.009	19.994	103.164	20.044	7.687	0.542
1108.000	640.727	80.009	19.994	103.165	20.043	7.771	0.480
1108.500	641.012	80.010	19.994	103.166	20.041	7.906	0.477
1109.000	641.280	80.010	19.995	103.166	20.043	7.773	0.532
1109.501	641.529	80.009	19.995	103.167	20.044	7.656	0.536
1110.001	641.771	80.010	19.995	103.170	20.042	7.853	0.505
1110.500	642.043	80.009	19.994	103.170	20.039	8.068	0.503
1111.001	642.285	80.009	19.995	103.172	20.045	7.573	0.514
1111.501	642.553	80.009	19.994	103.172	20.044	7.637	0.512
1112.001	642.813	80.010	19.992	103.171	20.045	7.554	0.519
1112.501	643.073	80.009	19.994	103.168	20.040	7.946	0.524
1113.000	643.328	80.008	19.994	103.168	20.038	8.159	0.517
1113.500	643.583	80.009	19.994	103.166	20.040	7.935	0.513
1114.000	643.876	80.009	19.993	103.166	20.043	7.763	0.529
1114.500	644.121	80.010	19.994	103.166	20.039	8.028	0.543
1115.000	644.367	80.010	19.992	103.166	20.039	8.051	0.514
1115.500	644.625	80.009	19.994	103.166	20.045	7.599	0.498
1116.001	644.866	80.009	19.994	103.165	20.041	7.908	0.502
1116.501	645.119	80.010	19.994	103.165	20.045	7.559	0.497
1117.000	645.370	80.010	19.994	103.165	20.045	7.590	0.500
1117.501	645.622	80.009	19.994	103.165	20.042	7.843	0.504
1118.002	645.911	80.009	19.995	103.165	20.043	7.733	0.522
1118.501	646.164	80.009	19.996	103.166	20.044	7.626	0.541
1119.000	646.436	80.011	19.994	103.166	20.044	7.641	0.533
1119.500	646.675	80.009	19.995	103.166	20.047	7.403	0.518
1120.000	646.932	80.009	19.994	103.166	20.048	7.369	0.504
1120.500	647.189	80.009	19.993	103.166	20.045	7.609	0.505
1121.000	647.445	80.009	19.993	103.165	20.041	7.902	0.513
1121.500	647.713	80.010	19.993	103.164	20.047	7.415	0.518
1122.000	647.960	80.011	19.995	103.164	20.047	7.401	0.519
1122.500	648.213	80.010	19.994	103.164	20.046	7.537	0.508
1123.000	648.510	80.011	19.994	103.164	20.045	7.560	0.525
1123.500	648.769	80.011	19.993	103.164	20.048	7.331	0.553
1124.000	648.999	80.012	19.995	103.165	20.047	7.411	0.523
1124.500	649.281	80.011	19.994	103.164	20.043	7.702	0.501
1125.000	649.564	80.011	19.993	103.163	20.052	7.049	0.539
1125.500	649.801	80.010	19.994	103.163	20.047	7.397	0.543
1126.000	650.043	80.011	19.994	103.164	20.044	7.694	0.499
1126.500	650.343	80.011	19.994	103.165	20.042	7.849	0.511
1127.000	650.551	80.009	19.994	103.166	20.045	7.578	0.525
1127.500	650.830	80.011	19.994	103.167	20.044	7.687	0.497
1128.000	651.063	80.010	19.992	103.166	20.047	7.416	0.499
1128.500	651.333	80.010	19.993	103.166	20.040	8.007	0.508
1129.000	651.621	80.010	19.993	103.164	20.041	7.881	0.531
1129.500	651.856	80.010	19.994	103.164	20.044	7.670	0.540
1130.000	652.146	80.009	19.993	103.164	20.045	7.620	0.524
1130.500	652.382	80.011	19.995	103.165	20.046	7.483	0.525
1131.000	652.629	80.009	19.993	103.165	20.043	7.729	0.505
1131.500	652.878	80.010	19.993	103.166	20.044	7.666	0.490
1132.000	653.150	80.009	19.993	103.163	20.046	7.472	0.508
1132.500	653.396	80.010	19.994	103.162	20.044	7.695	0.519
1133.000	653.649	80.009	19.994	103.163	20.048	7.369	0.509
1133.500	653.955	80.008	19.994	103.162	20.048	7.375	0.529
1134.000	654.202	80.009	19.995	103.161	20.046	7.521	0.556
1134.500	654.426	80.007	19.993	103.165	20.047	7.426	0.512
1135.001	654.735	80.008	19.993	103.165	20.046	7.497	0.502
1135.501	654.971	80.008	19.995	103.165	20.043	7.714	0.539
1136.000	655.269	80.007	19.994	103.165	20.046	7.521	0.540
1136.500	655.507	80.006	19.994	103.167	20.044	7.634	0.535
1137.000	655.746	80.007	19.995	103.166	20.048	7.357	0.507
1137.500	655.999	80.007	19.995	103.167	20.045	7.605	0.485
1138.000	656.253	80.008	19.995	103.167	20.043	7.708	0.500
1138.500	656.496	80.006	19.994	103.167	20.046	7.473	0.502
1139.000	656.751	80.007	19.994	103.168	20.044	7.679	0.497
1139.500	656.994	80.007	19.995	103.168	20.045	7.548	0.498
1140.000	657.239	80.007	19.995	103.167	20.043	7.754	0.493
1140.500	657.498	80.007	19.994	103.166	20.041	7.874	0.496
1141.000	657.773	80.008	19.995	103.167	20.047	7.453	0.519
1141.500	657.982	80.008	19.994	103.167	20.045	7.599	0.509
1142.001	658.269	80.007	19.994	103.166	20.044	7.683	0.489
1142.500	658.499	80.007	19.993	103.164	20.046	7.511	0.507
1143.000	658.757	80.007	19.994	103.164	20.048	7.393	0.503
1143.500	659.016	80.009	19.996	103.163	20.046	7.490	0.503
1144.000	659.263	80.007	19.994	103.163	20.050	7.233	0.511
1144.500	659.555	80.007	19.995	103.162	20.046	7.471	0.522
1145.000	659.749	80.008	19.995	103.164	20.049	7.258	0.512
1145.500	660.037	80.008	19.996	103.163	20.048	7.380	0.484
1146.000	660.288	80.007	19.995	103.162	20.047	7.403	0.510
1146.500	660.529	80.007	19.995	103.161	20.046	7.515	0.515
1147.001	660.785	80.008	19.995	103.162	20.046	7.495	0.494
1147.500	661.063	80.007	19.994	103.165	20.050	7.222	0.516
1148.000	661.298	80.007	19.995	103.167	20.048	7.380	0.524
1148.500	661.537	80.008	19.994	103.168	20.045	7.603	0.494
1149.000	661.805	80.008	19.993	103.169	20.047	7.416	0.490
1149.500	662.015	80.006	19.995	103.170	20.046	7.494	0.492
1150.000	662.307	80.009	19.994	103.169	20.041	7.858	0.489
1150.500	662.540	80.008	19.994	103.169	20.042	7.811	0.513
1151.000	662.832	80.008	19.994	103.164	20.043	7.742	0.525
1151.500	663.061	80.006	19.993	103.164	20.040	8.003	0.524
1152.000	663.299	80.006	19.993	103.164	20.046	7.527	0.494
1152.500	663.509	80.009	19.994	103.163	20.040	7.992	0.457
1153.000	663.790	80.007	19.994	103.164	20.045	7.584	0.470
1153.500	664.045	80.006	19.993	103.169	20.042	7.847	0.513
1154.000	664.292	80.007	19.994	103.168	20.048	7.361	0.519
1154.500	664.526	80.008	19.994	103.169	20.046	7.491	0.492
1155.000	664.828	80.008	19.995	103.169	20.044	7.693	0.509
1155.500	665.050	80.009	19.993	103.169	20.041	7.883	0.530
1156.000	665.296	80.007	19.994	103.169	20.051	7.135	0.496
1156.500	665.544	80.008	19.994	103.169	20.047	7.443	0.481
1157.000	665.820	80.008	19.996	103.166	20.046	7.519	0.509
1157.500	666.095	80.008	19.994	103.166	20.050	7.167	0.538
1158.000	666.274	80.008	19.995	103.164	20.053	6.957	0.503
1158.500	666.548	80.007	19.994	103.163	20.049	7.270	0.453
1159.000	666.807	80.007	19.995	103.164	20.047	7.407	0.492
1159.501	667.085	80.008	19.995	103.166	20.044	7.678	0.535
1160.000	667.322	80.007	19.995	103.166	20.051	7.105	0.527
1160.500	667.590	80.008	19.994	103.167	20.044	7.655	0.510
1161.000	667.824	80.008	19.996	103.167	20.043	7.716	0.503
1161.500	668.070	80.008	19.996	103.165	20.045	7.573	0.491
1162.000	668.302	80.009	19.996	103.166	20.052	7.062	0.479
1162.500	668.552	80.007	19.996	103.165	20.050	7.222	0.480
1163.000	668.841	80.006	19.995	103.165	20.050	7.211	0.510
1163.500	669.048	80.007	19.996	103.165	20.052	7.077	0.518
1164.001	669.305	80.007	19.996	103.166	20.044	7.699	0.480
1164.500	669.551	80.005	19.994	103.166	20.048	7.354	0.484
1165.000	669.846	80.007	19.997	103.165	20.053	6.952	0.522
1165.500	670.085	80.006	19.995	103.165	20.051	7.127	0.537
1166.000	670.293	80.006	19.996	103.164	20.050	7.171	0.491
1166.500	670.554	80.006	19.995	103.164	20.051	7.144	0.459
1167.000	670.833	80.006	19.996	103.163	20.053	6.988	0.504
1167.500	671.036	80.007	19.995	103.163	20.053	6.961	0.511
1168.001	671.356	80.006	19.995	103.163	20.052	7.079	0.503
1168.500	671.623	80.006	19.995	103.164	20.050	7.228	0.556
1169.000	671.826	80.007	19.995	103.163	20.046	7.504	0.529
1169.500	672.122	80.006	19.995	103.163	20.053	6.984	0.485
1170.000	672.352	80.006	19.996	103.158	20.051	7.131	0.513
1170.500	672.631	80.007	19.997	103.152	20.052	7.011	0.518
1171.000	672.863	80.006	19.996	103.152	20.052	7.083	0.510
1171.500	673.158	80.007	19.997	103.152	20.050	7.180	0.519
1172.000	673.386	80.007	19.997	103.154	20.053	6.952	0.525
1172.500	673.639	80.007	19.995	103.159	20.048	7.327	0.502
1173.000	673.925	80.006	19.996	103.166	20.051	7.137	0.510
1173.500	674.180	80.007	19.995	103.165	20.052	7.080	0.540
1174.000	674.391	80.006	19.994	103.165	20.051	7.143	0.503
1174.500	674.683	80.007	19.993	103.162	20.043	7.703	0.484
1175.000	674.946	80.007	19.995	103.162	20.044	7.626	0.529
1175.500	675.229	80.008	19.995	103.161	20.048	7.375	0.550
1176.001	675.422	80.007	19.996	103.162	20.046	7.500	0.511
1176.501	675.708	80.008	19.995	103.162	20.048	7.392	0.478
1177.000	675.990	80.008	19.995	103.163	20.046	7.531	0.523
1177.500	676.251	80.008	19.995	103.164	20.048	7.316	0.555
1178.000	676.510	80.009	19.995	103.164	20.055	6.830	0.532
1178.501	676.728	80.008	19.994	103.164	20.052	7.028	0.499
1179.001	677.012	80.008	19.995	103.164	20.047	7.432	0.489
1179.500	677.299	80.009	19.994	103.165	20.053	7.002	0.536
1180.000	677.493	80.009	19.995	103.165	20.051	7.091	0.526
1180.500	677.765	80.010	19.995	103.165	20.046	7.514	0.473
1181.000	678.052	80.010	19.995	103.163	20.048	7.373	0.512
1181.500	678.315	80.011	19.994	103.164	20.052	7.036	0.554
1182.001	678.548	80.009	19.993	103.163	20.049	7.249	0.523
1182.500	678.807	80.010	19.995	103.162	20.049	7.245	0.494
1183.000	679.053	80.009	19.994	103.162	20.045	7.561	0.498
1183.500	679.300	80.010	19.994	103.161	20.055	6.828	0.499
1184.000	679.599	80.009	19.996	103.156	20.050	7.228	0.520
1184.500	679.856	80.011	19.995	103.155	20.051	7.096	0.551
1185.001	680.114	80.009	19.994	103.156	20.048	7.323	0.536
1185.501	680.376	80.010	19.995	103.154	20.050	7.188	0.518
1186.000	680.603	80.009	19.994	103.158	20.052	7.074	0.505
1186.500	680.866	80.009	19.993	103.161	20.053	6.946	0.490
1187.000	681.124	80.011	19.995	103.164	20.050	7.187	0.506
1187.500	681.376	80.008	19.994	103.163	20.049	7.311	0.515
1188.000	681.587	80.008	19.994	103.164	20.050	7.168	0.486
1188.500	681.817	80.009	19.993	103.162	20.047	7.450	0.452
1189.000	682.092	80.008	19.994	103.160	20.051	7.087	0.473
1189.500	682.329	80.011	19.995	103.158	20.046	7.483	0.509
1190.000	682.618	80.008	19.994	103.156	20.049	7.300	0.519
1190.500	682.867	80.007	19.994	103.153	20.048	7.371	0.532
1191.001	683.115	80.007	19.993	103.155	20.041	7.893	0.518
1191.500	683.381	80.007	19.994	103.155	20.049	7.306	0.505
1192.000	683.601	80.010	19.995	103.156	20.049	7.255	0.500
1192.500	683.914	80.009	19.995	103.157	20.052	7.060	0.510
1193.000	684.194	80.008	19.994	103.160	20.048	7.318	0.564
1193.500	684.434	80.009	19.994	103.160	20.048	7.352	0.557
1194.000	684.683	80.008	19.994	103.163	20.049	7.266	0.505
1194.500	684.915	80.008	19.994	103.164	20.048	7.392	0.485
1195.000	685.162	80.007	19.993	103.165	20.047	7.440	0.479
1195.500	685.403	80.009	19.994	103.164	20.045	7.563	0.483
1196.000	685.689	80.007	19.994	103.163	20.050	7.232	0.508
1196.501	685.944	80.008	19.993	103.161	20.041	7.910	0.534
1197.000	686.198	80.008	19.993	103.161	20.047	7.426	0.525
1197.500	686.446	80.010	19.994	103.156	20.051	7.087	0.506
1198.000	686.673	80.008	19.993	103.154	20.045	7.611	0.489
1198.500	686.989	80.008	19.994	103.151	20.050	7.180	0.509
1199.000	687.228	80.007	19.995	103.152	20.046	7.527	0.549
1199.500	687.431	80.009	19.995	103.151	20.047	7.411	0.498
1200.000	687.699	80.009	19.995	103.157	20.046	7.470	0.456
1200.500	687.972	80.009	19.995	103.161	20.049	7.270	0.506
1201.000	688.215	80.008	19.994	103.166	20.047	7.435	0.529
1201.500	688.456	80.007	19.993	103.166	20.051	7.157	0.500
1202.000	688.737	80.008	19.993	103.165	20.050	7.163	0.503
1202.500	688.990	80.008	19.994	103.164	20.049	7.280	0.528
1203.000	689.228	80.009	19.993	103.162	20.045	7.566	0.512
1203.500	689.438	80.010	19.994	103.161	20.053	6.998	0.469
1204.000	689.718	80.011	19.995	103.158	20.048	7.354	0.469
1204.500	689.998	80.010	19.994	103.156	20.049	7.314	0.525
1205.000	690.243	80.010	19.993	103.156	20.048	7.356	0.543
1205.500	690.476	80.011	19.995	103.159	20.047	7.418	0.501
1206.000	690.748	80.010	19.993	103.159	20.046	7.527	0.491
1206.500	690.997	80.011	19.995	103.160	20.048	7.378	0.513
1207.000	691.279	80.010	19.994	103.164	20.051	7.100	0.526
1207.500	691.482	80.009	19.992	103.163	20.049	7.245	0.508
1208.000	691.772	80.012	19.994	103.162	20.054	6.929	0.489
1208.500	692.029	80.010	19.992	103.161	20.050	7.236	0.520
1209.001	692.284	80.010	19.994	103.162	20.047	7.406	0.529
1209.501	692.513	80.011	19.994	103.161	20.050	7.215	0.498
1210.000	692.796	80.011	19.994	103.161	20.053	6.952	0.499
1210.500	693.012	80.011	19.994	103.163	20.045	7.556	0.506
1211.000	693.302	80.009	19.993	103.164	20.045	7.594	0.502
1211.500	693.507	80.010	19.993	103.166	20.050	7.203	0.500
1212.000	693.797	80.010	19.993	103.167	20.047	7.415	0.495
1212.500	694.042	80.010	19.994	103.164	20.052	7.047	0.515
1213.000	694.296	80.008	19.993	103.160	20.045	7.576	0.517
1213.500	694.560	80.009	19.993	103.153	20.048	7.388	0.508
1214.000	694.808	80.010	19.994	103.148	20.052	7.068	0.515
1214.500	695.042	80.009	19.993	103.147	20.045	7.620	0.497
1215.001	695.345	80.009	19.994	103.151	20.049	7.241	0.509
1215.500	695.594	80.008	19.994	103.155	20.054	6.858	0.544
1216.000	695.865	80.008	19.993	103.162	20.048	7.321	0.536
1216.500	696.094	80.007	19.993	103.168	20.047	7.415	0.510
1217.000	696.362	80.006	19.993	103.168	20.049	7.314	0.499
1217.500	696.625	80.009	19.994	103.166	20.052	7.084	0.514
1218.000	696.891	80.007	19.993	103.163	20.051	7.141	0.530
1218.500	697.088	80.009	19.994	103.158	20.046	7.543	0.496
1219.000	697.356	80.007	19.993	103.156	20.048	7.355	0.464
1219.501	697.595	80.007	19.994	103.155	20.045	7.563	0.486
1220.001	697.888	80.006	19.994	103.155	20.045	7.563	0.519
1220.500	698.110	80.007	19.994	103.155	20.048	7.319	0.523
1221.000	698.397	80.005	19.992	103.159	20.050	7.172	0.513
1221.500	698.616	80.008	19.995	103.159	20.049	7.282	0.508
1222.000	698.882	80.007	19.996	103.160	20.050	7.190	0.495
1222.500	699.126	80.006	19.995	103.162	20.052	7.017	0.497
1223.000	699.394	80.008	19.996	103.163	20.053	7.005	0.511
1223.500	699.640	80.008	19.995	103.163	20.046	7.490	0.513
1224.000	699.867	80.008	19.995	103.166	20.049	7.242	0.493
1224.500	700.127	80.007	19.995	103.166	20.052	7.076	0.480
1225.000	700.364	80.008	19.996	103.165	20.048	7.343	0.492
1225.500	700.627	80.006	19.994	103.165	20.050	7.217	0.499
1226.001	700.851	80.006	19.994	103.165	20.053	6.956	0.493
1226.501	701.125	80.007	19.995	103.165	20.050	7.174	0.492
1227.000	701.367	80.007	19.994	103.162	20.051	7.105	0.507
1227.500	701.635	80.007	19.993	103.161	20.051	7.101	0.513
1228.000	701.864	80.008	19.995	103.160	20.052	7.084	0.503
1228.500	702.140	80.007	19.995	103.156	20.050	7.208	0.501
1229.000	702.395	80.007	19.994	103.149	20.055	6.795	0.518
1229.500	702.605	80.009	19.995	103.145	20.051	7.155	0.498
1230.000	702.866	80.007	19.996	103.141	20.047	7.399	0.468
1230.500	703.128	80.006	19.994	103.135	20.048	7.317	0.497
1231.000	703.352	80.007	19.995	103.133	20.046	7.513	0.504
1231.500	703.642	80.006	19.995	103.139	20.047	7.429	0.500
1232.000	703.901	80.008	19.996	103.147	20.045	7.549	0.531
1232.500	704.175	80.007	19.994	103.151	20.052	7.023	0.541
1233.000	704.371	80.009	19.995	103.154	20.051	7.150	0.501
1233.500	704.595	80.008	19.993	103.159	20.045	7.598	0.445
1234.000	704.856	80.008	19.995	103.157	20.050	7.175	0.453
1234.500	705.137	80.007	19.994	103.152	20.043	7.739	0.514
1235.000	705.374	80.008	19.995	103.150	20.046	7.503	0.530
1235.500	705.618	80.008	19.996	103.152	20.050	7.172	0.499
1236.000	705.877	80.009	19.995	103.151	20.054	6.926	0.492
1236.500	706.151	80.008	19.995	103.151	20.051	7.141	0.518
1237.000	706.373	80.009	19.996	103.151	20.054	6.878	0.515
1237.500	706.624	80.007	19.995	103.149	20.049	7.250	0.485
1238.000	706.891	80.007	19.995	103.147	20.048	7.368	0.495
1238.500	707.157	80.008	19.996	103.145	20.053	6.970	0.525
1239.000	707.374	80.008	19.995	103.144	20.048	7.359	0.508
1239.500	707.603	80.008	19.996	103.143	20.052	7.029	0.465
1240.000	707.860	80.007	19.995	103.143	20.052	7.008	0.466
1240.500	708.097	80.007	19.993	103.140	20.051	7.103	0.490
1241.000	708.372	80.008	19.994	103.137	20.046	7.509	0.503
1241.500	708.605	80.008	19.996	103.133	20.047	7.410	0.510
1242.000	708.853	80.008	19.995	103.138	20.049	7.256	0.495
1242.500	709.097	80.009	19.995	103.141	20.051	7.124	0.487
1243.000	709.387	80.008	19.996	103.148	20.046	7.505	0.513
1243.500	709.607	80.007	19.995	103.156	20.049	7.286	0.521
1244.001	709.862	80.008	19.995	103.162	20.054	6.880	0.492
1244.500	710.118	80.008	19.995	103.161	20.049	7.250	0.494
1245.000	710.354	80.007	19.994	103.158	20.050	7.233	0.502
1245.500	710.595	80.008	19.994	103.150	20.049	7.276	0.484
1246.000	710.852	80.007	19.993	103.148	20.045	7.608	0.487
1246.500	711.109	80.007	19.995	103.149	20.051	7.094	0.506
1247.001	711.373	80.009	19.995	103.151	20.047	7.433	0.518
1247.500	711.623	80.008	19.995	103.150	20.046	7.502	0.518
1248.000	711.834	80.008	19.994	103.151	20.050	7.222	0.487
1248.500	712.086	80.006	19.994	103.149	20.050	7.228	0.462
1249.000	712.343	80.007	19.994	103.145	20.048	7.323	0.486
1249.500	712.617	80.007	19.995	103.141	20.051	7.121	0.520
1250.000	712.830	80.008	19.995	103.145	20.051	7.136	0.509
1250.500	713.113	80.008	19.996	103.151	20.051	7.100	0.491
1251.000	713.362	80.008	19.995	103.152	20.057	6.662	0.514
1251.501	713.604	80.008	19.994	103.151	20.050	7.205	0.512
1252.001	713.847	80.008	19.995	103.150	20.051	7.088	0.488
1252.500	714.117	80.007	19.994	103.149	20.050	7.237	0.499
1253.000	714.415	80.007	19.995	103.148	20.053	6.932	0.541
1253.500	714.642	80.008	19.995	103.151	20.046	7.526	0.546
1254.000	714.877	80.005	19.995	103.151	20.052	7.036	0.493
1254.500	715.158	80.008	19.995	103.154	20.052	7.059	0.489
1255.000	715.392	80.008	19.996	103.153	20.057	6.695	0.516
1255.500	715.620	80.007	19.996	103.151	20.050	7.228	0.488
1256.000	715.940	80.008	19.994	103.150	20.048	7.367	0.505
1256.500	716.209	80.006	19.994	103.152	20.052	7.041	0.569
1257.000	716.444	80.009	19.994	103.149	20.050	7.213	0.547
1257.500	716.659	80.005	19.994	103.144	20.048	7.333	0.477
1258.000	716.886	80.008	19.996	103.140	20.049	7.255	0.446
1258.500	717.171	80.007	19.996	103.136	20.055	6.834	0.477
1259.000	717.377	80.008	19.995	103.132	20.051	7.118	0.502
1259.500	717.603	80.006	19.996	103.132	20.050	7.205	0.462
1260.000	717.897	80.008	19.995	103.133	20.054	6.908	0.476
1260.500	718.157	80.007	19.995	103.134	20.052	7.059	0.537
1261.000	718.412	80.007	19.995	103.135	20.051	7.154	0.535
1261.500	718.689	80.008	19.995	103.135	20.055	6.779	0.524
1262.000	718.912	80.008	19.994	103.134	20.049	7.292	0.516
1262.500	719.173	80.008	19.996	103.137	20.054	6.913	0.492
1263.000	719.417	80.008	19.994	103.142	20.054	6.892	0.494
1263.500	719.681	80.008	19.995	103.142	20.051	7.122	0.507
1264.000	719.944	80.009	19.996	103.146	20.049	7.252	0.517
1264.501	720.186	80.009	19.994	103.152	20.057	6.676	0.516
1265.000	720.425	80.010	19.996	103.156	20.054	6.926	0.493
1265.500	720.683	80.009	19.996	103.158	20.051	7.095	0.489
1266.000	720.922	80.008	19.995	103.160	20.056	6.752	0.497
1266.500	721.144	80.007	19.995	103.162	20.050	7.185	0.479
1267.000	721.419	80.009	19.995	103.162	20.058	6.575	0.479
1267.500	721.657	80.008	19.994	103.161	20.053	6.992	0.505
1268.001	721.925	80.010	19.996	103.157	20.050	7.170	0.509
1268.501	722.223	80.008	19.995	103.158	20.050	7.185	0.536
1269.001	722.455	80.009	19.997	103.158	20.055	6.848	0.548
1269.500	722.663	80.006	19.994	103.154	20.050	7.195	0.485
1270.000	722.921	80.008	19.996	103.153	20.050	7.179	0.453
1270.500	723.186	80.008	19.995	103.157	20.049	7.271	0.494
1271.000	723.439	80.008	19.994	103.157	20.055	6.798	0.520
1271.500	723.698	80.010	19.996	103.157	20.055	6.838	0.515
1272.000	723.926	80.009	19.995	103.156	20.049	7.249	0.500
1272.500	724.210	80.008	19.994	103.155	20.050	7.220	0.500
1273.000	724.470	80.009	19.994	103.149	20.052	7.053	0.528
1273.500	724.705	80.008	19.994	103.148	20.051	7.146	0.519
1274.000	724.945	80.009	19.994	103.148	20.057	6.651	0.485
1274.500	725.196	80.009	19.993	103.150	20.053	6.933	0.483
1275.000	725.472	80.008	19.993	103.146	20.055	6.789	0.510
1275.500	725.727	80.009	19.995	103.147	20.058	6.615	0.529
1276.000	726.009	80.006	19.993	103.147	20.053	6.971	0.534
1276.501	726.279	80.009	19.994	103.150	20.049	7.299	0.544
1277.000	726.506	80.008	19.994	103.151	20.054	6.899	0.524
1277.500	726.752	80.008	19.994	103.152	20.050	7.198	0.485
1278.000	727.004	80.007	19.993	103.153	20.046	7.476	0.485
1278.500	727.312	80.009	19.994	103.152	20.047	7.417	0.529
1279.000	727.550	80.007	19.995	103.149	20.050	7.236	0.553
1279.500	727.799	80.008	19.994	103.146	20.048	7.352	0.517
1280.000	728.048	80.008	19.994	103.146	20.051	7.097	0.493
1280.500	728.325	80.007	19.993	103.147	20.049	7.278	0.512
1281.000	728.619	80.009	19.994	103.148	20.057	6.690	0.548
1281.500	728.838	80.009	19.995	103.151	20.052	7.025	0.542
1282.000	729.102	80.009	19.995	103.155	20.055	6.844	0.498
1282.500	729.330	80.007	19.993	103.159	20.056	6.750	0.487
1283.000	729.599	80.008	19.994	103.162	20.052	7.021	0.494
1283.500	729.848	80.008	19.995	103.163	20.056	6.741	0.508
1284.000	730.100	80.008	19.995	103.162	20.053	6.968	0.510
1284.500	730.362	80.008	19.993	103.157	20.056	6.726	0.508
1285.000	730.581	80.009	19.995	103.156	20.053	6.957	0.498
1285.500	730.842	80.009	19.993	103.153	20.054	6.879	0.480
1286.000	731.134	80.009	19.993	103.149	20.052	7.033	0.516
1286.500	731.399	80.008	19.993	103.149	20.058	6.567	0.555
1287.000	731.660	80.010	19.993	103.154	20.055	6.838	0.542
1287.500	731.889	80.009	19.994	103.156	20.048	7.352	0.508
1288.000	732.154	80.010	19.995	103.157	20.055	6.809	0.492
1288.500	732.413	80.010	19.994	103.158	20.050	7.208	0.509
1289.000	732.671	80.010	19.994	103.157	20.054	6.865	0.520
1289.501	732.929	80.012	19.995	103.157	20.051	7.154	0.517
1290.001	733.183	80.011	19.994	103.155	20.051	7.137	0.515
1290.502	733.436	80.010	19.993	103.153	20.048	7.356	0.510
1291.001	733.673	80.011	19.995	103.152	20.049	7.282	0.499
1291.500	733.925	80.009	19.993	103.150	20.048	7.341	0.490
1292.000	734.177	80.010	19.995	103.148	20.046	7.499	0.496
1292.500	734.456	80.010	19.992	103.149	20.052	7.082	0.517
1293.000	734.683	80.012	19.993	103.153	20.046	7.537	0.519
1293.500	734.972	80.009	19.994	103.152	20.048	7.341	0.511
1294.000	735.221	80.010	19.993	103.152	20.050	7.164	0.527
1294.500	735.446	80.010	19.993	103.146	20.048	7.355	0.506
1295.000	735.711	80.009	19.993	103.140	20.053	6.966	0.482
1295.500	735.979	80.009	19.993	103.138	20.052	7.050	0.512
1296.000	736.222	80.010	19.994	103.142	20.050	7.165	0.522
1296.500	736.476	80.009	19.994	103.141	20.052	7.018	0.504
1297.000	736.727	80.010	19.995	103.147	20.050	7.214	0.501
1297.500	736.982	80.009	19.995	103.154	20.054	6.882	0.506
1298.000	737.200	80.009	19.995	103.156	20.049	7.265	0.490
1298.501	737.458	80.010	19.995	103.154	20.050	7.236	0.474
1299.001	737.737	80.008	19.995	103.157	20.053	6.977	0.506
1299.500	738.027	80.008	19.995	103.153	20.046	7.543	0.553
1300.000	738.238	80.008	19.994	103.150	20.048	7.355	0.535
1300.500	738.510	80.008	19.996	103.150	20.049	7.262	0.492
1301.000	738.727	80.008	19.995	103.153	20.054	6.888	0.486
1301.500	739.010	80.008	19.993	103.154	20.051	7.138	0.494
1302.000	739.248	80.008	19.995	103.155	20.048	7.340	0.511
1302.500	739.515	80.007	19.994	103.153	20.054	6.863	0.513
1303.000	739.773	80.008	19.995	103.153	20.050	7.167	0.515
1303.500	739.977	80.009	19.995	103.151	20.053	6.969	0.493
1304.000	740.243	80.008	19.994	103.151	20.052	7.072	0.465
1304.500	740.489	80.008	19.994	103.151	20.051	7.155	0.491
1305.000	740.721	80.009	19.993	103.148	20.053	6.963	0.495
1305.500	740.977	80.009	19.996	103.145	20.056	6.728	0.483
1306.001	741.240	80.009	19.994	103.142	20.053	6.978	0.503
1306.501	741.506	80.009	19.995	103.138	20.051	7.147	0.524
1307.001	741.755	80.008	19.994	103.137	20.051	7.098	0.522
1307.501	741.980	80.007	19.994	103.141	20.048	7.353	0.495
1308.000	742.280	80.008	19.994	103.142	20.053	6.984	0.499
1308.500	742.509	80.007	19.992	103.147	20.054	6.921	0.527
1309.000	742.752	80.009	19.994	103.151	20.058	6.622	0.501
1309.500	743.050	80.009	19.994	103.155	20.057	6.627	0.506
1310.000	743.291	80.009	19.994	103.154	20.054	6.919	0.539
1310.501	743.524	80.010	19.994	103.149	20.049	7.247	0.507
