Sample ID:	C:\MCC\MCC Cal\Test\Polyester_Microfiber_Sheet_MCC_30K_min_211209_R3.txt
Sample Weight (mg):	4.85
Heating Rate (C/s):	0.5
Combustor Temp (C):	900
N2 Flow Rate (cc/min):	80
O2 Flow Rate (cc/min):	20
Calibration File:	C:\MCC\MCC Cal\Coeff1 JN10440_30_210304.txt.txt
T Correction Coefficients:	0	1.024463	0
Time Shift (s):	14
*
Time (s)	Temperature (C)	N2 flow rate (cc/min)	O2 flow rate (cc/min)	Flow Rate (cc/min)	Oxygen (%)	HRR (W/g)	Heating rate (C/s)
0.000	108.004	80.011	19.993	103.045	19.867	0.050	0.006
0.500	108.011	80.010	19.992	103.045	19.865	0.192	-0.009
1.000	108.010	80.022	19.997	103.045	19.871	-0.183	-0.004
1.500	108.018	80.026	19.997	103.047	19.872	-0.228	0.006
2.000	108.012	80.023	19.997	103.049	19.870	-0.111	0.004
2.500	108.008	80.015	19.996	103.049	19.873	-0.303	-0.004
3.000	108.000	80.012	19.996	103.050	19.873	-0.292	-0.011
3.500	108.016	80.009	19.995	103.050	19.871	-0.206	-0.003
4.000	108.021	80.010	19.996	103.049	19.871	-0.202	0.014
4.500	108.010	80.009	19.994	103.047	19.872	-0.238	0.008
5.000	108.041	80.010	19.995	103.047	19.874	-0.371	0.007
5.500	108.013	80.009	19.995	103.048	19.871	-0.211	0.012
6.000	108.022	80.010	19.994	103.049	19.872	-0.231	-0.007
6.500	108.023	80.009	19.994	103.050	19.872	-0.245	-0.004
7.000	108.021	80.009	19.995	103.051	19.871	-0.204	0.004
7.500	108.029	80.008	19.994	103.055	19.873	-0.288	0.002
8.000	108.050	80.007	19.993	103.055	19.872	-0.245	0.017
8.500	108.013	80.010	19.994	103.059	19.870	-0.122	0.007
9.000	108.027	80.009	19.995	103.065	19.868	0.038	-0.019
9.500	108.026	80.009	19.994	103.071	19.869	-0.047	-0.005
10.000	108.020	80.010	19.994	103.075	19.869	-0.023	0.003
10.500	108.043	80.008	19.994	103.084	19.864	0.290	0.005
11.000	108.038	80.010	19.994	103.093	19.866	0.165	0.018
11.500	107.994	80.009	19.993	103.102	19.864	0.298	-0.015
12.000	108.004	80.009	19.994	103.111	19.867	0.115	-0.042
12.500	108.032	80.009	19.994	103.119	19.864	0.303	0.002
13.000	108.052	80.009	19.993	103.124	19.863	0.339	0.043
13.500	108.081	80.009	19.994	103.126	19.862	0.405	0.048
14.000	108.027	80.010	19.994	103.125	19.861	0.504	0.012
14.500	108.074	80.010	19.995	103.125	19.861	0.505	-0.016
15.000	108.086	80.010	19.994	103.124	19.861	0.511	0.026
15.500	108.082	80.009	19.994	103.125	19.859	0.633	0.034
16.000	108.112	80.011	19.995	103.125	19.858	0.712	0.017
16.500	108.143	80.009	19.994	103.127	19.858	0.705	0.043
17.000	108.191	80.009	19.993	103.128	19.861	0.504	0.070
17.500	108.203	80.010	19.994	103.129	19.858	0.647	0.070
18.000	108.193	80.010	19.994	103.128	19.858	0.710	0.031
18.500	108.222	80.010	19.995	103.127	19.859	0.629	0.011
19.000	108.281	80.010	19.995	103.126	19.858	0.671	0.054
19.500	108.286	80.009	19.994	103.127	19.858	0.696	0.076
20.000	108.286	80.009	19.994	103.127	19.856	0.814	0.034
20.501	108.288	80.010	19.993	103.128	19.853	0.990	0.004
21.001	108.350	80.010	19.994	103.129	19.853	1.017	0.033
21.500	108.407	80.009	19.995	103.134	19.853	1.008	0.091
22.000	108.411	80.009	19.995	103.141	19.851	1.148	0.090
22.500	108.432	80.010	19.995	103.149	19.852	1.062	0.044
23.000	108.448	80.009	19.994	103.156	19.851	1.135	0.031
23.500	108.485	80.010	19.993	103.163	19.852	1.056	0.045
24.000	108.495	80.009	19.993	103.166	19.850	1.207	0.050
24.500	108.569	80.009	19.993	103.166	19.848	1.354	0.066
25.000	108.594	80.008	19.992	103.166	19.848	1.374	0.092
25.500	108.627	80.010	19.996	103.166	19.848	1.314	0.079
26.000	108.690	80.011	19.996	103.171	19.850	1.185	0.077
26.500	108.676	80.009	19.996	103.179	19.849	1.291	0.072
27.000	108.711	80.009	19.996	103.186	19.848	1.347	0.035
27.500	108.753	80.009	19.997	103.194	19.849	1.297	0.050
28.000	108.785	80.009	19.994	103.201	19.848	1.360	0.075
28.500	108.823	80.010	19.994	103.197	19.849	1.270	0.071
29.000	108.846	80.009	19.994	103.192	19.847	1.437	0.065
29.500	108.908	80.009	19.994	103.188	19.846	1.501	0.073
30.000	108.956	80.008	19.994	103.188	19.846	1.448	0.097
30.500	109.050	80.009	19.993	103.190	19.845	1.557	0.126
31.000	109.078	80.008	19.994	103.197	19.846	1.491	0.133
31.500	109.115	80.008	19.993	103.201	19.842	1.738	0.093
32.000	109.174	80.008	19.994	103.207	19.845	1.544	0.080
32.500	109.229	80.008	19.994	103.207	19.841	1.787	0.105
33.000	109.289	80.008	19.995	103.208	19.844	1.606	0.115
33.500	109.325	80.008	19.993	103.212	19.840	1.851	0.106
34.000	109.386	80.008	19.994	103.215	19.842	1.710	0.096
34.500	109.428	80.009	19.994	103.215	19.844	1.586	0.099
35.000	109.492	80.010	19.995	103.215	19.841	1.796	0.104
35.500	109.562	80.008	19.994	103.216	19.841	1.808	0.120
36.001	109.608	80.009	19.995	103.213	19.842	1.712	0.125
36.501	109.678	80.009	19.994	103.211	19.845	1.554	0.116
37.001	109.757	80.009	19.994	103.217	19.840	1.891	0.133
37.500	109.805	80.009	19.995	103.225	19.839	1.965	0.138
38.000	109.839	80.008	19.995	103.231	19.840	1.868	0.104
38.500	109.926	80.009	19.995	103.237	19.838	1.984	0.101
39.000	110.025	80.008	19.995	103.244	19.837	2.101	0.154
39.500	110.084	80.007	19.995	103.246	19.839	1.927	0.172
40.000	110.176	80.008	19.994	103.246	19.838	1.975	0.155
40.500	110.263	80.009	19.995	103.247	19.839	1.973	0.165
41.000	110.367	80.008	19.995	103.244	19.836	2.124	0.185
41.500	110.417	80.008	19.995	103.243	19.838	2.000	0.172
42.000	110.534	80.008	19.995	103.242	19.841	1.832	0.160
42.500	110.626	80.008	19.995	103.241	19.838	2.013	0.188
43.000	110.707	80.008	19.996	103.240	19.835	2.181	0.191
43.500	110.770	80.009	19.996	103.243	19.834	2.241	0.158
44.000	110.857	80.009	19.996	103.245	19.837	2.099	0.147
44.500	110.970	80.009	19.995	103.247	19.834	2.302	0.176
45.000	111.036	80.009	19.994	103.248	19.835	2.237	0.190
45.500	111.111	80.009	19.995	103.248	19.837	2.095	0.160
46.000	111.201	80.009	19.995	103.248	19.834	2.258	0.153
46.500	111.294	80.009	19.994	103.251	19.836	2.124	0.174
47.000	111.405	80.009	19.993	103.254	19.835	2.237	0.193
47.500	111.547	80.008	19.994	103.256	19.831	2.485	0.228
48.000	111.631	80.010	19.995	103.259	19.834	2.280	0.239
48.501	111.722	80.009	19.994	103.259	19.833	2.339	0.200
49.001	111.821	80.009	19.994	103.257	19.833	2.318	0.182
49.500	111.921	80.010	19.993	103.253	19.832	2.400	0.195
50.001	112.043	80.010	19.995	103.254	19.834	2.271	0.211
50.501	112.102	80.009	19.994	103.251	19.831	2.477	0.202
51.000	112.211	80.009	19.994	103.250	19.834	2.280	0.174
51.501	112.322	80.010	19.995	103.250	19.834	2.300	0.194
52.001	112.477	80.010	19.996	103.252	19.835	2.199	0.243
52.501	112.550	80.011	19.995	103.251	19.832	2.388	0.247
53.001	112.676	80.011	19.994	103.251	19.832	2.413	0.213
53.500	112.804	80.011	19.995	103.251	19.831	2.481	0.227
54.000	112.919	80.011	19.994	103.251	19.831	2.474	0.249
54.500	113.007	80.011	19.995	103.248	19.829	2.582	0.223
55.000	113.104	80.011	19.994	103.246	19.831	2.482	0.194
55.500	113.267	80.011	19.995	103.245	19.833	2.370	0.222
56.000	113.389	80.011	19.994	103.246	19.831	2.446	0.272
56.500	113.494	80.011	19.995	103.245	19.830	2.548	0.256
57.000	113.605	80.011	19.995	103.245	19.829	2.575	0.222
57.500	113.692	80.011	19.994	103.246	19.831	2.465	0.207
58.000	113.851	80.010	19.995	103.246	19.831	2.462	0.221
58.500	113.974	80.009	19.995	103.246	19.831	2.485	0.264
59.000	114.089	80.010	19.994	103.246	19.830	2.541	0.261
59.500	114.206	80.010	19.994	103.244	19.830	2.548	0.235
60.000	114.343	80.010	19.994	103.242	19.835	2.236	0.243
60.500	114.484	80.011	19.994	103.243	19.832	2.433	0.266
61.000	114.589	80.011	19.995	103.243	19.829	2.605	0.262
61.500	114.686	80.010	19.995	103.243	19.830	2.519	0.224
62.000	114.861	80.010	19.995	103.246	19.829	2.611	0.236
62.500	114.984	80.010	19.994	103.250	19.832	2.379	0.285
63.001	115.093	80.009	19.995	103.254	19.833	2.345	0.265
63.501	115.221	80.010	19.995	103.255	19.829	2.604	0.234
64.000	115.388	80.010	19.995	103.258	19.828	2.692	0.266
64.500	115.465	80.009	19.995	103.264	19.830	2.563	0.270
65.000	115.645	80.009	19.995	103.265	19.826	2.787	0.250
65.500	115.779	80.010	19.995	103.266	19.829	2.609	0.285
66.000	115.875	80.010	19.996	103.271	19.827	2.749	0.272
66.500	116.034	80.010	19.994	103.273	19.831	2.471	0.242
67.000	116.194	80.010	19.996	103.273	19.827	2.745	0.287
67.500	116.291	80.009	19.994	103.276	19.825	2.862	0.288
68.001	116.417	80.009	19.996	103.276	19.826	2.776	0.240
68.501	116.559	80.010	19.994	103.273	19.826	2.808	0.245
69.000	116.704	80.009	19.995	103.272	19.828	2.693	0.278
69.500	116.880	80.011	19.995	103.272	19.823	2.979	0.304
70.000	116.983	80.011	19.995	103.272	19.824	2.939	0.300
70.501	117.139	80.010	19.995	103.273	19.827	2.724	0.269
71.001	117.312	80.011	19.995	103.275	19.824	2.932	0.294
71.501	117.419	80.009	19.996	103.275	19.828	2.663	0.304
72.001	117.565	80.011	19.996	103.273	19.828	2.665	0.267
72.500	117.716	80.010	19.995	103.273	19.830	2.561	0.275
73.000	117.917	80.010	19.995	103.274	19.829	2.595	0.324
73.500	118.041	80.011	19.994	103.276	19.830	2.571	0.338
74.000	118.243	80.010	19.997	103.278	19.828	2.670	0.326
74.500	118.389	80.011	19.995	103.280	19.828	2.661	0.337
75.000	118.501	80.011	19.995	103.280	19.829	2.588	0.303
75.500	118.625	80.011	19.996	103.280	19.829	2.629	0.247
76.000	118.821	80.011	19.995	103.279	19.831	2.444	0.278
76.500	118.923	80.011	19.995	103.278	19.830	2.546	0.309
77.000	119.159	80.010	19.995	103.278	19.832	2.403	0.318
77.500	119.260	80.011	19.996	103.278	19.829	2.593	0.338
78.000	119.403	80.010	19.996	103.278	19.833	2.363	0.291
78.500	119.599	80.011	19.997	103.279	19.827	2.713	0.291
79.000	119.729	80.011	19.995	103.278	19.831	2.476	0.332
79.500	119.888	80.011	19.995	103.279	19.829	2.629	0.307
80.000	120.057	80.011	19.995	103.279	19.829	2.598	0.309
80.500	120.244	80.011	19.994	103.278	19.831	2.500	0.342
81.000	120.380	80.011	19.996	103.278	19.829	2.611	0.340
81.501	120.543	80.009	19.995	103.279	19.828	2.663	0.311
82.001	120.724	80.010	19.996	103.278	19.827	2.721	0.321
82.500	120.873	80.010	19.995	103.278	19.826	2.803	0.337
83.000	121.017	80.009	19.995	103.278	19.827	2.773	0.311
83.501	121.203	80.010	19.996	103.277	19.830	2.514	0.311
84.001	121.346	80.010	19.995	103.276	19.830	2.534	0.330
84.500	121.593	80.010	19.994	103.276	19.830	2.566	0.360
85.000	121.720	80.008	19.995	103.277	19.830	2.557	0.382
85.500	121.910	80.010	19.997	103.277	19.828	2.649	0.345
86.001	122.101	80.008	19.996	103.277	19.831	2.455	0.349
86.501	122.243	80.008	19.997	103.278	19.829	2.613	0.357
87.001	122.454	80.010	19.995	103.279	19.829	2.573	0.343
87.501	122.591	80.010	19.995	103.281	19.829	2.579	0.351
88.000	122.780	80.008	19.994	103.285	19.832	2.426	0.337
88.500	122.984	80.009	19.995	103.286	19.828	2.647	0.360
89.001	123.136	80.009	19.994	103.287	19.828	2.647	0.374
89.501	123.301	80.008	19.995	103.287	19.828	2.679	0.336
90.000	123.485	80.008	19.993	103.285	19.828	2.649	0.333
90.500	123.684	80.008	19.994	103.283	19.828	2.692	0.366
91.000	123.897	80.008	19.995	103.283	19.829	2.629	0.397
91.500	124.024	80.007	19.995	103.286	19.827	2.726	0.376
92.000	124.185	80.008	19.995	103.287	19.825	2.852	0.314
92.500	124.395	80.009	19.994	103.287	19.830	2.548	0.329
93.000	124.563	80.009	19.994	103.286	19.826	2.812	0.374
93.500	124.739	80.008	19.994	103.285	19.829	2.584	0.361
94.000	124.906	80.008	19.994	103.283	19.830	2.572	0.344
94.500	125.092	80.008	19.995	103.282	19.826	2.805	0.348
95.000	125.271	80.008	19.993	103.283	19.829	2.629	0.359
95.500	125.447	80.008	19.994	103.284	19.826	2.791	0.360
96.000	125.613	80.008	19.994	103.284	19.828	2.688	0.348
96.501	125.789	80.009	19.995	103.285	19.827	2.758	0.342
97.001	125.995	80.008	19.994	103.285	19.827	2.713	0.362
97.500	126.151	80.009	19.994	103.285	19.823	3.004	0.372
98.000	126.334	80.008	19.996	103.285	19.824	2.943	0.351
98.500	126.497	80.010	19.995	103.288	19.828	2.697	0.343
99.000	126.684	80.008	19.994	103.288	19.824	2.918	0.348
99.500	126.924	80.008	19.995	103.289	19.822	3.053	0.389
100.000	127.079	80.009	19.995	103.289	19.823	3.039	0.411
100.501	127.286	80.009	19.994	103.289	19.825	2.902	0.379
101.001	127.432	80.010	19.993	103.286	19.823	3.019	0.357
101.500	127.631	80.010	19.994	103.285	19.825	2.900	0.349
102.000	127.805	80.009	19.993	103.286	19.825	2.845	0.359
102.500	127.988	80.008	19.995	103.285	19.824	2.924	0.365
103.000	128.180	80.009	19.994	103.285	19.824	2.967	0.366
103.500	128.383	80.010	19.993	103.285	19.822	3.062	0.385
104.000	128.582	80.009	19.994	103.285	19.824	2.910	0.398
104.500	128.760	80.010	19.994	103.283	19.826	2.820	0.390
105.001	128.945	80.010	19.993	103.284	19.824	2.973	0.371
105.501	129.124	80.010	19.994	103.284	19.824	2.958	0.364
106.000	129.315	80.008	19.994	103.284	19.825	2.888	0.367
106.500	129.503	80.009	19.993	103.288	19.821	3.107	0.374
107.000	129.681	80.009	19.996	103.289	19.820	3.227	0.372
107.501	129.864	80.009	19.995	103.289	19.822	3.064	0.364
108.001	130.065	80.010	19.994	103.289	19.823	2.978	0.372
108.501	130.292	80.008	19.994	103.289	19.823	3.032	0.406
109.001	130.445	80.009	19.994	103.285	19.824	2.956	0.404
109.501	130.688	80.008	19.994	103.288	19.826	2.820	0.388
110.001	130.845	80.009	19.994	103.291	19.823	3.021	0.398
110.500	131.075	80.008	19.993	103.294	19.825	2.897	0.393
111.000	131.260	80.008	19.994	103.297	19.822	3.054	0.401
111.500	131.449	80.009	19.994	103.300	19.821	3.168	0.395
112.000	131.642	80.008	19.995	103.297	19.821	3.170	0.378
112.500	131.868	80.008	19.994	103.295	19.821	3.118	0.401
113.000	132.055	80.009	19.994	103.293	19.823	3.039	0.416
113.500	132.214	80.009	19.993	103.292	19.821	3.155	0.379
114.000	132.442	80.007	19.993	103.297	19.825	2.872	0.366
114.500	132.632	80.008	19.994	103.302	19.825	2.877	0.403
115.000	132.825	80.008	19.996	103.307	19.822	3.058	0.400
115.500	133.053	80.008	19.993	103.313	19.824	2.971	0.402
116.000	133.232	80.007	19.994	103.316	19.821	3.164	0.414
116.500	133.439	80.009	19.995	103.316	19.822	3.075	0.397
117.001	133.652	80.008	19.994	103.318	19.824	2.915	0.403
117.501	133.869	80.009	19.995	103.314	19.826	2.781	0.425
118.000	134.040	80.008	19.994	103.312	19.824	2.946	0.409
118.500	134.263	80.009	19.994	103.313	19.824	2.967	0.391
119.000	134.462	80.008	19.994	103.312	19.825	2.868	0.408
119.500	134.667	80.009	19.995	103.312	19.822	3.044	0.413
120.000	134.861	80.008	19.994	103.315	19.822	3.044	0.401
120.500	135.058	80.008	19.995	103.317	19.822	3.055	0.395
121.000	135.270	80.007	19.993	103.319	19.821	3.107	0.400
121.501	135.511	80.008	19.994	103.319	19.822	3.102	0.431
122.001	135.692	80.009	19.994	103.318	19.823	3.012	0.438
122.500	135.906	80.008	19.994	103.317	19.824	2.929	0.409
123.000	136.118	80.009	19.994	103.313	19.826	2.798	0.410
123.501	136.368	80.008	19.995	103.306	19.821	3.165	0.444
124.001	136.576	80.008	19.994	103.302	19.821	3.107	0.461
124.500	136.790	80.008	19.994	103.300	19.820	3.235	0.440
125.000	136.991	80.009	19.995	103.299	19.825	2.895	0.418
125.500	137.194	80.009	19.994	103.297	19.824	2.926	0.409
126.000	137.398	80.008	19.995	103.301	19.819	3.256	0.406
126.500	137.623	80.010	19.994	103.304	19.823	3.028	0.418
127.000	137.816	80.008	19.994	103.306	19.823	2.992	0.424
127.500	138.103	80.008	19.994	103.308	19.826	2.795	0.449
128.000	138.307	80.010	19.994	103.311	19.822	3.080	0.485
128.500	138.505	80.009	19.995	103.314	19.821	3.118	0.447
129.000	138.692	80.010	19.993	103.315	19.821	3.140	0.394
129.500	138.958	80.009	19.994	103.311	19.820	3.222	0.419
130.000	139.155	80.010	19.994	103.313	19.822	3.048	0.458
130.500	139.381	80.009	19.995	103.315	19.823	2.978	0.443
131.000	139.623	80.009	19.994	103.314	19.823	3.003	0.446
131.500	139.845	80.010	19.995	103.312	19.824	2.958	0.466
132.000	140.073	80.012	19.995	103.312	19.824	2.962	0.456
132.500	140.285	80.010	19.995	103.311	19.823	2.989	0.445
133.000	140.478	80.009	19.994	103.309	19.822	3.087	0.423
133.500	140.721	80.010	19.994	103.309	19.823	2.992	0.420
134.000	140.949	80.009	19.994	103.312	19.821	3.168	0.453
134.500	141.146	80.009	19.994	103.316	19.822	3.048	0.448
135.000	141.370	80.010	19.995	103.317	19.823	3.005	0.423
135.500	141.576	80.009	19.994	103.317	19.822	3.044	0.426
136.000	141.799	80.009	19.995	103.312	19.823	3.026	0.429
136.500	142.041	80.009	19.995	103.307	19.826	2.807	0.447
137.000	142.266	80.010	19.996	103.305	19.822	3.046	0.467
137.500	142.497	80.010	19.995	103.305	19.824	2.965	0.462
138.000	142.702	80.011	19.995	103.306	19.825	2.859	0.446
138.500	142.935	80.010	19.995	103.312	19.825	2.872	0.437
139.000	143.165	80.010	19.995	103.317	19.822	3.080	0.450
139.500	143.417	80.010	19.996	103.318	19.820	3.191	0.472
140.000	143.632	80.010	19.995	103.316	19.824	2.968	0.474
140.500	143.848	80.010	19.996	103.310	19.821	3.112	0.449
141.000	144.114	80.009	19.995	103.308	19.821	3.141	0.456
141.500	144.327	80.010	19.995	103.308	19.821	3.118	0.480
142.000	144.591	80.009	19.996	103.307	19.821	3.164	0.478
142.500	144.809	80.009	19.995	103.306	19.824	2.931	0.480
143.000	145.032	80.009	19.995	103.310	19.822	3.064	0.462
143.500	145.228	80.008	19.995	103.308	19.825	2.906	0.430
144.000	145.470	80.009	19.995	103.307	19.822	3.104	0.428
144.500	145.718	80.008	19.994	103.308	19.825	2.903	0.464
145.000	145.942	80.009	19.993	103.309	19.824	2.921	0.481
145.500	146.149	80.008	19.995	103.303	19.822	3.075	0.452
146.000	146.422	80.009	19.997	103.303	19.821	3.149	0.456
146.500	146.647	80.010	19.995	103.303	19.821	3.152	0.489
147.000	146.860	80.008	19.996	103.303	19.822	3.066	0.468
147.500	147.082	80.008	19.995	103.305	19.819	3.269	0.436
148.000	147.273	80.009	19.996	103.307	19.824	2.967	0.423
148.500	147.574	80.009	19.996	103.306	19.825	2.879	0.452
149.000	147.796	80.009	19.995	103.301	19.825	2.872	0.508
149.500	147.997	80.009	19.995	103.298	19.822	3.064	0.474
150.000	148.283	80.009	19.995	103.294	19.822	3.085	0.455
150.500	148.487	80.010	19.995	103.294	19.823	2.981	0.488
151.000	148.726	80.010	19.996	103.292	19.822	3.067	0.466
151.500	148.978	80.009	19.995	103.294	19.825	2.873	0.467
152.000	149.195	80.010	19.996	103.297	19.824	2.968	0.481
152.500	149.422	80.009	19.995	103.302	19.826	2.818	0.457
153.000	149.671	80.010	19.994	103.305	19.823	2.995	0.460
153.500	149.909	80.010	19.994	103.308	19.823	3.012	0.481
154.000	150.132	80.010	19.994	103.312	19.826	2.802	0.474
154.500	150.345	80.011	19.995	103.311	19.824	2.967	0.448
155.000	150.630	80.010	19.995	103.311	19.825	2.846	0.467
155.500	150.835	80.011	19.994	103.312	19.825	2.861	0.494
156.000	151.070	80.010	19.994	103.315	19.825	2.852	0.465
156.500	151.304	80.010	19.995	103.315	19.823	3.012	0.454
157.000	151.554	80.011	19.994	103.315	19.827	2.728	0.476
157.500	151.812	80.010	19.994	103.314	19.827	2.746	0.496
158.000	152.055	80.011	19.994	103.313	19.827	2.732	0.505
158.500	152.290	80.011	19.994	103.312	19.825	2.890	0.490
159.000	152.510	80.012	19.994	103.310	19.824	2.936	0.466
159.500	152.756	80.010	19.994	103.308	19.823	2.985	0.460
160.000	152.990	80.009	19.994	103.305	19.826	2.786	0.473
160.500	153.259	80.009	19.995	103.303	19.824	2.940	0.491
161.000	153.434	80.010	19.994	103.298	19.823	2.997	0.474
161.500	153.700	80.010	19.994	103.297	19.826	2.837	0.443
162.000	153.978	80.010	19.995	103.294	19.826	2.814	0.492
162.500	154.182	80.010	19.995	103.293	19.824	2.934	0.512
163.001	154.426	80.010	19.994	103.291	19.826	2.803	0.465
163.500	154.713	80.011	19.994	103.291	19.825	2.852	0.490
164.000	154.899	80.009	19.995	103.291	19.827	2.769	0.503
164.500	155.117	80.008	19.995	103.293	19.827	2.755	0.439
165.000	155.392	80.010	19.995	103.294	19.829	2.586	0.448
165.500	155.645	80.009	19.996	103.293	19.825	2.847	0.510
166.000	155.873	80.007	19.995	103.293	19.826	2.829	0.504
166.500	156.113	80.009	19.995	103.294	19.826	2.823	0.474
167.000	156.360	80.008	19.995	103.292	19.823	2.997	0.478
167.500	156.559	80.007	19.994	103.295	19.826	2.820	0.467
168.000	156.857	80.007	19.996	103.300	19.822	3.058	0.471
168.500	157.100	80.008	19.995	103.304	19.823	3.001	0.519
169.000	157.336	80.006	19.994	103.301	19.826	2.839	0.510
169.500	157.589	80.008	19.996	103.304	19.824	2.925	0.484
170.000	157.823	80.006	19.995	103.305	19.824	2.969	0.488
170.500	158.072	80.007	19.995	103.303	19.822	3.082	0.485
171.000	158.320	80.006	19.995	103.301	19.825	2.868	0.490
171.500	158.571	80.007	19.995	103.300	19.824	2.919	0.498
172.000	158.804	80.008	19.996	103.296	19.823	2.999	0.492
172.500	159.033	80.008	19.995	103.293	19.823	3.017	0.473
173.000	159.287	80.008	19.995	103.294	19.827	2.728	0.472
173.500	159.528	80.007	19.995	103.297	19.826	2.834	0.489
174.000	159.788	80.007	19.995	103.298	19.827	2.712	0.498
174.500	160.026	80.009	19.995	103.298	19.827	2.767	0.500
175.000	160.237	80.007	19.995	103.298	19.826	2.778	0.474
175.500	160.504	80.008	19.994	103.298	19.827	2.732	0.464
176.000	160.737	80.007	19.995	103.296	19.828	2.649	0.489
176.500	160.975	80.008	19.995	103.297	19.829	2.601	0.486
177.000	161.242	80.007	19.994	103.302	19.828	2.690	0.488
177.500	161.494	80.006	19.995	103.306	19.826	2.775	0.512
178.000	161.761	80.008	19.996	103.304	19.825	2.859	0.519
178.500	162.012	80.007	19.995	103.302	19.826	2.830	0.519
179.001	162.242	80.006	19.995	103.303	19.825	2.886	0.499
179.500	162.481	80.008	19.994	103.299	19.826	2.813	0.475
180.000	162.718	80.007	19.995	103.294	19.827	2.737	0.473
180.500	162.987	80.008	19.994	103.293	19.825	2.882	0.491
181.000	163.240	80.006	19.995	103.295	19.827	2.713	0.514
181.500	163.458	80.009	19.994	103.298	19.828	2.676	0.497
182.000	163.744	80.008	19.995	103.304	19.826	2.805	0.487
182.500	163.973	80.009	19.993	103.306	19.827	2.721	0.509
183.000	164.197	80.009	19.994	103.307	19.828	2.687	0.484
183.500	164.477	80.009	19.994	103.305	19.828	2.671	0.479
184.000	164.704	80.009	19.994	103.303	19.826	2.828	0.505
184.500	164.989	80.009	19.994	103.298	19.824	2.950	0.509
185.000	165.193	80.009	19.994	103.296	19.826	2.814	0.500
185.500	165.431	80.009	19.994	103.294	19.825	2.850	0.466
186.000	165.711	80.010	19.994	103.292	19.825	2.871	0.480
186.500	165.988	80.009	19.994	103.292	19.828	2.695	0.537
187.000	166.242	80.009	19.995	103.293	19.826	2.800	0.544
187.500	166.485	80.009	19.995	103.294	19.829	2.584	0.514
188.000	166.699	80.009	19.994	103.296	19.829	2.624	0.477
188.500	166.958	80.008	19.994	103.300	19.826	2.830	0.465
189.000	167.247	80.009	19.994	103.297	19.826	2.799	0.510
189.500	167.468	80.009	19.995	103.300	19.827	2.753	0.529
190.000	167.743	80.009	19.994	103.301	19.826	2.778	0.503
190.500	167.955	80.008	19.994	103.301	19.831	2.498	0.492
191.000	168.245	80.008	19.994	103.297	19.827	2.729	0.495
191.500	168.472	80.008	19.994	103.295	19.827	2.767	0.510
192.000	168.744	80.008	19.995	103.290	19.828	2.677	0.508
192.500	169.005	80.009	19.994	103.290	19.828	2.674	0.516
193.000	169.231	80.009	19.994	103.291	19.830	2.536	0.510
193.500	169.473	80.008	19.994	103.292	19.826	2.821	0.478
194.000	169.738	80.009	19.994	103.292	19.829	2.600	0.488
194.500	169.977	80.009	19.994	103.293	19.826	2.826	0.506
195.000	170.227	80.008	19.994	103.290	19.829	2.613	0.496
195.500	170.514	80.007	19.995	103.286	19.830	2.548	0.513
196.000	170.736	80.008	19.994	103.285	19.829	2.613	0.523
196.500	170.986	80.009	19.994	103.284	19.829	2.616	0.491
197.000	171.232	80.008	19.995	103.284	19.828	2.677	0.484
197.500	171.490	80.009	19.994	103.286	19.830	2.546	0.500
198.000	171.755	80.008	19.995	103.286	19.831	2.466	0.513
198.500	171.948	80.009	19.995	103.286	19.831	2.492	0.491
199.000	172.225	80.009	19.994	103.286	19.829	2.614	0.464
199.500	172.471	80.007	19.995	103.285	19.830	2.546	0.496
200.000	172.704	80.009	19.995	103.282	19.830	2.559	0.501
200.500	172.977	80.007	19.994	103.283	19.828	2.690	0.493
201.000	173.223	80.008	19.994	103.283	19.828	2.640	0.513
201.500	173.484	80.008	19.995	103.283	19.830	2.514	0.513
202.000	173.764	80.008	19.995	103.283	19.827	2.729	0.523
202.500	174.019	80.007	19.994	103.283	19.827	2.749	0.538
203.000	174.257	80.009	19.995	103.282	19.829	2.620	0.514
203.500	174.535	80.008	19.996	103.282	19.830	2.557	0.505
204.000	174.756	80.008	19.994	103.284	19.831	2.444	0.508
204.500	175.001	80.008	19.995	103.284	19.828	2.672	0.482
205.000	175.266	80.008	19.994	103.284	19.827	2.708	0.488
205.500	175.493	80.009	19.995	103.285	19.829	2.636	0.501
206.000	175.755	80.009	19.996	103.285	19.832	2.376	0.491
206.500	176.018	80.008	19.996	103.283	19.833	2.318	0.507
207.000	176.271	80.008	19.995	103.282	19.833	2.335	0.521
207.500	176.516	80.008	19.994	103.281	19.831	2.485	0.507
208.000	176.729	80.009	19.996	103.279	19.833	2.358	0.478
208.500	177.016	80.008	19.995	103.276	19.832	2.408	0.479
209.000	177.231	80.009	19.995	103.276	19.830	2.521	0.501
209.500	177.533	80.008	19.994	103.277	19.832	2.408	0.510
210.000	177.752	80.008	19.995	103.278	19.832	2.408	0.519
210.500	177.981	80.009	19.996	103.279	19.831	2.444	0.484
211.000	178.310	80.009	19.996	103.282	19.831	2.455	0.503
211.500	178.549	80.009	19.994	103.282	19.831	2.491	0.563
212.000	178.777	80.011	19.993	103.281	19.831	2.466	0.517
212.500	179.037	80.009	19.994	103.280	19.829	2.627	0.477
213.000	179.263	80.010	19.994	103.281	19.830	2.541	0.487
213.500	179.515	80.010	19.993	103.281	19.831	2.464	0.482
214.000	179.769	80.011	19.994	103.282	19.829	2.609	0.492
214.500	180.044	80.011	19.995	103.283	19.831	2.448	0.518
215.000	180.290	80.010	19.993	103.283	19.831	2.473	0.525
215.500	180.524	80.011	19.994	103.279	19.826	2.819	0.500
216.000	180.775	80.009	19.994	103.278	19.831	2.455	0.482
216.500	181.004	80.011	19.994	103.278	19.831	2.474	0.483
217.000	181.259	80.011	19.993	103.278	19.830	2.561	0.482
217.500	181.541	80.011	19.993	103.278	19.831	2.460	0.510
218.000	181.790	80.010	19.994	103.281	19.831	2.446	0.534
218.500	182.039	80.010	19.994	103.282	19.831	2.449	0.514
219.000	182.277	80.010	19.994	103.280	19.831	2.471	0.492
219.500	182.538	80.010	19.994	103.277	19.830	2.525	0.493
220.000	182.825	80.011	19.994	103.275	19.832	2.410	0.524
220.500	183.056	80.010	19.993	103.275	19.830	2.555	0.533
221.000	183.295	80.009	19.995	103.274	19.831	2.480	0.494
221.500	183.551	80.010	19.994	103.274	19.829	2.620	0.482
222.000	183.789	80.010	19.993	103.276	19.830	2.519	0.495
222.500	184.039	80.009	19.994	103.278	19.830	2.561	0.491
223.000	184.285	80.009	19.994	103.278	19.831	2.491	0.492
223.500	184.564	80.009	19.993	103.279	19.831	2.455	0.511
224.000	184.782	80.009	19.993	103.282	19.829	2.595	0.511
224.500	185.063	80.009	19.994	103.284	19.829	2.591	0.498
225.000	185.289	80.009	19.993	103.284	19.832	2.437	0.503
225.500	185.548	80.008	19.994	103.285	19.827	2.736	0.496
226.000	185.811	80.009	19.993	103.281	19.833	2.354	0.504
226.500	186.052	80.009	19.995	103.278	19.830	2.506	0.513
227.000	186.311	80.009	19.994	103.277	19.833	2.363	0.502
227.500	186.578	80.007	19.994	103.274	19.832	2.418	0.512
228.000	186.798	80.008	19.994	103.273	19.831	2.476	0.507
228.500	187.073	80.007	19.995	103.275	19.831	2.496	0.491
229.000	187.342	80.009	19.994	103.278	19.830	2.512	0.520
229.501	187.559	80.008	19.994	103.279	19.830	2.553	0.515
230.001	187.821	80.009	19.994	103.282	19.832	2.408	0.482
230.501	188.092	80.009	19.994	103.283	19.831	2.465	0.506
231.001	188.359	80.008	19.995	103.284	19.829	2.636	0.536
231.500	188.565	80.008	19.994	103.283	19.832	2.408	0.506
232.000	188.847	80.009	19.995	103.279	19.830	2.550	0.481
232.500	189.079	80.008	19.995	103.276	19.829	2.616	0.501
233.000	189.323	80.008	19.996	103.272	19.831	2.476	0.495
233.500	189.554	80.009	19.995	103.271	19.831	2.492	0.475
234.000	189.807	80.009	19.995	103.272	19.830	2.519	0.479
234.500	190.056	80.008	19.994	103.275	19.828	2.679	0.493
235.000	190.302	80.010	19.994	103.278	19.826	2.819	0.499
235.500	190.534	80.010	19.993	103.280	19.829	2.632	0.486
236.000	190.830	80.009	19.995	103.275	19.833	2.363	0.502
236.500	191.069	80.009	19.995	103.268	19.832	2.429	0.531
237.000	191.284	80.010	19.994	103.263	19.832	2.413	0.495
237.500	191.533	80.010	19.994	103.259	19.837	2.090	0.459
238.000	191.813	80.010	19.995	103.256	19.833	2.330	0.497
238.500	192.043	80.010	19.994	103.260	19.833	2.352	0.519
239.000	192.281	80.011	19.994	103.263	19.831	2.460	0.489
239.500	192.541	80.011	19.993	103.267	19.830	2.533	0.483
240.000	192.810	80.011	19.994	103.267	19.833	2.365	0.513
240.500	193.070	80.012	19.994	103.268	19.833	2.352	0.529
241.000	193.291	80.010	19.994	103.269	19.835	2.221	0.505
241.500	193.523	80.010	19.993	103.271	19.831	2.490	0.467
242.000	193.776	80.010	19.994	103.269	19.831	2.494	0.469
242.500	194.042	80.010	19.993	103.270	19.833	2.341	0.502
243.000	194.289	80.010	19.993	103.271	19.836	2.171	0.516
243.500	194.531	80.010	19.994	103.270	19.832	2.373	0.501
244.000	194.792	80.010	19.994	103.272	19.832	2.391	0.496
244.500	195.009	80.011	19.994	103.271	19.834	2.277	0.490
245.000	195.299	80.012	19.994	103.275	19.835	2.178	0.492
245.500	195.527	80.010	19.994	103.278	19.834	2.286	0.512
246.000	195.759	80.009	19.993	103.276	19.834	2.266	0.489
246.500	195.992	80.010	19.993	103.273	19.836	2.120	0.463
247.000	196.240	80.009	19.994	103.271	19.834	2.248	0.473
247.500	196.498	80.009	19.994	103.264	19.834	2.291	0.493
248.000	196.737	80.007	19.995	103.257	19.834	2.264	0.502
248.500	196.992	80.008	19.994	103.252	19.833	2.372	0.496
249.000	197.215	80.008	19.994	103.250	19.834	2.248	0.486
249.500	197.485	80.008	19.995	103.251	19.836	2.173	0.485
250.000	197.767	80.009	19.995	103.253	19.835	2.178	0.522
250.500	198.004	80.008	19.994	103.255	19.833	2.334	0.536
251.000	198.268	80.008	19.994	103.256	19.832	2.398	0.510
251.500	198.519	80.008	19.994	103.257	19.834	2.241	0.508
252.000	198.796	80.009	19.994	103.258	19.836	2.172	0.521
252.500	199.003	80.009	19.994	103.254	19.838	2.034	0.506
253.000	199.229	80.008	19.995	103.253	19.832	2.377	0.459
253.500	199.483	80.007	19.995	103.253	19.833	2.357	0.456
254.001	199.736	80.008	19.994	103.249	19.835	2.181	0.493
254.500	199.952	80.008	19.996	103.246	19.837	2.081	0.488
255.000	200.233	80.008	19.995	103.252	19.836	2.133	0.483
255.500	200.492	80.007	19.995	103.253	19.832	2.404	0.519
256.000	200.700	80.007	19.995	103.254	19.832	2.416	0.504
256.500	200.937	80.008	19.994	103.258	19.832	2.424	0.456
257.000	201.225	80.007	19.995	103.258	19.832	2.429	0.485
257.500	201.475	80.008	19.995	103.252	19.834	2.260	0.531
258.000	201.711	80.007	19.996	103.248	19.832	2.409	0.512
258.500	201.956	80.007	19.995	103.250	19.834	2.305	0.484
259.000	202.253	80.008	19.996	103.252	19.832	2.415	0.512
259.500	202.449	80.007	19.996	103.257	19.832	2.433	0.517
260.000	202.704	80.007	19.994	103.257	19.835	2.217	0.472
260.500	202.956	80.007	19.995	103.257	19.834	2.298	0.479
261.000	203.194	80.006	19.995	103.253	19.836	2.160	0.498
261.500	203.438	80.008	19.996	103.248	19.836	2.138	0.486
262.000	203.657	80.008	19.995	103.244	19.838	2.029	0.473
262.500	203.907	80.007	19.995	103.244	19.837	2.092	0.466
263.000	204.184	80.006	19.995	103.244	19.837	2.056	0.498
263.500	204.441	80.008	19.995	103.244	19.834	2.251	0.531
264.000	204.701	80.008	19.994	103.243	19.835	2.232	0.526
264.500	204.923	80.007	19.995	103.243	19.838	2.004	0.499
265.000	205.150	80.006	19.994	103.244	19.835	2.178	0.465
265.500	205.417	80.009	19.997	103.243	19.838	2.013	0.471
266.000	205.686	80.008	19.996	103.248	19.837	2.092	0.515
266.500	205.939	80.008	19.997	103.251	19.836	2.151	0.529
267.001	206.162	80.008	19.998	103.251	19.835	2.201	0.499
267.500	206.399	80.009	19.995	103.250	19.836	2.142	0.468
268.000	206.669	80.008	19.995	103.254	19.834	2.244	0.483
268.500	206.941	80.008	19.995	103.252	19.831	2.463	0.524
269.000	207.182	80.010	19.995	103.255	19.834	2.291	0.528
269.500	207.400	80.008	19.994	103.257	19.832	2.418	0.486
270.000	207.660	80.008	19.995	103.256	19.834	2.303	0.468
270.500	207.909	80.009	19.995	103.253	19.833	2.348	0.494
271.000	208.144	80.008	19.995	103.250	19.835	2.223	0.497
271.500	208.401	80.009	19.994	103.243	19.837	2.099	0.488
272.000	208.660	80.009	19.996	103.243	19.836	2.172	0.504
272.500	208.873	80.008	19.995	103.243	19.835	2.189	0.494
273.000	209.126	80.009	19.995	103.243	19.837	2.086	0.469
273.500	209.406	80.008	19.995	103.243	19.834	2.266	0.500
274.000	209.630	80.008	19.994	103.244	19.835	2.180	0.519
274.500	209.902	80.009	19.995	103.243	19.834	2.300	0.500
275.000	210.174	80.010	19.995	103.243	19.837	2.063	0.520
275.500	210.373	80.010	19.996	103.244	19.839	1.950	0.507
276.000	210.655	80.009	19.994	103.246	19.837	2.067	0.476
276.500	210.881	80.009	19.994	103.247	19.836	2.131	0.494
277.000	211.152	80.008	19.994	103.247	19.836	2.130	0.503
277.500	211.367	80.010	19.995	103.247	19.834	2.289	0.492
278.000	211.636	80.008	19.994	103.246	19.835	2.192	0.485
278.500	211.877	80.010	19.994	103.246	19.837	2.043	0.497
279.000	212.120	80.009	19.995	103.246	19.834	2.248	0.497
279.500	212.388	80.008	19.995	103.247	19.837	2.088	0.498
280.000	212.619	80.007	19.995	103.246	19.839	1.964	0.505
280.500	212.886	80.008	19.995	103.246	19.839	1.916	0.498
281.000	213.114	80.008	19.994	103.243	19.837	2.094	0.497
281.500	213.363	80.009	19.995	103.242	19.837	2.090	0.486
282.000	213.582	80.008	19.994	103.243	19.837	2.056	0.473
282.500	213.807	80.007	19.995	103.243	19.837	2.043	0.456
283.000	214.052	80.007	19.995	103.244	19.837	2.103	0.457
283.500	214.263	80.007	19.994	103.244	19.836	2.110	0.464
284.000	214.548	80.007	19.994	103.245	19.838	2.009	0.476
284.500	214.808	80.006	19.995	103.246	19.840	1.864	0.520
285.000	215.074	80.006	19.995	103.247	19.839	1.959	0.535
285.500	215.320	80.007	19.995	103.249	19.834	2.262	0.519
286.000	215.565	80.007	19.994	103.253	19.835	2.181	0.501
286.500	215.826	80.006	19.994	103.254	19.834	2.295	0.498
287.000	216.044	80.006	19.994	103.254	19.835	2.180	0.493
287.500	216.316	80.006	19.995	103.256	19.834	2.271	0.485
288.000	216.567	80.008	19.994	103.256	19.835	2.181	0.507
288.500	216.785	80.008	19.994	103.253	19.837	2.041	0.496
289.000	217.044	80.007	19.995	103.251	19.836	2.145	0.472
289.500	217.268	80.008	19.994	103.251	19.838	1.997	0.480
290.000	217.551	80.008	19.993	103.247	19.835	2.198	0.495
290.500	217.798	80.008	19.994	103.247	19.837	2.042	0.518
291.000	218.032	80.008	19.994	103.251	19.839	1.973	0.505
291.500	218.281	80.009	19.994	103.254	19.835	2.212	0.482
292.000	218.512	80.008	19.994	103.254	19.837	2.101	0.482
292.500	218.769	80.008	19.993	103.256	19.838	2.029	0.484
293.000	219.000	80.008	19.995	103.257	19.838	1.989	0.488
293.500	219.308	80.010	19.995	103.253	19.838	2.018	0.513
294.000	219.536	80.010	19.994	103.251	19.840	1.875	0.537
294.500	219.777	80.008	19.994	103.254	19.839	1.910	0.503
295.000	220.027	80.010	19.994	103.253	19.839	1.943	0.480
295.500	220.279	80.010	19.994	103.252	19.836	2.137	0.496
296.000	220.464	80.008	19.994	103.252	19.841	1.812	0.469
296.500	220.757	80.009	19.995	103.253	19.840	1.891	0.458
297.000	221.015	80.009	19.993	103.252	19.839	1.946	0.514
297.500	221.222	80.008	19.994	103.254	19.838	1.984	0.508
298.001	221.475	80.008	19.995	103.253	19.840	1.848	0.463
298.500	221.741	80.009	19.994	103.251	19.840	1.905	0.490
299.000	221.989	80.009	19.994	103.249	19.841	1.835	0.517
299.500	222.206	80.009	19.994	103.246	19.837	2.102	0.489
300.000	222.455	80.008	19.993	103.245	19.840	1.902	0.465
300.500	222.676	80.008	19.994	103.251	19.840	1.869	0.468
301.000	222.917	80.009	19.995	103.251	19.839	1.954	0.466
301.500	223.233	80.008	19.994	103.251	19.838	1.979	0.510
302.000	223.442	80.008	19.994	103.253	19.837	2.083	0.541
302.500	223.706	80.008	19.993	103.252	19.840	1.857	0.499
303.000	223.948	80.006	19.996	103.247	19.840	1.898	0.490
303.500	224.211	80.008	19.994	103.247	19.839	1.918	0.505
304.000	224.446	80.008	19.994	103.246	19.838	1.984	0.501
304.500	224.665	80.008	19.993	103.245	19.839	1.925	0.476
305.000	224.917	80.008	19.993	103.248	19.840	1.885	0.462
305.500	225.186	80.007	19.994	103.247	19.840	1.889	0.496
306.000	225.431	80.008	19.994	103.248	19.840	1.867	0.518
306.500	225.669	80.008	19.994	103.249	19.840	1.898	0.499
307.000	225.930	80.008	19.994	103.249	19.838	1.986	0.491
307.500	226.184	80.008	19.993	103.247	19.837	2.068	0.506
308.000	226.427	80.008	19.993	103.247	19.839	1.916	0.506
308.500	226.687	80.007	19.994	103.244	19.841	1.805	0.500
309.000	226.932	80.007	19.994	103.245	19.838	2.032	0.504
309.500	227.150	80.008	19.993	103.245	19.840	1.848	0.484
310.000	227.414	80.008	19.994	103.245	19.839	1.962	0.472
310.500	227.667	80.006	19.995	103.245	19.841	1.796	0.499
311.000	227.939	80.009	19.994	103.248	19.842	1.745	0.521
311.500	228.193	80.008	19.994	103.249	19.840	1.864	0.525
312.000	228.417	80.008	19.994	103.250	19.843	1.681	0.502
312.500	228.669	80.008	19.994	103.250	19.840	1.883	0.477
313.000	228.916	80.010	19.994	103.249	19.842	1.724	0.488
313.500	229.148	80.009	19.994	103.247	19.841	1.783	0.489
314.000	229.434	80.009	19.993	103.246	19.840	1.905	0.499
314.500	229.718	80.009	19.994	103.245	19.841	1.828	0.544
315.000	229.965	80.009	19.993	103.244	19.841	1.812	0.550
315.500	230.202	80.009	19.993	103.244	19.842	1.747	0.508
316.000	230.430	80.009	19.993	103.244	19.840	1.849	0.475
316.500	230.697	80.009	19.994	103.243	19.838	2.005	0.480
317.000	230.909	80.010	19.995	103.244	19.838	2.020	0.487
317.500	231.179	80.010	19.994	103.245	19.841	1.778	0.480
318.000	231.421	80.011	19.994	103.244	19.842	1.735	0.497
318.500	231.665	80.010	19.993	103.243	19.838	1.986	0.499
319.000	231.955	80.011	19.994	103.243	19.839	1.923	0.510
319.500	232.240	80.011	19.994	103.242	19.838	2.027	0.554
320.000	232.474	80.012	19.993	103.240	19.840	1.900	0.547
320.500	232.675	80.010	19.994	103.240	19.837	2.086	0.477
321.000	232.917	80.011	19.993	103.240	19.840	1.842	0.439
321.500	233.175	80.009	19.994	103.240	19.842	1.770	0.471
322.000	233.430	80.009	19.994	103.240	19.841	1.828	0.506
322.500	233.704	80.010	19.995	103.241	19.841	1.821	0.521
323.000	233.926	80.010	19.994	103.241	19.844	1.616	0.513
323.500	234.189	80.010	19.994	103.241	19.842	1.760	0.491
324.000	234.448	80.010	19.995	103.241	19.839	1.957	0.503
324.500	234.666	80.008	19.994	103.242	19.841	1.831	0.500
325.000	234.952	80.009	19.995	103.241	19.842	1.736	0.491
325.500	235.177	80.010	19.995	103.240	19.841	1.808	0.507
326.000	235.435	80.009	19.995	103.240	19.842	1.744	0.497
326.500	235.710	80.009	19.995	103.241	19.844	1.586	0.508
327.000	235.949	80.009	19.993	103.240	19.842	1.726	0.524
327.500	236.189	80.009	19.995	103.239	19.843	1.677	0.497
328.000	236.440	80.009	19.993	103.240	19.842	1.742	0.485
328.500	236.715	80.009	19.994	103.239	19.842	1.724	0.509
329.000	236.927	80.008	19.994	103.238	19.842	1.745	0.507
329.500	237.186	80.009	19.995	103.239	19.845	1.561	0.479
330.000	237.445	80.009	19.993	103.238	19.844	1.598	0.494
330.500	237.679	80.008	19.993	103.238	19.845	1.548	0.505
331.000	237.933	80.008	19.996	103.237	19.845	1.569	0.490
331.500	238.194	80.006	19.994	103.237	19.844	1.623	0.501
332.000	238.442	80.007	19.994	103.237	19.844	1.634	0.512
332.500	238.677	80.007	19.995	103.238	19.843	1.680	0.496
333.000	238.914	80.006	19.995	103.238	19.842	1.750	0.478
333.500	239.175	80.007	19.995	103.238	19.843	1.659	0.485
334.000	239.424	80.007	19.995	103.237	19.842	1.733	0.504
334.500	239.667	80.007	19.995	103.235	19.846	1.489	0.501
335.000	239.928	80.006	19.995	103.234	19.843	1.677	0.498
335.500	240.192	80.007	19.995	103.234	19.844	1.632	0.515
336.000	240.421	80.007	19.994	103.236	19.844	1.578	0.509
336.500	240.697	80.006	19.994	103.237	19.844	1.607	0.499
337.000	240.960	80.006	19.994	103.237	19.842	1.722	0.522
337.500	241.198	80.006	19.994	103.237	19.844	1.577	0.520
338.000	241.423	80.007	19.994	103.236	19.845	1.528	0.482
338.500	241.714	80.007	19.995	103.233	19.846	1.492	0.490
339.000	241.964	80.008	19.994	103.231	19.845	1.544	0.528
339.500	242.221	80.009	19.995	103.232	19.844	1.602	0.524
340.000	242.495	80.008	19.995	103.235	19.848	1.372	0.519
340.500	242.728	80.008	19.994	103.236	19.846	1.487	0.519
341.000	242.975	80.007	19.994	103.238	19.845	1.541	0.493
341.500	243.218	80.007	19.995	103.239	19.847	1.412	0.485
342.000	243.492	80.008	19.994	103.232	19.846	1.491	0.503
342.500	243.748	80.008	19.995	103.231	19.847	1.421	0.523
343.000	244.011	80.007	19.995	103.226	19.845	1.517	0.525
343.500	244.212	80.007	19.994	103.220	19.848	1.369	0.491
344.000	244.481	80.007	19.994	103.220	19.843	1.645	0.467
344.500	244.767	80.007	19.995	103.227	19.845	1.559	0.513
345.000	244.988	80.008	19.995	103.226	19.847	1.413	0.531
345.500	245.235	80.006	19.994	103.231	19.846	1.446	0.488
346.000	245.508	80.007	19.994	103.237	19.848	1.349	0.494
346.500	245.728	80.007	19.995	103.236	19.847	1.430	0.506
347.000	246.046	80.008	19.994	103.234	19.847	1.401	0.515
347.500	246.270	80.008	19.995	103.231	19.850	1.200	0.540
348.001	246.516	80.007	19.994	103.231	19.846	1.455	0.506
348.500	246.756	80.007	19.995	103.231	19.845	1.525	0.478
349.000	246.997	80.007	19.995	103.232	19.847	1.429	0.484
349.500	247.262	80.007	19.994	103.236	19.848	1.345	0.494
350.000	247.541	80.007	19.994	103.239	19.848	1.370	0.525
350.500	247.826	80.008	19.994	103.240	19.848	1.352	0.554
351.000	248.036	80.006	19.994	103.240	19.848	1.363	0.530
351.500	248.314	80.007	19.995	103.240	19.847	1.377	0.491
352.000	248.579	80.008	19.996	103.234	19.847	1.401	0.515
352.500	248.834	80.008	19.995	103.233	19.849	1.254	0.532
353.000	249.065	80.007	19.995	103.233	19.849	1.308	0.503
353.500	249.380	80.008	19.995	103.232	19.848	1.329	0.516
354.000	249.632	80.007	19.995	103.230	19.847	1.395	0.556
354.500	249.895	80.006	19.994	103.236	19.848	1.347	0.541
355.000	250.139	80.005	19.996	103.235	19.848	1.315	0.511
355.500	250.376	80.007	19.996	103.230	19.851	1.157	0.494
356.000	250.658	80.006	19.996	103.229	19.850	1.228	0.500
356.500	250.919	80.009	19.996	103.231	19.848	1.363	0.531
357.000	251.116	80.007	19.996	103.230	19.846	1.453	0.500
357.500	251.395	80.007	19.996	103.234	19.846	1.476	0.467
358.000	251.640	80.006	19.996	103.239	19.845	1.542	0.500
358.500	251.902	80.008	19.997	103.240	19.847	1.388	0.515
359.000	252.166	80.006	19.996	103.236	19.848	1.356	0.517
359.500	252.378	80.006	19.996	103.231	19.845	1.553	0.501
360.000	252.652	80.008	19.996	103.227	19.850	1.236	0.481
360.500	252.897	80.005	19.996	103.220	19.848	1.359	0.502
361.000	253.128	80.006	19.996	103.215	19.846	1.494	0.497
361.500	253.389	80.006	19.995	103.214	19.848	1.311	0.484
362.000	253.601	80.006	19.996	103.215	19.847	1.383	0.482
362.500	253.860	80.008	19.996	103.218	19.847	1.394	0.472
363.000	254.085	80.006	19.995	103.225	19.849	1.282	0.477
363.500	254.339	80.007	19.996	103.231	19.848	1.333	0.482
364.000	254.572	80.007	19.995	103.233	19.849	1.272	0.483
364.500	254.892	80.007	19.996	103.233	19.851	1.125	0.520
365.000	255.108	80.007	19.995	103.231	19.852	1.101	0.544
365.501	255.354	80.007	19.995	103.228	19.851	1.137	0.499
366.000	255.622	80.006	19.996	103.222	19.852	1.069	0.488
366.500	255.849	80.007	19.995	103.218	19.850	1.202	0.504
367.000	256.101	80.006	19.994	103.220	19.853	0.990	0.487
367.500	256.346	80.009	19.994	103.218	19.851	1.159	0.488
368.000	256.603	80.007	19.995	103.219	19.853	1.035	0.499
368.500	256.831	80.007	19.995	103.220	19.851	1.173	0.494
369.000	257.073	80.008	19.995	103.224	19.853	1.039	0.478
369.500	257.342	80.006	19.995	103.223	19.852	1.105	0.490
370.000	257.577	80.007	19.994	103.222	19.850	1.189	0.507
370.500	257.839	80.006	19.994	103.218	19.849	1.284	0.501
371.000	258.051	80.008	19.994	103.218	19.850	1.209	0.486
371.500	258.303	80.006	19.994	103.217	19.847	1.419	0.469
372.000	258.530	80.006	19.994	103.218	19.850	1.182	0.471
372.500	258.801	80.007	19.993	103.221	19.850	1.189	0.488
373.000	259.002	80.007	19.994	103.222	19.851	1.169	0.484
373.500	259.285	80.008	19.993	103.224	19.850	1.234	0.478
374.000	259.553	80.008	19.994	103.223	19.849	1.306	0.517
374.501	259.794	80.007	19.995	103.222	19.851	1.150	0.530
375.001	260.021	80.009	19.993	103.222	19.853	0.983	0.489
375.500	260.278	80.008	19.993	103.225	19.852	1.051	0.476
376.000	260.530	80.009	19.994	103.224	19.852	1.072	0.497
376.500	260.766	80.009	19.992	103.223	19.850	1.194	0.499
377.000	261.008	80.009	19.994	103.222	19.850	1.196	0.483
377.500	261.273	80.007	19.995	103.221	19.851	1.124	0.493
378.000	261.528	80.008	19.994	103.223	19.851	1.167	0.513
378.500	261.798	80.008	19.993	103.227	19.850	1.232	0.522
379.000	262.033	80.008	19.994	103.230	19.854	0.931	0.515
379.500	262.284	80.009	19.995	103.230	19.849	1.252	0.495
380.000	262.547	80.010	19.994	103.232	19.853	1.013	0.499
380.500	262.759	80.008	19.994	103.228	19.851	1.158	0.495
381.000	263.062	80.010	19.994	103.224	19.849	1.275	0.496
381.500	263.262	80.009	19.994	103.221	19.851	1.162	0.509
382.000	263.497	80.008	19.993	103.218	19.848	1.332	0.468
382.500	263.764	80.009	19.994	103.215	19.850	1.187	0.469
383.000	264.019	80.009	19.994	103.216	19.850	1.201	0.512
383.500	264.277	80.009	19.996	103.215	19.851	1.133	0.517
384.000	264.462	80.009	19.994	103.215	19.850	1.223	0.478
384.500	264.711	80.008	19.994	103.217	19.852	1.067	0.438
385.000	264.954	80.007	19.994	103.215	19.851	1.169	0.463
385.501	265.199	80.008	19.994	103.212	19.851	1.125	0.490
386.000	265.445	80.009	19.996	103.217	19.852	1.085	0.490
386.500	265.731	80.009	19.995	103.218	19.853	1.017	0.512
387.000	265.939	80.008	19.995	103.215	19.851	1.164	0.513
387.500	266.215	80.009	19.994	103.215	19.847	1.385	0.489
388.000	266.424	80.009	19.995	103.216	19.851	1.126	0.485
388.500	266.698	80.008	19.995	103.209	19.851	1.135	0.484
389.000	266.950	80.008	19.994	103.205	19.850	1.185	0.505
389.500	267.169	80.009	19.995	103.206	19.850	1.182	0.499
390.000	267.464	80.008	19.995	103.208	19.849	1.259	0.492
390.500	267.680	80.009	19.994	103.210	19.851	1.137	0.512
391.000	267.912	80.008	19.995	103.213	19.853	1.010	0.479
391.500	268.145	80.008	19.995	103.213	19.851	1.119	0.457
392.000	268.409	80.007	19.994	103.213	19.853	1.040	0.481
392.500	268.657	80.007	19.994	103.213	19.850	1.185	0.504
393.000	268.901	80.008	19.995	103.211	19.850	1.234	0.502
393.500	269.119	80.008	19.994	103.211	19.851	1.128	0.477
394.000	269.393	80.009	19.995	103.210	19.854	0.915	0.477
394.500	269.646	80.008	19.994	103.213	19.853	0.979	0.510
395.000	269.883	80.009	19.994	103.216	19.848	1.365	0.509
395.500	270.156	80.008	19.994	103.214	19.853	1.001	0.500
396.000	270.415	80.009	19.993	103.216	19.851	1.124	0.521
396.500	270.641	80.009	19.994	103.224	19.850	1.237	0.508
397.000	270.894	80.010	19.994	103.226	19.851	1.115	0.482
397.500	271.151	80.010	19.994	103.226	19.850	1.187	0.494
398.000	271.449	80.009	19.995	103.225	19.852	1.074	0.532
398.500	271.671	80.009	19.994	103.225	19.853	1.024	0.538
399.000	271.912	80.009	19.994	103.218	19.854	0.963	0.492
399.500	272.157	80.010	19.994	103.212	19.851	1.158	0.475
400.000	272.432	80.009	19.994	103.209	19.850	1.210	0.503
400.500	272.674	80.009	19.994	103.216	19.854	0.925	0.519
401.000	272.896	80.010	19.994	103.217	19.852	1.081	0.490
401.500	273.149	80.011	19.994	103.218	19.852	1.096	0.469
402.000	273.410	80.010	19.993	103.220	19.852	1.053	0.494
402.500	273.628	80.010	19.994	103.223	19.853	1.019	0.496
403.000	273.885	80.010	19.993	103.220	19.851	1.116	0.477
403.500	274.166	80.010	19.994	103.218	19.853	0.994	0.507
404.000	274.387	80.011	19.994	103.220	19.850	1.203	0.520
404.500	274.649	80.011	19.994	103.219	19.848	1.324	0.492
405.000	274.886	80.011	19.994	103.217	19.852	1.078	0.491
405.500	275.142	80.011	19.993	103.213	19.858	0.701	0.496
406.000	275.364	80.010	19.994	103.210	19.855	0.904	0.486
406.500	275.656	80.011	19.995	103.209	19.858	0.712	0.496
407.000	275.901	80.010	19.994	103.214	19.855	0.848	0.525
407.500	276.121	80.010	19.992	103.217	19.853	1.040	0.501
408.000	276.367	80.009	19.993	103.217	19.853	1.013	0.466
408.500	276.665	80.009	19.994	103.218	19.853	1.015	0.505
409.000	276.863	80.011	19.993	103.215	19.853	1.029	0.520
409.500	277.135	80.009	19.994	103.209	19.853	1.019	0.483
410.000	277.354	80.010	19.994	103.205	19.856	0.812	0.481
410.500	277.635	80.009	19.993	103.209	19.852	1.069	0.496
411.000	277.862	80.008	19.995	103.212	19.854	0.977	0.504
411.500	278.115	80.009	19.994	103.212	19.856	0.816	0.493
412.000	278.324	80.007	19.994	103.215	19.855	0.902	0.471
412.500	278.603	80.008	19.995	103.219	19.854	0.924	0.475
413.000	278.854	80.008	19.995	103.219	19.851	1.125	0.508
413.500	279.091	80.008	19.993	103.223	19.853	0.979	0.509
414.000	279.387	80.008	19.994	103.224	19.850	1.216	0.511
414.500	279.650	80.007	19.994	103.222	19.853	0.997	0.546
415.000	279.903	80.009	19.994	103.219	19.852	1.110	0.537
415.500	280.143	80.007	19.994	103.216	19.852	1.071	0.505
416.000	280.351	80.006	19.995	103.211	19.855	0.889	0.471
416.500	280.666	80.009	19.994	103.211	19.855	0.888	0.485
417.000	280.845	80.007	19.994	103.209	19.857	0.716	0.508
417.500	281.116	80.008	19.995	103.208	19.854	0.925	0.472
418.000	281.353	80.008	19.996	103.209	19.853	1.020	0.479
418.500	281.640	80.007	19.994	103.209	19.856	0.820	0.516
419.000	281.885	80.008	19.994	103.208	19.855	0.897	0.528
419.500	282.116	80.006	19.996	103.211	19.857	0.715	0.504
420.000	282.372	80.008	19.994	103.213	19.855	0.871	0.481
420.500	282.629	80.007	19.995	103.211	19.857	0.778	0.500
421.000	282.872	80.007	19.995	103.210	19.857	0.773	0.507
421.500	283.111	80.008	19.995	103.211	19.854	0.920	0.491
422.000	283.394	80.007	19.995	103.210	19.854	0.934	0.502
422.500	283.659	80.007	19.994	103.209	19.854	0.924	0.535
423.000	283.894	80.006	19.996	103.212	19.856	0.834	0.524
423.500	284.129	80.007	19.996	103.217	19.853	0.997	0.485
424.000	284.387	80.006	19.994	103.222	19.855	0.879	0.481
424.500	284.636	80.007	19.994	103.228	19.856	0.818	0.499
425.000	284.842	80.008	19.994	103.226	19.852	1.065	0.481
425.500	285.121	80.007	19.996	103.224	19.855	0.880	0.470
426.000	285.394	80.008	19.994	103.219	19.857	0.732	0.519
426.500	285.604	80.009	19.994	103.216	19.854	0.920	0.518
427.000	285.909	80.008	19.994	103.211	19.857	0.735	0.499
427.500	286.131	80.008	19.995	103.212	19.856	0.812	0.520
428.000	286.401	80.008	19.994	103.211	19.857	0.726	0.510
428.500	286.642	80.007	19.995	103.210	19.858	0.705	0.502
429.000	286.873	80.007	19.994	103.209	19.854	0.932	0.491
429.500	287.143	80.007	19.995	103.209	19.856	0.784	0.486
430.000	287.404	80.007	19.993	103.207	19.857	0.760	0.516
430.500	287.644	80.007	19.996	103.207	19.856	0.839	0.516
431.000	287.887	80.007	19.995	103.206	19.857	0.759	0.492
431.500	288.140	80.007	19.994	103.207	19.853	1.013	0.489
432.000	288.404	80.007	19.995	103.209	19.851	1.124	0.507
432.500	288.648	80.008	19.995	103.211	19.854	0.977	0.513
433.000	288.906	80.008	19.993	103.213	19.853	0.995	0.505
433.500	289.136	80.007	19.994	103.213	19.853	0.997	0.495
434.000	289.384	80.005	19.994	103.212	19.852	1.071	0.483
434.500	289.630	80.008	19.994	103.209	19.852	1.074	0.486
435.000	289.878	80.007	19.994	103.208	19.853	1.035	0.494
435.500	290.136	80.007	19.995	103.207	19.854	0.959	0.500
436.000	290.417	80.007	19.995	103.207	19.855	0.897	0.523
436.500	290.647	80.007	19.994	103.208	19.854	0.918	0.525
437.000	290.924	80.006	19.993	103.208	19.856	0.798	0.509
437.500	291.120	80.008	19.993	103.208	19.855	0.864	0.490
438.000	291.408	80.006	19.993	103.209	19.856	0.794	0.479
438.500	291.647	80.007	19.994	103.209	19.856	0.791	0.506
439.000	291.924	80.007	19.994	103.209	19.855	0.882	0.521
439.500	292.191	80.006	19.994	103.209	19.857	0.773	0.530
440.000	292.430	80.007	19.994	103.209	19.857	0.776	0.525
440.500	292.702	80.007	19.993	103.208	19.857	0.775	0.508
441.000	292.944	80.006	19.994	103.208	19.852	1.047	0.513
441.500	293.194	80.006	19.994	103.209	19.856	0.805	0.503
442.000	293.451	80.007	19.994	103.208	19.857	0.773	0.500
442.500	293.708	80.006	19.995	103.210	19.853	1.022	0.510
443.000	293.945	80.006	19.994	103.209	19.853	1.010	0.504
443.500	294.213	80.007	19.994	103.209	19.855	0.880	0.499
444.000	294.450	80.005	19.996	103.208	19.855	0.902	0.505
444.500	294.672	80.005	19.995	103.208	19.857	0.757	0.482
445.000	294.965	80.004	19.994	103.208	19.855	0.873	0.487
445.500	295.197	80.006	19.996	103.209	19.858	0.680	0.520
446.000	295.440	80.005	19.996	103.209	19.857	0.767	0.500
446.500	295.709	80.007	19.996	103.209	19.854	0.915	0.494
447.000	295.898	80.006	19.996	103.209	19.856	0.793	0.485
447.500	296.180	80.005	19.996	103.207	19.857	0.775	0.465
448.000	296.395	80.005	19.996	103.206	19.851	1.112	0.484
448.500	296.703	80.004	19.995	103.205	19.855	0.852	0.510
449.000	296.971	80.006	19.995	103.204	19.858	0.663	0.549
449.500	297.207	80.007	19.996	103.204	19.856	0.832	0.540
450.000	297.456	80.007	19.996	103.204	19.857	0.735	0.494
450.500	297.717	80.006	19.997	103.205	19.858	0.658	0.497
451.000	297.983	80.006	19.995	103.205	19.861	0.504	0.518
451.500	298.235	80.006	19.994	103.205	19.860	0.565	0.523
452.000	298.519	80.006	19.995	103.204	19.858	0.672	0.528
452.500	298.741	80.007	19.995	103.204	19.858	0.649	0.521
453.000	299.004	80.007	19.996	103.203	19.860	0.524	0.495
453.500	299.261	80.007	19.995	103.202	19.859	0.606	0.502
454.000	299.497	80.007	19.996	103.203	19.857	0.766	0.506
454.500	299.739	80.008	19.996	103.203	19.856	0.821	0.486
455.000	299.986	80.007	19.995	103.204	19.857	0.771	0.484
455.500	300.231	80.007	19.995	103.204	19.858	0.685	0.490
456.000	300.523	80.006	19.994	103.203	19.860	0.545	0.514
456.500	300.726	80.008	19.995	103.202	19.857	0.732	0.516
457.000	301.023	80.007	19.996	103.204	19.859	0.586	0.498
457.500	301.240	80.007	19.995	103.205	19.856	0.794	0.507
458.000	301.508	80.007	19.995	103.206	19.855	0.888	0.500
458.500	301.741	80.007	19.995	103.207	19.857	0.742	0.493
459.000	302.019	80.008	19.995	103.207	19.857	0.750	0.506
459.500	302.285	80.009	19.993	103.205	19.855	0.877	0.528
460.000	302.530	80.008	19.993	103.203	19.859	0.640	0.528
460.500	302.785	80.009	19.995	103.204	19.859	0.613	0.506
461.000	303.027	80.009	19.995	103.204	19.859	0.631	0.498
461.500	303.310	80.008	19.996	103.204	19.857	0.742	0.511
462.000	303.533	80.009	19.994	103.204	19.857	0.760	0.516
462.500	303.798	80.010	19.994	103.204	19.860	0.568	0.497
463.000	304.056	80.008	19.994	103.201	19.856	0.837	0.505
463.500	304.309	80.007	19.994	103.201	19.856	0.794	0.517
464.000	304.574	80.008	19.994	103.201	19.858	0.671	0.514
464.500	304.808	80.009	19.994	103.201	19.855	0.846	0.508
465.000	305.037	80.008	19.993	103.202	19.856	0.798	0.481
465.500	305.280	80.009	19.994	103.202	19.858	0.653	0.468
466.000	305.520	80.009	19.994	103.203	19.854	0.972	0.478
466.500	305.828	80.008	19.995	103.203	19.856	0.832	0.515
467.000	306.071	80.008	19.994	103.203	19.856	0.811	0.550
467.500	306.332	80.008	19.995	103.202	19.855	0.895	0.528
468.000	306.534	80.009	19.996	103.204	19.856	0.832	0.484
468.500	306.823	80.008	19.994	103.203	19.855	0.902	0.477
469.000	307.077	80.010	19.994	103.203	19.855	0.909	0.517
469.500	307.333	80.008	19.993	103.203	19.856	0.784	0.526
470.000	307.526	80.007	19.996	103.204	19.853	0.999	0.480
470.500	307.807	80.009	19.994	103.205	19.857	0.762	0.462
471.000	308.055	80.008	19.995	103.205	19.857	0.728	0.502
471.500	308.300	80.007	19.995	103.205	19.856	0.794	0.511
472.000	308.547	80.008	19.994	103.203	19.856	0.785	0.492
472.500	308.843	80.008	19.995	103.203	19.856	0.798	0.517
473.000	309.062	80.008	19.995	103.201	19.855	0.854	0.529
473.500	309.315	80.008	19.992	103.201	19.857	0.776	0.494
474.000	309.595	80.008	19.992	103.200	19.857	0.728	0.503
474.500	309.831	80.008	19.995	103.202	19.856	0.828	0.525
475.000	310.098	80.007	19.994	103.202	19.855	0.852	0.510
475.500	310.303	80.007	19.994	103.202	19.859	0.599	0.487
476.000	310.570	80.008	19.993	103.203	19.860	0.568	0.472
476.500	310.892	80.008	19.994	103.204	19.856	0.793	0.531
477.000	311.082	80.008	19.994	103.204	19.858	0.658	0.551
477.500	311.320	80.008	19.996	103.204	19.859	0.611	0.470
478.000	311.591	80.009	19.995	103.204	19.859	0.597	0.468
478.500	311.829	80.009	19.994	103.204	19.857	0.751	0.509
479.000	312.086	80.009	19.994	103.202	19.859	0.642	0.502
479.500	312.341	80.009	19.993	103.203	19.858	0.671	0.503
480.000	312.603	80.009	19.993	103.202	19.860	0.536	0.514
480.500	312.845	80.009	19.994	103.202	19.859	0.594	0.511
481.000	313.087	80.008	19.993	103.203	19.861	0.484	0.494
481.500	313.347	80.010	19.995	103.205	19.857	0.724	0.492
482.000	313.591	80.009	19.993	103.205	19.861	0.464	0.503
482.500	313.825	80.010	19.993	103.205	19.860	0.556	0.491
483.000	314.130	80.010	19.993	103.205	19.861	0.464	0.508
483.500	314.389	80.010	19.995	103.205	19.859	0.619	0.551
484.000	314.635	80.010	19.994	103.204	19.858	0.689	0.534
484.500	314.886	80.009	19.993	103.204	19.857	0.744	0.501
485.000	315.108	80.010	19.993	103.204	19.859	0.626	0.485
485.500	315.404	80.008	19.994	103.204	19.860	0.547	0.495
486.000	315.603	80.010	19.993	103.204	19.856	0.787	0.507
486.500	315.882	80.009	19.995	103.204	19.858	0.655	0.487
487.000	316.116	80.009	19.993	103.204	19.860	0.522	0.496
487.500	316.375	80.010	19.995	103.204	19.856	0.800	0.503
488.000	316.641	80.010	19.994	103.204	19.860	0.574	0.509
488.500	316.858	80.007	19.994	103.204	19.862	0.382	0.504
489.000	317.100	80.008	19.994	103.204	19.858	0.658	0.471
489.500	317.398	80.008	19.995	103.204	19.857	0.753	0.499
490.000	317.620	80.009	19.994	103.205	19.859	0.635	0.530
490.500	317.875	80.010	19.994	103.205	19.859	0.646	0.499
491.000	318.130	80.009	19.994	103.204	19.859	0.581	0.493
491.500	318.403	80.010	19.993	103.202	19.861	0.504	0.519
492.000	318.649	80.009	19.994	103.202	19.858	0.681	0.524
492.500	318.915	80.008	19.994	103.201	19.858	0.690	0.516
493.000	319.146	80.008	19.995	103.202	19.857	0.764	0.504
493.500	319.411	80.008	19.994	103.203	19.859	0.606	0.496
494.000	319.688	80.008	19.995	103.205	19.856	0.780	0.518
494.500	319.898	80.007	19.996	103.206	19.859	0.583	0.515
495.000	320.141	80.008	19.994	103.206	19.861	0.455	0.471
495.500	320.392	80.007	19.995	103.205	19.857	0.714	0.474
496.000	320.650	80.007	19.994	103.205	19.857	0.744	0.501
496.500	320.897	80.005	19.993	103.206	19.857	0.730	0.507
497.000	321.156	80.006	19.995	103.205	19.858	0.678	0.506
497.500	321.422	80.007	19.993	103.205	19.854	0.920	0.516
498.000	321.693	80.007	19.994	103.204	19.856	0.785	0.531
498.500	321.931	80.008	19.994	103.204	19.860	0.567	0.523
499.000	322.116	80.008	19.995	103.202	19.860	0.534	0.466
499.500	322.424	80.008	19.992	103.202	19.856	0.787	0.458
500.000	322.647	80.006	19.993	103.201	19.859	0.640	0.512
500.500	322.918	80.006	19.992	103.201	19.859	0.613	0.513
501.000	323.173	80.007	19.994	103.200	19.857	0.730	0.510
501.500	323.399	80.008	19.994	103.202	19.858	0.694	0.504
502.000	323.663	80.007	19.993	103.203	19.859	0.628	0.486
502.500	323.948	80.006	19.995	103.203	19.857	0.744	0.520
503.000	324.157	80.007	19.993	103.204	19.858	0.692	0.522
503.500	324.442	80.007	19.993	103.207	19.857	0.773	0.494
504.000	324.663	80.006	19.994	103.206	19.859	0.606	0.500
504.500	324.933	80.007	19.994	103.206	19.859	0.626	0.499
505.000	325.157	80.006	19.992	103.206	19.859	0.624	0.492
505.500	325.447	80.006	19.995	103.207	19.859	0.586	0.503
506.000	325.678	80.008	19.993	103.208	19.858	0.701	0.517
506.500	325.959	80.007	19.993	103.208	19.858	0.676	0.517
507.000	326.195	80.007	19.995	103.208	19.857	0.741	0.515
507.500	326.458	80.008	19.994	103.208	19.858	0.672	0.508
508.000	326.666	80.007	19.994	103.207	19.858	0.681	0.484
508.500	326.924	80.006	19.994	103.206	19.857	0.717	0.468
509.000	327.192	80.007	19.995	103.206	19.860	0.543	0.496
509.500	327.423	80.007	19.997	103.206	19.858	0.692	0.513
510.000	327.654	80.007	19.995	103.204	19.858	0.681	0.481
510.500	327.917	80.007	19.996	103.205	19.856	0.780	0.478
511.000	328.191	80.007	19.996	103.205	19.858	0.705	0.516
511.500	328.441	80.006	19.993	103.204	19.856	0.825	0.531
512.000	328.692	80.008	19.995	103.204	19.858	0.662	0.512
512.500	328.932	80.007	19.995	103.203	19.860	0.542	0.495
513.000	329.200	80.007	19.996	103.202	19.862	0.439	0.499
513.500	329.430	80.006	19.995	103.201	19.859	0.585	0.503
514.000	329.665	80.008	19.994	103.202	19.859	0.615	0.482
514.500	329.930	80.007	19.992	103.201	19.859	0.635	0.482
515.000	330.189	80.008	19.994	103.202	19.855	0.854	0.512
515.500	330.463	80.008	19.995	103.202	19.857	0.744	0.529
516.000	330.688	80.007	19.996	103.201	19.859	0.633	0.516
516.500	330.920	80.007	19.995	103.201	19.857	0.771	0.478
517.000	331.206	80.008	19.995	103.201	19.858	0.699	0.488
517.500	331.423	80.007	19.993	103.201	19.857	0.733	0.510
518.000	331.699	80.007	19.993	103.202	19.856	0.834	0.498
518.500	331.969	80.007	19.996	103.202	19.859	0.642	0.520
519.000	332.177	80.008	19.995	103.202	19.858	0.708	0.512
519.500	332.448	80.006	19.995	103.202	19.859	0.592	0.479
520.000	332.731	80.007	19.995	103.202	19.857	0.717	0.517
520.500	332.984	80.007	19.996	103.202	19.860	0.554	0.545
521.000	333.229	80.006	19.995	103.201	19.860	0.554	0.517
521.500	333.493	80.007	19.996	103.201	19.860	0.529	0.503
522.000	333.740	80.008	19.995	103.201	19.863	0.335	0.510
522.500	333.972	80.006	19.995	103.201	19.861	0.461	0.495
523.000	334.277	80.006	19.995	103.201	19.860	0.574	0.509
523.500	334.524	80.007	19.996	103.201	19.865	0.246	0.545
524.000	334.757	80.006	19.995	103.202	19.860	0.561	0.516
524.500	335.021	80.008	19.995	103.202	19.860	0.567	0.488
525.000	335.247	80.006	19.995	103.202	19.859	0.588	0.494
525.500	335.495	80.007	19.995	103.202	19.859	0.597	0.482
526.000	335.779	80.007	19.996	103.202	19.858	0.649	0.503
526.500	336.012	80.007	19.995	103.202	19.858	0.647	0.525
527.000	336.256	80.005	19.997	103.202	19.859	0.638	0.497
527.500	336.504	80.008	19.994	103.202	19.857	0.758	0.484
528.000	336.784	80.005	19.994	103.203	19.856	0.785	0.509
528.500	337.019	80.007	19.995	103.204	19.858	0.656	0.522
529.000	337.269	80.007	19.995	103.200	19.859	0.610	0.500
529.500	337.522	80.006	19.996	103.196	19.860	0.541	0.494
530.000	337.785	80.007	19.996	103.196	19.860	0.567	0.510
530.500	338.041	80.006	19.995	103.195	19.860	0.554	0.517
531.000	338.305	80.005	19.997	103.195	19.859	0.597	0.519
531.501	338.526	80.008	19.994	103.199	19.860	0.567	0.503
532.000	338.779	80.007	19.994	103.202	19.857	0.760	0.480
532.500	339.037	80.007	19.995	103.203	19.858	0.651	0.492
533.000	339.293	80.008	19.994	103.203	19.861	0.504	0.512
533.500	339.606	80.007	19.994	103.201	19.855	0.880	0.542
534.000	339.819	80.008	19.993	103.196	19.858	0.647	0.547
534.500	340.071	80.008	19.996	103.194	19.858	0.671	0.495
535.000	340.333	80.007	19.996	103.193	19.860	0.525	0.490
535.500	340.606	80.007	19.993	103.193	19.861	0.500	0.525
536.000	340.865	80.007	19.994	103.194	19.858	0.680	0.533
536.500	341.110	80.008	19.994	103.198	19.862	0.416	0.518
537.000	341.366	80.007	19.995	103.200	19.861	0.459	0.502
537.500	341.637	80.008	19.995	103.198	19.860	0.524	0.514
538.000	341.851	80.008	19.994	103.198	19.861	0.497	0.506
538.500	342.110	80.008	19.995	103.197	19.863	0.366	0.479
539.000	342.386	80.009	19.994	103.198	19.859	0.595	0.504
539.500	342.624	80.008	19.995	103.196	19.859	0.624	0.524
540.000	342.863	80.009	19.995	103.195	19.858	0.669	0.496
540.501	343.110	80.009	19.994	103.195	19.857	0.737	0.482
541.000	343.347	80.008	19.994	103.195	19.858	0.694	0.485
541.500	343.574	80.007	19.996	103.194	19.859	0.585	0.474
542.000	343.869	80.008	19.995	103.196	19.856	0.818	0.493
542.500	344.142	80.009	19.994	103.195	19.857	0.715	0.545
543.000	344.373	80.010	19.994	103.196	19.858	0.687	0.536
543.500	344.671	80.009	19.994	103.194	19.859	0.593	0.516
544.000	344.890	80.009	19.995	103.194	19.859	0.608	0.523
544.500	345.134	80.007	19.997	103.191	19.858	0.656	0.490
545.000	345.398	80.008	19.996	103.194	19.861	0.472	0.486
545.500	345.662	80.009	19.995	103.194	19.861	0.482	0.518
546.000	345.893	80.008	19.997	103.197	19.860	0.565	0.511
546.500	346.171	80.008	19.995	103.199	19.860	0.547	0.502
547.000	346.391	80.007	19.994	103.203	19.860	0.567	0.504
547.500	346.645	80.008	19.995	103.203	19.857	0.735	0.486
548.000	346.910	80.008	19.995	103.200	19.859	0.599	0.496
548.500	347.163	80.006	19.995	103.200	19.859	0.610	0.518
549.001	347.434	80.006	19.995	103.198	19.859	0.594	0.521
549.500	347.673	80.006	19.997	103.195	19.860	0.542	0.517
550.000	347.919	80.008	19.996	103.194	19.862	0.386	0.498
550.500	348.198	80.007	19.997	103.194	19.862	0.423	0.505
551.000	348.450	80.007	19.995	103.192	19.860	0.550	0.528
551.500	348.717	80.007	19.996	103.191	19.857	0.751	0.525
552.000	348.946	80.007	19.995	103.194	19.861	0.500	0.508
552.500	349.186	80.007	19.995	103.196	19.858	0.699	0.483
553.000	349.452	80.009	19.996	103.197	19.860	0.534	0.487
553.500	349.720	80.008	19.996	103.198	19.860	0.538	0.520
554.000	349.973	80.008	19.995	103.197	19.859	0.631	0.528
554.500	350.233	80.008	19.996	103.193	19.859	0.590	0.517
555.000	350.486	80.007	19.994	103.192	19.857	0.730	0.513
555.500	350.727	80.007	19.991	103.194	19.859	0.613	0.504
556.000	351.021	80.008	19.993	103.195	19.860	0.545	0.515
556.500	351.237	80.011	19.994	103.198	19.856	0.793	0.522
557.000	351.492	80.007	19.995	103.203	19.860	0.576	0.490
557.500	351.757	80.009	19.993	103.203	19.859	0.619	0.496
558.000	352.019	80.007	19.994	103.203	19.856	0.837	0.524
558.500	352.274	80.006	19.994	103.204	19.859	0.640	0.522
559.000	352.514	80.010	19.993	103.205	19.859	0.636	0.506
559.500	352.786	80.008	19.993	103.203	19.859	0.615	0.504
560.000	353.070	80.009	19.992	103.201	19.861	0.500	0.534
560.500	353.330	80.008	19.994	103.198	19.861	0.506	0.550
561.000	353.581	80.010	19.995	103.197	19.860	0.540	0.528
561.500	353.827	80.009	19.993	103.195	19.857	0.723	0.504
562.000	354.074	80.010	19.995	103.194	19.860	0.538	0.495
562.500	354.373	80.009	19.995	103.190	19.858	0.708	0.519
563.000	354.622	80.010	19.994	103.192	19.858	0.660	0.547
563.500	354.845	80.008	19.993	103.190	19.862	0.411	0.511
564.000	355.134	80.009	19.993	103.189	19.859	0.642	0.492
564.500	355.394	80.008	19.993	103.192	19.855	0.866	0.530
565.000	355.622	80.008	19.993	103.197	19.856	0.830	0.518
565.500	355.895	80.009	19.994	103.197	19.857	0.773	0.495
566.000	356.115	80.009	19.996	103.200	19.858	0.705	0.497
566.500	356.374	80.009	19.994	103.202	19.857	0.767	0.486
567.000	356.633	80.010	19.995	103.203	19.858	0.671	0.498
567.500	356.899	80.009	19.995	103.199	19.855	0.911	0.521
568.000	357.150	80.010	19.995	103.197	19.857	0.714	0.521
568.500	357.417	80.008	19.996	103.191	19.858	0.678	0.517
569.000	357.624	80.008	19.995	103.187	19.855	0.895	0.496
569.500	357.907	80.007	19.995	103.184	19.853	1.024	0.482
570.000	358.189	80.010	19.995	103.187	19.853	1.008	0.528
570.500	358.406	80.011	19.994	103.190	19.853	0.995	0.532
571.000	358.674	80.008	19.995	103.195	19.854	0.927	0.492
571.500	358.897	80.008	19.995	103.195	19.854	0.922	0.488
572.000	359.180	80.011	19.994	103.194	19.855	0.898	0.498
572.500	359.429	80.007	19.994	103.190	19.855	0.893	0.520
573.000	359.686	80.009	19.994	103.187	19.851	1.131	0.519
573.500	359.921	80.007	19.994	103.189	19.852	1.096	0.498
574.000	360.173	80.007	19.995	103.194	19.852	1.088	0.489
574.500	360.457	80.007	19.994	103.199	19.852	1.081	0.512
575.000	360.726	80.007	19.993	103.201	19.850	1.230	0.545
575.500	360.939	80.006	19.996	103.203	19.852	1.054	0.518
576.000	361.218	80.007	19.996	103.196	19.851	1.122	0.487
576.500	361.486	80.007	19.995	103.191	19.850	1.234	0.519
577.000	361.735	80.008	19.995	103.188	19.848	1.345	0.532
577.501	361.981	80.008	19.994	103.188	19.847	1.406	0.506
578.001	362.238	80.008	19.996	103.189	19.848	1.350	0.500
578.500	362.486	80.006	19.995	103.194	19.848	1.329	0.504
579.000	362.719	80.009	19.995	103.194	19.848	1.366	0.493
579.500	362.963	80.007	19.994	103.190	19.848	1.359	0.479
580.000	363.210	80.007	19.994	103.188	19.846	1.506	0.484
580.500	363.462	80.010	19.996	103.183	19.846	1.497	0.495
581.000	363.684	80.007	19.995	103.182	19.845	1.510	0.486
581.500	363.965	80.006	19.995	103.185	19.844	1.583	0.488
582.000	364.221	80.008	19.994	103.191	19.847	1.442	0.520
582.500	364.473	80.007	19.994	103.195	19.845	1.567	0.523
583.000	364.684	80.007	19.994	103.199	19.842	1.732	0.486
583.500	364.945	80.009	19.994	103.201	19.841	1.825	0.467
584.000	365.226	80.008	19.995	103.202	19.843	1.691	0.507
584.500	365.448	80.009	19.994	103.202	19.845	1.524	0.523
585.000	365.735	80.007	19.995	103.202	19.843	1.662	0.506
585.500	365.947	80.008	19.996	103.201	19.843	1.705	0.504
586.000	366.257	80.008	19.995	103.198	19.843	1.698	0.511
586.500	366.471	80.008	19.993	103.197	19.840	1.849	0.523
587.000	366.704	80.008	19.995	103.194	19.838	1.981	0.485
587.500	367.023	80.008	19.994	103.192	19.838	2.001	0.500
588.000	367.234	80.008	19.995	103.193	19.840	1.899	0.541
588.500	367.488	80.009	19.993	103.196	19.840	1.881	0.498
589.000	367.745	80.007	19.993	103.197	19.838	1.983	0.489
589.500	367.951	80.008	19.994	103.199	19.836	2.132	0.487
590.000	368.239	80.007	19.995	103.201	19.836	2.150	0.478
590.500	368.505	80.010	19.995	103.200	19.832	2.390	0.524
591.000	368.758	80.009	19.995	103.199	19.832	2.432	0.537
591.500	368.994	80.008	19.994	103.200	19.829	2.580	0.504
592.000	369.243	80.008	19.995	103.199	19.829	2.580	0.487
592.500	369.488	80.008	19.995	103.200	19.827	2.713	0.489
593.000	369.768	80.007	19.994	103.197	19.828	2.684	0.510
593.500	369.999	80.009	19.997	103.196	19.826	2.808	0.518
594.000	370.262	80.008	19.994	103.196	19.826	2.799	0.502
594.500	370.515	80.007	19.994	103.196	19.824	2.923	0.505
595.000	370.767	80.008	19.994	103.195	19.824	2.942	0.510
595.500	371.022	80.008	19.995	103.198	19.822	3.098	0.506
596.000	371.247	80.008	19.994	103.196	19.823	2.987	0.494
596.500	371.484	80.008	19.994	103.196	19.822	3.050	0.471
597.000	371.771	80.009	19.994	103.197	19.823	3.025	0.493
597.500	372.008	80.007	19.994	103.198	19.818	3.341	0.524
598.000	372.281	80.007	19.995	103.200	19.820	3.219	0.517
598.500	372.543	80.009	19.996	103.203	19.817	3.429	0.522
599.000	372.809	80.007	19.996	103.202	19.815	3.534	0.531
599.500	373.085	80.009	19.994	103.202	19.817	3.373	0.535
600.000	373.353	80.009	19.996	103.202	19.817	3.421	0.543
600.500	373.629	80.007	19.995	103.202	19.813	3.649	0.544
601.000	373.839	80.006	19.994	103.202	19.809	3.909	0.515
601.500	374.098	80.007	19.995	103.203	19.811	3.798	0.477
602.000	374.366	80.007	19.996	103.203	19.810	3.841	0.498
602.500	374.606	80.008	19.994	103.203	19.808	4.013	0.518
603.000	374.876	80.007	19.994	103.202	19.810	3.877	0.509
603.500	375.141	80.006	19.996	103.199	19.806	4.114	0.522
604.000	375.367	80.006	19.995	103.199	19.803	4.332	0.513
604.500	375.617	80.006	19.995	103.200	19.803	4.309	0.483
605.000	375.849	80.007	19.996	103.200	19.804	4.268	0.478
605.500	376.100	80.006	19.994	103.200	19.800	4.532	0.482
606.000	376.365	80.006	19.996	103.199	19.802	4.374	0.500
606.500	376.634	80.006	19.995	103.197	19.804	4.234	0.525
607.000	376.882	80.005	19.996	103.197	19.797	4.711	0.526
607.500	377.162	80.005	19.995	103.197	19.797	4.709	0.523
608.000	377.407	80.006	19.996	103.198	19.794	4.901	0.526
608.500	377.669	80.007	19.994	103.202	19.796	4.797	0.516
609.000	377.923	80.008	19.996	103.204	19.794	4.912	0.511
609.500	378.176	80.006	19.995	103.205	19.793	4.989	0.511
610.000	378.423	80.005	19.996	103.205	19.790	5.188	0.504
610.500	378.684	80.006	19.996	103.205	19.790	5.181	0.504
611.000	378.970	80.006	19.997	103.205	19.787	5.423	0.527
611.500	379.213	80.006	19.996	103.205	19.789	5.253	0.538
612.000	379.466	80.007	19.996	103.206	19.787	5.425	0.513
612.500	379.734	80.006	19.997	103.205	19.784	5.613	0.509
613.000	379.991	80.007	19.995	103.206	19.780	5.857	0.523
613.500	380.277	80.006	19.996	103.207	19.778	5.974	0.534
614.000	380.523	80.006	19.996	103.208	19.778	6.015	0.537
614.500	380.726	80.006	19.996	103.208	19.776	6.148	0.490
615.000	380.977	80.008	19.995	103.209	19.776	6.110	0.451
615.500	381.302	80.007	19.995	103.210	19.770	6.536	0.514
616.000	381.523	80.008	19.993	103.211	19.771	6.426	0.561
616.500	381.797	80.007	19.995	103.213	19.768	6.674	0.521
617.000	382.064	80.009	19.995	103.214	19.769	6.597	0.518
617.500	382.311	80.009	19.994	103.214	19.762	7.068	0.528
618.000	382.520	80.009	19.993	103.213	19.765	6.844	0.485
618.500	382.820	80.007	19.995	103.211	19.761	7.104	0.483
619.000	383.064	80.009	19.997	103.207	19.758	7.339	0.527
619.500	383.333	80.009	19.994	103.207	19.755	7.507	0.529
620.000	383.594	80.008	19.998	103.207	19.756	7.475	0.521
620.500	383.841	80.009	19.995	103.208	19.751	7.757	0.519
621.000	384.105	80.010	19.995	103.210	19.748	7.970	0.510
621.500	384.369	80.008	19.994	103.211	19.746	8.109	0.519
622.000	384.589	80.009	19.995	103.212	19.743	8.313	0.506
622.500	384.859	80.009	19.994	103.216	19.744	8.241	0.487
623.000	385.124	80.008	19.994	103.217	19.741	8.444	0.513
623.500	385.376	80.007	19.997	103.217	19.741	8.444	0.526
624.000	385.622	80.010	19.997	103.219	19.737	8.722	0.507
624.500	385.902	80.009	19.993	103.223	19.735	8.835	0.512
625.000	386.137	80.007	19.994	103.221	19.729	9.229	0.521
625.500	386.430	80.008	19.995	103.219	19.728	9.287	0.521
626.000	386.628	80.009	19.996	103.221	19.725	9.538	0.509
626.500	386.900	80.009	19.995	103.225	19.720	9.834	0.480
627.000	387.141	80.009	19.997	103.226	19.720	9.820	0.492
627.500	387.447	80.008	19.997	103.233	19.722	9.730	0.530
628.000	387.694	80.007	19.994	103.240	19.718	9.958	0.550
628.501	387.936	80.006	19.994	103.244	19.715	10.194	0.521
629.000	388.205	80.008	19.995	103.244	19.710	10.483	0.500
629.500	388.440	80.006	19.996	103.245	19.706	10.742	0.508
630.000	388.697	80.006	19.995	103.244	19.700	11.146	0.498
630.500	388.965	80.007	19.995	103.244	19.701	11.105	0.508
631.000	389.188	80.008	19.996	103.245	19.696	11.455	0.508
631.500	389.450	80.007	19.996	103.246	19.689	11.881	0.488
632.000	389.712	80.007	19.995	103.247	19.692	11.710	0.504
632.501	389.972	80.006	19.994	103.250	19.686	12.118	0.523
633.000	390.243	80.007	19.995	103.252	19.682	12.383	0.527
633.500	390.485	80.006	19.994	103.251	19.680	12.509	0.522
634.000	390.778	80.007	19.996	103.250	19.676	12.769	0.524
634.500	391.019	80.007	19.995	103.249	19.672	13.057	0.534
635.000	391.247	80.007	19.995	103.247	19.670	13.156	0.502
635.500	391.495	80.008	19.996	103.246	19.666	13.465	0.472
636.000	391.777	80.004	19.995	103.245	19.659	13.929	0.503
636.500	392.033	80.009	19.995	103.247	19.659	13.918	0.534
637.000	392.305	80.006	19.995	103.246	19.654	14.200	0.533
637.500	392.534	80.007	19.996	103.245	19.651	14.446	0.515
638.000	392.816	80.008	19.996	103.244	19.643	14.934	0.506
638.500	393.030	80.008	19.996	103.244	19.643	14.988	0.503
639.000	393.313	80.009	19.994	103.243	19.636	15.449	0.497
639.500	393.573	80.008	19.996	103.243	19.631	15.747	0.520
640.000	393.813	80.008	19.996	103.246	19.629	15.864	0.522
640.500	394.105	80.008	19.996	103.249	19.625	16.193	0.516
641.000	394.338	80.010	19.996	103.250	19.619	16.531	0.529
641.500	394.639	80.006	19.996	103.252	19.615	16.853	0.530
642.000	394.889	80.008	19.995	103.258	19.610	17.147	0.542
642.500	395.165	80.007	19.995	103.263	19.606	17.407	0.538
643.000	395.387	80.009	19.995	103.270	19.606	17.422	0.512
643.500	395.665	80.009	19.995	103.283	19.601	17.757	0.499
644.000	395.894	80.009	19.996	103.290	19.597	18.037	0.503
644.500	396.161	80.008	19.995	103.290	19.592	18.355	0.501
645.000	396.451	80.011	19.994	103.290	19.591	18.423	0.527
645.500	396.736	80.009	19.995	103.285	19.584	18.906	0.567
646.000	397.001	80.008	19.994	103.275	19.584	18.887	0.563
646.500	397.211	80.010	19.994	103.272	19.578	19.308	0.512
647.000	397.498	80.009	19.995	103.270	19.573	19.613	0.486
647.500	397.727	80.010	19.996	103.269	19.574	19.556	0.506
648.000	397.993	80.010	19.994	103.272	19.569	19.877	0.506
648.500	398.272	80.010	19.995	103.273	19.570	19.816	0.520
649.000	398.537	80.010	19.994	103.269	19.565	20.122	0.544
649.500	398.782	80.010	19.994	103.271	19.565	20.156	0.527
650.000	399.050	80.011	19.995	103.272	19.561	20.432	0.511
650.500	399.330	80.009	19.994	103.272	19.556	20.736	0.530
651.000	399.599	80.011	19.994	103.275	19.554	20.912	0.548
651.500	399.837	80.009	19.994	103.287	19.551	21.067	0.528
652.000	400.126	80.012	19.994	103.292	19.545	21.470	0.517
652.500	400.354	80.009	19.996	103.301	19.544	21.582	0.522
653.000	400.610	80.008	19.995	103.308	19.541	21.782	0.501
653.500	400.904	80.008	19.994	103.315	19.534	22.245	0.517
654.000	401.161	80.008	19.996	103.317	19.528	22.638	0.550
654.500	401.381	80.008	19.995	103.324	19.524	22.901	0.514
655.000	401.671	80.006	19.994	103.324	19.517	23.353	0.494
655.500	401.915	80.007	19.994	103.325	19.511	23.746	0.522
656.000	402.208	80.005	19.994	103.325	19.504	24.208	0.535
656.500	402.463	80.007	19.994	103.324	19.501	24.435	0.542
657.000	402.729	80.008	19.994	103.321	19.494	24.902	0.535
657.500	403.026	80.007	19.994	103.325	19.488	25.291	0.542
658.000	403.232	80.007	19.995	103.326	19.482	25.676	0.533
658.500	403.529	80.008	19.994	103.325	19.478	25.973	0.503
659.000	403.781	80.007	19.995	103.324	19.473	26.266	0.526
659.500	404.036	80.007	19.994	103.323	19.468	26.608	0.528
660.000	404.303	80.007	19.994	103.319	19.462	27.043	0.514
660.500	404.559	80.007	19.995	103.317	19.454	27.538	0.522
661.000	404.780	80.007	19.996	103.319	19.451	27.742	0.500
661.500	405.088	80.006	19.994	103.319	19.447	28.020	0.503
662.000	405.326	80.007	19.995	103.321	19.436	28.709	0.537
662.500	405.576	80.007	19.995	103.324	19.432	28.990	0.517
663.000	405.842	80.008	19.995	103.326	19.426	29.401	0.502
663.500	406.083	80.007	19.994	103.330	19.418	29.954	0.511
664.000	406.356	80.007	19.994	103.336	19.409	30.578	0.511
664.500	406.616	80.007	19.995	103.342	19.401	31.093	0.524
665.000	406.844	80.007	19.992	103.347	19.391	31.725	0.511
665.500	407.159	80.007	19.995	103.353	19.382	32.384	0.516
666.000	407.395	80.007	19.994	103.357	19.372	33.031	0.547
666.500	407.694	80.007	19.996	103.365	19.366	33.445	0.543
667.000	407.927	80.006	19.995	103.373	19.358	33.970	0.533
667.500	408.203	80.007	19.995	103.378	19.349	34.551	0.521
668.000	408.435	80.007	19.992	103.378	19.342	35.025	0.509
668.500	408.689	80.007	19.997	103.382	19.336	35.425	0.497
669.000	408.991	80.008	19.996	103.384	19.325	36.136	0.521
669.500	409.258	80.007	19.994	103.378	19.317	36.684	0.562
670.000	409.512	80.007	19.994	103.373	19.312	36.999	0.544
670.500	409.765	80.006	19.994	103.374	19.306	37.405	0.514
671.000	410.021	80.009	19.997	103.370	19.296	38.093	0.508
671.500	410.270	80.008	19.994	103.362	19.288	38.588	0.507
672.000	410.539	80.007	19.995	103.360	19.280	39.164	0.511
672.500	410.797	80.007	19.996	103.364	19.272	39.720	0.523
673.000	411.037	80.007	19.996	103.368	19.264	40.235	0.513
673.500	411.296	80.008	19.994	103.375	19.252	41.053	0.499
674.000	411.540	80.007	19.995	103.383	19.243	41.607	0.501
674.500	411.795	80.008	19.994	103.393	19.233	42.319	0.501
675.000	412.084	80.007	19.995	103.401	19.224	42.901	0.521
675.500	412.332	80.008	19.996	103.412	19.217	43.357	0.541
676.000	412.594	80.009	19.995	103.423	19.207	44.055	0.524
676.500	412.856	80.007	19.996	103.430	19.200	44.510	0.517
677.000	413.105	80.006	19.995	103.437	19.188	45.276	0.518
677.500	413.373	80.008	19.994	103.444	19.183	45.602	0.514
678.000	413.652	80.007	19.993	103.451	19.171	46.459	0.532
678.500	413.903	80.008	19.996	103.454	19.159	47.212	0.539
679.000	414.130	80.007	19.994	103.457	19.151	47.784	0.504
679.500	414.382	80.007	19.994	103.459	19.140	48.509	0.479
680.000	414.632	80.007	19.994	103.458	19.131	49.093	0.490
680.500	414.890	80.007	19.994	103.451	19.117	50.068	0.504
681.000	415.164	80.006	19.996	103.447	19.107	50.730	0.520
681.500	415.440	80.008	19.994	103.451	19.095	51.533	0.542
682.000	415.698	80.008	19.993	103.456	19.084	52.243	0.542
682.500	415.887	80.005	19.993	103.462	19.068	53.300	0.490
683.000	416.161	80.005	19.994	103.469	19.057	54.043	0.455
683.500	416.420	80.005	19.994	103.475	19.047	54.722	0.498
684.000	416.671	80.007	19.995	103.477	19.033	55.668	0.521
684.500	416.957	80.005	19.995	103.480	19.020	56.530	0.524
685.000	417.191	80.007	19.993	103.489	19.011	57.147	0.529
685.500	417.477	80.006	19.995	103.490	18.999	57.908	0.520
686.000	417.708	80.006	19.997	103.493	18.986	58.807	0.518
686.500	417.961	80.007	19.994	103.500	18.973	59.625	0.500
687.000	418.224	80.008	19.993	103.504	18.959	60.594	0.500
687.500	418.450	80.006	19.994	103.505	18.948	61.340	0.503
688.000	418.731	80.005	19.995	103.512	18.932	62.384	0.498
688.500	418.980	80.004	19.994	103.518	18.916	63.472	0.518
689.000	419.183	80.006	19.994	103.520	18.899	64.585	0.490
689.500	419.508	80.006	19.994	103.526	18.885	65.529	0.490
690.000	419.785	80.008	19.994	103.534	18.867	66.766	0.565
690.500	420.001	80.007	19.994	103.543	18.849	67.955	0.548
691.000	420.258	80.006	19.995	103.559	18.833	69.042	0.483
691.500	420.569	80.007	19.995	103.570	18.816	70.183	0.520
692.000	420.792	80.006	19.994	103.573	18.800	71.297	0.550
692.500	421.043	80.005	19.996	103.575	18.784	72.341	0.504
693.000	421.344	80.008	19.994	103.580	18.770	73.233	0.513
693.500	421.543	80.005	19.994	103.578	18.756	74.226	0.526
694.000	421.801	80.005	19.994	103.581	18.740	75.262	0.478
694.500	422.051	80.005	19.994	103.588	18.725	76.320	0.482
695.000	422.321	80.007	19.995	103.593	18.710	77.306	0.514
695.500	422.609	80.005	19.994	103.593	18.691	78.556	0.539
696.000	422.847	80.007	19.993	103.592	18.679	79.412	0.542
696.500	423.087	80.005	19.994	103.595	18.663	80.409	0.502
697.000	423.345	80.006	19.994	103.593	18.650	81.315	0.488
697.500	423.558	80.007	19.996	103.586	18.636	82.258	0.485
698.000	423.814	80.005	19.995	103.584	18.617	83.535	0.470
698.500	424.062	80.006	19.994	103.585	18.599	84.754	0.487
699.000	424.348	80.007	19.994	103.586	18.581	85.967	0.519
699.500	424.596	80.006	19.995	103.596	18.566	86.936	0.534
700.000	424.805	80.007	19.995	103.617	18.548	88.173	0.496
700.500	425.088	80.008	19.995	103.647	18.531	89.308	0.475
701.000	425.347	80.006	19.995	103.671	18.513	90.488	0.517
701.500	425.608	80.007	19.996	103.690	18.492	91.901	0.531
702.000	425.833	80.009	19.994	103.705	18.474	93.136	0.503
702.500	426.099	80.007	19.994	103.712	18.453	94.567	0.488
703.000	426.336	80.007	19.994	103.706	18.426	96.334	0.497
703.500	426.575	80.008	19.995	103.705	18.403	97.876	0.490
704.000	426.824	80.008	19.997	103.705	18.379	99.495	0.482
704.500	427.103	80.008	19.997	103.715	18.357	101.008	0.508
705.000	427.340	80.008	19.994	103.739	18.335	102.454	0.522
705.500	427.581	80.008	19.995	103.754	18.312	103.963	0.497
706.000	427.818	80.009	19.995	103.762	18.284	105.837	0.478
706.500	428.034	80.010	19.995	103.768	18.262	107.306	0.465
707.000	428.315	80.007	19.994	103.767	18.240	108.798	0.475
707.500	428.588	80.009	19.996	103.753	18.215	110.497	0.526
708.000	428.834	80.007	19.996	103.750	18.193	112.037	0.537
708.500	429.113	80.007	19.995	103.756	18.164	113.991	0.522
709.000	429.367	80.004	19.995	103.778	18.145	115.280	0.529
709.500	429.585	80.007	19.995	103.795	18.124	116.638	0.503
710.000	429.804	80.008	19.995	103.806	18.098	118.390	0.455
710.500	430.059	80.007	19.995	103.813	18.072	120.153	0.456
711.000	430.321	80.009	19.995	103.816	18.043	122.043	0.496
711.500	430.604	80.009	19.996	103.803	18.014	124.060	0.531
712.000	430.821	80.009	19.996	103.792	17.990	125.645	0.523
712.500	431.097	80.008	19.996	103.806	17.963	127.492	0.496
713.000	431.338	80.008	19.994	103.827	17.942	128.870	0.505
713.500	431.583	80.009	19.994	103.841	17.924	130.045	0.501
714.000	431.843	80.009	19.995	103.856	17.905	131.274	0.495
714.500	432.114	80.008	19.995	103.874	17.890	132.290	0.518
715.000	432.352	80.007	19.994	103.876	17.869	133.658	0.520
715.500	432.571	80.007	19.994	103.870	17.851	134.818	0.483
716.000	432.827	80.006	19.994	103.864	17.827	136.416	0.466
716.500	433.100	80.008	19.995	103.858	17.804	137.967	0.502
717.000	433.317	80.008	19.995	103.856	17.780	139.618	0.510
717.500	433.567	80.008	19.995	103.865	17.754	141.349	0.478
718.000	433.817	80.009	19.995	103.886	17.730	143.017	0.483
718.500	434.095	80.007	19.996	103.915	17.702	144.913	0.514
719.000	434.339	80.009	19.995	103.944	17.676	146.723	0.526
719.500	434.605	80.008	19.995	103.964	17.653	148.320	0.516
720.000	434.871	80.010	19.995	103.965	17.633	149.689	0.521
720.500	435.126	80.007	19.994	103.955	17.614	150.932	0.527
721.000	435.386	80.008	19.995	103.953	17.598	152.038	0.518
721.500	435.649	80.010	19.994	103.959	17.581	153.174	0.519
722.000	435.887	80.009	19.996	103.969	17.566	154.190	0.512
722.500	436.122	80.008	19.994	103.988	17.553	155.043	0.487
723.000	436.406	80.009	19.995	104.008	17.542	155.768	0.496
723.500	436.631	80.008	19.994	104.010	17.533	156.379	0.514
724.000	436.883	80.009	19.996	104.001	17.521	157.154	0.493
724.500	437.175	80.007	19.994	103.985	17.512	157.760	0.511
725.000	437.400	80.009	19.996	103.967	17.500	158.558	0.531
725.500	437.638	80.010	19.996	103.944	17.494	158.986	0.490
726.000	437.888	80.008	19.996	103.926	17.482	159.808	0.475
726.500	438.146	80.010	19.995	103.910	17.475	160.267	0.498
727.000	438.397	80.010	19.995	103.902	17.468	160.752	0.508
727.500	438.654	80.010	19.995	103.904	17.458	161.412	0.509
728.000	438.911	80.010	19.993	103.920	17.451	161.860	0.512
728.500	439.161	80.008	19.997	103.945	17.442	162.446	0.511
729.001	439.413	80.011	19.995	103.980	17.438	162.741	0.504
729.500	439.686	80.007	19.994	104.011	17.433	163.106	0.513
730.000	439.893	80.011	19.996	104.042	17.426	163.542	0.502
730.500	440.172	80.009	19.997	104.064	17.415	164.259	0.483
731.000	440.445	80.008	19.995	104.079	17.414	164.365	0.519
731.500	440.677	80.009	19.996	104.088	17.407	164.828	0.528
732.000	440.943	80.008	19.994	104.095	17.402	165.151	0.501
732.500	441.174	80.008	19.995	104.097	17.398	165.460	0.498
733.000	441.417	80.007	19.997	104.096	17.394	165.742	0.486
733.500	441.677	80.007	19.998	104.094	17.386	166.253	0.488
734.000	441.935	80.009	19.997	104.091	17.381	166.564	0.511
734.500	442.163	80.009	19.995	104.084	17.378	166.765	0.502
735.000	442.422	80.008	19.995	104.077	17.373	167.097	0.486
735.500	442.667	80.006	19.996	104.073	17.370	167.270	0.496
736.000	442.920	80.008	19.995	104.075	17.363	167.798	0.501
736.500	443.174	80.007	19.995	104.078	17.360	167.933	0.502
737.000	443.430	80.006	19.995	104.085	17.354	168.377	0.509
737.500	443.656	80.007	19.996	104.093	17.351	168.514	0.496
738.000	443.920	80.008	19.996	104.098	17.346	168.883	0.486
738.500	444.185	80.007	19.997	104.099	17.342	169.128	0.510
739.000	444.433	80.007	19.993	104.099	17.338	169.426	0.521
739.500	444.681	80.008	19.995	104.098	17.331	169.894	0.504
740.000	444.904	80.006	19.995	104.099	17.331	169.865	0.483
740.500	445.161	80.007	19.995	104.099	17.324	170.301	0.475
741.000	445.429	80.006	19.995	104.099	17.321	170.553	0.502
741.500	445.684	80.009	19.994	104.100	17.318	170.732	0.524
742.000	445.938	80.006	19.993	104.104	17.314	171.014	0.516
742.500	446.176	80.006	19.993	104.110	17.311	171.208	0.501
743.000	446.439	80.007	19.994	104.115	17.313	171.077	0.496
743.500	446.695	80.007	19.995	104.118	17.311	171.187	0.510
744.000	446.940	80.007	19.995	104.119	17.309	171.288	0.510
744.500	447.178	80.009	19.995	104.116	17.312	171.128	0.491
745.000	447.505	80.006	19.993	104.112	17.314	170.938	0.524
745.500	447.732	80.006	19.995	104.106	17.314	170.951	0.560
746.000	447.962	80.004	19.996	104.103	17.317	170.750	0.506
746.500	448.243	80.007	19.996	104.102	17.316	170.773	0.484
747.000	448.499	80.007	19.996	104.100	17.323	170.326	0.524
747.500	448.753	80.007	19.995	104.096	17.328	169.975	0.523
748.000	448.979	80.007	19.995	104.088	17.334	169.585	0.495
748.500	449.263	80.005	19.995	104.085	17.340	169.151	0.495
749.000	449.504	80.008	19.994	104.083	17.343	168.951	0.517
749.500	449.761	80.007	19.995	104.080	17.352	168.321	0.511
750.001	450.043	80.006	19.995	104.075	17.360	167.751	0.519
750.500	450.245	80.005	19.994	104.075	17.370	167.117	0.512
751.000	450.520	80.007	19.995	104.071	17.378	166.507	0.480
751.500	450.773	80.007	19.994	104.065	17.387	165.905	0.502
752.000	451.010	80.006	19.995	104.063	17.395	165.404	0.509
752.500	451.281	80.004	19.995	104.064	17.409	164.425	0.499
753.000	451.514	80.007	19.996	104.064	17.423	163.508	0.506
753.500	451.806	80.005	19.995	104.064	17.433	162.824	0.515
754.000	452.024	80.005	19.994	104.064	17.450	161.678	0.518
754.500	452.305	80.008	19.994	104.063	17.461	160.893	0.505
755.000	452.551	80.006	19.994	104.062	17.476	159.904	0.513
755.500	452.812	80.005	19.994	104.060	17.492	158.792	0.517
756.000	453.047	80.005	19.995	104.052	17.508	157.695	0.501
756.500	453.324	80.007	19.994	104.045	17.527	156.465	0.504
757.001	453.570	80.007	19.994	104.036	17.546	155.165	0.518
757.500	453.796	80.005	19.994	104.024	17.563	154.011	0.498
758.000	454.093	80.006	19.995	104.015	17.584	152.576	0.497
758.500	454.341	80.009	19.995	104.010	17.605	151.147	0.533
759.000	454.584	80.007	19.996	104.003	17.625	149.809	0.518
759.500	454.849	80.007	19.995	103.997	17.650	148.134	0.500
760.000	455.124	80.008	19.993	103.994	17.671	146.723	0.524
760.500	455.335	80.006	19.995	103.986	17.695	145.073	0.513
761.001	455.635	80.005	19.996	103.975	17.719	143.464	0.498
761.500	455.899	80.006	19.994	103.967	17.745	141.727	0.537
762.000	456.160	80.005	19.995	103.960	17.771	139.987	0.544
762.500	456.391	80.004	19.995	103.952	17.798	138.175	0.508
763.000	456.665	80.008	19.995	103.947	17.824	136.452	0.498
763.500	456.934	80.007	19.995	103.939	17.851	134.618	0.524
764.000	457.177	80.007	19.993	103.932	17.880	132.653	0.528
764.500	457.426	80.006	19.996	103.924	17.905	130.947	0.502
765.000	457.698	80.007	19.995	103.915	17.937	128.806	0.507
765.500	457.942	80.006	19.994	103.905	17.964	127.005	0.519
766.000	458.184	80.006	19.993	103.897	17.991	125.200	0.500
766.500	458.425	80.006	19.994	103.889	18.019	123.317	0.484
767.000	458.687	80.005	19.995	103.880	18.042	121.736	0.493
767.500	458.970	80.004	19.995	103.867	18.077	119.451	0.524
768.000	459.229	80.004	19.995	103.855	18.108	117.340	0.543
768.500	459.469	80.007	19.993	103.847	18.138	115.320	0.520
769.000	459.718	80.004	19.994	103.839	18.164	113.563	0.494
769.500	459.958	80.005	19.994	103.831	18.194	111.578	0.489
770.000	460.241	80.006	19.995	103.823	18.228	109.336	0.506
770.500	460.493	80.003	19.995	103.813	18.255	107.498	0.529
771.000	460.721	80.006	19.996	103.804	18.285	105.525	0.507
771.500	460.982	80.006	19.994	103.792	18.316	103.453	0.485
772.000	461.226	80.005	19.994	103.778	18.353	100.965	0.498
772.500	461.491	80.005	19.992	103.769	18.385	98.805	0.507
773.000	461.775	80.006	19.995	103.761	18.414	96.886	0.529
773.500	462.034	80.006	19.995	103.752	18.448	94.623	0.546
774.000	462.255	80.006	19.994	103.741	18.484	92.229	0.511
774.500	462.555	80.007	19.995	103.733	18.517	90.039	0.501
775.000	462.782	80.008	19.995	103.725	18.550	87.779	0.524
775.500	463.061	80.006	19.992	103.710	18.587	85.345	0.517
776.000	463.315	80.007	19.992	103.697	18.617	83.351	0.520
776.500	463.546	80.007	19.995	103.687	18.653	80.903	0.509
777.000	463.870	80.005	19.996	103.674	18.685	78.810	0.520
777.500	464.097	80.005	19.992	103.659	18.720	76.467	0.553
778.000	464.359	80.009	19.996	103.651	18.750	74.412	0.520
778.500	464.597	80.008	19.994	103.642	18.780	72.452	0.494
779.000	464.848	80.009	19.995	103.630	18.812	70.305	0.494
779.500	465.089	80.008	19.995	103.620	18.839	68.497	0.491
780.000	465.338	80.007	19.993	103.614	18.868	66.542	0.492
780.500	465.594	80.009	19.994	103.607	18.895	64.782	0.497
781.000	465.818	80.006	19.993	103.600	18.924	62.830	0.492
781.500	466.136	80.006	19.995	103.596	18.949	61.181	0.511
782.000	466.373	80.008	19.996	103.595	18.977	59.308	0.549
782.500	466.616	80.008	19.994	103.592	19.004	57.514	0.518
783.000	466.860	80.009	19.994	103.590	19.029	55.835	0.484
783.500	467.124	80.010	19.995	103.584	19.050	54.413	0.497
784.000	467.386	80.010	19.992	103.576	19.075	52.745	0.517
784.500	467.582	80.006	19.995	103.570	19.099	51.192	0.492
785.000	467.894	80.008	19.994	103.558	19.121	49.668	0.483
785.500	468.103	80.008	19.995	103.546	19.143	48.231	0.514
786.000	468.363	80.008	19.994	103.536	19.163	46.875	0.495
786.500	468.623	80.008	19.994	103.528	19.182	45.627	0.495
787.000	468.875	80.007	19.993	103.516	19.201	44.394	0.516
787.500	469.138	80.008	19.995	103.504	19.220	43.104	0.514
788.000	469.390	80.009	19.993	103.494	19.236	42.042	0.515
788.501	469.654	80.007	19.994	103.486	19.258	40.604	0.515
789.000	469.942	80.008	19.995	103.475	19.272	39.635	0.534
789.500	470.177	80.009	19.996	103.468	19.291	38.387	0.538
790.001	470.434	80.005	19.996	103.461	19.305	37.478	0.508
790.501	470.699	80.007	19.995	103.454	19.321	36.380	0.507
791.000	470.914	80.008	19.995	103.447	19.336	35.354	0.501
791.500	471.189	80.008	19.997	103.442	19.353	34.261	0.485
792.000	471.456	80.008	19.995	103.436	19.365	33.478	0.516
792.500	471.700	80.008	19.995	103.432	19.380	32.475	0.527
793.000	471.943	80.008	19.996	103.428	19.394	31.532	0.499
793.500	472.252	80.006	19.996	103.421	19.409	30.532	0.520
794.000	472.474	80.009	19.994	103.414	19.419	29.874	0.542
794.500	472.707	80.008	19.995	103.408	19.430	29.094	0.493
795.000	472.993	80.009	19.996	103.403	19.445	28.114	0.487
795.500	473.251	80.008	19.994	103.398	19.454	27.561	0.531
796.000	473.518	80.008	19.995	103.390	19.466	26.728	0.534
796.500	473.797	80.007	19.995	103.383	19.474	26.216	0.536
797.000	474.045	80.007	19.996	103.375	19.488	25.299	0.537
797.500	474.315	80.008	19.995	103.367	19.498	24.610	0.523
798.000	474.586	80.006	19.998	103.360	19.511	23.733	0.529
798.500	474.855	80.008	19.996	103.359	19.519	23.212	0.540
799.000	475.130	80.006	19.996	103.359	19.528	22.623	0.542
799.500	475.361	80.006	19.996	103.358	19.535	22.117	0.525
800.000	475.648	80.009	19.996	103.357	19.546	21.398	0.512
800.500	475.897	80.008	19.994	103.356	19.556	20.773	0.527
801.000	476.122	80.008	19.996	103.354	19.566	20.050	0.505
801.500	476.394	80.008	19.995	103.348	19.574	19.518	0.486
802.000	476.674	80.010	19.995	103.341	19.580	19.147	0.524
802.500	476.897	80.008	19.995	103.338	19.590	18.457	0.527
803.000	477.144	80.007	19.996	103.332	19.598	17.974	0.486
803.500	477.441	80.010	19.996	103.326	19.604	17.543	0.507
804.000	477.686	80.007	19.994	103.325	19.611	17.110	0.543
804.500	477.959	80.009	19.995	103.324	19.616	16.751	0.530
805.000	478.250	80.008	19.993	103.322	19.622	16.337	0.541
805.500	478.494	80.010	19.995	103.320	19.633	15.656	0.550
806.000	478.765	80.008	19.995	103.318	19.637	15.352	0.525
806.500	479.033	80.009	19.997	103.318	19.643	14.941	0.527
807.000	479.278	80.009	19.994	103.313	19.649	14.566	0.526
807.500	479.542	80.009	19.995	103.310	19.656	14.130	0.511
808.000	479.825	80.009	19.994	103.305	19.660	13.822	0.528
808.500	480.082	80.010	19.994	103.305	19.665	13.474	0.544
809.000	480.340	80.010	19.995	103.302	19.672	13.040	0.528
809.500	480.541	80.009	19.995	103.299	19.677	12.679	0.487
810.000	480.817	80.009	19.994	103.295	19.684	12.215	0.468
810.500	481.073	80.011	19.996	103.296	19.686	12.120	0.505
811.000	481.361	80.008	19.994	103.293	19.693	11.667	0.538
811.500	481.607	80.009	19.994	103.291	19.695	11.497	0.539
812.000	481.854	80.008	19.995	103.290	19.699	11.256	0.514
812.500	482.141	80.007	19.995	103.288	19.708	10.663	0.513
813.000	482.398	80.007	19.995	103.282	19.709	10.602	0.539
813.500	482.650	80.007	19.997	103.273	19.712	10.399	0.526
814.000	482.912	80.008	19.996	103.270	19.719	9.905	0.512
814.500	483.167	80.006	19.996	103.269	19.724	9.597	0.516
815.000	483.427	80.008	19.994	103.267	19.730	9.213	0.516
815.500	483.674	80.006	19.995	103.266	19.731	9.084	0.511
816.000	483.941	80.004	19.996	103.270	19.736	8.752	0.510
816.500	484.208	80.006	19.996	103.266	19.740	8.515	0.524
817.000	484.491	80.006	19.996	103.261	19.745	8.215	0.542
817.500	484.703	80.005	19.994	103.259	19.746	8.102	0.523
818.000	484.958	80.006	19.996	103.259	19.749	7.921	0.481
818.500	485.224	80.007	19.992	103.258	19.753	7.663	0.494
819.000	485.501	80.007	19.996	103.261	19.752	7.697	0.532
819.500	485.738	80.006	19.995	103.263	19.756	7.441	0.529
820.000	486.017	80.005	19.996	103.261	19.763	7.015	0.515
820.500	486.253	80.006	19.995	103.258	19.765	6.880	0.515
821.000	486.541	80.002	19.995	103.254	19.767	6.690	0.519
821.500	486.755	80.005	19.997	103.248	19.767	6.731	0.513
822.000	487.027	80.006	19.996	103.244	19.771	6.479	0.495
822.500	487.268	80.005	19.996	103.244	19.774	6.262	0.499
823.000	487.553	80.006	19.995	103.244	19.778	5.983	0.519
823.500	487.839	80.005	19.996	103.244	19.779	5.950	0.549
824.000	488.067	80.005	19.995	103.244	19.779	5.923	0.542
824.500	488.380	80.005	19.996	103.244	19.783	5.644	0.527
825.000	488.611	80.005	19.996	103.243	19.786	5.439	0.543
825.500	488.844	80.006	19.997	103.243	19.789	5.251	0.505
826.000	489.124	80.004	19.996	103.242	19.789	5.235	0.489
826.500	489.357	80.006	19.995	103.243	19.791	5.104	0.513
827.000	489.628	80.007	19.995	103.242	19.794	4.928	0.508
827.500	489.868	80.005	19.996	103.239	19.797	4.700	0.507
828.000	490.154	80.006	19.994	103.238	19.799	4.625	0.518
828.500	490.452	80.005	19.997	103.238	19.799	4.571	0.555
829.000	490.683	80.007	19.995	103.235	19.801	4.443	0.557
829.500	490.943	80.006	19.996	103.235	19.802	4.411	0.510
830.000	491.208	80.006	19.995	103.238	19.803	4.357	0.507
830.500	491.466	80.005	19.994	103.239	19.807	4.097	0.524
831.000	491.702	80.007	19.995	103.234	19.808	3.992	0.509
831.500	491.954	80.006	19.997	103.230	19.812	3.764	0.491
832.000	492.177	80.006	19.995	103.224	19.811	3.823	0.481
832.500	492.469	80.007	19.994	103.218	19.810	3.848	0.495
833.000	492.765	80.007	19.995	103.215	19.816	3.484	0.552
833.500	492.987	80.006	19.994	103.217	19.815	3.523	0.553
834.000	493.281	80.008	19.996	103.217	19.819	3.256	0.517
834.500	493.538	80.005	19.994	103.216	19.818	3.324	0.533
835.001	493.786	80.007	19.993	103.216	19.819	3.281	0.528
835.500	494.076	80.008	19.994	103.213	19.819	3.290	0.522
836.000	494.300	80.006	19.997	103.209	19.820	3.192	0.526
836.500	494.575	80.007	19.995	103.209	19.824	2.946	0.507
837.000	494.833	80.008	19.994	103.210	19.825	2.898	0.516
837.500	495.140	80.009	19.995	103.209	19.825	2.847	0.549
838.000	495.355	80.006	19.996	103.207	19.828	2.657	0.543
838.500	495.632	80.008	19.994	103.206	19.829	2.630	0.507
839.000	495.865	80.007	19.996	103.205	19.825	2.847	0.501
839.500	496.190	80.006	19.996	103.203	19.831	2.442	0.534
840.000	496.407	80.008	19.993	103.203	19.828	2.652	0.550
840.500	496.634	80.007	19.993	103.202	19.831	2.438	0.493
841.000	496.951	80.008	19.995	103.203	19.832	2.418	0.494
841.500	497.182	80.007	19.996	103.203	19.833	2.341	0.546
842.000	497.444	80.006	19.995	103.203	19.835	2.221	0.520
842.500	497.719	80.008	19.994	103.203	19.835	2.173	0.515
843.000	497.993	80.006	19.995	103.203	19.835	2.180	0.543
843.500	498.211	80.007	19.995	103.201	19.836	2.162	0.520
844.000	498.489	80.006	19.995	103.201	19.838	1.984	0.494
844.500	498.750	80.006	19.997	103.201	19.839	1.965	0.518
845.000	499.000	80.007	19.995	103.201	19.842	1.764	0.525
845.500	499.271	80.006	19.994	103.201	19.841	1.829	0.516
846.000	499.533	80.007	19.992	103.201	19.843	1.701	0.527
846.500	499.830	80.009	19.996	103.201	19.846	1.448	0.547
847.000	500.054	80.007	19.997	103.201	19.846	1.448	0.540
847.500	500.312	80.007	19.996	103.201	19.846	1.504	0.501
848.000	500.599	80.005	19.995	103.201	19.845	1.569	0.513
848.500	500.794	80.006	19.998	103.202	19.846	1.502	0.513
849.000	501.065	80.006	19.995	103.202	19.848	1.369	0.474
849.500	501.358	80.006	19.995	103.197	19.846	1.465	0.515
850.000	501.597	80.007	19.996	103.190	19.846	1.447	0.548
850.500	501.870	80.006	19.997	103.189	19.845	1.527	0.522
851.000	502.107	80.006	19.995	103.184	19.847	1.378	0.511
851.500	502.386	80.006	19.997	103.180	19.849	1.283	0.514
852.000	502.624	80.006	19.996	103.179	19.846	1.450	0.516
852.500	502.892	80.005	19.995	103.181	19.851	1.129	0.511
853.000	503.123	80.008	19.996	103.176	19.853	1.036	0.503
853.500	503.402	80.006	19.995	103.172	19.850	1.188	0.505
854.000	503.655	80.007	19.995	103.170	19.851	1.154	0.521
854.500	503.881	80.007	19.995	103.171	19.854	0.918	0.506
855.000	504.149	80.006	19.995	103.171	19.850	1.190	0.486
855.500	504.379	80.007	19.995	103.172	19.855	0.859	0.496
856.000	504.693	80.006	19.996	103.174	19.853	1.007	0.521
856.500	504.954	80.009	19.994	103.176	19.855	0.878	0.559
857.000	505.158	80.008	19.995	103.177	19.854	0.914	0.520
857.500	505.400	80.007	19.995	103.176	19.859	0.611	0.456
858.000	505.689	80.008	19.995	103.174	19.855	0.896	0.488
858.500	505.962	80.007	19.995	103.172	19.858	0.661	0.546
859.000	506.210	80.006	19.995	103.171	19.858	0.697	0.541
859.500	506.472	80.010	19.994	103.168	19.856	0.830	0.516
860.000	506.730	80.008	19.995	103.168	19.857	0.751	0.515
860.500	506.992	80.008	19.996	103.169	19.860	0.554	0.520
861.000	507.261	80.008	19.995	103.167	19.858	0.704	0.525
861.500	507.467	80.010	19.995	103.164	19.857	0.773	0.503
862.000	507.698	80.008	19.994	103.166	19.858	0.704	0.456
862.501	508.013	80.007	19.995	103.164	19.858	0.687	0.492
863.000	508.215	80.009	19.995	103.164	19.857	0.765	0.532
863.500	508.481	80.008	19.994	103.165	19.857	0.747	0.492
864.000	508.711	80.008	19.996	103.166	19.858	0.679	0.482
864.500	508.957	80.009	19.994	103.164	19.858	0.703	0.486
865.000	509.191	80.007	19.994	103.164	19.858	0.710	0.478
865.500	509.490	80.009	19.996	103.164	19.857	0.753	0.507
866.000	509.724	80.009	19.995	103.164	19.861	0.470	0.533
866.500	510.007	80.008	19.994	103.163	19.859	0.624	0.525
867.000	510.220	80.008	19.996	103.164	19.859	0.626	0.506
867.500	510.539	80.007	19.995	103.166	19.856	0.839	0.514
868.000	510.762	80.007	19.996	103.169	19.861	0.482	0.537
868.500	511.019	80.008	19.993	103.169	19.863	0.344	0.511
869.000	511.276	80.008	19.994	103.169	19.860	0.518	0.496
869.500	511.521	80.009	19.995	103.168	19.862	0.419	0.508
870.000	511.780	80.009	19.992	103.166	19.858	0.660	0.503
870.500	512.045	80.008	19.994	103.164	19.860	0.534	0.514
871.000	512.317	80.009	19.995	103.164	19.860	0.575	0.531
871.500	512.531	80.007	19.995	103.163	19.862	0.387	0.512
872.000	512.812	80.007	19.993	103.164	19.860	0.538	0.490
872.500	513.029	80.009	19.995	103.164	19.864	0.287	0.496
873.000	513.304	80.007	19.995	103.165	19.864	0.283	0.495
873.500	513.586	80.007	19.996	103.166	19.861	0.461	0.524
874.000	513.836	80.008	19.995	103.167	19.860	0.525	0.545
874.500	514.119	80.008	19.995	103.167	19.861	0.450	0.532
875.000	514.303	80.007	19.996	103.167	19.862	0.393	0.500
875.500	514.607	80.008	19.995	103.167	19.863	0.380	0.477
876.000	514.872	80.009	19.995	103.166	19.862	0.394	0.529
876.500	515.106	80.008	19.994	103.164	19.862	0.418	0.534
877.000	515.325	80.007	19.994	103.163	19.862	0.409	0.476
877.500	515.601	80.008	19.994	103.163	19.865	0.238	0.474
878.000	515.858	80.007	19.994	103.163	19.863	0.328	0.514
878.500	516.176	80.007	19.994	103.164	19.866	0.134	0.554
879.000	516.373	80.007	19.994	103.166	19.862	0.382	0.544
879.500	516.627	80.007	19.996	103.167	19.863	0.376	0.483
880.000	516.938	80.008	19.993	103.168	19.861	0.479	0.508
880.500	517.101	80.006	19.993	103.168	19.864	0.251	0.520
881.000	517.468	80.008	19.995	103.168	19.865	0.235	0.502
881.500	517.658	80.009	19.997	103.167	19.864	0.251	0.544
882.000	517.951	80.006	19.995	103.167	19.866	0.176	0.520
882.500	518.198	80.008	19.994	103.167	19.865	0.186	0.511
883.000	518.447	80.007	19.994	103.166	19.865	0.244	0.518
883.500	518.727	80.006	19.996	103.166	19.866	0.179	0.513
884.000	518.992	80.009	19.996	103.166	19.867	0.082	0.537
884.500	519.167	80.008	19.996	103.166	19.866	0.125	0.492
885.000	519.515	80.009	19.994	103.165	19.868	-0.016	0.482
885.500	519.706	80.008	19.996	103.164	19.866	0.163	0.532
886.000	519.974	80.006	19.996	103.164	19.867	0.081	0.499
886.500	520.304	80.008	19.995	103.163	19.866	0.181	0.528
887.000	520.500	80.007	19.995	103.161	19.868	-0.016	0.562
887.500	520.755	80.009	19.994	103.159	19.871	-0.217	0.488
888.000	520.995	80.010	19.997	103.159	19.867	0.106	0.473
888.500	521.281	80.008	19.996	103.158	19.866	0.158	0.511
889.000	521.472	80.011	19.996	103.157	19.870	-0.106	0.501
889.500	521.778	80.007	19.993	103.159	19.870	-0.151	0.487
890.000	521.969	80.008	19.994	103.161	19.869	-0.059	0.497
890.500	522.283	80.010	19.995	103.162	19.868	0.030	0.501
891.000	522.505	80.008	19.997	103.160	19.866	0.127	0.520
891.500	522.800	80.010	19.997	103.160	19.876	-0.493	0.526
892.000	523.033	80.010	19.994	103.158	19.865	0.219	0.523
892.500	523.290	80.009	19.996	103.157	19.866	0.118	0.509
893.000	523.574	80.009	19.993	103.155	19.872	-0.240	0.516
893.500	523.827	80.008	19.994	103.156	19.881	-0.819	0.539
894.000	524.031	80.011	19.994	103.157	19.868	0.047	0.497
894.500	524.310	80.009	19.995	103.159	19.872	-0.235	0.470
895.000	524.578	80.007	19.994	103.159	19.869	-0.066	0.515
895.500	524.739	80.006	19.993	103.162	19.866	0.129	0.488
896.000	525.107	80.006	19.995	103.164	19.872	-0.276	0.479
896.500	525.270	80.007	19.994	103.164	19.874	-0.360	0.530
897.000	525.653	80.007	19.993	103.164	19.869	-0.041	0.539
897.500	525.773	80.007	19.994	103.164	19.861	0.453	0.525
898.000	526.028	80.008	19.995	103.162	19.867	0.072	0.439
898.500	526.320	80.005	19.994	103.160	19.879	-0.699	0.461
899.000	526.589	80.004	19.996	103.160	19.864	0.255	0.554
899.500	526.853	80.008	19.996	103.162	19.862	0.394	0.547
900.001	527.131	80.008	19.994	103.161	19.875	-0.446	0.537
900.500	527.230	80.005	19.993	103.158	19.872	-0.233	0.460
901.000	527.594	80.006	19.996	103.152	19.862	0.430	0.420
901.500	527.953	80.008	19.996	103.147	19.872	-0.238	0.593
902.000	527.991	80.007	19.995	103.143	19.873	-0.296	0.560
902.500	528.340	80.008	19.995	103.142	19.872	-0.242	0.392
903.000	528.683	80.007	19.995	103.145	19.869	-0.032	0.540
903.500	528.949	80.008	19.996	103.152	19.873	-0.314	0.651
904.000	529.174	80.005	19.994	103.157	19.872	-0.256	0.550
904.500	529.379	80.009	19.995	103.159	19.872	-0.265	0.460
905.000	529.470	80.008	19.995	103.160	19.867	0.099	0.363
905.500	530.109	80.007	19.998	103.158	19.870	-0.086	0.513
906.000	529.786	80.006	19.995	103.156	19.870	-0.090	0.523
906.500	530.334	80.006	19.994	103.154	19.865	0.190	0.270
907.000	531.081	80.006	19.996	103.151	19.871	-0.170	0.760
907.500	531.370	80.007	19.996	103.150	19.869	-0.077	1.166
908.000	530.899	80.004	19.995	103.153	19.869	-0.075	0.427
908.500	531.791	80.005	19.995	103.155	19.867	0.059	0.120
909.000	531.384	80.006	19.995	103.157	19.870	-0.131	0.453
909.500	531.865	80.008	19.995	103.158	19.869	-0.084	0.279
910.000	532.190	80.006	19.996	103.153	19.872	-0.231	0.440
910.500	532.723	80.007	19.996	103.148	19.872	-0.242	0.832
911.000	532.399	80.004	19.995	103.145	19.870	-0.097	0.534
911.500	532.739	80.007	19.995	103.146	19.869	-0.036	0.112
912.000	533.343	80.004	19.996	103.147	19.869	-0.050	0.480
912.500	533.821	80.008	19.996	103.148	19.872	-0.240	1.013
913.000	533.333	80.006	19.996	103.149	19.870	-0.113	0.536
913.500	533.911	80.007	19.995	103.147	19.868	0.004	0.040
914.000	534.677	80.006	19.994	103.147	19.868	0.030	0.717
914.500	534.213	80.005	19.998	103.147	19.869	-0.054	0.823
915.000	534.122	80.002	19.997	103.149	19.868	0.011	-0.126
915.500	534.783	80.006	19.997	103.149	19.872	-0.249	0.008
916.000	535.466	80.008	19.995	103.149	19.870	-0.125	0.957
916.500	535.456	80.007	19.996	103.147	19.870	-0.138	1.008
917.000	535.515	80.005	19.997	103.145	19.871	-0.176	0.361
917.500	536.054	80.006	19.996	103.147	19.875	-0.437	0.324
918.000	536.290	80.005	19.995	103.153	19.874	-0.357	0.687
918.500	536.582	80.007	19.995	103.156	19.871	-0.208	0.651
919.000	536.662	80.006	19.995	103.157	19.870	-0.147	0.449
919.500	537.001	80.005	19.996	103.156	19.873	-0.315	0.395
920.000	537.341	80.006	19.996	103.152	19.872	-0.240	0.549
920.500	537.392	80.008	19.994	103.147	19.874	-0.371	0.535
921.000	537.875	80.006	19.995	103.147	19.876	-0.543	0.463
921.500	538.027	80.005	19.995	103.146	19.875	-0.450	0.585
922.000	538.175	80.005	19.994	103.146	19.876	-0.547	0.467
922.500	538.493	80.006	19.996	103.147	19.875	-0.446	0.383
923.000	538.781	80.007	19.995	103.148	19.874	-0.351	0.536
923.500	539.009	80.007	19.995	103.147	19.874	-0.371	0.561
924.000	539.304	80.008	19.997	103.148	19.873	-0.332	0.520
924.500	539.583	80.006	19.992	103.151	19.873	-0.285	0.548
925.000	539.784	80.004	19.993	103.153	19.873	-0.289	0.527
925.500	540.039	80.005	19.996	103.155	19.873	-0.289	0.468
926.000	540.231	80.007	19.996	103.156	19.872	-0.249	0.451
926.500	540.577	80.006	19.995	103.157	19.873	-0.299	0.492
927.000	540.804	80.006	19.995	103.158	19.875	-0.432	0.556
927.500	541.036	80.005	19.994	103.155	19.872	-0.262	0.516
928.000	541.281	80.006	19.995	103.156	19.877	-0.574	0.468
928.500	541.615	80.004	19.993	103.153	19.875	-0.477	0.528
929.000	541.758	80.006	19.994	103.154	19.876	-0.511	0.528
929.500	542.110	80.005	19.995	103.149	19.876	-0.486	0.486
930.000	542.361	80.005	19.993	103.151	19.877	-0.554	0.549
930.500	542.563	80.005	19.993	103.152	19.876	-0.534	0.528
931.000	542.795	80.005	19.994	103.152	19.874	-0.416	0.443
931.500	543.103	80.005	19.993	103.151	19.874	-0.407	0.487
932.000	543.288	80.007	19.995	103.156	19.875	-0.468	0.516
932.500	543.634	80.006	19.994	103.156	19.877	-0.554	0.512
933.000	543.798	80.003	19.996	103.150	19.873	-0.333	0.520
933.500	544.063	80.005	19.996	103.147	19.875	-0.428	0.470
934.000	544.369	80.006	19.994	103.145	19.875	-0.473	0.500
934.500	544.543	80.006	19.996	103.138	19.875	-0.446	0.525
935.000	544.825	80.006	19.995	103.138	19.874	-0.400	0.467
935.500	545.024	80.005	19.995	103.142	19.875	-0.427	0.468
936.000	545.347	80.006	19.995	103.149	19.875	-0.421	0.502
936.500	545.507	80.008	19.995	103.152	19.875	-0.462	0.503
937.000	545.806	80.007	19.994	103.158	19.876	-0.545	0.471
937.500	546.072	80.007	19.994	103.159	19.877	-0.604	0.512
938.000	546.297	80.006	19.993	103.159	19.875	-0.448	0.528
938.500	546.515	80.006	19.994	103.159	19.875	-0.468	0.467
939.000	546.755	80.006	19.996	103.157	19.875	-0.419	0.451
939.500	547.028	80.007	19.995	103.156	19.877	-0.557	0.486
940.000	547.295	80.006	19.994	103.160	19.874	-0.362	0.526
940.500	547.537	80.007	19.994	103.163	19.875	-0.423	0.524
941.000	547.811	80.007	19.994	103.162	19.873	-0.344	0.513
941.500	548.042	80.007	19.995	103.165	19.874	-0.371	0.511
942.000	548.331	80.006	19.996	103.167	19.874	-0.358	0.513
942.500	548.538	80.006	19.994	103.161	19.876	-0.498	0.508
943.000	548.768	80.007	19.993	103.156	19.877	-0.583	0.466
943.500	549.087	80.008	19.993	103.155	19.875	-0.470	0.493
944.000	549.352	80.008	19.994	103.151	19.879	-0.744	0.567
944.500	549.588	80.008	19.995	103.145	19.875	-0.421	0.543
945.000	549.783	80.007	19.993	103.149	19.878	-0.620	0.465
945.500	550.063	80.007	19.992	103.153	19.875	-0.419	0.452
946.000	550.300	80.008	19.994	103.151	19.878	-0.672	0.496
946.500	550.552	80.008	19.994	103.154	19.874	-0.391	0.503
947.000	550.786	80.008	19.993	103.157	19.874	-0.357	0.488
947.500	551.067	80.007	19.994	103.156	19.877	-0.572	0.501
948.000	551.316	80.007	19.997	103.152	19.874	-0.382	0.522
948.500	551.506	80.008	19.994	103.154	19.875	-0.475	0.484
949.000	551.779	80.008	19.994	103.155	19.877	-0.554	0.451
949.500	552.050	80.008	19.994	103.157	19.875	-0.452	0.504
950.000	552.297	80.009	19.995	103.160	19.876	-0.513	0.531
950.500	552.616	80.008	19.994	103.160	19.873	-0.301	0.542
951.000	552.816	80.009	19.994	103.157	19.874	-0.364	0.543
951.500	553.058	80.008	19.993	103.155	19.878	-0.634	0.480
952.000	553.304	80.008	19.995	103.152	19.874	-0.382	0.464
952.500	553.588	80.009	19.997	103.152	19.877	-0.565	0.509
953.000	553.824	80.007	19.996	103.156	19.875	-0.455	0.525
953.500	554.093	80.009	19.994	103.160	19.877	-0.597	0.512
954.000	554.326	80.007	19.995	103.160	19.876	-0.498	0.503
954.500	554.578	80.007	19.994	103.159	19.875	-0.443	0.493
955.000	554.811	80.008	19.994	103.159	19.878	-0.624	0.485
955.500	555.064	80.007	19.995	103.159	19.875	-0.461	0.486
956.000	555.322	80.008	19.993	103.161	19.875	-0.452	0.499
956.500	555.595	80.008	19.994	103.162	19.878	-0.667	0.521
957.000	555.842	80.007	19.994	103.164	19.871	-0.165	0.525
957.500	556.100	80.008	19.995	103.161	19.873	-0.303	0.513
958.000	556.339	80.006	19.993	103.161	19.871	-0.181	0.502
958.500	556.580	80.007	19.995	103.157	19.877	-0.588	0.488
959.000	556.786	80.006	19.995	103.151	19.876	-0.522	0.463
959.500	557.082	80.007	19.995	103.146	19.876	-0.500	0.474
960.000	557.362	80.007	19.994	103.149	19.875	-0.444	0.539
960.500	557.605	80.006	19.995	103.149	19.876	-0.548	0.550
961.000	557.836	80.007	19.993	103.150	19.875	-0.453	0.499
961.500	558.131	80.007	19.994	103.152	19.877	-0.600	0.500
962.000	558.313	80.008	19.995	103.157	19.878	-0.652	0.502
962.500	558.625	80.007	19.996	103.155	19.877	-0.554	0.485
963.000	558.832	80.006	19.994	103.152	19.876	-0.484	0.506
963.500	559.079	80.008	19.994	103.151	19.877	-0.586	0.486
964.000	559.349	80.006	19.994	103.151	19.877	-0.561	0.485
964.500	559.597	80.009	19.993	103.150	19.875	-0.470	0.517
965.000	559.873	80.007	19.994	103.152	19.877	-0.566	0.521
965.500	560.140	80.008	19.995	103.150	19.877	-0.588	0.534
966.000	560.365	80.010	19.995	103.148	19.877	-0.561	0.518
966.500	560.655	80.008	19.993	103.149	19.874	-0.366	0.504
967.000	560.877	80.006	19.995	103.148	19.876	-0.520	0.513
967.500	561.162	80.009	19.994	103.145	19.875	-0.470	0.509
968.000	561.393	80.011	19.993	103.147	19.875	-0.432	0.511
968.500	561.656	80.006	19.995	103.149	19.878	-0.645	0.505
969.000	561.924	80.009	19.994	103.151	19.874	-0.375	0.513
969.500	562.132	80.010	19.995	103.151	19.876	-0.514	0.503
970.001	562.412	80.011	19.996	103.154	19.873	-0.332	0.482
970.500	562.664	80.009	19.994	103.156	19.874	-0.382	0.510
971.000	562.924	80.009	19.995	103.157	19.876	-0.500	0.522
971.500	563.180	80.010	19.994	103.152	19.878	-0.663	0.514
972.000	563.414	80.011	19.994	103.152	19.874	-0.401	0.503
972.500	563.667	80.007	19.994	103.153	19.876	-0.507	0.488
973.000	563.946	80.009	19.994	103.154	19.878	-0.618	0.509
973.500	564.176	80.009	19.996	103.155	19.876	-0.536	0.521
974.000	564.476	80.009	19.995	103.161	19.878	-0.649	0.519
974.500	564.687	80.009	19.994	103.162	19.878	-0.638	0.520
975.000	564.970	80.008	19.994	103.162	19.879	-0.717	0.503
975.500	565.192	80.009	19.996	103.161	19.876	-0.545	0.500
976.000	565.439	80.007	19.995	103.160	19.877	-0.586	0.487
976.500	565.714	80.008	19.995	103.158	19.877	-0.554	0.495
977.000	565.932	80.009	19.996	103.152	19.876	-0.525	0.507
977.500	566.230	80.009	19.995	103.147	19.878	-0.656	0.505
978.000	566.490	80.008	19.996	103.142	19.877	-0.566	0.537
978.500	566.704	80.008	19.996	103.138	19.878	-0.618	0.516
979.000	566.999	80.006	19.994	103.137	19.877	-0.590	0.491
979.500	567.243	80.007	19.995	103.143	19.876	-0.500	0.524
980.000	567.465	80.006	19.995	103.150	19.876	-0.505	0.503
980.500	567.731	80.007	19.997	103.155	19.874	-0.364	0.478
981.000	567.967	80.009	19.994	103.159	19.874	-0.409	0.496
981.500	568.255	80.008	19.995	103.159	19.877	-0.554	0.513
982.000	568.497	80.005	19.996	103.159	19.880	-0.785	0.526
982.500	568.747	80.005	19.995	103.155	19.875	-0.455	0.511
983.000	568.995	80.006	19.995	103.151	19.877	-0.602	0.495
983.500	569.265	80.007	19.995	103.147	19.875	-0.423	0.508
984.000	569.522	80.010	19.997	103.146	19.874	-0.412	0.522
984.500	569.770	80.007	19.996	103.141	19.877	-0.563	0.516
985.000	569.992	80.006	19.994	103.140	19.877	-0.577	0.488
985.500	570.264	80.007	19.997	103.143	19.877	-0.602	0.482
986.000	570.534	80.007	19.995	103.148	19.875	-0.453	0.518
986.500	570.803	80.008	19.996	103.149	19.876	-0.505	0.540
987.000	571.052	80.007	19.995	103.151	19.877	-0.563	0.529
987.500	571.338	80.006	19.996	103.155	19.876	-0.520	0.527
988.000	571.550	80.006	19.996	103.156	19.873	-0.349	0.517
988.500	571.833	80.008	19.996	103.152	19.875	-0.423	0.496
989.000	572.113	80.007	19.995	103.151	19.876	-0.541	0.529
989.500	572.353	80.008	19.996	103.150	19.875	-0.439	0.542
990.000	572.591	80.007	19.995	103.150	19.875	-0.432	0.499
990.500	572.867	80.008	19.996	103.150	19.874	-0.400	0.496
991.000	573.093	80.008	19.995	103.149	19.876	-0.548	0.508
991.500	573.368	80.006	19.996	103.151	19.874	-0.378	0.501
992.000	573.597	80.006	19.996	103.152	19.874	-0.392	0.503
992.500	573.870	80.006	19.996	103.148	19.875	-0.455	0.503
993.000	574.166	80.006	19.995	103.142	19.875	-0.461	0.535
993.500	574.405	80.008	19.995	103.145	19.874	-0.407	0.552
994.000	574.662	80.007	19.995	103.141	19.875	-0.477	0.516
994.500	574.935	80.006	19.994	103.137	19.874	-0.358	0.513
995.000	575.197	80.007	19.996	103.138	19.875	-0.444	0.533
995.500	575.422	80.007	19.995	103.137	19.878	-0.624	0.511
996.000	575.697	80.006	19.994	103.136	19.875	-0.430	0.493
996.500	575.964	80.006	19.995	103.141	19.875	-0.457	0.521
997.000	576.222	80.006	19.996	103.149	19.872	-0.269	0.534
997.500	576.440	80.006	19.996	103.154	19.875	-0.426	0.500
998.000	576.669	80.007	19.995	103.157	19.874	-0.383	0.462
998.500	576.970	80.006	19.995	103.154	19.876	-0.513	0.489
999.000	577.188	80.007	19.996	103.152	19.876	-0.493	0.525
999.500	577.475	80.006	19.995	103.144	19.874	-0.371	0.512
1000.000	577.721	80.006	19.995	103.137	19.873	-0.290	0.519
1000.500	577.974	80.006	19.995	103.133	19.873	-0.348	0.516
1001.000	578.243	80.006	19.997	103.138	19.873	-0.310	0.510
1001.500	578.459	80.006	19.995	103.136	19.873	-0.330	0.503
1002.000	578.717	80.007	19.996	103.139	19.876	-0.493	0.479
1002.500	578.959	80.007	19.996	103.142	19.874	-0.378	0.487
1003.000	579.231	80.007	19.995	103.145	19.873	-0.342	0.507
1003.500	579.460	80.006	19.995	103.141	19.874	-0.405	0.508
1004.000	579.760	80.007	19.996	103.141	19.871	-0.165	0.515
1004.500	579.968	80.006	19.995	103.141	19.873	-0.349	0.518
1005.000	580.246	80.006	19.995	103.139	19.874	-0.366	0.497
1005.500	580.530	80.006	19.996	103.135	19.872	-0.251	0.524
1006.000	580.743	80.005	19.995	103.140	19.874	-0.391	0.530
1006.500	580.995	80.007	19.996	103.139	19.873	-0.287	0.481
1007.000	581.278	80.006	19.996	103.137	19.873	-0.314	0.500
1007.500	581.539	80.005	19.997	103.138	19.874	-0.391	0.539
1008.000	581.750	80.006	19.996	103.141	19.874	-0.376	0.508
1008.500	582.002	80.005	19.997	103.137	19.872	-0.278	0.467
1009.000	582.244	80.005	19.995	103.137	19.872	-0.258	0.478
1009.500	582.536	80.007	19.996	103.137	19.870	-0.106	0.514
1010.000	582.796	80.005	19.997	103.140	19.872	-0.255	0.543
1010.500	583.022	80.006	19.996	103.142	19.870	-0.129	0.519
1011.000	583.293	80.006	19.997	103.144	19.872	-0.220	0.491
1011.500	583.543	80.006	19.997	103.142	19.871	-0.165	0.509
1012.000	583.787	80.005	19.995	103.144	19.872	-0.236	0.508
1012.500	584.030	80.005	19.996	103.145	19.869	-0.084	0.491
1013.000	584.298	80.005	19.995	103.146	19.870	-0.129	0.499
1013.500	584.551	80.006	19.995	103.150	19.869	-0.054	0.516
1014.000	584.775	80.004	19.995	103.154	19.868	0.002	0.499
1014.500	585.074	80.005	19.995	103.152	19.869	-0.020	0.500
1015.000	585.347	80.005	19.995	103.147	19.869	-0.048	0.547
1015.500	585.585	80.005	19.997	103.143	19.867	0.070	0.541
1016.000	585.851	80.005	19.995	103.138	19.873	-0.292	0.507
1016.500	586.089	80.004	19.994	103.134	19.870	-0.117	0.504
1017.000	586.332	80.006	19.995	103.134	19.870	-0.125	0.493
1017.500	586.609	80.006	19.996	103.135	19.872	-0.220	0.500
1018.000	586.858	80.007	19.996	103.138	19.868	0.030	0.523
1018.500	587.129	80.006	19.996	103.143	19.871	-0.174	0.523
1019.000	587.348	80.006	19.994	103.146	19.870	-0.086	0.505
1019.500	587.592	80.008	19.995	103.149	19.868	0.039	0.476
1020.000	587.871	80.006	19.995	103.149	19.867	0.075	0.493
1020.500	588.131	80.007	19.994	103.151	19.869	-0.048	0.531
1021.000	588.356	80.007	19.994	103.157	19.872	-0.233	0.512
1021.500	588.646	80.008	19.994	103.144	19.868	0.047	0.500
1022.000	588.889	80.008	19.993	103.125	19.867	0.111	0.524
1022.500	589.122	80.007	19.993	103.115	19.869	-0.084	0.505
1023.000	589.362	80.007	19.995	103.110	19.867	0.068	0.475
1023.500	589.640	80.007	19.994	103.097	19.868	0.013	0.495
1024.000	589.910	80.009	19.995	103.107	19.871	-0.158	0.533
1024.500	590.156	80.008	19.995	103.122	19.870	-0.091	0.532
1025.001	590.402	80.009	19.995	103.131	19.869	-0.075	0.504
1025.501	590.672	80.009	19.995	103.144	19.869	-0.047	0.504
1026.000	590.923	80.009	19.995	103.179	19.871	-0.172	0.518
1026.500	591.157	80.009	19.993	103.192	19.872	-0.226	0.503
1027.000	591.463	80.007	19.994	103.199	19.871	-0.185	0.513
1027.500	591.691	80.008	19.994	103.200	19.870	-0.104	0.537
1028.000	591.886	80.008	19.995	103.186	19.871	-0.185	0.479
1028.500	592.176	80.006	19.995	103.152	19.867	0.054	0.454
1029.001	592.451	80.009	19.995	103.144	19.869	-0.054	0.525
1029.501	592.705	80.008	19.996	103.138	19.870	-0.142	0.547
1030.000	592.962	80.008	19.995	103.137	19.869	-0.084	0.520
1030.500	593.211	80.008	19.994	103.142	19.868	0.043	0.509
1031.000	593.501	80.008	19.996	103.147	19.869	-0.065	0.522
1031.500	593.775	80.008	19.996	103.149	19.870	-0.109	0.551
1032.000	594.029	80.008	19.995	103.151	19.868	0.002	0.547
1032.500	594.224	80.009	19.995	103.150	19.869	-0.029	0.489
1033.000	594.548	80.007	19.994	103.144	19.867	0.091	0.484
1033.500	594.812	80.008	19.995	103.142	19.866	0.145	0.554
1034.000	595.080	80.009	19.995	103.140	19.867	0.113	0.560
1034.500	595.307	80.008	19.996	103.139	19.866	0.134	0.513
1035.001	595.575	80.006	19.996	103.143	19.865	0.210	0.495
1035.501	595.848	80.008	19.995	103.150	19.867	0.090	0.518
1036.000	596.111	80.008	19.995	103.152	19.868	-0.007	0.539
1036.500	596.371	80.008	19.995	103.153	19.866	0.124	0.530
1037.000	596.609	80.008	19.995	103.153	19.867	0.072	0.511
1037.500	596.845	80.007	19.995	103.155	19.866	0.147	0.486
1038.000	597.129	80.008	19.997	103.156	19.869	-0.038	0.497
1038.500	597.379	80.007	19.996	103.156	19.868	0.036	0.527
1039.000	597.619	80.006	19.995	103.153	19.868	-0.014	0.512
1039.501	597.891	80.006	19.996	103.156	19.868	-0.007	0.502
1040.001	598.130	80.008	19.994	103.148	19.869	-0.034	0.512
1040.501	598.402	80.007	19.995	103.142	19.867	0.081	0.511
1041.001	598.656	80.007	19.994	103.137	19.865	0.210	0.518
1041.500	598.903	80.008	19.995	103.137	19.868	-0.009	0.514
1042.000	599.175	80.009	19.995	103.138	19.866	0.145	0.510
1042.500	599.401	80.008	19.995	103.145	19.866	0.143	0.509
1043.000	599.706	80.008	19.996	103.149	19.867	0.052	0.515
1043.500	599.908	80.009	19.995	103.150	19.868	0.047	0.519
1044.000	600.180	80.007	19.994	103.151	19.867	0.050	0.490
1044.500	600.419	80.007	19.995	103.147	19.868	-0.016	0.492
1045.001	600.702	80.009	19.995	103.141	19.869	-0.025	0.516
1045.501	600.950	80.009	19.995	103.139	19.870	-0.088	0.526
1046.001	601.191	80.009	19.995	103.140	19.869	-0.036	0.510
1046.500	601.476	80.008	19.996	103.139	19.869	-0.029	0.508
1047.000	601.693	80.009	19.997	103.141	19.871	-0.165	0.514
1047.500	601.971	80.008	19.995	103.145	19.869	-0.032	0.498
1048.000	602.205	80.010	19.994	103.144	19.869	-0.034	0.503
1048.501	602.479	80.010	19.995	103.141	19.867	0.050	0.510
1049.001	602.743	80.010	19.994	103.144	19.868	0.025	0.524
1049.500	602.976	80.009	19.995	103.146	19.867	0.048	0.517
1050.000	603.258	80.010	19.993	103.144	19.868	0.013	0.505
1050.500	603.492	80.009	19.994	103.145	19.868	0.022	0.515
1051.000	603.777	80.010	19.991	103.149	19.868	0.023	0.518
1051.500	604.031	80.011	19.996	103.148	19.869	-0.066	0.529
1052.000	604.251	80.010	19.994	103.150	19.871	-0.206	0.507
1052.500	604.550	80.009	19.994	103.147	19.867	0.093	0.497
1053.000	604.808	80.009	19.993	103.147	19.869	-0.082	0.538
1053.500	605.043	80.007	19.994	103.148	19.868	0.013	0.525
1054.000	605.300	80.010	19.995	103.150	19.867	0.088	0.492
1054.500	605.567	80.010	19.995	103.150	19.866	0.140	0.507
1055.000	605.819	80.010	19.995	103.155	19.869	-0.079	0.521
1055.500	606.099	80.007	19.994	103.153	19.868	0.014	0.526
1056.000	606.333	80.009	19.995	103.148	19.869	-0.072	0.523
1056.500	606.614	80.009	19.993	103.141	19.866	0.129	0.514
1057.000	606.842	80.008	19.994	103.135	19.868	-0.009	0.512
1057.501	607.126	80.007	19.995	103.131	19.869	-0.050	0.511
1058.001	607.366	80.006	19.994	103.132	19.866	0.149	0.518
1058.501	607.610	80.008	19.995	103.133	19.868	0.009	0.504
1059.000	607.885	80.007	19.994	103.134	19.868	-0.002	0.502
1059.500	608.175	80.008	19.996	103.136	19.870	-0.129	0.542
1060.000	608.435	80.006	19.995	103.141	19.867	0.059	0.557
1060.500	608.673	80.007	19.993	103.143	19.867	0.099	0.524
1061.000	608.931	80.006	19.994	103.146	19.865	0.211	0.497
1061.500	609.203	80.006	19.993	103.148	19.867	0.081	0.513
1062.000	609.409	80.006	19.994	103.149	19.868	0.009	0.505
1062.500	609.705	80.008	19.994	103.146	19.868	0.025	0.490
1063.000	609.947	80.007	19.993	103.145	19.865	0.192	0.520
1063.500	610.218	80.004	19.994	103.141	19.868	0.002	0.525
1064.000	610.464	80.006	19.996	103.144	19.868	-0.013	0.515
1064.500	610.722	80.006	19.993	103.140	19.865	0.188	0.510
1065.000	611.026	80.007	19.995	103.138	19.868	-0.005	0.533
1065.500	611.262	80.005	19.994	103.138	19.867	0.086	0.552
1066.000	611.513	80.006	19.995	103.139	19.870	-0.118	0.514
1066.500	611.761	80.004	19.996	103.135	19.868	-0.002	0.493
1067.000	611.999	80.007	19.994	103.137	19.870	-0.149	0.492
1067.500	612.260	80.006	19.994	103.137	19.869	-0.032	0.492
1068.000	612.504	80.007	19.996	103.138	19.871	-0.208	0.502
1068.500	612.762	80.007	19.994	103.140	19.870	-0.116	0.504
1069.000	613.044	80.006	19.995	103.145	19.871	-0.159	0.521
1069.500	613.268	80.006	19.993	103.147	19.870	-0.115	0.523
1070.000	613.530	80.006	19.995	103.148	19.868	0.043	0.496
1070.500	613.792	80.005	19.997	103.145	19.870	-0.124	0.505
1071.000	614.079	80.006	19.995	103.142	19.869	-0.022	0.536
1071.500	614.322	80.007	19.995	103.138	19.868	-0.014	0.539
1072.000	614.592	80.005	19.995	103.134	19.868	-0.016	0.522
1072.500	614.820	80.006	19.995	103.131	19.867	0.070	0.506
1073.000	615.101	80.006	19.995	103.130	19.870	-0.134	0.503
1073.500	615.332	80.006	19.996	103.129	19.869	-0.079	0.510
1074.000	615.624	80.007	19.995	103.128	19.869	-0.066	0.518
1074.500	615.862	80.007	19.996	103.128	19.872	-0.258	0.526
1075.000	616.097	80.008	19.995	103.128	19.869	-0.063	0.502
1075.500	616.347	80.007	19.995	103.128	19.869	-0.077	0.479
1076.000	616.610	80.008	19.995	103.128	19.870	-0.136	0.498
1076.500	616.836	80.006	19.994	103.129	19.871	-0.190	0.501
1077.000	617.130	80.007	19.994	103.131	19.871	-0.163	0.505
1077.500	617.417	80.006	19.996	103.132	19.877	-0.595	0.551
1078.000	617.618	80.008	19.995	103.133	19.874	-0.407	0.534
1078.500	617.880	80.007	19.994	103.133	19.878	-0.642	0.475
1079.000	618.163	80.006	19.994	103.132	19.876	-0.495	0.504
1079.500	618.379	80.006	19.994	103.132	19.874	-0.358	0.522
1080.000	618.677	80.007	19.996	103.133	19.865	0.229	0.506
1080.500	618.910	80.006	19.994	103.132	19.866	0.154	0.522
1081.000	619.182	80.006	19.998	103.133	19.870	-0.104	0.518
1081.500	619.424	80.006	19.995	103.136	19.872	-0.222	0.510
1082.000	619.681	80.006	19.994	103.136	19.869	-0.048	0.506
1082.500	619.949	80.006	19.993	103.135	19.867	0.066	0.512
1083.001	620.171	80.006	19.994	103.136	19.868	0.000	0.507
1083.501	620.437	80.004	19.993	103.138	19.869	-0.079	0.489
1084.000	620.690	80.005	19.995	103.136	19.872	-0.271	0.504
1084.500	620.942	80.006	19.996	103.134	19.870	-0.149	0.512
1085.000	621.158	80.007	19.996	103.135	19.869	-0.025	0.486
1085.500	621.442	80.005	19.996	103.135	19.870	-0.151	0.484
1086.000	621.681	80.007	19.994	103.133	19.868	0.020	0.512
1086.500	621.943	80.006	19.995	103.132	19.872	-0.253	0.512
1087.000	622.186	80.007	19.995	103.132	19.874	-0.380	0.503
1087.500	622.452	80.006	19.995	103.133	19.869	-0.066	0.507
1088.000	622.708	80.005	19.995	103.134	19.871	-0.161	0.515
1088.500	622.969	80.006	19.995	103.134	19.871	-0.206	0.519
1089.000	623.225	80.006	19.995	103.132	19.878	-0.658	0.517
1089.500	623.466	80.007	19.996	103.132	19.876	-0.523	0.507
1090.000	623.732	80.005	19.995	103.130	19.870	-0.109	0.502
1090.500	623.970	80.006	19.995	103.129	19.876	-0.525	0.506
1091.000	624.271	80.005	19.995	103.129	19.876	-0.527	0.521
1091.500	624.511	80.006	19.997	103.130	19.872	-0.249	0.540
1092.000	624.751	80.005	19.997	103.132	19.872	-0.247	0.511
1092.500	624.990	80.006	19.995	103.133	19.875	-0.455	0.479
1093.000	625.222	80.006	19.996	103.133	19.874	-0.410	0.475
1093.500	625.525	80.006	19.995	103.133	19.878	-0.638	0.503
1094.000	625.758	80.005	19.996	103.131	19.874	-0.378	0.535
1094.501	625.983	80.006	19.995	103.130	19.881	-0.848	0.497
1095.001	626.210	80.006	19.997	103.130	19.876	-0.545	0.455
1095.500	626.496	80.005	19.997	103.130	19.874	-0.353	0.483
1096.000	626.775	80.006	19.996	103.129	19.873	-0.287	0.539
1096.500	627.015	80.006	19.995	103.129	19.877	-0.611	0.542
1097.000	627.249	80.006	19.997	103.132	19.879	-0.735	0.496
1097.500	627.507	80.007	19.994	103.136	19.873	-0.348	0.483
1098.000	627.788	80.004	19.997	103.139	19.875	-0.439	0.516
1098.500	628.040	80.006	20.000	103.141	19.877	-0.572	0.536
1099.000	628.288	80.006	19.996	103.143	19.875	-0.441	0.516
1099.500	628.547	80.007	19.996	103.140	19.872	-0.220	0.503
1100.000	628.773	80.006	19.996	103.134	19.872	-0.237	0.496
1100.500	629.104	80.005	19.995	103.132	19.875	-0.434	0.522
1101.000	629.318	80.007	19.996	103.133	19.874	-0.366	0.551
1101.500	629.622	80.007	19.995	103.134	19.873	-0.349	0.531
1102.000	629.830	80.006	19.996	103.132	19.873	-0.305	0.515
1102.500	630.095	80.006	19.996	103.131	19.871	-0.213	0.493
1103.000	630.335	80.007	19.996	103.130	19.873	-0.301	0.489
1103.500	630.640	80.007	19.996	103.128	19.876	-0.484	0.525
1104.000	630.858	80.008	19.996	103.128	19.875	-0.434	0.534
1104.500	631.191	80.008	19.997	103.128	19.875	-0.462	0.538
1105.000	631.383	80.006	19.994	103.129	19.872	-0.263	0.538
1105.500	631.631	80.008	19.998	103.129	19.877	-0.579	0.482
1106.001	631.926	80.008	19.996	103.129	19.875	-0.478	0.492
1106.501	632.170	80.009	19.997	103.129	19.874	-0.375	0.541
1107.001	632.440	80.008	19.997	103.128	19.879	-0.726	0.526
1107.501	632.723	80.008	19.996	103.130	19.882	-0.885	0.534
1108.000	632.910	80.007	19.996	103.131	19.875	-0.461	0.511
1108.501	633.193	80.007	19.997	103.129	19.874	-0.351	0.470
1109.001	633.468	80.008	19.995	103.128	19.876	-0.491	0.514
1109.500	633.688	80.008	19.996	103.128	19.881	-0.846	0.527
1110.000	633.953	80.008	19.996	103.125	19.880	-0.792	0.490
1110.500	634.247	80.007	19.994	103.126	19.876	-0.487	0.522
1111.000	634.581	80.010	19.995	103.126	19.875	-0.478	0.593
1111.500	634.739	80.008	19.995	103.128	19.878	-0.668	0.561
1112.000	634.970	80.008	19.996	103.131	19.878	-0.636	0.441
1112.501	635.196	80.007	19.995	103.133	19.875	-0.417	0.423
1113.001	635.507	80.008	19.995	103.132	19.877	-0.597	0.497
1113.500	635.761	80.008	19.994	103.131	19.879	-0.697	0.550
1114.000	636.010	80.007	19.995	103.130	19.878	-0.625	0.534
1114.500	636.310	80.008	19.995	103.128	19.878	-0.658	0.527
1115.000	636.541	80.007	19.994	103.130	19.879	-0.738	0.540
1115.500	636.808	80.008	19.995	103.133	19.878	-0.627	0.514
1116.000	637.035	80.007	19.993	103.133	19.878	-0.640	0.496
1116.500	637.328	80.008	19.994	103.135	19.881	-0.822	0.507
1117.000	637.543	80.008	19.994	103.134	19.878	-0.665	0.514
1117.500	637.849	80.007	19.996	103.130	19.879	-0.711	0.514
1118.000	638.111	80.007	19.994	103.130	19.879	-0.690	0.544
1118.500	638.373	80.008	19.995	103.131	19.882	-0.946	0.546
1119.000	638.629	80.007	19.995	103.129	19.878	-0.652	0.521
1119.500	638.885	80.007	19.994	103.129	19.879	-0.706	0.515
1120.000	639.151	80.008	19.995	103.129	19.878	-0.676	0.517
1120.500	639.416	80.006	19.995	103.126	19.877	-0.564	0.526
1121.000	639.659	80.007	19.994	103.126	19.879	-0.697	0.520
1121.500	639.900	80.008	19.995	103.127	19.881	-0.860	0.496
1122.000	640.229	80.007	19.995	103.127	19.878	-0.665	0.527
1122.500	640.396	80.008	19.995	103.127	19.882	-0.934	0.533
1123.000	640.770	80.008	19.994	103.127	19.880	-0.774	0.518
1123.500	641.042	80.008	19.994	103.127	19.880	-0.810	0.594
1124.000	641.157	80.008	19.994	103.127	19.882	-0.923	0.517
1124.500	641.464	80.008	19.996	103.127	19.885	-1.125	0.405
1125.000	641.712	80.008	19.994	103.126	19.878	-0.658	0.488
1125.501	641.989	80.007	19.995	103.127	19.882	-0.943	0.540
1126.001	642.233	80.008	19.994	103.127	19.882	-0.921	0.523
1126.501	642.460	80.008	19.995	103.127	19.882	-0.935	0.496
1127.000	642.734	80.008	19.995	103.126	19.885	-1.080	0.486
1127.500	642.996	80.008	19.994	103.127	19.883	-1.009	0.518
1128.000	643.254	80.009	19.994	103.128	19.885	-1.091	0.528
1128.500	643.538	80.008	19.994	103.128	19.885	-1.118	0.531
1129.000	643.766	80.009	19.994	103.129	19.884	-1.061	0.527
1129.500	644.030	80.008	19.993	103.129	19.885	-1.131	0.502
1130.001	644.279	80.008	19.994	103.129	19.882	-0.889	0.502
1130.501	644.566	80.008	19.995	103.128	19.883	-1.009	0.525
1131.001	644.806	80.008	19.995	103.129	19.885	-1.095	0.532
1131.500	645.044	80.009	19.995	103.128	19.883	-0.993	0.502
1132.001	645.335	80.009	19.994	103.127	19.883	-0.993	0.503
1132.501	645.571	80.009	19.993	103.125	19.886	-1.170	0.528
1133.001	645.793	80.009	19.993	103.125	19.887	-1.220	0.493
1133.500	646.070	80.008	19.995	103.123	19.885	-1.141	0.478
1134.000	646.334	80.008	19.995	103.123	19.885	-1.097	0.520
1134.500	646.624	80.008	19.994	103.123	19.887	-1.274	0.548
1135.000	646.867	80.009	19.995	103.126	19.885	-1.116	0.543
1135.500	647.122	80.010	19.994	103.126	19.887	-1.252	0.515
1136.001	647.348	80.007	19.994	103.126	19.887	-1.249	0.490
1136.501	647.630	80.008	19.995	103.128	19.890	-1.412	0.495
1137.000	647.910	80.009	19.995	103.129	19.887	-1.218	0.535
1137.500	648.118	80.009	19.994	103.129	19.886	-1.150	0.524
1138.000	648.402	80.008	19.995	103.129	19.889	-1.367	0.490
1138.500	648.644	80.007	19.994	103.129	19.886	-1.177	0.509
1139.000	648.927	80.006	19.994	103.128	19.886	-1.154	0.525
1139.500	649.201	80.005	19.995	103.132	19.890	-1.448	0.541
1140.000	649.450	80.006	19.994	103.131	19.888	-1.287	0.540
1140.500	649.692	80.006	19.994	103.132	19.888	-1.333	0.507
1141.000	649.980	80.010	19.994	103.132	19.889	-1.387	0.511
1141.500	650.230	80.006	19.995	103.132	19.889	-1.358	0.534
1142.001	650.478	80.006	19.995	103.129	19.889	-1.349	0.518
1142.501	650.757	80.006	19.994	103.129	19.888	-1.306	0.513
1143.001	651.035	80.004	19.995	103.130	19.889	-1.405	0.542
1143.501	651.299	80.005	19.995	103.131	19.887	-1.247	0.549
1144.000	651.526	80.006	19.994	103.131	19.886	-1.179	0.516
1144.500	651.771	80.005	19.995	103.131	19.890	-1.448	0.482
1145.000	652.012	80.006	19.995	103.131	19.889	-1.385	0.480
1145.500	652.284	80.006	19.994	103.129	19.894	-1.693	0.500
1146.000	652.515	80.007	19.993	103.128	19.891	-1.489	0.508
1146.500	652.788	80.005	19.995	103.128	19.894	-1.734	0.504
1147.001	653.044	80.006	19.994	103.127	19.892	-1.550	0.517
1147.501	653.328	80.006	19.995	103.126	19.892	-1.588	0.534
1148.001	653.579	80.005	19.992	103.128	19.892	-1.575	0.537
1148.501	653.822	80.007	19.996	103.129	19.893	-1.638	0.514
1149.001	654.117	80.007	19.995	103.130	19.894	-1.734	0.516
1149.500	654.354	80.007	19.994	103.130	19.896	-1.822	0.535
1150.000	654.617	80.006	19.995	103.132	19.890	-1.464	0.516
1150.500	654.891	80.007	19.995	103.132	19.892	-1.568	0.519
1151.000	655.103	80.006	19.995	103.131	19.891	-1.536	0.511
1151.500	655.385	80.007	19.995	103.131	19.894	-1.677	0.490
1152.000	655.688	80.007	19.994	103.128	19.891	-1.521	0.539
1152.500	655.887	80.007	19.994	103.128	19.890	-1.442	0.543
1153.000	656.141	80.006	19.995	103.128	19.894	-1.699	0.478
1153.500	656.370	80.006	19.995	103.128	19.892	-1.573	0.468
1154.000	656.613	80.006	19.995	103.127	19.892	-1.544	0.477
1154.500	656.905	80.006	19.995	103.130	19.893	-1.661	0.503
1155.000	657.141	80.007	19.994	103.130	19.893	-1.614	0.532
1155.500	657.385	80.005	19.994	103.130	19.892	-1.568	0.504
1156.000	657.634	80.007	19.997	103.127	19.892	-1.579	0.486
1156.500	657.908	80.007	19.997	103.126	19.893	-1.634	0.508
1157.001	658.158	80.007	19.996	103.125	19.891	-1.494	0.524
1157.501	658.424	80.007	19.995	103.124	19.894	-1.693	0.520
1158.000	658.667	80.004	19.995	103.124	19.892	-1.555	0.512
1158.500	658.937	80.005	19.995	103.126	19.894	-1.738	0.511
1159.000	659.209	80.006	19.995	103.126	19.898	-1.949	0.528
1159.500	659.449	80.007	19.996	103.127	19.894	-1.684	0.527
1160.000	659.694	80.007	19.996	103.127	19.895	-1.765	0.499
1160.500	659.963	80.007	19.998	103.127	19.892	-1.604	0.499
1161.000	660.241	80.007	19.996	103.128	19.898	-1.962	0.531
1161.500	660.434	80.007	19.996	103.128	19.908	-2.659	0.509
1162.001	660.748	80.007	19.995	103.128	19.890	-1.442	0.489
1162.501	660.984	80.007	19.995	103.127	19.887	-1.267	0.529
1163.001	661.212	80.007	19.995	103.125	19.889	-1.407	0.507
1163.500	661.496	80.006	19.996	103.122	19.893	-1.656	0.488
1164.000	661.760	80.007	19.995	103.122	19.890	-1.448	0.530
1164.500	661.985	80.006	19.996	103.122	19.904	-2.354	0.519
1165.000	662.215	80.007	19.994	103.122	19.894	-1.715	0.472
1165.500	662.525	80.009	19.997	103.123	19.895	-1.754	0.498
1166.000	662.724	80.007	19.997	103.126	19.894	-1.708	0.524
1166.500	663.034	80.008	19.996	103.126	19.894	-1.727	0.509
1167.000	663.267	80.006	19.997	103.126	19.899	-2.019	0.526
1167.500	663.476	80.007	19.996	103.127	19.897	-1.912	0.493
1168.000	663.740	80.008	19.996	103.127	19.894	-1.709	0.457
1168.501	664.021	80.005	19.995	103.126	19.893	-1.630	0.509
1169.001	664.265	80.006	19.996	103.124	19.893	-1.652	0.535
1169.501	664.513	80.008	19.996	103.124	19.895	-1.779	0.508
1170.000	664.778	80.004	19.997	103.124	19.894	-1.706	0.502
1170.500	665.013	80.007	19.996	103.124	19.892	-1.555	0.507
1171.000	665.287	80.007	19.995	103.124	19.893	-1.652	0.505
1171.500	665.594	80.006	19.995	103.126	19.892	-1.577	0.545
1172.000	665.774	80.006	19.996	103.126	19.895	-1.779	0.534
1172.500	666.117	80.008	19.996	103.126	19.893	-1.636	0.505
1173.001	666.348	80.006	19.996	103.126	19.892	-1.561	0.548
1173.501	666.692	80.005	19.995	103.126	19.890	-1.453	0.574
1174.000	666.715	80.006	19.997	103.127	19.891	-1.507	0.471
1174.500	667.187	80.005	19.996	103.125	19.893	-1.664	0.431
1175.000	667.867	80.007	19.994	103.126	19.892	-1.600	0.823
1175.500	668.078	80.006	19.996	103.125	19.893	-1.670	1.021
1176.000	667.386	80.004	19.995	103.125	19.894	-1.681	0.206
1176.500	668.089	80.005	19.994	103.125	19.888	-1.303	-0.235
1177.000	668.272	80.008	19.994	103.127	19.891	-1.491	0.448
1177.500	668.668	80.007	19.994	103.126	19.892	-1.580	0.732
1178.000	668.695	80.007	19.995	103.125	19.891	-1.519	0.501
1178.500	669.482	80.007	19.996	103.124	19.891	-1.478	0.619
1179.000	669.383	80.006	19.994	103.123	19.889	-1.403	0.751
1179.500	669.658	80.007	19.995	103.123	19.894	-1.718	0.432
1180.000	669.926	80.008	19.995	103.122	19.892	-1.570	0.360
1180.500	670.256	80.008	19.995	103.122	19.892	-1.559	0.571
1181.000	670.448	80.007	19.995	103.123	19.893	-1.643	0.560
1181.500	670.723	80.007	19.994	103.123	19.890	-1.435	0.495
1182.000	671.007	80.008	19.995	103.122	19.893	-1.652	0.513
1182.500	671.234	80.008	19.995	103.119	19.891	-1.536	0.535
1183.000	671.509	80.008	19.996	103.119	19.898	-1.998	0.507
1183.500	671.719	80.007	19.995	103.119	19.892	-1.573	0.493
1184.000	671.978	80.007	19.995	103.120	19.894	-1.718	0.477
1184.500	672.209	80.007	19.996	103.117	19.884	-1.073	0.480
1185.000	672.448	80.007	19.995	103.120	19.885	-1.139	0.480
1185.500	672.741	80.007	19.995	103.119	19.894	-1.698	0.501
1186.001	673.052	80.007	19.996	103.118	19.899	-2.059	0.569
1186.501	673.273	80.008	19.995	103.118	19.890	-1.433	0.568
1187.000	673.536	80.008	19.995	103.120	19.894	-1.722	0.508
1187.500	673.739	80.009	19.995	103.121	19.895	-1.806	0.475
1188.000	674.026	80.008	19.994	103.123	19.895	-1.783	0.478
1188.500	674.300	80.008	19.995	103.121	19.893	-1.670	0.525
1189.000	674.542	80.008	19.995	103.121	19.893	-1.622	0.539
1189.500	674.765	80.007	19.995	103.123	19.896	-1.842	0.490
1190.000	675.069	80.006	19.996	103.123	19.893	-1.636	0.496
1190.500	675.300	80.006	19.995	103.124	19.898	-2.005	0.531
1191.001	675.562	80.008	19.996	103.124	19.898	-1.949	0.514
1191.501	675.856	80.006	19.995	103.125	19.895	-1.801	0.524
1192.000	676.090	80.006	19.997	103.126	19.894	-1.718	0.542
1192.500	676.359	80.009	19.995	103.127	19.897	-1.917	0.515
1193.000	676.617	80.007	19.997	103.127	19.895	-1.754	0.515
1193.500	676.898	80.006	19.997	103.128	19.896	-1.817	0.533
1194.000	677.126	80.007	19.996	103.127	19.897	-1.933	0.524
1194.500	677.361	80.006	19.997	103.123	19.899	-2.048	0.486
1195.000	677.699	80.006	19.996	103.120	19.894	-1.698	0.518
1195.500	677.801	80.006	19.994	103.119	19.895	-1.806	0.507
1196.000	678.189	80.005	19.995	103.117	19.897	-1.928	0.465
1196.500	678.359	80.006	19.995	103.116	19.898	-1.992	0.524
1197.001	678.910	80.006	19.998	103.119	19.895	-1.799	0.640
1197.501	678.726	80.006	19.995	103.119	19.896	-1.828	0.544
1198.000	679.024	80.007	19.996	103.118	19.905	-2.442	0.240
1198.500	679.277	80.008	19.994	103.117	19.903	-2.315	0.332
1199.000	679.238	80.008	19.996	103.120	19.900	-2.096	0.382
1199.500	679.635	80.005	19.995	103.121	19.902	-2.209	0.286
1200.001	680.209	80.005	19.995	103.123	19.905	-2.453	0.665
1200.501	680.389	80.007	19.996	103.127	19.902	-2.220	0.862
1201.000	680.645	80.007	19.994	103.129	19.895	-1.777	0.595
1201.500	681.011	80.007	19.998	103.127	19.897	-1.887	0.529
1202.000	681.276	80.009	19.995	103.126	19.897	-1.935	0.627
1202.500	681.424	80.008	19.996	103.124	19.896	-1.862	0.522
1203.000	681.848	80.008	19.994	103.124	19.896	-1.822	0.492
1203.500	681.982	80.008	19.995	103.121	19.896	-1.837	0.565
1204.000	682.291	80.007	19.992	103.121	19.898	-1.980	0.501
1204.500	682.486	80.007	19.993	103.119	19.898	-1.975	0.474
1205.000	682.777	80.008	19.994	103.116	19.901	-2.177	0.495
1205.500	683.058	80.008	19.993	103.113	19.901	-2.152	0.529
1206.000	683.287	80.008	19.994	103.115	19.898	-2.005	0.541
1206.500	683.571	80.007	19.994	103.116	19.899	-2.052	0.511
1207.000	683.827	80.008	19.996	103.118	19.900	-2.098	0.527
1207.500	684.106	80.007	19.997	103.123	19.897	-1.910	0.537
1208.001	684.330	80.008	19.992	103.125	19.897	-1.935	0.519
1208.501	684.594	80.009	19.995	103.124	19.899	-2.012	0.495
1209.000	684.816	80.008	19.994	103.122	19.900	-2.098	0.487
1209.501	685.028	80.009	19.996	103.122	19.902	-2.248	0.460
1210.001	685.404	80.010	19.994	103.121	19.901	-2.152	0.511
1210.500	685.683	80.007	19.994	103.124	19.900	-2.078	0.621
1211.000	685.876	80.009	19.995	103.126	19.901	-2.178	0.564
1211.500	686.127	80.008	19.993	103.127	19.900	-2.135	0.458
1212.000	686.440	80.008	19.994	103.127	19.901	-2.201	0.504
1212.501	686.740	80.010	19.994	103.128	19.901	-2.193	0.588
1213.001	686.894	80.010	19.992	103.127	19.898	-2.005	0.533
1213.500	687.194	80.009	19.995	103.124	19.896	-1.842	0.454
1214.000	687.367	80.009	19.995	103.124	19.899	-2.028	0.464
1214.500	687.672	80.008	19.994	103.124	19.898	-1.983	0.475
1215.000	687.963	80.009	19.996	103.124	19.897	-1.885	0.537
1215.500	688.130	80.008	19.995	103.124	19.896	-1.831	0.527
1216.000	688.380	80.011	19.996	103.124	19.901	-2.141	0.437
1216.501	688.661	80.005	19.995	103.123	19.900	-2.134	0.474
1217.001	688.888	80.008	19.993	103.122	19.901	-2.195	0.520
1217.500	689.189	80.008	19.994	103.121	19.898	-1.969	0.518
1218.000	689.457	80.006	19.994	103.121	19.897	-1.930	0.548
1218.500	689.704	80.008	19.995	103.122	19.897	-1.879	0.541
1219.001	689.968	80.004	19.995	103.118	19.896	-1.856	0.513
1219.501	690.172	80.009	19.993	103.114	19.900	-2.080	0.490
1220.000	690.423	80.006	19.995	103.112	19.897	-1.894	0.462
1220.500	690.653	80.007	19.995	103.111	19.902	-2.258	0.468
1221.000	690.936	80.008	19.996	103.107	19.899	-2.023	0.497
1221.500	691.176	80.007	19.994	103.105	19.901	-2.143	0.519
1222.000	691.363	80.006	19.995	103.103	19.900	-2.096	0.475
1222.500	691.683	80.007	19.994	103.098	19.900	-2.089	0.467
1223.000	691.949	80.007	19.995	103.093	19.902	-2.258	0.546
1223.500	692.184	80.006	19.994	103.097	19.899	-2.066	0.543
1224.000	692.462	80.007	19.996	103.103	19.900	-2.116	0.506
1224.500	692.681	80.008	19.996	103.111	19.900	-2.127	0.505
1225.000	692.949	80.007	19.995	103.115	19.900	-2.128	0.492
1225.500	693.210	80.006	19.996	103.117	19.901	-2.182	0.508
1226.000	693.463	80.005	19.996	103.120	19.899	-2.021	0.521
1226.500	693.709	80.007	19.996	103.119	19.898	-1.962	0.507
1227.000	693.946	80.006	19.994	103.116	19.898	-1.978	0.491
1227.500	694.217	80.008	19.994	103.117	19.904	-2.344	0.495
1228.000	694.471	80.005	19.995	103.120	19.898	-1.982	0.517
1228.501	694.700	80.006	19.998	103.120	19.901	-2.184	0.504
1229.001	694.936	80.007	19.995	103.121	19.899	-2.026	0.474
1229.500	695.224	80.007	19.994	103.120	19.900	-2.121	0.494
1230.000	695.503	80.006	19.996	103.121	19.897	-1.903	0.545
1230.500	695.734	80.006	19.995	103.122	19.897	-1.937	0.538
1231.001	695.976	80.008	19.994	103.120	19.900	-2.096	0.492
1231.501	696.261	80.006	19.995	103.121	19.904	-2.343	0.500
1232.000	696.523	80.007	19.995	103.122	19.899	-2.028	0.537
1232.500	696.745	80.007	19.996	103.124	19.899	-2.028	0.516
1233.000	697.034	80.007	19.993	103.123	19.897	-1.883	0.498
1233.500	697.304	80.006	19.995	103.125	19.899	-2.039	0.535
1234.001	697.490	80.007	19.995	103.124	19.900	-2.107	0.507
1234.501	697.794	80.007	19.994	103.120	19.903	-2.304	0.473
1235.001	697.990	80.007	19.994	103.117	19.902	-2.243	0.495
1235.500	698.270	80.009	19.995	103.115	19.901	-2.143	0.488
1236.000	698.516	80.007	19.995	103.115	19.900	-2.125	0.501
1236.500	698.804	80.008	19.994	103.115	19.900	-2.091	0.530
1237.000	699.004	80.009	19.994	103.120	19.897	-1.926	0.511
1237.500	699.275	80.008	19.995	103.121	19.898	-1.970	0.479
1238.000	699.537	80.006	19.994	103.121	19.899	-2.035	0.501
1238.500	699.749	80.009	19.994	103.120	19.899	-2.040	0.503
1239.000	700.054	80.006	19.996	103.116	19.896	-1.847	0.496
1239.500	700.289	80.006	19.997	103.115	19.896	-1.847	0.528
1240.000	700.543	80.007	19.997	103.118	19.896	-1.829	0.515
1240.500	700.772	80.008	19.995	103.120	19.896	-1.843	0.486
1241.000	701.040	80.007	19.994	103.118	19.900	-2.121	0.490
1241.500	701.331	80.008	19.996	103.117	19.898	-1.967	0.528
1242.000	701.531	80.007	19.994	103.113	19.900	-2.112	0.525
1242.501	701.808	80.007	19.994	103.111	19.898	-1.987	0.484
1243.001	702.011	80.007	19.995	103.109	19.902	-2.238	0.479
1243.500	702.273	80.007	19.995	103.111	19.902	-2.245	0.472
1244.000	702.524	80.008	19.995	103.114	19.902	-2.220	0.489
1244.500	702.797	80.007	19.995	103.117	19.899	-2.017	0.518
1245.000	703.025	80.006	19.994	103.117	19.900	-2.119	0.512
1245.500	703.288	80.008	19.994	103.117	19.900	-2.116	0.496
1246.000	703.568	80.008	19.995	103.116	19.898	-1.987	0.517
1246.500	703.795	80.007	19.995	103.113	19.899	-2.067	0.526
1247.000	704.060	80.008	19.995	103.108	19.901	-2.168	0.500
1247.500	704.312	80.009	19.996	103.105	19.901	-2.184	0.505
1248.000	704.591	80.006	19.995	103.102	19.902	-2.216	0.524
1248.500	704.868	80.008	19.994	103.101	19.903	-2.309	0.544
1249.000	705.084	80.005	19.995	103.104	19.902	-2.250	0.524
1249.500	705.354	80.006	19.995	103.105	19.901	-2.198	0.489
1250.000	705.587	80.006	19.992	103.107	19.900	-2.094	0.494
1250.501	705.831	80.005	19.996	103.108	19.904	-2.347	0.490
1251.001	706.072	80.006	19.996	103.104	19.901	-2.155	0.481
1251.500	706.316	80.005	19.997	103.102	19.900	-2.139	0.485
1252.000	706.549	80.006	19.995	103.104	19.900	-2.109	0.481
1252.500	706.831	80.004	19.995	103.102	19.902	-2.259	0.496
1253.000	707.054	80.004	19.994	103.103	19.903	-2.283	0.510
1253.500	707.286	80.006	19.995	103.107	19.900	-2.075	0.480
1254.000	707.587	80.004	19.995	103.108	19.898	-1.996	0.494
1254.500	707.806	80.005	19.995	103.106	19.900	-2.121	0.526
1255.000	708.068	80.006	19.995	103.108	19.900	-2.130	0.500
1255.500	708.330	80.005	19.995	103.108	19.898	-1.987	0.503
1256.000	708.606	80.005	19.995	103.106	19.897	-1.937	0.532
1256.501	708.839	80.006	19.994	103.106	19.901	-2.175	0.523
1257.001	709.123	80.005	19.995	103.107	19.899	-2.032	0.513
1257.500	709.395	80.006	19.996	103.109	19.902	-2.250	0.537
1258.000	709.631	80.005	19.996	103.113	19.901	-2.141	0.532
1258.500	709.851	80.005	19.996	103.113	19.901	-2.197	0.482
1259.000	710.107	80.006	19.994	103.114	19.901	-2.198	0.466
1259.500	710.362	80.006	19.994	103.116	19.899	-2.041	0.493
1260.000	710.625	80.005	19.995	103.115	19.900	-2.132	0.515
1260.500	710.887	80.008	19.995	103.114	19.902	-2.241	0.522
1261.000	711.131	80.006	19.995	103.119	19.898	-1.980	0.515
1261.500	711.360	80.006	19.995	103.120	19.901	-2.164	0.489
1262.000	711.620	80.007	19.995	103.122	19.899	-2.035	0.481
1262.500	711.850	80.005	19.995	103.122	19.898	-1.976	0.489
1263.000	712.164	80.007	19.995	103.118	19.899	-2.067	0.517
1263.500	712.419	80.006	19.995	103.117	19.901	-2.164	0.557
1264.000	712.627	80.006	19.995	103.117	19.900	-2.139	0.516
1264.500	712.866	80.008	19.995	103.115	19.898	-1.956	0.455
1265.000	713.144	80.007	19.995	103.115	19.901	-2.155	0.482
1265.501	713.349	80.008	19.996	103.120	19.902	-2.265	0.499
1266.001	713.666	80.007	19.994	103.120	19.902	-2.213	0.502
1266.500	713.901	80.007	19.996	103.121	19.902	-2.231	0.538
1267.000	714.156	80.008	19.995	103.123	19.902	-2.247	0.522
1267.500	714.385	80.007	19.995	103.124	19.902	-2.233	0.487
1268.000	714.643	80.008	19.994	103.123	19.899	-2.014	0.485
1268.500	714.884	80.008	19.995	103.125	19.901	-2.184	0.493
1269.000	715.196	80.007	19.995	103.123	19.900	-2.123	0.526
1269.500	715.444	80.007	19.994	103.120	19.902	-2.231	0.556
1270.000	715.663	80.008	19.995	103.120	19.900	-2.120	0.514
1270.500	715.922	80.007	19.996	103.122	19.902	-2.229	0.473
1271.000	716.198	80.007	19.996	103.123	19.901	-2.206	0.506
1271.500	716.453	80.007	19.995	103.122	19.903	-2.288	0.533
1272.000	716.702	80.006	19.995	103.122	19.902	-2.259	0.517
1272.500	716.893	80.007	19.996	103.118	19.903	-2.322	0.472
1273.000	717.212	80.007	19.995	103.113	19.904	-2.352	0.475
1273.500	717.466	80.006	19.995	103.110	19.905	-2.458	0.542
1274.000	717.682	80.008	19.996	103.110	19.903	-2.295	0.522
1274.500	717.959	80.007	19.996	103.112	19.902	-2.248	0.481
1275.000	718.182	80.006	19.994	103.116	19.902	-2.257	0.496
1275.500	718.462	80.005	19.995	103.117	19.904	-2.375	0.502
1276.000	718.665	80.005	19.995	103.114	19.905	-2.467	0.493
1276.500	718.950	80.007	19.995	103.116	19.903	-2.313	0.485
1277.000	719.170	80.007	19.995	103.116	19.906	-2.530	0.497
1277.501	719.450	80.006	19.996	103.116	19.903	-2.336	0.503
1278.001	719.725	80.005	19.996	103.120	19.904	-2.349	0.528
1278.500	720.003	80.005	19.995	103.125	19.903	-2.302	0.554
1279.000	720.232	80.008	19.996	103.125	19.904	-2.359	0.530
1279.500	720.501	80.006	19.996	103.126	19.901	-2.193	0.503
1280.000	720.742	80.006	19.995	103.126	19.905	-2.417	0.504
1280.501	720.996	80.006	19.997	103.126	19.904	-2.363	0.502
1281.001	721.245	80.007	19.995	103.123	19.900	-2.074	0.499
1281.500	721.475	80.007	19.996	103.121	19.900	-2.083	0.491
1282.000	721.726	80.006	19.995	103.120	19.901	-2.175	0.480
1282.500	721.975	80.007	19.995	103.118	19.900	-2.135	0.491
1283.000	722.247	80.007	19.994	103.112	19.903	-2.275	0.511
1283.500	722.495	80.008	19.996	103.107	19.904	-2.384	0.521
1284.000	722.780	80.007	19.996	103.102	19.905	-2.438	0.527
1284.500	723.046	80.008	19.996	103.101	19.903	-2.298	0.542
1285.000	723.298	80.007	19.995	103.094	19.901	-2.196	0.534
1285.500	723.523	80.007	19.998	103.092	19.902	-2.235	0.497
1286.000	723.788	80.007	19.997	103.096	19.903	-2.282	0.484
1286.501	724.064	80.009	19.997	103.100	19.902	-2.260	0.515
1287.001	724.334	80.008	19.997	103.102	19.904	-2.389	0.543
1287.500	724.589	80.008	19.997	103.107	19.903	-2.323	0.536
1288.000	724.844	80.008	19.996	103.112	19.904	-2.379	0.517
1288.500	725.080	80.008	19.996	103.115	19.905	-2.468	0.500
1289.001	725.326	80.009	19.995	103.115	19.903	-2.279	0.487
1289.501	725.583	80.008	19.996	103.111	19.904	-2.350	0.493
1290.000	725.848	80.009	19.996	103.111	19.903	-2.289	0.513
1290.500	726.103	80.008	19.996	103.109	19.906	-2.499	0.521
1291.000	726.380	80.008	19.996	103.108	19.904	-2.388	0.526
1291.500	726.618	80.011	19.996	103.106	19.903	-2.315	0.523
1292.000	726.840	80.009	19.995	103.102	19.902	-2.218	0.487
1292.500	727.103	80.009	19.993	103.096	19.905	-2.424	0.472
1293.000	727.354	80.009	19.996	103.093	19.904	-2.383	0.500
1293.500	727.598	80.008	19.994	103.087	19.906	-2.480	0.505
1294.000	727.846	80.009	19.995	103.085	19.906	-2.499	0.494
1294.500	728.131	80.010	19.994	103.086	19.906	-2.535	0.513
1295.000	728.357	80.008	19.995	103.087	19.904	-2.383	0.522
1295.501	728.597	80.008	19.995	103.087	19.905	-2.429	0.488
1296.001	728.846	80.008	19.995	103.088	19.906	-2.475	0.477
1296.501	729.140	80.008	19.995	103.088	19.907	-2.578	0.516
1297.000	729.376	80.008	19.994	103.089	19.905	-2.468	0.536
1297.500	729.620	80.008	19.995	103.090	19.906	-2.484	0.505
1298.001	729.898	80.009	19.994	103.091	19.906	-2.517	0.501
1298.501	730.168	80.007	19.995	103.091	19.907	-2.565	0.536
1299.000	730.383	80.007	19.995	103.096	19.906	-2.520	0.517
1299.500	730.662	80.007	19.995	103.098	19.905	-2.429	0.489
1300.000	730.860	80.007	19.995	103.099	19.905	-2.413	0.485
1300.500	731.129	80.007	19.995	103.101	19.900	-2.133	0.472
1301.000	731.386	80.007	19.995	103.103	19.905	-2.441	0.496
1301.500	731.633	80.007	19.994	103.103	19.904	-2.388	0.515
1302.001	731.899	80.006	19.995	103.105	19.905	-2.461	0.509
1302.501	732.144	80.007	19.995	103.108	19.907	-2.570	0.512
1303.000	732.387	80.007	19.995	103.113	19.906	-2.527	0.500
1303.500	732.675	80.007	19.996	103.117	19.905	-2.454	0.510
1304.000	732.880	80.006	19.995	103.117	19.906	-2.474	0.512
1304.500	733.178	80.006	19.995	103.117	19.902	-2.209	0.498
1305.000	733.399	80.006	19.995	103.113	19.903	-2.291	0.511
1305.500	733.640	80.007	19.996	103.107	19.903	-2.331	0.490
1306.000	733.890	80.006	19.994	103.104	19.905	-2.413	0.477
1306.500	734.160	80.005	19.995	103.099	19.904	-2.397	0.505
1307.000	734.404	80.007	19.995	103.094	19.903	-2.306	0.517
1307.500	734.651	80.006	19.994	103.095	19.904	-2.384	0.503
1308.001	734.910	80.006	19.995	103.094	19.906	-2.477	0.499
1308.501	735.171	80.007	19.994	103.091	19.903	-2.331	0.513
1309.000	735.391	80.007	19.996	103.097	19.904	-2.359	0.500
1309.501	735.666	80.006	19.994	103.100	19.901	-2.205	0.489
1310.001	735.901	80.005	19.995	103.100	19.904	-2.368	0.502
1310.500	736.161	80.006	19.995	103.100	19.904	-2.393	0.502
1311.000	736.396	80.006	19.996	103.100	19.902	-2.239	0.495
1311.500	736.628	80.006	19.995	103.093	19.903	-2.281	0.481
1312.000	736.936	80.006	19.995	103.092	19.901	-2.184	0.503
1312.500	737.152	80.006	19.994	103.090	19.906	-2.532	0.532
1313.000	737.406	80.006	19.995	103.090	19.907	-2.544	0.497
1313.500	737.673	80.007	19.994	103.091	19.904	-2.347	0.495
1314.000	737.895	80.006	19.994	103.093	19.905	-2.422	0.505
1314.500	738.151	80.006	19.994	103.092	19.903	-2.302	0.484
1315.000	738.380	80.008	19.995	103.094	19.904	-2.381	0.481
1315.500	738.649	80.006	19.994	103.094	19.903	-2.322	0.492
1316.000	738.878	80.006	19.994	103.096	19.904	-2.388	0.499
1316.500	739.151	80.006	19.996	103.099	19.902	-2.250	0.500
1317.000	739.444	80.006	19.994	103.102	19.902	-2.237	0.534
1317.500	739.670	80.007	19.995	103.103	19.903	-2.311	0.542
1318.000	739.917	80.007	19.995	103.103	19.906	-2.481	0.496
1318.500	740.163	80.006	19.995	103.102	19.904	-2.343	0.483
1319.000	740.384	80.004	19.995	103.102	19.902	-2.263	0.480
1319.500	740.647	80.006	19.994	103.101	19.904	-2.379	0.475
1320.000	740.905	80.005	19.995	103.099	19.906	-2.497	0.503
1320.500	741.153	80.006	19.995	103.099	19.903	-2.334	0.513
1321.000	741.427	80.006	19.995	103.099	19.905	-2.411	0.514
1321.501	741.682	80.006	19.994	103.099	19.904	-2.368	0.526
1322.001	741.918	80.006	19.996	103.104	19.906	-2.497	0.510
1322.500	742.179	80.005	19.995	103.107	19.905	-2.415	0.494
1323.000	742.464	80.007	19.995	103.111	19.908	-2.605	0.522
1323.500	742.694	80.007	19.995	103.114	19.906	-2.528	0.531
1324.000	742.942	80.008	19.994	103.111	19.902	-2.214	0.496
1324.500	743.191	80.006	19.995	103.108	19.907	-2.547	0.487
1325.000	743.431	80.006	19.994	103.104	19.905	-2.436	0.493
