Sample ID:	C:\MCC\MCC Cal\Test\Polyester_Microfiber_Sheet_MCC_30K_min_211209_R2.txt
Sample Weight (mg):	4.76
Heating Rate (C/s):	0.5
Combustor Temp (C):	900
N2 Flow Rate (cc/min):	80
O2 Flow Rate (cc/min):	20
Calibration File:	C:\MCC\MCC Cal\Coeff1 JN10440_30_210304.txt.txt
T Correction Coefficients:	0	1.024463	0
Time Shift (s):	14
*
Time (s)	Temperature (C)	N2 flow rate (cc/min)	O2 flow rate (cc/min)	Flow Rate (cc/min)	Oxygen (%)	HRR (W/g)	Heating rate (C/s)
-0.001	107.856	80.008	19.995	103.083	19.817	-0.099	-0.042
0.499	107.833	80.008	19.996	103.080	19.815	0.027	-0.016
1.000	107.885	80.009	19.996	103.075	19.819	-0.261	0.015
1.500	107.857	80.008	19.997	103.073	19.821	-0.400	0.026
2.000	107.867	80.008	19.996	103.068	19.818	-0.182	0.002
2.500	107.870	80.008	19.996	103.068	19.817	-0.102	-0.003
3.000	107.881	80.007	19.995	103.072	19.817	-0.115	0.014
3.500	107.874	80.007	19.996	103.075	19.818	-0.192	0.009
4.000	107.895	80.008	19.995	103.077	19.814	0.078	0.009
4.500	107.862	80.007	19.995	103.079	19.816	-0.031	0.002
5.000	107.907	80.008	19.995	103.080	19.815	0.015	0.000
5.500	107.906	80.008	19.996	103.077	19.816	-0.026	0.028
6.000	107.864	80.008	19.996	103.074	19.817	-0.093	0.000
6.500	107.907	80.008	19.995	103.067	19.816	-0.018	-0.021
7.000	107.852	80.007	19.996	103.063	19.814	0.095	-0.005
7.500	107.853	80.010	19.997	103.062	19.816	-0.055	-0.033
8.000	107.864	80.008	19.997	103.061	19.816	-0.038	-0.021
8.500	107.893	80.010	19.996	103.062	19.816	-0.055	0.026
9.000	107.845	80.008	19.996	103.067	19.817	-0.122	0.011
9.500	107.871	80.009	19.996	103.072	19.817	-0.088	-0.021
10.000	107.864	80.009	19.996	103.075	19.817	-0.097	-0.002
10.500	107.893	80.009	19.995	103.076	19.817	-0.099	0.021
11.000	107.877	80.008	19.996	103.076	19.820	-0.276	0.017
11.500	107.891	80.009	19.996	103.079	19.818	-0.172	0.005
12.000	107.871	80.007	19.995	103.080	19.816	-0.035	-0.004
12.500	107.847	80.009	19.995	103.081	19.818	-0.139	-0.025
13.000	107.824	80.010	19.994	103.083	19.816	-0.062	-0.045
13.500	107.882	80.008	19.996	103.085	19.820	-0.278	-0.006
14.000	107.864	80.009	19.996	103.084	19.815	-0.002	0.038
14.500	107.881	80.009	19.994	103.084	19.820	-0.290	0.020
15.000	107.928	80.010	19.996	103.085	19.818	-0.185	0.032
15.500	107.894	80.008	19.997	103.086	19.815	0.053	0.038
16.000	107.892	80.009	19.995	103.093	19.813	0.163	-0.012
16.500	107.902	80.008	19.995	103.101	19.811	0.314	-0.014
17.000	107.897	80.008	19.996	103.110	19.810	0.338	0.006
17.500	107.873	80.010	19.996	103.116	19.811	0.278	-0.012
18.000	107.912	80.008	19.995	103.123	19.814	0.079	-0.007
18.500	107.927	80.010	19.996	103.125	19.807	0.559	0.035
19.000	107.919	80.009	19.994	103.125	19.810	0.340	0.031
19.500	107.908	80.009	19.995	103.126	19.809	0.420	-0.006
20.000	107.944	80.009	19.994	103.130	19.810	0.367	0.003
20.500	107.943	80.008	19.994	103.137	19.805	0.696	0.030
21.000	107.950	80.009	19.996	103.144	19.806	0.649	0.020
21.500	107.962	80.007	19.995	103.154	19.805	0.722	0.012
22.000	107.996	80.009	19.995	103.161	19.805	0.731	0.033
22.500	107.983	80.009	19.995	103.166	19.802	0.892	0.034
23.000	108.041	80.009	19.995	103.174	19.802	0.881	0.033
23.500	108.050	80.009	19.994	103.182	19.798	1.159	0.056
24.000	108.121	80.009	19.995	103.187	19.801	0.951	0.073
24.500	108.114	80.009	19.995	103.193	19.799	1.124	0.072
25.000	108.144	80.008	19.995	103.200	19.799	1.143	0.044
25.500	108.165	80.009	19.995	103.200	19.799	1.135	0.037
26.000	108.189	80.008	19.995	103.201	19.797	1.263	0.048
26.500	108.202	80.010	19.993	103.205	19.796	1.346	0.041
27.000	108.231	80.010	19.995	103.210	19.800	1.068	0.040
27.500	108.303	80.009	19.994	103.210	19.795	1.390	0.071
28.000	108.303	80.007	19.995	103.214	19.795	1.370	0.086
28.500	108.349	80.009	19.994	103.219	19.793	1.540	0.059
29.000	108.390	80.009	19.995	103.225	19.791	1.644	0.066
29.500	108.430	80.008	19.993	103.230	19.788	1.825	0.084
30.000	108.466	80.010	19.995	103.240	19.793	1.501	0.079
30.500	108.498	80.009	19.994	103.245	19.786	2.015	0.072
31.000	108.571	80.010	19.993	103.251	19.788	1.863	0.086
31.500	108.593	80.009	19.995	103.256	19.787	1.900	0.100
32.000	108.665	80.009	19.994	103.263	19.786	1.964	0.095
32.499	108.672	80.010	19.994	103.269	19.787	1.918	0.087
32.999	108.739	80.010	19.994	103.273	19.781	2.340	0.077
33.499	108.820	80.011	19.994	103.276	19.785	2.057	0.111
33.999	108.854	80.010	19.994	103.278	19.781	2.304	0.132
34.500	108.916	80.011	19.995	103.279	19.781	2.344	0.105
35.000	109.022	80.009	19.994	103.279	19.782	2.271	0.132
35.499	109.067	80.011	19.994	103.281	19.781	2.330	0.159
35.999	109.139	80.011	19.994	103.283	19.783	2.209	0.134
36.499	109.176	80.011	19.995	103.283	19.777	2.599	0.113
36.999	109.273	80.010	19.993	103.283	19.780	2.379	0.121
37.499	109.301	80.010	19.995	103.283	19.776	2.653	0.129
37.999	109.447	80.012	19.994	103.283	19.779	2.438	0.150
38.499	109.484	80.010	19.994	103.283	19.776	2.699	0.179
38.999	109.571	80.011	19.993	103.283	19.774	2.776	0.153
39.499	109.677	80.011	19.993	103.283	19.774	2.826	0.159
39.999	109.746	80.010	19.994	103.283	19.773	2.881	0.185
40.499	109.849	80.010	19.994	103.283	19.774	2.791	0.173
40.999	109.897	80.009	19.994	103.284	19.776	2.683	0.161
41.499	109.987	80.009	19.993	103.285	19.773	2.879	0.145
41.999	110.039	80.010	19.995	103.285	19.775	2.736	0.140
42.499	110.139	80.010	19.994	103.284	19.771	2.979	0.147
42.999	110.250	80.009	19.994	103.284	19.773	2.871	0.182
43.499	110.341	80.008	19.995	103.281	19.776	2.672	0.207
43.999	110.411	80.009	19.995	103.281	19.773	2.868	0.182
44.499	110.522	80.009	19.994	103.281	19.773	2.874	0.171
45.000	110.646	80.008	19.994	103.282	19.772	2.954	0.207
45.500	110.703	80.008	19.994	103.285	19.771	2.989	0.208
45.999	110.795	80.008	19.994	103.289	19.772	2.967	0.165
46.499	110.903	80.008	19.994	103.291	19.775	2.735	0.175
46.999	111.004	80.008	19.993	103.292	19.774	2.789	0.204
47.499	111.120	80.008	19.994	103.294	19.774	2.813	0.213
47.999	111.234	80.008	19.994	103.292	19.772	2.936	0.224
48.499	111.343	80.007	19.994	103.294	19.777	2.634	0.227
48.999	111.433	80.007	19.994	103.298	19.771	3.040	0.211
49.499	111.522	80.007	19.994	103.305	19.767	3.265	0.189
49.999	111.645	80.009	19.994	103.310	19.772	2.919	0.195
50.500	111.748	80.008	19.995	103.318	19.772	2.941	0.218
51.000	111.861	80.007	19.995	103.318	19.772	2.949	0.221
51.499	111.949	80.008	19.994	103.319	19.771	2.992	0.209
51.999	112.081	80.008	19.993	103.316	19.773	2.861	0.211
52.500	112.177	80.008	19.993	103.311	19.775	2.756	0.224
53.000	112.296	80.008	19.994	103.309	19.769	3.166	0.222
53.499	112.435	80.008	19.994	103.312	19.777	2.573	0.237
53.999	112.542	80.008	19.994	103.311	19.771	2.990	0.252
54.499	112.668	80.008	19.993	103.314	19.773	2.882	0.239
54.999	112.773	80.008	19.994	103.319	19.773	2.879	0.232
55.499	112.898	80.009	19.994	103.322	19.771	3.023	0.230
55.999	113.027	80.008	19.994	103.323	19.768	3.232	0.241
56.499	113.139	80.008	19.994	103.323	19.770	3.073	0.247
56.999	113.316	80.008	19.993	103.322	19.770	3.049	0.265
57.499	113.447	80.008	19.994	103.322	19.773	2.859	0.299
58.000	113.547	80.008	19.993	103.317	19.772	2.928	0.269
58.500	113.672	80.008	19.994	103.315	19.769	3.119	0.228
58.999	113.825	80.008	19.993	103.315	19.771	3.011	0.252
59.499	113.971	80.009	19.994	103.315	19.770	3.071	0.289
59.999	114.085	80.009	19.994	103.315	19.772	2.958	0.280
60.499	114.256	80.009	19.994	103.318	19.770	3.108	0.273
60.999	114.406	80.008	19.994	103.319	19.773	2.872	0.303
61.500	114.556	80.010	19.994	103.320	19.770	3.102	0.310
62.000	114.675	80.009	19.995	103.320	19.771	2.980	0.284
62.499	114.812	80.009	19.994	103.317	19.771	3.040	0.262
63.000	114.982	80.009	19.994	103.315	19.772	2.930	0.281
63.500	115.102	80.009	19.994	103.312	19.771	3.029	0.299
63.999	115.253	80.009	19.994	103.312	19.772	2.943	0.281
64.499	115.391	80.009	19.994	103.309	19.770	3.045	0.280
64.999	115.543	80.009	19.994	103.310	19.769	3.146	0.290
65.499	115.688	80.010	19.993	103.312	19.772	2.967	0.294
65.999	115.835	80.008	19.994	103.315	19.770	3.088	0.294
66.499	115.990	80.009	19.994	103.314	19.769	3.163	0.296
67.000	116.179	80.008	19.993	103.315	19.771	3.018	0.323
67.500	116.306	80.008	19.995	103.317	19.775	2.769	0.330
67.999	116.430	80.009	19.995	103.315	19.772	2.919	0.283
68.499	116.617	80.008	19.994	103.314	19.771	2.998	0.281
68.999	116.756	80.009	19.994	103.316	19.773	2.857	0.318
69.499	116.946	80.007	19.993	103.318	19.774	2.806	0.327
69.999	117.089	80.008	19.994	103.318	19.770	3.057	0.331
70.500	117.264	80.008	19.995	103.319	19.773	2.894	0.326
71.000	117.427	80.008	19.995	103.320	19.773	2.896	0.328
71.499	117.584	80.007	19.995	103.320	19.769	3.152	0.329
72.000	117.745	80.007	19.995	103.320	19.770	3.069	0.319
72.500	117.925	80.008	19.995	103.320	19.768	3.199	0.330
72.999	118.081	80.008	19.995	103.319	19.769	3.128	0.339
73.499	118.237	80.007	19.995	103.319	19.772	2.963	0.324
74.000	118.405	80.008	19.994	103.319	19.770	3.089	0.318
74.500	118.597	80.007	19.994	103.319	19.767	3.260	0.342
75.000	118.751	80.008	19.997	103.319	19.771	3.020	0.353
75.500	118.896	80.008	19.995	103.321	19.769	3.174	0.322
76.000	119.076	80.008	19.995	103.321	19.767	3.267	0.312
76.500	119.224	80.008	19.995	103.322	19.769	3.124	0.327
76.999	119.437	80.008	19.995	103.322	19.768	3.194	0.344
77.500	119.570	80.007	19.995	103.326	19.767	3.265	0.353
78.000	119.738	80.007	19.996	103.327	19.766	3.349	0.323
78.499	119.949	80.007	19.995	103.327	19.767	3.311	0.340
79.000	120.098	80.007	19.995	103.327	19.768	3.186	0.370
79.500	120.309	80.007	19.995	103.328	19.769	3.133	0.360
79.999	120.493	80.008	19.995	103.326	19.768	3.223	0.377
80.499	120.626	80.009	19.995	103.328	19.768	3.212	0.356
80.999	120.843	80.009	19.995	103.330	19.770	3.055	0.333
81.499	121.026	80.008	19.995	103.330	19.768	3.227	0.375
81.999	121.219	80.007	19.995	103.329	19.769	3.155	0.388
82.499	121.390	80.007	19.995	103.327	19.766	3.349	0.370
83.000	121.625	80.009	19.995	103.324	19.769	3.155	0.385
83.501	121.756	80.008	19.995	103.322	19.769	3.150	0.386
84.000	121.960	80.007	19.995	103.322	19.771	3.005	0.351
84.499	122.151	80.008	19.995	103.322	19.769	3.113	0.365
84.999	122.330	80.008	19.995	103.322	19.772	2.936	0.382
85.500	122.482	80.008	19.996	103.322	19.768	3.181	0.350
86.000	122.668	80.008	19.995	103.323	19.770	3.064	0.334
86.499	122.873	80.008	19.994	103.323	19.771	2.991	0.365
86.999	123.058	80.008	19.995	103.323	19.769	3.152	0.391
87.499	123.237	80.008	19.994	103.323	19.770	3.077	0.377
87.999	123.468	80.008	19.994	103.323	19.768	3.185	0.387
88.499	123.647	80.010	19.994	103.323	19.768	3.218	0.409
88.999	123.860	80.009	19.995	103.321	19.771	3.022	0.401
89.499	124.031	80.010	19.995	103.321	19.771	3.000	0.388
89.999	124.242	80.009	19.994	103.322	19.771	3.037	0.383
90.499	124.373	80.008	19.995	103.322	19.775	2.773	0.362
90.999	124.596	80.009	19.994	103.322	19.769	3.148	0.348
91.499	124.780	80.009	19.994	103.322	19.766	3.379	0.381
91.999	124.978	80.010	19.994	103.322	19.769	3.166	0.395
92.499	125.156	80.010	19.993	103.322	19.766	3.347	0.379
92.999	125.356	80.010	19.995	103.322	19.764	3.490	0.377
93.499	125.572	80.008	19.995	103.322	19.766	3.318	0.397
93.999	125.773	80.009	19.994	103.322	19.768	3.225	0.416
94.499	125.983	80.009	19.994	103.322	19.767	3.289	0.414
94.999	126.164	80.009	19.994	103.323	19.767	3.258	0.401
95.499	126.373	80.008	19.995	103.323	19.765	3.419	0.391
95.999	126.568	80.008	19.994	103.323	19.764	3.454	0.397
96.499	126.764	80.008	19.994	103.323	19.767	3.254	0.397
96.999	126.968	80.008	19.995	103.323	19.768	3.233	0.396
97.499	127.190	80.009	19.996	103.323	19.771	3.007	0.413
97.999	127.412	80.009	19.995	103.323	19.770	3.093	0.435
98.499	127.578	80.009	19.996	103.323	19.769	3.144	0.416
98.999	127.789	80.009	19.994	103.322	19.769	3.150	0.383
99.499	127.982	80.008	19.995	103.323	19.765	3.399	0.391
99.999	128.164	80.009	19.994	103.325	19.767	3.263	0.389
100.499	128.403	80.009	19.995	103.327	19.766	3.349	0.398
100.999	128.624	80.008	19.995	103.328	19.764	3.477	0.440
101.499	128.829	80.009	19.995	103.328	19.766	3.380	0.443
101.999	129.018	80.007	19.997	103.329	19.766	3.333	0.410
102.499	129.232	80.008	19.995	103.327	19.763	3.543	0.399
102.999	129.432	80.007	19.994	103.325	19.768	3.191	0.408
103.499	129.676	80.008	19.996	103.325	19.764	3.500	0.429
103.999	129.854	80.009	19.996	103.325	19.767	3.260	0.433
104.499	130.074	80.009	19.996	103.324	19.766	3.363	0.411
105.000	130.272	80.008	19.996	103.324	19.766	3.344	0.408
105.501	130.456	80.008	19.995	103.323	19.765	3.421	0.400
106.000	130.653	80.008	19.996	103.326	19.765	3.408	0.382
106.499	130.836	80.008	19.996	103.331	19.765	3.415	0.381
106.999	131.057	80.009	19.994	103.334	19.764	3.476	0.392
107.499	131.279	80.009	19.996	103.334	19.766	3.383	0.424
107.999	131.506	80.008	19.995	103.335	19.763	3.567	0.446
108.499	131.704	80.009	19.996	103.333	19.767	3.291	0.437
108.999	131.951	80.008	19.995	103.328	19.764	3.454	0.435
109.499	132.154	80.009	19.996	103.326	19.765	3.393	0.448
109.999	132.378	80.009	19.995	103.325	19.767	3.300	0.439
110.499	132.586	80.008	19.995	103.324	19.770	3.077	0.429
110.999	132.800	80.008	19.995	103.326	19.769	3.179	0.427
111.499	133.072	80.009	19.995	103.327	19.769	3.121	0.454
111.999	133.240	80.009	19.995	103.327	19.770	3.071	0.463
112.499	133.471	80.009	19.994	103.328	19.769	3.117	0.420
112.999	133.656	80.010	19.995	103.329	19.766	3.375	0.407
113.499	133.879	80.010	19.994	103.333	19.770	3.097	0.412
113.999	134.115	80.010	19.995	103.338	19.767	3.276	0.433
114.499	134.340	80.011	19.993	103.343	19.766	3.322	0.460
114.999	134.544	80.009	19.994	103.343	19.767	3.278	0.445
115.500	134.747	80.010	19.994	103.343	19.764	3.452	0.418
116.000	134.967	80.008	19.995	103.336	19.765	3.441	0.415
116.499	135.211	80.010	19.993	103.336	19.763	3.542	0.443
116.999	135.416	80.010	19.994	103.334	19.767	3.285	0.457
117.499	135.598	80.009	19.993	103.335	19.764	3.516	0.418
117.999	135.830	80.010	19.993	103.336	19.767	3.249	0.400
118.499	136.104	80.009	19.994	103.338	19.765	3.417	0.460
118.999	136.320	80.010	19.994	103.335	19.765	3.386	0.498
119.499	136.534	80.011	19.994	103.332	19.765	3.412	0.460
119.999	136.766	80.011	19.994	103.330	19.763	3.524	0.438
120.500	136.991	80.010	19.994	103.331	19.766	3.370	0.451
121.000	137.168	80.010	19.995	103.330	19.765	3.447	0.430
121.500	137.438	80.010	19.994	103.330	19.766	3.337	0.425
122.000	137.664	80.010	19.993	103.333	19.762	3.604	0.471
122.499	137.900	80.011	19.994	103.332	19.767	3.251	0.479
122.999	138.135	80.010	19.993	103.331	19.764	3.463	0.467
123.499	138.369	80.010	19.995	103.332	19.765	3.412	0.470
123.999	138.597	80.010	19.994	103.331	19.764	3.489	0.465
124.499	138.857	80.011	19.994	103.329	19.763	3.543	0.475
124.999	139.085	80.009	19.996	103.331	19.764	3.492	0.488
125.499	139.317	80.010	19.995	103.335	19.767	3.265	0.474
125.999	139.558	80.009	19.994	103.334	19.768	3.196	0.467
126.499	139.771	80.010	19.994	103.336	19.768	3.187	0.463
126.999	140.024	80.010	19.995	103.336	19.769	3.117	0.459
127.500	140.235	80.009	19.995	103.334	19.769	3.139	0.465
128.000	140.462	80.009	19.994	103.329	19.771	3.037	0.451
128.500	140.709	80.007	19.994	103.329	19.766	3.331	0.456
129.000	140.930	80.010	19.994	103.331	19.768	3.234	0.471
129.500	141.146	80.008	19.994	103.332	19.769	3.115	0.452
130.000	141.395	80.010	19.994	103.333	19.770	3.070	0.451
130.500	141.625	80.008	19.995	103.338	19.770	3.097	0.472
131.000	141.858	80.009	19.995	103.343	19.766	3.318	0.471
131.500	142.107	80.007	19.994	103.340	19.767	3.293	0.473
132.000	142.337	80.008	19.996	103.338	19.764	3.518	0.480
132.500	142.596	80.009	19.995	103.338	19.765	3.402	0.484
133.000	142.789	80.008	19.994	103.339	19.766	3.336	0.470
133.500	143.005	80.009	19.995	103.335	19.768	3.201	0.431
134.000	143.282	80.008	19.995	103.333	19.766	3.371	0.452
134.500	143.557	80.005	19.994	103.333	19.764	3.468	0.522
135.000	143.792	80.009	19.996	103.333	19.768	3.227	0.531
135.500	143.983	80.008	19.995	103.333	19.767	3.287	0.468
136.000	144.250	80.008	19.995	103.332	19.767	3.258	0.443
136.500	144.486	80.008	19.995	103.336	19.766	3.329	0.480
137.000	144.737	80.009	19.995	103.340	19.765	3.426	0.494
137.500	144.978	80.009	19.995	103.340	19.767	3.267	0.489
138.000	145.238	80.007	19.995	103.336	19.767	3.261	0.497
138.500	145.454	80.008	19.994	103.335	19.768	3.190	0.489
139.000	145.700	80.007	19.995	103.334	19.766	3.344	0.469
139.500	145.979	80.009	19.995	103.332	19.768	3.247	0.494
140.000	146.202	80.008	19.996	103.332	19.767	3.271	0.513
140.500	146.471	80.009	19.994	103.335	19.768	3.225	0.497
141.000	146.696	80.007	19.995	103.335	19.768	3.205	0.493
141.500	146.957	80.009	19.994	103.332	19.767	3.254	0.490
142.000	147.209	80.010	19.995	103.330	19.769	3.150	0.499
142.500	147.446	80.007	19.994	103.328	19.769	3.117	0.501
143.000	147.672	80.010	19.994	103.326	19.769	3.115	0.476
143.500	147.908	80.009	19.994	103.324	19.766	3.327	0.462
144.000	148.127	80.009	19.994	103.325	19.771	3.013	0.458
144.500	148.395	80.009	19.995	103.326	19.773	2.885	0.471
145.000	148.652	80.009	19.994	103.326	19.771	2.982	0.507
145.500	148.901	80.010	19.995	103.326	19.771	2.987	0.515
146.000	149.114	80.008	19.995	103.328	19.770	3.066	0.484
146.500	149.358	80.009	19.995	103.328	19.771	3.020	0.459
147.000	149.619	80.008	19.995	103.328	19.773	2.885	0.481
147.500	149.900	80.009	19.995	103.328	19.774	2.804	0.524
148.000	150.146	80.010	19.994	103.328	19.770	3.057	0.535
148.500	150.373	80.010	19.994	103.326	19.771	3.042	0.500
149.000	150.616	80.009	19.994	103.324	19.769	3.113	0.471
149.500	150.873	80.010	19.994	103.326	19.773	2.859	0.485
150.000	151.145	80.011	19.994	103.329	19.772	2.951	0.515
150.500	151.387	80.010	19.993	103.332	19.775	2.758	0.522
151.000	151.594	80.010	19.994	103.336	19.775	2.715	0.482
151.500	151.864	80.009	19.994	103.337	19.772	2.963	0.463
152.000	152.099	80.010	19.994	103.334	19.775	2.720	0.491
152.500	152.337	80.009	19.995	103.333	19.770	3.051	0.489
153.000	152.590	80.008	19.994	103.330	19.772	2.971	0.482
153.500	152.862	80.010	19.994	103.326	19.772	2.958	0.508
154.000	153.058	80.009	19.994	103.326	19.773	2.898	0.497
154.500	153.349	80.009	19.994	103.325	19.771	2.983	0.477
155.000	153.612	80.008	19.994	103.324	19.770	3.099	0.520
155.500	153.859	80.009	19.995	103.324	19.772	2.972	0.532
156.000	154.089	80.009	19.995	103.324	19.772	2.949	0.494
156.500	154.370	80.009	19.994	103.324	19.771	3.009	0.495
157.000	154.596	80.009	19.994	103.325	19.768	3.214	0.509
157.500	154.846	80.009	19.994	103.326	19.769	3.115	0.491
158.000	155.092	80.008	19.994	103.326	19.769	3.133	0.486
158.500	155.378	80.009	19.994	103.326	19.769	3.113	0.514
159.000	155.591	80.010	19.995	103.326	19.772	2.969	0.515
159.500	155.857	80.008	19.995	103.326	19.767	3.249	0.489
160.000	156.089	80.009	19.995	103.325	19.770	3.106	0.489
160.500	156.334	80.008	19.995	103.326	19.768	3.245	0.487
161.000	156.582	80.007	19.994	103.325	19.769	3.161	0.485
161.500	156.842	80.009	19.994	103.325	19.770	3.104	0.501
162.000	157.082	80.009	19.995	103.325	19.768	3.185	0.504
162.500	157.359	80.010	19.994	103.325	19.769	3.148	0.509
163.000	157.619	80.009	19.995	103.326	19.768	3.225	0.527
163.500	157.879	80.008	19.995	103.325	19.769	3.126	0.528
164.000	158.103	80.008	19.994	103.326	19.768	3.210	0.502
164.500	158.356	80.008	19.995	103.327	19.768	3.236	0.481
165.000	158.638	80.007	19.995	103.328	19.770	3.064	0.506
165.500	158.866	80.009	19.995	103.328	19.769	3.163	0.522
166.000	159.125	80.007	19.995	103.328	19.770	3.078	0.499
166.500	159.373	80.008	19.995	103.327	19.770	3.075	0.497
167.000	159.604	80.008	19.995	103.326	19.770	3.088	0.493
167.500	159.830	80.007	19.995	103.326	19.772	2.919	0.468
168.000	160.095	80.007	19.995	103.326	19.771	3.007	0.474
168.500	160.341	80.007	19.995	103.326	19.773	2.879	0.502
169.000	160.594	80.008	19.996	103.326	19.773	2.857	0.505
169.500	160.825	80.008	19.994	103.326	19.773	2.892	0.491
170.000	161.086	80.009	19.995	103.325	19.776	2.639	0.488
170.500	161.332	80.009	19.996	103.325	19.772	2.939	0.500
171.000	161.592	80.009	19.996	103.324	19.771	2.978	0.507
171.500	161.861	80.007	19.995	103.324	19.771	3.000	0.517
172.000	162.079	80.008	19.994	103.323	19.770	3.055	0.508
172.500	162.334	80.009	19.995	103.321	19.770	3.095	0.480
173.000	162.559	80.010	19.996	103.321	19.773	2.886	0.477
173.500	162.830	80.010	19.995	103.321	19.772	2.943	0.488
174.000	163.051	80.009	19.995	103.321	19.770	3.108	0.494
174.500	163.298	80.009	19.996	103.321	19.772	2.965	0.480
175.000	163.564	80.009	19.995	103.323	19.768	3.188	0.491
175.500	163.806	80.010	19.995	103.322	19.769	3.163	0.511
176.000	164.081	80.009	19.995	103.322	19.768	3.206	0.513
176.500	164.295	80.009	19.995	103.322	19.769	3.161	0.503
177.000	164.573	80.010	19.994	103.322	19.770	3.045	0.491
177.500	164.824	80.010	19.995	103.320	19.772	2.935	0.510
178.000	165.104	80.010	19.994	103.321	19.767	3.294	0.530
178.500	165.349	80.010	19.995	103.321	19.773	2.873	0.528
179.000	165.615	80.009	19.994	103.321	19.770	3.080	0.518
179.500	165.856	80.008	19.994	103.322	19.771	3.014	0.509
180.000	166.103	80.009	19.994	103.323	19.772	2.957	0.497
180.500	166.390	80.009	19.995	103.324	19.774	2.831	0.511
181.000	166.600	80.008	19.995	103.320	19.774	2.803	0.516
181.500	166.904	80.009	19.995	103.319	19.773	2.857	0.506
182.000	167.112	80.008	19.994	103.319	19.771	3.025	0.513
182.500	167.398	80.011	19.994	103.319	19.772	2.932	0.503
183.000	167.701	80.009	19.994	103.318	19.771	3.034	0.541
183.500	167.919	80.009	19.994	103.321	19.771	2.986	0.555
184.000	168.207	80.009	19.994	103.321	19.770	3.076	0.514
184.500	168.440	80.008	19.994	103.321	19.771	3.014	0.513
185.000	168.670	80.009	19.994	103.319	19.769	3.151	0.492
185.500	168.879	80.010	19.994	103.320	19.771	2.981	0.451
186.000	169.183	80.008	19.995	103.321	19.772	2.976	0.476
186.500	169.411	80.008	19.995	103.323	19.767	3.266	0.523
187.000	169.669	80.008	19.994	103.319	19.771	3.028	0.509
187.500	169.910	80.010	19.994	103.318	19.768	3.189	0.492
188.000	170.173	80.009	19.994	103.315	19.772	2.957	0.501
188.500	170.378	80.009	19.995	103.309	19.771	2.982	0.486
189.000	170.624	80.009	19.995	103.306	19.768	3.213	0.460
189.500	170.892	80.009	19.994	103.307	19.770	3.105	0.483
190.000	171.130	80.010	19.995	103.305	19.772	2.948	0.510
190.500	171.373	80.009	19.995	103.304	19.773	2.869	0.494
191.000	171.608	80.010	19.995	103.305	19.772	2.966	0.480
191.500	171.883	80.009	19.995	103.304	19.771	3.005	0.494
192.000	172.137	80.010	19.996	103.300	19.775	2.759	0.520
192.500	172.404	80.009	19.995	103.303	19.773	2.889	0.525
193.000	172.600	80.009	19.995	103.306	19.771	3.006	0.491
193.500	172.874	80.009	19.995	103.309	19.774	2.818	0.466
194.000	173.135	80.008	19.996	103.307	19.772	2.935	0.503
194.500	173.420	80.008	19.994	103.305	19.771	2.984	0.540
195.000	173.616	80.009	19.996	103.300	19.773	2.873	0.514
195.500	173.901	80.009	19.995	103.300	19.774	2.781	0.481
196.000	174.148	80.010	19.996	103.301	19.770	3.065	0.506
196.500	174.412	80.010	19.996	103.304	19.776	2.695	0.522
197.000	174.665	80.010	19.995	103.307	19.773	2.900	0.514
197.500	174.882	80.010	19.996	103.307	19.773	2.858	0.493
198.000	175.120	80.010	19.996	103.301	19.776	2.660	0.463
198.500	175.372	80.010	19.995	103.295	19.775	2.724	0.473
199.000	175.597	80.009	19.995	103.291	19.777	2.595	0.483
199.500	175.897	80.011	19.996	103.290	19.775	2.734	0.501
200.000	176.123	80.009	19.995	103.289	19.775	2.750	0.525
200.500	176.371	80.011	19.996	103.291	19.772	2.937	0.500
201.000	176.605	80.011	19.995	103.295	19.775	2.746	0.478
201.500	176.854	80.010	19.995	103.296	19.773	2.863	0.483
202.000	177.148	80.011	19.996	103.297	19.773	2.843	0.513
202.500	177.355	80.011	19.995	103.297	19.774	2.816	0.522
203.000	177.629	80.011	19.996	103.293	19.776	2.670	0.491
203.500	177.855	80.011	19.995	103.287	19.774	2.803	0.491
204.000	178.152	80.012	19.995	103.287	19.772	2.940	0.512
204.500	178.402	80.011	19.996	103.288	19.774	2.827	0.535
205.000	178.639	80.010	19.994	103.288	19.774	2.780	0.517
205.500	178.899	80.010	19.995	103.291	19.771	3.015	0.492
206.000	179.121	80.009	19.995	103.294	19.775	2.723	0.489
206.500	179.352	80.011	19.995	103.293	19.772	2.929	0.468
207.000	179.618	80.009	19.995	103.290	19.773	2.880	0.475
207.500	179.871	80.010	19.995	103.289	19.778	2.531	0.508
208.000	180.118	80.009	19.995	103.287	19.774	2.801	0.510
208.500	180.379	80.010	19.995	103.284	19.774	2.788	0.504
209.000	180.598	80.010	19.995	103.284	19.774	2.798	0.493
209.500	180.843	80.011	19.994	103.284	19.776	2.681	0.472
210.000	181.107	80.008	19.993	103.284	19.775	2.757	0.487
210.500	181.381	80.009	19.995	103.285	19.775	2.741	0.523
211.000	181.644	80.009	19.995	103.286	19.774	2.785	0.537
211.500	181.880	80.009	19.995	103.285	19.775	2.730	0.518
212.000	182.131	80.010	19.994	103.285	19.776	2.695	0.493
212.500	182.396	80.009	19.994	103.285	19.775	2.730	0.502
213.000	182.644	80.010	19.994	103.283	19.775	2.757	0.514
213.500	182.894	80.009	19.994	103.284	19.777	2.602	0.505
214.000	183.102	80.010	19.994	103.286	19.780	2.397	0.478
214.500	183.397	80.009	19.994	103.288	19.777	2.595	0.480
215.000	183.615	80.010	19.994	103.292	19.777	2.604	0.508
215.500	183.868	80.008	19.994	103.296	19.779	2.474	0.492
216.000	184.120	80.008	19.994	103.294	19.777	2.613	0.488
216.500	184.363	80.009	19.994	103.292	19.774	2.823	0.500
217.000	184.610	80.007	19.995	103.289	19.774	2.779	0.492
217.500	184.829	80.009	19.994	103.285	19.778	2.505	0.478
218.000	185.081	80.009	19.995	103.281	19.777	2.633	0.468
218.500	185.366	80.009	19.994	103.281	19.775	2.763	0.504
219.000	185.602	80.009	19.994	103.284	19.773	2.874	0.530
219.500	185.835	80.009	19.994	103.284	19.776	2.681	0.495
220.000	186.113	80.009	19.994	103.284	19.778	2.551	0.490
220.500	186.353	80.009	19.994	103.284	19.773	2.853	0.514
221.000	186.624	80.009	19.995	103.287	19.776	2.697	0.515
221.500	186.863	80.010	19.994	103.285	19.775	2.748	0.511
222.000	187.106	80.009	19.994	103.284	19.775	2.726	0.496
222.500	187.336	80.009	19.994	103.285	19.778	2.514	0.477
223.000	187.631	80.008	19.995	103.285	19.776	2.662	0.499
223.500	187.864	80.008	19.994	103.283	19.778	2.518	0.527
224.000	188.125	80.010	19.994	103.283	19.777	2.602	0.511
224.500	188.329	80.009	19.995	103.284	19.779	2.441	0.480
225.000	188.600	80.011	19.995	103.283	19.778	2.540	0.470
225.500	188.866	80.009	19.994	103.283	19.777	2.593	0.505
226.000	189.111	80.009	19.994	103.283	19.780	2.406	0.524
226.500	189.361	80.009	19.994	103.284	19.778	2.511	0.503
227.000	189.564	80.009	19.995	103.284	19.779	2.494	0.474
227.500	189.828	80.009	19.995	103.284	19.779	2.494	0.460
228.000	190.078	80.009	19.995	103.284	19.778	2.560	0.491
228.500	190.368	80.009	19.994	103.284	19.780	2.432	0.527
229.000	190.602	80.009	19.995	103.284	19.779	2.496	0.532
229.500	190.858	80.009	19.994	103.285	19.778	2.553	0.507
230.000	191.066	80.008	19.995	103.288	19.779	2.476	0.477
230.500	191.355	80.009	19.994	103.288	19.778	2.527	0.481
231.000	191.579	80.009	19.994	103.289	19.775	2.734	0.505
231.500	191.856	80.009	19.994	103.289	19.782	2.278	0.507
232.000	192.051	80.009	19.994	103.289	19.775	2.735	0.486
232.500	192.308	80.009	19.993	103.284	19.778	2.520	0.462
233.000	192.570	80.009	19.994	103.284	19.777	2.611	0.486
233.500	192.802	80.008	19.994	103.282	19.776	2.653	0.506
234.000	193.039	80.008	19.994	103.282	19.780	2.428	0.481
234.500	193.249	80.009	19.995	103.281	19.780	2.388	0.458
235.000	193.562	80.009	19.994	103.283	19.782	2.298	0.485
235.500	193.785	80.010	19.995	103.283	19.781	2.351	0.530
236.000	194.058	80.009	19.995	103.285	19.777	2.591	0.516
236.500	194.296	80.008	19.995	103.285	19.781	2.320	0.503
237.000	194.563	80.010	19.994	103.285	19.783	2.198	0.508
237.500	194.792	80.009	19.994	103.285	19.777	2.615	0.501
238.000	195.023	80.010	19.994	103.284	19.780	2.405	0.478
238.500	195.283	80.009	19.994	103.283	19.782	2.278	0.475
239.000	195.524	80.009	19.994	103.284	19.778	2.547	0.496
239.500	195.778	80.008	19.994	103.284	19.779	2.468	0.499
240.000	196.001	80.008	19.995	103.285	19.781	2.357	0.486
240.500	196.219	80.008	19.995	103.285	19.779	2.439	0.459
241.000	196.511	80.009	19.995	103.286	19.780	2.417	0.475
241.500	196.748	80.009	19.994	103.286	19.779	2.474	0.519
242.000	197.006	80.008	19.994	103.286	19.779	2.443	0.512
242.500	197.263	80.008	19.994	103.286	19.780	2.393	0.505
243.000	197.472	80.008	19.993	103.285	19.782	2.284	0.491
243.500	197.716	80.008	19.994	103.285	19.780	2.425	0.460
244.000	197.989	80.007	19.993	103.285	19.780	2.394	0.485
244.500	198.225	80.008	19.994	103.286	19.776	2.659	0.513
245.000	198.469	80.006	19.993	103.286	19.779	2.436	0.495
245.500	198.727	80.008	19.995	103.286	19.779	2.469	0.491
246.000	198.940	80.007	19.993	103.287	19.777	2.618	0.487
246.500	199.211	80.007	19.994	103.287	19.776	2.670	0.478
247.000	199.410	80.008	19.994	103.287	19.780	2.392	0.477
247.500	199.691	80.007	19.994	103.287	19.778	2.525	0.475
248.000	199.985	80.008	19.995	103.286	19.780	2.424	0.527
248.500	200.216	80.008	19.994	103.287	19.780	2.395	0.550
249.000	200.458	80.008	19.993	103.287	19.780	2.410	0.499
249.500	200.682	80.008	19.994	103.287	19.781	2.344	0.470
250.000	200.919	80.009	19.994	103.287	19.776	2.644	0.464
250.500	201.189	80.009	19.993	103.283	19.780	2.392	0.484
251.000	201.479	80.009	19.995	103.282	19.781	2.346	0.533
251.500	201.670	80.009	19.993	103.282	19.780	2.391	0.521
252.000	201.923	80.009	19.995	103.280	19.781	2.355	0.463
252.500	202.156	80.008	19.993	103.279	19.780	2.408	0.465
253.000	202.418	80.009	19.994	103.284	19.781	2.366	0.490
253.500	202.628	80.009	19.993	103.284	19.778	2.554	0.483
254.000	202.906	80.009	19.993	103.284	19.775	2.722	0.480
254.500	203.159	80.010	19.994	103.286	19.777	2.615	0.510
255.000	203.421	80.011	19.996	103.287	19.776	2.677	0.523
255.500	203.664	80.010	19.995	103.288	19.776	2.684	0.510
256.000	203.889	80.011	19.994	103.287	19.776	2.675	0.487
256.500	204.175	80.009	19.995	103.287	19.775	2.753	0.489
257.000	204.348	80.010	19.994	103.285	19.775	2.744	0.485
257.500	204.606	80.010	19.994	103.284	19.780	2.417	0.446
258.000	204.894	80.010	19.994	103.282	19.778	2.530	0.488
258.500	205.104	80.010	19.994	103.282	19.776	2.651	0.521
259.000	205.363	80.010	19.995	103.280	19.777	2.591	0.483
259.500	205.584	80.011	19.995	103.281	19.778	2.512	0.475
260.000	205.857	80.011	19.995	103.280	19.777	2.576	0.487
260.500	206.100	80.010	19.995	103.280	19.777	2.613	0.505
261.000	206.342	80.009	19.995	103.280	19.778	2.527	0.501
261.500	206.608	80.011	19.994	103.281	19.777	2.618	0.497
262.000	206.857	80.011	19.994	103.281	19.776	2.656	0.512
262.500	207.105	80.010	19.995	103.277	19.780	2.402	0.506
263.000	207.363	80.009	19.994	103.275	19.779	2.488	0.501
263.500	207.608	80.010	19.994	103.273	19.781	2.348	0.504
264.000	207.836	80.009	19.995	103.273	19.778	2.510	0.488
264.500	208.135	80.011	19.995	103.273	19.777	2.576	0.500
265.000	208.321	80.010	19.995	103.277	19.775	2.719	0.506
265.500	208.594	80.010	19.995	103.279	19.777	2.576	0.472
266.000	208.853	80.010	19.995	103.281	19.778	2.550	0.496
266.500	209.082	80.010	19.996	103.279	19.776	2.702	0.510
267.000	209.319	80.010	19.995	103.278	19.779	2.453	0.477
267.500	209.562	80.009	19.995	103.275	19.778	2.519	0.473
268.000	209.806	80.009	19.995	103.273	19.776	2.684	0.484
268.500	209.994	80.009	19.994	103.273	19.775	2.748	0.460
269.000	210.308	80.010	19.994	103.272	19.776	2.644	0.467
269.500	210.509	80.008	19.994	103.271	19.778	2.540	0.508
270.000	210.782	80.010	19.995	103.274	19.776	2.668	0.494
270.500	211.025	80.009	19.995	103.277	19.775	2.722	0.495
271.000	211.266	80.010	19.994	103.276	19.778	2.545	0.500
271.500	211.517	80.010	19.995	103.276	19.776	2.693	0.488
272.000	211.784	80.010	19.995	103.275	19.775	2.706	0.505
272.500	212.007	80.010	19.994	103.273	19.778	2.539	0.504
273.000	212.238	80.009	19.995	103.272	19.776	2.696	0.472
273.500	212.519	80.009	19.994	103.273	19.778	2.510	0.483
274.000	212.737	80.010	19.994	103.275	19.777	2.600	0.506
274.500	213.010	80.010	19.995	103.279	19.777	2.605	0.494
275.000	213.245	80.009	19.995	103.281	19.778	2.535	0.499
275.500	213.469	80.010	19.994	103.281	19.776	2.698	0.484
276.000	213.737	80.009	19.994	103.277	19.778	2.504	0.476
276.500	213.989	80.009	19.994	103.274	19.780	2.406	0.506
277.000	214.270	80.010	19.993	103.272	19.779	2.501	0.526
277.500	214.489	80.010	19.995	103.268	19.779	2.449	0.516
278.000	214.774	80.010	19.994	103.268	19.776	2.640	0.502
278.500	215.005	80.010	19.995	103.270	19.778	2.517	0.510
279.000	215.222	80.011	19.994	103.271	19.780	2.418	0.482
279.500	215.476	80.010	19.994	103.272	19.777	2.623	0.459
280.000	215.713	80.010	19.994	103.276	19.778	2.552	0.481
280.500	215.968	80.009	19.995	103.276	19.779	2.457	0.491
281.000	216.195	80.010	19.995	103.276	19.781	2.364	0.487
281.500	216.450	80.010	19.994	103.277	19.778	2.547	0.482
282.000	216.728	80.010	19.994	103.273	19.778	2.506	0.508
282.500	216.955	80.011	19.995	103.268	19.780	2.428	0.519
283.000	217.180	80.011	19.995	103.264	19.776	2.658	0.478
283.500	217.414	80.012	19.994	103.263	19.779	2.499	0.455
284.000	217.700	80.012	19.994	103.260	19.779	2.482	0.489
284.500	217.925	80.011	19.994	103.262	19.779	2.481	0.516
285.000	218.209	80.011	19.994	103.262	19.782	2.247	0.510
285.500	218.432	80.012	19.994	103.259	19.780	2.430	0.508
286.000	218.695	80.012	19.994	103.255	19.781	2.307	0.497
286.500	218.972	80.011	19.995	103.254	19.780	2.373	0.513
287.000	219.165	80.013	19.994	103.253	19.779	2.468	0.504
287.500	219.416	80.011	19.994	103.252	19.780	2.409	0.457
288.000	219.655	80.011	19.995	103.253	19.778	2.504	0.467
288.500	219.939	80.010	19.995	103.253	19.780	2.429	0.506
289.000	220.187	80.010	19.995	103.253	19.782	2.292	0.527
289.500	220.407	80.010	19.994	103.253	19.781	2.362	0.500
290.000	220.638	80.010	19.996	103.254	19.781	2.335	0.460
290.500	220.892	80.009	19.995	103.260	19.785	2.069	0.469
291.000	221.176	80.008	19.995	103.266	19.783	2.208	0.511
291.500	221.404	80.009	19.995	103.267	19.780	2.384	0.525
292.000	221.654	80.008	19.995	103.265	19.780	2.369	0.495
292.500	221.879	80.008	19.995	103.263	19.780	2.369	0.476
293.000	222.138	80.008	19.996	103.259	19.780	2.410	0.479
293.500	222.396	80.007	19.996	103.254	19.780	2.384	0.500
294.000	222.679	80.007	19.996	103.253	19.780	2.397	0.529
294.500	222.902	80.008	19.997	103.255	19.780	2.430	0.524
295.000	223.148	80.009	19.996	103.258	19.781	2.325	0.487
295.500	223.445	80.008	19.995	103.260	19.782	2.283	0.506
296.000	223.632	80.007	19.996	103.265	19.780	2.395	0.513
296.500	223.879	80.008	19.995	103.270	19.782	2.270	0.459
297.000	224.149	80.008	19.995	103.269	19.780	2.402	0.476
297.500	224.380	80.007	19.995	103.264	19.780	2.406	0.509
298.000	224.650	80.007	19.996	103.259	19.781	2.362	0.501
298.500	224.910	80.007	19.996	103.255	19.780	2.398	0.515
299.000	225.165	80.007	19.995	103.255	19.780	2.371	0.522
299.500	225.398	80.007	19.995	103.261	19.782	2.261	0.502
300.000	225.671	80.008	19.995	103.265	19.784	2.159	0.497
300.500	225.924	80.007	19.996	103.269	19.779	2.442	0.516
301.000	226.160	80.007	19.995	103.270	19.783	2.166	0.507
301.500	226.401	80.007	19.995	103.265	19.781	2.327	0.483
302.000	226.649	80.008	19.995	103.263	19.782	2.258	0.483
302.500	226.926	80.008	19.994	103.262	19.782	2.237	0.508
303.000	227.130	80.007	19.995	103.264	19.782	2.232	0.503
303.500	227.375	80.008	19.995	103.268	19.780	2.426	0.465
304.000	227.670	80.007	19.994	103.269	19.781	2.343	0.494
304.500	227.935	80.008	19.994	103.268	19.781	2.336	0.550
305.000	228.198	80.009	19.994	103.269	19.780	2.409	0.544
305.500	228.458	80.009	19.995	103.264	19.781	2.310	0.525
306.000	228.673	80.008	19.994	103.257	19.783	2.225	0.499
306.500	228.943	80.008	19.995	103.254	19.782	2.241	0.480
307.000	229.153	80.007	19.995	103.253	19.780	2.371	0.483
307.500	229.409	80.009	19.993	103.249	19.781	2.351	0.473
308.000	229.680	80.008	19.995	103.250	19.778	2.506	0.496
308.500	229.926	80.010	19.995	103.252	19.781	2.329	0.522
309.000	230.177	80.008	19.995	103.252	19.782	2.252	0.507
309.500	230.450	80.008	19.994	103.251	19.781	2.314	0.511
310.000	230.715	80.008	19.995	103.252	19.781	2.332	0.531
310.500	230.948	80.009	19.994	103.254	19.782	2.234	0.518
311.000	231.203	80.009	19.994	103.258	19.783	2.219	0.493
311.500	231.445	80.008	19.995	103.261	19.783	2.177	0.493
312.000	231.697	80.008	19.994	103.263	19.781	2.356	0.495
312.500	231.942	80.008	19.994	103.263	19.779	2.482	0.495
313.000	232.205	80.008	19.994	103.260	19.781	2.303	0.502
313.500	232.435	80.008	19.994	103.257	19.779	2.442	0.501
314.000	232.730	80.008	19.994	103.255	19.781	2.360	0.509
314.500	232.951	80.008	19.992	103.252	19.785	2.045	0.520
315.000	233.216	80.008	19.996	103.251	19.782	2.265	0.501
315.500	233.501	80.009	19.995	103.252	19.781	2.303	0.518
316.000	233.707	80.007	19.994	103.250	19.783	2.182	0.520
316.500	233.975	80.008	19.995	103.253	19.787	1.958	0.482
317.000	234.218	80.009	19.994	103.255	19.782	2.232	0.493
317.500	234.464	80.008	19.994	103.256	19.784	2.108	0.500
318.000	234.741	80.009	19.995	103.255	19.783	2.224	0.506
318.500	234.964	80.008	19.995	103.254	19.785	2.067	0.511
319.000	235.218	80.008	19.993	103.251	19.784	2.111	0.488
319.500	235.499	80.007	19.994	103.248	19.785	2.076	0.506
320.000	235.692	80.009	19.994	103.247	19.782	2.259	0.505
320.500	235.985	80.007	19.994	103.248	19.782	2.241	0.480
321.000	236.201	80.009	19.995	103.248	19.784	2.161	0.498
321.500	236.466	80.010	19.995	103.252	19.781	2.365	0.495
322.000	236.683	80.009	19.996	103.254	19.783	2.194	0.481
322.500	236.971	80.009	19.995	103.253	19.784	2.140	0.493
323.000	237.240	80.009	19.994	103.253	19.784	2.109	0.531
323.500	237.481	80.010	19.995	103.253	19.784	2.140	0.534
324.000	237.741	80.008	19.996	103.249	19.785	2.060	0.506
324.500	238.004	80.009	19.995	103.249	19.784	2.144	0.512
325.000	238.226	80.008	19.995	103.248	19.784	2.126	0.504
325.500	238.505	80.009	19.995	103.248	19.783	2.223	0.493
326.000	238.737	80.008	19.996	103.247	19.786	1.996	0.506
326.500	238.974	80.010	19.994	103.248	19.787	1.936	0.490
327.000	239.225	80.008	19.995	103.246	19.785	2.043	0.478
327.500	239.451	80.008	19.995	103.247	19.789	1.811	0.483
328.000	239.713	80.008	19.994	103.248	19.783	2.199	0.483
328.500	239.999	80.009	19.995	103.249	19.786	1.979	0.518
329.000	240.204	80.009	19.995	103.247	19.786	1.989	0.519
329.500	240.471	80.007	19.995	103.247	19.787	1.934	0.482
330.000	240.756	80.008	19.995	103.246	19.789	1.775	0.512
330.500	240.993	80.009	19.994	103.245	19.788	1.883	0.537
331.000	241.252	80.008	19.994	103.248	19.786	1.974	0.509
331.500	241.494	80.009	19.995	103.250	19.788	1.852	0.499
332.000	241.732	80.009	19.994	103.254	19.788	1.888	0.491
332.500	242.005	80.010	19.995	103.254	19.786	1.959	0.495
333.000	242.246	80.009	19.994	103.255	19.786	2.025	0.512
333.500	242.523	80.010	19.994	103.251	19.790	1.711	0.516
334.000	242.725	80.009	19.994	103.248	19.788	1.859	0.498
334.500	243.025	80.009	19.994	103.244	19.789	1.760	0.491
335.000	243.241	80.009	19.994	103.243	19.786	1.985	0.509
335.500	243.499	80.009	19.995	103.242	19.789	1.806	0.495
336.000	243.743	80.009	19.994	103.242	19.788	1.824	0.488
336.500	243.968	80.009	19.995	103.243	19.787	1.934	0.485
337.000	244.233	80.010	19.994	103.244	19.792	1.612	0.479
337.500	244.491	80.010	19.994	103.244	19.789	1.777	0.507
338.000	244.754	80.011	19.993	103.245	19.793	1.491	0.522
338.500	244.974	80.009	19.993	103.245	19.789	1.762	0.501
339.000	245.236	80.010	19.993	103.245	19.792	1.585	0.482
339.500	245.461	80.009	19.994	103.244	19.791	1.674	0.485
340.000	245.693	80.011	19.994	103.244	19.795	1.396	0.472
340.500	245.980	80.011	19.993	103.244	19.791	1.661	0.488
341.000	246.238	80.011	19.993	103.244	19.793	1.522	0.532
341.500	246.496	80.011	19.995	103.244	19.791	1.660	0.530
342.000	246.736	80.010	19.993	103.244	19.792	1.596	0.507
342.500	246.958	80.011	19.994	103.243	19.791	1.654	0.480
343.000	247.233	80.011	19.996	103.243	19.790	1.724	0.479
343.500	247.485	80.011	19.994	103.243	19.792	1.559	0.512
344.000	247.707	80.010	19.993	103.243	19.792	1.594	0.501
344.500	247.976	80.011	19.993	103.244	19.794	1.482	0.483
345.000	248.213	80.010	19.994	103.244	19.792	1.585	0.498
345.500	248.460	80.010	19.993	103.244	19.792	1.614	0.495
346.000	248.727	80.010	19.994	103.244	19.792	1.566	0.499
346.500	248.999	80.011	19.993	103.244	19.796	1.314	0.526
347.000	249.245	80.010	19.994	103.244	19.793	1.519	0.529
347.500	249.511	80.010	19.994	103.243	19.791	1.623	0.515
348.000	249.735	80.011	19.993	103.243	19.791	1.658	0.501
348.500	249.972	80.011	19.994	103.242	19.790	1.746	0.476
349.000	250.203	80.011	19.993	103.243	19.792	1.570	0.465
349.500	250.465	80.010	19.994	103.243	19.791	1.630	0.480
350.000	250.739	80.010	19.995	103.243	19.794	1.437	0.514
350.500	250.952	80.010	19.994	103.244	19.792	1.588	0.511
351.000	251.232	80.009	19.994	103.243	19.792	1.586	0.490
351.500	251.534	80.010	19.995	103.241	19.791	1.643	0.537
352.000	251.740	80.009	19.995	103.241	19.793	1.517	0.545
352.500	252.029	80.009	19.995	103.241	19.790	1.746	0.502
353.000	252.242	80.008	19.995	103.240	19.790	1.736	0.499
353.500	252.482	80.010	19.994	103.240	19.792	1.612	0.478
354.000	252.730	80.010	19.995	103.242	19.792	1.559	0.471
354.500	252.977	80.010	19.994	103.243	19.792	1.619	0.491
355.000	253.250	80.009	19.994	103.242	19.794	1.427	0.507
355.500	253.505	80.008	19.994	103.241	19.796	1.314	0.524
356.000	253.705	80.010	19.995	103.242	19.791	1.627	0.492
356.500	253.981	80.009	19.995	103.242	19.791	1.650	0.466
357.000	254.186	80.009	19.994	103.242	19.794	1.462	0.478
357.500	254.470	80.008	19.994	103.242	19.795	1.371	0.485
358.000	254.702	80.009	19.995	103.244	19.794	1.444	0.503
358.500	254.925	80.009	19.994	103.245	19.796	1.340	0.486
359.000	255.218	80.009	19.995	103.245	19.796	1.314	0.486
359.500	255.458	80.010	19.995	103.245	19.794	1.477	0.524
360.000	255.682	80.010	19.995	103.245	19.796	1.303	0.498
360.500	255.933	80.010	19.994	103.245	19.795	1.363	0.470
361.000	256.192	80.009	19.994	103.245	19.798	1.170	0.493
361.500	256.402	80.009	19.994	103.244	19.797	1.274	0.490
362.000	256.653	80.009	19.995	103.243	19.796	1.314	0.465
362.500	256.882	80.010	19.994	103.243	19.798	1.181	0.470
363.000	257.164	80.010	19.994	103.243	19.795	1.411	0.495
363.500	257.397	80.010	19.995	103.243	19.794	1.446	0.513
364.000	257.645	80.010	19.995	103.244	19.792	1.579	0.498
364.500	257.914	80.010	19.994	103.245	19.794	1.477	0.499
365.000	258.116	80.010	19.995	103.245	19.795	1.407	0.494
365.500	258.407	80.010	19.994	103.245	19.792	1.577	0.482
366.000	258.624	80.011	19.995	103.245	19.794	1.440	0.501
366.500	258.873	80.010	19.994	103.245	19.793	1.533	0.487
367.000	259.144	80.010	19.995	103.245	19.790	1.745	0.493
367.500	259.411	80.010	19.994	103.243	19.793	1.490	0.529
368.000	259.667	80.010	19.995	103.242	19.794	1.444	0.530
368.500	259.871	80.011	19.995	103.241	19.792	1.607	0.492
369.000	260.116	80.010	19.994	103.240	19.792	1.605	0.455
369.500	260.382	80.011	19.994	103.240	19.793	1.552	0.480
370.000	260.576	80.010	19.994	103.242	19.794	1.477	0.485
370.500	260.847	80.011	19.995	103.242	19.790	1.736	0.463
371.000	261.110	80.010	19.996	103.241	19.792	1.576	0.499
371.500	261.342	80.011	19.995	103.235	19.792	1.574	0.514
372.000	261.607	80.011	19.993	103.231	19.792	1.619	0.496
372.500	261.813	80.010	19.994	103.231	19.794	1.466	0.484
373.000	262.074	80.010	19.995	103.228	19.795	1.375	0.469
373.500	262.312	80.009	19.994	103.228	19.792	1.608	0.483
374.000	262.576	80.010	19.995	103.233	19.794	1.451	0.500
374.500	262.813	80.008	19.994	103.237	19.795	1.411	0.501
375.000	263.105	80.008	19.995	103.237	19.792	1.577	0.515
375.500	263.344	80.008	19.995	103.240	19.793	1.550	0.530
376.000	263.581	80.007	19.996	103.243	19.791	1.687	0.503
376.500	263.816	80.007	19.994	103.244	19.791	1.632	0.474
377.000	264.026	80.008	19.994	103.245	19.794	1.418	0.459
377.500	264.281	80.008	19.995	103.242	19.794	1.457	0.455
378.000	264.485	80.008	19.994	103.242	19.790	1.753	0.462
378.500	264.773	80.008	19.995	103.241	19.797	1.243	0.475
379.000	265.002	80.007	19.994	103.240	19.793	1.506	0.504
379.500	265.275	80.008	19.996	103.238	19.799	1.102	0.509
380.000	265.491	80.008	19.994	103.240	19.796	1.307	0.496
380.500	265.750	80.008	19.995	103.240	19.796	1.285	0.482
381.000	265.980	80.006	19.994	103.238	19.796	1.319	0.482
381.500	266.252	80.006	19.995	103.239	19.794	1.443	0.496
382.000	266.490	80.008	19.996	103.243	19.793	1.507	0.506
382.500	266.725	80.008	19.995	103.244	19.794	1.456	0.491
383.000	266.976	80.009	19.996	103.245	19.793	1.497	0.479
383.500	267.225	80.009	19.995	103.247	19.795	1.389	0.493
384.000	267.486	80.007	19.995	103.246	19.791	1.632	0.505
384.500	267.718	80.008	19.995	103.244	19.795	1.413	0.501
385.000	268.005	80.008	19.995	103.240	19.789	1.760	0.506
385.500	268.216	80.008	19.996	103.235	19.792	1.595	0.509
386.000	268.458	80.008	19.995	103.229	19.792	1.590	0.476
386.500	268.695	80.008	19.996	103.227	19.790	1.741	0.466
387.000	268.937	80.008	19.996	103.227	19.793	1.509	0.479
387.500	269.205	80.008	19.996	103.228	19.790	1.712	0.495
388.000	269.441	80.007	19.995	103.232	19.791	1.668	0.507
388.500	269.716	80.007	19.994	103.237	19.791	1.683	0.507
389.000	269.958	80.008	19.995	103.240	19.793	1.493	0.514
389.500	270.201	80.006	19.995	103.241	19.794	1.467	0.501
390.000	270.455	80.008	19.996	103.240	19.792	1.610	0.491
390.500	270.692	80.008	19.994	103.236	19.794	1.458	0.494
391.000	270.974	80.008	19.994	103.230	19.794	1.480	0.505
391.500	271.237	80.008	19.995	103.223	19.793	1.552	0.532
392.000	271.478	80.008	19.995	103.217	19.794	1.471	0.524
392.500	271.715	80.008	19.996	103.212	19.795	1.396	0.491
393.000	272.012	80.008	19.996	103.213	19.793	1.552	0.506
393.500	272.223	80.009	19.995	103.216	19.799	1.111	0.521
394.000	272.492	80.006	19.995	103.217	19.798	1.195	0.494
394.500	272.751	80.009	19.995	103.219	19.797	1.274	0.504
395.000	272.999	80.009	19.995	103.222	19.796	1.299	0.517
395.500	273.196	80.009	19.995	103.221	19.793	1.502	0.476
396.000	273.460	80.009	19.996	103.217	19.796	1.347	0.453
396.500	273.724	80.008	19.995	103.216	19.797	1.233	0.494
397.000	273.963	80.007	19.994	103.212	19.794	1.420	0.516
397.500	274.231	80.008	19.994	103.210	19.794	1.480	0.505
398.000	274.471	80.008	19.996	103.209	19.795	1.381	0.508
398.500	274.733	80.008	19.995	103.209	19.797	1.224	0.505
399.000	274.945	80.008	19.994	103.209	19.796	1.330	0.488
399.500	275.211	80.008	19.994	103.209	19.795	1.374	0.477
400.000	275.452	80.008	19.995	103.212	19.797	1.239	0.493
400.500	275.692	80.009	19.993	103.215	19.795	1.396	0.494
401.000	275.949	80.010	19.995	103.221	19.793	1.493	0.489
401.500	276.180	80.007	19.994	103.228	19.796	1.290	0.492
402.000	276.378	80.008	19.993	103.229	19.795	1.403	0.458
402.500	276.691	80.009	19.996	103.230	19.794	1.422	0.470
403.000	276.923	80.008	19.994	103.230	19.797	1.250	0.528
403.500	277.191	80.007	19.993	103.228	19.795	1.403	0.523
404.000	277.431	80.008	19.994	103.228	19.794	1.451	0.504
404.500	277.699	80.008	19.995	103.229	19.794	1.431	0.508
405.000	277.942	80.008	19.994	103.225	19.793	1.544	0.510
405.500	278.160	80.008	19.994	103.222	19.797	1.248	0.486
406.000	278.429	80.008	19.994	103.221	19.792	1.583	0.474
406.500	278.690	80.008	19.995	103.217	19.795	1.393	0.509
407.000	278.934	80.008	19.994	103.213	19.794	1.482	0.518
407.500	279.173	80.009	19.994	103.214	19.792	1.588	0.494
408.000	279.446	80.009	19.994	103.216	19.797	1.228	0.497
408.500	279.699	80.008	19.994	103.217	19.796	1.327	0.519
409.000	279.938	80.007	19.993	103.219	19.793	1.502	0.509
409.500	280.173	80.009	19.993	103.221	19.797	1.272	0.483
410.000	280.448	80.008	19.995	103.227	19.795	1.389	0.492
410.500	280.719	80.009	19.995	103.227	19.797	1.268	0.528
411.000	280.924	80.008	19.994	103.226	19.797	1.237	0.510
411.500	281.179	80.008	19.994	103.228	19.798	1.213	0.468
412.000	281.413	80.008	19.994	103.231	19.796	1.292	0.475
412.500	281.668	80.009	19.994	103.226	19.797	1.246	0.489
413.000	281.926	80.008	19.994	103.225	19.794	1.475	0.501
413.500	282.175	80.008	19.994	103.224	19.796	1.314	0.511
414.000	282.411	80.007	19.994	103.223	19.796	1.347	0.496
414.500	282.652	80.008	19.994	103.223	19.795	1.389	0.481
415.000	282.938	80.007	19.995	103.223	19.796	1.292	0.502
415.500	283.159	80.008	19.994	103.228	19.797	1.248	0.517
416.000	283.422	80.009	19.995	103.231	19.794	1.436	0.495
416.500	283.685	80.008	19.994	103.227	19.799	1.124	0.505
417.000	283.924	80.008	19.995	103.223	19.795	1.358	0.514
417.500	284.182	80.009	19.994	103.226	19.793	1.513	0.500
418.000	284.401	80.008	19.995	103.222	19.794	1.449	0.487
418.500	284.694	80.010	19.994	103.220	19.797	1.281	0.494
419.000	284.915	80.009	19.994	103.220	19.798	1.164	0.513
419.500	285.173	80.011	19.995	103.220	19.796	1.285	0.497
420.000	285.438	80.008	19.995	103.217	19.795	1.400	0.501
420.500	285.693	80.009	19.995	103.218	19.798	1.190	0.521
421.000	285.922	80.008	19.993	103.216	19.795	1.396	0.502
421.500	286.167	80.010	19.994	103.218	19.799	1.124	0.479
422.000	286.435	80.010	19.994	103.222	19.796	1.308	0.494
422.500	286.681	80.010	19.994	103.224	19.796	1.299	0.514
423.000	286.936	80.010	19.994	103.226	19.798	1.197	0.507
423.500	287.158	80.009	19.995	103.228	19.799	1.146	0.488
424.000	287.445	80.010	19.994	103.224	19.795	1.394	0.493
424.500	287.735	80.009	19.994	103.219	19.794	1.478	0.543
425.000	287.980	80.010	19.994	103.217	19.794	1.482	0.556
425.500	288.191	80.009	19.994	103.218	19.809	0.451	0.496
426.000	288.445	80.009	19.993	103.221	19.798	1.210	0.461
426.500	288.699	80.011	19.994	103.223	19.797	1.281	0.486
427.000	288.912	80.010	19.993	103.225	19.799	1.144	0.487
427.500	289.229	80.010	19.994	103.225	19.799	1.135	0.498
428.000	289.440	80.010	19.993	103.225	19.796	1.290	0.529
428.500	289.690	80.010	19.994	103.227	19.802	0.903	0.495
429.000	289.930	80.010	19.994	103.231	19.799	1.131	0.475
429.500	290.200	80.010	19.995	103.233	19.797	1.239	0.500
430.000	290.475	80.009	19.993	103.234	19.798	1.184	0.528
430.500	290.680	80.009	19.994	103.230	19.798	1.153	0.512
431.000	290.933	80.008	19.994	103.224	19.799	1.126	0.469
431.500	291.216	80.009	19.994	103.220	19.799	1.129	0.497
432.000	291.447	80.009	19.993	103.219	19.799	1.089	0.525
432.500	291.736	80.010	19.994	103.221	19.797	1.248	0.517
433.000	291.997	80.009	19.994	103.224	19.799	1.146	0.535
433.500	292.240	80.009	19.993	103.228	19.799	1.142	0.527
434.000	292.504	80.009	19.994	103.228	19.799	1.095	0.505
434.500	292.722	80.008	19.993	103.227	19.800	1.027	0.494
435.000	292.971	80.009	19.994	103.226	19.801	0.992	0.475
435.500	293.270	80.008	19.994	103.229	19.800	1.060	0.508
436.000	293.488	80.010	19.994	103.227	19.802	0.884	0.532
436.500	293.727	80.009	19.994	103.232	19.798	1.184	0.487
437.000	293.979	80.009	19.993	103.234	19.799	1.107	0.474
437.500	294.260	80.009	19.993	103.231	19.798	1.168	0.512
438.000	294.548	80.008	19.993	103.227	19.798	1.212	0.551
438.500	294.725	80.009	19.994	103.224	19.798	1.164	0.517
439.000	295.008	80.009	19.994	103.218	19.799	1.109	0.462
439.500	295.202	80.010	19.995	103.214	19.800	1.069	0.469
440.000	295.482	80.010	19.994	103.215	19.798	1.157	0.475
440.500	295.735	80.010	19.993	103.216	19.796	1.321	0.504
441.000	295.976	80.009	19.994	103.217	19.801	0.945	0.513
441.500	296.227	80.010	19.994	103.216	19.801	0.954	0.493
442.000	296.517	80.010	19.993	103.217	19.799	1.104	0.517
442.500	296.739	80.011	19.993	103.216	19.798	1.149	0.527
443.000	296.975	80.009	19.994	103.212	19.795	1.381	0.485
443.500	297.223	80.010	19.994	103.213	19.796	1.305	0.471
444.000	297.510	80.009	19.994	103.217	19.797	1.255	0.510
444.500	297.778	80.009	19.993	103.221	19.799	1.140	0.545
445.000	297.981	80.010	19.994	103.221	19.798	1.193	0.513
445.500	298.211	80.010	19.994	103.223	19.798	1.195	0.452
446.000	298.427	80.010	19.993	103.222	19.798	1.168	0.440
446.500	298.765	80.010	19.993	103.224	19.797	1.228	0.500
447.000	299.001	80.009	19.993	103.226	19.798	1.177	0.564
447.500	299.253	80.010	19.993	103.229	19.798	1.148	0.531
448.000	299.512	80.010	19.993	103.228	19.798	1.193	0.499
448.500	299.765	80.011	19.993	103.225	19.797	1.266	0.511
449.000	300.019	80.010	19.994	103.219	19.795	1.379	0.509
449.500	300.267	80.011	19.994	103.214	19.797	1.231	0.505
450.000	300.510	80.011	19.994	103.211	19.797	1.253	0.497
450.500	300.745	80.010	19.995	103.212	19.799	1.124	0.484
451.000	301.012	80.009	19.995	103.216	19.798	1.149	0.490
451.500	301.251	80.011	19.994	103.219	19.796	1.334	0.504
452.000	301.500	80.010	19.995	103.218	19.798	1.195	0.497
452.500	301.749	80.011	19.994	103.218	19.797	1.275	0.493
453.000	301.973	80.009	19.995	103.217	19.799	1.104	0.486
453.500	302.244	80.010	19.996	103.213	19.798	1.195	0.484
454.000	302.485	80.009	19.995	103.209	19.799	1.107	0.504
454.500	302.783	80.010	19.994	103.209	19.795	1.359	0.526
455.000	303.018	80.009	19.996	103.208	19.797	1.237	0.536
455.500	303.253	80.010	19.995	103.209	19.798	1.211	0.502
456.000	303.486	80.008	19.994	103.208	19.799	1.138	0.469
456.500	303.761	80.009	19.994	103.209	19.797	1.241	0.488
457.000	303.971	80.008	19.994	103.212	19.797	1.242	0.497
457.500	304.258	80.008	19.995	103.216	19.795	1.350	0.491
458.000	304.499	80.008	19.995	103.214	19.796	1.330	0.512
458.500	304.740	80.008	19.994	103.214	19.797	1.270	0.505
459.000	304.988	80.009	19.994	103.214	19.795	1.350	0.486
459.500	305.257	80.009	19.994	103.210	19.798	1.164	0.503
460.000	305.460	80.008	19.994	103.206	19.801	0.968	0.495
460.500	305.774	80.008	19.995	103.207	19.798	1.157	0.494
461.000	306.024	80.008	19.994	103.208	19.799	1.113	0.540
461.500	306.261	80.008	19.994	103.208	19.798	1.184	0.526
462.000	306.491	80.009	19.995	103.208	19.796	1.334	0.477
462.500	306.773	80.008	19.994	103.210	19.798	1.204	0.489
463.000	307.006	80.009	19.994	103.210	19.796	1.310	0.514
463.500	307.249	80.009	19.994	103.211	19.796	1.303	0.495
464.000	307.494	80.009	19.994	103.210	19.798	1.180	0.482
464.500	307.750	80.008	19.994	103.210	19.799	1.127	0.495
465.000	308.014	80.009	19.995	103.208	19.801	1.010	0.510
465.500	308.256	80.008	19.994	103.209	19.799	1.129	0.513
466.000	308.498	80.008	19.994	103.207	19.799	1.107	0.495
466.500	308.759	80.007	19.995	103.206	19.796	1.301	0.494
467.000	309.019	80.009	19.994	103.207	19.801	0.998	0.512
467.500	309.263	80.009	19.994	103.209	19.799	1.093	0.513
468.000	309.533	80.010	19.994	103.209	19.800	1.065	0.509
468.500	309.775	80.009	19.995	103.210	19.801	0.948	0.512
469.000	309.988	80.007	19.994	103.210	19.803	0.844	0.484
469.500	310.279	80.009	19.995	103.209	19.802	0.924	0.480
470.000	310.539	80.009	19.994	103.206	19.800	1.040	0.527
470.500	310.763	80.009	19.994	103.206	19.800	1.029	0.517
471.000	311.007	80.009	19.994	103.205	19.799	1.142	0.476
471.500	311.294	80.007	19.994	103.205	19.799	1.085	0.499
472.000	311.514	80.008	19.994	103.206	19.799	1.082	0.519
472.500	311.774	80.006	19.994	103.207	19.801	0.994	0.493
473.000	312.045	80.008	19.994	103.206	19.800	1.027	0.505
473.500	312.328	80.008	19.994	103.207	19.798	1.151	0.543
474.000	312.586	80.008	19.995	103.208	19.801	0.956	0.548
474.500	312.805	80.009	19.995	103.207	19.804	0.762	0.509
475.000	313.087	80.008	19.994	103.206	19.800	1.062	0.488
475.500	313.329	80.008	19.994	103.207	19.804	0.793	0.512
476.000	313.572	80.009	19.995	103.206	19.802	0.899	0.505
476.500	313.824	80.008	19.994	103.206	19.803	0.859	0.490
477.000	314.088	80.008	19.994	103.208	19.800	1.012	0.506
477.500	314.331	80.008	19.994	103.209	19.802	0.937	0.512
478.000	314.571	80.008	19.995	103.207	19.802	0.937	0.495
478.500	314.832	80.008	19.996	103.208	19.801	1.010	0.492
479.000	315.099	80.009	19.995	103.207	19.802	0.939	0.514
479.500	315.359	80.008	19.995	103.206	19.800	1.014	0.527
480.000	315.591	80.008	19.996	103.204	19.801	0.952	0.509
480.500	315.861	80.008	19.995	103.204	19.802	0.914	0.497
481.000	316.100	80.008	19.996	103.204	19.804	0.791	0.505
481.500	316.339	80.008	19.996	103.204	19.802	0.881	0.494
482.000	316.623	80.008	19.995	103.204	19.804	0.756	0.501
482.500	316.919	80.008	19.996	103.204	19.802	0.881	0.552
483.000	317.132	80.009	19.996	103.204	19.803	0.855	0.545
483.500	317.368	80.009	19.996	103.204	19.803	0.839	0.479
484.000	317.627	80.007	19.994	103.204	19.805	0.680	0.472
484.500	317.891	80.008	19.995	103.204	19.806	0.645	0.509
485.000	318.149	80.007	19.996	103.203	19.805	0.682	0.523
485.500	318.359	80.007	19.995	103.202	19.804	0.758	0.495
486.000	318.637	80.008	19.996	103.202	19.805	0.683	0.478
486.500	318.900	80.007	19.995	103.203	19.801	0.967	0.514
487.000	319.138	80.007	19.995	103.203	19.804	0.808	0.521
487.500	319.386	80.007	19.995	103.205	19.805	0.705	0.494
488.000	319.674	80.007	19.995	103.205	19.809	0.451	0.511
488.500	319.899	80.006	19.995	103.206	19.803	0.861	0.525
489.000	320.170	80.006	19.994	103.208	19.802	0.908	0.504
489.500	320.435	80.007	19.996	103.208	19.801	0.988	0.516
490.000	320.683	80.007	19.995	103.209	19.807	0.583	0.524
490.500	320.920	80.007	19.995	103.209	19.804	0.780	0.499
491.000	321.174	80.007	19.995	103.208	19.803	0.844	0.488
491.500	321.399	80.006	19.995	103.206	19.805	0.683	0.485
492.000	321.653	80.008	19.996	103.206	19.806	0.669	0.479
492.500	321.894	80.007	19.994	103.206	19.807	0.603	0.487
493.000	322.151	80.007	19.994	103.206	19.806	0.621	0.497
493.500	322.407	80.009	19.994	103.207	19.806	0.658	0.505
494.000	322.683	80.007	19.994	103.207	19.807	0.605	0.522
494.500	322.944	80.007	19.994	103.207	19.808	0.523	0.535
495.000	323.204	80.007	19.995	103.208	19.806	0.619	0.529
495.500	323.434	80.008	19.994	103.208	19.805	0.740	0.505
496.000	323.700	80.008	19.995	103.210	19.807	0.544	0.493
496.500	323.974	80.009	19.995	103.212	19.807	0.568	0.518
497.000	324.205	80.008	19.994	103.213	19.804	0.742	0.522
497.500	324.473	80.008	19.995	103.213	19.804	0.771	0.502
498.000	324.702	80.008	19.995	103.215	19.806	0.634	0.498
498.500	324.971	80.008	19.994	103.214	19.805	0.682	0.498
499.000	325.199	80.008	19.995	103.212	19.806	0.614	0.498
499.500	325.461	80.009	19.995	103.211	19.809	0.437	0.493
500.000	325.721	80.008	19.995	103.210	19.806	0.641	0.506
500.500	325.985	80.009	19.994	103.208	19.807	0.581	0.523
501.000	326.213	80.010	19.994	103.209	19.807	0.590	0.508
501.500	326.473	80.010	19.995	103.209	19.807	0.559	0.490
502.000	326.747	80.009	19.995	103.209	19.805	0.700	0.511
502.500	326.995	80.009	19.994	103.209	19.804	0.782	0.528
503.000	327.220	80.008	19.995	103.209	19.802	0.888	0.498
503.500	327.479	80.009	19.994	103.208	19.804	0.751	0.479
504.000	327.737	80.009	19.995	103.208	19.804	0.786	0.500
504.500	327.977	80.010	19.995	103.208	19.804	0.767	0.507
505.000	328.254	80.010	19.994	103.208	19.806	0.658	0.507
505.500	328.484	80.010	19.994	103.206	19.805	0.683	0.512
506.000	328.754	80.010	19.995	103.204	19.803	0.822	0.503
506.500	329.038	80.010	19.994	103.204	19.806	0.672	0.527
507.000	329.273	80.010	19.993	103.204	19.803	0.809	0.536
507.500	329.502	80.011	19.994	103.204	19.804	0.795	0.491
508.000	329.756	80.009	19.994	103.207	19.804	0.766	0.474
508.500	330.004	80.010	19.995	103.208	19.805	0.685	0.493
509.000	330.281	80.011	19.994	103.209	19.804	0.798	0.513
509.500	330.504	80.010	19.994	103.208	19.805	0.727	0.512
510.000	330.811	80.011	19.995	103.208	19.802	0.943	0.515
510.500	331.039	80.009	19.995	103.208	19.802	0.941	0.533
511.000	331.292	80.009	19.996	103.208	19.799	1.107	0.508
511.500	331.533	80.008	19.995	103.208	19.804	0.804	0.487
512.000	331.777	80.010	19.994	103.209	19.801	0.961	0.490
512.500	332.021	80.008	19.994	103.209	19.801	0.981	0.487
513.000	332.278	80.009	19.994	103.210	19.804	0.791	0.494
513.500	332.568	80.009	19.995	103.207	19.804	0.771	0.524
514.000	332.823	80.009	19.994	103.201	19.803	0.857	0.547
514.500	333.070	80.010	19.994	103.200	19.800	1.023	0.524
515.000	333.346	80.008	19.993	103.200	19.803	0.840	0.512
515.500	333.583	80.010	19.995	103.199	19.803	0.868	0.518
516.000	333.851	80.009	19.994	103.202	19.804	0.773	0.509
516.500	334.085	80.009	19.994	103.208	19.804	0.789	0.503
517.000	334.291	80.009	19.994	103.208	19.801	0.968	0.471
517.500	334.588	80.008	19.994	103.208	19.801	0.967	0.472
518.000	334.866	80.009	19.994	103.208	19.802	0.939	0.539
518.500	335.100	80.009	19.994	103.207	19.804	0.758	0.543
519.000	335.333	80.010	19.994	103.207	19.803	0.844	0.489
519.500	335.584	80.010	19.994	103.207	19.802	0.943	0.475
520.000	335.833	80.010	19.995	103.207	19.806	0.632	0.492
520.500	336.105	80.009	19.995	103.206	19.803	0.831	0.511
521.000	336.338	80.010	19.994	103.206	19.806	0.638	0.513
521.500	336.598	80.011	19.994	103.205	19.803	0.831	0.499
522.000	336.863	80.011	19.993	103.205	19.806	0.665	0.509
522.500	337.121	80.010	19.994	103.206	19.802	0.903	0.524
523.000	337.331	80.010	19.993	103.207	19.806	0.616	0.495
523.500	337.586	80.009	19.995	103.207	19.804	0.745	0.467
524.000	337.867	80.010	19.994	103.207	19.806	0.669	0.501
524.500	338.091	80.010	19.994	103.206	19.808	0.523	0.521
525.000	338.341	80.012	19.995	103.205	19.804	0.756	0.489
525.500	338.606	80.011	19.994	103.204	19.807	0.563	0.495
526.000	338.841	80.010	19.993	103.204	19.805	0.685	0.508
526.500	339.093	80.011	19.993	103.203	19.804	0.755	0.493
527.000	339.334	80.011	19.994	103.204	19.810	0.396	0.490
527.500	339.558	80.012	19.994	103.205	19.806	0.608	0.479
528.000	339.844	80.012	19.994	103.205	19.805	0.687	0.488
528.500	340.100	80.012	19.994	103.204	19.805	0.733	0.526
529.000	340.339	80.012	19.994	103.204	19.807	0.583	0.518
529.500	340.587	80.013	19.994	103.204	19.806	0.612	0.491
530.000	340.872	80.012	19.994	103.203	19.807	0.559	0.510
530.500	341.123	80.012	19.994	103.203	19.809	0.417	0.535
531.000	341.352	80.012	19.995	103.204	19.807	0.565	0.508
531.500	341.590	80.012	19.993	103.204	19.808	0.482	0.473
532.000	341.888	80.012	19.993	103.203	19.808	0.526	0.502
532.500	342.136	80.010	19.993	103.203	19.809	0.409	0.541
533.000	342.432	80.012	19.993	103.204	19.806	0.614	0.544
533.500	342.654	80.011	19.993	103.204	19.805	0.705	0.531
534.000	342.877	80.011	19.994	103.204	19.805	0.703	0.482
534.500	343.163	80.011	19.993	103.204	19.806	0.630	0.477
535.000	343.417	80.012	19.993	103.205	19.807	0.579	0.525
535.500	343.657	80.010	19.993	103.205	19.803	0.824	0.517
536.000	343.879	80.011	19.994	103.204	19.808	0.495	0.478
536.500	344.146	80.011	19.993	103.204	19.803	0.817	0.475
537.000	344.376	80.012	19.993	103.203	19.803	0.866	0.493
537.500	344.651	80.010	19.993	103.203	19.800	1.016	0.501
538.000	344.886	80.010	19.994	103.202	19.806	0.661	0.507
538.500	345.149	80.011	19.994	103.201	19.806	0.660	0.504
539.000	345.411	80.009	19.994	103.200	19.805	0.731	0.512
539.500	345.663	80.010	19.994	103.199	19.806	0.667	0.520
540.000	345.912	80.009	19.995	103.199	19.807	0.588	0.507
540.500	346.179	80.009	19.995	103.200	19.804	0.778	0.508
541.000	346.436	80.008	19.995	103.201	19.810	0.389	0.520
541.500	346.716	80.008	19.995	103.202	19.805	0.740	0.531
542.000	346.962	80.008	19.995	103.205	19.807	0.583	0.532
542.500	347.205	80.008	19.994	103.203	19.806	0.649	0.507
543.000	347.439	80.008	19.995	103.203	19.806	0.625	0.483
543.500	347.696	80.009	19.995	103.202	19.804	0.777	0.484
544.000	347.967	80.008	19.995	103.203	19.803	0.813	0.510
544.500	348.226	80.009	19.996	103.202	19.801	0.985	0.529
545.000	348.477	80.008	19.994	103.202	19.805	0.683	0.520
545.500	348.752	80.010	19.995	103.203	19.799	1.131	0.518
546.000	348.980	80.009	19.995	103.203	19.802	0.884	0.515
546.500	349.257	80.008	19.995	103.202	19.800	1.032	0.504
547.000	349.520	80.009	19.994	103.202	19.800	1.069	0.522
547.500	349.757	80.008	19.995	103.203	19.799	1.138	0.520
548.000	350.001	80.008	19.994	103.203	19.800	1.067	0.491
548.500	350.299	80.008	19.995	103.203	19.800	1.025	0.512
549.000	350.548	80.009	19.994	103.204	19.798	1.177	0.545
549.500	350.783	80.007	19.995	103.204	19.798	1.180	0.516
550.000	351.031	80.007	19.995	103.203	19.800	1.056	0.483
550.500	351.292	80.008	19.995	103.201	19.803	0.861	0.496
551.000	351.519	80.007	19.995	103.201	19.802	0.926	0.498
551.500	351.799	80.008	19.994	103.201	19.802	0.912	0.497
552.000	352.023	80.008	19.994	103.200	19.800	1.034	0.505
552.500	352.268	80.009	19.995	103.202	19.803	0.857	0.486
553.000	352.574	80.007	19.995	103.203	19.802	0.910	0.510
553.500	352.841	80.007	19.995	103.204	19.799	1.107	0.562
554.000	353.101	80.008	19.995	103.204	19.798	1.177	0.550
554.500	353.377	80.006	19.994	103.205	19.800	1.030	0.531
555.000	353.660	80.007	19.995	103.206	19.799	1.116	0.547
555.500	353.885	80.007	19.995	103.207	19.801	0.981	0.534
556.000	354.129	80.006	19.994	103.207	19.800	1.025	0.489
556.500	354.390	80.007	19.995	103.205	19.802	0.877	0.487
557.000	354.622	80.006	19.994	103.204	19.799	1.122	0.499
557.500	354.884	80.008	19.994	103.203	19.800	1.067	0.494
558.000	355.152	80.007	19.994	103.203	19.800	1.056	0.512
558.500	355.389	80.007	19.995	103.202	19.800	1.023	0.518
559.000	355.619	80.009	19.994	103.202	19.798	1.155	0.486
559.500	355.848	80.008	19.995	103.204	19.801	0.999	0.463
560.000	356.104	80.009	19.995	103.204	19.800	1.072	0.472
560.500	356.361	80.009	19.994	103.204	19.801	0.996	0.499
561.000	356.621	80.008	19.993	103.204	19.800	1.067	0.515
561.500	356.887	80.008	19.995	103.205	19.801	0.977	0.521
562.000	357.138	80.007	19.994	103.205	19.802	0.910	0.521
562.500	357.374	80.008	19.994	103.205	19.800	1.029	0.502
563.000	357.611	80.007	19.995	103.205	19.798	1.169	0.480
563.500	357.906	80.008	19.994	103.204	19.799	1.144	0.503
564.000	358.152	80.009	19.994	103.204	19.800	1.041	0.537
564.500	358.426	80.007	19.994	103.204	19.799	1.083	0.530
565.000	358.703	80.008	19.994	103.203	19.795	1.358	0.536
565.500	358.936	80.008	19.994	103.202	19.796	1.332	0.530
566.000	359.186	80.008	19.994	103.204	19.798	1.149	0.496
566.500	359.436	80.008	19.994	103.205	19.796	1.306	0.491
567.000	359.692	80.007	19.995	103.205	19.799	1.133	0.503
567.500	359.976	80.007	19.994	103.207	19.799	1.111	0.523
568.000	360.214	80.007	19.994	103.208	19.797	1.279	0.531
568.500	360.492	80.008	19.995	103.208	19.796	1.328	0.519
569.000	360.712	80.008	19.994	103.208	19.795	1.400	0.507
569.500	360.975	80.008	19.995	103.208	19.794	1.420	0.490
570.000	361.224	80.008	19.995	103.207	19.797	1.250	0.498
570.500	361.478	80.007	19.995	103.205	19.794	1.480	0.508
571.000	361.743	80.008	19.994	103.204	19.791	1.681	0.511
571.500	362.018	80.006	19.994	103.203	19.796	1.348	0.529
572.000	362.233	80.008	19.995	103.203	19.791	1.685	0.515
572.500	362.536	80.007	19.994	103.204	19.789	1.763	0.504
573.000	362.734	80.007	19.995	103.206	19.789	1.789	0.510
573.500	363.025	80.006	19.995	103.207	19.791	1.646	0.495
574.000	363.300	80.006	19.996	103.206	19.790	1.750	0.527
574.500	363.550	80.007	19.995	103.206	19.788	1.864	0.546
575.000	363.798	80.008	19.995	103.206	19.787	1.944	0.512
575.500	364.047	80.006	19.995	103.206	19.787	1.935	0.497
576.000	364.312	80.007	19.994	103.206	19.784	2.114	0.505
576.500	364.572	80.006	19.995	103.207	19.783	2.174	0.520
577.000	364.828	80.007	19.996	103.204	19.787	1.948	0.521
577.500	365.067	80.007	19.995	103.202	19.783	2.214	0.506
578.000	365.320	80.006	19.995	103.202	19.783	2.189	0.493
578.500	365.590	80.007	19.996	103.202	19.781	2.339	0.507
579.000	365.820	80.007	19.995	103.203	19.780	2.408	0.512
579.500	366.110	80.007	19.994	103.206	19.780	2.428	0.510
580.000	366.368	80.008	19.994	103.208	19.778	2.540	0.534
580.500	366.614	80.008	19.995	103.207	19.777	2.602	0.526
581.000	366.858	80.008	19.995	103.202	19.780	2.381	0.497
581.500	367.101	80.007	19.995	103.201	19.777	2.600	0.489
582.000	367.397	80.009	19.996	103.201	19.774	2.836	0.513
582.500	367.624	80.009	19.996	103.202	19.773	2.856	0.531
583.000	367.908	80.008	19.995	103.202	19.774	2.779	0.517
583.500	368.150	80.009	19.995	103.207	19.773	2.872	0.519
584.000	368.409	80.009	19.995	103.207	19.769	3.135	0.513
584.500	368.679	80.008	19.994	103.207	19.769	3.176	0.515
585.000	368.911	80.008	19.995	103.206	19.767	3.250	0.515
585.500	369.201	80.010	19.995	103.206	19.767	3.285	0.512
586.000	369.433	80.008	19.994	103.206	19.766	3.336	0.522
586.500	369.664	80.010	19.994	103.206	19.762	3.598	0.493
587.000	369.923	80.010	19.995	103.205	19.766	3.362	0.476
587.500	370.176	80.010	19.995	103.206	19.762	3.618	0.501
588.000	370.454	80.010	19.995	103.207	19.763	3.537	0.522
588.500	370.665	80.009	19.994	103.207	19.760	3.769	0.510
589.000	370.918	80.009	19.994	103.207	19.759	3.800	0.477
589.500	371.164	80.011	19.994	103.207	19.761	3.713	0.481
590.000	371.459	80.009	19.995	103.206	19.760	3.771	0.520
590.500	371.687	80.011	19.994	103.205	19.755	4.062	0.532
591.000	371.972	80.008	19.994	103.205	19.752	4.303	0.518
591.500	372.204	80.008	19.993	103.205	19.753	4.206	0.515
592.000	372.490	80.009	19.994	103.205	19.752	4.285	0.518
592.500	372.724	80.010	19.993	103.205	19.752	4.325	0.519
593.000	372.958	80.009	19.993	103.205	19.750	4.455	0.494
593.500	373.253	80.009	19.994	103.206	19.746	4.727	0.499
594.000	373.460	80.009	19.994	103.206	19.748	4.561	0.516
594.500	373.751	80.008	19.994	103.207	19.744	4.802	0.500
595.000	374.050	80.008	19.994	103.207	19.743	4.935	0.544
595.500	374.267	80.008	19.993	103.208	19.741	5.034	0.553
596.000	374.494	80.009	19.994	103.208	19.742	4.972	0.479
596.500	374.771	80.010	19.994	103.207	19.738	5.221	0.474
597.000	375.025	80.008	19.994	103.207	19.734	5.501	0.518
597.500	375.275	80.008	19.994	103.207	19.736	5.351	0.518
598.000	375.543	80.009	19.994	103.205	19.732	5.622	0.511
598.500	375.787	80.008	19.993	103.207	19.732	5.642	0.515
599.000	376.030	80.009	19.993	103.208	19.729	5.868	0.500
599.500	376.313	80.010	19.994	103.208	19.731	5.717	0.506
600.000	376.561	80.008	19.993	103.207	19.728	5.951	0.528
600.500	376.835	80.009	19.994	103.206	19.730	5.795	0.526
601.000	377.096	80.008	19.994	103.204	19.728	5.943	0.529
601.500	377.350	80.008	19.993	103.203	19.724	6.219	0.525
602.000	377.600	80.008	19.994	103.205	19.723	6.261	0.509
602.500	377.877	80.008	19.994	103.209	19.724	6.155	0.515
603.000	378.149	80.009	19.994	103.211	19.723	6.260	0.538
603.500	378.383	80.009	19.995	103.213	19.718	6.623	0.528
604.000	378.645	80.009	19.994	103.215	19.717	6.648	0.501
604.500	378.901	80.009	19.993	103.215	19.716	6.700	0.507
605.000	379.183	80.010	19.994	103.215	19.715	6.808	0.528
605.500	379.427	80.010	19.995	103.215	19.716	6.751	0.532
606.000	379.689	80.009	19.994	103.215	19.714	6.894	0.516
606.500	379.924	80.009	19.994	103.217	19.713	6.951	0.502
607.000	380.209	80.009	19.995	103.222	19.711	7.035	0.508
607.500	380.469	80.009	19.994	103.226	19.706	7.393	0.532
608.000	380.728	80.010	19.994	103.228	19.708	7.278	0.532
608.500	380.999	80.010	19.995	103.230	19.707	7.316	0.525
609.000	381.249	80.011	19.995	103.234	19.707	7.351	0.525
609.500	381.497	80.010	19.994	103.234	19.702	7.660	0.509
610.000	381.726	80.010	19.993	103.234	19.698	7.918	0.487
610.500	381.984	80.010	19.994	103.234	19.697	8.033	0.482
611.000	382.258	80.010	19.993	103.233	19.698	7.967	0.510
611.500	382.480	80.011	19.993	103.232	19.693	8.264	0.514
612.000	382.738	80.010	19.994	103.232	19.693	8.275	0.488
612.500	383.021	80.010	19.993	103.231	19.691	8.448	0.510
613.000	383.279	80.010	19.994	103.233	19.687	8.665	0.541
613.500	383.558	80.011	19.994	103.237	19.684	8.886	0.539
614.000	383.789	80.010	19.993	103.237	19.681	9.080	0.523
614.500	384.044	80.009	19.993	103.231	19.683	8.994	0.498
615.000	384.310	80.010	19.993	103.227	19.683	8.969	0.504
615.500	384.587	80.010	19.994	103.232	19.674	9.565	0.532
616.000	384.835	80.009	19.995	103.233	19.675	9.518	0.534
616.500	385.093	80.010	19.996	103.234	19.671	9.778	0.516
617.000	385.368	80.010	19.994	103.239	19.672	9.691	0.520
617.500	385.569	80.010	19.994	103.244	19.667	10.059	0.505
618.000	385.843	80.009	19.993	103.241	19.666	10.115	0.475
618.500	386.079	80.010	19.994	103.241	19.661	10.433	0.492
619.000	386.339	80.009	19.994	103.241	19.657	10.716	0.503
619.500	386.637	80.009	19.994	103.242	19.658	10.669	0.527
620.000	386.869	80.008	19.993	103.243	19.653	11.000	0.544
620.500	387.144	80.008	19.994	103.243	19.651	11.152	0.518
621.000	387.403	80.008	19.995	103.244	19.649	11.297	0.520
621.500	387.668	80.007	19.994	103.244	19.645	11.561	0.528
622.000	387.903	80.008	19.994	103.245	19.643	11.665	0.512
622.500	388.193	80.007	19.993	103.248	19.640	11.852	0.513
623.000	388.410	80.008	19.994	103.249	19.635	12.216	0.516
623.500	388.642	80.007	19.994	103.250	19.633	12.350	0.477
624.000	388.912	80.008	19.994	103.256	19.627	12.748	0.475
624.500	389.160	80.009	19.993	103.258	19.625	12.895	0.510
625.000	389.419	80.008	19.993	103.258	19.622	13.092	0.513
625.500	389.681	80.007	19.993	103.263	19.620	13.211	0.514
626.000	389.953	80.009	19.994	103.266	19.615	13.559	0.527
626.500	390.209	80.007	19.994	103.265	19.609	13.948	0.531
627.000	390.434	80.007	19.994	103.268	19.606	14.172	0.505
627.500	390.714	80.007	19.994	103.273	19.603	14.417	0.493
628.000	390.981	80.008	19.993	103.269	19.601	14.553	0.526
628.500	391.174	80.008	19.994	103.269	19.598	14.706	0.504
629.000	391.455	80.006	19.995	103.267	19.594	15.003	0.467
629.500	391.697	80.008	19.993	103.262	19.591	15.227	0.498
630.000	391.986	80.008	19.994	103.258	19.583	15.764	0.527
630.500	392.245	80.008	19.994	103.263	19.581	15.889	0.540
631.000	392.488	80.008	19.994	103.265	19.579	15.991	0.525
631.500	392.744	80.008	19.994	103.270	19.577	16.132	0.500
632.000	393.010	80.008	19.995	103.277	19.575	16.251	0.510
632.500	393.278	80.008	19.993	103.282	19.568	16.734	0.528
633.000	393.517	80.008	19.995	103.282	19.565	16.980	0.521
633.500	393.822	80.007	19.994	103.285	19.564	17.025	0.525
634.000	394.061	80.007	19.994	103.286	19.557	17.514	0.544
634.500	394.314	80.009	19.994	103.286	19.552	17.841	0.518
635.000	394.593	80.008	19.994	103.286	19.548	18.096	0.512
635.500	394.883	80.007	19.994	103.286	19.545	18.286	0.551
636.000	395.123	80.007	19.993	103.287	19.544	18.400	0.549
636.500	395.392	80.008	19.994	103.289	19.540	18.656	0.519
637.000	395.618	80.007	19.994	103.290	19.531	19.264	0.502
637.500	395.889	80.007	19.995	103.290	19.528	19.442	0.497
638.000	396.169	80.008	19.995	103.292	19.523	19.822	0.524
638.500	396.404	80.007	19.995	103.295	19.522	19.874	0.533
639.000	396.695	80.007	19.994	103.295	19.519	20.104	0.520
639.500	396.951	80.007	19.995	103.297	19.513	20.502	0.536
640.000	397.213	80.007	19.995	103.297	19.514	20.394	0.532
640.500	397.427	80.006	19.994	103.296	19.508	20.855	0.497
641.000	397.713	80.006	19.994	103.292	19.504	21.093	0.488
641.500	397.969	80.007	19.995	103.290	19.501	21.325	0.521
642.000	398.211	80.007	19.995	103.289	19.496	21.609	0.520
642.500	398.446	80.007	19.995	103.289	19.492	21.912	0.488
643.000	398.761	80.008	19.995	103.290	19.487	22.256	0.514
643.500	399.016	80.006	19.994	103.294	19.485	22.388	0.560
644.000	399.235	80.007	19.994	103.300	19.479	22.783	0.522
644.500	399.526	80.007	19.995	103.306	19.474	23.128	0.492
645.000	399.734	80.008	19.996	103.313	19.472	23.263	0.504
645.500	400.005	80.007	19.995	103.319	19.464	23.779	0.489
646.000	400.250	80.007	19.995	103.322	19.462	23.975	0.498
646.500	400.498	80.006	19.994	103.323	19.453	24.529	0.505
647.000	400.768	80.007	19.995	103.324	19.447	24.933	0.506
647.500	401.045	80.008	19.994	103.326	19.444	25.164	0.532
648.000	401.272	80.008	19.995	103.328	19.435	25.792	0.525
648.500	401.505	80.006	19.995	103.334	19.428	26.266	0.482
649.000	401.776	80.007	19.994	103.338	19.422	26.641	0.482
649.500	402.014	80.007	19.994	103.340	19.418	26.908	0.507
650.000	402.283	80.006	19.996	103.341	19.408	27.572	0.508
650.500	402.524	80.009	19.994	103.346	19.402	28.004	0.509
651.000	402.787	80.007	19.994	103.346	19.395	28.459	0.507
651.500	403.019	80.007	19.995	103.346	19.386	29.091	0.499
652.000	403.273	80.006	19.995	103.347	19.376	29.768	0.490
652.500	403.540	80.006	19.994	103.345	19.374	29.935	0.503
653.000	403.801	80.006	19.994	103.346	19.365	30.531	0.525
653.500	404.045	80.007	19.995	103.349	19.357	31.084	0.517
654.000	404.311	80.007	19.995	103.353	19.349	31.608	0.507
654.500	404.572	80.006	19.994	103.354	19.342	32.077	0.518
655.000	404.805	80.006	19.995	103.352	19.333	32.689	0.511
655.500	405.080	80.006	19.995	103.346	19.326	33.174	0.501
656.000	405.324	80.006	19.995	103.345	19.321	33.506	0.513
656.500	405.625	80.007	19.995	103.344	19.317	33.795	0.532
657.000	405.867	80.007	19.995	103.345	19.311	34.226	0.544
657.500	406.146	80.007	19.995	103.345	19.303	34.713	0.532
658.000	406.397	80.006	19.995	103.345	19.299	35.045	0.525
658.500	406.656	80.006	19.995	103.339	19.291	35.554	0.520
659.000	406.903	80.008	19.995	103.339	19.288	35.772	0.508
659.500	407.146	80.006	19.994	103.341	19.279	36.352	0.498
660.000	407.418	80.006	19.995	103.350	19.273	36.813	0.503
660.500	407.720	80.006	19.996	103.356	19.264	37.407	0.545
661.000	407.911	80.007	19.995	103.362	19.260	37.656	0.533
661.500	408.176	80.009	19.995	103.361	19.254	38.071	0.474
662.000	408.427	80.007	19.996	103.367	19.249	38.436	0.486
662.500	408.681	80.009	19.996	103.369	19.243	38.860	0.511
663.000	408.982	80.008	19.996	103.375	19.235	39.371	0.530
663.500	409.219	80.008	19.995	103.382	19.227	39.950	0.547
664.000	409.457	80.008	19.996	103.391	19.220	40.407	0.507
664.500	409.746	80.008	19.995	103.395	19.213	40.888	0.501
665.000	410.012	80.008	19.995	103.401	19.203	41.580	0.541
665.500	410.216	80.008	19.995	103.408	19.195	42.090	0.512
666.000	410.475	80.009	19.994	103.417	19.187	42.661	0.466
666.500	410.772	80.009	19.995	103.421	19.178	43.247	0.510
667.000	411.021	80.008	19.994	103.429	19.170	43.821	0.551
667.500	411.283	80.009	19.996	103.434	19.157	44.690	0.528
668.000	411.498	80.008	19.996	103.435	19.148	45.272	0.494
668.500	411.772	80.008	19.996	103.435	19.138	45.961	0.483
669.000	412.050	80.008	19.996	103.443	19.127	46.694	0.520
669.500	412.259	80.008	19.995	103.451	19.118	47.316	0.519
670.000	412.512	80.009	19.996	103.457	19.108	48.011	0.475
670.500	412.763	80.009	19.996	103.466	19.096	48.785	0.483
671.000	413.055	80.009	19.994	103.474	19.084	49.645	0.523
671.500	413.322	80.008	19.995	103.475	19.067	50.766	0.551
672.000	413.576	80.008	19.995	103.472	19.060	51.271	0.540
672.500	413.832	80.009	19.996	103.473	19.045	52.341	0.516
673.000	414.082	80.009	19.996	103.479	19.034	53.044	0.509
673.500	414.319	80.007	19.995	103.487	19.020	53.989	0.496
674.000	414.603	80.007	19.995	103.487	19.006	54.954	0.503
674.500	414.807	80.008	19.994	103.490	18.997	55.594	0.504
675.000	415.053	80.008	19.996	103.495	18.984	56.489	0.469
675.500	415.336	80.008	19.996	103.496	18.973	57.221	0.490
676.000	415.549	80.008	19.996	103.495	18.962	57.941	0.513
676.500	415.867	80.009	19.996	103.502	18.948	58.898	0.513
677.000	416.089	80.008	19.996	103.504	18.939	59.537	0.535
677.500	416.332	80.008	19.996	103.508	18.925	60.491	0.503
678.000	416.597	80.008	19.996	103.508	18.913	61.268	0.487
678.500	416.812	80.008	19.996	103.509	18.901	62.119	0.494
679.000	417.072	80.008	19.995	103.511	18.888	62.975	0.477
679.500	417.310	80.008	19.995	103.516	18.875	63.853	0.486
680.000	417.604	80.009	19.995	103.516	18.860	64.906	0.515
680.500	417.865	80.007	19.995	103.517	18.843	66.017	0.543
681.000	418.142	80.009	19.996	103.517	18.826	67.207	0.546
681.500	418.364	80.009	19.995	103.523	18.808	68.439	0.518
682.000	418.637	80.008	19.995	103.532	18.787	69.868	0.497
682.500	418.859	80.009	19.995	103.549	18.773	70.887	0.495
683.000	419.148	80.009	19.994	103.574	18.756	71.997	0.503
683.500	419.383	80.008	19.994	103.593	18.738	73.268	0.517
684.000	419.620	80.009	19.994	103.601	18.721	74.472	0.498
684.500	419.889	80.008	19.994	103.610	18.705	75.554	0.489
685.000	420.153	80.009	19.994	103.614	18.692	76.470	0.519
685.500	420.419	80.009	19.994	103.610	18.676	77.603	0.532
686.000	420.655	80.010	19.994	103.606	18.661	78.613	0.516
686.500	420.912	80.009	19.994	103.606	18.646	79.688	0.497
687.000	421.144	80.009	19.995	103.605	18.631	80.700	0.491
687.500	421.427	80.009	19.993	103.605	18.620	81.440	0.502
688.000	421.667	80.009	19.994	103.606	18.602	82.604	0.519
688.500	421.949	80.009	19.994	103.610	18.590	83.384	0.522
689.000	422.181	80.009	19.994	103.611	18.575	84.434	0.518
689.500	422.420	80.009	19.995	103.611	18.563	85.191	0.492
690.000	422.656	80.011	19.994	103.607	18.550	86.051	0.473
690.500	422.947	80.010	19.994	103.605	18.537	86.903	0.501
691.000	423.209	80.010	19.994	103.610	18.523	87.814	0.540
691.500	423.412	80.011	19.993	103.622	18.508	88.781	0.509
692.000	423.687	80.011	19.994	103.638	18.488	90.153	0.472
692.500	423.947	80.010	19.994	103.659	18.466	91.599	0.506
693.000	424.175	80.010	19.994	103.680	18.442	93.275	0.511
693.500	424.402	80.011	19.994	103.703	18.407	95.624	0.472
694.000	424.707	80.010	19.994	103.725	18.369	98.284	0.494
694.500	424.898	80.011	19.994	103.752	18.326	101.287	0.514
695.000	425.162	80.010	19.994	103.780	18.282	104.322	0.476
695.500	425.453	80.010	19.993	103.811	18.241	107.234	0.505
696.000	425.684	80.010	19.993	103.855	18.204	109.789	0.538
696.500	425.971	80.011	19.993	103.904	18.169	112.257	0.520
697.000	426.188	80.010	19.994	103.924	18.138	114.398	0.511
697.500	426.468	80.009	19.994	103.925	18.111	116.221	0.501
698.000	426.700	80.009	19.994	103.923	18.088	117.793	0.505
698.500	426.935	80.008	19.994	103.901	18.066	119.306	0.490
699.000	427.229	80.010	19.994	103.862	18.044	120.794	0.498
699.500	427.440	80.009	19.995	103.836	18.030	121.681	0.517
700.000	427.712	80.008	19.995	103.806	18.015	122.710	0.494
700.500	427.900	80.008	19.994	103.768	18.007	123.255	0.471
701.000	428.184	80.008	19.994	103.722	17.993	124.165	0.466
701.500	428.411	80.006	19.993	103.684	17.980	124.988	0.492
702.000	428.665	80.007	19.994	103.653	17.968	125.840	0.496
702.500	428.918	80.007	19.993	103.627	17.957	126.519	0.494
703.000	429.157	80.006	19.995	103.599	17.943	127.482	0.499
703.500	429.433	80.007	19.994	103.580	17.936	127.944	0.503
704.000	429.655	80.008	19.995	103.578	17.922	128.929	0.506
704.500	429.904	80.007	19.995	103.601	17.904	130.165	0.484
705.000	430.197	80.007	19.995	103.652	17.888	131.284	0.507
705.500	430.436	80.007	19.994	103.728	17.867	132.749	0.537
706.000	430.681	80.006	19.994	103.818	17.853	133.743	0.508
706.500	430.922	80.007	19.993	103.904	17.830	135.329	0.485
707.000	431.189	80.007	19.994	103.970	17.817	136.239	0.497
707.500	431.480	80.007	19.993	104.014	17.801	137.350	0.533
708.000	431.750	80.006	19.994	104.042	17.784	138.544	0.560
708.500	431.988	80.007	19.994	104.051	17.774	139.205	0.535
709.000	432.182	80.006	19.994	104.045	17.759	140.238	0.470
709.500	432.491	80.006	19.995	104.030	17.747	141.079	0.467
710.000	432.715	80.008	19.994	104.018	17.737	141.731	0.518
710.500	433.006	80.006	19.994	103.999	17.730	142.264	0.525
711.000	433.217	80.008	19.993	103.978	17.722	142.806	0.508
711.500	433.501	80.007	19.994	103.955	17.713	143.363	0.498
712.000	433.781	80.008	19.993	103.938	17.707	143.816	0.530
712.500	433.986	80.009	19.995	103.918	17.703	144.080	0.525
713.000	434.234	80.007	19.994	103.901	17.694	144.681	0.469
713.500	434.586	80.007	19.994	103.882	17.685	145.298	0.526
714.000	434.730	80.009	19.994	103.869	17.675	145.975	0.548
714.500	435.081	80.007	19.994	103.862	17.666	146.558	0.495
715.000	435.344	80.008	19.993	103.868	17.660	146.968	0.554
715.500	435.499	80.008	19.993	103.888	17.649	147.733	0.516
716.000	435.806	80.008	19.994	103.919	17.642	148.214	0.440
716.500	436.102	80.009	19.994	103.948	17.626	149.301	0.533
717.000	436.257	80.007	19.993	103.976	17.621	149.662	0.527
717.500	436.592	80.008	19.994	103.998	17.613	150.243	0.470
718.000	436.877	80.008	19.994	104.011	17.598	151.236	0.555
718.500	437.101	80.008	19.994	104.022	17.581	152.382	0.564
719.000	437.406	80.009	19.995	104.037	17.570	153.135	0.519
719.500	437.686	80.008	19.994	104.043	17.561	153.796	0.558
720.000	437.874	80.008	19.995	104.050	17.545	154.862	0.527
720.500	438.070	80.008	19.993	104.055	17.537	155.401	0.426
721.000	438.413	80.009	19.994	104.055	17.529	155.951	0.461
721.500	438.615	80.009	19.994	104.051	17.522	156.431	0.542
722.000	438.838	80.008	19.993	104.053	17.509	157.337	0.485
722.500	439.128	80.008	19.994	104.050	17.492	158.469	0.469
723.000	439.373	80.007	19.994	104.044	17.492	158.474	0.524
723.500	439.574	80.006	19.994	104.039	17.476	159.599	0.490
724.000	439.874	80.007	19.993	104.034	17.460	160.653	0.474
724.500	440.186	80.007	19.993	104.029	17.455	161.000	0.557
725.000	440.343	80.008	19.995	104.024	17.446	161.664	0.540
725.500	440.786	80.009	19.994	104.024	17.435	162.369	0.534
726.000	440.823	80.008	19.995	104.027	17.424	163.112	0.540
726.500	441.233	80.009	19.994	104.036	17.417	163.597	0.463
727.000	441.504	80.009	19.994	104.043	17.403	164.581	0.564
727.500	441.672	80.009	19.994	104.051	17.398	164.914	0.561
728.000	441.887	80.007	19.994	104.058	17.387	165.657	0.411
728.500	442.069	80.007	19.994	104.063	17.378	166.283	0.390
729.000	442.461	80.008	19.994	104.065	17.371	166.793	0.486
729.500	442.658	80.009	19.995	104.065	17.363	167.279	0.582
730.000	443.153	80.008	19.995	104.065	17.353	167.951	0.640
730.500	443.169	80.008	19.994	104.064	17.352	168.014	0.601
731.000	443.723	80.008	19.994	104.068	17.343	168.649	0.540
731.500	443.848	80.007	19.994	104.070	17.338	168.999	0.625
732.000	443.861	80.005	19.995	104.070	17.335	169.174	0.409
732.500	443.903	80.006	19.995	104.071	17.328	169.646	0.097
733.000	444.099	80.006	19.995	104.072	17.323	170.029	0.147
733.500	444.384	80.006	19.995	104.069	17.317	170.407	0.360
734.000	444.616	80.007	19.994	104.067	17.314	170.599	0.499
734.500	445.144	80.007	19.994	104.071	17.310	170.840	0.638
735.000	445.248	80.006	19.995	104.072	17.307	171.034	0.696
735.500	446.071	80.007	19.996	104.076	17.309	170.947	0.779
736.000	445.857	80.007	19.994	104.077	17.308	171.018	0.768
736.500	446.226	80.007	19.995	104.079	17.308	171.000	0.382
737.000	446.547	80.007	19.996	104.076	17.305	171.153	0.422
737.500	446.969	80.008	19.996	104.078	17.309	170.905	0.717
738.000	446.629	80.006	19.995	104.076	17.312	170.667	0.413
738.500	447.294	80.006	19.995	104.082	17.314	170.530	0.203
739.000	447.566	80.007	19.996	104.086	17.320	170.139	0.630
739.500	447.564	80.007	19.996	104.087	17.322	169.995	0.604
740.000	448.055	80.008	19.995	104.085	17.326	169.666	0.380
740.500	448.274	80.007	19.995	104.083	17.338	168.885	0.600
741.000	448.449	80.007	19.994	104.076	17.341	168.645	0.552
741.500	448.788	80.009	19.996	104.069	17.348	168.184	0.454
742.000	449.054	80.007	19.995	104.066	17.352	167.861	0.559
742.500	449.246	80.009	19.995	104.065	17.366	166.886	0.532
743.000	449.562	80.008	19.995	104.064	17.374	166.346	0.483
743.500	449.742	80.008	19.995	104.063	17.383	165.713	0.502
744.000	449.992	80.009	19.995	104.061	17.396	164.819	0.463
744.500	450.414	80.008	19.995	104.058	17.406	164.125	0.551
745.000	450.489	80.009	19.995	104.054	17.420	163.193	0.584
745.500	450.771	80.008	19.995	104.047	17.431	162.394	0.427
746.000	451.151	80.009	19.995	104.043	17.448	161.275	0.509
746.500	451.215	80.010	19.995	104.040	17.465	160.094	0.553
747.000	451.533	80.009	19.994	104.037	17.478	159.160	0.413
747.500	451.792	80.009	19.994	104.032	17.493	158.144	0.480
748.000	452.105	80.008	19.994	104.031	17.509	157.005	0.574
748.500	452.289	80.010	19.994	104.027	17.528	155.689	0.534
749.000	452.498	80.010	19.994	104.019	17.547	154.384	0.445
749.500	452.844	80.008	19.995	104.012	17.565	153.150	0.474
750.000	453.015	80.007	19.994	104.005	17.584	151.865	0.536
750.500	453.268	80.009	19.994	103.998	17.608	150.196	0.471
751.000	453.545	80.009	19.994	103.991	17.628	148.833	0.477
751.500	453.804	80.009	19.994	103.989	17.651	147.247	0.533
752.000	454.081	80.009	19.994	103.986	17.675	145.630	0.536
752.500	454.285	80.008	19.994	103.979	17.700	143.931	0.509
753.000	454.592	80.008	19.994	103.970	17.718	142.694	0.496
753.500	454.826	80.008	19.995	103.962	17.746	140.751	0.526
754.000	455.035	80.007	19.994	103.954	17.773	138.901	0.492
754.500	455.349	80.008	19.996	103.947	17.798	137.211	0.483
755.000	455.592	80.008	19.994	103.945	17.823	135.497	0.540
755.500	455.838	80.008	19.995	103.938	17.849	133.697	0.523
756.000	456.076	80.007	19.994	103.930	17.877	131.768	0.487
756.500	456.336	80.008	19.994	103.923	17.907	129.747	0.491
757.000	456.605	80.006	19.994	103.911	17.932	128.050	0.513
757.500	456.828	80.007	19.994	103.897	17.961	126.041	0.510
758.000	457.055	80.007	19.996	103.889	17.989	124.105	0.471
758.500	457.358	80.007	19.994	103.880	18.019	122.104	0.490
759.000	457.540	80.007	19.995	103.869	18.046	120.224	0.508
759.500	457.842	80.008	19.994	103.859	18.073	118.365	0.484
760.000	458.030	80.010	19.995	103.850	18.108	115.971	0.487
760.500	458.342	80.007	19.995	103.840	18.133	114.280	0.495
761.000	458.645	80.008	19.997	103.826	18.165	112.126	0.558
761.500	458.833	80.006	19.995	103.814	18.194	110.160	0.553
762.000	459.089	80.005	19.995	103.806	18.225	107.999	0.467
762.500	459.374	80.008	19.995	103.797	18.255	105.966	0.492
763.000	459.586	80.008	19.995	103.790	18.286	103.831	0.520
763.500	459.860	80.008	19.995	103.784	18.317	101.737	0.492
764.000	460.120	80.006	19.996	103.776	18.353	99.304	0.510
764.500	460.355	80.007	19.995	103.767	18.384	97.177	0.514
765.000	460.599	80.008	19.995	103.759	18.413	95.184	0.487
765.500	460.834	80.007	19.996	103.749	18.447	92.863	0.479
766.000	461.122	80.008	19.996	103.738	18.484	90.374	0.501
766.500	461.377	80.008	19.996	103.730	18.517	88.124	0.533
767.000	461.603	80.007	19.994	103.723	18.552	85.777	0.512
767.500	461.889	80.008	19.994	103.716	18.584	83.543	0.496
768.000	462.129	80.008	19.994	103.703	18.616	81.421	0.519
768.500	462.392	80.008	19.996	103.695	18.646	79.318	0.515
769.000	462.687	80.008	19.994	103.685	18.678	77.151	0.531
769.500	462.881	80.008	19.995	103.673	18.707	75.181	0.523
770.000	463.166	80.008	19.995	103.659	18.738	73.088	0.484
770.500	463.423	80.008	19.995	103.651	18.769	70.967	0.511
771.000	463.676	80.008	19.994	103.644	18.798	69.033	0.526
771.500	463.930	80.007	19.994	103.636	18.827	67.022	0.508
772.000	464.175	80.009	19.995	103.629	18.854	65.172	0.503
772.500	464.430	80.010	19.995	103.626	18.881	63.397	0.500
773.000	464.700	80.010	19.995	103.619	18.909	61.455	0.513
773.500	464.926	80.010	19.994	103.612	18.935	59.722	0.511
774.000	465.153	80.009	19.994	103.605	18.958	58.102	0.475
774.500	465.434	80.009	19.993	103.598	18.985	56.259	0.480
775.000	465.705	80.010	19.994	103.591	19.007	54.801	0.530
775.500	465.883	80.009	19.994	103.584	19.031	53.177	0.500
776.000	466.212	80.011	19.993	103.576	19.052	51.746	0.477
776.500	466.463	80.009	19.994	103.567	19.076	50.137	0.543
777.000	466.718	80.010	19.994	103.561	19.099	48.573	0.543
777.500	466.978	80.010	19.994	103.547	19.115	47.486	0.510
778.000	467.189	80.010	19.994	103.539	19.138	45.933	0.493
778.500	467.491	80.010	19.994	103.531	19.156	44.698	0.492
779.000	467.687	80.009	19.994	103.524	19.175	43.415	0.506
779.500	467.973	80.010	19.993	103.514	19.191	42.302	0.490
780.000	468.180	80.009	19.995	103.508	19.212	40.904	0.487
780.500	468.511	80.010	19.994	103.500	19.229	39.712	0.516
781.000	468.719	80.008	19.994	103.492	19.243	38.774	0.539
781.500	468.979	80.009	19.994	103.485	19.261	37.556	0.504
782.000	469.249	80.009	19.995	103.478	19.279	36.313	0.499
782.500	469.493	80.007	19.994	103.469	19.292	35.469	0.522
783.000	469.772	80.007	19.994	103.460	19.305	34.608	0.518
783.500	470.031	80.008	19.994	103.452	19.317	33.735	0.531
784.000	470.256	80.007	19.994	103.443	19.331	32.801	0.512
784.500	470.532	80.007	19.994	103.434	19.348	31.630	0.492
785.000	470.793	80.007	19.994	103.424	19.359	30.930	0.519
785.500	471.061	80.008	19.995	103.417	19.371	30.105	0.533
786.000	471.338	80.008	19.994	103.408	19.383	29.254	0.537
786.500	471.531	80.008	19.994	103.401	19.389	28.875	0.508
787.000	471.863	80.008	19.994	103.398	19.404	27.870	0.497
787.500	472.080	80.009	19.994	103.398	19.416	27.078	0.537
788.000	472.350	80.008	19.994	103.392	19.426	26.399	0.518
788.500	472.619	80.008	19.994	103.385	19.437	25.629	0.513
789.000	472.882	80.006	19.994	103.378	19.447	24.959	0.536
789.500	473.126	80.008	19.995	103.370	19.460	24.052	0.519
790.000	473.379	80.006	19.994	103.362	19.466	23.639	0.502
790.500	473.616	80.008	19.994	103.360	19.478	22.855	0.494
791.000	473.904	80.008	19.996	103.360	19.489	22.110	0.508
791.500	474.187	80.009	19.995	103.357	19.495	21.672	0.548
792.000	474.417	80.008	19.994	103.352	19.506	20.942	0.542
792.500	474.698	80.007	19.995	103.351	19.514	20.388	0.512
793.000	474.981	80.006	19.994	103.346	19.523	19.815	0.538
793.500	475.214	80.007	19.995	103.343	19.531	19.277	0.540
794.000	475.499	80.007	19.995	103.341	19.537	18.859	0.517
794.500	475.725	80.008	19.992	103.343	19.549	18.047	0.515
795.000	475.980	80.008	19.996	103.337	19.555	17.610	0.496
795.500	476.263	80.008	19.995	103.335	19.559	17.330	0.509
796.000	476.488	80.008	19.995	103.331	19.567	16.846	0.523
796.500	476.784	80.008	19.995	103.327	19.575	16.257	0.515
797.000	477.005	80.008	19.994	103.323	19.579	15.988	0.519
797.500	477.270	80.009	19.994	103.321	19.588	15.391	0.501
798.000	477.516	80.009	19.995	103.321	19.592	15.128	0.498
798.500	477.830	80.009	19.994	103.319	19.599	14.625	0.535
799.000	478.046	80.007	19.995	103.319	19.606	14.171	0.545
799.500	478.273	80.008	19.994	103.317	19.611	13.822	0.487
800.000	478.545	80.008	19.994	103.314	19.616	13.470	0.471
800.500	478.795	80.008	19.995	103.308	19.624	12.948	0.511
801.000	479.058	80.009	19.994	103.302	19.631	12.463	0.517
801.500	479.297	80.008	19.994	103.297	19.637	12.104	0.507
802.000	479.546	80.008	19.994	103.295	19.639	11.949	0.495
802.500	479.816	80.009	19.994	103.297	19.649	11.278	0.504
803.000	480.091	80.008	19.995	103.297	19.649	11.241	0.532
803.500	480.319	80.006	19.995	103.297	19.652	11.038	0.524
804.000	480.558	80.008	19.994	103.295	19.657	10.729	0.485
804.500	480.812	80.009	19.995	103.291	19.664	10.245	0.480
805.000	481.092	80.007	19.994	103.284	19.669	9.942	0.514
805.500	481.332	80.008	19.994	103.283	19.668	9.949	0.527
806.000	481.587	80.008	19.994	103.283	19.678	9.306	0.508
806.500	481.842	80.008	19.994	103.283	19.679	9.253	0.502
807.000	482.140	80.008	19.994	103.283	19.681	9.070	0.531
807.500	482.384	80.008	19.993	103.282	19.683	8.956	0.547
808.000	482.619	80.008	19.995	103.281	19.692	8.379	0.510
808.500	482.901	80.008	19.995	103.278	19.693	8.304	0.498
809.000	483.143	80.008	19.994	103.278	19.695	8.165	0.520
809.500	483.374	80.009	19.993	103.278	19.700	7.808	0.498
810.000	483.635	80.007	19.994	103.277	19.703	7.596	0.482
810.500	483.903	80.008	19.994	103.272	19.706	7.428	0.511
811.000	484.131	80.007	19.993	103.270	19.710	7.167	0.513
811.500	484.395	80.007	19.994	103.263	19.711	7.041	0.494
812.000	484.636	80.007	19.993	103.256	19.716	6.737	0.499
812.500	484.866	80.008	19.993	103.252	19.719	6.560	0.488
813.000	485.148	80.007	19.995	103.252	19.722	6.309	0.491
813.500	485.420	80.007	19.994	103.250	19.725	6.124	0.533
814.000	485.651	80.007	19.994	103.249	19.728	5.928	0.529
814.500	485.887	80.007	19.995	103.249	19.731	5.700	0.485
815.000	486.120	80.007	19.994	103.249	19.733	5.561	0.468
815.500	486.406	80.005	19.993	103.248	19.737	5.338	0.493
816.000	486.690	80.006	19.993	103.249	19.735	5.435	0.544
816.500	486.940	80.007	19.994	103.249	19.740	5.121	0.552
817.000	487.205	80.006	19.993	103.249	19.743	4.896	0.524
817.500	487.417	80.008	19.995	103.249	19.741	5.029	0.496
818.000	487.658	80.007	19.994	103.249	19.745	4.783	0.465
818.500	487.918	80.006	19.994	103.248	19.747	4.602	0.477
819.000	488.197	80.007	19.995	103.248	19.751	4.329	0.519
819.500	488.392	80.006	19.994	103.247	19.750	4.430	0.506
820.000	488.686	80.007	19.994	103.247	19.751	4.349	0.482
820.500	488.910	80.006	19.995	103.246	19.756	4.055	0.504
821.000	489.195	80.007	19.994	103.246	19.758	3.881	0.513
821.500	489.470	80.007	19.994	103.245	19.755	4.119	0.534
822.000	489.659	80.006	19.994	103.246	19.761	3.715	0.512
822.500	489.939	80.006	19.994	103.246	19.762	3.631	0.467
823.000	490.211	80.007	19.994	103.245	19.765	3.412	0.511
823.500	490.472	80.007	19.995	103.243	19.766	3.366	0.542
824.000	490.718	80.007	19.994	103.236	19.765	3.420	0.520
824.500	490.985	80.006	19.995	103.230	19.768	3.179	0.510
825.000	491.241	80.008	19.995	103.228	19.767	3.287	0.518
825.500	491.472	80.008	19.996	103.227	19.774	2.817	0.505
826.000	491.770	80.008	19.993	103.222	19.775	2.732	0.508
826.500	492.052	80.007	19.995	103.224	19.774	2.794	0.555
827.000	492.236	80.008	19.995	103.227	19.778	2.527	0.523
827.500	492.503	80.007	19.995	103.227	19.778	2.525	0.458
828.000	492.741	80.008	19.994	103.225	19.778	2.505	0.478
828.500	493.053	80.008	19.996	103.228	19.778	2.554	0.527
829.000	493.247	80.008	19.995	103.228	19.780	2.404	0.528
829.500	493.501	80.009	19.995	103.227	19.782	2.262	0.477
830.000	493.810	80.008	19.995	103.224	19.780	2.375	0.506
830.500	494.048	80.008	19.995	103.224	19.784	2.110	0.555
831.000	494.282	80.008	19.995	103.221	19.786	2.021	0.509
831.500	494.571	80.008	19.995	103.219	19.784	2.098	0.497
832.000	494.828	80.008	19.995	103.220	19.788	1.844	0.534
832.500	495.088	80.009	19.994	103.220	19.785	2.065	0.531
833.000	495.324	80.008	19.994	103.218	19.790	1.741	0.507
833.500	495.578	80.009	19.994	103.218	19.791	1.644	0.493
834.000	495.830	80.009	19.994	103.216	19.789	1.756	0.498
834.500	496.087	80.009	19.994	103.212	19.790	1.714	0.508
835.000	496.315	80.009	19.995	103.209	19.791	1.677	0.497
835.500	496.572	80.007	19.995	103.208	19.789	1.796	0.485
836.000	496.845	80.009	19.994	103.207	19.792	1.606	0.507
836.500	497.086	80.008	19.995	103.208	19.797	1.277	0.522
837.000	497.332	80.008	19.995	103.208	19.797	1.253	0.501
837.500	497.614	80.008	19.994	103.208	19.796	1.308	0.507
838.000	497.841	80.008	19.995	103.208	19.799	1.096	0.518
838.500	498.096	80.007	19.995	103.209	19.801	0.981	0.496
839.000	498.376	80.007	19.994	103.208	19.802	0.917	0.509
839.500	498.565	80.007	19.993	103.205	19.804	0.769	0.502
840.000	498.829	80.008	19.995	103.205	19.804	0.802	0.461
840.500	499.095	80.008	19.994	103.205	19.808	0.513	0.492
841.000	499.341	80.007	19.995	103.205	19.805	0.722	0.521
841.500	499.604	80.007	19.995	103.207	19.806	0.619	0.511
842.000	499.840	80.009	19.994	103.210	19.808	0.530	0.504
842.500	500.101	80.008	19.995	103.210	19.807	0.596	0.498
843.000	500.334	80.007	19.994	103.210	19.810	0.369	0.496
843.500	500.581	80.008	19.994	103.210	19.809	0.438	0.487
844.000	500.850	80.008	19.994	103.208	19.808	0.480	0.498
844.500	501.129	80.009	19.996	103.207	19.806	0.639	0.532
845.000	501.358	80.009	19.994	103.207	19.806	0.607	0.527
845.500	501.603	80.009	19.995	103.206	19.809	0.406	0.491
846.000	501.880	80.009	19.996	103.206	19.810	0.354	0.498
846.500	502.085	80.008	19.995	103.203	19.810	0.364	0.502
847.000	502.388	80.009	19.995	103.201	19.811	0.318	0.495
847.500	502.635	80.008	19.995	103.198	19.811	0.314	0.529
848.000	502.848	80.008	19.995	103.196	19.814	0.113	0.505
848.500	503.116	80.009	19.995	103.191	19.815	0.038	0.471
849.000	503.361	80.009	19.994	103.192	19.813	0.139	0.497
849.500	503.650	80.008	19.994	103.189	19.816	-0.060	0.523
850.000	503.884	80.009	19.995	103.191	19.816	-0.007	0.529
850.500	504.145	80.009	19.994	103.189	19.816	-0.042	0.509
851.000	504.422	80.009	19.995	103.190	19.811	0.329	0.517
851.500	504.663	80.009	19.994	103.191	19.811	0.320	0.528
852.000	504.930	80.009	19.995	103.195	19.814	0.090	0.512
852.500	505.175	80.010	19.996	103.196	19.811	0.285	0.510
853.000	505.479	80.009	19.994	103.197	19.813	0.144	0.531
853.500	505.692	80.009	19.994	103.195	19.818	-0.166	0.533
854.000	505.965	80.009	19.994	103.192	19.812	0.219	0.501
854.500	506.260	80.009	19.995	103.191	19.811	0.331	0.527
855.000	506.520	80.009	19.996	103.191	19.815	0.038	0.562
855.500	506.753	80.010	19.996	103.194	19.817	-0.106	0.524
856.000	506.999	80.009	19.996	103.198	19.815	0.013	0.486
856.500	507.280	80.009	19.996	103.195	19.814	0.132	0.503
857.000	507.550	80.009	19.996	103.194	19.815	0.007	0.539
857.500	507.773	80.010	19.995	103.193	19.815	0.047	0.522
858.000	508.017	80.009	19.995	103.192	19.815	0.026	0.480
858.500	508.274	80.010	19.995	103.192	19.817	-0.130	0.484
859.000	508.521	80.008	19.995	103.197	19.818	-0.174	0.502
859.500	508.799	80.008	19.996	103.194	19.818	-0.183	0.514
860.000	509.099	80.008	19.994	103.193	19.818	-0.164	0.551
860.500	509.353	80.008	19.994	103.192	19.820	-0.290	0.566
861.000	509.609	80.008	19.996	103.192	19.818	-0.166	0.532
861.500	509.852	80.008	19.995	103.191	19.818	-0.139	0.504
862.000	510.111	80.007	19.996	103.192	19.816	-0.057	0.501
862.500	510.368	80.008	19.995	103.191	19.819	-0.223	0.509
863.000	510.613	80.007	19.995	103.192	19.818	-0.159	0.509
863.500	510.869	80.006	19.996	103.194	19.822	-0.415	0.502
864.000	511.124	80.008	19.995	103.196	19.820	-0.287	0.506
864.500	511.327	80.009	19.996	103.198	19.820	-0.274	0.484
865.000	511.599	80.008	19.996	103.200	19.824	-0.590	0.467
865.500	511.834	80.006	19.994	103.196	19.822	-0.460	0.491
866.000	512.096	80.008	19.995	103.190	19.818	-0.183	0.502
866.500	512.342	80.009	19.995	103.184	19.823	-0.491	0.503
867.000	512.597	80.007	19.994	103.182	19.817	-0.124	0.505
867.500	512.877	80.007	19.995	103.178	19.816	-0.009	0.518
868.000	513.116	80.009	19.994	103.183	19.819	-0.267	0.527
868.500	513.349	80.007	19.994	103.183	19.822	-0.415	0.495
869.000	513.629	80.008	19.994	103.182	19.819	-0.263	0.492
869.500	513.899	80.007	19.996	103.177	19.819	-0.270	0.532
870.000	514.156	80.009	19.995	103.177	19.821	-0.380	0.539
870.500	514.423	80.008	19.994	103.173	19.820	-0.311	0.526
871.000	514.677	80.008	19.994	103.172	19.820	-0.316	0.522
871.500	514.937	80.008	19.995	103.174	19.822	-0.462	0.518
872.000	515.198	80.007	19.994	103.175	19.823	-0.482	0.517
872.500	515.449	80.009	19.994	103.177	19.824	-0.563	0.516
873.000	515.706	80.008	19.995	103.176	19.822	-0.433	0.510
873.500	515.980	80.008	19.994	103.177	19.822	-0.426	0.519
874.000	516.252	80.007	19.994	103.176	19.823	-0.517	0.538
874.500	516.504	80.007	19.994	103.175	19.820	-0.309	0.535
875.000	516.784	80.007	19.994	103.172	19.823	-0.542	0.528
875.500	517.041	80.007	19.994	103.172	19.823	-0.541	0.535
876.000	517.277	80.007	19.993	103.172	19.823	-0.511	0.515
876.500	517.525	80.008	19.994	103.172	19.827	-0.767	0.488
877.000	517.827	80.008	19.994	103.172	19.824	-0.605	0.517
877.500	518.077	80.007	19.993	103.171	19.824	-0.605	0.551
878.000	518.324	80.008	19.995	103.171	19.826	-0.736	0.524
878.500	518.559	80.008	19.994	103.170	19.827	-0.815	0.489
879.000	518.849	80.008	19.994	103.169	19.827	-0.751	0.504
879.500	519.119	80.007	19.993	103.169	19.825	-0.630	0.543
880.000	519.385	80.006	19.994	103.169	19.826	-0.720	0.548
880.500	519.628	80.008	19.994	103.171	19.827	-0.773	0.522
881.000	519.903	80.007	19.994	103.173	19.827	-0.760	0.513
881.500	520.116	80.007	19.994	103.177	19.825	-0.652	0.503
882.000	520.417	80.006	19.994	103.179	19.828	-0.868	0.501
882.500	520.667	80.007	19.994	103.179	19.826	-0.685	0.533
883.000	520.932	80.008	19.994	103.178	19.829	-0.933	0.533
883.500	521.139	80.008	19.995	103.176	19.830	-0.953	0.493
884.000	521.430	80.007	19.995	103.171	19.829	-0.891	0.485
884.500	521.688	80.007	19.994	103.169	19.829	-0.946	0.524
885.000	521.918	80.007	19.995	103.169	19.834	-1.244	0.519
885.500	522.201	80.007	19.994	103.169	19.830	-1.006	0.500
886.000	522.470	80.009	19.994	103.167	19.834	-1.247	0.532
886.500	522.756	80.006	19.995	103.167	19.831	-1.058	0.553
887.000	522.981	80.008	19.995	103.167	19.830	-0.953	0.533
887.500	523.261	80.009	19.996	103.168	19.832	-1.094	0.508
888.000	523.544	80.007	19.994	103.168	19.834	-1.242	0.534
888.500	523.804	80.008	19.993	103.170	19.830	-0.952	0.554
889.000	524.063	80.007	19.994	103.170	19.832	-1.116	0.531
889.500	524.332	80.007	19.994	103.171	19.832	-1.096	0.523
890.000	524.572	80.007	19.995	103.169	19.831	-1.025	0.518
890.500	524.810	80.008	19.995	103.166	19.831	-1.074	0.493
891.000	525.128	80.008	19.995	103.165	19.833	-1.156	0.517
891.500	525.335	80.008	19.994	103.165	19.829	-0.939	0.541
892.000	525.622	80.008	19.994	103.165	19.829	-0.889	0.510
892.500	525.878	80.007	19.995	103.165	19.828	-0.829	0.519
893.000	526.142	80.006	19.994	103.169	19.833	-1.156	0.531
893.500	526.379	80.006	19.994	103.170	19.833	-1.204	0.511
894.000	526.648	80.007	19.994	103.170	19.831	-1.036	0.503
894.500	526.919	80.007	19.994	103.169	19.831	-1.030	0.523
895.000	527.139	80.006	19.995	103.170	19.830	-0.981	0.516
895.500	527.429	80.006	19.995	103.170	19.832	-1.131	0.500
896.000	527.683	80.006	19.994	103.170	19.829	-0.917	0.526
896.500	527.951	80.006	19.995	103.170	19.831	-1.036	0.533
897.000	528.223	80.007	19.994	103.170	19.831	-1.043	0.531
897.500	528.501	80.006	19.995	103.171	19.834	-1.251	0.545
898.000	528.760	80.006	19.995	103.171	19.834	-1.246	0.543
898.500	529.027	80.007	19.994	103.171	19.834	-1.227	0.532
899.000	529.282	80.006	19.994	103.171	19.836	-1.410	0.524
899.500	529.561	80.007	19.994	103.171	19.836	-1.412	0.528
900.000	529.791	80.008	19.993	103.169	19.835	-1.295	0.522
900.500	530.066	80.006	19.994	103.168	19.834	-1.282	0.507
901.000	530.349	80.007	19.993	103.169	19.833	-1.207	0.531
901.500	530.565	80.006	19.994	103.168	19.833	-1.174	0.529
902.000	530.803	80.007	19.994	103.168	19.833	-1.165	0.476
902.500	531.091	80.005	19.994	103.170	19.833	-1.162	0.490
903.000	531.362	80.007	19.995	103.170	19.831	-1.085	0.542
903.500	531.623	80.008	19.994	103.171	19.831	-1.081	0.545
904.000	531.850	80.007	19.995	103.173	19.828	-0.862	0.510
904.500	532.101	80.008	19.994	103.174	19.827	-0.789	0.483
905.000	532.376	80.007	19.995	103.173	19.830	-1.012	0.502
905.500	532.641	80.008	19.995	103.173	19.832	-1.110	0.533
906.000	532.884	80.008	19.994	103.172	19.830	-0.973	0.525
906.500	533.137	80.008	19.993	103.167	19.833	-1.171	0.502
907.000	533.384	80.009	19.995	103.163	19.833	-1.213	0.498
907.500	533.677	80.009	19.994	103.161	19.831	-1.041	0.520
908.000	533.924	80.008	19.995	103.161	19.834	-1.229	0.540
908.500	534.169	80.010	19.993	103.162	19.830	-0.984	0.516
909.000	534.458	80.010	19.994	103.165	19.831	-1.083	0.513
909.500	534.726	80.009	19.994	103.167	19.832	-1.132	0.545
910.000	534.964	80.009	19.994	103.169	19.831	-1.076	0.531
910.500	535.271	80.011	19.994	103.169	19.831	-1.083	0.526
911.000	535.493	80.009	19.995	103.168	19.832	-1.096	0.537
911.500	535.752	80.011	19.995	103.168	19.830	-0.990	0.505
912.000	536.007	80.010	19.995	103.168	19.835	-1.306	0.497
912.500	536.293	80.009	19.994	103.167	19.830	-1.010	0.528
913.000	536.565	80.011	19.994	103.167	19.833	-1.187	0.550
913.500	536.785	80.008	19.994	103.166	19.832	-1.090	0.525
914.000	537.016	80.009	19.994	103.166	19.832	-1.101	0.471
914.500	537.321	80.007	19.993	103.165	19.831	-1.041	0.493
915.000	537.581	80.009	19.996	103.164	19.833	-1.196	0.551
915.500	537.828	80.007	19.994	103.162	19.831	-1.076	0.537
916.000	538.070	80.009	19.996	103.162	19.830	-0.968	0.498
916.500	538.318	80.009	19.994	103.162	19.832	-1.143	0.489
917.000	538.586	80.007	19.995	103.163	19.831	-1.021	0.503
917.500	538.843	80.008	19.994	103.166	19.830	-0.963	0.520
918.000	539.090	80.007	19.994	103.168	19.834	-1.257	0.515
918.500	539.331	80.008	19.995	103.170	19.832	-1.130	0.496
919.000	539.594	80.008	19.995	103.172	19.833	-1.163	0.496
919.500	539.854	80.009	19.994	103.171	19.833	-1.187	0.513
920.000	540.143	80.008	19.995	103.168	19.832	-1.087	0.536
920.500	540.373	80.007	19.994	103.165	19.834	-1.284	0.534
921.000	540.635	80.007	19.996	103.163	19.834	-1.275	0.505
921.500	540.905	80.010	19.996	103.163	19.828	-0.853	0.512
922.000	541.181	80.007	19.996	103.163	19.834	-1.229	0.539
922.500	541.421	80.008	19.995	103.165	19.835	-1.319	0.531
923.000	541.700	80.008	19.995	103.168	19.837	-1.428	0.518
923.500	541.967	80.007	19.995	103.168	19.834	-1.242	0.532
924.000	542.224	80.008	19.995	103.166	19.831	-1.068	0.535
924.500	542.497	80.009	19.995	103.166	19.835	-1.309	0.527
925.000	542.786	80.009	19.995	103.166	19.832	-1.090	0.546
925.500	543.054	80.008	19.995	103.166	19.834	-1.244	0.559
926.000	543.276	80.007	19.995	103.166	19.835	-1.342	0.524
926.500	543.550	80.009	19.994	103.166	19.831	-1.079	0.493
927.000	543.802	80.010	19.994	103.166	19.833	-1.207	0.511
927.500	544.041	80.008	19.996	103.166	19.832	-1.123	0.508
928.000	544.304	80.010	19.996	103.166	19.836	-1.399	0.497
928.500	544.555	80.009	19.995	103.167	19.834	-1.288	0.508
929.000	544.811	80.008	19.995	103.166	19.834	-1.253	0.510
929.500	545.085	80.009	19.995	103.163	19.836	-1.403	0.519
930.000	545.345	80.008	19.994	103.161	19.833	-1.193	0.532
930.500	545.569	80.007	19.994	103.160	19.832	-1.123	0.509
931.000	545.894	80.011	19.995	103.159	19.839	-1.593	0.517
931.500	546.114	80.009	19.993	103.159	19.838	-1.519	0.547
932.000	546.353	80.010	19.994	103.160	19.837	-1.479	0.502
932.500	546.660	80.010	19.994	103.158	19.838	-1.536	0.503
933.000	546.907	80.010	19.995	103.158	19.836	-1.392	0.550
933.500	547.183	80.010	19.995	103.158	19.838	-1.505	0.538
934.000	547.439	80.009	19.995	103.159	19.835	-1.320	0.527
934.500	547.693	80.011	19.994	103.161	19.833	-1.167	0.521
935.000	547.967	80.010	19.995	103.164	19.833	-1.182	0.519
935.500	548.212	80.013	19.994	103.164	19.830	-0.990	0.523
936.000	548.492	80.010	19.994	103.162	19.832	-1.127	0.522
936.500	548.731	80.011	19.994	103.162	19.830	-1.014	0.522
937.000	548.999	80.010	19.995	103.160	19.832	-1.151	0.513
937.500	549.239	80.010	19.995	103.160	19.833	-1.171	0.508
938.000	549.520	80.009	19.993	103.161	19.832	-1.131	0.515
938.500	549.756	80.011	19.994	103.162	19.832	-1.125	0.519
939.000	550.009	80.010	19.994	103.162	19.830	-1.017	0.503
939.500	550.297	80.009	19.994	103.163	19.832	-1.125	0.515
940.000	550.534	80.010	19.994	103.164	19.833	-1.187	0.533
940.500	550.796	80.008	19.993	103.164	19.835	-1.304	0.511
941.000	551.042	80.010	19.993	103.163	19.835	-1.293	0.503
941.500	551.290	80.007	19.994	103.161	19.834	-1.256	0.501
942.000	551.553	80.010	19.995	103.162	19.836	-1.419	0.503
942.500	551.823	80.008	19.995	103.161	19.835	-1.333	0.522
943.000	552.073	80.008	19.996	103.157	19.831	-1.028	0.526
943.500	552.347	80.008	19.996	103.154	19.831	-1.043	0.521
944.000	552.589	80.006	19.994	103.154	19.833	-1.216	0.520
944.500	552.815	80.007	19.995	103.153	19.830	-1.001	0.492
945.000	553.108	80.007	19.995	103.152	19.831	-1.057	0.493
945.500	553.343	80.007	19.996	103.157	19.832	-1.145	0.524
946.000	553.645	80.006	19.996	103.161	19.833	-1.198	0.533
946.500	553.907	80.007	19.995	103.163	19.835	-1.322	0.551
947.000	554.132	80.008	19.995	103.164	19.835	-1.324	0.525
947.500	554.424	80.006	19.995	103.166	19.833	-1.191	0.502
948.000	554.630	80.008	19.994	103.166	19.834	-1.266	0.507
948.500	554.944	80.006	19.994	103.167	19.832	-1.105	0.509
949.000	555.189	80.006	19.994	103.168	19.834	-1.260	0.540
949.500	555.458	80.006	19.995	103.168	19.833	-1.202	0.537
950.000	555.673	80.006	19.995	103.164	19.835	-1.315	0.499
950.500	555.936	80.006	19.996	103.160	19.832	-1.098	0.481
951.000	556.203	80.008	19.995	103.158	19.834	-1.233	0.504
951.500	556.477	80.006	19.995	103.156	19.832	-1.112	0.536
952.000	556.721	80.005	19.995	103.156	19.829	-0.899	0.529
952.500	556.944	80.005	19.995	103.160	19.831	-1.067	0.493
953.000	557.205	80.011	19.994	103.162	19.834	-1.284	0.476
953.500	557.475	80.002	19.994	103.163	19.833	-1.167	0.507
954.000	557.735	80.007	19.995	103.164	19.831	-1.085	0.530
954.500	557.992	80.006	19.995	103.160	19.833	-1.158	0.524
955.000	558.249	80.005	19.995	103.155	19.834	-1.240	0.516
955.500	558.525	80.007	19.995	103.156	19.831	-1.085	0.523
956.000	558.779	80.008	19.995	103.156	19.833	-1.167	0.531
956.500	559.051	80.007	19.995	103.156	19.834	-1.255	0.528
957.000	559.277	80.006	19.993	103.161	19.834	-1.264	0.512
957.500	559.497	80.007	19.995	103.166	19.834	-1.256	0.472
958.000	559.825	80.007	19.994	103.164	19.833	-1.193	0.497
958.500	560.033	80.007	19.995	103.163	19.834	-1.278	0.542
959.000	560.338	80.007	19.995	103.163	19.831	-1.070	0.525
959.500	560.535	80.006	19.994	103.162	19.834	-1.268	0.508
960.000	560.817	80.007	19.993	103.161	19.833	-1.182	0.491
960.500	561.052	80.007	19.995	103.163	19.837	-1.478	0.498
961.000	561.353	80.009	19.994	103.165	19.834	-1.262	0.526
961.500	561.601	80.006	19.993	103.165	19.835	-1.308	0.542
962.000	561.844	80.006	19.995	103.167	19.840	-1.640	0.520
962.500	562.106	80.006	19.994	103.167	19.839	-1.576	0.498
963.000	562.357	80.006	19.994	103.166	19.837	-1.463	0.509
963.500	562.605	80.007	19.994	103.166	19.839	-1.576	0.506
964.000	562.822	80.006	19.994	103.165	19.838	-1.528	0.481
964.500	563.133	80.009	19.994	103.165	19.840	-1.673	0.496
965.000	563.374	80.007	19.995	103.167	19.836	-1.370	0.540
965.500	563.591	80.008	19.994	103.167	19.837	-1.437	0.505
966.000	563.844	80.008	19.993	103.164	19.837	-1.428	0.464
966.500	564.088	80.007	19.994	103.160	19.839	-1.622	0.484
967.000	564.345	80.006	19.993	103.159	19.836	-1.414	0.499
967.500	564.629	80.006	19.993	103.157	19.836	-1.412	0.521
968.000	564.866	80.007	19.994	103.158	19.833	-1.216	0.531
968.500	565.127	80.008	19.994	103.159	19.830	-0.999	0.510
969.000	565.370	80.007	19.994	103.165	19.835	-1.350	0.501
969.500	565.636	80.006	19.994	103.165	19.834	-1.278	0.507
970.000	565.895	80.007	19.994	103.168	19.830	-0.983	0.517
970.500	566.115	80.006	19.995	103.167	19.835	-1.337	0.501
971.000	566.398	80.007	19.994	103.169	19.835	-1.353	0.491
971.500	566.658	80.007	19.994	103.168	19.836	-1.410	0.524
972.000	566.878	80.009	19.995	103.166	19.835	-1.337	0.512
972.500	567.181	80.009	19.995	103.163	19.837	-1.463	0.501
973.000	567.432	80.006	19.993	103.157	19.838	-1.510	0.538
973.500	567.659	80.005	19.995	103.155	19.835	-1.313	0.516
974.000	567.948	80.007	19.994	103.154	19.839	-1.602	0.497
974.500	568.193	80.006	19.994	103.150	19.837	-1.481	0.525
975.000	568.434	80.007	19.996	103.149	19.838	-1.501	0.510
975.500	568.710	80.006	19.995	103.155	19.838	-1.550	0.501
976.000	568.962	80.006	19.996	103.157	19.836	-1.360	0.522
976.500	569.194	80.008	19.995	103.159	19.836	-1.368	0.506
977.000	569.472	80.008	19.996	103.164	19.836	-1.384	0.497
977.500	569.747	80.008	19.995	103.167	19.839	-1.602	0.532
978.000	569.953	80.008	19.996	103.167	19.839	-1.565	0.517
978.500	570.221	80.007	19.996	103.167	19.837	-1.488	0.477
979.000	570.512	80.008	19.995	103.167	19.837	-1.488	0.516
979.500	570.738	80.008	19.995	103.167	19.837	-1.432	0.538
980.000	570.971	80.006	19.995	103.165	19.838	-1.508	0.488
980.500	571.218	80.006	19.995	103.162	19.835	-1.324	0.470
981.000	571.478	80.007	19.995	103.161	19.836	-1.375	0.493
981.500	571.738	80.007	19.995	103.161	19.834	-1.276	0.513
982.000	571.996	80.007	19.995	103.160	19.835	-1.348	0.519
982.500	572.260	80.006	19.994	103.160	19.834	-1.265	0.520
983.000	572.517	80.006	19.995	103.161	19.840	-1.660	0.521
983.500	572.794	80.007	19.994	103.161	19.836	-1.411	0.528
984.000	573.033	80.007	19.994	103.160	19.837	-1.431	0.525
984.500	573.323	80.006	19.996	103.158	19.835	-1.324	0.522
985.000	573.572	80.006	19.995	103.158	19.838	-1.528	0.534
985.500	573.820	80.006	19.995	103.155	19.839	-1.581	0.518
986.000	574.110	80.006	19.995	103.151	19.836	-1.413	0.518
986.500	574.412	80.009	19.995	103.148	19.839	-1.581	0.565
987.000	574.633	80.011	19.995	103.148	19.836	-1.410	0.557
987.500	574.906	80.010	19.995	103.150	19.835	-1.298	0.509
988.000	575.134	80.007	19.994	103.153	19.836	-1.375	0.497
988.500	575.430	80.009	19.994	103.156	19.833	-1.160	0.512
989.000	575.696	80.009	19.994	103.158	19.838	-1.492	0.543
989.500	575.952	80.007	19.994	103.159	19.833	-1.204	0.542
990.000	576.173	80.007	19.996	103.158	19.836	-1.423	0.499
990.500	576.455	80.009	19.994	103.157	19.833	-1.182	0.490
991.000	576.686	80.010	19.994	103.158	19.835	-1.353	0.508
991.500	576.979	80.010	19.995	103.156	19.834	-1.240	0.518
992.000	577.235	80.010	19.995	103.155	19.835	-1.342	0.536
992.500	577.480	80.010	19.994	103.153	19.832	-1.092	0.525
993.000	577.759	80.008	19.994	103.150	19.833	-1.204	0.512
993.500	578.012	80.006	19.993	103.147	19.831	-1.061	0.528
994.000	578.275	80.009	19.994	103.145	19.835	-1.319	0.524
994.500	578.508	80.008	19.993	103.139	19.833	-1.205	0.506
995.000	578.773	80.009	19.994	103.138	19.833	-1.218	0.497
995.500	579.046	80.007	19.995	103.140	19.831	-1.024	0.518
996.000	579.294	80.007	19.994	103.143	19.830	-0.972	0.530
996.500	579.549	80.010	19.995	103.145	19.832	-1.116	0.512
997.000	579.819	80.009	19.995	103.149	19.833	-1.203	0.514
997.500	580.066	80.008	19.994	103.152	19.833	-1.163	0.521
998.000	580.306	80.010	19.995	103.150	19.837	-1.434	0.502
998.500	580.576	80.007	19.994	103.148	19.834	-1.244	0.498
999.000	580.837	80.009	19.996	103.148	19.833	-1.194	0.520
999.500	581.107	80.008	19.994	103.151	19.835	-1.348	0.531
1000.000	581.343	80.010	19.994	103.154	19.834	-1.284	0.519
1000.500	581.589	80.008	19.995	103.159	19.835	-1.298	0.495
1001.000	581.873	80.009	19.994	103.160	19.836	-1.392	0.506
1001.500	582.085	80.009	19.995	103.163	19.835	-1.293	0.513
1002.000	582.374	80.009	19.994	103.163	19.837	-1.446	0.499
1002.500	582.671	80.007	19.994	103.163	19.838	-1.549	0.544
1003.000	582.891	80.009	19.994	103.163	19.836	-1.419	0.551
1003.500	583.171	80.010	19.994	103.163	19.839	-1.563	0.508
1004.000	583.396	80.007	19.995	103.161	19.833	-1.214	0.503
1004.500	583.685	80.008	19.995	103.156	19.836	-1.401	0.509
1005.000	583.914	80.007	19.993	103.155	19.834	-1.256	0.516
1005.500	584.154	80.010	19.994	103.155	19.837	-1.463	0.494
1006.000	584.408	80.009	19.994	103.150	19.838	-1.539	0.482
1006.500	584.666	80.007	19.995	103.151	19.834	-1.280	0.503
1007.000	584.916	80.009	19.995	103.156	19.838	-1.527	0.510
1007.500	585.162	80.008	19.995	103.156	19.834	-1.247	0.502
1008.000	585.414	80.008	19.996	103.156	19.831	-1.079	0.497
1008.500	585.664	80.008	19.997	103.160	19.833	-1.171	0.500
1009.000	585.950	80.008	19.995	103.159	19.833	-1.180	0.519
1009.500	586.200	80.007	19.994	103.159	19.832	-1.127	0.536
1010.000	586.475	80.008	19.994	103.161	19.831	-1.026	0.531
1010.500	586.727	80.005	19.995	103.160	19.833	-1.187	0.526
1011.000	586.967	80.011	19.995	103.160	19.834	-1.273	0.509
1011.500	587.246	80.008	19.994	103.160	19.829	-0.920	0.506
1012.000	587.503	80.006	19.995	103.160	19.832	-1.088	0.528
1012.500	587.774	80.010	19.995	103.157	19.831	-1.085	0.532
1013.000	588.020	80.007	19.995	103.157	19.831	-1.055	0.523
1013.500	588.285	80.009	19.995	103.159	19.830	-0.993	0.514
1014.000	588.535	80.012	19.995	103.159	19.829	-0.899	0.513
1014.500	588.789	80.012	19.995	103.153	19.829	-0.920	0.510
1015.000	589.074	80.008	19.994	103.151	19.830	-1.015	0.521
1015.500	589.320	80.008	19.994	103.151	19.834	-1.224	0.535
1016.000	589.586	80.010	19.995	103.148	19.829	-0.922	0.522
1016.500	589.836	80.010	19.994	103.150	19.828	-0.875	0.514
1017.000	590.074	80.011	19.995	103.156	19.829	-0.895	0.502
1017.500	590.351	80.011	19.993	103.156	19.831	-1.037	0.502
1018.000	590.595	80.009	19.995	103.156	19.832	-1.141	0.518
1018.500	590.896	80.010	19.994	103.156	19.833	-1.183	0.533
1019.000	591.144	80.009	19.994	103.152	19.826	-0.709	0.547
1019.500	591.406	80.009	19.994	103.148	19.831	-1.030	0.529
1020.000	591.615	80.010	19.995	103.153	19.829	-0.924	0.491
1020.500	591.898	80.011	19.994	103.155	19.829	-0.937	0.482
1021.000	592.142	80.007	19.995	103.157	19.830	-0.966	0.509
1021.500	592.406	80.008	19.994	103.159	19.831	-1.056	0.517
1022.000	592.616	80.007	19.995	103.158	19.832	-1.138	0.491
1022.500	592.894	80.006	19.995	103.152	19.830	-0.951	0.481
1023.000	593.144	80.007	19.995	103.149	19.830	-1.008	0.508
1023.500	593.428	80.007	19.994	103.147	19.829	-0.940	0.531
1024.000	593.675	80.007	19.995	103.149	19.830	-1.004	0.532
1024.499	593.927	80.007	19.995	103.154	19.832	-1.127	0.515
1024.999	594.193	80.005	19.995	103.160	19.833	-1.211	0.508
1025.499	594.444	80.007	19.994	103.161	19.832	-1.140	0.517
1025.999	594.737	80.007	19.995	103.159	19.832	-1.132	0.531
1026.499	594.989	80.007	19.994	103.154	19.836	-1.384	0.545
1026.999	595.253	80.005	19.995	103.150	19.831	-1.035	0.531
1027.499	595.494	80.008	19.995	103.149	19.832	-1.116	0.511
1027.999	595.755	80.006	19.994	103.150	19.831	-1.074	0.504
1028.499	595.998	80.006	19.994	103.155	19.830	-0.995	0.503
1028.999	596.254	80.007	19.994	103.161	19.833	-1.182	0.501
1029.499	596.505	80.007	19.995	103.161	19.832	-1.112	0.503
1030.000	596.776	80.007	19.995	103.162	19.835	-1.333	0.515
1030.500	597.025	80.006	19.996	103.160	19.832	-1.149	0.521
1030.999	597.265	80.005	19.994	103.155	19.833	-1.220	0.504
1031.499	597.546	80.007	19.995	103.155	19.832	-1.094	0.505
1031.999	597.793	80.005	19.994	103.158	19.831	-1.061	0.525
1032.499	598.084	80.007	19.995	103.156	19.834	-1.253	0.533
1032.999	598.301	80.008	19.993	103.156	19.830	-0.953	0.523
1033.500	598.571	80.004	19.994	103.160	19.831	-1.035	0.498
1034.000	598.803	80.007	19.995	103.155	19.834	-1.224	0.495
1034.499	599.080	80.006	19.994	103.150	19.832	-1.141	0.505
1034.999	599.331	80.007	19.997	103.151	19.833	-1.156	0.518
1035.499	599.621	80.007	19.996	103.153	19.832	-1.123	0.534
1035.999	599.856	80.006	19.997	103.153	19.826	-0.719	0.533
1036.499	600.105	80.006	19.995	103.157	19.829	-0.909	0.505
1036.999	600.378	80.006	19.996	103.162	19.835	-1.355	0.503
1037.499	600.608	80.006	19.996	103.159	19.832	-1.138	0.513
1038.000	600.886	80.006	19.996	103.154	19.831	-1.048	0.506
1038.500	601.150	80.005	19.997	103.149	19.838	-1.536	0.525
1038.999	601.407	80.006	19.996	103.147	19.835	-1.355	0.531
1039.499	601.684	80.008	19.996	103.147	19.833	-1.202	0.527
1039.999	601.920	80.006	19.996	103.152	19.834	-1.225	0.524
1040.499	602.199	80.004	19.995	103.156	19.833	-1.174	0.514
1040.999	602.445	80.006	19.996	103.156	19.836	-1.375	0.520
1041.499	602.701	80.006	19.996	103.153	19.833	-1.218	0.514
1042.000	602.975	80.006	19.996	103.150	19.834	-1.273	0.516
1042.500	603.219	80.006	19.996	103.147	19.831	-1.083	0.524
1042.999	603.458	80.007	19.997	103.144	19.838	-1.505	0.500
1043.499	603.704	80.009	19.996	103.150	19.834	-1.273	0.484
1043.999	603.985	80.009	19.996	103.154	19.832	-1.114	0.506
1044.499	604.232	80.006	19.997	103.155	19.835	-1.355	0.527
1044.999	604.500	80.009	19.996	103.152	19.837	-1.450	0.521
1045.499	604.758	80.006	19.995	103.153	19.836	-1.406	0.521
1045.999	605.020	80.006	19.996	103.154	19.833	-1.211	0.523
1046.499	605.285	80.007	19.994	103.153	19.833	-1.196	0.524
1046.999	605.532	80.008	19.995	103.150	19.834	-1.276	0.520
1047.499	605.765	80.006	19.995	103.149	19.835	-1.331	0.496
1047.999	606.001	80.006	19.995	103.148	19.836	-1.395	0.474
1048.499	606.257	80.008	19.995	103.147	19.835	-1.313	0.480
1048.999	606.571	80.007	19.995	103.147	19.833	-1.176	0.531
1049.499	606.833	80.004	19.995	103.151	19.831	-1.085	0.573
1049.999	607.056	80.009	19.995	103.154	19.834	-1.262	0.531
1050.499	607.302	80.005	19.995	103.151	19.835	-1.342	0.477
1050.999	607.579	80.008	19.995	103.147	19.835	-1.320	0.496
1051.499	607.823	80.008	19.995	103.144	19.836	-1.369	0.522
1051.999	608.043	80.007	19.994	103.142	19.834	-1.245	0.493
1052.499	608.344	80.008	19.995	103.142	19.832	-1.130	0.493
1052.999	608.594	80.006	19.995	103.145	19.835	-1.304	0.536
1053.500	608.850	80.004	19.994	103.149	19.834	-1.282	0.529
1054.000	609.126	80.008	19.994	103.153	19.833	-1.172	0.519
1054.499	609.393	80.006	19.995	103.156	19.834	-1.252	0.537
1054.999	609.667	80.008	19.994	103.157	19.835	-1.296	0.542
1055.499	609.891	80.007	19.994	103.154	19.834	-1.254	0.519
1055.999	610.143	80.008	19.995	103.152	19.835	-1.324	0.487
1056.499	610.383	80.009	19.994	103.149	19.832	-1.152	0.484
1056.999	610.633	80.007	19.995	103.144	19.834	-1.258	0.491
1057.500	610.911	80.008	19.995	103.145	19.831	-1.064	0.509
1058.000	611.169	80.009	19.993	103.143	19.833	-1.201	0.532
1058.499	611.404	80.007	19.995	103.140	19.833	-1.201	0.515
1059.000	611.681	80.007	19.994	103.136	19.833	-1.159	0.502
1059.500	611.934	80.006	19.994	103.135	19.831	-1.064	0.521
1059.999	612.165	80.007	19.996	103.132	19.836	-1.360	0.507
1060.499	612.443	80.008	19.995	103.133	19.834	-1.286	0.497
1060.999	612.720	80.009	19.994	103.139	19.837	-1.481	0.532
1061.499	612.951	80.006	19.994	103.140	19.838	-1.518	0.531
1061.999	613.249	80.007	19.996	103.141	19.834	-1.233	0.519
1062.499	613.474	80.007	19.994	103.143	19.837	-1.448	0.526
1062.999	613.754	80.007	19.994	103.143	19.834	-1.229	0.514
1063.499	613.977	80.006	19.994	103.142	19.835	-1.313	0.504
1063.999	614.274	80.007	19.994	103.140	19.833	-1.163	0.512
1064.499	614.489	80.008	19.995	103.138	19.837	-1.464	0.517
1065.000	614.757	80.007	19.995	103.135	19.838	-1.538	0.498
1065.501	615.006	80.009	19.995	103.133	19.834	-1.222	0.499
1066.000	615.252	80.008	19.994	103.129	19.834	-1.260	0.505
1066.499	615.534	80.006	19.994	103.129	19.837	-1.446	0.512
1066.999	615.802	80.009	19.994	103.128	19.837	-1.477	0.539
1067.499	615.999	80.007	19.993	103.128	19.836	-1.375	0.507
1067.999	616.271	80.006	19.993	103.129	19.835	-1.305	0.467
1068.500	616.531	80.008	19.993	103.130	19.835	-1.331	0.501
1069.000	616.777	80.009	19.994	103.130	19.832	-1.121	0.519
1069.499	617.037	80.008	19.994	103.133	19.831	-1.064	0.506
1069.999	617.302	80.009	19.994	103.135	19.837	-1.468	0.515
1070.499	617.567	80.009	19.994	103.138	19.833	-1.176	0.527
1070.999	617.835	80.008	19.993	103.143	19.835	-1.309	0.532
1071.499	618.036	80.009	19.994	103.148	19.835	-1.315	0.502
1072.000	618.279	80.009	19.994	103.151	19.838	-1.547	0.456
1072.500	618.556	80.006	19.995	103.153	19.836	-1.380	0.482
1072.999	618.798	80.010	19.993	103.149	19.835	-1.306	0.520
1073.499	619.029	80.008	19.993	103.144	19.836	-1.422	0.496
1073.999	619.327	80.009	19.994	103.139	19.834	-1.262	0.501
1074.500	619.596	80.007	19.995	103.135	19.834	-1.267	0.548
1075.000	619.783	80.009	19.994	103.137	19.836	-1.379	0.512
1075.499	620.146	80.006	19.994	103.140	19.831	-1.055	0.503
1075.999	620.311	80.008	19.994	103.145	19.837	-1.439	0.539
1076.499	620.608	80.008	19.994	103.150	19.838	-1.497	0.495
1076.999	620.855	80.008	19.993	103.150	19.837	-1.474	0.503
1077.499	621.128	80.006	19.994	103.145	19.837	-1.444	0.532
1077.999	621.346	80.008	19.994	103.141	19.835	-1.346	0.506
1078.499	621.626	80.008	19.995	103.137	19.840	-1.636	0.494
1078.999	621.899	80.009	19.995	103.134	19.837	-1.443	0.525
1079.499	622.140	80.007	19.993	103.134	19.837	-1.484	0.533
1079.999	622.405	80.008	19.996	103.135	19.838	-1.523	0.510
1080.499	622.661	80.007	19.995	103.136	19.835	-1.331	0.513
1081.000	622.946	80.007	19.994	103.142	19.835	-1.327	0.531
1081.500	623.178	80.008	19.995	103.140	19.838	-1.508	0.529
1082.000	623.426	80.008	19.993	103.139	19.837	-1.466	0.498
1082.500	623.692	80.009	19.994	103.144	19.839	-1.561	0.497
1082.999	623.916	80.005	19.993	103.147	19.838	-1.505	0.502
1083.500	624.195	80.008	19.993	103.143	19.837	-1.437	0.497
1084.000	624.462	80.007	19.993	103.143	19.837	-1.446	0.524
1084.500	624.707	80.008	19.994	103.146	19.836	-1.364	0.529
1085.000	624.955	80.006	19.995	103.142	19.838	-1.536	0.502
1085.499	625.220	80.008	19.994	103.143	19.841	-1.744	0.503
1085.999	625.504	80.007	19.994	103.145	19.837	-1.481	0.531
1086.499	625.758	80.010	19.994	103.146	19.839	-1.579	0.543
1086.999	625.994	80.006	19.995	103.144	19.835	-1.324	0.514
1087.499	626.259	80.009	19.995	103.143	19.840	-1.674	0.496
1087.999	626.548	80.010	19.993	103.142	19.840	-1.629	0.528
1088.500	626.806	80.005	19.993	103.140	19.841	-1.727	0.551
1089.000	627.029	80.008	19.994	103.140	19.839	-1.563	0.514
1089.499	627.286	80.010	19.994	103.141	19.842	-1.820	0.480
1089.999	627.545	80.006	19.992	103.143	19.839	-1.623	0.498
1090.500	627.864	80.007	19.994	103.139	19.838	-1.530	0.546
1091.000	628.136	80.008	19.993	103.137	19.841	-1.716	0.584
1091.499	628.342	80.006	19.994	103.136	19.842	-1.789	0.535
1091.999	628.641	80.010	19.993	103.133	19.839	-1.621	0.492
1092.499	628.876	80.011	19.994	103.132	19.841	-1.700	0.520
1092.999	629.160	80.009	19.993	103.132	19.842	-1.773	0.527
1093.499	629.394	80.010	19.993	103.133	19.843	-1.837	0.519
1093.999	629.704	80.008	19.993	103.137	19.841	-1.753	0.531
1094.499	629.943	80.008	19.992	103.137	19.841	-1.713	0.546
1094.999	630.207	80.007	19.994	103.141	19.843	-1.872	0.526
1095.499	630.444	80.010	19.995	103.146	19.839	-1.601	0.502
1096.000	630.737	80.009	19.994	103.148	19.847	-2.112	0.515
1096.500	631.010	80.008	19.995	103.146	19.841	-1.749	0.548
1096.999	631.283	80.009	19.994	103.146	19.843	-1.890	0.556
1097.499	631.539	80.012	19.992	103.142	19.842	-1.775	0.538
1097.999	631.794	80.010	19.995	103.137	19.844	-1.904	0.520
1098.500	632.038	80.008	19.994	103.133	19.843	-1.895	0.505
1099.000	632.330	80.010	19.995	103.130	19.843	-1.842	0.518
1099.499	632.593	80.010	19.994	103.130	19.841	-1.696	0.545
1099.999	632.873	80.010	19.994	103.131	19.846	-2.047	0.549
1100.499	633.111	80.011	19.995	103.131	19.842	-1.769	0.531
1101.000	633.384	80.008	19.994	103.131	19.845	-2.014	0.515
1101.500	633.638	80.010	19.994	103.133	19.847	-2.164	0.519
1101.999	633.896	80.008	19.994	103.133	19.843	-1.888	0.519
1102.500	634.214	80.009	19.996	103.132	19.843	-1.846	0.544
1103.000	634.486	80.007	19.995	103.137	19.844	-1.959	0.583
1103.499	634.768	80.010	19.995	103.139	19.842	-1.786	0.572
1103.999	635.039	80.008	19.994	103.142	19.848	-2.193	0.553
1104.499	635.319	80.008	19.994	103.143	19.848	-2.171	0.552
1105.000	635.549	80.007	19.994	103.146	19.849	-2.282	0.530
1105.500	635.861	80.007	19.994	103.141	19.848	-2.213	0.525
1105.999	636.093	80.007	19.995	103.139	19.845	-1.968	0.543
1106.499	636.371	80.007	19.994	103.134	19.847	-2.123	0.527
1106.999	636.616	80.008	19.994	103.133	19.845	-2.019	0.516
1107.499	636.917	80.005	19.995	103.129	19.845	-1.997	0.534
1107.999	637.187	80.008	19.995	103.131	19.847	-2.162	0.559
1108.499	637.437	80.007	19.995	103.131	19.846	-2.092	0.545
1108.999	637.704	80.008	19.994	103.134	19.846	-2.067	0.518
1109.500	637.980	80.008	19.994	103.135	19.847	-2.143	0.530
1110.000	638.246	80.006	19.995	103.138	19.845	-2.014	0.543
1110.499	638.487	80.006	19.994	103.137	19.847	-2.120	0.525
1110.999	638.776	80.005	19.995	103.136	19.849	-2.293	0.519
1111.499	639.008	80.004	19.995	103.135	19.845	-2.025	0.525
1111.999	639.314	80.008	19.995	103.134	19.846	-2.059	0.529
1112.499	639.548	80.008	19.995	103.137	19.850	-2.355	0.539
1112.999	639.821	80.006	19.995	103.142	19.847	-2.120	0.524
1113.500	640.092	80.006	19.994	103.149	19.850	-2.304	0.526
1114.000	640.348	80.008	19.994	103.152	19.851	-2.419	0.536
1114.499	640.627	80.006	19.994	103.152	19.849	-2.240	0.531
1114.999	640.902	80.008	19.995	103.147	19.848	-2.233	0.544
1115.499	641.118	80.008	19.994	103.142	19.850	-2.306	0.522
1115.999	641.409	80.007	19.994	103.135	19.849	-2.255	0.499
1116.499	641.670	80.007	19.993	103.133	19.853	-2.516	0.529
1116.999	641.904	80.006	19.995	103.131	19.852	-2.446	0.523
1117.500	642.225	80.006	19.995	103.129	19.849	-2.299	0.525
1118.001	642.509	80.006	19.995	103.129	19.853	-2.521	0.580
1118.500	642.815	80.009	19.995	103.129	19.853	-2.532	0.597
1118.999	643.043	80.007	19.994	103.128	19.851	-2.397	0.561
1119.499	643.280	80.008	19.995	103.128	19.852	-2.452	0.499
1119.999	643.566	80.008	19.996	103.129	19.853	-2.567	0.494
1120.499	643.807	80.008	19.995	103.129	19.855	-2.651	0.525
1120.999	644.084	80.009	19.995	103.129	19.852	-2.448	0.522
1121.499	644.346	80.007	19.995	103.128	19.854	-2.594	0.528
1121.999	644.601	80.010	19.995	103.128	19.857	-2.837	0.528
1122.499	644.858	80.007	19.996	103.129	19.853	-2.538	0.515
1122.999	645.122	80.007	19.994	103.132	19.855	-2.671	0.517
1123.499	645.402	80.005	19.995	103.140	19.860	-2.981	0.533
1124.000	645.637	80.011	19.994	103.143	19.855	-2.686	0.529
1124.500	645.883	80.007	19.994	103.143	19.853	-2.561	0.497
1124.999	646.157	80.006	19.995	103.143	19.854	-2.603	0.500
1125.499	646.442	80.005	19.995	103.139	19.855	-2.662	0.540
1125.999	646.687	80.005	19.994	103.132	19.853	-2.569	0.545
1126.499	646.970	80.008	19.995	103.128	19.857	-2.815	0.529
1126.999	647.219	80.008	19.996	103.128	19.859	-2.921	0.530
1127.499	647.476	80.007	19.996	103.128	19.859	-2.972	0.519
1128.000	647.735	80.010	19.995	103.128	19.856	-2.757	0.511
1128.500	647.998	80.002	19.995	103.131	19.858	-2.899	0.519
1128.999	648.317	80.008	19.995	103.132	19.856	-2.762	0.552
1129.499	648.507	80.008	19.995	103.132	19.855	-2.686	0.546
1129.999	648.828	80.008	19.995	103.130	19.857	-2.826	0.510
1130.500	649.098	80.007	19.996	103.129	19.858	-2.876	0.551
1131.000	649.352	80.007	19.996	103.126	19.854	-2.578	0.557
1131.499	649.612	80.005	19.995	103.126	19.854	-2.625	0.519
1131.999	649.868	80.008	19.995	103.126	19.856	-2.764	0.515
1132.499	650.166	80.004	19.996	103.127	19.859	-2.950	0.535
1132.999	650.391	80.006	19.996	103.127	19.861	-3.106	0.539
1133.499	650.675	80.009	19.995	103.127	19.859	-2.938	0.516
1133.999	650.977	80.005	19.995	103.128	19.860	-2.996	0.547
1134.499	651.198	80.006	19.996	103.128	19.856	-2.766	0.554
1134.999	651.470	80.005	19.995	103.128	19.859	-2.972	0.508
1135.499	651.741	80.005	19.995	103.129	19.861	-3.069	0.518
1135.999	652.058	80.005	19.997	103.129	19.859	-2.954	0.566
1136.499	652.285	80.005	19.995	103.129	19.858	-2.905	0.566
1136.999	652.520	80.004	19.995	103.131	19.857	-2.826	0.503
1137.499	652.808	80.004	19.996	103.131	19.860	-3.014	0.493
1137.999	653.030	80.006	19.995	103.132	19.858	-2.857	0.516
1138.499	653.368	80.008	19.995	103.132	19.858	-2.890	0.535
1138.999	653.643	80.006	19.996	103.132	19.859	-2.967	0.586
1139.499	653.891	80.007	19.995	103.131	19.857	-2.828	0.568
1139.999	654.112	80.005	19.995	103.131	19.860	-2.991	0.496
1140.500	654.385	80.005	19.994	103.130	19.860	-2.981	0.482
1141.001	654.645	80.004	19.996	103.130	19.861	-3.084	0.513
1141.500	654.931	80.007	19.994	103.129	19.858	-2.863	0.539
1142.000	655.169	80.005	19.995	103.130	19.858	-2.845	0.535
1142.501	655.416	80.006	19.994	103.130	19.860	-3.044	0.505
1143.000	655.677	80.006	19.995	103.132	19.859	-2.960	0.497
1143.499	655.950	80.006	19.993	103.132	19.859	-2.974	0.521
1143.999	656.203	80.007	19.994	103.132	19.861	-3.075	0.529
1144.499	656.477	80.004	19.994	103.132	19.859	-2.954	0.526
1144.999	656.758	80.005	19.994	103.132	19.860	-2.987	0.541
1145.499	656.969	80.004	19.994	103.130	19.860	-3.036	0.524
1145.999	657.286	80.008	19.995	103.130	19.863	-3.246	0.510
1146.499	657.505	80.007	19.994	103.130	19.865	-3.378	0.532
1146.999	657.756	80.006	19.995	103.131	19.866	-3.447	0.503
1147.499	658.032	80.007	19.995	103.132	19.866	-3.449	0.499
1147.999	658.288	80.007	19.993	103.132	19.864	-3.265	0.530
1148.499	658.525	80.006	19.994	103.133	19.866	-3.409	0.513
1148.999	658.796	80.009	19.994	103.133	19.866	-3.425	0.500
1149.499	659.043	80.008	19.994	103.133	19.864	-3.314	0.513
1149.999	659.342	80.007	19.993	103.132	19.868	-3.577	0.532
1150.499	659.592	80.008	19.994	103.131	19.866	-3.436	0.547
1150.999	659.775	80.007	19.995	103.132	19.863	-3.219	0.491
1151.499	660.038	80.008	19.994	103.131	19.866	-3.383	0.439
1151.999	660.338	80.007	19.993	103.131	19.865	-3.328	0.504
1152.499	660.595	80.006	19.993	103.131	19.866	-3.400	0.560
1152.999	660.839	80.009	19.993	103.131	19.863	-3.217	0.529
1153.499	661.097	80.007	19.994	103.131	19.864	-3.292	0.501
1153.999	661.361	80.007	19.993	103.130	19.866	-3.394	0.512
1154.499	661.653	80.008	19.992	103.130	19.866	-3.387	0.540
1154.999	661.872	80.008	19.995	103.130	19.863	-3.237	0.534
1155.499	662.109	80.004	19.993	103.131	19.866	-3.388	0.483
1155.999	662.412	80.008	19.993	103.132	19.864	-3.295	0.498
1156.499	662.692	80.006	19.994	103.134	19.866	-3.410	0.562
1157.000	662.940	80.007	19.994	103.135	19.866	-3.390	0.556
1157.501	663.185	80.006	19.994	103.138	19.866	-3.388	0.510
1158.001	663.446	80.007	19.994	103.137	19.867	-3.485	0.499
1158.501	663.730	80.008	19.993	103.136	19.866	-3.432	0.526
1159.001	663.950	80.009	19.994	103.135	19.866	-3.432	0.524
1159.500	664.212	80.008	19.993	103.133	19.867	-3.509	0.492
1159.999	664.490	80.006	19.994	103.131	19.865	-3.350	0.511
1160.499	664.768	80.008	19.993	103.131	19.864	-3.308	0.548
1160.999	665.013	80.008	19.994	103.131	19.870	-3.660	0.540
1161.499	665.325	80.008	19.994	103.131	19.867	-3.454	0.540
1161.999	665.559	80.007	19.994	103.131	19.864	-3.295	0.552
1162.499	665.843	80.008	19.994	103.132	19.865	-3.317	0.532
1162.999	666.077	80.008	19.994	103.132	19.864	-3.299	0.518
1163.499	666.337	80.010	19.993	103.132	19.865	-3.343	0.506
1163.999	666.641	80.009	19.994	103.131	19.867	-3.489	0.529
1164.499	666.885	80.009	19.994	103.131	19.866	-3.414	0.556
1164.999	667.134	80.006	19.993	103.130	19.866	-3.403	0.521
1165.499	667.385	80.009	19.994	103.130	19.867	-3.500	0.497
1165.999	667.643	80.008	19.995	103.129	19.866	-3.408	0.505
1166.499	667.905	80.006	19.993	103.124	19.867	-3.498	0.515
1166.999	668.168	80.008	19.994	103.118	19.864	-3.273	0.522
1167.499	668.414	80.009	19.994	103.113	19.866	-3.390	0.517
1167.999	668.691	80.009	19.994	103.112	19.866	-3.423	0.516
1168.499	668.932	80.007	19.993	103.113	19.865	-3.354	0.521
1168.999	669.197	80.006	19.994	103.118	19.868	-3.531	0.512
1169.499	669.489	80.011	19.993	103.123	19.869	-3.651	0.531
1169.999	669.745	80.008	19.994	103.128	19.866	-3.447	0.553
1170.499	670.010	80.008	19.994	103.127	19.869	-3.600	0.535
1170.999	670.242	80.009	19.994	103.127	19.867	-3.502	0.510
1171.499	670.498	80.007	19.994	103.127	19.865	-3.374	0.493
1171.999	670.757	80.010	19.995	103.124	19.869	-3.648	0.501
1172.500	671.027	80.008	19.994	103.125	19.870	-3.675	0.522
1173.000	671.293	80.009	19.993	103.125	19.871	-3.752	0.533
1173.499	671.565	80.009	19.994	103.125	19.869	-3.626	0.538
1174.000	671.789	80.010	19.994	103.123	19.868	-3.566	0.517
1174.500	672.058	80.010	19.993	103.126	19.871	-3.746	0.494
1175.000	672.300	80.011	19.993	103.126	19.871	-3.741	0.501
1175.500	672.560	80.011	19.994	103.126	19.868	-3.578	0.506
1175.999	672.839	80.010	19.994	103.123	19.868	-3.585	0.521
1176.499	673.079	80.010	19.994	103.124	19.870	-3.710	0.529
1176.999	673.292	80.009	19.994	103.123	19.869	-3.628	0.486
1177.499	673.618	80.010	19.994	103.123	19.869	-3.626	0.497
1178.000	673.821	80.008	19.993	103.123	19.872	-3.827	0.534
1178.500	674.083	80.010	19.993	103.126	19.869	-3.615	0.497
1178.999	674.343	80.010	19.994	103.127	19.869	-3.650	0.493
1179.499	674.639	80.009	19.993	103.126	19.867	-3.516	0.539
1180.000	674.883	80.009	19.992	103.126	19.872	-3.854	0.547
1180.501	675.177	80.010	19.994	103.125	19.870	-3.719	0.539
1181.000	675.409	80.007	19.994	103.123	19.871	-3.750	0.532
1181.499	675.721	80.008	19.994	103.124	19.872	-3.828	0.535
1181.999	675.903	80.010	19.993	103.124	19.869	-3.639	0.519
1182.499	676.204	80.006	19.993	103.125	19.869	-3.644	0.488
1182.999	676.463	80.009	19.995	103.126	19.872	-3.832	0.521
1183.499	676.642	80.009	19.994	103.127	19.870	-3.703	0.499
1183.999	676.982	80.007	19.993	103.125	19.869	-3.602	0.479
1184.500	677.187	80.007	19.993	103.125	19.873	-3.916	0.532
1185.000	677.421	80.008	19.993	103.125	19.872	-3.803	0.492
1185.499	677.688	80.008	19.994	103.122	19.869	-3.602	0.470
1185.999	677.929	80.007	19.994	103.119	19.870	-3.699	0.504
1186.499	678.221	80.008	19.994	103.122	19.869	-3.630	0.520
1186.999	678.421	80.006	19.995	103.120	19.871	-3.779	0.513
1187.499	678.724	80.007	19.994	103.120	19.870	-3.714	0.498
1187.999	678.982	80.007	19.994	103.124	19.870	-3.657	0.532
1188.499	679.222	80.008	19.994	103.128	19.870	-3.670	0.529
1188.999	679.459	80.008	19.995	103.127	19.873	-3.913	0.487
1189.499	679.738	80.008	19.993	103.128	19.876	-4.090	0.496
1189.999	679.965	80.007	19.995	103.127	19.873	-3.863	0.511
1190.499	680.217	80.007	19.994	103.126	19.874	-3.947	0.493
1190.999	680.483	80.007	19.993	103.125	19.875	-4.048	0.498
1191.500	680.738	80.007	19.994	103.123	19.870	-3.674	0.520
1192.000	680.949	80.007	19.994	103.124	19.871	-3.779	0.494
1192.499	681.201	80.007	19.994	103.125	19.870	-3.708	0.465
1193.000	681.482	80.006	19.993	103.125	19.874	-3.945	0.498
1193.500	681.708	80.007	19.995	103.127	19.873	-3.863	0.520
1193.999	682.001	80.008	19.995	103.129	19.873	-3.896	0.513
1194.499	682.279	80.008	19.994	103.129	19.873	-3.894	0.545
1194.999	682.503	80.008	19.994	103.129	19.872	-3.804	0.536
1195.499	682.735	80.008	19.995	103.129	19.876	-4.100	0.478
1196.000	683.010	80.007	19.994	103.127	19.877	-4.131	0.481
1196.501	683.238	80.008	19.994	103.127	19.880	-4.374	0.505
1197.000	683.522	80.007	19.995	103.128	19.878	-4.208	0.508
1197.499	683.737	80.008	19.994	103.130	19.875	-4.020	0.506
1197.999	684.032	80.007	19.995	103.132	19.876	-4.060	0.504
1198.499	684.281	80.007	19.995	103.133	19.873	-3.918	0.526
1198.999	684.504	80.009	19.994	103.133	19.877	-4.186	0.508
1199.499	684.717	80.007	19.995	103.133	19.877	-4.181	0.455
1199.999	685.000	80.007	19.995	103.131	19.879	-4.319	0.466
1200.499	685.257	80.006	19.995	103.129	19.877	-4.160	0.518
1200.999	685.499	80.007	19.994	103.129	19.872	-3.848	0.519
1201.499	685.741	80.007	19.995	103.130	19.875	-4.029	0.492
1201.999	685.998	80.007	19.994	103.133	19.879	-4.285	0.491
1202.499	686.305	80.008	19.994	103.133	19.875	-4.038	0.532
1202.999	686.532	80.006	19.995	103.132	19.879	-4.285	0.549
1203.499	686.786	80.009	19.994	103.133	19.876	-4.060	0.507
1203.999	687.033	80.008	19.994	103.129	19.877	-4.182	0.491
1204.499	687.266	80.007	19.994	103.120	19.876	-4.064	0.491
1204.999	687.539	80.007	19.994	103.117	19.875	-4.024	0.493
1205.500	687.746	80.007	19.994	103.115	19.874	-3.943	0.493
1206.000	688.053	80.008	19.994	103.115	19.876	-4.073	0.497
1206.499	688.261	80.009	19.994	103.116	19.877	-4.188	0.514
1206.999	688.548	80.006	19.994	103.121	19.878	-4.259	0.505
1207.499	688.754	80.008	19.993	103.124	19.878	-4.221	0.494
1207.999	688.989	80.007	19.994	103.127	19.878	-4.212	0.467
1208.499	689.228	80.006	19.995	103.127	19.879	-4.267	0.457
1208.999	689.541	80.006	19.994	103.128	19.877	-4.153	0.513
1209.499	689.779	80.006	19.994	103.129	19.878	-4.210	0.551
1209.999	690.061	80.006	19.994	103.125	19.877	-4.190	0.536
1210.499	690.276	80.007	19.994	103.123	19.878	-4.195	0.508
1210.999	690.543	80.006	19.995	103.121	19.878	-4.217	0.489
1211.499	690.754	80.006	19.994	103.118	19.878	-4.257	0.480
1212.000	691.003	80.007	19.994	103.118	19.878	-4.243	0.469
1212.500	691.256	80.006	19.993	103.122	19.875	-4.031	0.481
1212.999	691.504	80.006	19.994	103.123	19.880	-4.391	0.502
1213.499	691.763	80.005	19.994	103.124	19.877	-4.168	0.504
1213.999	692.051	80.008	19.995	103.126	19.878	-4.201	0.527
1214.500	692.266	80.007	19.992	103.125	19.878	-4.243	0.525
1215.001	692.489	80.007	19.995	103.121	19.876	-4.093	0.470
1215.501	692.783	80.006	19.995	103.122	19.877	-4.141	0.477
1216.000	693.023	80.005	19.995	103.122	19.875	-4.037	0.526
1216.499	693.252	80.006	19.995	103.122	19.876	-4.121	0.502
1216.999	693.491	80.006	19.996	103.123	19.879	-4.276	0.468
1217.499	693.718	80.007	19.996	103.127	19.878	-4.248	0.467
1217.999	694.016	80.004	19.996	103.128	19.879	-4.287	0.496
1218.499	694.249	80.006	19.995	103.126	19.881	-4.404	0.528
1219.000	694.491	80.006	19.995	103.125	19.880	-4.343	0.503
1219.500	694.723	80.008	19.993	103.125	19.879	-4.274	0.474
1219.999	694.959	80.005	19.995	103.123	19.880	-4.369	0.471
1220.500	695.242	80.004	19.994	103.122	19.883	-4.537	0.493
1221.000	695.518	80.007	19.995	103.120	19.882	-4.526	0.539
1221.499	695.739	80.005	19.996	103.122	19.880	-4.336	0.528
1221.999	695.997	80.005	19.995	103.123	19.881	-4.433	0.488
1222.499	696.258	80.006	19.995	103.125	19.881	-4.431	0.499
1222.999	696.518	80.006	19.996	103.126	19.883	-4.582	0.520
1223.499	696.746	80.007	19.995	103.130	19.880	-4.369	0.504
1223.999	697.011	80.007	19.995	103.130	19.879	-4.299	0.490
1224.499	697.240	80.007	19.995	103.131	19.880	-4.340	0.494
1224.999	697.510	80.007	19.996	103.130	19.883	-4.555	0.497
1225.499	697.747	80.008	19.997	103.130	19.881	-4.413	0.503
1226.000	697.958	80.008	19.995	103.132	19.881	-4.435	0.477
1226.500	698.244	80.008	19.997	103.130	19.884	-4.615	0.472
1226.999	698.521	80.006	19.996	103.131	19.881	-4.456	0.530
1227.499	698.760	80.007	19.996	103.130	19.881	-4.442	0.539
1227.999	698.991	80.008	19.995	103.129	19.882	-4.495	0.493
1228.499	699.253	80.008	19.995	103.128	19.882	-4.480	0.482
1228.999	699.465	80.007	19.994	103.129	19.882	-4.529	0.483
1229.499	699.726	80.008	19.994	103.126	19.884	-4.619	0.474
1229.999	700.006	80.008	19.996	103.126	19.885	-4.681	0.507
1230.499	700.248	80.009	19.994	103.124	19.882	-4.491	0.531
1230.999	700.510	80.009	19.996	103.122	19.883	-4.579	0.513
1231.499	700.765	80.008	19.997	103.120	19.880	-4.338	0.511
1231.999	700.983	80.010	19.995	103.122	19.880	-4.378	0.495
1232.499	701.233	80.009	19.995	103.121	19.885	-4.702	0.470
1233.000	701.497	80.008	19.996	103.122	19.883	-4.534	0.491
1233.501	701.743	80.009	19.995	103.121	19.885	-4.730	0.512
1234.000	702.015	80.009	19.995	103.121	19.882	-4.509	0.514
1234.499	702.269	80.009	19.995	103.121	19.883	-4.593	0.522
1234.999	702.541	80.009	19.994	103.123	19.884	-4.601	0.526
1235.499	702.820	80.008	19.995	103.123	19.883	-4.551	0.539
1235.999	703.047	80.009	19.995	103.125	19.886	-4.759	0.529
1236.500	703.275	80.007	19.993	103.127	19.884	-4.646	0.481
1237.000	703.560	80.009	19.994	103.127	19.885	-4.675	0.484
1237.499	703.798	80.008	19.994	103.127	19.883	-4.534	0.518
1238.000	704.069	80.008	19.994	103.126	19.885	-4.673	0.516
1238.500	704.296	80.008	19.994	103.126	19.887	-4.867	0.503
1238.999	704.591	80.008	19.994	103.126	19.883	-4.582	0.510
1239.499	704.820	80.007	19.994	103.126	19.885	-4.668	0.524
1239.999	705.102	80.009	19.995	103.125	19.882	-4.502	0.518
1240.499	705.335	80.007	19.995	103.125	19.880	-4.387	0.513
1240.999	705.591	80.007	19.994	103.126	19.884	-4.628	0.502
1241.499	705.847	80.008	19.995	103.127	19.883	-4.584	0.501
1241.999	706.103	80.007	19.993	103.123	19.888	-4.936	0.512
1242.500	706.352	80.008	19.994	103.123	19.885	-4.692	0.508
1243.000	706.619	80.006	19.993	103.120	19.881	-4.443	0.510
1243.499	706.868	80.008	19.995	103.114	19.883	-4.587	0.516
1243.999	707.129	80.008	19.994	103.114	19.883	-4.544	0.514
1244.499	707.371	80.007	19.994	103.118	19.883	-4.584	0.507
1244.999	707.629	80.007	19.994	103.119	19.881	-4.414	0.501
1245.500	707.894	80.007	19.993	103.122	19.884	-4.637	0.511
1246.000	708.161	80.007	19.994	103.127	19.883	-4.577	0.528
1246.499	708.431	80.008	19.994	103.127	19.885	-4.732	0.534
1246.999	708.697	80.008	19.993	103.123	19.883	-4.584	0.536
1247.499	708.914	80.008	19.994	103.119	19.881	-4.445	0.510
1247.999	709.210	80.010	19.994	103.117	19.882	-4.516	0.499
1248.499	709.474	80.009	19.994	103.114	19.883	-4.591	0.537
1248.999	709.712	80.008	19.994	103.114	19.883	-4.591	0.531
1249.499	709.990	80.009	19.993	103.117	19.886	-4.793	0.509
1249.999	710.216	80.008	19.994	103.115	19.884	-4.638	0.510
1250.499	710.462	80.009	19.994	103.113	19.886	-4.795	0.488
1250.999	710.707	80.010	19.994	103.116	19.884	-4.613	0.482
1251.499	711.015	80.010	19.995	103.117	19.885	-4.690	0.522
1251.999	711.270	80.010	19.994	103.118	19.882	-4.487	0.558
1252.500	711.527	80.010	19.993	103.119	19.881	-4.427	0.538
1253.001	711.756	80.010	19.994	103.122	19.883	-4.557	0.499
1253.500	712.025	80.009	19.993	103.120	19.885	-4.694	0.492
1253.999	712.261	80.010	19.994	103.116	19.882	-4.517	0.501
1254.499	712.528	80.010	19.993	103.112	19.885	-4.710	0.504
1254.999	712.785	80.010	19.993	103.115	19.882	-4.465	0.514
1255.499	713.080	80.009	19.994	103.114	19.884	-4.659	0.538
1255.999	713.325	80.009	19.993	103.114	19.883	-4.595	0.546
1256.499	713.615	80.010	19.994	103.117	19.883	-4.537	0.538
1256.999	713.815	80.010	19.993	103.121	19.885	-4.686	0.513
1257.499	714.124	80.010	19.995	103.118	19.885	-4.687	0.500
1258.000	714.357	80.010	19.994	103.118	19.885	-4.694	0.525
1258.500	714.609	80.011	19.994	103.117	19.881	-4.402	0.513
1258.999	714.886	80.009	19.994	103.113	19.882	-4.495	0.507
1259.500	715.137	80.009	19.993	103.109	19.883	-4.564	0.528
1260.000	715.386	80.009	19.995	103.108	19.882	-4.506	0.514
1260.499	715.668	80.009	19.994	103.106	19.884	-4.646	0.516
1260.999	715.907	80.009	19.993	103.107	19.883	-4.548	0.526
1261.499	716.189	80.009	19.994	103.111	19.885	-4.723	0.521
1261.999	716.438	80.009	19.991	103.115	19.883	-4.559	0.526
1262.499	716.727	80.008	19.994	103.119	19.882	-4.473	0.534
1262.999	716.947	80.008	19.993	103.124	19.884	-4.617	0.523
1263.499	717.228	80.008	19.994	103.121	19.881	-4.451	0.505
1263.999	717.452	80.009	19.994	103.122	19.881	-4.438	0.503
1264.499	717.671	80.007	19.994	103.123	19.886	-4.785	0.474
1264.999	717.993	80.008	19.994	103.123	19.884	-4.613	0.492
1265.499	718.206	80.007	19.993	103.121	19.883	-4.582	0.538
1265.999	718.484	80.008	19.994	103.122	19.881	-4.423	0.513
1266.499	718.739	80.007	19.994	103.123	19.884	-4.622	0.512
1266.999	718.986	80.008	19.994	103.122	19.884	-4.655	0.518
1267.499	719.235	80.008	19.994	103.121	19.890	-5.007	0.499
1267.999	719.500	80.008	19.994	103.125	19.887	-4.814	0.505
1268.499	719.745	80.008	19.993	103.127	19.888	-4.913	0.512
1268.999	720.064	80.007	19.995	103.128	19.886	-4.770	0.537
1269.499	720.274	80.008	19.994	103.127	19.888	-4.925	0.547
1270.000	720.508	80.008	19.993	103.128	19.884	-4.666	0.486
1270.501	720.750	80.008	19.994	103.127	19.885	-4.701	0.460
1271.000	721.069	80.007	19.994	103.128	19.885	-4.683	0.519
1271.499	721.302	80.007	19.994	103.128	19.885	-4.684	0.556
1271.999	721.587	80.007	19.994	103.128	19.887	-4.803	0.535
1272.499	721.824	80.007	19.994	103.127	19.887	-4.860	0.520
1272.999	722.126	80.008	19.994	103.126	19.887	-4.852	0.531
1273.499	722.315	80.008	19.994	103.124	19.883	-4.534	0.515
1273.999	722.586	80.006	19.994	103.124	19.884	-4.620	0.476
1274.499	722.822	80.005	19.993	103.124	19.886	-4.766	0.483
1274.999	723.087	80.007	19.993	103.119	19.884	-4.665	0.504
1275.499	723.346	80.007	19.994	103.119	19.884	-4.653	0.513
1275.999	723.605	80.008	19.993	103.117	19.890	-5.060	0.521
1276.499	723.866	80.007	19.994	103.111	19.889	-4.943	0.519
1276.999	724.089	80.007	19.995	103.107	19.887	-4.848	0.502
1277.499	724.372	80.008	19.994	103.112	19.890	-5.020	0.495
1277.999	724.637	80.007	19.994	103.113	19.888	-4.879	0.527
1278.500	724.871	80.008	19.995	103.117	19.893	-5.253	0.524
1279.000	725.127	80.007	19.995	103.117	19.890	-5.038	0.494
1279.499	725.390	80.008	19.993	103.119	19.889	-4.952	0.504
1279.999	725.636	80.008	19.993	103.119	19.892	-5.157	0.514
1280.499	725.850	80.008	19.995	103.115	19.890	-5.051	0.485
1280.999	726.124	80.006	19.995	103.115	19.890	-5.007	0.474
1281.499	726.413	80.007	19.994	103.120	19.889	-4.998	0.525
1281.999	726.691	80.007	19.994	103.121	19.891	-5.128	0.565
1282.499	726.939	80.007	19.994	103.118	19.891	-5.102	0.547
1282.999	727.197	80.008	19.995	103.122	19.893	-5.249	0.516
1283.499	727.441	80.007	19.994	103.122	19.891	-5.123	0.504
1283.999	727.665	80.008	19.993	103.118	19.891	-5.136	0.486
1284.499	727.990	80.007	19.994	103.112	19.894	-5.297	0.509
1284.999	728.171	80.007	19.994	103.110	19.892	-5.144	0.527
1285.499	728.453	80.007	19.993	103.103	19.892	-5.147	0.484
1285.999	728.723	80.007	19.993	103.100	19.892	-5.197	0.507
1286.499	728.957	80.006	19.993	103.103	19.888	-4.887	0.528
1286.999	729.202	80.006	19.995	103.103	19.891	-5.095	0.491
1287.499	729.454	80.006	19.994	103.105	19.889	-4.957	0.488
1287.999	729.683	80.006	19.994	103.111	19.891	-5.114	0.489
1288.499	729.967	80.006	19.995	103.111	19.891	-5.106	0.497
1288.999	730.203	80.007	19.994	103.106	19.889	-4.951	0.516
1289.499	730.502	80.008	19.995	103.108	19.893	-5.221	0.528
1289.999	730.738	80.008	19.994	103.110	19.891	-5.108	0.535
1290.499	731.009	80.006	19.995	103.111	19.891	-5.126	0.521
1290.999	731.190	80.009	19.995	103.114	19.895	-5.346	0.479
1291.499	731.524	80.007	19.995	103.117	19.892	-5.170	0.483
1291.999	731.771	80.006	19.994	103.118	19.890	-5.051	0.548
1292.499	732.017	80.007	19.994	103.115	19.892	-5.152	0.537
1292.999	732.287	80.007	19.995	103.111	19.889	-4.946	0.505
1293.499	732.540	80.006	19.995	103.105	19.890	-5.062	0.519
1293.999	732.730	80.007	19.995	103.103	19.890	-5.051	0.483
1294.499	733.069	80.006	19.995	103.101	19.888	-4.907	0.486
1294.999	733.329	80.007	19.995	103.102	19.890	-5.047	0.564
1295.500	733.601	80.006	19.995	103.099	19.896	-5.418	0.565
1296.000	733.811	80.007	19.994	103.101	19.889	-4.945	0.507
1296.499	734.077	80.006	19.995	103.107	19.893	-5.237	0.479
1296.999	734.288	80.006	19.995	103.110	19.893	-5.246	0.476
1297.499	734.574	80.007	19.996	103.114	19.892	-5.204	0.487
1297.999	734.812	80.007	19.994	103.121	19.892	-5.178	0.510
1298.499	735.065	80.007	19.996	103.125	19.893	-5.260	0.507
1298.999	735.302	80.007	19.994	103.126	19.894	-5.313	0.491
1299.499	735.567	80.007	19.994	103.125	19.893	-5.257	0.496
1299.999	735.791	80.006	19.995	103.121	19.890	-5.046	0.495
1300.500	736.053	80.007	19.994	103.119	19.894	-5.287	0.487
1301.000	736.293	80.007	19.995	103.117	19.889	-4.998	0.494
1301.499	736.603	80.006	19.994	103.111	19.892	-5.140	0.526
1301.999	736.760	80.007	19.994	103.108	19.896	-5.443	0.509
1302.499	737.035	80.007	19.994	103.113	19.895	-5.405	0.450
1302.999	737.289	80.007	19.994	103.116	19.896	-5.461	0.481
1303.499	737.528	80.008	19.995	103.118	19.897	-5.495	0.511
1303.999	737.754	80.006	19.995	103.121	19.900	-5.698	0.479
1304.499	738.023	80.008	19.994	103.119	19.897	-5.534	0.480
1304.999	738.337	80.007	19.995	103.115	19.893	-5.227	0.539
1305.499	738.544	80.009	19.995	103.110	19.893	-5.222	0.552
1306.000	738.820	80.008	19.994	103.110	19.894	-5.334	0.502
1306.500	739.059	80.007	19.994	103.111	19.895	-5.396	0.499
1306.999	739.297	80.008	19.994	103.113	19.896	-5.436	0.495
1307.499	739.532	80.009	19.995	103.110	19.892	-5.165	0.475
1307.999	739.797	80.008	19.994	103.107	19.891	-5.117	0.487
1308.499	740.047	80.007	19.995	103.102	19.893	-5.243	0.508
1308.999	740.343	80.008	19.995	103.098	19.895	-5.366	0.531
1309.499	740.567	80.008	19.996	103.099	19.893	-5.271	0.533
1309.999	740.809	80.008	19.995	103.105	19.897	-5.477	0.493
1310.499	741.072	80.008	19.994	103.111	19.894	-5.296	0.486
1310.999	741.326	80.009	19.995	103.112	19.896	-5.453	0.511
1311.499	741.564	80.009	19.995	103.115	19.894	-5.293	0.504
1311.999	741.769	80.008	19.995	103.115	19.892	-5.199	0.468
1312.499	742.066	80.009	19.995	103.111	19.896	-5.445	0.473
1312.999	742.331	80.010	19.995	103.105	19.897	-5.540	0.531
1313.500	742.565	80.009	19.995	103.103	19.895	-5.350	0.530
1314.000	742.817	80.007	19.995	103.098	19.893	-5.256	0.493
1314.499	743.043	80.009	19.995	103.092	19.896	-5.467	0.482
1314.999	743.330	80.009	19.995	103.091	19.896	-5.458	0.495
1315.499	743.594	80.008	19.995	103.093	19.894	-5.314	0.532
1315.999	743.847	80.009	19.994	103.099	19.894	-5.284	0.534
1316.499	744.108	80.007	19.995	103.105	19.895	-5.368	0.515
1316.999	744.343	80.009	19.995	103.106	19.895	-5.381	0.505
1317.499	744.594	80.009	19.995	103.104	19.894	-5.334	0.491
1318.000	744.877	80.008	19.995	103.102	19.897	-5.484	0.510
1318.501	745.108	80.008	19.995	103.095	19.896	-5.423	0.524
1319.000	745.362	80.008	19.995	103.089	19.890	-5.029	0.500
