Sample ID:	C:\MCC\MCC Cal\Test\LW_GypBoard_Gypsum_Core_MCC_30K_min_211130_R3.txt
Sample Weight (mg):	4.91
Heating Rate (C/s):	0.5
Combustor Temp (C):	900
N2 Flow Rate (cc/min):	80
O2 Flow Rate (cc/min):	20
Calibration File:	C:\MCC\MCC Cal\Coeff1 JN10440_30_210304.txt.txt
T Correction Coefficients:	0	1.024463	0
Time Shift (s):	14
*
Time (s)	Temperature (C)	N2 flow rate (cc/min)	O2 flow rate (cc/min)	Flow Rate (cc/min)	Oxygen (%)	HRR (W/g)	Heating rate (C/s)
0.000	109.036	80.006	19.994	103.108	19.946	-0.083	-0.025
0.500	109.045	80.006	19.994	103.109	19.943	0.142	-0.030
1.000	109.027	80.005	19.994	103.108	19.943	0.117	-0.012
1.500	109.054	80.006	19.994	103.106	19.944	0.032	0.000
2.000	109.083	80.006	19.994	103.106	19.942	0.164	0.032
2.500	109.083	80.006	19.994	103.104	19.943	0.117	0.043
3.000	109.068	80.005	19.993	103.103	19.943	0.101	0.007
3.500	109.040	80.005	19.994	103.103	19.942	0.201	-0.029
4.000	109.056	80.004	19.994	103.103	19.941	0.235	-0.027
4.500	109.063	80.006	19.994	103.103	19.941	0.234	0.006
5.000	109.001	80.007	19.995	103.104	19.941	0.228	-0.016
5.500	109.023	80.006	19.995	103.106	19.941	0.239	-0.047
6.000	109.016	80.007	19.995	103.105	19.943	0.079	-0.013
6.500	109.051	80.006	19.994	103.108	19.942	0.191	0.021
7.000	109.044	80.006	19.995	103.109	19.942	0.147	0.028
7.500	109.032	80.006	19.994	103.107	19.944	0.061	0.005
8.001	109.019	80.007	19.994	103.105	19.944	0.023	-0.022
8.501	109.017	80.006	19.996	103.104	19.940	0.327	-0.020
9.001	109.040	80.006	19.994	103.103	19.942	0.187	0.003
9.501	109.024	80.006	19.995	103.103	19.941	0.255	0.014
10.001	109.015	80.006	19.995	103.103	19.941	0.261	-0.009
10.500	109.016	80.006	19.995	103.106	19.939	0.370	-0.017
11.000	109.033	80.006	19.996	103.110	19.940	0.329	0.005
11.500	109.034	80.006	19.995	103.112	19.941	0.270	0.018
12.000	109.004	80.007	19.995	103.115	19.940	0.299	-0.006
12.500	109.022	80.007	19.995	103.121	19.943	0.138	-0.020
13.000	109.034	80.007	19.995	103.123	19.942	0.196	0.009
13.500	109.008	80.005	19.994	103.120	19.946	-0.115	0.008
14.000	109.004	80.007	19.995	103.117	19.939	0.372	-0.022
14.500	109.011	80.006	19.995	103.116	19.941	0.257	-0.013
15.000	109.030	80.006	19.995	103.115	19.943	0.137	0.015
15.500	109.002	80.008	19.994	103.112	19.941	0.227	0.009
16.000	108.994	80.008	19.995	103.117	19.944	0.052	-0.022
16.500	109.013	80.007	19.995	103.122	19.944	0.043	-0.013
17.000	108.982	80.008	19.995	103.126	19.940	0.299	-0.001
17.500	109.013	80.008	19.995	103.128	19.941	0.238	-0.006
18.000	109.000	80.008	19.994	103.134	19.942	0.194	0.009
18.500	109.013	80.008	19.994	103.134	19.941	0.211	0.009
19.001	109.021	80.009	19.994	103.135	19.943	0.115	0.011
19.501	109.051	80.007	19.995	103.140	19.941	0.225	0.030
20.000	109.038	80.007	19.994	103.145	19.940	0.302	0.027
20.500	109.054	80.008	19.994	103.152	19.937	0.520	0.010
21.000	109.032	80.009	19.994	103.157	19.931	0.871	-0.001
21.500	109.062	80.009	19.995	103.164	19.936	0.594	0.001
22.001	109.057	80.008	19.995	103.168	19.938	0.466	0.016
22.500	109.062	80.008	19.993	103.171	19.937	0.472	0.013
23.000	109.042	80.009	19.994	103.171	19.938	0.419	-0.007
23.500	109.063	80.007	19.995	103.178	19.935	0.636	-0.007
24.000	109.108	80.008	19.995	103.185	19.928	1.118	0.033
24.500	109.119	80.008	19.995	103.189	19.930	0.945	0.061
25.001	109.102	80.008	19.994	103.197	19.935	0.664	0.025
25.501	109.157	80.008	19.994	103.209	19.928	1.120	0.016
26.001	109.163	80.008	19.995	103.221	19.929	1.059	0.049
26.501	109.172	80.008	19.994	103.230	19.926	1.210	0.038
27.000	109.185	80.008	19.995	103.240	19.924	1.377	0.019
27.500	109.235	80.010	19.995	103.247	19.924	1.374	0.043
28.000	109.273	80.007	19.993	103.251	19.921	1.552	0.076
28.500	109.275	80.008	19.994	103.251	19.922	1.503	0.064
29.000	109.311	80.007	19.994	103.253	19.924	1.386	0.039
29.500	109.380	80.008	19.994	103.261	19.918	1.770	0.071
30.000	109.377	80.007	19.995	103.269	19.918	1.752	0.086
30.500	109.470	80.008	19.995	103.272	19.916	1.905	0.078
31.000	109.480	80.007	19.995	103.280	19.916	1.910	0.096
31.500	109.495	80.006	19.995	103.284	19.915	1.962	0.064
32.000	109.526	80.007	19.994	103.284	19.915	1.971	0.036
32.500	109.589	80.008	19.995	103.284	19.913	2.101	0.070
33.000	109.652	80.008	19.996	103.287	19.916	1.862	0.110
33.500	109.704	80.006	19.996	103.286	19.920	1.635	0.120
34.000	109.741	80.008	19.996	103.287	19.914	2.013	0.103
34.500	109.764	80.006	19.994	103.286	19.910	2.269	0.075
35.000	109.836	80.005	19.995	103.286	19.913	2.078	0.078
35.500	109.869	80.006	19.996	103.286	19.910	2.305	0.100
36.000	109.943	80.007	19.996	103.285	19.910	2.299	0.106
36.500	110.010	80.007	19.995	103.284	19.913	2.094	0.124
37.000	110.054	80.007	19.996	103.284	19.913	2.089	0.126
37.500	110.141	80.007	19.996	103.286	19.911	2.217	0.121
38.000	110.191	80.006	19.995	103.287	19.913	2.080	0.134
38.501	110.247	80.007	19.996	103.290	19.912	2.163	0.121
39.001	110.328	80.008	19.995	103.292	19.908	2.433	0.122
39.500	110.391	80.007	19.995	103.292	19.911	2.183	0.141
40.000	110.450	80.007	19.995	103.290	19.911	2.224	0.133
40.501	110.504	80.007	19.996	103.290	19.913	2.111	0.117
41.001	110.582	80.005	19.995	103.289	19.912	2.114	0.123
41.501	110.648	80.006	19.994	103.288	19.912	2.177	0.138
42.000	110.692	80.008	19.994	103.288	19.912	2.138	0.127
42.500	110.801	80.007	19.995	103.287	19.911	2.213	0.132
43.000	110.877	80.010	19.995	103.286	19.913	2.058	0.169
43.501	110.941	80.008	19.996	103.288	19.914	2.006	0.162
44.001	111.026	80.008	19.994	103.288	19.909	2.347	0.144
44.500	111.096	80.010	19.995	103.289	19.912	2.169	0.152
45.000	111.189	80.009	19.995	103.290	19.910	2.296	0.159
45.500	111.258	80.009	19.995	103.291	19.911	2.224	0.162
46.000	111.324	80.009	19.995	103.291	19.910	2.250	0.149
46.501	111.445	80.008	19.994	103.291	19.908	2.376	0.161
47.001	111.544	80.010	19.994	103.294	19.908	2.387	0.203
47.500	111.661	80.009	19.995	103.299	19.910	2.305	0.218
48.000	111.692	80.009	19.994	103.306	19.911	2.239	0.182
48.500	111.779	80.007	19.993	103.310	19.906	2.541	0.134
49.001	111.898	80.008	19.994	103.317	19.909	2.320	0.162
49.501	112.002	80.009	19.993	103.321	19.910	2.260	0.214
50.001	112.103	80.009	19.993	103.322	19.909	2.349	0.214
50.500	112.205	80.008	19.993	103.322	19.905	2.603	0.205
51.000	112.275	80.008	19.994	103.323	19.908	2.419	0.188
51.500	112.362	80.009	19.993	103.320	19.903	2.734	0.164
52.000	112.493	80.009	19.993	103.316	19.910	2.273	0.187
52.500	112.585	80.009	19.995	103.313	19.904	2.697	0.220
53.000	112.671	80.008	19.993	103.314	19.908	2.435	0.201
53.500	112.781	80.008	19.994	103.316	19.904	2.648	0.187
54.001	112.916	80.007	19.994	103.321	19.904	2.677	0.221
54.501	113.028	80.007	19.993	103.324	19.902	2.803	0.246
55.000	113.164	80.006	19.993	103.330	19.902	2.783	0.247
55.500	113.278	80.007	19.993	103.330	19.901	2.844	0.249
56.000	113.368	80.007	19.995	103.331	19.907	2.470	0.227
56.501	113.507	80.007	19.994	103.332	19.907	2.463	0.217
57.001	113.595	80.007	19.995	103.333	19.905	2.603	0.228
57.500	113.748	80.007	19.995	103.333	19.899	2.971	0.234
58.001	113.829	80.007	19.994	103.333	19.904	2.668	0.237
58.501	113.921	80.008	19.995	103.333	19.906	2.562	0.203
59.000	114.078	80.007	19.995	103.333	19.904	2.665	0.211
59.500	114.228	80.005	19.994	103.333	19.903	2.726	0.278
60.000	114.333	80.007	19.994	103.332	19.903	2.742	0.281
60.500	114.452	80.005	19.993	103.332	19.900	2.940	0.240
61.000	114.582	80.008	19.993	103.332	19.905	2.603	0.236
61.500	114.710	80.007	19.994	103.335	19.900	2.911	0.253
62.000	114.835	80.007	19.995	103.338	19.904	2.677	0.256
62.501	114.971	80.006	19.993	103.340	19.904	2.664	0.257
63.001	115.100	80.007	19.993	103.341	19.900	2.918	0.263
63.501	115.239	80.008	19.995	103.343	19.901	2.855	0.267
64.000	115.339	80.006	19.994	103.342	19.900	2.960	0.254
64.500	115.501	80.006	19.994	103.343	19.898	3.088	0.250
65.000	115.599	80.006	19.994	103.348	19.901	2.900	0.261
65.501	115.735	80.006	19.993	103.352	19.901	2.861	0.247
66.001	115.896	80.006	19.995	103.349	19.901	2.861	0.265
66.500	116.035	80.006	19.994	103.349	19.900	2.963	0.298
67.001	116.158	80.007	19.994	103.351	19.901	2.863	0.281
67.501	116.322	80.007	19.994	103.351	19.902	2.832	0.275
68.001	116.440	80.007	19.993	103.352	19.899	2.991	0.285
68.501	116.589	80.007	19.994	103.360	19.897	3.162	0.275
69.000	116.735	80.006	19.994	103.365	19.898	3.097	0.281
69.501	116.892	80.007	19.994	103.363	19.898	3.074	0.298
70.001	117.065	80.006	19.995	103.358	19.899	3.011	0.316
70.500	117.178	80.007	19.994	103.359	19.900	2.957	0.308
71.000	117.353	80.007	19.994	103.358	19.896	3.173	0.287
71.500	117.507	80.006	19.993	103.356	19.896	3.207	0.309
72.001	117.638	80.006	19.994	103.354	19.898	3.085	0.307
72.501	117.784	80.006	19.994	103.354	19.894	3.313	0.281
73.001	117.933	80.007	19.995	103.350	19.894	3.295	0.286
73.500	118.130	80.006	19.994	103.347	19.895	3.293	0.320
74.000	118.285	80.006	19.994	103.345	19.895	3.268	0.349
74.501	118.435	80.007	19.994	103.348	19.898	3.050	0.329
75.001	118.560	80.008	19.994	103.352	19.896	3.221	0.290
75.501	118.746	80.008	19.994	103.353	19.900	2.938	0.293
76.001	118.926	80.006	19.994	103.352	19.896	3.221	0.339
76.500	119.041	80.006	19.994	103.352	19.896	3.169	0.331
77.000	119.218	80.007	19.995	103.354	19.900	2.962	0.293
77.500	119.410	80.008	19.994	103.354	19.895	3.240	0.331
78.000	119.550	80.009	19.993	103.354	19.893	3.413	0.351
78.500	119.748	80.007	19.994	103.356	19.892	3.481	0.335
79.000	119.875	80.007	19.994	103.358	19.889	3.663	0.332
79.500	120.062	80.007	19.994	103.359	19.895	3.263	0.319
80.000	120.235	80.008	19.995	103.357	19.894	3.310	0.337
80.500	120.412	80.007	19.993	103.361	19.893	3.384	0.355
81.001	120.564	80.007	19.994	103.362	19.894	3.360	0.339
81.501	120.782	80.007	19.994	103.365	19.893	3.395	0.349
82.001	120.952	80.007	19.994	103.363	19.893	3.369	0.379
82.501	121.117	80.007	19.994	103.365	19.893	3.367	0.362
83.000	121.260	80.007	19.995	103.365	19.893	3.414	0.322
83.500	121.445	80.008	19.995	103.364	19.896	3.168	0.318
84.000	121.661	80.006	19.994	103.363	19.895	3.238	0.364
84.500	121.835	80.008	19.994	103.364	19.894	3.299	0.395
85.000	122.023	80.008	19.994	103.362	19.899	2.986	0.376
85.500	122.193	80.008	19.995	103.359	19.895	3.258	0.360
86.000	122.368	80.009	19.994	103.359	19.894	3.308	0.352
86.500	122.561	80.006	19.994	103.360	19.897	3.115	0.356
87.000	122.714	80.007	19.994	103.361	19.897	3.135	0.357
87.500	122.943	80.005	19.994	103.363	19.897	3.139	0.364
88.001	123.128	80.007	19.994	103.367	19.896	3.191	0.398
88.501	123.326	80.007	19.994	103.369	19.899	2.976	0.399
89.001	123.495	80.005	19.994	103.369	19.900	2.962	0.375
89.500	123.710	80.006	19.994	103.370	19.897	3.155	0.376
90.000	123.895	80.008	19.994	103.371	19.896	3.171	0.392
90.500	124.111	80.006	19.994	103.371	19.898	3.054	0.400
91.000	124.270	80.006	19.993	103.371	19.898	3.063	0.388
91.500	124.465	80.005	19.993	103.370	19.897	3.158	0.364
92.001	124.616	80.005	19.993	103.370	19.897	3.151	0.350
92.501	124.845	80.007	19.994	103.369	19.897	3.140	0.363
93.001	125.061	80.006	19.994	103.369	19.900	2.962	0.413
93.500	125.260	80.006	19.994	103.368	19.896	3.189	0.430
94.000	125.414	80.007	19.994	103.370	19.899	3.022	0.383
94.500	125.635	80.006	19.994	103.377	19.895	3.254	0.364
95.000	125.823	80.007	19.994	103.380	19.897	3.137	0.392
95.500	126.004	80.005	19.995	103.380	19.896	3.220	0.389
96.001	126.241	80.005	19.995	103.380	19.899	3.007	0.394
96.501	126.435	80.006	19.994	103.380	19.897	3.113	0.425
97.000	126.617	80.007	19.995	103.373	19.900	2.960	0.403
97.501	126.859	80.008	19.995	103.371	19.898	3.058	0.400
98.001	127.041	80.008	19.994	103.369	19.899	3.032	0.424
98.500	127.211	80.007	19.995	103.367	19.899	3.011	0.388
99.000	127.496	80.009	19.995	103.364	19.898	3.090	0.404
99.501	127.659	80.007	19.993	103.360	19.899	3.005	0.451
100.001	127.863	80.008	19.995	103.360	19.898	3.034	0.407
100.500	128.093	80.008	19.995	103.361	19.899	2.986	0.401
101.000	128.298	80.009	19.995	103.363	19.898	3.083	0.435
101.500	128.502	80.010	19.994	103.365	19.895	3.236	0.423
102.000	128.727	80.009	19.995	103.368	19.899	3.005	0.419
102.500	128.943	80.009	19.995	103.367	19.898	3.041	0.435
103.000	129.166	80.008	19.995	103.367	19.898	3.081	0.440
103.501	129.378	80.009	19.994	103.367	19.897	3.121	0.437
104.001	129.577	80.010	19.995	103.367	19.902	2.787	0.423
104.500	129.784	80.008	19.995	103.368	19.898	3.063	0.408
105.000	129.998	80.009	19.994	103.369	19.897	3.160	0.413
105.500	130.203	80.008	19.995	103.369	19.898	3.079	0.420
106.000	130.428	80.007	19.996	103.369	19.900	2.915	0.424
106.500	130.649	80.009	19.995	103.369	19.899	3.029	0.438
107.000	130.867	80.009	19.994	103.368	19.901	2.865	0.443
107.501	131.053	80.008	19.994	103.366	19.898	3.072	0.421
108.001	131.287	80.008	19.996	103.366	19.901	2.894	0.412
108.500	131.498	80.008	19.995	103.366	19.896	3.184	0.432
109.000	131.713	80.007	19.995	103.366	19.897	3.101	0.435
109.500	131.997	80.009	19.995	103.367	19.899	3.004	0.463
110.001	132.163	80.008	19.995	103.368	19.897	3.108	0.475
110.501	132.398	80.007	19.994	103.369	19.894	3.330	0.425
111.000	132.608	80.008	19.994	103.369	19.898	3.045	0.423
111.501	132.820	80.007	19.995	103.368	19.901	2.887	0.433
112.001	133.024	80.008	19.994	103.369	19.896	3.168	0.419
112.501	133.260	80.007	19.994	103.369	19.901	2.874	0.428
113.000	133.508	80.008	19.994	103.369	19.897	3.146	0.462
113.500	133.696	80.008	19.995	103.369	19.897	3.160	0.461
114.001	133.966	80.006	19.994	103.369	19.898	3.036	0.447
114.501	134.157	80.008	19.993	103.369	19.897	3.139	0.459
115.000	134.413	80.006	19.993	103.369	19.900	2.948	0.454
115.501	134.587	80.007	19.994	103.369	19.896	3.204	0.439
116.001	134.850	80.007	19.994	103.371	19.899	3.022	0.434
116.500	135.069	80.008	19.995	103.372	19.896	3.186	0.460
117.000	135.276	80.008	19.994	103.372	19.897	3.106	0.454
117.500	135.500	80.008	19.995	103.371	19.898	3.045	0.428
118.000	135.738	80.008	19.995	103.372	19.895	3.234	0.446
118.500	135.971	80.009	19.995	103.372	19.898	3.070	0.467
119.000	136.215	80.007	19.994	103.374	19.901	2.841	0.474
119.500	136.446	80.009	19.995	103.374	19.899	3.022	0.476
120.000	136.652	80.009	19.994	103.375	19.897	3.103	0.456
120.500	136.906	80.006	19.994	103.374	19.896	3.209	0.448
121.001	137.138	80.009	19.995	103.373	19.900	2.937	0.473
121.501	137.409	80.009	19.994	103.372	19.898	3.083	0.494
122.000	137.604	80.009	19.995	103.372	19.897	3.135	0.485
122.501	137.844	80.008	19.995	103.372	19.893	3.407	0.450
123.001	138.122	80.009	19.994	103.371	19.896	3.186	0.476
123.501	138.333	80.008	19.994	103.371	19.899	3.033	0.504
124.000	138.507	80.007	19.994	103.371	19.897	3.106	0.437
124.500	138.771	80.009	19.994	103.371	19.896	3.222	0.412
125.000	138.986	80.009	19.995	103.371	19.897	3.112	0.458
125.501	139.236	80.007	19.995	103.371	19.893	3.389	0.472
126.001	139.475	80.007	19.993	103.371	19.895	3.240	0.477
126.500	139.734	80.009	19.995	103.371	19.900	2.933	0.493
127.000	139.939	80.008	19.994	103.371	19.897	3.121	0.481
127.500	140.177	80.008	19.994	103.371	19.896	3.180	0.454
128.000	140.422	80.010	19.994	103.371	19.900	2.928	0.463
128.500	140.671	80.009	19.995	103.371	19.896	3.209	0.489
129.000	140.909	80.009	19.994	103.371	19.894	3.305	0.490
129.500	141.163	80.009	19.994	103.371	19.897	3.119	0.489
130.000	141.359	80.008	19.995	103.371	19.894	3.330	0.471
130.500	141.601	80.008	19.994	103.371	19.900	2.935	0.444
131.000	141.863	80.009	19.995	103.370	19.895	3.231	0.471
131.500	142.112	80.007	19.995	103.370	19.896	3.173	0.508
132.000	142.368	80.007	19.994	103.370	19.894	3.322	0.508
132.500	142.611	80.009	19.994	103.376	19.898	3.059	0.502
133.000	142.843	80.008	19.994	103.378	19.896	3.184	0.487
133.500	143.070	80.008	19.995	103.378	19.901	2.836	0.467
134.000	143.312	80.008	19.995	103.378	19.902	2.802	0.464
134.500	143.551	80.008	19.994	103.377	19.897	3.124	0.475
135.000	143.805	80.007	19.995	103.372	19.899	2.969	0.487
135.500	144.031	80.008	19.995	103.370	19.899	2.971	0.487
136.000	144.288	80.008	19.994	103.370	19.898	3.070	0.481
136.500	144.505	80.007	19.994	103.370	19.899	2.984	0.479
137.000	144.746	80.006	19.994	103.371	19.898	3.092	0.466
137.500	145.018	80.006	19.995	103.371	19.902	2.820	0.485
138.000	145.276	80.006	19.993	103.371	19.896	3.196	0.521
138.500	145.462	80.005	19.994	103.370	19.898	3.045	0.487
139.000	145.760	80.007	19.995	103.371	19.900	2.960	0.464
139.500	145.982	80.006	19.994	103.371	19.899	3.011	0.502
140.000	146.196	80.007	19.994	103.371	19.895	3.258	0.478
140.500	146.472	80.008	19.995	103.371	19.895	3.268	0.463
141.000	146.692	80.007	19.995	103.372	19.899	2.969	0.493
141.500	146.950	80.007	19.995	103.371	19.894	3.328	0.487
142.000	147.222	80.006	19.995	103.370	19.896	3.198	0.504
142.500	147.440	80.007	19.995	103.369	19.896	3.191	0.510
143.000	147.709	80.007	19.995	103.369	19.896	3.225	0.489
143.500	147.960	80.007	19.995	103.368	19.899	3.000	0.504
144.000	148.205	80.007	19.994	103.369	19.898	3.038	0.508
144.500	148.447	80.008	19.996	103.370	19.899	2.978	0.491
145.000	148.719	80.008	19.995	103.370	19.895	3.252	0.501
145.500	148.946	80.007	19.995	103.369	19.897	3.111	0.507
146.000	149.212	80.008	19.994	103.368	19.899	2.996	0.496
146.500	149.507	80.007	19.994	103.368	19.897	3.160	0.527
147.000	149.770	80.008	19.994	103.367	19.895	3.250	0.560
147.500	149.974	80.008	19.994	103.366	19.898	3.092	0.512
148.000	150.209	80.007	19.995	103.367	19.898	3.079	0.452
148.500	150.470	80.006	19.994	103.368	19.896	3.191	0.467
149.000	150.722	80.007	19.995	103.368	19.900	2.908	0.505
149.500	150.967	80.008	19.995	103.368	19.902	2.830	0.505
150.000	151.193	80.007	19.995	103.369	19.896	3.180	0.484
150.500	151.441	80.007	19.995	103.368	19.902	2.802	0.473
151.000	151.720	80.008	19.994	103.368	19.901	2.852	0.500
151.500	151.934	80.007	19.995	103.368	19.901	2.875	0.510
152.000	152.217	80.007	19.993	103.367	19.901	2.880	0.495
152.500	152.495	80.008	19.994	103.363	19.898	3.060	0.529
153.000	152.743	80.007	19.995	103.362	19.901	2.900	0.543
153.500	152.973	80.008	19.994	103.361	19.899	3.012	0.502
154.001	153.200	80.005	19.993	103.360	19.903	2.734	0.467
154.500	153.426	80.008	19.992	103.361	19.903	2.762	0.455
155.000	153.698	80.008	19.994	103.364	19.902	2.819	0.476
155.500	153.939	80.009	19.994	103.363	19.900	2.938	0.505
156.000	154.157	80.007	19.994	103.358	19.899	3.012	0.486
156.500	154.437	80.007	19.994	103.358	19.898	3.042	0.478
157.000	154.687	80.007	19.994	103.358	19.904	2.702	0.514
157.500	154.936	80.008	19.995	103.358	19.899	3.001	0.515
158.000	155.193	80.007	19.994	103.360	19.901	2.893	0.503
158.500	155.447	80.009	19.995	103.367	19.902	2.812	0.509
159.000	155.687	80.007	19.993	103.367	19.900	2.932	0.502
159.500	155.950	80.008	19.994	103.367	19.902	2.797	0.499
160.000	156.201	80.008	19.994	103.366	19.898	3.078	0.509
160.500	156.444	80.007	19.995	103.365	19.898	3.096	0.504
161.000	156.710	80.009	19.994	103.365	19.897	3.147	0.501
161.500	156.943	80.007	19.994	103.362	19.896	3.201	0.504
162.000	157.204	80.007	19.993	103.355	19.899	3.015	0.497
162.500	157.470	80.007	19.994	103.349	19.900	2.904	0.511
163.000	157.741	80.008	19.994	103.341	19.901	2.898	0.532
163.500	157.950	80.008	19.994	103.334	19.898	3.057	0.509
164.000	158.229	80.007	19.993	103.336	19.902	2.788	0.484
164.500	158.469	80.008	19.995	103.340	19.899	2.970	0.503
165.000	158.728	80.007	19.995	103.346	19.901	2.851	0.509
165.500	158.995	80.008	19.995	103.350	19.900	2.905	0.513
166.000	159.254	80.007	19.993	103.352	19.903	2.704	0.526
166.501	159.492	80.006	19.993	103.347	19.903	2.747	0.511
167.000	159.736	80.007	19.995	103.347	19.904	2.650	0.490
167.500	159.988	80.007	19.994	103.345	19.903	2.718	0.489
168.000	160.229	80.007	19.995	103.343	19.905	2.589	0.494
168.500	160.499	80.006	19.996	103.342	19.905	2.574	0.502
169.000	160.789	80.007	19.995	103.342	19.901	2.850	0.535
169.500	160.982	80.006	19.994	103.341	19.899	2.990	0.522
170.000	161.253	80.007	19.995	103.339	19.899	3.031	0.474
170.500	161.470	80.005	19.995	103.341	19.900	2.952	0.476
171.000	161.751	80.007	19.995	103.341	19.900	2.956	0.493
171.500	162.020	80.007	19.994	103.344	19.903	2.745	0.524
172.000	162.243	80.007	19.994	103.346	19.904	2.698	0.521
172.500	162.510	80.007	19.994	103.345	19.902	2.779	0.491
173.000	162.730	80.006	19.995	103.341	19.900	2.945	0.488
173.500	162.983	80.008	19.994	103.340	19.904	2.653	0.480
174.000	163.240	80.006	19.994	103.336	19.905	2.576	0.492
174.500	163.463	80.006	19.995	103.333	19.900	2.907	0.495
175.000	163.732	80.006	19.994	103.332	19.899	3.008	0.486
175.500	164.009	80.007	19.995	103.335	19.903	2.729	0.519
176.000	164.270	80.007	19.994	103.338	19.903	2.733	0.542
176.500	164.527	80.007	19.995	103.340	19.900	2.913	0.528
177.000	164.761	80.009	19.995	103.346	19.903	2.705	0.505
177.500	165.016	80.007	19.995	103.349	19.906	2.540	0.490
178.000	165.265	80.009	19.993	103.347	19.906	2.522	0.497
178.500	165.537	80.007	19.995	103.346	19.901	2.885	0.513
179.000	165.797	80.008	19.993	103.345	19.904	2.686	0.527
179.500	166.020	80.008	19.995	103.342	19.903	2.750	0.507
180.000	166.323	80.008	19.994	103.339	19.901	2.894	0.504
180.500	166.555	80.008	19.994	103.340	19.903	2.734	0.531
181.000	166.826	80.008	19.995	103.339	19.903	2.741	0.520
181.500	167.082	80.008	19.994	103.339	19.900	2.958	0.515
182.000	167.324	80.009	19.994	103.337	19.902	2.788	0.513
182.500	167.570	80.009	19.994	103.339	19.902	2.794	0.493
183.000	167.834	80.009	19.995	103.342	19.901	2.864	0.499
183.500	168.075	80.009	19.994	103.341	19.904	2.687	0.507
184.000	168.324	80.009	19.994	103.341	19.903	2.721	0.498
184.500	168.564	80.009	19.994	103.341	19.904	2.642	0.489
185.000	168.787	80.009	19.994	103.339	19.907	2.500	0.476
185.500	169.036	80.010	19.994	103.339	19.905	2.606	0.468
186.000	169.331	80.010	19.993	103.341	19.905	2.579	0.508
186.500	169.575	80.009	19.994	103.343	19.904	2.675	0.541
187.000	169.851	80.009	19.993	103.342	19.905	2.575	0.530
187.500	170.100	80.010	19.993	103.342	19.906	2.525	0.523
188.000	170.334	80.008	19.993	103.338	19.904	2.676	0.504
188.500	170.618	80.010	19.995	103.335	19.905	2.583	0.500
189.000	170.841	80.008	19.994	103.333	19.905	2.577	0.512
189.500	171.132	80.009	19.993	103.334	19.908	2.439	0.511
190.000	171.327	80.009	19.995	103.334	19.905	2.583	0.500
190.500	171.607	80.009	19.994	103.334	19.906	2.570	0.480
191.000	171.870	80.009	19.995	103.335	19.907	2.489	0.509
191.500	172.150	80.010	19.995	103.335	19.903	2.740	0.543
192.000	172.392	80.009	19.994	103.335	19.903	2.749	0.533
192.500	172.636	80.008	19.994	103.334	19.906	2.538	0.504
193.000	172.869	80.009	19.994	103.334	19.907	2.489	0.482
193.500	173.119	80.008	19.994	103.334	19.907	2.502	0.480
194.000	173.380	80.008	19.994	103.333	19.903	2.714	0.497
194.500	173.596	80.007	19.995	103.332	19.904	2.651	0.494
195.000	173.835	80.008	19.995	103.331	19.903	2.752	0.466
195.500	174.144	80.008	19.994	103.332	19.905	2.588	0.501
196.000	174.359	80.008	19.995	103.331	19.907	2.442	0.536
196.500	174.648	80.007	19.994	103.331	19.904	2.673	0.514
197.000	174.868	80.006	19.994	103.331	19.905	2.579	0.507
197.500	175.119	80.008	19.995	103.332	19.904	2.648	0.490
198.000	175.383	80.006	19.995	103.327	19.904	2.642	0.493
198.500	175.653	80.008	19.995	103.326	19.903	2.743	0.525
199.000	175.883	80.007	19.995	103.327	19.904	2.673	0.517
199.501	176.133	80.007	19.995	103.328	19.906	2.534	0.490
200.000	176.390	80.007	19.995	103.329	19.908	2.384	0.494
200.500	176.629	80.007	19.995	103.334	19.904	2.696	0.502
201.000	176.848	80.007	19.995	103.334	19.905	2.572	0.477
201.500	177.153	80.008	19.994	103.334	19.904	2.685	0.491
202.001	177.378	80.007	19.994	103.334	19.905	2.588	0.527
202.500	177.637	80.007	19.994	103.333	19.907	2.451	0.506
203.000	177.913	80.007	19.995	103.333	19.902	2.783	0.509
203.500	178.148	80.008	19.995	103.332	19.905	2.606	0.523
204.000	178.372	80.009	19.994	103.332	19.908	2.395	0.485
204.500	178.657	80.007	19.993	103.331	19.910	2.253	0.484
205.000	178.903	80.009	19.995	103.332	19.905	2.593	0.520
205.501	179.158	80.009	19.995	103.330	19.906	2.534	0.516
206.000	179.418	80.008	19.994	103.330	19.908	2.429	0.508
206.500	179.684	80.011	19.995	103.329	19.908	2.435	0.520
207.000	179.921	80.010	19.996	103.330	19.911	2.228	0.515
207.500	180.146	80.010	19.995	103.329	19.906	2.527	0.483
208.000	180.376	80.010	19.995	103.328	19.907	2.480	0.458
208.500	180.648	80.010	19.993	103.328	19.908	2.397	0.478
209.000	180.891	80.010	19.994	103.328	19.911	2.235	0.509
209.500	181.132	80.011	19.994	103.327	19.909	2.327	0.499
210.000	181.423	80.010	19.994	103.326	19.910	2.302	0.508
210.500	181.640	80.011	19.995	103.326	19.910	2.257	0.520
211.000	181.874	80.010	19.995	103.324	19.910	2.249	0.480
211.500	182.116	80.011	19.994	103.325	19.909	2.367	0.464
212.000	182.427	80.009	19.994	103.323	19.911	2.242	0.515
212.500	182.691	80.012	19.994	103.322	19.910	2.296	0.564
213.000	182.929	80.009	19.996	103.323	19.911	2.201	0.539
213.500	183.136	80.010	19.995	103.325	19.908	2.386	0.474
214.000	183.397	80.010	19.995	103.325	19.912	2.167	0.456
214.500	183.644	80.011	19.994	103.326	19.909	2.358	0.488
215.000	183.881	80.008	19.995	103.323	19.907	2.485	0.496
215.500	184.140	80.010	19.994	103.322	19.905	2.574	0.490
216.000	184.379	80.010	19.995	103.321	19.907	2.444	0.496
216.500	184.638	80.007	19.995	103.321	19.910	2.296	0.498
217.000	184.880	80.008	19.994	103.322	19.907	2.467	0.500
217.500	185.100	80.008	19.994	103.325	19.909	2.365	0.482
218.000	185.395	80.009	19.996	103.327	19.907	2.467	0.488
218.500	185.687	80.008	19.995	103.328	19.909	2.334	0.550
219.000	185.897	80.007	19.995	103.328	19.908	2.413	0.545
219.500	186.165	80.007	19.995	103.329	19.907	2.485	0.490
220.000	186.411	80.006	19.995	103.327	19.912	2.157	0.496
220.500	186.679	80.007	19.995	103.327	19.907	2.451	0.514
221.000	186.917	80.007	19.995	103.326	19.910	2.303	0.510
221.500	187.209	80.007	19.994	103.326	19.909	2.346	0.518
222.000	187.483	80.007	19.996	103.327	19.910	2.282	0.548
222.500	187.728	80.007	19.995	103.329	19.912	2.166	0.542
223.000	187.954	80.007	19.995	103.327	19.907	2.496	0.495
223.500	188.243	80.007	19.995	103.326	19.908	2.415	0.493
224.000	188.431	80.008	19.994	103.325	19.910	2.274	0.496
224.500	188.728	80.005	19.994	103.324	19.909	2.334	0.481
225.000	188.959	80.006	19.996	103.324	19.907	2.467	0.507
225.500	189.221	80.006	19.995	103.325	19.910	2.293	0.511
226.000	189.440	80.006	19.996	103.326	19.910	2.293	0.487
226.500	189.713	80.007	19.995	103.327	19.908	2.435	0.486
227.000	189.958	80.007	19.995	103.325	19.909	2.347	0.505
227.500	190.216	80.006	19.995	103.323	19.907	2.462	0.511
228.000	190.454	80.008	19.996	103.324	19.909	2.323	0.499
228.500	190.713	80.006	19.996	103.322	19.909	2.332	0.496
229.000	190.927	80.006	19.995	103.320	19.909	2.363	0.485
229.500	191.144	80.006	19.995	103.317	19.911	2.193	0.452
230.000	191.396	80.006	19.995	103.312	19.910	2.301	0.450
230.500	191.671	80.007	19.995	103.309	19.910	2.260	0.498
231.000	191.907	80.007	19.996	103.308	19.913	2.082	0.519
231.500	192.192	80.008	19.996	103.308	19.910	2.247	0.516
232.000	192.399	80.006	19.996	103.307	19.909	2.316	0.506
232.500	192.676	80.007	19.996	103.309	19.908	2.384	0.488
233.000	192.907	80.008	19.995	103.310	19.908	2.388	0.496
233.500	193.152	80.008	19.995	103.311	19.913	2.084	0.492
234.000	193.438	80.008	19.995	103.308	19.907	2.455	0.504
234.500	193.692	80.007	19.996	103.309	19.908	2.413	0.536
235.001	193.900	80.007	19.995	103.313	19.912	2.163	0.501
235.501	194.178	80.007	19.995	103.311	19.908	2.429	0.474
236.000	194.420	80.007	19.996	103.314	19.911	2.222	0.503
236.500	194.682	80.007	19.996	103.319	19.911	2.238	0.512
237.000	194.929	80.008	19.995	103.322	19.910	2.260	0.507
237.500	195.141	80.006	19.994	103.318	19.910	2.244	0.484
238.000	195.406	80.006	19.994	103.320	19.912	2.156	0.468
238.500	195.651	80.007	19.995	103.315	19.908	2.426	0.494
239.000	195.864	80.007	19.994	103.312	19.914	2.006	0.484
239.500	196.124	80.008	19.995	103.310	19.914	2.037	0.466
240.000	196.385	80.008	19.996	103.309	19.910	2.285	0.497
240.500	196.634	80.007	19.994	103.309	19.909	2.370	0.515
241.000	196.893	80.008	19.993	103.308	19.910	2.258	0.509
241.500	197.152	80.006	19.994	103.305	19.908	2.377	0.513
242.001	197.368	80.008	19.994	103.304	19.914	1.986	0.496
242.500	197.601	80.008	19.994	103.304	19.911	2.210	0.462
243.000	197.880	80.007	19.994	103.306	19.911	2.188	0.480
243.501	198.122	80.008	19.995	103.309	19.915	1.929	0.517
244.001	198.362	80.008	19.994	103.311	19.914	2.026	0.502
244.500	198.651	80.008	19.995	103.314	19.910	2.273	0.505
245.000	198.868	80.008	19.995	103.319	19.912	2.125	0.517
245.500	199.123	80.008	19.994	103.317	19.910	2.267	0.489
246.000	199.375	80.007	19.993	103.314	19.912	2.156	0.490
246.500	199.587	80.007	19.994	103.314	19.912	2.138	0.486
247.000	199.842	80.008	19.994	103.314	19.912	2.163	0.466
247.500	200.117	80.007	19.994	103.312	19.912	2.127	0.499
248.000	200.373	80.008	19.995	103.312	19.914	2.042	0.530
248.500	200.591	80.007	19.994	103.316	19.911	2.218	0.503
249.000	200.852	80.007	19.994	103.320	19.910	2.276	0.476
249.500	201.090	80.007	19.994	103.318	19.913	2.067	0.489
250.000	201.366	80.007	19.994	103.315	19.913	2.073	0.507
250.500	201.591	80.008	19.994	103.313	19.912	2.150	0.508
251.000	201.853	80.006	19.994	103.308	19.912	2.112	0.494
251.500	202.081	80.008	19.993	103.305	19.913	2.110	0.489
252.000	202.369	80.008	19.994	103.302	19.916	1.896	0.503
252.500	202.610	80.006	19.993	103.303	19.913	2.060	0.522
253.000	202.822	80.006	19.995	103.309	19.913	2.072	0.491
253.500	203.052	80.008	19.994	103.314	19.915	1.966	0.447
254.000	203.359	80.007	19.995	103.317	19.915	1.955	0.490
254.500	203.597	80.007	19.994	103.321	19.916	1.867	0.541
255.000	203.839	80.007	19.994	103.323	19.916	1.907	0.512
255.500	204.060	80.007	19.994	103.322	19.917	1.797	0.471
256.000	204.341	80.007	19.995	103.322	19.914	2.021	0.482
256.500	204.564	80.007	19.994	103.318	19.916	1.868	0.503
257.000	204.812	80.008	19.995	103.317	19.915	1.970	0.488
257.500	205.067	80.007	19.995	103.314	19.910	2.255	0.487
258.000	205.313	80.008	19.995	103.310	19.914	2.004	0.502
258.500	205.596	80.008	19.993	103.309	19.912	2.172	0.515
259.000	205.809	80.007	19.994	103.309	19.913	2.085	0.513
259.500	206.083	80.007	19.994	103.307	19.914	1.986	0.492
260.000	206.316	80.007	19.995	103.313	19.916	1.891	0.497
260.500	206.581	80.008	19.995	103.318	19.914	2.026	0.503
261.000	206.828	80.007	19.995	103.316	19.912	2.137	0.505
261.500	207.022	80.008	19.995	103.316	19.918	1.754	0.476
262.000	207.374	80.008	19.994	103.316	19.914	2.036	0.493
262.500	207.579	80.008	19.994	103.309	19.916	1.855	0.551
263.000	207.830	80.008	19.993	103.302	19.912	2.134	0.507
263.500	208.079	80.007	19.994	103.300	19.913	2.062	0.478
264.000	208.327	80.008	19.994	103.299	19.916	1.851	0.498
264.500	208.566	80.007	19.993	103.301	19.916	1.856	0.492
265.000	208.814	80.007	19.994	103.304	19.914	2.045	0.487
265.500	209.071	80.009	19.994	103.307	19.913	2.056	0.496
266.000	209.333	80.007	19.994	103.310	19.913	2.049	0.512
266.500	209.555	80.009	19.994	103.315	19.915	1.955	0.501
267.000	209.819	80.009	19.995	103.320	19.918	1.782	0.485
267.500	210.093	80.008	19.994	103.321	19.914	1.986	0.512
268.000	210.309	80.010	19.994	103.319	19.913	2.108	0.514
268.500	210.617	80.009	19.994	103.320	19.912	2.169	0.507
269.000	210.851	80.010	19.994	103.317	19.912	2.117	0.533
269.500	211.079	80.010	19.994	103.311	19.915	1.946	0.502
270.001	211.358	80.010	19.993	103.311	19.916	1.901	0.485
270.500	211.612	80.008	19.994	103.317	19.914	2.036	0.521
271.000	211.796	80.010	19.995	103.316	19.913	2.082	0.486
271.500	212.063	80.007	19.994	103.312	19.916	1.855	0.444
272.000	212.271	80.008	19.994	103.310	19.913	2.058	0.463
272.500	212.540	80.009	19.994	103.305	19.911	2.229	0.476
273.000	212.824	80.007	19.995	103.300	19.915	1.932	0.515
273.500	213.068	80.009	19.995	103.297	19.916	1.907	0.540
274.000	213.297	80.008	19.995	103.297	19.911	2.209	0.500
274.500	213.571	80.010	19.995	103.297	19.913	2.071	0.488
275.000	213.798	80.008	19.993	103.301	19.914	2.036	0.502
275.500	214.048	80.009	19.995	103.299	19.915	1.919	0.489
276.000	214.321	80.009	19.993	103.297	19.916	1.858	0.500
276.500	214.564	80.007	19.994	103.299	19.918	1.777	0.520
277.000	214.814	80.008	19.994	103.299	19.915	1.945	0.505
277.500	215.061	80.011	19.994	103.294	19.915	1.939	0.495
278.000	215.278	80.008	19.993	103.294	19.917	1.810	0.480
278.500	215.519	80.007	19.994	103.294	19.916	1.858	0.461
279.000	215.798	80.009	19.994	103.291	19.915	1.939	0.489
279.500	216.014	80.009	19.993	103.291	19.914	2.035	0.507
280.000	216.265	80.008	19.995	103.292	19.912	2.114	0.481
280.500	216.531	80.007	19.996	103.292	19.917	1.840	0.492
281.001	216.771	80.010	19.995	103.294	19.918	1.738	0.512
281.501	217.035	80.010	19.994	103.298	19.916	1.864	0.505
282.000	217.268	80.009	19.995	103.303	19.917	1.797	0.500
282.500	217.522	80.010	19.993	103.306	19.917	1.802	0.492
283.000	217.747	80.009	19.993	103.305	19.917	1.784	0.483
283.500	218.013	80.009	19.994	103.307	19.919	1.689	0.485
284.000	218.250	80.010	19.995	103.304	19.915	1.943	0.497
284.500	218.464	80.008	19.995	103.302	19.919	1.658	0.477
285.000	218.748	80.009	19.994	103.300	19.918	1.725	0.474
285.500	218.990	80.010	19.994	103.302	19.918	1.770	0.512
286.000	219.236	80.010	19.995	103.299	19.918	1.723	0.507
286.500	219.456	80.011	19.994	103.299	19.915	1.970	0.478
287.000	219.734	80.010	19.995	103.302	19.916	1.849	0.482
287.500	219.967	80.010	19.995	103.303	19.915	1.936	0.504
288.001	220.197	80.009	19.994	103.303	19.915	1.923	0.486
288.500	220.457	80.010	19.996	103.308	19.917	1.815	0.476
289.000	220.684	80.010	19.994	103.307	19.917	1.797	0.489
289.500	220.953	80.010	19.995	103.304	19.918	1.719	0.492
290.000	221.234	80.009	19.994	103.307	19.918	1.723	0.523
290.500	221.500	80.010	19.995	103.307	19.914	2.038	0.549
291.000	221.742	80.010	19.995	103.303	19.920	1.599	0.527
291.500	221.989	80.009	19.994	103.301	19.917	1.811	0.498
292.000	222.220	80.008	19.994	103.300	19.919	1.678	0.484
292.501	222.465	80.010	19.994	103.298	19.917	1.801	0.477
293.000	222.733	80.010	19.995	103.295	19.916	1.894	0.494
293.500	222.983	80.010	19.995	103.296	19.916	1.853	0.516
294.000	223.232	80.010	19.995	103.297	19.918	1.723	0.509
294.500	223.484	80.010	19.995	103.297	19.918	1.734	0.500
295.000	223.732	80.009	19.993	103.294	19.918	1.754	0.500
295.500	223.969	80.011	19.995	103.294	19.919	1.700	0.493
296.000	224.194	80.009	19.996	103.292	19.922	1.471	0.474
296.500	224.449	80.010	19.996	103.296	19.919	1.676	0.470
297.000	224.714	80.010	19.995	103.304	19.921	1.577	0.500
297.500	224.969	80.009	19.995	103.308	19.923	1.424	0.521
298.000	225.172	80.010	19.995	103.311	19.918	1.750	0.489
298.500	225.444	80.008	19.995	103.311	19.919	1.655	0.466
299.000	225.703	80.009	19.996	103.306	19.916	1.898	0.503
299.500	225.953	80.009	19.995	103.298	19.921	1.574	0.520
300.000	226.220	80.009	19.995	103.294	19.917	1.833	0.513
300.500	226.452	80.008	19.995	103.291	19.917	1.808	0.508
301.000	226.685	80.006	19.995	103.293	19.921	1.534	0.482
301.500	226.945	80.007	19.995	103.295	19.918	1.773	0.479
302.000	227.175	80.007	19.995	103.298	19.918	1.719	0.491
302.500	227.439	80.008	19.996	103.302	19.918	1.721	0.492
303.000	227.706	80.007	19.996	103.302	19.917	1.792	0.512
303.500	227.953	80.008	19.995	103.302	19.914	2.000	0.523
304.000	228.160	80.008	19.996	103.301	19.921	1.572	0.484
304.500	228.428	80.007	19.996	103.299	19.919	1.716	0.465
305.000	228.721	80.008	19.996	103.295	19.918	1.774	0.519
305.500	228.945	80.006	19.996	103.296	19.920	1.642	0.539
306.000	229.232	80.008	19.995	103.298	19.916	1.874	0.514
306.500	229.477	80.008	19.995	103.297	19.917	1.846	0.521
307.000	229.726	80.007	19.995	103.297	19.920	1.602	0.513
307.500	229.961	80.007	19.995	103.298	19.917	1.847	0.489
308.000	230.210	80.007	19.995	103.299	19.918	1.781	0.484
308.500	230.470	80.005	19.995	103.296	19.921	1.568	0.497
309.000	230.717	80.006	19.995	103.296	19.918	1.763	0.508
309.501	230.979	80.007	19.995	103.298	19.920	1.604	0.508
310.000	231.243	80.006	19.995	103.298	19.918	1.773	0.517
310.500	231.480	80.007	19.995	103.297	19.921	1.552	0.514
311.000	231.760	80.007	19.995	103.299	19.916	1.896	0.510
311.500	232.005	80.008	19.995	103.299	19.920	1.613	0.521
312.000	232.220	80.007	19.995	103.296	19.919	1.716	0.492
312.500	232.466	80.008	19.995	103.296	19.917	1.826	0.460
313.000	232.708	80.006	19.995	103.297	19.916	1.912	0.475
313.500	232.995	80.007	19.995	103.297	19.918	1.775	0.509
314.000	233.230	80.008	19.996	103.297	19.916	1.910	0.526
314.500	233.471	80.008	19.994	103.298	19.916	1.885	0.500
315.000	233.696	80.006	19.996	103.298	19.916	1.890	0.471
315.500	233.955	80.006	19.994	103.298	19.915	1.950	0.475
316.000	234.196	80.005	19.996	103.298	19.917	1.802	0.492
316.500	234.478	80.006	19.996	103.297	19.919	1.660	0.511
317.000	234.713	80.008	19.996	103.296	19.916	1.891	0.520
317.500	234.936	80.005	19.995	103.296	19.919	1.676	0.488
318.000	235.236	80.007	19.995	103.295	19.917	1.795	0.491
318.500	235.433	80.006	19.995	103.294	19.919	1.676	0.510
319.000	235.698	80.006	19.996	103.293	19.917	1.811	0.479
319.500	235.931	80.006	19.996	103.293	19.918	1.734	0.480
320.000	236.216	80.007	19.995	103.293	19.920	1.646	0.508
320.500	236.423	80.007	19.994	103.294	19.920	1.599	0.505
321.000	236.697	80.007	19.996	103.295	19.919	1.665	0.487
321.500	236.960	80.007	19.995	103.295	19.919	1.673	0.509
322.000	237.232	80.007	19.996	103.297	19.921	1.559	0.536
322.500	237.457	80.006	19.997	103.297	19.917	1.802	0.515
323.000	237.707	80.008	19.995	103.296	19.920	1.637	0.486
323.500	237.941	80.007	19.996	103.296	19.920	1.635	0.480
324.000	238.170	80.008	19.995	103.295	19.926	1.208	0.474
324.500	238.461	80.007	19.996	103.294	19.917	1.806	0.491
325.000	238.706	80.007	19.996	103.294	19.923	1.446	0.528
325.500	238.944	80.006	19.995	103.294	19.918	1.725	0.510
326.000	239.214	80.007	19.995	103.295	19.919	1.709	0.495
326.500	239.399	80.007	19.995	103.296	19.922	1.505	0.481
327.000	239.684	80.007	19.996	103.295	19.922	1.466	0.463
327.500	239.932	80.006	19.995	103.295	19.920	1.651	0.501
328.000	240.138	80.007	19.995	103.296	19.920	1.640	0.493
328.500	240.416	80.007	19.996	103.295	19.924	1.383	0.469
329.000	240.649	80.008	19.996	103.293	19.922	1.491	0.498
329.500	240.875	80.008	19.994	103.294	19.921	1.530	0.485
330.000	241.145	80.006	19.995	103.294	19.920	1.633	0.478
330.500	241.410	80.007	19.995	103.294	19.922	1.491	0.516
331.000	241.679	80.007	19.995	103.294	19.921	1.577	0.534
331.500	241.917	80.007	19.995	103.294	19.920	1.597	0.521
332.000	242.182	80.006	19.994	103.294	19.921	1.566	0.505
332.500	242.430	80.006	19.994	103.294	19.922	1.516	0.508
333.000	242.699	80.007	19.993	103.295	19.921	1.579	0.514
333.500	242.908	80.007	19.995	103.296	19.922	1.493	0.498
334.000	243.204	80.007	19.995	103.296	19.921	1.545	0.492
334.500	243.424	80.008	19.994	103.295	19.920	1.615	0.510
335.000	243.690	80.008	19.994	103.296	19.917	1.797	0.501
335.500	243.928	80.008	19.994	103.295	19.920	1.631	0.495
336.000	244.154	80.008	19.993	103.295	19.917	1.813	0.484
336.500	244.452	80.005	19.994	103.294	19.918	1.746	0.494
337.000	244.669	80.006	19.993	103.294	19.921	1.579	0.519
337.500	244.950	80.007	19.995	103.292	19.920	1.647	0.506
338.000	245.170	80.006	19.995	103.292	19.919	1.669	0.499
338.500	245.423	80.007	19.994	103.292	19.921	1.541	0.487
339.000	245.679	80.007	19.995	103.292	19.918	1.764	0.491
339.500	245.936	80.006	19.994	103.291	19.921	1.527	0.511
340.000	246.156	80.008	19.994	103.292	19.922	1.480	0.495
340.500	246.429	80.006	19.994	103.293	19.917	1.799	0.485
341.000	246.717	80.008	19.993	103.292	19.921	1.586	0.526
341.500	246.904	80.007	19.993	103.292	19.920	1.651	0.518
342.000	247.191	80.008	19.994	103.293	19.921	1.581	0.475
342.500	247.441	80.008	19.995	103.293	19.921	1.552	0.506
343.000	247.701	80.008	19.995	103.292	19.917	1.786	0.523
343.500	247.917	80.008	19.994	103.293	19.918	1.759	0.493
344.000	248.155	80.007	19.994	103.293	19.920	1.593	0.465
344.500	248.421	80.008	19.995	103.293	19.919	1.716	0.479
345.000	248.710	80.010	19.995	103.293	19.920	1.633	0.529
345.501	248.955	80.009	19.994	103.293	19.917	1.790	0.545
346.000	249.224	80.008	19.994	103.289	19.922	1.516	0.524
346.500	249.439	80.008	19.994	103.288	19.916	1.883	0.499
347.000	249.725	80.011	19.995	103.288	19.914	2.000	0.492
347.500	249.954	80.010	19.995	103.288	19.915	1.923	0.508
348.001	250.207	80.010	19.995	103.288	19.920	1.611	0.499
348.500	250.473	80.010	19.995	103.291	19.919	1.674	0.501
349.000	250.717	80.010	19.994	103.291	19.917	1.798	0.514
349.500	250.940	80.009	19.995	103.291	19.915	1.944	0.488
350.000	251.206	80.009	19.994	103.289	19.918	1.728	0.478
350.500	251.451	80.009	19.993	103.286	19.918	1.727	0.500
351.000	251.742	80.009	19.995	103.285	19.918	1.759	0.524
351.500	251.987	80.009	19.995	103.285	19.921	1.537	0.536
352.000	252.203	80.010	19.994	103.285	19.919	1.671	0.499
352.500	252.465	80.010	19.995	103.285	19.914	1.986	0.470
353.000	252.703	80.009	19.994	103.288	19.918	1.770	0.489
353.500	252.976	80.008	19.995	103.289	19.916	1.883	0.505
354.000	253.245	80.009	19.994	103.289	19.919	1.678	0.527
354.500	253.466	80.009	19.994	103.290	19.919	1.692	0.516
355.000	253.754	80.008	19.993	103.290	19.923	1.424	0.499
355.500	253.973	80.009	19.996	103.290	19.919	1.710	0.508
356.000	254.216	80.010	19.995	103.290	19.917	1.797	0.485
356.500	254.490	80.007	19.994	103.291	19.919	1.703	0.489
357.000	254.750	80.008	19.995	103.290	19.918	1.771	0.526
357.500	254.973	80.010	19.994	103.289	19.920	1.617	0.509
358.000	255.207	80.009	19.995	103.288	19.921	1.577	0.470
358.500	255.496	80.009	19.995	103.287	19.922	1.494	0.490
359.000	255.744	80.007	19.994	103.286	19.918	1.734	0.530
359.500	256.005	80.008	19.995	103.284	19.920	1.610	0.523
360.000	256.231	80.009	19.994	103.284	19.917	1.791	0.498
360.500	256.484	80.008	19.994	103.285	19.918	1.773	0.483
361.000	256.711	80.007	19.995	103.285	19.917	1.811	0.479
361.500	256.980	80.009	19.995	103.286	19.921	1.537	0.488
362.000	257.230	80.009	19.995	103.288	19.920	1.624	0.507
362.500	257.469	80.009	19.995	103.286	19.921	1.584	0.504
363.000	257.718	80.008	19.994	103.286	19.919	1.676	0.489
363.500	258.023	80.008	19.994	103.286	19.918	1.773	0.521
364.000	258.229	80.008	19.995	103.285	19.920	1.611	0.533
364.500	258.488	80.009	19.995	103.285	19.919	1.672	0.488
365.000	258.771	80.009	19.993	103.285	19.923	1.413	0.503
365.500	259.011	80.010	19.994	103.285	19.921	1.528	0.532
366.000	259.241	80.009	19.994	103.287	19.921	1.584	0.497
366.500	259.510	80.008	19.994	103.287	19.924	1.330	0.485
367.000	259.738	80.009	19.995	103.286	19.921	1.547	0.498
367.500	259.980	80.009	19.994	103.284	19.918	1.745	0.483
368.000	260.260	80.009	19.994	103.282	19.922	1.457	0.496
368.500	260.494	80.009	19.994	103.282	19.920	1.626	0.518
369.000	260.734	80.010	19.995	103.282	19.920	1.649	0.494
369.500	260.991	80.010	19.993	103.283	19.921	1.572	0.486
370.000	261.247	80.010	19.994	103.287	19.921	1.573	0.505
370.500	261.483	80.010	19.994	103.290	19.920	1.606	0.502
371.000	261.765	80.010	19.994	103.288	19.921	1.523	0.505
371.500	262.018	80.010	19.994	103.288	19.919	1.671	0.526
372.000	262.217	80.011	19.993	103.285	19.925	1.312	0.493
372.500	262.472	80.011	19.995	103.284	19.918	1.748	0.453
373.000	262.755	80.011	19.993	103.284	19.921	1.586	0.496
373.501	262.999	80.011	19.993	103.286	19.921	1.573	0.533
374.001	263.225	80.012	19.994	103.281	19.919	1.654	0.499
374.500	263.509	80.011	19.994	103.285	19.923	1.455	0.490
375.000	263.781	80.011	19.993	103.285	19.916	1.888	0.533
375.500	264.019	80.011	19.994	103.281	19.920	1.615	0.533
376.000	264.258	80.010	19.994	103.279	19.919	1.669	0.494
376.500	264.521	80.009	19.994	103.284	19.922	1.469	0.490
377.000	264.781	80.011	19.994	103.284	19.923	1.442	0.512
377.500	265.025	80.009	19.993	103.284	19.923	1.415	0.513
378.000	265.287	80.009	19.995	103.288	19.922	1.505	0.505
378.501	265.554	80.010	19.994	103.291	19.928	1.086	0.518
379.001	265.800	80.009	19.994	103.291	19.923	1.415	0.521
379.500	266.016	80.010	19.994	103.291	19.925	1.287	0.487
380.000	266.292	80.009	19.994	103.291	19.923	1.440	0.477
380.500	266.560	80.009	19.994	103.290	19.925	1.262	0.518
381.000	266.809	80.009	19.994	103.286	19.925	1.298	0.530
381.500	267.026	80.007	19.994	103.280	19.922	1.489	0.491
382.000	267.272	80.009	19.995	103.278	19.923	1.451	0.465
382.500	267.543	80.009	19.995	103.276	19.927	1.188	0.490
383.000	267.800	80.007	19.994	103.278	19.921	1.555	0.523
383.500	268.042	80.008	19.995	103.282	19.926	1.221	0.514
384.000	268.251	80.005	19.995	103.284	19.925	1.302	0.475
384.500	268.554	80.007	19.994	103.284	19.922	1.480	0.481
385.000	268.807	80.007	19.995	103.280	19.923	1.449	0.534
385.500	269.052	80.007	19.995	103.277	19.918	1.728	0.527
386.000	269.243	80.007	19.996	103.272	19.926	1.246	0.467
386.500	269.527	80.007	19.995	103.274	19.923	1.409	0.455
387.000	269.757	80.007	19.996	103.276	19.917	1.845	0.494
387.500	270.040	80.006	19.996	103.281	19.919	1.654	0.513
388.000	270.319	80.008	19.995	103.282	19.919	1.701	0.538
388.500	270.536	80.007	19.994	103.285	19.924	1.372	0.530
389.000	270.826	80.007	19.995	103.282	19.920	1.626	0.502
389.500	271.084	80.006	19.994	103.281	19.924	1.357	0.527
390.000	271.315	80.007	19.996	103.282	19.925	1.296	0.519
390.500	271.620	80.006	19.994	103.283	19.924	1.350	0.513
391.000	271.869	80.006	19.995	103.285	19.920	1.620	0.545
391.500	272.099	80.007	19.994	103.284	19.920	1.590	0.516
392.000	272.392	80.007	19.995	103.281	19.922	1.512	0.501
392.500	272.656	80.007	19.994	103.276	19.924	1.377	0.540
393.000	272.908	80.006	19.995	103.275	19.920	1.593	0.536
393.500	273.170	80.008	19.995	103.277	19.922	1.489	0.515
394.000	273.381	80.007	19.994	103.279	19.921	1.525	0.494
394.500	273.651	80.006	19.994	103.282	19.918	1.779	0.477
395.000	273.899	80.008	19.994	103.286	19.921	1.552	0.499
395.500	274.130	80.007	19.995	103.284	19.926	1.229	0.499
396.000	274.383	80.007	19.994	103.281	19.924	1.348	0.482
396.500	274.646	80.008	19.994	103.277	19.923	1.406	0.500
397.000	274.897	80.007	19.994	103.273	19.923	1.418	0.515
397.500	275.129	80.008	19.994	103.270	19.926	1.210	0.498
398.000	275.401	80.008	19.995	103.268	19.924	1.377	0.494
398.500	275.603	80.008	19.994	103.271	19.922	1.501	0.489
399.000	275.881	80.007	19.994	103.278	19.922	1.514	0.477
399.500	276.114	80.009	19.994	103.281	19.923	1.420	0.496
400.000	276.354	80.008	19.995	103.279	19.925	1.323	0.492
400.500	276.648	80.008	19.995	103.284	19.922	1.512	0.504
401.000	276.841	80.007	19.994	103.280	19.923	1.426	0.510
401.500	277.106	80.008	19.994	103.278	19.921	1.581	0.472
402.000	277.340	80.007	19.994	103.281	19.920	1.597	0.479
402.500	277.597	80.007	19.995	103.284	19.924	1.332	0.496
403.000	277.842	80.008	19.994	103.283	19.922	1.489	0.497
403.500	278.081	80.007	19.994	103.287	19.919	1.705	0.492
404.000	278.361	80.007	19.995	103.287	19.924	1.332	0.501
404.500	278.631	80.007	19.995	103.283	19.926	1.226	0.535
405.000	278.847	80.008	19.995	103.284	19.924	1.359	0.518
405.500	279.142	80.007	19.994	103.281	19.923	1.440	0.499
406.001	279.356	80.007	19.995	103.276	19.923	1.453	0.510
406.500	279.610	80.008	19.995	103.273	19.929	1.048	0.488
407.000	279.848	80.007	19.994	103.275	19.922	1.469	0.480
407.500	280.132	80.007	19.996	103.273	19.925	1.298	0.507
408.000	280.348	80.008	19.994	103.270	19.922	1.500	0.511
408.500	280.584	80.008	19.995	103.272	19.926	1.240	0.476
409.000	280.867	80.008	19.995	103.270	19.926	1.235	0.486
409.500	281.122	80.007	19.995	103.266	19.924	1.325	0.529
410.001	281.361	80.006	19.995	103.263	19.928	1.085	0.515
410.501	281.613	80.008	19.995	103.268	19.926	1.210	0.493
411.000	281.892	80.008	19.994	103.267	19.927	1.139	0.512
411.500	282.110	80.007	19.996	103.269	19.925	1.280	0.514
412.000	282.392	80.007	19.995	103.271	19.924	1.345	0.498
412.500	282.639	80.005	19.994	103.276	19.926	1.199	0.514
413.000	282.844	80.005	19.995	103.278	19.923	1.422	0.490
413.500	283.123	80.009	19.995	103.281	19.925	1.262	0.468
414.000	283.352	80.009	19.996	103.286	19.925	1.269	0.496
414.500	283.624	80.006	19.995	103.288	19.926	1.253	0.505
415.000	283.854	80.006	19.995	103.287	19.923	1.420	0.502
415.500	284.124	80.008	19.996	103.287	19.922	1.496	0.501
416.000	284.401	80.006	19.996	103.286	19.922	1.496	0.524
416.500	284.653	80.009	19.996	103.281	19.928	1.076	0.538
417.000	284.873	80.007	19.996	103.278	19.925	1.298	0.500
417.500	285.123	80.007	19.995	103.276	19.923	1.429	0.471
418.000	285.381	80.008	19.996	103.273	19.924	1.330	0.490
418.500	285.636	80.007	19.997	103.274	19.922	1.514	0.510
419.001	285.879	80.007	19.995	103.277	19.924	1.370	0.505
419.500	286.120	80.007	19.996	103.277	19.925	1.264	0.491
420.000	286.366	80.007	19.995	103.274	19.927	1.192	0.486
420.500	286.651	80.007	19.997	103.275	19.923	1.400	0.509
421.000	286.871	80.007	19.996	103.272	19.926	1.195	0.518
421.500	287.139	80.007	19.996	103.271	19.926	1.195	0.496
422.000	287.419	80.006	19.996	103.272	19.927	1.145	0.518
422.501	287.655	80.007	19.996	103.270	19.928	1.112	0.532
423.000	287.945	80.006	19.995	103.268	19.925	1.321	0.521
423.500	288.166	80.006	19.995	103.265	19.928	1.098	0.519
424.000	288.404	80.008	19.995	103.267	19.927	1.188	0.485
424.500	288.659	80.008	19.996	103.270	19.925	1.305	0.476
425.000	288.925	80.009	19.995	103.273	19.925	1.278	0.507
425.500	289.163	80.009	19.995	103.271	19.927	1.156	0.512
426.000	289.404	80.010	19.994	103.271	19.926	1.247	0.491
426.500	289.674	80.008	19.995	103.269	19.927	1.136	0.495
427.000	289.909	80.008	19.995	103.269	19.928	1.077	0.508
427.500	290.158	80.008	19.995	103.272	19.931	0.902	0.495
428.000	290.413	80.008	19.994	103.279	19.930	0.988	0.494
428.500	290.643	80.010	19.994	103.285	19.925	1.269	0.494
429.000	290.928	80.009	19.993	103.286	19.927	1.150	0.500
429.500	291.158	80.009	19.994	103.283	19.925	1.291	0.515
430.000	291.442	80.008	19.994	103.276	19.926	1.247	0.514
430.500	291.661	80.010	19.995	103.269	19.926	1.215	0.509
431.000	291.947	80.011	19.995	103.263	19.928	1.111	0.504
431.500	292.179	80.010	19.995	103.259	19.923	1.406	0.511
432.000	292.423	80.009	19.993	103.258	19.925	1.303	0.498
432.500	292.643	80.010	19.994	103.259	19.927	1.127	0.470
433.000	292.944	80.009	19.995	103.261	19.925	1.287	0.492
433.500	293.181	80.010	19.994	103.264	19.924	1.345	0.529
434.000	293.418	80.009	19.994	103.265	19.928	1.087	0.506
434.500	293.690	80.009	19.994	103.268	19.928	1.073	0.492
435.000	293.913	80.009	19.994	103.270	19.927	1.188	0.502
435.500	294.187	80.008	19.995	103.270	19.924	1.337	0.496
436.000	294.436	80.007	19.994	103.270	19.927	1.154	0.510
436.500	294.702	80.009	19.995	103.271	19.925	1.307	0.519
437.000	294.961	80.008	19.993	103.273	19.924	1.381	0.520
437.500	295.198	80.009	19.994	103.277	19.927	1.129	0.510
438.000	295.440	80.009	19.994	103.283	19.928	1.103	0.488
438.500	295.696	80.008	19.993	103.280	19.926	1.215	0.489
439.000	295.950	80.008	19.993	103.281	19.927	1.163	0.504
439.500	296.190	80.009	19.994	103.278	19.928	1.094	0.502
440.000	296.478	80.008	19.994	103.274	19.928	1.100	0.511
440.500	296.725	80.008	19.994	103.272	19.932	0.864	0.532
441.000	296.978	80.009	19.994	103.276	19.932	0.862	0.518
441.500	297.222	80.010	19.995	103.278	19.929	1.044	0.499
442.000	297.499	80.008	19.994	103.279	19.931	0.918	0.509
442.500	297.755	80.009	19.994	103.283	19.929	1.004	0.527
443.000	297.981	80.008	19.994	103.284	19.929	1.031	0.507
443.500	298.229	80.008	19.994	103.279	19.929	1.033	0.478
444.000	298.491	80.009	19.994	103.273	19.931	0.911	0.492
444.500	298.742	80.009	19.995	103.271	19.931	0.895	0.511
445.000	299.006	80.007	19.994	103.268	19.931	0.918	0.514
445.500	299.241	80.008	19.993	103.266	19.925	1.271	0.507
446.001	299.467	80.007	19.994	103.271	19.930	0.945	0.480
446.500	299.701	80.008	19.994	103.270	19.929	1.022	0.461
447.000	300.018	80.008	19.993	103.268	19.931	0.905	0.506
447.500	300.264	80.007	19.995	103.271	19.934	0.720	0.557
448.000	300.502	80.009	19.994	103.273	19.927	1.145	0.523
448.500	300.758	80.008	19.995	103.270	19.930	0.942	0.489
449.000	301.010	80.009	19.995	103.269	19.935	0.605	0.501
449.501	301.235	80.008	19.994	103.268	19.933	0.798	0.493
450.000	301.502	80.008	19.994	103.263	19.936	0.590	0.484
450.500	301.755	80.009	19.995	103.260	19.929	1.012	0.506
451.000	301.995	80.008	19.994	103.259	19.933	0.789	0.506
451.500	302.259	80.009	19.994	103.260	19.929	1.017	0.498
452.000	302.525	80.008	19.994	103.265	19.931	0.924	0.517
452.500	302.778	80.009	19.994	103.267	19.933	0.781	0.525
453.000	303.028	80.008	19.994	103.265	19.933	0.758	0.511
453.500	303.263	80.008	19.994	103.267	19.934	0.697	0.494
454.000	303.529	80.009	19.995	103.273	19.934	0.670	0.493
454.500	303.805	80.010	19.994	103.273	19.930	0.994	0.521
455.001	304.032	80.010	19.993	103.274	19.936	0.581	0.523
455.500	304.246	80.008	19.994	103.277	19.933	0.794	0.472
456.000	304.497	80.010	19.994	103.276	19.931	0.871	0.453
456.500	304.820	80.009	19.993	103.272	19.932	0.855	0.519
457.000	305.031	80.010	19.994	103.269	19.930	0.963	0.554
457.500	305.301	80.008	19.994	103.265	19.933	0.783	0.508
458.000	305.534	80.009	19.994	103.266	19.937	0.502	0.492
458.500	305.795	80.009	19.993	103.272	19.934	0.724	0.498
459.000	306.033	80.009	19.993	103.276	19.930	0.986	0.496
459.500	306.281	80.009	19.993	103.280	19.929	0.995	0.492
460.000	306.530	80.008	19.993	103.284	19.930	0.932	0.491
460.500	306.788	80.010	19.994	103.284	19.933	0.734	0.502
461.000	307.061	80.008	19.994	103.284	19.933	0.769	0.519
461.500	307.303	80.011	19.994	103.283	19.937	0.475	0.523
462.000	307.562	80.010	19.993	103.282	19.936	0.585	0.508
462.500	307.830	80.009	19.993	103.284	19.935	0.641	0.514
463.000	308.053	80.011	19.994	103.286	19.934	0.711	0.509
463.500	308.329	80.008	19.994	103.285	19.933	0.767	0.495
464.000	308.566	80.011	19.994	103.279	19.936	0.574	0.506
464.500	308.853	80.007	19.993	103.278	19.939	0.349	0.519
465.000	309.071	80.006	19.993	103.276	19.935	0.603	0.515
465.500	309.285	80.006	19.992	103.272	19.931	0.915	0.468
466.000	309.555	80.008	19.994	103.267	19.930	0.945	0.458
466.500	309.802	80.008	19.994	103.270	19.933	0.738	0.501
467.000	310.090	80.008	19.994	103.266	19.930	0.985	0.526
467.500	310.348	80.009	19.994	103.266	19.937	0.535	0.541
468.000	310.584	80.007	19.994	103.268	19.933	0.760	0.520
468.500	310.823	80.008	19.993	103.272	19.932	0.844	0.485
469.000	311.110	80.009	19.995	103.269	19.932	0.806	0.501
469.500	311.335	80.010	19.995	103.271	19.930	0.936	0.519
470.000	311.572	80.008	19.995	103.268	19.934	0.675	0.487
470.500	311.802	80.008	19.993	103.265	19.930	0.952	0.464
471.000	312.076	80.007	19.994	103.263	19.931	0.884	0.485
471.500	312.358	80.007	19.994	103.266	19.933	0.763	0.530
472.000	312.611	80.009	19.995	103.267	19.930	0.977	0.546
472.500	312.884	80.007	19.994	103.267	19.931	0.895	0.531
473.000	313.141	80.010	19.994	103.269	19.933	0.734	0.527
473.500	313.364	80.008	19.994	103.269	19.933	0.765	0.505
474.000	313.628	80.008	19.993	103.271	19.933	0.740	0.484
474.500	313.898	80.008	19.994	103.275	19.931	0.925	0.510
475.000	314.128	80.008	19.994	103.279	19.935	0.662	0.517
475.500	314.375	80.009	19.996	103.281	19.933	0.794	0.489
476.000	314.638	80.008	19.996	103.281	19.935	0.644	0.493
476.500	314.869	80.008	19.995	103.281	19.936	0.572	0.502
477.000	315.153	80.008	19.995	103.280	19.934	0.677	0.505
477.500	315.395	80.008	19.995	103.278	19.933	0.743	0.521
478.000	315.687	80.008	19.994	103.275	19.934	0.697	0.530
478.500	315.914	80.009	19.995	103.277	19.937	0.473	0.526
479.000	316.166	80.008	19.996	103.276	19.933	0.765	0.499
479.500	316.412	80.007	19.996	103.275	19.936	0.594	0.488
480.000	316.635	80.008	19.995	103.275	19.930	0.931	0.484
480.500	316.930	80.008	19.995	103.273	19.939	0.340	0.493
481.000	317.140	80.008	19.995	103.269	19.934	0.709	0.511
481.500	317.357	80.007	19.995	103.266	19.940	0.329	0.466
482.000	317.718	80.007	19.995	103.263	19.932	0.826	0.502
482.500	317.903	80.007	19.994	103.265	19.932	0.860	0.562
483.000	318.156	80.007	19.995	103.269	19.929	1.040	0.492
483.500	318.404	80.008	19.995	103.273	19.926	1.193	0.470
484.000	318.632	80.008	19.994	103.278	19.935	0.632	0.489
484.500	318.904	80.007	19.995	103.277	19.936	0.551	0.488
485.000	319.124	80.006	19.995	103.273	19.927	1.128	0.496
485.500	319.430	80.008	19.994	103.272	19.936	0.596	0.509
486.000	319.637	80.008	19.994	103.272	19.927	1.137	0.520
486.500	319.898	80.007	19.996	103.267	19.934	0.707	0.491
487.000	320.193	80.006	19.995	103.265	19.934	0.691	0.512
487.500	320.505	80.006	19.994	103.263	19.931	0.866	0.581
488.000	320.637	80.007	19.995	103.262	19.930	0.977	0.526
488.500	320.887	80.008	19.995	103.262	19.932	0.815	0.413
489.000	321.222	80.007	19.995	103.263	19.930	0.990	0.483
489.500	321.536	80.008	19.995	103.269	19.930	0.952	0.617
490.000	321.732	80.008	19.995	103.275	19.929	1.060	0.580
490.500	321.905	80.008	19.994	103.272	19.936	0.601	0.440
491.000	322.206	80.007	19.996	103.268	19.931	0.891	0.422
491.500	322.435	80.007	19.995	103.270	19.936	0.580	0.502
492.000	322.515	80.007	19.994	103.267	19.936	0.598	0.419
492.500	323.032	80.008	19.995	103.262	19.932	0.860	0.453
493.000	323.048	80.008	19.995	103.262	19.932	0.841	0.565
493.500	323.510	80.006	19.995	103.263	19.933	0.774	0.506
494.000	323.666	80.008	19.994	103.260	19.935	0.657	0.548
494.500	324.019	80.008	19.995	103.257	19.935	0.662	0.563
495.000	324.271	80.008	19.994	103.257	19.934	0.673	0.557
495.500	324.707	80.007	19.994	103.258	19.933	0.761	0.647
496.000	324.517	80.007	19.994	103.257	19.934	0.682	0.467
496.500	325.032	80.007	19.994	103.257	19.932	0.799	0.286
497.000	325.366	80.008	19.994	103.258	19.934	0.731	0.587
497.500	325.579	80.006	19.994	103.257	19.934	0.689	0.698
498.000	325.652	80.007	19.996	103.255	19.935	0.653	0.416
498.500	326.200	80.007	19.995	103.254	19.929	0.995	0.453
499.000	326.016	80.007	19.993	103.253	19.934	0.700	0.493
499.500	326.620	80.008	19.994	103.253	19.932	0.819	0.393
500.000	326.560	80.008	19.995	103.253	19.934	0.704	0.482
500.501	326.969	80.007	19.996	103.254	19.931	0.877	0.446
501.000	327.502	80.007	19.995	103.254	19.934	0.709	0.646
501.500	327.319	80.007	19.995	103.254	19.932	0.855	0.646
502.001	327.734	80.007	19.994	103.256	19.930	0.974	0.291
502.500	328.019	80.005	19.995	103.258	19.931	0.903	0.466
503.000	328.288	80.007	19.995	103.259	19.932	0.824	0.628
503.500	328.544	80.006	19.994	103.260	19.930	0.961	0.540
504.000	328.816	80.008	19.994	103.260	19.930	0.954	0.526
504.500	328.935	80.005	19.996	103.258	19.931	0.877	0.459
505.000	329.307	80.007	19.995	103.257	19.930	0.985	0.441
505.500	329.504	80.007	19.996	103.256	19.935	0.626	0.530
506.000	329.876	80.008	19.995	103.256	19.934	0.704	0.569
506.500	330.030	80.006	19.995	103.257	19.933	0.741	0.547
507.000	330.344	80.005	19.994	103.258	19.935	0.637	0.497
507.500	330.575	80.007	19.995	103.257	19.932	0.813	0.507
508.000	330.800	80.006	19.994	103.258	19.935	0.637	0.500
508.500	331.129	80.007	19.996	103.256	19.935	0.623	0.505
509.000	331.332	80.007	19.996	103.256	19.932	0.810	0.543
509.500	331.524	80.007	19.994	103.256	19.931	0.885	0.464
510.000	331.867	80.007	19.997	103.257	19.930	0.936	0.465
510.500	332.080	80.008	19.995	103.257	19.935	0.659	0.546
511.000	332.323	80.007	19.995	103.258	19.930	0.950	0.506
511.500	332.608	80.008	19.995	103.258	19.934	0.668	0.491
512.000	332.857	80.008	19.995	103.256	19.935	0.635	0.531
512.500	333.107	80.008	19.994	103.256	19.934	0.713	0.517
513.000	333.324	80.007	19.995	103.255	19.932	0.815	0.484
513.500	333.601	80.008	19.995	103.254	19.934	0.729	0.480
514.000	333.861	80.008	19.996	103.259	19.934	0.679	0.515
514.500	334.103	80.009	19.995	103.261	19.933	0.760	0.520
515.000	334.370	80.006	19.994	103.263	19.933	0.765	0.506
515.500	334.636	80.010	19.995	103.263	19.936	0.590	0.521
516.000	334.892	80.007	19.995	103.263	19.935	0.610	0.527
516.500	335.123	80.008	19.995	103.257	19.932	0.837	0.504
517.000	335.405	80.009	19.995	103.255	19.936	0.596	0.499
517.500	335.652	80.008	19.995	103.253	19.932	0.839	0.521
518.000	335.895	80.007	19.995	103.254	19.936	0.594	0.510
518.500	336.134	80.008	19.994	103.253	19.936	0.598	0.486
519.000	336.390	80.008	19.994	103.254	19.935	0.650	0.489
519.500	336.645	80.008	19.994	103.255	19.933	0.765	0.503
520.000	336.895	80.008	19.995	103.255	19.931	0.873	0.508
520.500	337.175	80.007	19.995	103.255	19.935	0.662	0.518
521.000	337.398	80.007	19.995	103.257	19.934	0.725	0.517
521.500	337.691	80.009	19.994	103.258	19.933	0.783	0.509
522.000	337.943	80.009	19.994	103.260	19.937	0.491	0.530
522.500	338.193	80.007	19.994	103.261	19.932	0.799	0.524
523.000	338.450	80.007	19.994	103.262	19.931	0.873	0.505
523.500	338.666	80.008	19.994	103.262	19.934	0.724	0.490
524.000	338.938	80.007	19.993	103.261	19.935	0.648	0.480
524.500	339.196	80.008	19.994	103.260	19.937	0.472	0.509
525.000	339.396	80.007	19.993	103.260	19.936	0.544	0.494
525.500	339.667	80.008	19.994	103.258	19.934	0.673	0.465
526.000	339.937	80.009	19.994	103.257	19.939	0.401	0.506
526.500	340.182	80.007	19.994	103.257	19.935	0.634	0.528
527.000	340.418	80.008	19.994	103.256	19.938	0.464	0.498
527.500	340.712	80.009	19.994	103.256	19.934	0.677	0.505
528.000	340.997	80.008	19.993	103.257	19.931	0.882	0.555
528.500	341.227	80.008	19.993	103.256	19.931	0.903	0.547
529.000	341.463	80.006	19.994	103.257	19.938	0.443	0.490
529.500	341.780	80.010	19.993	103.257	19.935	0.630	0.510
530.000	342.010	80.009	19.995	103.257	19.938	0.432	0.550
530.500	342.220	80.009	19.994	103.257	19.935	0.635	0.494
531.000	342.507	80.010	19.994	103.259	19.932	0.842	0.469
531.500	342.754	80.007	19.994	103.258	19.931	0.886	0.515
532.000	342.984	80.009	19.994	103.258	19.937	0.495	0.506
532.500	343.222	80.009	19.993	103.258	19.932	0.840	0.473
533.000	343.479	80.008	19.993	103.258	19.939	0.367	0.481
533.500	343.758	80.009	19.993	103.256	19.933	0.736	0.515
534.000	343.993	80.010	19.994	103.256	19.937	0.509	0.525
534.500	344.242	80.009	19.993	103.256	19.940	0.317	0.499
535.000	344.476	80.008	19.992	103.254	19.934	0.695	0.484
535.500	344.767	80.009	19.994	103.253	19.936	0.585	0.505
536.000	345.012	80.010	19.993	103.254	19.931	0.909	0.530
536.500	345.237	80.009	19.995	103.253	19.936	0.565	0.503
537.000	345.507	80.009	19.994	103.252	19.937	0.515	0.483
537.500	345.779	80.010	19.995	103.252	19.933	0.752	0.519
538.000	345.988	80.009	19.993	103.252	19.934	0.732	0.511
538.500	346.276	80.009	19.993	103.252	19.936	0.590	0.489
539.000	346.494	80.010	19.993	103.253	19.932	0.833	0.502
539.500	346.788	80.010	19.994	103.252	19.935	0.621	0.509
540.000	347.006	80.008	19.995	103.253	19.933	0.765	0.512
540.500	347.270	80.010	19.994	103.253	19.935	0.657	0.497
541.001	347.511	80.010	19.994	103.256	19.939	0.374	0.493
541.500	347.734	80.009	19.993	103.257	19.937	0.509	0.484
542.000	348.029	80.009	19.993	103.257	19.936	0.599	0.491
542.500	348.266	80.009	19.993	103.257	19.932	0.848	0.525
543.000	348.495	80.009	19.994	103.256	19.939	0.385	0.499
543.500	348.775	80.008	19.994	103.253	19.934	0.671	0.488
544.000	349.067	80.008	19.993	103.251	19.937	0.531	0.540
544.500	349.303	80.008	19.995	103.251	19.933	0.750	0.550
545.000	349.514	80.009	19.994	103.251	19.937	0.477	0.487
545.500	349.816	80.009	19.995	103.252	19.938	0.452	0.480
546.000	350.038	80.009	19.994	103.252	19.935	0.619	0.518
546.500	350.305	80.009	19.993	103.251	19.938	0.459	0.506
547.000	350.569	80.007	19.995	103.252	19.939	0.383	0.511
547.500	350.800	80.009	19.994	103.252	19.935	0.660	0.513
548.000	351.039	80.008	19.995	103.252	19.937	0.479	0.483
548.500	351.267	80.006	19.994	103.252	19.937	0.482	0.468
549.000	351.585	80.005	19.994	103.252	19.937	0.497	0.506
549.500	351.804	80.008	19.995	103.253	19.940	0.290	0.542
550.000	352.053	80.007	19.993	103.252	19.929	1.022	0.502
550.500	352.318	80.007	19.996	103.252	19.938	0.425	0.490
551.000	352.574	80.009	19.995	103.252	19.935	0.608	0.517
551.500	352.827	80.007	19.995	103.253	19.936	0.549	0.515
552.000	353.079	80.008	19.995	103.253	19.937	0.515	0.508
552.500	353.325	80.008	19.993	103.253	19.936	0.545	0.502
553.000	353.569	80.007	19.993	103.254	19.934	0.709	0.494
553.500	353.795	80.007	19.994	103.253	19.938	0.454	0.480
554.000	354.103	80.007	19.995	103.253	19.935	0.603	0.502
554.500	354.379	80.007	19.994	103.253	19.935	0.659	0.559
555.000	354.662	80.007	19.994	103.253	19.937	0.524	0.572
555.500	354.920	80.009	19.994	103.253	19.934	0.711	0.550
556.000	355.146	80.008	19.994	103.254	19.938	0.436	0.513
556.500	355.369	80.006	19.993	103.253	19.935	0.617	0.467
557.000	355.602	80.007	19.994	103.252	19.932	0.842	0.452
557.500	355.900	80.006	19.994	103.253	19.941	0.225	0.494
558.000	356.134	80.006	19.994	103.252	19.936	0.598	0.531
558.500	356.423	80.007	19.994	103.251	19.940	0.304	0.527
559.000	356.635	80.008	19.994	103.251	19.936	0.563	0.512
559.500	356.913	80.008	19.994	103.252	19.939	0.356	0.496
560.000	357.127	80.007	19.993	103.252	19.938	0.448	0.491
560.500	357.400	80.009	19.993	103.252	19.934	0.722	0.489
561.000	357.649	80.008	19.993	103.253	19.941	0.247	0.504
561.500	357.901	80.006	19.992	103.252	19.939	0.398	0.512
562.000	358.159	80.008	19.994	103.251	19.937	0.473	0.505
562.500	358.416	80.010	19.994	103.250	19.938	0.463	0.512
563.000	358.647	80.007	19.994	103.250	19.931	0.887	0.502
563.500	358.886	80.008	19.994	103.250	19.935	0.632	0.479
564.000	359.166	80.008	19.993	103.252	19.929	1.046	0.494
564.500	359.410	80.009	19.995	103.253	19.938	0.461	0.522
565.000	359.664	80.008	19.993	103.253	19.936	0.581	0.511
565.500	359.957	80.007	19.995	103.252	19.936	0.545	0.522
566.000	360.191	80.008	19.993	103.252	19.935	0.605	0.537
566.501	360.415	80.008	19.994	103.252	19.936	0.590	0.493
567.000	360.693	80.007	19.994	103.253	19.938	0.464	0.480
567.500	360.940	80.007	19.993	103.254	19.933	0.759	0.513
568.000	361.173	80.008	19.993	103.254	19.935	0.630	0.502
568.500	361.468	80.008	19.993	103.254	19.937	0.529	0.504
569.000	361.690	80.008	19.994	103.255	19.939	0.376	0.523
569.500	361.933	80.007	19.994	103.254	19.938	0.416	0.491
570.000	362.187	80.007	19.994	103.254	19.940	0.333	0.481
570.500	362.443	80.008	19.994	103.254	19.937	0.479	0.503
571.000	362.679	80.007	19.994	103.254	19.937	0.472	0.501
571.500	362.980	80.007	19.994	103.254	19.943	0.115	0.515
572.000	363.222	80.007	19.994	103.254	19.940	0.299	0.540
572.500	363.454	80.007	19.995	103.254	19.939	0.380	0.508
573.000	363.726	80.008	19.994	103.254	19.934	0.671	0.489
573.500	363.990	80.007	19.994	103.254	19.937	0.518	0.520
574.000	364.213	80.007	19.994	103.254	19.938	0.416	0.511
574.500	364.483	80.006	19.995	103.254	19.939	0.349	0.490
575.000	364.745	80.007	19.995	103.255	19.937	0.499	0.513
575.500	364.993	80.007	19.995	103.256	19.942	0.198	0.521
576.000	365.228	80.006	19.994	103.255	19.937	0.493	0.497
576.500	365.520	80.006	19.994	103.254	19.941	0.229	0.505
577.000	365.732	80.006	19.994	103.254	19.937	0.515	0.516
577.500	365.983	80.006	19.994	103.251	19.940	0.308	0.483
578.000	366.266	80.007	19.994	103.247	19.939	0.365	0.498
578.500	366.498	80.005	19.994	103.241	19.940	0.295	0.524
579.001	366.733	80.006	19.996	103.238	19.938	0.459	0.491
579.500	367.013	80.006	19.995	103.238	19.938	0.430	0.491
580.000	367.270	80.007	19.995	103.240	19.937	0.477	0.526
580.500	367.505	80.006	19.995	103.243	19.943	0.092	0.514
581.000	367.768	80.006	19.995	103.252	19.941	0.268	0.495
581.500	368.001	80.006	19.995	103.254	19.938	0.409	0.497
582.000	368.257	80.006	19.994	103.255	19.943	0.083	0.492
582.500	368.513	80.006	19.995	103.253	19.941	0.268	0.501
583.000	368.798	80.007	19.995	103.251	19.937	0.502	0.527
583.500	369.054	80.006	19.996	103.251	19.941	0.225	0.541
584.000	369.274	80.007	19.995	103.251	19.941	0.236	0.509
584.500	369.529	80.006	19.994	103.252	19.943	0.119	0.476
585.000	369.791	80.006	19.994	103.253	19.940	0.292	0.496
585.500	370.056	80.006	19.994	103.255	19.939	0.355	0.522
586.000	370.294	80.006	19.995	103.255	19.943	0.086	0.515
586.500	370.556	80.006	19.996	103.256	19.940	0.322	0.501
587.000	370.819	80.007	19.994	103.256	19.942	0.205	0.513
587.500	371.036	80.007	19.995	103.256	19.942	0.164	0.503
588.000	371.315	80.006	19.994	103.256	19.938	0.459	0.488
588.500	371.541	80.006	19.994	103.256	19.941	0.221	0.500
589.000	371.783	80.007	19.994	103.255	19.940	0.333	0.486
589.500	372.066	80.006	19.994	103.253	19.934	0.693	0.497
590.000	372.326	80.007	19.994	103.253	19.938	0.421	0.534
590.500	372.589	80.008	19.994	103.251	19.938	0.432	0.533
591.000	372.834	80.008	19.993	103.252	19.936	0.590	0.515
591.500	373.118	80.007	19.994	103.253	19.938	0.428	0.519
592.000	373.350	80.008	19.994	103.254	19.943	0.135	0.523
592.500	373.599	80.008	19.994	103.255	19.942	0.164	0.498
593.000	373.857	80.009	19.994	103.257	19.942	0.164	0.494
593.501	374.093	80.008	19.994	103.257	19.939	0.358	0.501
594.001	374.344	80.008	19.994	103.256	19.939	0.364	0.490
594.500	374.625	80.009	19.995	103.256	19.940	0.274	0.509
595.000	374.858	80.008	19.994	103.256	19.937	0.477	0.523
595.500	375.137	80.008	19.995	103.255	19.940	0.331	0.513
596.000	375.361	80.010	19.995	103.257	19.940	0.333	0.508
596.500	375.601	80.008	19.995	103.258	19.941	0.232	0.483
597.000	375.885	80.009	19.994	103.258	19.940	0.292	0.494
597.500	376.130	80.009	19.995	103.257	19.943	0.126	0.527
598.000	376.396	80.009	19.995	103.254	19.939	0.356	0.520
598.500	376.626	80.009	19.995	103.252	19.944	0.040	0.503
599.000	376.895	80.009	19.995	103.250	19.940	0.333	0.497
599.500	377.149	80.007	19.994	103.250	19.944	0.063	0.511
600.000	377.379	80.010	19.996	103.250	19.940	0.317	0.504
600.500	377.648	80.007	19.995	103.252	19.941	0.232	0.491
601.000	377.920	80.007	19.996	103.253	19.942	0.200	0.520
601.500	378.141	80.008	19.996	103.252	19.942	0.202	0.517
602.000	378.399	80.008	19.994	103.252	19.945	-0.011	0.486
602.500	378.657	80.008	19.995	103.252	19.944	0.040	0.498
603.000	378.902	80.007	19.995	103.251	19.942	0.207	0.509
603.500	379.164	80.007	19.996	103.251	19.941	0.232	0.505
604.000	379.387	80.007	19.995	103.248	19.939	0.376	0.496
604.500	379.685	80.007	19.995	103.247	19.940	0.283	0.503
605.000	379.918	80.007	19.995	103.247	19.942	0.191	0.526
605.500	380.161	80.007	19.995	103.246	19.942	0.180	0.504
606.000	380.432	80.008	19.996	103.246	19.939	0.382	0.495
606.500	380.654	80.008	19.996	103.248	19.943	0.099	0.503
607.000	380.901	80.008	19.996	103.246	19.943	0.085	0.481
607.500	381.144	80.006	19.995	103.247	19.941	0.250	0.480
608.000	381.434	80.008	19.996	103.247	19.943	0.128	0.512
608.500	381.655	80.008	19.995	103.246	19.943	0.128	0.522
609.000	381.908	80.007	19.994	103.245	19.940	0.311	0.493
609.501	382.173	80.007	19.996	103.247	19.938	0.439	0.497
610.000	382.435	80.007	19.994	103.246	19.939	0.403	0.523
610.500	382.673	80.008	19.995	103.246	19.940	0.310	0.513
611.000	382.931	80.009	19.995	103.247	19.946	-0.108	0.498
611.500	383.198	80.008	19.996	103.246	19.944	0.065	0.510
612.000	383.451	80.009	19.995	103.247	19.941	0.221	0.522
612.500	383.683	80.007	19.995	103.248	19.948	-0.191	0.502
613.000	383.932	80.008	19.995	103.248	19.942	0.173	0.483
613.500	384.220	80.008	19.995	103.249	19.949	-0.259	0.510
614.000	384.500	80.007	19.994	103.251	19.948	-0.189	0.553
614.500	384.711	80.007	19.994	103.248	19.946	-0.119	0.529
615.000	384.960	80.009	19.994	103.244	19.938	0.439	0.475
615.500	385.207	80.009	19.995	103.244	19.940	0.274	0.478
616.000	385.498	80.008	19.995	103.242	19.943	0.139	0.517
616.500	385.718	80.009	19.994	103.242	19.940	0.304	0.524
617.000	385.970	80.009	19.996	103.244	19.941	0.218	0.492
617.500	386.208	80.010	19.995	103.247	19.943	0.090	0.481
618.000	386.440	80.010	19.994	103.247	19.942	0.169	0.480
618.500	386.717	80.010	19.995	103.247	19.941	0.254	0.489
619.000	386.952	80.010	19.993	103.244	19.942	0.196	0.511
619.500	387.228	80.010	19.994	103.238	19.948	-0.209	0.512
620.001	387.459	80.010	19.993	103.239	19.941	0.223	0.509
620.501	387.761	80.009	19.993	103.237	19.941	0.232	0.520
621.000	387.989	80.010	19.994	103.237	19.944	0.058	0.531
621.500	388.248	80.009	19.995	103.240	19.941	0.211	0.508
622.000	388.501	80.009	19.994	103.246	19.941	0.212	0.500
622.500	388.789	80.010	19.993	103.247	19.943	0.115	0.526
623.000	388.954	80.010	19.994	103.249	19.938	0.444	0.497
623.500	389.244	80.011	19.994	103.249	19.934	0.693	0.454
624.000	389.498	80.009	19.992	103.249	19.937	0.499	0.500
624.501	389.729	80.009	19.994	103.248	19.944	0.076	0.515
625.000	389.996	80.008	19.994	103.248	19.941	0.227	0.492
625.500	390.256	80.008	19.994	103.248	19.940	0.322	0.512
626.000	390.505	80.008	19.993	103.247	19.945	0.002	0.518
626.500	390.751	80.007	19.995	103.246	19.939	0.362	0.502
627.000	391.008	80.008	19.994	103.247	19.940	0.317	0.499
627.500	391.298	80.007	19.995	103.247	19.942	0.158	0.525
628.000	391.568	80.010	19.994	103.248	19.943	0.115	0.554
628.500	391.766	80.009	19.995	103.249	19.947	-0.176	0.514
629.000	392.056	80.007	19.994	103.251	19.941	0.272	0.478
629.500	392.299	80.007	19.994	103.251	19.943	0.101	0.510
630.000	392.566	80.008	19.995	103.250	19.938	0.426	0.522
630.500	392.821	80.007	19.994	103.249	19.945	0.009	0.516
631.000	393.086	80.008	19.994	103.249	19.950	-0.344	0.521
631.500	393.328	80.007	19.994	103.249	19.945	-0.049	0.513
632.000	393.606	80.006	19.993	103.249	19.940	0.288	0.514
632.500	393.867	80.006	19.994	103.246	19.941	0.270	0.530
633.000	394.078	80.008	19.994	103.244	19.946	-0.079	0.505
633.500	394.347	80.007	19.995	103.242	19.944	0.036	0.476
634.000	394.620	80.008	19.994	103.242	19.942	0.151	0.511
634.500	394.876	80.007	19.995	103.243	19.946	-0.063	0.536
635.000	395.087	80.007	19.995	103.248	19.943	0.133	0.498
635.500	395.388	80.007	19.994	103.251	19.942	0.196	0.490
636.000	395.640	80.007	19.994	103.252	19.943	0.077	0.532
636.501	395.905	80.006	19.994	103.246	19.944	0.020	0.535
637.000	396.138	80.008	19.993	103.245	19.942	0.157	0.507
637.500	396.380	80.007	19.994	103.245	19.947	-0.157	0.486
638.000	396.636	80.007	19.993	103.244	19.943	0.124	0.487
638.500	396.907	80.007	19.994	103.245	19.943	0.081	0.513
639.000	397.167	80.008	19.995	103.248	19.940	0.288	0.529
639.500	397.411	80.007	19.994	103.247	19.943	0.086	0.517
640.001	397.675	80.007	19.995	103.242	19.940	0.283	0.506
640.500	397.921	80.007	19.993	103.239	19.941	0.248	0.509
641.000	398.147	80.007	19.995	103.237	19.945	-0.018	0.491
641.500	398.418	80.008	19.995	103.236	19.945	0.000	0.485
642.000	398.690	80.008	19.994	103.233	19.942	0.167	0.520
642.500	398.943	80.007	19.995	103.236	19.947	-0.155	0.534
643.000	399.194	80.006	19.994	103.237	19.939	0.387	0.514
643.500	399.434	80.008	19.996	103.238	19.947	-0.157	0.497
644.000	399.736	80.007	19.994	103.242	19.944	0.038	0.516
644.500	399.946	80.008	19.995	103.247	19.942	0.148	0.527
645.000	400.198	80.009	19.994	103.248	19.944	0.059	0.487
645.501	400.464	80.008	19.994	103.248	19.943	0.110	0.490
646.000	400.714	80.007	19.995	103.244	19.943	0.135	0.516
646.500	400.945	80.007	19.995	103.240	19.947	-0.149	0.498
647.000	401.192	80.006	19.995	103.236	19.944	0.034	0.480
647.500	401.464	80.008	19.994	103.234	19.944	0.036	0.499
648.000	401.717	80.009	19.995	103.234	19.945	-0.038	0.522
648.500	401.980	80.008	19.994	103.236	19.947	-0.121	0.520
649.000	402.236	80.008	19.995	103.237	19.947	-0.151	0.518
649.500	402.493	80.008	19.994	103.238	19.944	0.038	0.516
650.000	402.753	80.007	19.994	103.239	19.941	0.270	0.515
650.500	403.010	80.008	19.994	103.241	19.945	-0.052	0.517
651.000	403.257	80.010	19.994	103.242	19.944	0.014	0.510
651.500	403.518	80.009	19.995	103.240	19.953	-0.572	0.506
652.000	403.753	80.008	19.993	103.241	19.948	-0.218	0.502
652.500	403.995	80.007	19.992	103.240	19.952	-0.481	0.486
653.000	404.279	80.007	19.993	103.240	19.949	-0.259	0.501
653.500	404.503	80.007	19.992	103.243	19.953	-0.567	0.517
654.000	404.762	80.007	19.992	103.246	19.947	-0.176	0.496
654.500	405.017	80.008	19.994	103.250	19.948	-0.229	0.498
655.000	405.265	80.007	19.993	103.252	19.954	-0.608	0.508
655.500	405.526	80.009	19.997	103.251	19.947	-0.162	0.506
656.000	405.771	80.008	19.993	103.250	19.947	-0.140	0.508
656.500	406.027	80.007	19.993	103.247	19.944	0.023	0.503
657.001	406.308	80.006	19.992	103.242	19.948	-0.220	0.519
657.500	406.549	80.007	19.994	103.241	19.948	-0.223	0.529
658.000	406.805	80.007	19.993	103.243	19.949	-0.272	0.510
658.500	407.010	80.007	19.994	103.244	19.951	-0.400	0.480
659.000	407.284	80.006	19.994	103.248	19.952	-0.468	0.470
659.501	407.572	80.007	19.994	103.250	19.947	-0.166	0.520
660.000	407.796	80.007	19.994	103.248	19.952	-0.488	0.537
660.500	408.061	80.007	19.993	103.245	19.946	-0.077	0.501
661.000	408.307	80.006	19.993	103.244	19.949	-0.304	0.500
661.500	408.552	80.007	19.995	103.242	19.948	-0.187	0.501
662.000	408.821	80.007	19.993	103.245	19.943	0.133	0.502
662.500	409.086	80.008	19.995	103.250	19.949	-0.261	0.524
663.000	409.348	80.005	19.995	103.254	19.947	-0.182	0.530
663.500	409.577	80.006	19.994	103.254	19.949	-0.252	0.509
664.000	409.844	80.007	19.994	103.251	19.946	-0.108	0.494
664.500	410.107	80.005	19.994	103.246	19.947	-0.121	0.513
665.000	410.361	80.009	19.994	103.241	19.943	0.077	0.523
665.501	410.633	80.007	19.994	103.237	19.946	-0.099	0.522
666.000	410.872	80.006	19.995	103.237	19.945	-0.022	0.518
666.500	411.167	80.008	19.995	103.236	19.946	-0.094	0.522
667.000	411.391	80.007	19.994	103.238	19.947	-0.148	0.527
667.500	411.656	80.007	19.995	103.242	19.946	-0.086	0.504
668.000	411.929	80.006	19.995	103.244	19.946	-0.067	0.514
668.500	412.167	80.007	19.995	103.244	19.950	-0.337	0.524
669.000	412.447	80.007	19.995	103.244	19.948	-0.225	0.514
669.500	412.670	80.007	19.995	103.245	19.951	-0.385	0.510
670.000	412.916	80.006	19.995	103.243	19.944	0.050	0.486
670.500	413.160	80.007	19.995	103.244	19.951	-0.423	0.479
671.000	413.384	80.007	19.994	103.240	19.952	-0.459	0.479
671.500	413.673	80.008	19.995	103.237	19.944	0.052	0.491
672.000	413.910	80.008	19.995	103.231	19.951	-0.437	0.520
672.500	414.149	80.008	19.995	103.227	19.947	-0.158	0.502
673.000	414.423	80.007	19.996	103.224	19.947	-0.153	0.494
673.501	414.647	80.007	19.994	103.225	19.950	-0.336	0.505
674.000	414.880	80.008	19.996	103.227	19.950	-0.347	0.477
674.500	415.135	80.009	19.993	103.231	19.953	-0.542	0.473
675.000	415.430	80.008	19.995	103.237	19.944	0.018	0.519
675.500	415.628	80.009	19.995	103.240	19.952	-0.513	0.521
676.000	415.866	80.009	19.995	103.241	19.955	-0.700	0.464
676.500	416.122	80.009	19.994	103.244	19.946	-0.077	0.465
677.000	416.369	80.009	19.994	103.246	19.947	-0.155	0.499
677.500	416.671	80.009	19.994	103.243	19.953	-0.543	0.526
678.000	416.873	80.009	19.995	103.242	19.953	-0.549	0.526
678.500	417.150	80.009	19.995	103.242	19.947	-0.144	0.492
679.000	417.408	80.010	19.995	103.240	19.952	-0.473	0.508
679.500	417.668	80.008	19.993	103.238	19.946	-0.088	0.526
680.000	417.900	80.009	19.995	103.237	19.947	-0.162	0.505
680.500	418.148	80.008	19.994	103.231	19.949	-0.299	0.486
681.000	418.438	80.008	19.995	103.231	19.946	-0.056	0.509
681.500	418.643	80.009	19.995	103.232	19.951	-0.426	0.516
682.001	418.904	80.009	19.994	103.234	19.948	-0.193	0.481
682.500	419.166	80.009	19.995	103.239	19.951	-0.412	0.495
683.000	419.417	80.009	19.994	103.243	19.944	0.018	0.518
683.500	419.691	80.008	19.994	103.242	19.948	-0.189	0.519
684.000	419.917	80.009	19.994	103.238	19.949	-0.256	0.513
684.500	420.157	80.009	19.995	103.235	19.945	0.011	0.483
685.000	420.449	80.007	19.995	103.233	19.945	-0.043	0.499
685.500	420.695	80.007	19.995	103.230	19.952	-0.457	0.535
686.000	420.936	80.009	19.995	103.228	19.952	-0.453	0.513
686.500	421.193	80.008	19.996	103.234	19.950	-0.318	0.492
687.000	421.442	80.009	19.995	103.238	19.953	-0.524	0.502
687.500	421.691	80.008	19.996	103.236	19.952	-0.470	0.502
688.000	421.976	80.008	19.995	103.235	19.947	-0.184	0.516
688.500	422.184	80.008	19.994	103.236	19.947	-0.131	0.514
689.000	422.449	80.007	19.995	103.234	19.952	-0.452	0.483
689.500	422.707	80.007	19.996	103.231	19.948	-0.193	0.498
690.000	422.958	80.007	19.996	103.235	19.953	-0.554	0.516
690.500	423.224	80.008	19.994	103.241	19.952	-0.457	0.513
691.000	423.486	80.009	19.996	103.241	19.944	0.013	0.522
691.500	423.726	80.007	19.997	103.235	19.947	-0.153	0.515
692.000	423.931	80.008	19.996	103.233	19.946	-0.099	0.474
692.500	424.197	80.006	19.995	103.226	19.951	-0.435	0.458
693.000	424.485	80.007	19.996	103.223	19.950	-0.327	0.513
693.500	424.708	80.007	19.995	103.227	19.954	-0.594	0.532
694.000	424.989	80.009	19.994	103.229	19.952	-0.502	0.507
694.500	425.217	80.010	19.995	103.231	19.954	-0.597	0.506
695.000	425.483	80.008	19.995	103.236	19.948	-0.236	0.502
695.500	425.751	80.011	19.996	103.236	19.949	-0.288	0.514
696.000	425.989	80.009	19.995	103.235	19.955	-0.659	0.520
696.500	426.273	80.009	19.996	103.240	19.954	-0.639	0.514
697.000	426.471	80.009	19.995	103.239	19.954	-0.590	0.502
697.500	426.749	80.009	19.995	103.234	19.953	-0.531	0.479
698.000	427.010	80.006	19.995	103.229	19.953	-0.536	0.508
698.500	427.274	80.008	19.995	103.226	19.962	-1.105	0.532
699.000	427.503	80.009	19.996	103.225	19.953	-0.518	0.508
699.500	427.784	80.009	19.995	103.230	19.949	-0.277	0.502
700.000	428.001	80.010	19.997	103.237	19.950	-0.331	0.504
700.500	428.300	80.009	19.995	103.242	19.947	-0.148	0.507
701.000	428.572	80.009	19.996	103.246	19.952	-0.488	0.544
701.500	428.794	80.009	19.996	103.243	19.950	-0.351	0.532
702.000	429.041	80.008	19.996	103.238	19.944	0.016	0.481
702.500	429.314	80.010	19.995	103.233	19.950	-0.326	0.494
703.000	429.586	80.008	19.996	103.231	19.949	-0.311	0.533
703.500	429.798	80.009	19.995	103.231	19.956	-0.752	0.515
704.000	430.085	80.009	19.995	103.233	19.944	0.049	0.491
704.500	430.326	80.010	19.995	103.235	19.954	-0.605	0.513
705.000	430.593	80.010	19.995	103.237	19.956	-0.758	0.518
705.500	430.844	80.008	19.994	103.238	19.954	-0.637	0.513
706.000	431.122	80.008	19.994	103.233	19.949	-0.295	0.524
706.500	431.354	80.009	19.995	103.234	19.951	-0.441	0.520
707.000	431.656	80.009	19.995	103.234	19.951	-0.425	0.522
707.500	431.877	80.007	19.995	103.232	19.955	-0.675	0.528
708.000	432.115	80.009	19.995	103.231	19.951	-0.432	0.491
708.500	432.380	80.008	19.994	103.233	19.953	-0.554	0.481
709.000	432.617	80.008	19.994	103.230	19.951	-0.448	0.502
709.500	432.879	80.007	19.994	103.230	19.954	-0.641	0.500
710.000	433.166	80.008	19.995	103.232	19.953	-0.538	0.524
710.500	433.385	80.008	19.995	103.235	19.952	-0.475	0.528
711.000	433.668	80.005	19.995	103.233	19.950	-0.342	0.504
711.500	433.935	80.007	19.995	103.233	19.951	-0.392	0.526
712.000	434.169	80.008	19.994	103.230	19.948	-0.238	0.525
712.500	434.438	80.006	19.995	103.230	19.950	-0.372	0.502
713.000	434.681	80.008	19.995	103.228	19.955	-0.646	0.508
713.500	434.925	80.006	19.994	103.235	19.950	-0.335	0.500
714.000	435.210	80.008	19.994	103.236	19.954	-0.605	0.508
714.500	435.421	80.008	19.993	103.238	19.952	-0.457	0.513
715.000	435.709	80.007	19.993	103.237	19.949	-0.268	0.498
715.500	435.986	80.007	19.994	103.237	19.954	-0.590	0.532
716.000	436.196	80.005	19.994	103.236	19.954	-0.612	0.526
716.500	436.485	80.006	19.994	103.237	19.953	-0.515	0.493
717.000	436.717	80.008	19.994	103.238	19.955	-0.704	0.510
717.500	437.016	80.007	19.994	103.240	19.951	-0.410	0.526
718.000	437.251	80.007	19.994	103.240	19.954	-0.632	0.533
718.500	437.471	80.006	19.994	103.236	19.957	-0.812	0.495
719.000	437.746	80.006	19.995	103.233	19.957	-0.817	0.475
719.500	437.998	80.006	19.994	103.233	19.958	-0.883	0.511
720.000	438.231	80.006	19.994	103.229	19.956	-0.727	0.506
720.500	438.498	80.006	19.994	103.227	19.959	-0.937	0.493
721.000	438.736	80.006	19.995	103.230	19.947	-0.171	0.503
721.500	438.964	80.006	19.994	103.233	19.955	-0.650	0.486
722.000	439.264	80.006	19.993	103.233	19.952	-0.450	0.497
722.500	439.506	80.006	19.993	103.235	19.953	-0.515	0.535
723.000	439.756	80.007	19.995	103.239	19.951	-0.425	0.517
723.500	440.012	80.007	19.993	103.239	19.956	-0.748	0.499
724.000	440.271	80.006	19.994	103.239	19.951	-0.399	0.511
724.500	440.530	80.006	19.994	103.238	19.960	-0.981	0.517
725.000	440.754	80.007	19.995	103.241	19.954	-0.642	0.501
725.500	440.987	80.008	19.994	103.240	19.954	-0.610	0.470
726.001	441.285	80.006	19.994	103.239	19.949	-0.290	0.494
726.500	441.496	80.005	19.993	103.237	19.957	-0.781	0.520
727.000	441.763	80.008	19.995	103.238	19.956	-0.740	0.493
727.500	442.043	80.008	19.996	103.232	19.957	-0.804	0.512
728.001	442.282	80.007	19.994	103.229	19.955	-0.700	0.533
728.500	442.488	80.007	19.994	103.228	19.956	-0.750	0.482
729.000	442.767	80.007	19.993	103.228	19.955	-0.650	0.465
729.500	443.028	80.009	19.994	103.232	19.960	-1.015	0.513
730.000	443.270	80.007	19.995	103.231	19.951	-0.398	0.522
730.500	443.548	80.008	19.995	103.231	19.960	-1.026	0.511
731.000	443.764	80.006	19.995	103.230	19.960	-0.984	0.507
731.500	444.063	80.008	19.994	103.227	19.955	-0.659	0.505
732.000	444.287	80.008	19.995	103.224	19.956	-0.768	0.519
732.500	444.558	80.008	19.995	103.224	19.954	-0.597	0.509
733.000	444.836	80.007	19.995	103.222	19.955	-0.705	0.522
733.500	445.057	80.007	19.995	103.223	19.955	-0.693	0.524
734.000	445.313	80.007	19.994	103.224	19.958	-0.842	0.488
734.500	445.564	80.006	19.995	103.225	19.954	-0.623	0.491
735.000	445.787	80.006	19.994	103.228	19.955	-0.682	0.490
735.500	446.073	80.008	19.996	103.229	19.957	-0.828	0.491
736.000	446.292	80.007	19.994	103.229	19.949	-0.293	0.507
736.500	446.532	80.007	19.995	103.228	19.954	-0.585	0.482
737.000	446.786	80.006	19.995	103.230	19.953	-0.551	0.476
737.500	447.085	80.006	19.994	103.231	19.959	-0.925	0.524
738.000	447.337	80.006	19.994	103.229	19.956	-0.741	0.552
738.501	447.579	80.008	19.996	103.226	19.956	-0.750	0.523
739.000	447.808	80.008	19.994	103.224	19.953	-0.578	0.482
739.500	448.095	80.006	19.994	103.221	19.960	-0.991	0.493
740.001	448.283	80.008	19.994	103.220	19.955	-0.650	0.495
740.500	448.561	80.007	19.994	103.226	19.952	-0.482	0.470
741.000	448.836	80.007	19.994	103.228	19.956	-0.772	0.509
741.500	449.068	80.007	19.995	103.228	19.960	-0.977	0.530
742.000	449.339	80.006	19.994	103.226	19.958	-0.878	0.505
742.500	449.588	80.007	19.994	103.223	19.955	-0.704	0.512
743.000	449.833	80.006	19.995	103.221	19.956	-0.722	0.507
743.500	450.076	80.006	19.995	103.224	19.955	-0.705	0.491
744.000	450.337	80.006	19.994	103.224	19.953	-0.556	0.496
744.500	450.592	80.006	19.994	103.225	19.958	-0.884	0.510
745.000	450.843	80.007	19.995	103.226	19.957	-0.838	0.511
745.500	451.077	80.007	19.994	103.222	19.956	-0.723	0.496
746.000	451.333	80.007	19.994	103.221	19.955	-0.664	0.488
746.500	451.554	80.007	19.995	103.222	19.957	-0.777	0.484
747.000	451.855	80.008	19.995	103.228	19.953	-0.538	0.499
747.500	452.116	80.007	19.995	103.230	19.954	-0.581	0.541
748.000	452.321	80.006	19.995	103.232	19.958	-0.848	0.514
748.500	452.623	80.007	19.995	103.233	19.959	-0.925	0.487
749.000	452.835	80.007	19.996	103.235	19.957	-0.806	0.511
749.500	453.096	80.008	19.995	103.235	19.957	-0.815	0.494
750.000	453.318	80.007	19.995	103.235	19.953	-0.569	0.478
750.500	453.567	80.006	19.993	103.236	19.959	-0.923	0.477
751.000	453.904	80.008	19.994	103.232	19.958	-0.892	0.529
751.500	454.118	80.007	19.993	103.230	19.960	-0.999	0.569
752.000	454.345	80.007	19.995	103.227	19.957	-0.801	0.496
752.500	454.599	80.008	19.995	103.230	19.955	-0.675	0.461
753.001	454.872	80.007	19.994	103.234	19.958	-0.871	0.503
753.500	455.135	80.008	19.995	103.241	19.956	-0.730	0.531
754.000	455.380	80.009	19.994	103.245	19.955	-0.680	0.522
754.500	455.614	80.008	19.995	103.246	19.957	-0.829	0.493
755.000	455.859	80.008	19.995	103.241	19.959	-0.909	0.479
755.500	456.125	80.010	19.994	103.235	19.962	-1.161	0.496
756.000	456.367	80.009	19.995	103.229	19.961	-1.060	0.510
756.500	456.617	80.011	19.996	103.225	19.957	-0.833	0.500
757.000	456.847	80.009	19.995	103.226	19.958	-0.842	0.486
757.500	457.107	80.010	19.995	103.231	19.959	-0.955	0.485
758.000	457.387	80.008	19.995	103.234	19.958	-0.905	0.515
758.500	457.599	80.008	19.995	103.233	19.963	-1.211	0.516
759.001	457.856	80.011	19.995	103.236	19.959	-0.919	0.481
759.500	458.118	80.008	19.994	103.232	19.956	-0.763	0.494
760.000	458.354	80.010	19.995	103.228	19.958	-0.876	0.508
760.500	458.595	80.009	19.996	103.228	19.959	-0.921	0.488
761.001	458.873	80.009	19.995	103.230	19.960	-1.015	0.498
761.500	459.156	80.011	19.995	103.226	19.955	-0.686	0.540
762.000	459.379	80.008	19.995	103.224	19.958	-0.876	0.534
762.500	459.689	80.008	19.996	103.223	19.955	-0.702	0.519
763.000	459.876	80.008	19.994	103.220	19.956	-0.750	0.515
763.500	460.140	80.008	19.995	103.219	19.958	-0.851	0.474
764.000	460.388	80.008	19.995	103.219	19.961	-1.087	0.481
764.500	460.648	80.008	19.995	103.224	19.959	-0.936	0.510
765.001	460.915	80.009	19.996	103.229	19.958	-0.889	0.518
765.500	461.137	80.009	19.995	103.228	19.958	-0.885	0.508
766.000	461.429	80.008	19.994	103.228	19.961	-1.087	0.501
766.500	461.673	80.008	19.994	103.229	19.959	-0.934	0.525
767.000	461.930	80.008	19.995	103.227	19.954	-0.637	0.518
767.500	462.156	80.009	19.994	103.222	19.957	-0.795	0.492
768.000	462.419	80.009	19.995	103.221	19.958	-0.873	0.486
768.500	462.716	80.007	19.995	103.221	19.961	-1.076	0.524
769.000	462.932	80.008	19.995	103.220	19.959	-0.950	0.537
769.500	463.184	80.009	19.996	103.219	19.962	-1.143	0.491
770.000	463.460	80.007	19.995	103.219	19.959	-0.950	0.498
770.500	463.673	80.009	19.994	103.224	19.957	-0.829	0.508
771.000	463.947	80.008	19.996	103.228	19.960	-1.022	0.488
771.500	464.176	80.009	19.995	103.232	19.958	-0.851	0.495
772.000	464.439	80.008	19.994	103.233	19.958	-0.907	0.497
772.500	464.708	80.007	19.996	103.239	19.956	-0.739	0.512
773.000	464.949	80.007	19.995	103.238	19.959	-0.950	0.521
773.501	465.208	80.008	19.994	103.240	19.958	-0.900	0.505
774.001	465.465	80.008	19.995	103.236	19.958	-0.871	0.508
774.500	465.659	80.009	19.995	103.234	19.956	-0.768	0.483
775.000	465.995	80.008	19.994	103.228	19.955	-0.668	0.490
775.500	466.231	80.009	19.995	103.225	19.957	-0.790	0.551
776.000	466.473	80.008	19.995	103.223	19.955	-0.682	0.525
776.500	466.694	80.008	19.995	103.227	19.960	-1.038	0.471
777.000	466.967	80.007	19.995	103.234	19.961	-1.100	0.478
777.500	467.220	80.008	19.993	103.237	19.958	-0.885	0.510
778.001	467.480	80.009	19.995	103.241	19.955	-0.646	0.520
778.500	467.723	80.010	19.996	103.241	19.957	-0.812	0.508
779.000	467.973	80.008	19.995	103.237	19.959	-0.918	0.498
779.500	468.273	80.009	19.994	103.232	19.958	-0.855	0.522
780.000	468.470	80.010	19.994	103.229	19.959	-0.966	0.524
780.500	468.743	80.010	19.995	103.224	19.961	-1.072	0.483
781.000	469.008	80.009	19.994	103.220	19.959	-0.950	0.504
781.500	469.275	80.010	19.994	103.217	19.960	-0.984	0.535
782.000	469.526	80.010	19.994	103.217	19.958	-0.887	0.525
782.500	469.787	80.010	19.994	103.217	19.957	-0.811	0.515
783.000	470.019	80.010	19.994	103.217	19.962	-1.137	0.502
783.500	470.277	80.009	19.994	103.220	19.958	-0.869	0.491
784.000	470.538	80.011	19.994	103.222	19.957	-0.817	0.505
784.500	470.785	80.009	19.995	103.223	19.957	-0.840	0.514
785.000	471.020	80.011	19.995	103.225	19.957	-0.801	0.495
785.500	471.281	80.009	19.994	103.229	19.958	-0.891	0.489
786.000	471.526	80.010	19.994	103.233	19.961	-1.056	0.501
786.500	471.799	80.008	19.994	103.239	19.960	-0.984	0.512
787.000	472.032	80.009	19.994	103.243	19.962	-1.159	0.512
787.501	472.302	80.009	19.994	103.243	19.957	-0.833	0.504
788.000	472.545	80.010	19.995	103.242	19.961	-1.042	0.507
788.500	472.813	80.007	19.995	103.238	19.959	-0.954	0.512
789.000	473.088	80.010	19.994	103.235	19.953	-0.578	0.527
789.500	473.313	80.008	19.994	103.230	19.958	-0.907	0.521
790.000	473.581	80.008	19.994	103.227	19.958	-0.898	0.496
790.500	473.850	80.008	19.996	103.226	19.958	-0.846	0.515
791.000	474.110	80.006	19.994	103.223	19.958	-0.857	0.534
791.500	474.371	80.007	19.994	103.221	19.956	-0.714	0.525
792.000	474.624	80.007	19.994	103.223	19.958	-0.848	0.517
792.500	474.886	80.006	19.994	103.226	19.957	-0.812	0.514
793.000	475.166	80.006	19.995	103.226	19.958	-0.866	0.528
793.500	475.369	80.006	19.995	103.225	19.964	-1.294	0.512
794.000	475.631	80.007	19.996	103.224	19.958	-0.883	0.474
794.500	475.896	80.006	19.995	103.222	19.959	-0.959	0.496
795.001	476.151	80.006	19.995	103.219	19.958	-0.894	0.524
795.500	476.379	80.006	19.996	103.218	19.963	-1.216	0.502
796.000	476.619	80.007	19.995	103.218	19.962	-1.135	0.476
796.500	476.903	80.006	19.996	103.221	19.961	-1.042	0.496
797.000	477.127	80.007	19.996	103.224	19.959	-0.941	0.516
797.500	477.376	80.005	19.995	103.228	19.963	-1.227	0.490
798.000	477.624	80.007	19.995	103.235	19.956	-0.775	0.485
798.500	477.913	80.006	19.995	103.238	19.960	-0.999	0.517
799.000	478.186	80.007	19.995	103.236	19.960	-1.038	0.550
799.500	478.399	80.006	19.994	103.230	19.961	-1.067	0.524
800.000	478.670	80.006	19.996	103.225	19.958	-0.891	0.485
800.500	478.929	80.006	19.996	103.220	19.959	-0.972	0.507
801.000	479.190	80.006	19.995	103.223	19.958	-0.882	0.525
801.500	479.391	80.008	19.996	103.228	19.962	-1.110	0.491
802.000	479.655	80.007	19.995	103.236	19.961	-1.085	0.464
802.500	479.943	80.006	19.995	103.243	19.958	-0.865	0.509
803.000	480.163	80.006	19.996	103.245	19.965	-1.303	0.530
803.501	480.456	80.008	19.995	103.242	19.961	-1.087	0.511
804.000	480.710	80.008	19.994	103.235	19.960	-0.989	0.530
804.500	480.952	80.008	19.995	103.227	19.955	-0.698	0.521
805.000	481.183	80.007	19.995	103.220	19.958	-0.862	0.484
805.500	481.440	80.007	19.995	103.215	19.961	-1.081	0.481
806.000	481.734	80.007	19.994	103.214	19.959	-0.923	0.520
806.500	481.947	80.009	19.994	103.215	19.965	-1.312	0.529
807.000	482.200	80.007	19.995	103.216	19.956	-0.766	0.487
807.500	482.462	80.007	19.994	103.218	19.957	-0.835	0.491
808.000	482.731	80.007	19.994	103.221	19.959	-0.932	0.523
808.500	482.972	80.007	19.994	103.219	19.961	-1.090	0.520
809.000	483.174	80.008	19.995	103.220	19.959	-0.955	0.476
809.500	483.425	80.007	19.994	103.219	19.963	-1.193	0.448
810.000	483.692	80.008	19.994	103.218	19.958	-0.858	0.486
810.500	483.936	80.007	19.995	103.215	19.959	-0.959	0.515
811.000	484.190	80.007	19.995	103.216	19.958	-0.867	0.504
811.500	484.447	80.006	19.994	103.216	19.961	-1.063	0.504
812.000	484.661	80.008	19.994	103.215	19.960	-1.025	0.491
812.500	484.915	80.006	19.995	103.214	19.961	-1.058	0.469
813.000	485.146	80.007	19.995	103.214	19.963	-1.223	0.476
813.500	485.380	80.007	19.995	103.213	19.964	-1.281	0.475
814.000	485.631	80.008	19.995	103.213	19.964	-1.297	0.475
814.500	485.890	80.009	19.994	103.213	19.961	-1.042	0.498
815.000	486.165	80.007	19.994	103.213	19.958	-0.880	0.522
815.500	486.376	80.008	19.994	103.214	19.958	-0.860	0.510
816.000	486.617	80.009	19.994	103.216	19.961	-1.083	0.469
816.500	486.874	80.007	19.994	103.217	19.959	-0.950	0.475
817.000	487.118	80.007	19.994	103.217	19.961	-1.083	0.499
817.500	487.354	80.008	19.994	103.218	19.961	-1.040	0.490
818.000	487.570	80.007	19.996	103.216	19.963	-1.202	0.466
818.500	487.791	80.008	19.994	103.215	19.963	-1.209	0.445
819.000	488.037	80.007	19.994	103.215	19.962	-1.152	0.452
819.500	488.281	80.008	19.995	103.215	19.967	-1.449	0.478
820.000	488.538	80.007	19.994	103.216	19.958	-0.855	0.495
820.500	488.734	80.009	19.997	103.216	19.964	-1.245	0.477
821.000	488.992	80.007	19.994	103.218	19.958	-0.846	0.454
821.500	489.237	80.008	19.995	103.219	19.964	-1.288	0.478
822.000	489.416	80.008	19.994	103.218	19.966	-1.423	0.463
822.500	489.720	80.008	19.995	103.216	19.963	-1.186	0.453
823.000	489.931	80.007	19.995	103.216	19.959	-0.970	0.499
823.500	490.169	80.007	19.994	103.214	19.960	-0.997	0.482
824.000	490.440	80.007	19.995	103.213	19.959	-0.937	0.479
824.500	490.648	80.006	19.995	103.215	19.963	-1.234	0.494
825.000	490.911	80.006	19.995	103.215	19.961	-1.056	0.475
825.500	491.087	80.007	19.995	103.215	19.962	-1.146	0.455
826.000	491.378	80.006	19.995	103.215	19.963	-1.225	0.453
826.500	491.596	80.007	19.995	103.214	19.961	-1.092	0.488
827.000	491.852	80.007	19.994	103.214	19.964	-1.258	0.492
827.500	492.075	80.006	19.995	103.217	19.957	-0.817	0.477
828.000	492.290	80.006	19.995	103.218	19.965	-1.324	0.458
828.500	492.544	80.008	19.994	103.220	19.966	-1.376	0.453
829.000	492.793	80.007	19.995	103.222	19.960	-1.008	0.486
829.500	493.016	80.007	19.995	103.225	19.960	-0.975	0.488
830.000	493.249	80.008	19.994	103.228	19.959	-0.955	0.464
830.500	493.479	80.006	19.994	103.233	19.964	-1.272	0.460
831.000	493.763	80.007	19.995	103.235	19.961	-1.092	0.489
831.500	494.002	80.009	19.995	103.237	19.960	-0.995	0.518
832.000	494.232	80.008	19.996	103.236	19.962	-1.135	0.496
832.500	494.470	80.007	19.995	103.234	19.963	-1.188	0.468
833.000	494.753	80.007	19.994	103.232	19.956	-0.727	0.494
833.500	494.975	80.009	19.995	103.229	19.964	-1.285	0.513
834.000	495.209	80.008	19.994	103.226	19.963	-1.184	0.480
834.500	495.454	80.008	19.993	103.226	19.961	-1.067	0.467
835.000	495.702	80.008	19.994	103.224	19.960	-0.990	0.486
835.500	495.945	80.009	19.994	103.223	19.960	-0.977	0.492
836.000	496.216	80.009	19.994	103.226	19.962	-1.117	0.503
836.500	496.495	80.008	19.994	103.228	19.958	-0.887	0.532
837.000	496.700	80.009	19.995	103.227	19.963	-1.193	0.517
837.500	496.954	80.009	19.995	103.226	19.965	-1.344	0.472
838.000	497.205	80.009	19.995	103.225	19.961	-1.101	0.482
838.500	497.467	80.009	19.995	103.221	19.958	-0.885	0.509
839.000	497.688	80.011	19.994	103.222	19.960	-0.984	0.498
839.500	497.982	80.008	19.995	103.223	19.963	-1.184	0.499
840.001	498.229	80.009	19.995	103.225	19.964	-1.256	0.528
840.500	498.478	80.008	19.995	103.226	19.962	-1.162	0.519
841.000	498.727	80.009	19.994	103.230	19.961	-1.062	0.497
841.500	498.962	80.009	19.994	103.230	19.966	-1.385	0.491
842.001	499.228	80.011	19.993	103.233	19.966	-1.416	0.492
842.500	499.483	80.009	19.994	103.234	19.960	-1.008	0.511
843.000	499.742	80.009	19.993	103.237	19.962	-1.146	0.517
843.500	499.990	80.009	19.993	103.238	19.957	-0.826	0.511
844.001	500.218	80.010	19.995	103.242	19.958	-0.846	0.492
844.501	500.483	80.008	19.994	103.244	19.963	-1.233	0.485
845.000	500.747	80.009	19.994	103.246	19.962	-1.119	0.511
845.500	500.998	80.010	19.994	103.245	19.957	-0.810	0.522
846.000	501.248	80.008	19.995	103.242	19.963	-1.218	0.508
846.500	501.514	80.009	19.994	103.239	19.962	-1.112	0.508
847.000	501.757	80.009	19.995	103.234	19.961	-1.085	0.512
847.500	502.014	80.009	19.995	103.227	19.956	-0.775	0.505
848.000	502.313	80.008	19.993	103.225	19.955	-0.707	0.529
848.500	502.563	80.010	19.993	103.225	19.959	-0.954	0.553
849.000	502.818	80.008	19.994	103.225	19.959	-0.919	0.526
849.500	503.033	80.008	19.994	103.226	19.959	-0.914	0.487
850.000	503.360	80.009	19.995	103.229	19.958	-0.901	0.506
850.500	503.591	80.006	19.993	103.229	19.962	-1.132	0.550
851.000	503.835	80.007	19.994	103.227	19.961	-1.071	0.516
851.500	504.107	80.007	19.993	103.224	19.961	-1.053	0.495
852.000	504.367	80.007	19.994	103.226	19.961	-1.099	0.523
852.500	504.626	80.008	19.994	103.229	19.960	-1.038	0.525
853.000	504.905	80.006	19.994	103.232	19.962	-1.115	0.529
853.500	505.137	80.009	19.994	103.232	19.964	-1.292	0.525
854.000	505.389	80.009	19.993	103.236	19.961	-1.071	0.498
854.500	505.669	80.008	19.995	103.236	19.961	-1.058	0.508
855.000	505.940	80.007	19.995	103.230	19.959	-0.934	0.541
855.500	506.203	80.009	19.994	103.228	19.959	-0.930	0.542
856.000	506.483	80.007	19.995	103.232	19.965	-1.304	0.538
856.500	506.730	80.008	19.995	103.231	19.963	-1.223	0.535
857.000	506.968	80.009	19.993	103.227	19.965	-1.322	0.506
857.500	507.239	80.007	19.994	103.232	19.962	-1.137	0.497
858.000	507.470	80.007	19.994	103.230	19.963	-1.188	0.505
858.500	507.764	80.009	19.995	103.227	19.959	-0.959	0.513
859.000	508.003	80.007	19.995	103.223	19.963	-1.216	0.529
859.500	508.291	80.008	19.994	103.223	19.961	-1.076	0.530
860.000	508.560	80.009	19.996	103.219	19.961	-1.083	0.542
860.500	508.805	80.008	19.994	103.218	19.963	-1.200	0.535
861.000	509.097	80.008	19.995	103.223	19.960	-0.977	0.526
861.500	509.318	80.009	19.994	103.226	19.961	-1.098	0.526
862.000	509.628	80.008	19.995	103.224	19.965	-1.308	0.522
862.500	509.890	80.010	19.995	103.222	19.960	-0.973	0.551
863.000	510.178	80.009	19.995	103.221	19.961	-1.083	0.561
863.500	510.388	80.010	19.994	103.215	19.965	-1.333	0.524
864.000	510.664	80.010	19.995	103.212	19.964	-1.258	0.492
864.500	510.921	80.011	19.995	103.213	19.959	-0.941	0.510
865.000	511.214	80.008	19.995	103.220	19.962	-1.144	0.542
865.500	511.456	80.010	19.995	103.224	19.959	-0.909	0.542
866.000	511.778	80.011	19.995	103.224	19.959	-0.952	0.549
866.500	512.049	80.011	19.996	103.226	19.958	-0.871	0.579
867.000	512.279	80.009	19.994	103.227	19.964	-1.265	0.547
867.500	512.541	80.010	19.995	103.225	19.966	-1.423	0.496
868.000	512.843	80.010	19.995	103.225	19.962	-1.143	0.528
868.500	513.069	80.009	19.995	103.228	19.964	-1.247	0.546
869.000	513.350	80.011	19.993	103.230	19.967	-1.477	0.517
869.500	513.591	80.009	19.993	103.227	19.965	-1.342	0.515
870.000	513.876	80.009	19.995	103.227	19.962	-1.161	0.524
870.500	514.134	80.010	19.995	103.226	19.967	-1.454	0.535
871.000	514.406	80.009	19.994	103.224	19.966	-1.369	0.536
871.500	514.643	80.011	19.995	103.222	19.967	-1.488	0.519
872.000	514.946	80.009	19.994	103.223	19.962	-1.157	0.525
872.500	515.219	80.009	19.994	103.222	19.963	-1.204	0.558
873.000	515.523	80.009	19.995	103.219	19.965	-1.313	0.577
873.500	515.735	80.009	19.994	103.222	19.961	-1.070	0.546
874.000	515.991	80.007	19.995	103.221	19.965	-1.308	0.492
874.500	516.251	80.008	19.995	103.225	19.962	-1.128	0.492
875.000	516.509	80.007	19.994	103.224	19.964	-1.292	0.517
875.500	516.800	80.007	19.994	103.223	19.959	-0.925	0.533
876.000	517.081	80.008	19.995	103.219	19.964	-1.238	0.560
876.500	517.326	80.007	19.995	103.220	19.964	-1.281	0.549
877.000	517.582	80.009	19.994	103.218	19.966	-1.375	0.514
877.500	517.838	80.008	19.994	103.220	19.962	-1.150	0.507
878.000	518.133	80.007	19.995	103.225	19.960	-0.999	0.532
878.500	518.398	80.006	19.995	103.226	19.963	-1.220	0.555
879.000	518.656	80.007	19.995	103.229	19.964	-1.276	0.542
879.500	518.932	80.007	19.995	103.229	19.962	-1.166	0.529
880.001	519.163	80.007	19.995	103.226	19.963	-1.213	0.520
880.500	519.474	80.006	19.995	103.222	19.966	-1.378	0.525
881.000	519.726	80.007	19.996	103.225	19.967	-1.477	0.553
881.500	520.011	80.007	19.995	103.225	19.963	-1.225	0.550
882.000	520.285	80.007	19.995	103.224	19.963	-1.184	0.548
882.500	520.539	80.005	19.995	103.224	19.966	-1.416	0.543
883.000	520.805	80.008	19.995	103.223	19.967	-1.490	0.524
883.500	521.075	80.007	19.995	103.220	19.963	-1.205	0.528
884.000	521.352	80.006	19.995	103.215	19.963	-1.173	0.541
884.500	521.608	80.004	19.995	103.214	19.972	-1.770	0.539
885.000	521.901	80.006	19.997	103.215	19.968	-1.499	0.541
885.500	522.139	80.006	19.996	103.216	19.967	-1.447	0.541
886.000	522.412	80.006	19.996	103.215	19.963	-1.209	0.521
886.500	522.634	80.006	19.996	103.216	19.967	-1.456	0.502
887.000	522.919	80.005	19.995	103.214	19.967	-1.447	0.501
887.500	523.208	80.006	19.996	103.216	19.958	-0.901	0.540
888.000	523.448	80.007	19.996	103.218	19.962	-1.168	0.552
888.500	523.709	80.006	19.996	103.222	19.965	-1.346	0.515
889.000	523.974	80.006	19.995	103.224	19.968	-1.499	0.514
889.500	524.213	80.006	19.995	103.224	19.962	-1.117	0.515
890.000	524.498	80.007	19.996	103.222	19.964	-1.263	0.513
890.500	524.731	80.007	19.996	103.219	19.963	-1.171	0.521
891.000	524.997	80.006	19.994	103.216	19.964	-1.283	0.509
891.500	525.240	80.008	19.995	103.215	19.968	-1.513	0.504
892.000	525.559	80.007	19.996	103.214	19.963	-1.218	0.536
892.500	525.811	80.007	19.996	103.214	19.965	-1.333	0.566
893.000	526.052	80.007	19.996	103.214	19.962	-1.123	0.532
893.500	526.359	80.007	19.995	103.214	19.967	-1.486	0.520
894.001	526.575	80.007	19.995	103.214	19.962	-1.107	0.535
894.500	526.835	80.007	19.996	103.217	19.963	-1.214	0.500
895.000	527.108	80.006	19.995	103.220	19.961	-1.044	0.504
895.500	527.384	80.007	19.996	103.223	19.965	-1.308	0.541
896.000	527.656	80.008	19.996	103.225	19.966	-1.429	0.549
896.500	527.905	80.006	19.994	103.224	19.964	-1.243	0.534
897.000	528.184	80.006	19.995	103.222	19.965	-1.348	0.525
897.500	528.428	80.008	19.995	103.221	19.962	-1.162	0.525
898.000	528.680	80.007	19.995	103.219	19.965	-1.339	0.509
898.500	528.915	80.007	19.995	103.219	19.962	-1.160	0.491
899.000	529.197	80.006	19.995	103.226	19.967	-1.456	0.502
899.500	529.471	80.006	19.996	103.231	19.964	-1.240	0.537
900.000	529.726	80.008	19.994	103.231	19.969	-1.605	0.543
900.500	529.972	80.008	19.994	103.235	19.964	-1.279	0.515
901.000	530.210	80.006	19.993	103.233	19.960	-1.027	0.492
901.500	530.514	80.007	19.995	103.226	19.963	-1.182	0.513
902.001	530.734	80.007	19.995	103.224	19.965	-1.312	0.533
902.500	531.023	80.006	19.995	103.228	19.964	-1.243	0.517
903.000	531.294	80.006	19.993	103.228	19.964	-1.261	0.535
903.500	531.546	80.007	19.993	103.229	19.962	-1.137	0.541
904.000	531.799	80.007	19.994	103.229	19.963	-1.189	0.514
904.500	532.045	80.005	19.994	103.228	19.965	-1.326	0.502
905.000	532.321	80.007	19.993	103.222	19.962	-1.105	0.511
905.500	532.587	80.006	19.993	103.220	19.963	-1.211	0.532
906.000	532.822	80.006	19.994	103.224	19.966	-1.400	0.521
906.500	533.065	80.007	19.994	103.224	19.964	-1.290	0.490
907.000	533.346	80.007	19.994	103.223	19.967	-1.441	0.501
907.500	533.644	80.007	19.994	103.223	19.961	-1.092	0.551
908.000	533.847	80.006	19.995	103.222	19.964	-1.252	0.540
908.500	534.141	80.005	19.995	103.220	19.967	-1.436	0.499
909.000	534.384	80.006	19.994	103.220	19.967	-1.472	0.517
909.500	534.655	80.006	19.994	103.220	19.965	-1.353	0.526
910.000	534.938	80.007	19.994	103.220	19.965	-1.303	0.534
910.500	535.174	80.007	19.995	103.219	19.965	-1.317	0.536
911.000	535.453	80.007	19.995	103.216	19.964	-1.259	0.517
911.500	535.704	80.006	19.996	103.216	19.970	-1.670	0.523
912.000	535.975	80.006	19.994	103.217	19.963	-1.204	0.526
912.500	536.221	80.006	19.994	103.220	19.966	-1.371	0.519
913.000	536.479	80.006	19.994	103.221	19.961	-1.063	0.511
913.500	536.751	80.006	19.996	103.222	19.965	-1.331	0.517
914.000	537.005	80.006	19.994	103.225	19.962	-1.128	0.528
914.500	537.242	80.006	19.994	103.224	19.968	-1.529	0.508
915.000	537.523	80.008	19.994	103.222	19.963	-1.234	0.505
915.500	537.773	80.004	19.994	103.224	19.965	-1.346	0.524
916.000	538.010	80.006	19.994	103.224	19.964	-1.279	0.508
916.500	538.302	80.007	19.994	103.222	19.967	-1.475	0.508
917.000	538.525	80.007	19.995	103.222	19.964	-1.290	0.522
917.500	538.800	80.008	19.995	103.221	19.963	-1.227	0.507
918.000	539.066	80.006	19.994	103.220	19.967	-1.475	0.519
918.500	539.331	80.007	19.995	103.223	19.967	-1.463	0.536
919.000	539.589	80.008	19.993	103.225	19.965	-1.344	0.527
919.500	539.823	80.007	19.993	103.225	19.961	-1.083	0.507
920.000	540.122	80.008	19.994	103.226	19.965	-1.317	0.513
920.500	540.358	80.008	19.995	103.225	19.964	-1.276	0.534
921.000	540.641	80.007	19.994	103.221	19.963	-1.214	0.527
921.500	540.874	80.010	19.994	103.219	19.964	-1.254	0.518
922.001	541.089	80.008	19.994	103.219	19.966	-1.405	0.482
922.500	541.377	80.009	19.994	103.218	19.960	-1.011	0.475
923.000	541.598	80.009	19.993	103.218	19.965	-1.312	0.506
923.500	541.909	80.008	19.994	103.218	19.968	-1.524	0.521
924.000	542.144	80.010	19.994	103.218	19.963	-1.234	0.539
924.500	542.389	80.009	19.995	103.217	19.964	-1.242	0.513
925.000	542.661	80.010	19.995	103.217	19.966	-1.423	0.498
925.500	542.957	80.008	19.993	103.216	19.964	-1.299	0.542
926.000	543.185	80.008	19.994	103.216	19.963	-1.229	0.546
926.500	543.463	80.010	19.993	103.215	19.965	-1.335	0.515
927.000	543.699	80.011	19.994	103.215	19.966	-1.409	0.510
927.500	543.975	80.008	19.995	103.214	19.968	-1.515	0.513
928.000	544.226	80.008	19.994	103.214	19.965	-1.331	0.520
928.500	544.479	80.010	19.994	103.214	19.962	-1.151	0.516
929.000	544.703	80.008	19.995	103.218	19.969	-1.598	0.490
929.500	544.987	80.009	19.995	103.217	19.964	-1.276	0.492
930.000	545.231	80.008	19.994	103.218	19.965	-1.315	0.518
930.500	545.454	80.006	19.994	103.220	19.964	-1.279	0.498
931.000	545.750	80.008	19.995	103.220	19.963	-1.232	0.493
931.500	546.012	80.009	19.993	103.216	19.963	-1.198	0.538
932.000	546.260	80.008	19.993	103.216	19.967	-1.477	0.534
932.500	546.494	80.008	19.993	103.217	19.966	-1.423	0.496
933.000	546.742	80.007	19.994	103.216	19.967	-1.481	0.482
933.500	547.020	80.009	19.993	103.216	19.968	-1.544	0.504
934.000	547.265	80.009	19.994	103.219	19.965	-1.301	0.524
934.500	547.551	80.008	19.993	103.223	19.966	-1.367	0.526
935.000	547.792	80.010	19.995	103.226	19.966	-1.393	0.529
935.500	548.026	80.009	19.994	103.232	19.963	-1.231	0.501
936.000	548.294	80.009	19.994	103.238	19.968	-1.509	0.489
936.500	548.536	80.008	19.994	103.237	19.967	-1.455	0.506
937.000	548.815	80.008	19.994	103.233	19.967	-1.446	0.516
937.500	549.073	80.007	19.993	103.229	19.963	-1.234	0.529
938.000	549.296	80.009	19.994	103.222	19.965	-1.355	0.509
938.500	549.568	80.008	19.995	103.218	19.967	-1.473	0.488
939.000	549.818	80.008	19.995	103.219	19.966	-1.387	0.508
939.501	550.075	80.008	19.994	103.222	19.964	-1.268	0.514
940.000	550.342	80.008	19.994	103.228	19.966	-1.387	0.516
940.500	550.561	80.009	19.994	103.228	19.965	-1.328	0.505
941.000	550.841	80.008	19.994	103.229	19.966	-1.409	0.493
941.500	551.099	80.009	19.993	103.227	19.967	-1.432	0.519
942.000	551.380	80.008	19.995	103.222	19.970	-1.646	0.538
942.500	551.593	80.009	19.994	103.216	19.970	-1.644	0.517
943.000	551.868	80.009	19.994	103.216	19.963	-1.211	0.491
943.500	552.103	80.010	19.994	103.213	19.968	-1.499	0.499
944.000	552.389	80.010	19.994	103.215	19.965	-1.340	0.515
944.500	552.647	80.008	19.995	103.218	19.967	-1.436	0.533
945.000	552.883	80.011	19.994	103.220	19.967	-1.490	0.519
945.501	553.116	80.010	19.993	103.220	19.965	-1.319	0.481
946.000	553.397	80.009	19.994	103.221	19.965	-1.326	0.491
946.500	553.672	80.010	19.995	103.219	19.963	-1.204	0.535
947.000	553.947	80.011	19.995	103.215	19.962	-1.162	0.553
947.500	554.185	80.010	19.995	103.213	19.967	-1.450	0.531
948.000	554.469	80.012	19.995	103.213	19.965	-1.319	0.518
948.500	554.713	80.010	19.994	103.212	19.962	-1.128	0.525
949.000	554.945	80.009	19.994	103.214	19.963	-1.227	0.502
949.500	555.249	80.010	19.995	103.216	19.967	-1.452	0.506
950.000	555.477	80.011	19.994	103.216	19.966	-1.376	0.534
950.500	555.744	80.011	19.994	103.216	19.970	-1.670	0.513
951.000	555.980	80.011	19.994	103.215	19.966	-1.429	0.499
951.500	556.249	80.010	19.995	103.213	19.963	-1.187	0.504
952.000	556.492	80.009	19.994	103.211	19.965	-1.362	0.508
952.500	556.739	80.009	19.994	103.211	19.965	-1.362	0.501
953.000	556.998	80.008	19.995	103.211	19.966	-1.391	0.498
953.500	557.280	80.007	19.994	103.211	19.965	-1.335	0.523
954.000	557.526	80.009	19.995	103.211	19.963	-1.193	0.534
954.500	557.772	80.009	19.995	103.212	19.965	-1.315	0.510
955.000	558.024	80.009	19.994	103.212	19.967	-1.447	0.495
955.501	558.302	80.007	19.995	103.217	19.966	-1.376	0.514
956.001	558.575	80.008	19.995	103.224	19.964	-1.263	0.540
956.500	558.827	80.006	19.994	103.228	19.963	-1.232	0.538
957.000	559.034	80.008	19.996	103.229	19.965	-1.339	0.492
957.500	559.310	80.008	19.995	103.234	19.969	-1.580	0.471
958.000	559.554	80.008	19.995	103.232	19.969	-1.590	0.501
958.501	559.825	80.007	19.995	103.225	19.967	-1.473	0.518
959.000	560.051	80.006	19.996	103.221	19.968	-1.556	0.506
959.500	560.312	80.006	19.996	103.221	19.970	-1.673	0.492
960.000	560.605	80.007	19.995	103.217	19.966	-1.385	0.521
960.500	560.797	80.007	19.995	103.216	19.963	-1.234	0.519
961.000	561.065	80.008	19.996	103.216	19.964	-1.258	0.472
961.500	561.320	80.005	19.994	103.219	19.972	-1.765	0.491
962.000	561.618	80.007	19.996	103.219	19.970	-1.693	0.538
962.501	561.863	80.008	19.995	103.219	19.965	-1.328	0.548
963.000	562.124	80.006	19.996	103.218	19.966	-1.423	0.525
963.500	562.357	80.007	19.995	103.219	19.968	-1.515	0.500
964.000	562.626	80.007	19.996	103.219	19.969	-1.614	0.498
964.500	562.865	80.006	19.995	103.218	19.970	-1.650	0.505
965.000	563.124	80.007	19.995	103.219	19.972	-1.817	0.503
965.500	563.369	80.006	19.995	103.219	19.968	-1.515	0.501
966.000	563.627	80.008	19.996	103.218	19.968	-1.545	0.503
966.500	563.894	80.007	19.994	103.216	19.965	-1.351	0.514
967.000	564.145	80.007	19.995	103.216	19.963	-1.177	0.522
967.500	564.394	80.007	19.995	103.217	19.967	-1.472	0.509
968.000	564.654	80.007	19.995	103.217	19.968	-1.544	0.504
968.500	564.884	80.005	19.994	103.218	19.968	-1.545	0.500
969.000	565.150	80.009	19.995	103.218	19.968	-1.540	0.494
969.500	565.404	80.008	19.995	103.218	19.972	-1.774	0.508
970.000	565.649	80.008	19.995	103.217	19.971	-1.695	0.509
970.500	565.919	80.007	19.994	103.219	19.969	-1.569	0.506
971.000	566.181	80.008	19.994	103.219	19.966	-1.382	0.523
971.500	566.403	80.006	19.996	103.218	19.965	-1.348	0.508
972.000	566.664	80.008	19.994	103.217	19.968	-1.517	0.484
972.500	566.938	80.007	19.994	103.218	19.966	-1.414	0.509
973.000	567.202	80.005	19.995	103.216	19.968	-1.531	0.536
973.500	567.436	80.008	19.995	103.216	19.967	-1.484	0.518
974.000	567.683	80.007	19.995	103.217	19.970	-1.635	0.490
974.500	567.941	80.007	19.996	103.217	19.969	-1.578	0.494
975.000	568.189	80.007	19.995	103.217	19.969	-1.612	0.506
975.500	568.454	80.006	19.995	103.218	19.968	-1.531	0.509
976.000	568.700	80.006	19.995	103.218	19.968	-1.531	0.511
976.500	568.974	80.007	19.995	103.218	19.967	-1.482	0.516
977.000	569.218	80.008	19.996	103.219	19.970	-1.657	0.519
977.500	569.461	80.006	19.995	103.220	19.969	-1.576	0.502
978.000	569.712	80.008	19.996	103.220	19.971	-1.731	0.490
978.500	569.975	80.007	19.996	103.220	19.973	-1.857	0.504
979.000	570.251	80.006	19.995	103.220	19.968	-1.524	0.527
979.500	570.506	80.005	19.996	103.218	19.968	-1.527	0.535
980.000	570.766	80.006	19.995	103.217	19.966	-1.410	0.522
980.500	571.000	80.006	19.995	103.217	19.966	-1.367	0.504
981.000	571.260	80.004	19.995	103.217	19.968	-1.562	0.494
981.500	571.482	80.007	19.996	103.217	19.968	-1.526	0.488
982.000	571.760	80.006	19.995	103.218	19.968	-1.520	0.491
982.500	571.992	80.005	19.996	103.219	19.969	-1.587	0.505
983.000	572.286	80.006	19.995	103.218	19.973	-1.880	0.518
983.500	572.538	80.006	19.995	103.217	19.971	-1.722	0.536
984.000	572.783	80.006	19.996	103.217	19.967	-1.473	0.522
984.500	572.989	80.006	19.996	103.218	19.967	-1.457	0.474
985.000	573.299	80.005	19.995	103.218	19.970	-1.648	0.483
985.500	573.539	80.002	19.995	103.218	19.967	-1.466	0.533
986.000	573.791	80.006	19.996	103.218	19.972	-1.806	0.521
986.500	574.049	80.005	19.996	103.218	19.965	-1.362	0.501
987.000	574.346	80.006	19.996	103.217	19.968	-1.502	0.533
987.500	574.591	80.005	19.997	103.217	19.970	-1.641	0.548
988.000	574.874	80.006	19.995	103.217	19.969	-1.619	0.534
988.500	575.101	80.004	19.996	103.217	19.971	-1.732	0.519
989.000	575.401	80.006	19.995	103.217	19.970	-1.688	0.519
989.500	575.625	80.007	19.996	103.217	19.970	-1.661	0.525
990.000	575.908	80.005	19.995	103.216	19.967	-1.464	0.515
990.500	576.171	80.006	19.995	103.216	19.970	-1.652	0.527
991.000	576.413	80.006	19.997	103.215	19.969	-1.605	0.526
991.500	576.671	80.007	19.996	103.216	19.968	-1.542	0.502
992.000	576.930	80.005	19.996	103.215	19.972	-1.810	0.508
992.500	577.146	80.007	19.996	103.218	19.973	-1.848	0.496
993.000	577.438	80.007	19.995	103.217	19.968	-1.517	0.492
993.500	577.670	80.007	19.996	103.219	19.966	-1.407	0.515
994.000	577.921	80.009	19.995	103.218	19.971	-1.747	0.503
994.500	578.177	80.007	19.994	103.217	19.972	-1.763	0.495
995.000	578.438	80.007	19.994	103.214	19.969	-1.580	0.512
995.500	578.723	80.008	19.994	103.214	19.974	-1.893	0.531
996.000	578.946	80.007	19.994	103.212	19.971	-1.745	0.527
996.500	579.222	80.006	19.995	103.213	19.968	-1.544	0.504
997.000	579.454	80.007	19.995	103.213	19.972	-1.824	0.504
997.500	579.713	80.009	19.994	103.214	19.973	-1.846	0.500
998.000	579.979	80.008	19.995	103.214	19.973	-1.851	0.508
998.500	580.203	80.008	19.994	103.214	19.977	-2.114	0.507
999.000	580.467	80.008	19.995	103.213	19.972	-1.765	0.489
999.500	580.733	80.008	19.994	103.213	19.974	-1.918	0.509
1000.000	580.960	80.009	19.994	103.213	19.972	-1.770	0.512
1000.500	581.214	80.008	19.994	103.214	19.970	-1.661	0.487
1001.000	581.465	80.009	19.994	103.214	19.974	-1.896	0.493
1001.500	581.768	80.009	19.994	103.215	19.975	-2.020	0.529
1002.000	581.981	80.009	19.995	103.216	19.973	-1.862	0.535
1002.500	582.252	80.006	19.994	103.216	19.975	-1.979	0.500
1003.000	582.523	80.008	19.994	103.215	19.971	-1.724	0.513
1003.500	582.748	80.009	19.995	103.214	19.976	-2.087	0.519
1004.000	583.023	80.010	19.995	103.213	19.974	-1.925	0.497
1004.500	583.215	80.007	19.994	103.212	19.975	-1.970	0.484
1005.000	583.503	80.009	19.995	103.211	19.972	-1.824	0.474
1005.500	583.741	80.009	19.995	103.211	19.973	-1.848	0.503
1006.000	584.004	80.008	19.994	103.211	19.972	-1.803	0.513
1006.500	584.251	80.009	19.995	103.211	19.969	-1.599	0.505
1007.000	584.468	80.010	19.994	103.211	19.971	-1.697	0.487
1007.500	584.739	80.008	19.994	103.212	19.974	-1.941	0.476
1008.000	584.977	80.009	19.994	103.213	19.974	-1.914	0.499
1008.500	585.237	80.007	19.995	103.214	19.969	-1.628	0.504
1009.000	585.509	80.009	19.995	103.215	19.973	-1.842	0.515
1009.500	585.727	80.006	19.995	103.216	19.972	-1.819	0.511
1010.000	586.014	80.009	19.995	103.216	19.972	-1.792	0.497
1010.500	586.265	80.007	19.996	103.216	19.971	-1.756	0.522
1011.000	586.537	80.007	19.996	103.215	19.970	-1.688	0.531
1011.500	586.792	80.008	19.995	103.214	19.974	-1.930	0.525
1012.000	587.062	80.007	19.995	103.215	19.977	-2.101	0.526
1012.500	587.282	80.009	19.994	103.219	19.969	-1.574	0.507
1013.000	587.526	80.009	19.995	103.218	19.974	-1.948	0.477
1013.500	587.782	80.007	19.994	103.219	19.972	-1.768	0.482
1014.000	588.032	80.009	19.996	103.218	19.970	-1.650	0.503
1014.500	588.286	80.008	19.995	103.216	19.971	-1.751	0.505
1015.000	588.554	80.008	19.994	103.214	19.974	-1.945	0.513
1015.501	588.789	80.006	19.996	103.215	19.975	-1.959	0.513
1016.000	589.061	80.009	19.995	103.215	19.975	-1.961	0.505
1016.500	589.270	80.009	19.995	103.216	19.971	-1.716	0.494
1017.000	589.535	80.008	19.996	103.217	19.971	-1.722	0.478
1017.500	589.819	80.009	19.995	103.218	19.972	-1.803	0.512
1018.001	590.041	80.009	19.995	103.216	19.973	-1.830	0.527
1018.500	590.302	80.009	19.995	103.216	19.972	-1.797	0.495
1019.000	590.547	80.008	19.995	103.215	19.974	-1.943	0.495
1019.500	590.789	80.008	19.995	103.214	19.972	-1.796	0.497
1020.000	591.029	80.009	19.995	103.213	19.973	-1.851	0.484
1020.500	591.299	80.009	19.995	103.213	19.972	-1.769	0.496
1021.000	591.529	80.008	19.995	103.216	19.973	-1.830	0.505
1021.500	591.748	80.008	19.994	103.217	19.969	-1.603	0.474
1022.000	592.049	80.010	19.994	103.219	19.977	-2.089	0.484
1022.500	592.279	80.009	19.993	103.218	19.973	-1.884	0.525
1023.000	592.506	80.008	19.994	103.219	19.971	-1.760	0.494
1023.500	592.802	80.010	19.995	103.216	19.970	-1.673	0.490
1024.000	593.041	80.010	19.994	103.216	19.975	-2.010	0.529
1024.500	593.303	80.009	19.993	103.214	19.978	-2.184	0.518
1025.000	593.556	80.009	19.995	103.215	19.978	-2.168	0.508
1025.501	593.798	80.009	19.995	103.218	19.975	-1.968	0.505
1026.001	594.074	80.011	19.994	103.219	19.974	-1.912	0.506
1026.500	594.297	80.011	19.994	103.219	19.974	-1.925	0.508
1027.000	594.565	80.010	19.994	103.218	19.973	-1.889	0.495
1027.500	594.839	80.009	19.995	103.219	19.971	-1.716	0.517
1028.000	595.065	80.011	19.995	103.216	19.970	-1.689	0.521
1028.500	595.352	80.011	19.995	103.216	19.972	-1.808	0.506
1029.000	595.581	80.011	19.994	103.215	19.973	-1.828	0.515
1029.500	595.879	80.009	19.995	103.219	19.976	-2.037	0.522
1030.000	596.111	80.008	19.994	103.223	19.977	-2.127	0.528
1030.500	596.357	80.010	19.995	103.223	19.975	-2.010	0.504
1031.000	596.555	80.011	19.994	103.224	19.973	-1.869	0.461
1031.501	596.852	80.010	19.995	103.224	19.973	-1.864	0.469
1032.001	597.099	80.010	19.994	103.220	19.975	-1.992	0.519
1032.501	597.351	80.009	19.993	103.215	19.976	-2.049	0.522
1033.001	597.586	80.010	19.994	103.217	19.974	-1.939	0.493
1033.501	597.854	80.009	19.993	103.218	19.976	-2.044	0.495
1034.001	598.095	80.009	19.995	103.219	19.973	-1.830	0.506
1034.500	598.341	80.010	19.993	103.219	19.974	-1.941	0.498
1035.000	598.560	80.008	19.994	103.219	19.976	-2.046	0.476
1035.500	598.856	80.010	19.995	103.217	19.975	-2.001	0.490
1036.001	599.128	80.010	19.994	103.215	19.973	-1.853	0.542
1036.501	599.366	80.009	19.994	103.215	19.975	-1.990	0.539
1037.001	599.588	80.007	19.994	103.216	19.977	-2.109	0.484
1037.501	599.856	80.008	19.996	103.218	19.975	-1.986	0.475
1038.000	600.121	80.008	19.994	103.218	19.975	-1.974	0.512
1038.500	600.370	80.006	19.994	103.219	19.975	-2.004	0.523
1039.000	600.622	80.007	19.994	103.219	19.974	-1.945	0.507
1039.500	600.846	80.010	19.994	103.218	19.979	-2.271	0.489
1040.000	601.131	80.007	19.994	103.216	19.976	-2.026	0.493
1040.500	601.369	80.006	19.994	103.216	19.978	-2.155	0.516
1041.001	601.611	80.008	19.995	103.216	19.975	-1.995	0.501
1041.501	601.880	80.008	19.994	103.216	19.973	-1.855	0.496
1042.000	602.125	80.008	19.995	103.217	19.976	-2.076	0.513
1042.501	602.376	80.009	19.994	103.217	19.976	-2.040	0.505
1043.001	602.629	80.007	19.995	103.215	19.975	-2.013	0.500
1043.500	602.887	80.006	19.995	103.215	19.977	-2.114	0.507
1044.000	603.147	80.008	19.995	103.216	19.973	-1.878	0.514
1044.500	603.354	80.005	19.995	103.216	19.977	-2.110	0.492
1045.000	603.632	80.006	19.995	103.217	19.974	-1.929	0.476
1045.500	603.864	80.007	19.995	103.221	19.976	-2.055	0.498
1046.000	604.154	80.006	19.995	103.222	19.973	-1.869	0.516
1046.500	604.379	80.007	19.994	103.221	19.973	-1.835	0.518
1047.000	604.604	80.006	19.996	103.221	19.976	-2.047	0.483
1047.500	604.893	80.007	19.995	103.221	19.977	-2.119	0.482
1048.000	605.139	80.006	19.995	103.218	19.974	-1.894	0.524
1048.500	605.396	80.006	19.995	103.219	19.974	-1.941	0.519
1049.000	605.655	80.006	19.995	103.218	19.976	-2.071	0.510
1049.500	605.897	80.006	19.994	103.219	19.974	-1.918	0.508
1050.000	606.160	80.007	19.995	103.219	19.973	-1.875	0.503
1050.500	606.469	80.006	19.995	103.219	19.976	-2.074	0.538
1051.000	606.662	80.007	19.994	103.219	19.977	-2.114	0.537
1051.500	606.912	80.006	19.995	103.220	19.978	-2.154	0.473
1052.000	607.179	80.006	19.995	103.219	19.978	-2.170	0.480
1052.500	607.426	80.006	19.996	103.218	19.975	-1.966	0.515
1053.000	607.655	80.006	19.995	103.219	19.979	-2.242	0.495
1053.500	607.925	80.006	19.994	103.218	19.978	-2.200	0.487
1054.000	608.187	80.007	19.995	103.217	19.978	-2.166	0.515
1054.500	608.431	80.008	19.995	103.218	19.978	-2.209	0.519
1055.000	608.685	80.006	19.995	103.217	19.976	-2.064	0.502
1055.500	608.908	80.008	19.995	103.216	19.976	-2.037	0.487
1056.001	609.184	80.008	19.996	103.216	19.976	-2.062	0.488
1056.501	609.431	80.008	19.995	103.216	19.975	-1.997	0.511
1057.000	609.700	80.009	19.995	103.214	19.975	-1.977	0.520
1057.500	609.915	80.011	19.994	103.214	19.976	-2.051	0.500
1058.000	610.180	80.007	19.995	103.214	19.978	-2.198	0.482
1058.500	610.438	80.008	19.995	103.214	19.976	-2.051	0.501
1059.000	610.672	80.006	19.995	103.215	19.976	-2.053	0.507
1059.501	610.957	80.009	19.994	103.215	19.977	-2.146	0.505
1060.001	611.163	80.006	19.994	103.215	19.973	-1.828	0.505
1060.501	611.443	80.007	19.994	103.215	19.972	-1.808	0.489
1061.000	611.718	80.008	19.995	103.216	19.975	-1.981	0.520
1061.500	611.929	80.007	19.995	103.215	19.971	-1.740	0.520
1062.001	612.201	80.007	19.996	103.215	19.974	-1.914	0.484
1062.501	612.458	80.007	19.995	103.215	19.971	-1.742	0.506
1063.001	612.706	80.008	19.995	103.214	19.974	-1.925	0.517
1063.501	612.959	80.008	19.994	103.212	19.974	-1.936	0.503
1064.001	613.188	80.007	19.994	103.212	19.974	-1.896	0.492
1064.500	613.493	80.010	19.994	103.212	19.972	-1.774	0.508
1065.000	613.718	80.007	19.995	103.214	19.978	-2.177	0.532
1065.501	613.974	80.007	19.994	103.216	19.973	-1.866	0.505
1066.001	614.228	80.007	19.995	103.216	19.975	-1.970	0.495
1066.500	614.473	80.007	19.995	103.216	19.975	-1.997	0.504
1067.000	614.775	80.006	19.995	103.217	19.978	-2.170	0.523
1067.500	614.989	80.006	19.997	103.217	19.977	-2.152	0.531
1068.000	615.251	80.006	19.994	103.216	19.973	-1.866	0.496
1068.500	615.503	80.008	19.995	103.215	19.973	-1.880	0.495
1069.000	615.710	80.007	19.995	103.216	19.973	-1.882	0.487
1069.500	615.997	80.008	19.995	103.216	19.975	-2.019	0.477
1070.000	616.211	80.006	19.995	103.214	19.976	-2.078	0.498
1070.500	616.463	80.006	19.996	103.215	19.973	-1.875	0.483
1071.000	616.686	80.004	19.995	103.215	19.977	-2.114	0.470
1071.500	616.907	80.006	19.995	103.214	19.975	-2.003	0.459
1072.000	617.188	80.007	19.996	103.214	19.975	-1.965	0.473
1072.500	617.426	80.007	19.995	103.216	19.978	-2.217	0.511
1073.000	617.700	80.006	19.996	103.217	19.977	-2.118	0.516
1073.500	617.926	80.006	19.996	103.218	19.977	-2.091	0.506
1074.001	618.169	80.005	19.996	103.221	19.976	-2.057	0.484
1074.501	618.380	80.005	19.995	103.223	19.977	-2.091	0.461
1075.000	618.664	80.005	19.994	103.222	19.976	-2.055	0.474
1075.500	618.893	80.006	19.996	103.220	19.974	-1.945	0.504
1076.000	619.118	80.006	19.996	103.224	19.975	-2.013	0.483
1076.501	619.386	80.007	19.996	103.227	19.977	-2.121	0.473
1077.001	619.647	80.008	19.996	103.225	19.976	-2.073	0.511
1077.500	619.882	80.006	19.996	103.225	19.974	-1.914	0.512
1078.000	620.137	80.007	19.997	103.224	19.975	-1.961	0.493
1078.500	620.362	80.006	19.996	103.221	19.975	-1.993	0.485
1079.000	620.647	80.007	19.995	103.216	19.976	-2.037	0.495
1079.500	620.849	80.007	19.997	103.215	19.970	-1.686	0.499
1080.000	621.084	80.006	19.996	103.216	19.976	-2.082	0.462
1080.500	621.340	80.007	19.996	103.221	19.975	-2.017	0.464
1081.000	621.604	80.007	19.996	103.224	19.976	-2.066	0.506
1081.500	621.814	80.009	19.996	103.225	19.979	-2.236	0.497
1082.001	622.052	80.009	19.996	103.225	19.975	-2.018	0.461
1082.501	622.336	80.008	19.997	103.224	19.971	-1.759	0.485
1083.000	622.597	80.008	19.997	103.224	19.974	-1.894	0.533
1083.500	622.827	80.008	19.995	103.225	19.976	-2.036	0.518
1084.000	623.079	80.009	19.996	103.226	19.974	-1.913	0.487
1084.500	623.345	80.009	19.996	103.228	19.976	-2.043	0.500
1085.000	623.593	80.008	19.995	103.228	19.975	-2.009	0.516
1085.500	623.836	80.009	19.995	103.223	19.979	-2.268	0.503
1086.000	624.081	80.010	19.995	103.217	19.973	-1.885	0.490
1086.500	624.320	80.008	19.994	103.217	19.976	-2.072	0.486
1087.000	624.574	80.008	19.994	103.217	19.976	-2.058	0.488
1087.500	624.795	80.009	19.995	103.216	19.978	-2.166	0.484
1088.000	625.033	80.008	19.995	103.216	19.979	-2.248	0.467
1088.500	625.280	80.007	19.992	103.216	19.981	-2.360	0.472
1089.000	625.534	80.022	19.995	103.214	19.976	-2.088	0.493
1089.500	625.773	80.028	20.001	103.214	19.976	-2.035	0.497
1090.001	626.021	80.026	19.999	103.221	19.975	-2.014	0.490
1090.501	626.250	80.025	19.999	103.227	19.974	-1.906	0.482
1091.000	626.492	80.025	20.001	103.235	19.975	-2.003	0.474
1091.500	626.747	80.026	20.003	103.249	19.978	-2.190	0.484
1092.001	627.011	80.034	20.004	103.263	19.980	-2.319	0.508
1092.501	627.222	80.043	20.004	103.268	19.977	-2.127	0.497
1093.000	627.479	80.044	20.008	103.275	19.976	-2.064	0.471
1093.501	627.743	80.044	20.009	103.277	19.977	-2.145	0.495
1094.001	627.988	80.044	20.010	103.277	19.979	-2.256	0.515
1094.501	628.278	80.045	20.009	103.275	19.978	-2.182	0.521
1095.001	628.537	80.044	20.009	103.270	19.979	-2.267	0.542
1095.501	628.761	80.044	20.009	103.267	19.981	-2.404	0.516
1096.001	628.988	80.045	20.011	103.266	19.979	-2.224	0.467
1096.501	629.257	80.044	20.011	103.267	19.975	-2.012	0.473
1097.001	629.473	80.046	20.009	103.267	19.980	-2.319	0.490
1097.501	629.756	80.046	20.007	103.269	19.976	-2.033	0.492
1098.000	629.972	80.044	20.008	103.273	19.976	-2.037	0.499
1098.500	630.242	80.038	20.008	103.275	19.976	-2.031	0.493
1099.000	630.454	80.026	20.003	103.272	19.980	-2.285	0.484
1099.501	630.750	80.028	20.004	103.267	19.976	-2.059	0.495
1100.001	630.940	80.029	20.004	103.264	19.977	-2.125	0.497
1100.500	631.245	80.027	20.002	103.252	19.978	-2.170	0.491
1101.000	631.480	80.026	20.002	103.243	19.973	-1.855	0.517
1101.500	631.750	80.027	20.001	103.234	19.975	-2.004	0.523
1102.000	632.020	80.027	20.001	103.227	19.979	-2.220	0.522
1102.501	632.197	80.025	19.998	103.225	19.976	-2.087	0.493
1103.001	632.507	80.020	19.997	103.230	19.977	-2.132	0.467
1103.500	632.699	80.008	19.997	103.232	19.977	-2.143	0.495
1104.000	633.000	80.006	19.996	103.231	19.976	-2.086	0.498
1104.500	633.226	80.009	19.995	103.230	19.980	-2.341	0.510
1105.000	633.478	80.008	19.996	103.225	19.975	-2.010	0.502
1105.500	633.742	80.008	19.995	103.221	19.975	-2.008	0.497
1106.001	633.977	80.009	19.995	103.219	19.977	-2.116	0.508
1106.501	634.219	80.010	19.995	103.221	19.980	-2.336	0.488
1107.000	634.497	80.008	19.996	103.223	19.977	-2.105	0.498
1107.500	634.740	80.009	19.995	103.223	19.977	-2.121	0.520
1108.000	635.000	80.010	19.994	103.223	19.978	-2.211	0.512
1108.500	635.236	80.010	19.995	103.225	19.975	-2.012	0.500
1109.001	635.468	80.010	19.993	103.224	19.977	-2.134	0.482
1109.501	635.748	80.011	19.994	103.227	19.976	-2.039	0.490
1110.001	636.000	80.009	19.994	103.232	19.976	-2.028	0.522
1110.500	636.241	80.011	19.994	103.233	19.976	-2.075	0.513
1111.000	636.489	80.009	19.994	103.235	19.978	-2.204	0.491
1111.500	636.755	80.010	19.994	103.234	19.977	-2.136	0.501
1112.000	636.962	80.009	19.993	103.232	19.973	-1.878	0.493
1112.500	637.203	80.010	19.993	103.227	19.975	-2.021	0.461
1113.001	637.488	80.010	19.993	103.228	19.981	-2.361	0.487
1113.501	637.763	80.009	19.995	103.229	19.975	-1.976	0.543
1114.001	637.967	80.009	19.995	103.235	19.977	-2.112	0.519
1114.501	638.186	80.009	19.994	103.232	19.976	-2.058	0.451
1115.001	638.446	80.010	19.994	103.234	19.978	-2.154	0.451
1115.501	638.733	80.008	19.995	103.234	19.974	-1.927	0.512
1116.000	638.983	80.009	19.994	103.234	19.977	-2.098	0.542
1116.500	639.207	80.008	19.994	103.231	19.975	-2.010	0.506
1117.001	639.457	80.008	19.995	103.234	19.980	-2.289	0.474
1117.501	639.730	80.009	19.994	103.235	19.976	-2.055	0.498
1118.001	639.907	80.009	19.995	103.234	19.974	-1.956	0.487
1118.502	640.205	80.008	19.995	103.233	19.977	-2.093	0.462
1119.001	640.442	80.008	19.995	103.233	19.978	-2.184	0.505
1119.500	640.670	80.006	19.993	103.234	19.978	-2.212	0.500
1120.000	640.925	80.007	19.995	103.233	19.976	-2.080	0.474
1120.500	641.168	80.007	19.993	103.233	19.978	-2.194	0.490
1121.001	641.411	80.007	19.995	103.235	19.980	-2.334	0.492
1121.501	641.689	80.006	19.994	103.233	19.978	-2.206	0.504
1122.000	641.905	80.007	19.994	103.232	19.976	-2.060	0.508
1122.500	642.160	80.008	19.994	103.229	19.979	-2.247	0.483
1123.000	642.364	80.007	19.995	103.227	19.976	-2.087	0.465
1123.500	642.631	80.007	19.994	103.223	19.979	-2.253	0.465
1124.000	642.918	80.006	19.994	103.223	19.979	-2.229	0.512
1124.500	643.118	80.008	19.995	103.223	19.975	-1.996	0.521
1125.000	643.362	80.008	19.994	103.224	19.979	-2.224	0.466
1125.500	643.609	80.007	19.994	103.226	19.979	-2.284	0.467
1126.000	643.880	80.009	19.993	103.227	19.976	-2.082	0.504
1126.500	644.102	80.008	19.994	103.228	19.979	-2.231	0.505
1127.000	644.350	80.007	19.995	103.227	19.976	-2.028	0.482
1127.500	644.558	80.007	19.994	103.226	19.977	-2.118	0.463
1128.001	644.788	80.006	19.995	103.223	19.976	-2.037	0.447
1128.501	645.056	80.009	19.994	103.223	19.976	-2.078	0.468
1129.000	645.318	80.008	19.994	103.222	19.978	-2.156	0.514
1129.500	645.561	80.009	19.994	103.225	19.980	-2.334	0.517
1130.000	645.801	80.007	19.994	103.230	19.978	-2.163	0.494
1130.500	646.047	80.007	19.994	103.236	19.976	-2.055	0.485
1131.001	646.275	80.006	19.995	103.239	19.979	-2.244	0.480
1131.501	646.519	80.007	19.994	103.238	19.976	-2.026	0.473
1132.000	646.753	80.008	19.996	103.238	19.976	-2.078	0.475
1132.500	647.016	80.006	19.994	103.237	19.979	-2.254	0.487
1133.000	647.245	80.008	19.994	103.236	19.979	-2.253	0.495
1133.500	647.517	80.007	19.995	103.235	19.981	-2.357	0.497
1134.001	647.755	80.006	19.995	103.234	19.978	-2.192	0.505
1134.501	647.997	80.007	19.995	103.234	19.978	-2.170	0.495
1135.000	648.235	80.006	19.995	103.235	19.972	-1.783	0.480
1135.501	648.459	80.007	19.995	103.232	19.980	-2.339	0.472
1136.001	648.712	80.007	19.994	103.233	19.979	-2.269	0.469
1136.500	648.956	80.007	19.995	103.237	19.976	-2.067	0.486
1137.000	649.137	80.006	19.995	103.238	19.975	-1.994	0.461
1137.500	649.447	80.008	19.995	103.239	19.978	-2.210	0.458
1138.000	649.687	80.009	19.996	103.242	19.978	-2.190	0.520
1138.500	649.923	80.006	19.994	103.242	19.978	-2.202	0.513
1139.000	650.197	80.008	19.996	103.242	19.975	-2.008	0.493
1139.500	650.414	80.007	19.994	103.242	19.978	-2.161	0.501
1140.001	650.664	80.007	19.995	103.237	19.977	-2.116	0.479
1140.501	650.915	80.007	19.995	103.233	19.980	-2.323	0.484
1141.000	651.179	80.007	19.996	103.229	19.976	-2.071	0.508
1141.500	651.395	80.006	19.994	103.226	19.973	-1.877	0.498
1142.000	651.635	80.007	19.995	103.220	19.978	-2.201	0.468
1142.501	651.924	80.007	19.995	103.219	19.976	-2.086	0.493
1143.001	652.162	80.008	19.995	103.219	19.979	-2.268	0.528
1143.500	652.414	80.007	19.996	103.223	19.978	-2.201	0.508
1144.000	652.631	80.007	19.995	103.227	19.975	-2.012	0.480
1144.500	652.887	80.008	19.995	103.235	19.971	-1.733	0.471
1145.000	653.092	80.006	19.995	103.240	19.979	-2.284	0.467
1145.500	653.362	80.007	19.996	103.241	19.976	-2.035	0.468
1146.000	653.613	80.007	19.995	103.238	19.979	-2.255	0.498
1146.500	653.883	80.006	19.995	103.237	19.978	-2.217	0.521
1147.000	654.090	80.008	19.996	103.233	19.975	-1.965	0.499
1147.500	654.388	80.007	19.996	103.231	19.973	-1.886	0.491
1148.000	654.584	80.007	19.996	103.231	19.977	-2.093	0.500
1148.501	654.872	80.007	19.995	103.233	19.976	-2.052	0.489
1149.001	655.138	80.007	19.994	103.234	19.974	-1.944	0.519
1149.500	655.389	80.008	19.996	103.233	19.976	-2.057	0.535
1150.001	655.625	80.005	19.996	103.233	19.976	-2.080	0.503
1150.501	655.872	80.008	19.996	103.235	19.968	-1.530	0.485
1151.000	656.148	80.006	19.995	103.237	19.975	-1.958	0.503
1151.501	656.362	80.006	19.994	103.237	19.972	-1.785	0.507
1152.001	656.651	80.006	19.996	103.242	19.971	-1.748	0.497
1152.500	656.931	80.006	19.996	103.246	19.977	-2.111	0.536
1153.000	657.153	80.005	19.996	103.249	19.972	-1.778	0.535
1153.500	657.422	80.007	19.994	103.250	19.974	-1.955	0.496
1154.001	657.694	80.006	19.995	103.252	19.976	-2.027	0.516
1154.501	657.954	80.006	19.996	103.252	19.973	-1.848	0.536
1155.001	658.205	80.006	19.995	103.251	19.973	-1.879	0.521
1155.501	658.479	80.007	19.995	103.249	19.971	-1.744	0.518
1156.000	658.749	80.005	19.996	103.245	19.975	-2.014	0.535
1156.500	659.004	80.007	19.995	103.242	19.973	-1.865	0.535
1157.000	659.315	80.006	19.995	103.243	19.972	-1.785	0.545
1157.501	659.556	80.007	19.995	103.244	19.976	-2.072	0.559
1158.001	659.825	80.006	19.995	103.247	19.976	-2.034	0.531
1158.500	660.103	80.007	19.995	103.248	19.973	-1.834	0.529
1159.001	660.368	80.007	19.995	103.248	19.981	-2.386	0.545
1159.501	660.664	80.008	19.995	103.248	19.972	-1.793	0.552
1160.000	660.937	80.007	19.995	103.249	19.976	-2.050	0.565
1160.500	661.206	80.006	19.995	103.249	19.975	-1.962	0.556
1161.000	661.489	80.007	19.996	103.253	19.975	-1.958	0.547
1161.500	661.767	80.007	19.995	103.254	19.976	-2.066	0.557
1162.000	662.074	80.008	19.995	103.255	19.976	-2.023	0.573
1162.501	662.341	80.008	19.996	103.255	19.974	-1.922	0.580
1163.001	662.608	80.007	19.995	103.254	19.971	-1.703	0.554
1163.501	662.841	80.007	19.995	103.254	19.977	-2.116	0.517
1164.001	663.122	80.007	19.995	103.254	19.974	-1.897	0.507
1164.500	663.401	80.007	19.995	103.253	19.973	-1.861	0.537
1165.001	663.688	80.007	19.995	103.253	19.969	-1.618	0.563
1165.501	663.994	80.010	19.995	103.253	19.973	-1.865	0.580
1166.001	664.248	80.008	19.996	103.253	19.974	-1.895	0.576
1166.501	664.504	80.007	19.996	103.253	19.977	-2.129	0.534
1167.000	664.798	80.008	19.996	103.253	19.977	-2.093	0.530
1167.500	665.076	80.008	19.995	103.253	19.976	-2.050	0.561
1168.000	665.388	80.007	19.995	103.253	19.976	-2.068	0.581
1168.500	665.649	80.009	19.996	103.253	19.971	-1.737	0.582
1169.000	665.896	80.008	19.995	103.253	19.978	-2.179	0.541
1169.500	666.183	80.005	19.996	103.253	19.978	-2.181	0.521
1170.000	666.495	80.008	19.995	103.253	19.981	-2.413	0.567
1170.500	666.750	80.005	19.996	103.252	19.978	-2.185	0.583
1171.000	667.056	80.006	19.997	103.252	19.976	-2.039	0.564
1171.500	667.320	80.006	19.996	103.251	19.975	-1.965	0.565
1172.000	667.612	80.008	19.995	103.251	19.978	-2.201	0.563
1172.500	667.925	80.007	19.996	103.250	19.974	-1.945	0.581
1173.000	668.150	80.006	19.995	103.251	19.977	-2.116	0.571
1173.500	668.446	80.006	19.997	103.251	19.979	-2.249	0.529
1174.000	668.693	80.008	19.995	103.250	19.976	-2.032	0.532
1174.500	668.982	80.006	19.995	103.250	19.977	-2.115	0.539
1175.000	669.279	80.006	19.995	103.251	19.977	-2.136	0.561
1175.500	669.527	80.006	19.995	103.251	19.975	-1.998	0.566
1176.001	669.806	80.005	19.995	103.251	19.980	-2.322	0.536
1176.501	670.083	80.006	19.995	103.253	19.978	-2.163	0.542
1177.000	670.348	80.007	19.995	103.253	19.979	-2.242	0.549
1177.500	670.644	80.007	19.996	103.251	19.978	-2.154	0.551
1178.000	670.915	80.007	19.995	103.250	19.978	-2.197	0.564
1178.500	671.215	80.007	19.995	103.249	19.979	-2.259	0.569
1179.000	671.499	80.006	19.995	103.247	19.976	-2.082	0.577
1179.500	671.773	80.008	19.996	103.246	19.980	-2.309	0.571
1180.000	672.033	80.007	19.995	103.248	19.980	-2.295	0.546
1180.500	672.333	80.007	19.995	103.249	19.979	-2.269	0.547
1181.000	672.559	80.008	19.995	103.250	19.974	-1.929	0.543
1181.500	672.896	80.008	19.995	103.253	19.978	-2.192	0.544
1182.000	673.146	80.008	19.994	103.252	19.979	-2.242	0.575
1182.500	673.437	80.008	19.995	103.249	19.977	-2.133	0.564
1183.000	673.767	80.008	19.994	103.244	19.977	-2.145	0.581
1183.500	674.043	80.008	19.995	103.242	19.976	-2.028	0.614
1184.000	674.309	80.008	19.994	103.242	19.980	-2.287	0.573
1184.501	674.551	80.006	19.995	103.243	19.980	-2.329	0.525
1185.001	674.861	80.008	19.994	103.246	19.978	-2.217	0.530
1185.500	675.161	80.008	19.995	103.249	19.977	-2.122	0.581
1186.000	675.444	80.009	19.995	103.252	19.979	-2.226	0.597
1186.501	675.701	80.008	19.994	103.251	19.979	-2.268	0.562
1187.001	675.977	80.011	19.995	103.251	19.983	-2.496	0.537
1187.501	676.272	80.008	19.994	103.251	19.977	-2.122	0.552
1188.000	676.541	80.010	19.994	103.253	19.978	-2.185	0.567
1188.500	676.829	80.010	19.995	103.252	19.981	-2.393	0.560
1189.000	677.080	80.010	19.995	103.252	19.979	-2.253	0.548
1189.500	677.393	80.009	19.995	103.249	19.980	-2.296	0.551
1190.001	677.675	80.011	19.993	103.248	19.981	-2.408	0.579
1190.501	677.943	80.010	19.995	103.247	19.978	-2.178	0.573
1191.000	678.207	80.010	19.995	103.245	19.982	-2.482	0.541
1191.500	678.543	80.012	19.994	103.246	19.980	-2.343	0.566
1192.000	678.744	80.010	19.993	103.246	19.975	-2.003	0.568
1192.500	679.065	80.011	19.994	103.246	19.984	-2.602	0.529
1193.000	679.320	80.011	19.994	103.246	19.985	-2.676	0.548
1193.500	679.589	80.009	19.993	103.247	19.983	-2.526	0.550
1194.000	679.884	80.006	19.995	103.246	19.979	-2.266	0.544
1194.500	680.126	80.009	19.995	103.245	19.981	-2.406	0.550
1195.000	680.396	80.009	19.993	103.246	19.981	-2.388	0.524
1195.501	680.681	80.009	19.996	103.247	19.982	-2.424	0.534
1196.001	680.938	80.009	19.996	103.246	19.979	-2.239	0.549
1196.500	681.204	80.011	19.994	103.247	19.980	-2.289	0.532
1197.000	681.522	80.008	19.995	103.248	19.981	-2.392	0.554
1197.501	681.763	80.008	19.995	103.248	19.979	-2.269	0.572
1198.001	682.023	80.010	19.994	103.248	19.979	-2.224	0.530
1198.501	682.304	80.009	19.994	103.248	19.977	-2.134	0.521
1199.000	682.584	80.010	19.995	103.245	19.977	-2.107	0.551
1199.500	682.857	80.009	19.994	103.246	19.977	-2.140	0.557
1200.000	683.124	80.009	19.995	103.246	19.980	-2.287	0.546
1200.501	683.421	80.010	19.994	103.247	19.976	-2.064	0.552
1201.001	683.666	80.010	19.996	103.247	19.978	-2.203	0.553
1201.501	683.928	80.006	19.994	103.248	19.977	-2.145	0.524
1202.001	684.200	80.008	19.995	103.242	19.975	-2.021	0.520
1202.500	684.501	80.007	19.994	103.236	19.978	-2.168	0.554
1203.000	684.749	80.007	19.994	103.231	19.979	-2.224	0.561
1203.500	685.066	80.009	19.994	103.226	19.979	-2.238	0.557
1204.000	685.292	80.009	19.995	103.225	19.977	-2.128	0.554
1204.500	685.565	80.008	19.996	103.231	19.982	-2.449	0.521
1205.001	685.877	80.009	19.995	103.237	19.979	-2.224	0.542
1205.501	686.117	80.010	19.995	103.242	19.975	-1.988	0.568
1206.001	686.312	80.009	19.995	103.248	19.980	-2.294	0.493
1206.501	686.632	80.007	19.994	103.251	19.977	-2.109	0.475
1207.001	686.918	80.009	19.995	103.248	19.975	-1.999	0.561
1207.500	687.177	80.009	19.994	103.248	19.977	-2.127	0.576
1208.000	687.454	80.009	19.994	103.249	19.977	-2.125	0.540
1208.500	687.698	80.005	19.995	103.249	19.979	-2.235	0.528
1209.000	687.971	80.007	19.995	103.246	19.978	-2.199	0.519
1209.501	688.205	80.007	19.994	103.249	19.975	-1.978	0.512
1210.001	688.438	80.009	19.995	103.249	19.977	-2.089	0.487
1210.501	688.712	80.005	19.996	103.249	19.977	-2.125	0.487
1211.001	689.004	80.007	19.995	103.245	19.975	-1.970	0.537
1211.500	689.281	80.008	19.994	103.241	19.978	-2.194	0.567
1212.000	689.526	80.009	19.995	103.238	19.976	-2.030	0.545
1212.500	689.751	80.010	19.994	103.233	19.975	-1.990	0.496
1213.000	690.029	80.011	19.994	103.227	19.979	-2.255	0.487
1213.500	690.275	80.010	19.994	103.226	19.978	-2.215	0.514
1214.000	690.573	80.008	19.994	103.227	19.979	-2.255	0.535
1214.500	690.803	80.006	19.994	103.224	19.981	-2.379	0.536
1215.000	691.054	80.008	19.995	103.223	19.977	-2.127	0.504
1215.500	691.321	80.008	19.994	103.226	19.978	-2.210	0.499
1216.001	691.541	80.006	19.994	103.231	19.980	-2.290	0.502
1216.501	691.843	80.010	19.994	103.237	19.977	-2.110	0.505
1217.001	692.063	80.008	19.995	103.244	19.977	-2.109	0.522
1217.500	692.330	80.008	19.994	103.248	19.979	-2.238	0.504
1218.000	692.542	80.009	19.995	103.250	19.979	-2.245	0.483
1218.500	692.815	80.008	19.994	103.247	19.977	-2.138	0.482
1219.000	693.070	80.009	19.994	103.244	19.979	-2.278	0.507
1219.500	693.329	80.009	19.995	103.240	19.979	-2.253	0.521
1220.000	693.556	80.008	19.994	103.238	19.978	-2.192	0.499
1220.500	693.812	80.007	19.995	103.233	19.975	-2.001	0.484
1221.000	694.060	80.008	19.993	103.232	19.980	-2.291	0.494
1221.500	694.319	80.007	19.994	103.234	19.978	-2.190	0.506
1222.000	694.581	80.008	19.994	103.237	19.982	-2.481	0.515
1222.500	694.806	80.007	19.995	103.237	19.979	-2.237	0.504
1223.000	695.058	80.009	19.994	103.237	19.982	-2.445	0.482
1223.500	695.262	80.008	19.995	103.237	19.979	-2.278	0.466
1224.000	695.537	80.010	19.994	103.236	19.978	-2.174	0.467
1224.501	695.770	80.008	19.993	103.236	19.980	-2.290	0.493
1225.001	696.023	80.008	19.994	103.238	19.982	-2.418	0.497
1225.500	696.267	80.008	19.994	103.237	19.980	-2.294	0.492
1226.000	696.485	80.005	19.995	103.237	19.982	-2.427	0.480
1226.500	696.753	80.009	19.993	103.232	19.984	-2.584	0.474
1227.000	696.963	80.007	19.994	103.225	19.982	-2.447	0.482
1227.500	697.248	80.010	19.994	103.221	19.980	-2.319	0.487
1228.000	697.513	80.007	19.995	103.222	19.978	-2.181	0.522
1228.500	697.758	80.006	19.994	103.222	19.980	-2.310	0.530
1229.000	698.000	80.008	19.994	103.224	19.979	-2.271	0.498
1229.501	698.212	80.007	19.995	103.226	19.976	-2.062	0.471
1230.001	698.449	80.008	19.994	103.230	19.979	-2.245	0.452
1230.500	698.688	80.005	19.995	103.233	19.979	-2.274	0.462
1231.000	698.931	80.006	19.994	103.235	19.978	-2.179	0.479
1231.500	699.190	80.006	19.995	103.235	19.979	-2.240	0.492
1232.000	699.372	80.007	19.995	103.234	19.983	-2.499	0.472
1232.500	699.627	80.007	19.995	103.232	19.981	-2.402	0.439
1233.000	699.854	80.008	19.995	103.230	19.984	-2.584	0.459
1233.500	700.130	80.006	19.995	103.227	19.980	-2.301	0.493
1234.000	700.368	80.007	19.995	103.226	19.983	-2.499	0.509
1234.500	700.617	80.006	19.996	103.225	19.978	-2.184	0.501
1235.000	700.829	80.005	19.996	103.225	19.979	-2.278	0.474
1235.500	701.099	80.005	19.995	103.221	19.980	-2.294	0.471
1236.001	701.332	80.007	19.995	103.225	19.980	-2.298	0.492
1236.501	701.599	80.007	19.995	103.226	19.978	-2.163	0.501
1237.000	701.856	80.006	19.996	103.226	19.977	-2.121	0.512
1237.500	702.031	80.008	19.996	103.227	19.980	-2.308	0.478
1238.000	702.321	80.005	19.995	103.232	19.981	-2.413	0.448
1238.500	702.525	80.008	19.994	103.232	19.981	-2.409	0.479
1239.000	702.819	80.006	19.996	103.229	19.983	-2.530	0.496
1239.500	703.013	80.007	19.996	103.230	19.983	-2.492	0.493
1240.000	703.260	80.007	19.996	103.230	19.980	-2.325	0.465
1240.500	703.490	80.009	19.996	103.224	19.980	-2.341	0.459
1241.000	703.739	80.004	19.995	103.221	19.982	-2.454	0.478
1241.500	703.991	80.003	19.995	103.220	19.980	-2.339	0.490
1242.000	704.262	80.007	19.995	103.221	19.980	-2.285	0.512
1242.501	704.493	80.008	19.995	103.226	19.983	-2.510	0.513
1243.001	704.729	80.001	19.995	103.233	19.980	-2.290	0.485
1243.501	704.974	80.006	19.995	103.236	19.982	-2.479	0.474
1244.000	705.190	80.006	19.996	103.236	19.982	-2.472	0.471
1244.501	705.415	80.009	19.994	103.235	19.982	-2.476	0.451
1245.001	705.683	80.008	19.995	103.229	19.981	-2.353	0.467
1245.500	705.885	80.007	19.995	103.222	19.981	-2.382	0.481
1246.000	706.139	80.008	19.996	103.218	19.980	-2.344	0.463
1246.501	706.391	80.007	19.995	103.219	19.982	-2.420	0.481
1247.001	706.639	80.009	19.994	103.219	19.982	-2.474	0.503
1247.501	706.861	80.006	19.994	103.217	19.982	-2.472	0.485
1248.001	707.157	80.008	19.995	103.217	19.983	-2.517	0.494
1248.501	707.318	80.007	19.996	103.220	19.985	-2.670	0.488
1249.002	707.567	80.009	19.995	103.220	19.983	-2.492	0.434
1249.502	707.836	80.011	19.995	103.224	19.983	-2.513	0.464
1250.001	708.035	80.009	19.995	103.224	19.985	-2.619	0.492
1250.500	708.284	80.010	19.995	103.224	19.981	-2.382	0.458
1251.000	708.546	80.009	19.994	103.222	19.986	-2.708	0.479
1251.500	708.833	80.006	19.995	103.220	19.983	-2.490	0.530
1252.000	709.043	80.011	19.994	103.215	19.981	-2.382	0.523
1252.500	709.297	80.009	19.995	103.215	19.984	-2.558	0.481
1253.001	709.550	80.010	19.994	103.217	19.979	-2.251	0.486
1253.501	709.795	80.008	19.995	103.217	19.981	-2.353	0.502
1254.000	710.034	80.011	19.994	103.218	19.983	-2.510	0.490
1254.500	710.259	80.009	19.995	103.223	19.980	-2.328	0.474
1255.001	710.521	80.008	19.994	103.226	19.981	-2.380	0.476
1255.501	710.785	80.011	19.995	103.224	19.980	-2.303	0.506
1256.000	711.014	80.011	19.996	103.226	19.978	-2.173	0.509
1256.501	711.304	80.007	19.996	103.227	19.982	-2.418	0.506
1257.001	711.529	80.010	19.996	103.222	19.982	-2.458	0.517
1257.500	711.766	80.010	19.996	103.222	19.981	-2.391	0.489
1258.000	712.036	80.009	19.995	103.223	19.982	-2.425	0.484
1258.500	712.290	80.010	19.996	103.225	19.980	-2.324	0.515
1259.000	712.523	80.009	19.995	103.224	19.982	-2.461	0.506
1259.500	712.795	80.008	19.995	103.225	19.980	-2.339	0.496
1260.000	713.034	80.009	19.996	103.220	19.983	-2.484	0.508
1260.500	713.263	80.008	19.995	103.219	19.982	-2.438	0.489
1261.001	713.562	80.009	19.996	103.215	19.980	-2.342	0.498
1261.501	713.818	80.010	19.996	103.213	19.980	-2.328	0.541
1262.000	714.068	80.008	19.995	103.213	19.980	-2.290	0.531
1262.501	714.318	80.011	19.996	103.213	19.980	-2.303	0.503
1263.001	714.578	80.009	19.994	103.213	19.981	-2.355	0.505
1263.500	714.841	80.010	19.996	103.216	19.980	-2.339	0.517
1264.000	715.110	80.008	19.996	103.217	19.981	-2.414	0.528
1264.500	715.323	80.009	19.996	103.217	19.983	-2.502	0.507
1265.000	715.592	80.009	19.996	103.216	19.984	-2.610	0.482
1265.501	715.863	80.007	19.996	103.216	19.982	-2.423	0.511
1266.001	716.111	80.010	19.997	103.215	19.980	-2.348	0.530
1266.501	716.418	80.009	19.996	103.216	19.981	-2.405	0.537
1267.000	716.637	80.008	19.996	103.216	19.986	-2.715	0.540
1267.500	716.892	80.009	19.995	103.217	19.981	-2.394	0.499
1268.000	717.122	80.009	19.997	103.217	19.982	-2.461	0.479
1268.500	717.368	80.008	19.995	103.214	19.981	-2.360	0.481
1269.000	717.606	80.009	19.995	103.212	19.983	-2.526	0.480
1269.500	717.884	80.008	19.996	103.211	19.983	-2.513	0.500
1270.000	718.166	80.008	19.996	103.211	19.981	-2.385	0.538
1270.500	718.401	80.008	19.996	103.210	19.980	-2.310	0.538
1271.000	718.666	80.008	19.996	103.210	19.981	-2.396	0.508
1271.500	718.913	80.008	19.996	103.209	19.984	-2.558	0.506
1272.000	719.147	80.009	19.996	103.209	19.983	-2.483	0.497
1272.500	719.411	80.009	19.995	103.209	19.980	-2.324	0.489
1273.000	719.672	80.010	19.996	103.208	19.984	-2.560	0.511
1273.500	719.921	80.009	19.995	103.208	19.980	-2.305	0.518
1274.000	720.146	80.011	19.995	103.209	19.982	-2.436	0.492
1274.500	720.391	80.008	19.996	103.208	19.982	-2.425	0.472
1275.000	720.616	80.010	19.995	103.208	19.985	-2.619	0.470
1275.500	720.872	80.009	19.995	103.209	19.981	-2.398	0.475
1276.000	721.161	80.011	19.994	103.209	19.982	-2.459	0.513
1276.501	721.357	80.010	19.995	103.210	19.980	-2.288	0.516
1277.001	721.628	80.009	19.995	103.211	19.982	-2.422	0.476
1277.500	721.895	80.009	19.994	103.211	19.981	-2.359	0.502
1278.000	722.156	80.010	19.994	103.211	19.984	-2.574	0.533
1278.501	722.414	80.011	19.994	103.211	19.984	-2.571	0.524
1279.001	722.652	80.009	19.994	103.209	19.985	-2.655	0.507
1279.500	722.857	80.010	19.994	103.208	19.987	-2.762	0.469
1280.001	723.142	80.009	19.994	103.208	19.986	-2.724	0.466
1280.501	723.385	80.009	19.994	103.208	19.988	-2.810	0.509
1281.001	723.616	80.008	19.995	103.208	19.987	-2.774	0.501
1281.501	723.858	80.008	19.994	103.209	19.985	-2.639	0.473
1282.000	724.093	80.010	19.995	103.210	19.985	-2.650	0.474
1282.500	724.311	80.007	19.994	103.210	19.986	-2.682	0.465
1283.000	724.608	80.008	19.994	103.210	19.986	-2.711	0.484
1283.500	724.851	80.007	19.995	103.209	19.986	-2.708	0.528
1284.000	725.053	80.008	19.994	103.209	19.987	-2.785	0.493
1284.500	725.338	80.008	19.993	103.210	19.988	-2.848	0.466
1285.001	725.564	80.008	19.995	103.210	19.991	-3.058	0.499
1285.501	725.799	80.007	19.995	103.211	19.988	-2.853	0.486
1286.000	726.048	80.007	19.995	103.213	19.986	-2.722	0.472
1286.500	726.289	80.009	19.995	103.213	19.989	-2.887	0.487
1287.001	726.514	80.007	19.995	103.214	19.987	-2.805	0.478
1287.501	726.772	80.008	19.995	103.214	19.986	-2.684	0.475
1288.000	727.011	80.008	19.995	103.215	19.988	-2.825	0.490
1288.501	727.286	80.007	19.995	103.215	19.988	-2.823	0.505
1289.001	727.543	80.008	19.994	103.214	19.985	-2.659	0.523
1289.500	727.782	80.007	19.995	103.215	19.984	-2.600	0.514
1290.000	728.020	80.008	19.995	103.215	19.986	-2.709	0.486
1290.500	728.320	80.008	19.995	103.216	19.986	-2.691	0.507
1291.000	728.519	80.008	19.995	103.216	19.982	-2.476	0.518
1291.500	728.736	80.009	19.995	103.216	19.984	-2.601	0.458
1292.001	728.998	80.008	19.994	103.216	19.987	-2.776	0.448
1292.501	729.279	80.008	19.993	103.215	19.986	-2.731	0.511
1293.000	729.565	80.008	19.994	103.216	19.988	-2.859	0.555
1293.500	729.769	80.006	19.994	103.215	19.987	-2.799	0.528
1294.000	730.052	80.009	19.995	103.215	19.986	-2.695	0.489
1294.501	730.342	80.007	19.994	103.216	19.986	-2.735	0.531
1295.001	730.551	80.007	19.994	103.217	19.986	-2.727	0.536
1295.501	730.839	80.008	19.995	103.217	19.983	-2.538	0.498
1296.000	731.050	80.007	19.995	103.217	19.985	-2.619	0.498
1296.500	731.314	80.009	19.994	103.217	19.986	-2.729	0.487
1297.000	731.543	80.008	19.995	103.216	19.986	-2.715	0.484
1297.500	731.825	80.008	19.994	103.213	19.985	-2.627	0.502
1298.000	732.078	80.008	19.995	103.214	19.986	-2.733	0.523
1298.500	732.348	80.008	19.994	103.214	19.985	-2.657	0.529
1299.000	732.616	80.008	19.994	103.213	19.986	-2.737	0.531
1299.500	732.834	80.008	19.994	103.211	19.985	-2.668	0.512
1300.001	733.055	80.007	19.994	103.211	19.985	-2.672	0.463
1300.501	733.376	80.008	19.994	103.211	19.985	-2.618	0.491
1301.001	733.578	80.010	19.994	103.211	19.986	-2.715	0.533
1301.501	733.822	80.008	19.995	103.212	19.987	-2.805	0.484
1302.001	734.104	80.008	19.995	103.214	19.984	-2.611	0.486
1302.501	734.352	80.008	19.996	103.215	19.982	-2.425	0.528
1303.000	734.598	80.006	19.994	103.215	19.983	-2.512	0.511
1303.500	734.857	80.007	19.993	103.214	19.987	-2.760	0.499
1304.000	735.093	80.007	19.993	103.215	19.986	-2.717	0.500
1304.500	735.318	80.008	19.995	103.215	19.984	-2.593	0.478
1305.000	735.600	80.007	19.994	103.214	19.985	-2.670	0.484
1305.500	735.867	80.008	19.996	103.214	19.982	-2.479	0.528
1306.000	736.149	80.008	19.994	103.213	19.991	-3.008	0.548
1306.501	736.410	80.008	19.994	103.213	19.987	-2.790	0.546
1307.001	736.642	80.006	19.995	103.212	19.988	-2.861	0.518
1307.500	736.915	80.008	19.994	103.213	19.987	-2.767	0.499
1308.000	737.161	80.007	19.994	103.213	19.986	-2.736	0.512
1308.501	737.413	80.009	19.993	103.217	19.988	-2.846	0.508
1309.001	737.666	80.009	19.994	103.217	19.986	-2.693	0.501
1309.501	737.927	80.008	19.994	103.218	19.989	-2.878	0.510
1310.001	738.197	80.008	19.994	103.219	19.986	-2.690	0.523
1310.501	738.443	80.006	19.994	103.219	19.986	-2.727	0.523
1311.001	738.698	80.007	19.995	103.217	19.986	-2.699	0.508
1311.500	738.963	80.008	19.994	103.217	19.986	-2.693	0.510
1312.000	739.248	80.007	19.993	103.217	19.984	-2.592	0.535
1312.500	739.479	80.017	19.992	103.218	19.985	-2.661	0.533
1313.000	739.764	80.010	19.993	103.220	19.987	-2.758	0.517
1313.500	740.025	80.009	19.994	103.222	19.986	-2.709	0.531
1314.001	740.279	80.008	19.994	103.221	19.987	-2.776	0.530
1314.501	740.514	80.008	19.994	103.221	19.987	-2.787	0.502
1315.000	740.785	80.006	19.994	103.221	19.985	-2.677	0.498
1315.500	741.068	80.006	19.995	103.218	19.986	-2.727	0.530
1316.000	741.333	80.009	19.994	103.216	19.989	-2.914	0.551
1316.500	741.592	80.009	19.994	103.216	19.985	-2.616	0.536
1317.000	741.836	80.008	19.995	103.216	19.984	-2.603	0.513
1317.500	742.098	80.008	19.994	103.215	19.988	-2.873	0.505
1318.000	742.387	80.009	19.994	103.215	19.989	-2.940	0.529
1318.500	742.632	80.008	19.994	103.215	19.988	-2.851	0.543
1319.000	742.934	80.009	19.995	103.215	19.988	-2.866	0.540
1319.500	743.191	80.007	19.995	103.214	19.986	-2.722	0.552
1320.000	743.474	80.009	19.995	103.213	19.987	-2.795	0.549
1320.500	743.724	80.010	19.995	103.211	19.989	-2.896	0.537
1321.000	743.953	80.006	19.995	103.212	19.989	-2.923	0.506
1321.501	744.235	80.010	19.994	103.212	19.987	-2.772	0.495
1322.001	744.484	80.007	19.994	103.211	19.987	-2.801	0.521
1322.500	744.743	80.008	19.995	103.212	19.988	-2.848	0.520
1323.000	745.036	80.008	19.995	103.212	19.985	-2.643	0.530
