Sample ID:	C:\MCC\MCC Cal\Test\LW_GypBoard_Gypsum_Core_MCC_30K_min_211129_R1.txt
Sample Weight (mg):	4.8
Heating Rate (C/s):	0.5
Combustor Temp (C):	900
N2 Flow Rate (cc/min):	80
O2 Flow Rate (cc/min):	20
Calibration File:	C:\MCC\MCC Cal\Coeff1 JN10440_30_210304.txt.txt
T Correction Coefficients:	0	1.024463	0
Time Shift (s):	14
*
Time (s)	Temperature (C)	N2 flow rate (cc/min)	O2 flow rate (cc/min)	Flow Rate (cc/min)	Oxygen (%)	HRR (W/g)	Heating rate (C/s)
0.000	108.874	80.006	19.994	103.100	20.119	-0.273	0.005
0.500	108.865	80.005	19.994	103.099	20.114	0.024	0.015
1.000	108.868	80.004	19.994	103.099	20.118	-0.197	0.003
1.500	108.876	80.005	19.993	103.099	20.119	-0.265	0.002
2.000	108.851	80.007	19.994	103.099	20.114	0.048	-0.004
2.500	108.841	80.005	19.995	103.099	20.119	-0.253	-0.027
3.000	108.851	80.005	19.994	103.099	20.117	-0.148	-0.018
3.500	108.849	80.005	19.994	103.099	20.121	-0.431	0.004
4.000	108.833	80.007	19.994	103.099	20.117	-0.146	-0.004
4.500	108.874	80.006	19.993	103.099	20.114	0.053	0.004
5.000	108.850	80.006	19.995	103.101	20.116	-0.083	0.021
5.500	108.866	80.009	19.994	103.103	20.117	-0.113	0.005
6.000	108.866	80.007	19.994	103.104	20.113	0.129	0.004
6.500	108.839	80.007	19.994	103.105	20.114	0.081	-0.006
7.000	108.868	80.006	19.994	103.104	20.115	0.000	-0.013
7.500	108.817	80.008	19.994	103.105	20.114	0.090	-0.010
8.000	108.862	80.006	19.993	103.110	20.116	-0.065	-0.014
8.500	108.834	80.006	19.994	103.115	20.115	-0.018	0.006
9.000	108.853	80.005	19.994	103.122	20.113	0.094	0.004
9.500	108.836	80.005	19.993	103.129	20.108	0.437	-0.003
10.000	108.864	80.007	19.994	103.138	20.111	0.244	0.006
10.500	108.858	80.008	19.993	103.147	20.107	0.531	0.016
11.000	108.835	80.007	19.994	103.154	20.107	0.554	-0.004
11.500	108.897	80.007	19.994	103.164	20.106	0.600	0.005
12.000	108.859	80.007	19.994	103.178	20.104	0.712	0.031
12.500	108.880	80.006	19.994	103.188	20.105	0.661	0.004
13.000	108.875	80.003	19.995	103.197	20.101	0.908	0.000
13.500	108.918	80.007	19.994	103.207	20.099	1.068	0.027
14.000	108.944	80.005	19.993	103.216	20.100	0.993	0.053
14.500	108.923	80.005	19.994	103.224	20.097	1.231	0.037
15.000	108.968	80.006	19.994	103.232	20.096	1.258	0.015
15.500	109.000	80.008	19.994	103.241	20.097	1.170	0.051
16.000	109.015	80.006	19.994	103.247	20.098	1.155	0.062
16.500	109.066	80.006	19.995	103.253	20.097	1.209	0.056
17.000	109.085	80.006	19.994	103.254	20.092	1.546	0.068
17.500	109.077	80.005	19.995	103.254	20.091	1.568	0.041
18.000	109.173	80.004	19.994	103.254	20.093	1.456	0.049
18.501	109.177	80.005	19.996	103.254	20.089	1.760	0.094
19.001	109.235	80.005	19.994	103.254	20.091	1.592	0.081
19.500	109.220	80.007	19.994	103.253	20.091	1.605	0.053
20.000	109.261	80.007	19.994	103.257	20.087	1.853	0.035
20.500	109.338	80.006	19.994	103.262	20.088	1.816	0.072
21.000	109.375	80.004	19.994	103.265	20.088	1.818	0.116
21.500	109.412	80.004	19.993	103.273	20.087	1.851	0.094
22.000	109.466	80.004	19.994	103.280	20.085	1.991	0.083
22.500	109.537	80.006	19.995	103.284	20.085	1.978	0.108
23.000	109.589	80.006	19.995	103.287	20.085	2.033	0.124
23.500	109.619	80.004	19.994	103.292	20.083	2.113	0.103
24.000	109.659	80.005	19.995	103.292	20.083	2.164	0.076
24.500	109.730	80.005	19.996	103.292	20.086	1.958	0.090
25.000	109.814	80.006	19.994	103.292	20.083	2.170	0.133
25.500	109.848	80.006	19.994	103.291	20.079	2.437	0.137
26.000	109.908	80.008	19.994	103.291	20.081	2.273	0.106
26.500	110.014	80.004	19.995	103.290	20.082	2.225	0.130
27.000	110.087	80.004	19.995	103.290	20.083	2.129	0.173
27.500	110.131	80.009	19.994	103.290	20.083	2.137	0.148
28.000	110.213	80.007	19.995	103.290	20.081	2.268	0.121
28.500	110.278	80.008	19.995	103.290	20.084	2.065	0.136
29.000	110.337	80.007	19.995	103.290	20.081	2.282	0.135
29.500	110.430	80.007	19.995	103.288	20.082	2.179	0.139
30.000	110.566	80.007	19.994	103.288	20.080	2.356	0.191
30.500	110.658	80.005	19.994	103.289	20.082	2.196	0.229
31.000	110.683	80.007	19.995	103.289	20.082	2.194	0.172
31.500	110.754	80.009	19.995	103.290	20.084	2.061	0.106
32.000	110.817	80.005	19.994	103.293	20.079	2.375	0.115
32.500	110.932	80.007	19.995	103.292	20.081	2.303	0.156
33.000	111.039	80.008	19.995	103.292	20.082	2.233	0.200
33.500	111.124	80.006	19.995	103.292	20.081	2.251	0.207
34.000	111.178	80.006	19.995	103.292	20.080	2.353	0.165
34.500	111.291	80.006	19.995	103.290	20.085	2.006	0.153
35.000	111.398	80.006	19.995	103.290	20.084	2.081	0.194
35.500	111.492	80.007	19.995	103.289	20.081	2.281	0.211
36.000	111.606	80.007	19.994	103.288	20.084	2.074	0.204
36.501	111.702	80.007	19.994	103.289	20.084	2.054	0.209
37.001	111.825	80.007	19.994	103.289	20.080	2.310	0.214
37.500	111.948	80.007	19.995	103.289	20.083	2.117	0.233
38.000	111.983	80.005	19.995	103.289	20.083	2.111	0.202
38.500	112.121	80.009	19.994	103.290	20.084	2.098	0.166
39.000	112.209	80.005	19.995	103.289	20.083	2.144	0.200
39.500	112.326	80.006	19.995	103.289	20.085	1.986	0.215
40.000	112.419	80.006	19.993	103.286	20.080	2.325	0.207
40.500	112.513	80.005	19.996	103.286	20.082	2.187	0.199
41.000	112.634	80.007	19.995	103.287	20.080	2.348	0.202
41.501	112.751	80.004	19.995	103.287	20.081	2.241	0.227
42.001	112.892	80.007	19.994	103.288	20.078	2.442	0.248
42.501	112.958	80.005	19.994	103.291	20.082	2.178	0.232
43.001	113.096	80.006	19.994	103.292	20.081	2.300	0.206
43.500	113.203	80.005	19.994	103.293	20.080	2.348	0.225
44.000	113.324	80.007	19.993	103.293	20.083	2.158	0.236
44.500	113.442	80.006	19.994	103.294	20.081	2.254	0.234
45.000	113.537	80.006	19.995	103.294	20.081	2.265	0.226
45.500	113.665	80.006	19.994	103.295	20.080	2.350	0.218
46.000	113.846	80.006	19.995	103.293	20.080	2.309	0.266
46.500	113.933	80.005	19.994	103.293	20.078	2.492	0.288
47.001	114.051	80.006	19.994	103.293	20.077	2.536	0.236
47.501	114.145	80.006	19.995	103.293	20.080	2.339	0.208
48.000	114.297	80.005	19.993	103.293	20.081	2.278	0.229
48.500	114.420	80.007	19.994	103.294	20.079	2.422	0.261
49.000	114.518	80.009	19.994	103.299	20.077	2.516	0.248
49.500	114.684	80.008	19.994	103.300	20.079	2.433	0.242
50.000	114.784	80.007	19.994	103.305	20.079	2.401	0.265
50.500	114.912	80.007	19.994	103.309	20.078	2.496	0.247
51.001	115.055	80.008	19.994	103.308	20.075	2.678	0.249
51.501	115.187	80.007	19.994	103.308	20.075	2.660	0.273
52.000	115.329	80.007	19.993	103.313	20.079	2.405	0.275
52.500	115.439	80.006	19.995	103.315	20.077	2.520	0.263
53.001	115.602	80.007	19.994	103.318	20.079	2.415	0.262
53.501	115.750	80.007	19.994	103.325	20.076	2.588	0.292
54.000	115.861	80.004	19.994	103.327	20.079	2.389	0.285
54.500	116.020	80.007	19.994	103.327	20.078	2.492	0.265
55.000	116.126	80.006	19.995	103.327	20.078	2.448	0.268
55.500	116.283	80.008	19.994	103.325	20.076	2.640	0.264
56.000	116.411	80.009	19.996	103.319	20.077	2.518	0.274
56.500	116.579	80.007	19.994	103.317	20.081	2.284	0.290
57.000	116.725	80.008	19.994	103.316	20.079	2.415	0.305
57.500	116.870	80.006	19.994	103.315	20.078	2.483	0.303
58.000	117.002	80.008	19.994	103.318	20.078	2.474	0.284
58.500	117.161	80.006	19.995	103.323	20.076	2.640	0.284
59.000	117.275	80.007	19.994	103.325	20.076	2.583	0.282
59.500	117.431	80.006	19.993	103.325	20.077	2.576	0.271
60.000	117.597	80.005	19.995	103.326	20.077	2.570	0.296
60.501	117.720	80.004	19.994	103.326	20.079	2.424	0.306
61.001	117.883	80.007	19.994	103.327	20.078	2.470	0.288
61.500	118.014	80.006	19.995	103.328	20.073	2.793	0.290
62.000	118.176	80.005	19.994	103.331	20.073	2.786	0.294
62.500	118.353	80.007	19.995	103.335	20.073	2.841	0.317
63.000	118.518	80.003	19.994	103.338	20.074	2.723	0.341
63.500	118.664	80.006	19.995	103.340	20.073	2.836	0.326
64.000	118.812	80.004	19.995	103.342	20.076	2.618	0.302
64.500	118.971	80.006	19.995	103.343	20.072	2.897	0.300
65.000	119.125	80.004	19.994	103.339	20.073	2.811	0.310
65.500	119.274	80.006	19.996	103.336	20.077	2.543	0.308
66.000	119.439	80.005	19.995	103.335	20.076	2.643	0.308
66.500	119.592	80.006	19.995	103.332	20.077	2.567	0.316
67.000	119.774	80.004	19.996	103.331	20.076	2.598	0.327
67.500	119.971	80.005	19.995	103.335	20.076	2.615	0.357
68.000	120.111	80.005	19.995	103.338	20.078	2.474	0.358
68.500	120.276	80.005	19.995	103.342	20.076	2.618	0.321
69.000	120.437	80.007	19.994	103.347	20.073	2.796	0.316
69.500	120.594	80.006	19.995	103.353	20.076	2.629	0.323
70.000	120.783	80.005	19.994	103.355	20.075	2.698	0.332
70.500	120.962	80.006	19.995	103.356	20.072	2.871	0.357
71.000	121.156	80.006	19.994	103.352	20.074	2.729	0.371
71.501	121.329	80.005	19.994	103.349	20.073	2.846	0.370
72.001	121.511	80.004	19.995	103.347	20.077	2.572	0.361
72.500	121.666	80.005	19.994	103.341	20.075	2.644	0.346
73.001	121.875	80.003	19.994	103.340	20.076	2.609	0.350
73.501	122.019	80.004	19.994	103.343	20.078	2.458	0.358
74.000	122.221	80.005	19.994	103.344	20.078	2.467	0.349
74.500	122.402	80.007	19.993	103.348	20.079	2.384	0.364
75.000	122.569	80.006	19.994	103.354	20.076	2.606	0.366
75.500	122.761	80.006	19.994	103.365	20.077	2.572	0.354
76.000	122.929	80.006	19.994	103.370	20.076	2.628	0.359
76.501	123.111	80.004	19.994	103.373	20.078	2.472	0.355
77.001	123.324	80.005	19.994	103.373	20.076	2.592	0.373
77.500	123.507	80.006	19.995	103.372	20.075	2.670	0.395
78.000	123.690	80.005	19.993	103.366	20.079	2.426	0.381
78.500	123.895	80.005	19.994	103.364	20.075	2.700	0.377
79.001	124.058	80.006	19.993	103.364	20.075	2.648	0.378
79.501	124.256	80.005	19.993	103.363	20.075	2.659	0.365
80.000	124.467	80.005	19.995	103.362	20.075	2.660	0.385
80.501	124.659	80.006	19.994	103.363	20.078	2.452	0.406
81.001	124.864	80.005	19.993	103.364	20.076	2.635	0.400
81.500	125.035	80.007	19.994	103.365	20.076	2.583	0.387
82.000	125.256	80.008	19.994	103.366	20.075	2.646	0.384
82.500	125.408	80.006	19.994	103.367	20.075	2.655	0.382
83.001	125.646	80.005	19.994	103.367	20.077	2.576	0.381
83.501	125.823	80.005	19.994	103.368	20.078	2.493	0.402
84.001	126.022	80.007	19.995	103.371	20.078	2.509	0.396
84.501	126.243	80.007	19.994	103.371	20.077	2.556	0.398
85.000	126.433	80.005	19.995	103.372	20.077	2.565	0.415
85.500	126.632	80.006	19.995	103.372	20.078	2.489	0.400
86.000	126.799	80.006	19.994	103.371	20.076	2.628	0.378
86.500	127.058	80.006	19.994	103.366	20.079	2.438	0.397
87.000	127.241	80.006	19.994	103.365	20.078	2.443	0.434
87.500	127.444	80.007	19.995	103.363	20.077	2.561	0.414
88.000	127.665	80.007	19.994	103.362	20.076	2.592	0.405
88.500	127.899	80.004	19.994	103.360	20.077	2.563	0.440
89.000	128.110	80.007	19.994	103.362	20.076	2.631	0.449
89.500	128.296	80.007	19.994	103.360	20.076	2.631	0.421
90.000	128.522	80.005	19.994	103.359	20.076	2.592	0.405
90.500	128.720	80.006	19.995	103.355	20.078	2.459	0.419
91.001	128.921	80.006	19.995	103.351	20.078	2.502	0.412
91.501	129.134	80.006	19.994	103.347	20.079	2.391	0.406
92.000	129.325	80.006	19.994	103.348	20.077	2.537	0.409
92.500	129.534	80.006	19.995	103.351	20.075	2.676	0.402
93.001	129.762	80.005	19.995	103.356	20.078	2.465	0.418
93.501	129.953	80.004	19.994	103.363	20.075	2.676	0.427
94.000	130.198	80.003	19.994	103.367	20.074	2.772	0.428
94.500	130.417	80.006	19.995	103.367	20.075	2.707	0.451
95.000	130.655	80.005	19.995	103.365	20.074	2.774	0.461
95.500	130.815	80.006	19.995	103.365	20.074	2.713	0.427
96.000	131.064	80.005	19.995	103.365	20.072	2.855	0.403
96.500	131.284	80.006	19.994	103.365	20.075	2.648	0.439
97.000	131.489	80.004	19.995	103.368	20.075	2.663	0.447
97.500	131.731	80.006	19.994	103.371	20.074	2.737	0.436
98.000	131.941	80.005	19.994	103.372	20.077	2.539	0.450
98.500	132.167	80.005	19.996	103.365	20.077	2.543	0.444
99.000	132.371	80.005	19.994	103.357	20.073	2.838	0.433
99.500	132.624	80.004	19.995	103.349	20.076	2.583	0.443
100.000	132.837	80.004	19.994	103.341	20.074	2.735	0.461
100.500	133.068	80.006	19.994	103.339	20.076	2.595	0.455
101.000	133.259	80.005	19.996	103.346	20.073	2.798	0.433
101.500	133.501	80.004	19.994	103.354	20.077	2.519	0.427
102.000	133.751	80.005	19.995	103.361	20.075	2.654	0.462
102.500	133.955	80.006	19.995	103.368	20.077	2.535	0.473
103.000	134.173	80.006	19.994	103.370	20.077	2.513	0.438
103.500	134.409	80.007	19.994	103.370	20.075	2.707	0.438
104.000	134.665	80.006	19.994	103.370	20.077	2.519	0.473
104.500	134.868	80.006	19.994	103.370	20.076	2.606	0.475
105.000	135.106	80.006	19.994	103.369	20.079	2.432	0.450
105.500	135.321	80.007	19.994	103.368	20.077	2.541	0.447
106.000	135.540	80.007	19.994	103.367	20.080	2.347	0.444
106.500	135.790	80.007	19.994	103.364	20.078	2.467	0.451
107.000	135.982	80.007	19.994	103.364	20.079	2.435	0.455
107.501	136.224	80.006	19.994	103.365	20.079	2.430	0.438
108.001	136.474	80.008	19.993	103.367	20.076	2.580	0.463
108.501	136.702	80.007	19.994	103.368	20.080	2.328	0.485
109.000	136.930	80.005	19.995	103.370	20.080	2.356	0.467
109.500	137.130	80.006	19.993	103.369	20.079	2.377	0.442
110.000	137.383	80.008	19.994	103.369	20.080	2.330	0.440
110.500	137.658	80.009	19.994	103.368	20.078	2.474	0.491
111.000	137.889	80.005	19.994	103.369	20.078	2.449	0.518
111.500	138.102	80.007	19.994	103.371	20.078	2.465	0.475
112.000	138.338	80.008	19.994	103.372	20.079	2.404	0.446
112.500	138.564	80.006	19.994	103.373	20.078	2.471	0.455
113.000	138.818	80.008	19.993	103.373	20.077	2.533	0.471
113.500	139.061	80.008	19.994	103.372	20.077	2.576	0.489
114.000	139.266	80.007	19.994	103.371	20.078	2.447	0.473
114.500	139.558	80.007	19.994	103.369	20.076	2.639	0.473
115.000	139.766	80.010	19.994	103.367	20.079	2.380	0.498
115.500	139.996	80.008	19.994	103.367	20.078	2.452	0.469
116.000	140.274	80.007	19.994	103.368	20.077	2.569	0.473
116.500	140.495	80.008	19.994	103.367	20.079	2.434	0.504
117.000	140.767	80.009	19.994	103.366	20.080	2.362	0.496
117.500	140.932	80.006	19.994	103.361	20.080	2.325	0.465
118.000	141.229	80.007	19.994	103.361	20.077	2.563	0.449
118.500	141.439	80.006	19.994	103.362	20.078	2.474	0.484
119.000	141.692	80.005	19.994	103.363	20.078	2.445	0.485
119.501	141.961	80.005	19.993	103.365	20.081	2.305	0.493
120.001	142.206	80.006	19.994	103.371	20.080	2.367	0.518
120.501	142.430	80.006	19.994	103.371	20.078	2.458	0.491
121.000	142.694	80.006	19.994	103.371	20.080	2.347	0.478
121.500	142.926	80.008	19.994	103.371	20.078	2.509	0.492
122.000	143.164	80.004	19.995	103.371	20.075	2.690	0.483
122.500	143.402	80.007	19.994	103.369	20.077	2.552	0.474
123.001	143.663	80.005	19.994	103.368	20.078	2.494	0.488
123.501	143.896	80.006	19.994	103.368	20.077	2.539	0.496
124.000	144.138	80.005	19.994	103.366	20.079	2.422	0.484
124.500	144.398	80.007	19.995	103.366	20.074	2.770	0.489
125.000	144.682	80.004	19.994	103.367	20.075	2.670	0.523
125.500	144.883	80.005	19.994	103.367	20.079	2.439	0.514
126.000	145.148	80.005	19.994	103.367	20.080	2.317	0.475
126.500	145.389	80.006	19.995	103.369	20.076	2.626	0.486
127.000	145.618	80.008	19.994	103.369	20.081	2.277	0.488
127.500	145.829	80.005	19.995	103.369	20.077	2.570	0.455
128.000	146.136	80.006	19.994	103.368	20.079	2.380	0.479
128.500	146.385	80.006	19.995	103.369	20.079	2.411	0.537
129.000	146.591	80.006	19.994	103.369	20.082	2.210	0.506
129.500	146.825	80.005	19.994	103.369	20.079	2.389	0.447
130.000	147.079	80.009	19.995	103.369	20.080	2.357	0.464
130.501	147.315	80.007	19.995	103.371	20.080	2.315	0.489
131.000	147.581	80.003	19.994	103.368	20.082	2.202	0.496
131.500	147.824	80.007	19.995	103.366	20.083	2.142	0.506
132.000	148.079	80.006	19.994	103.366	20.081	2.269	0.504
132.500	148.338	80.005	19.995	103.365	20.077	2.535	0.506
133.000	148.570	80.007	19.995	103.364	20.080	2.328	0.502
133.500	148.846	80.007	19.993	103.363	20.079	2.427	0.499
134.000	149.102	80.005	19.994	103.358	20.079	2.437	0.520
134.500	149.368	80.008	19.995	103.358	20.077	2.536	0.527
135.000	149.617	80.007	19.994	103.357	20.077	2.544	0.518
135.500	149.849	80.007	19.994	103.358	20.077	2.564	0.498
136.000	150.064	80.007	19.995	103.358	20.080	2.335	0.464
136.500	150.290	80.008	19.994	103.361	20.082	2.186	0.444
137.000	150.550	80.009	19.995	103.358	20.081	2.248	0.464
137.500	150.816	80.007	19.994	103.355	20.082	2.206	0.506
138.000	151.046	80.008	19.993	103.355	20.079	2.387	0.510
138.500	151.289	80.007	19.994	103.354	20.080	2.354	0.484
139.000	151.576	80.008	19.994	103.354	20.082	2.193	0.502
139.500	151.816	80.007	19.993	103.350	20.084	2.099	0.529
140.000	152.067	80.009	19.994	103.346	20.083	2.112	0.509
140.500	152.297	80.007	19.994	103.339	20.082	2.195	0.486
141.000	152.589	80.008	19.994	103.341	20.082	2.221	0.502
141.500	152.805	80.008	19.994	103.341	20.082	2.186	0.515
142.000	153.097	80.006	19.994	103.342	20.081	2.291	0.508
142.500	153.339	80.006	19.994	103.343	20.082	2.224	0.521
143.000	153.582	80.009	19.994	103.343	20.081	2.250	0.509
143.500	153.833	80.005	19.995	103.337	20.081	2.272	0.490
144.000	154.101	80.006	19.994	103.332	20.084	2.058	0.507
144.500	154.343	80.006	19.994	103.329	20.081	2.287	0.515
145.000	154.569	80.005	19.994	103.329	20.081	2.245	0.489
145.500	154.827	80.005	19.995	103.330	20.081	2.272	0.476
146.000	155.062	80.006	19.993	103.330	20.080	2.337	0.488
146.500	155.301	80.004	19.995	103.330	20.084	2.087	0.483
147.000	155.513	80.005	19.994	103.330	20.081	2.298	0.463
147.500	155.856	80.006	19.995	103.330	20.084	2.080	0.503
148.000	156.044	80.005	19.995	103.333	20.087	1.896	0.543
148.500	156.278	80.004	19.995	103.334	20.084	2.052	0.477
149.000	156.606	80.005	19.993	103.335	20.085	1.989	0.492
149.500	156.731	80.006	19.995	103.335	20.084	2.046	0.508
150.000	157.031	80.006	19.994	103.334	20.083	2.123	0.440
150.500	157.292	80.005	19.995	103.330	20.085	2.001	0.493
151.000	157.569	80.006	19.995	103.330	20.083	2.158	0.549
151.500	157.813	80.004	19.995	103.330	20.085	2.007	0.530
152.000	158.033	80.006	19.995	103.332	20.084	2.046	0.493
152.500	158.302	80.004	19.995	103.335	20.085	1.994	0.476
153.000	158.574	80.004	19.995	103.335	20.086	1.950	0.515
153.500	158.809	80.004	19.996	103.334	20.086	1.904	0.524
154.000	159.074	80.004	19.996	103.333	20.090	1.690	0.504
154.500	159.357	80.004	19.996	103.330	20.094	1.394	0.524
155.000	159.570	80.004	19.996	103.327	20.094	1.403	0.522
155.500	159.826	80.005	19.995	103.314	20.098	1.138	0.483
156.000	160.078	80.005	19.995	103.284	20.100	0.984	0.489
156.500	160.335	80.005	19.995	103.242	20.105	0.658	0.508
157.000	160.557	80.006	19.996	103.191	20.111	0.263	0.494
157.500	160.773	80.006	19.996	103.129	20.113	0.094	0.458
158.000	161.027	80.004	19.996	103.079	20.116	-0.088	0.454
158.500	161.231	80.006	19.995	103.046	20.117	-0.153	0.464
159.000	161.418	80.003	19.995	103.019	20.123	-0.572	0.425
159.500	161.619	80.005	19.995	103.001	20.125	-0.712	0.389
160.000	161.805	80.004	19.995	102.993	20.131	-1.080	0.388
160.500	162.044	80.005	19.996	102.982	20.134	-1.271	0.406
161.000	162.247	80.004	19.996	102.975	20.134	-1.309	0.433
161.500	162.412	80.006	19.995	102.974	20.138	-1.519	0.405
162.000	162.554	80.006	19.996	102.973	20.138	-1.580	0.338
162.500	162.751	80.005	19.995	102.973	20.141	-1.767	0.323
163.000	162.900	80.005	19.997	102.975	20.143	-1.898	0.342
163.500	163.059	80.006	19.995	102.974	20.146	-2.117	0.327
164.000	163.185	80.003	19.995	102.972	20.146	-2.060	0.296
164.500	163.352	80.006	19.995	102.968	20.148	-2.187	0.289
165.000	163.481	80.005	19.994	102.961	20.146	-2.107	0.295
165.500	163.615	80.005	19.995	102.955	20.148	-2.245	0.279
166.000	163.743	80.006	19.995	102.952	20.148	-2.212	0.262
166.500	163.812	80.006	19.994	102.950	20.153	-2.578	0.230
167.000	163.934	80.005	19.994	102.949	20.153	-2.584	0.194
167.500	164.068	80.005	19.995	102.948	20.154	-2.648	0.223
168.000	164.170	80.007	19.995	102.946	20.153	-2.536	0.246
168.500	164.291	80.008	19.995	102.949	20.152	-2.494	0.229
169.000	164.342	80.007	19.995	102.945	20.153	-2.554	0.197
169.500	164.445	80.006	19.994	102.944	20.156	-2.751	0.163
170.001	164.515	80.008	19.994	102.944	20.159	-2.981	0.164
170.500	164.597	80.006	19.994	102.946	20.160	-3.020	0.163
171.000	164.699	80.004	19.994	102.945	20.156	-2.744	0.168
171.500	164.756	80.007	19.994	102.945	20.159	-2.966	0.172
172.000	164.818	80.006	19.993	102.945	20.159	-2.966	0.139
172.500	164.861	80.005	19.995	102.945	20.158	-2.907	0.112
173.000	164.912	80.005	19.993	102.943	20.160	-3.045	0.100
173.500	164.979	80.006	19.994	102.941	20.159	-2.981	0.106
174.000	165.017	80.006	19.995	102.941	20.161	-3.091	0.111
174.500	165.057	80.006	19.995	102.941	20.163	-3.192	0.091
175.000	165.116	80.007	19.994	102.941	20.163	-3.207	0.089
175.500	165.131	80.004	19.994	102.941	20.160	-2.999	0.087
176.000	165.156	80.003	19.994	102.940	20.159	-2.948	0.058
176.500	165.214	80.006	19.994	102.941	20.161	-3.065	0.061
177.000	165.211	80.005	19.995	102.941	20.163	-3.190	0.068
177.500	165.251	80.005	19.994	102.940	20.162	-3.154	0.046
178.000	165.261	80.004	19.994	102.941	20.161	-3.104	0.044
178.500	165.281	80.006	19.994	102.941	20.164	-3.303	0.041
179.000	165.283	80.005	19.994	102.941	20.162	-3.161	0.026
179.500	165.285	80.004	19.994	102.941	20.163	-3.227	0.013
180.000	165.333	80.004	19.994	102.942	20.163	-3.231	0.027
180.500	165.296	80.005	19.994	102.942	20.161	-3.121	0.030
181.000	165.283	80.002	19.995	102.942	20.166	-3.446	-0.020
181.500	165.258	80.006	19.994	102.942	20.168	-3.547	-0.044
182.000	165.261	80.005	19.994	102.942	20.164	-3.262	-0.030
182.500	165.249	80.006	19.994	102.941	20.165	-3.387	-0.016
183.000	165.222	80.003	19.994	102.941	20.168	-3.569	-0.024
183.500	165.245	80.006	19.994	102.941	20.171	-3.728	-0.021
184.000	165.214	80.004	19.994	102.941	20.166	-3.398	-0.006
184.500	165.196	80.002	19.995	102.942	20.165	-3.387	-0.029
185.000	165.168	80.005	19.993	102.942	20.169	-3.656	-0.048
185.500	165.142	80.005	19.994	102.943	20.167	-3.510	-0.050
186.000	165.074	80.006	19.994	102.939	20.165	-3.369	-0.074
186.500	165.052	80.004	19.993	102.936	20.168	-3.580	-0.092
187.000	164.990	80.004	19.994	102.934	20.169	-3.624	-0.087
187.500	164.978	80.004	19.994	102.933	20.169	-3.639	-0.079
188.000	164.944	80.006	19.994	102.932	20.169	-3.597	-0.060
188.500	164.911	80.006	19.994	102.934	20.171	-3.784	-0.057
189.000	164.824	80.007	19.994	102.937	20.169	-3.652	-0.094
189.500	164.796	80.005	19.994	102.938	20.171	-3.764	-0.118
190.000	164.750	80.007	19.993	102.940	20.166	-3.433	-0.094
190.500	164.687	80.006	19.994	102.941	20.167	-3.518	-0.092
191.000	164.635	80.008	19.993	102.942	20.167	-3.518	-0.113
191.500	164.601	80.007	19.994	102.941	20.169	-3.601	-0.100
192.000	164.563	80.006	19.994	102.941	20.166	-3.428	-0.079
192.500	164.464	80.007	19.993	102.941	20.166	-3.417	-0.104
193.000	164.428	80.008	19.994	102.942	20.168	-3.556	-0.136
193.500	164.355	80.006	19.994	102.942	20.167	-3.518	-0.122
194.000	164.309	80.007	19.993	102.943	20.169	-3.626	-0.114
194.500	164.227	80.006	19.993	102.943	20.170	-3.676	-0.123
195.000	164.179	80.006	19.994	102.941	20.169	-3.597	-0.129
195.500	164.080	80.007	19.994	102.940	20.167	-3.462	-0.139
196.000	164.012	80.006	19.993	102.940	20.167	-3.483	-0.157
196.500	163.939	80.010	19.993	102.937	20.167	-3.494	-0.154
197.000	163.854	80.009	19.993	102.932	20.167	-3.521	-0.149
197.500	163.756	80.006	19.995	102.931	20.166	-3.435	-0.170
198.000	163.679	80.007	19.994	102.931	20.167	-3.494	-0.179
198.500	163.647	80.008	19.994	102.931	20.165	-3.352	-0.142
199.000	163.544	80.005	19.993	102.933	20.165	-3.369	-0.122
199.500	163.451	80.007	19.994	102.938	20.168	-3.527	-0.165
200.000	163.382	80.008	19.994	102.940	20.168	-3.565	-0.179
200.500	163.282	80.007	19.994	102.940	20.169	-3.635	-0.166
201.000	163.236	80.007	19.995	102.939	20.166	-3.453	-0.157
201.500	163.128	80.007	19.994	102.939	20.167	-3.518	-0.150
202.000	163.054	80.007	19.994	102.940	20.170	-3.694	-0.168
202.500	162.957	80.006	19.995	102.940	20.169	-3.610	-0.176
203.000	162.848	80.008	19.994	102.940	20.165	-3.383	-0.188
203.500	162.756	80.006	19.994	102.938	20.168	-3.573	-0.204
204.000	162.645	80.005	19.993	102.935	20.166	-3.407	-0.203
204.500	162.545	80.007	19.993	102.932	20.171	-3.760	-0.207
205.000	162.420	80.006	19.994	102.932	20.168	-3.536	-0.218
205.500	162.338	80.006	19.993	102.926	20.167	-3.507	-0.216
206.000	162.240	80.006	19.994	102.928	20.167	-3.516	-0.193
206.500	162.141	80.005	19.993	102.931	20.163	-3.246	-0.188
207.000	162.061	80.007	19.993	102.927	20.166	-3.415	-0.188
207.500	161.956	80.007	19.993	102.926	20.169	-3.632	-0.182
208.000	161.865	80.008	19.994	102.932	20.167	-3.485	-0.190
208.500	161.768	80.008	19.994	102.933	20.168	-3.567	-0.192
209.000	161.644	80.006	19.994	102.933	20.168	-3.586	-0.205
209.500	161.521	80.006	19.993	102.935	20.168	-3.562	-0.235
210.000	161.406	80.005	19.994	102.934	20.169	-3.639	-0.242
210.500	161.362	80.006	19.994	102.931	20.168	-3.580	-0.198
211.000	161.191	80.005	19.994	102.930	20.168	-3.573	-0.187
211.500	161.055	80.006	19.993	102.930	20.169	-3.650	-0.261
212.000	160.912	80.006	19.994	102.933	20.170	-3.667	-0.292
212.500	160.838	80.007	19.994	102.934	20.167	-3.465	-0.247
213.000	160.718	80.008	19.993	102.936	20.167	-3.512	-0.205
213.500	160.603	80.006	19.994	102.934	20.170	-3.680	-0.215
214.000	160.504	80.006	19.995	102.934	20.171	-3.746	-0.225
214.500	160.400	80.007	19.993	102.934	20.167	-3.514	-0.208
215.000	160.242	80.006	19.994	102.934	20.166	-3.406	-0.233
215.500	160.142	80.008	19.994	102.936	20.169	-3.619	-0.261
216.000	160.089	80.005	19.994	102.939	20.169	-3.652	-0.206
216.500	159.921	80.009	19.994	102.939	20.170	-3.671	-0.187
217.000	159.807	80.008	19.995	102.938	20.170	-3.711	-0.251
217.500	159.684	80.006	19.996	102.939	20.168	-3.584	-0.259
218.000	159.608	80.008	19.995	102.939	20.170	-3.717	-0.218
218.500	159.477	80.007	19.994	102.939	20.170	-3.672	-0.203
219.000	159.355	80.007	19.994	102.939	20.170	-3.715	-0.230
219.500	159.231	80.008	19.994	102.939	20.169	-3.623	-0.250
220.000	159.116	80.007	19.994	102.940	20.171	-3.740	-0.243
220.500	158.971	80.007	19.995	102.940	20.170	-3.672	-0.249
221.000	158.867	80.009	19.995	102.940	20.173	-3.862	-0.254
221.500	158.755	80.008	19.997	102.941	20.171	-3.783	-0.233
222.000	158.622	80.010	19.996	102.941	20.171	-3.733	-0.231
222.500	158.513	80.010	19.995	102.940	20.171	-3.781	-0.243
223.000	158.352	80.008	19.994	102.939	20.172	-3.807	-0.256
223.500	158.257	80.008	19.995	102.939	20.173	-3.873	-0.263
224.000	158.111	80.005	19.995	102.937	20.170	-3.712	-0.249
224.500	158.004	80.006	19.994	102.942	20.172	-3.818	-0.247
225.000	157.858	80.006	19.995	102.942	20.173	-3.897	-0.253
225.500	157.778	80.010	19.994	102.943	20.173	-3.864	-0.239
226.000	157.655	80.005	19.995	102.942	20.169	-3.618	-0.215
226.500	157.485	80.007	19.994	102.943	20.170	-3.715	-0.248
227.000	157.376	80.006	19.994	102.942	20.173	-3.912	-0.286
227.500	157.271	80.006	19.994	102.943	20.170	-3.693	-0.247
228.000	157.135	80.007	19.995	102.943	20.168	-3.588	-0.227
228.500	157.008	80.005	19.995	102.943	20.171	-3.766	-0.252
229.000	156.839	80.006	19.995	102.942	20.170	-3.702	-0.279
229.500	156.734	80.006	19.994	102.940	20.173	-3.882	-0.285
230.000	156.603	80.005	19.995	102.938	20.171	-3.748	-0.255
230.500	156.459	80.006	19.995	102.938	20.170	-3.719	-0.256
231.000	156.364	80.006	19.994	102.939	20.166	-3.432	-0.257
231.500	156.242	80.006	19.995	102.941	20.170	-3.710	-0.228
232.000	156.118	80.007	19.995	102.942	20.171	-3.737	-0.232
232.500	155.942	80.005	19.993	102.943	20.170	-3.676	-0.274
233.000	155.854	80.003	19.995	102.943	20.170	-3.687	-0.282
233.500	155.708	80.005	19.996	102.948	20.173	-3.879	-0.249
234.000	155.593	80.007	19.995	102.948	20.171	-3.772	-0.248
234.500	155.473	80.005	19.995	102.952	20.174	-3.982	-0.248
235.000	155.355	80.006	19.996	102.956	20.171	-3.746	-0.236
235.500	155.238	80.005	19.996	102.958	20.172	-3.809	-0.236
236.000	155.120	80.006	19.995	102.957	20.169	-3.592	-0.235
236.500	155.006	80.005	19.994	102.956	20.171	-3.776	-0.233
237.000	154.856	80.005	19.995	102.954	20.169	-3.599	-0.248
237.500	154.703	80.005	19.994	102.951	20.170	-3.713	-0.284
238.000	154.609	80.005	19.995	102.949	20.170	-3.704	-0.276
238.500	154.440	80.007	19.994	102.949	20.171	-3.785	-0.255
239.000	154.348	80.005	19.995	102.949	20.171	-3.753	-0.262
239.500	154.182	80.007	19.995	102.947	20.169	-3.630	-0.260
240.000	154.085	80.005	19.996	102.948	20.168	-3.581	-0.261
240.500	153.938	80.006	19.995	102.950	20.172	-3.833	-0.254
241.000	153.839	80.005	19.995	102.954	20.169	-3.656	-0.245
241.500	153.706	80.005	19.995	102.958	20.170	-3.720	-0.239
242.000	153.582	80.005	19.995	102.959	20.169	-3.645	-0.244
242.500	153.436	80.004	19.994	102.958	20.171	-3.725	-0.264
243.000	153.327	80.005	19.995	102.956	20.171	-3.738	-0.263
243.500	153.188	80.004	19.995	102.949	20.171	-3.778	-0.251
244.000	153.033	80.004	19.995	102.947	20.170	-3.672	-0.271
244.500	152.907	80.005	19.995	102.946	20.170	-3.673	-0.288
245.000	152.775	80.005	19.995	102.944	20.169	-3.655	-0.269
245.500	152.655	80.006	19.996	102.946	20.170	-3.701	-0.254
246.000	152.518	80.005	19.995	102.951	20.170	-3.692	-0.254
246.500	152.393	80.004	19.995	102.949	20.170	-3.699	-0.260
247.000	152.263	80.005	19.995	102.949	20.171	-3.784	-0.259
247.500	152.127	80.005	19.996	102.952	20.173	-3.863	-0.261
248.000	152.037	80.005	19.995	102.950	20.171	-3.747	-0.246
248.500	151.895	80.006	19.994	102.945	20.171	-3.786	-0.229
249.000	151.730	80.005	19.995	102.945	20.170	-3.716	-0.270
249.500	151.626	80.004	19.995	102.948	20.170	-3.712	-0.288
250.000	151.508	80.005	19.995	102.944	20.172	-3.804	-0.245
250.500	151.354	80.004	19.995	102.945	20.172	-3.857	-0.246
251.000	151.237	80.006	19.995	102.944	20.172	-3.824	-0.271
251.500	151.104	80.005	19.995	102.948	20.172	-3.828	-0.261
252.000	150.977	80.005	19.996	102.946	20.169	-3.633	-0.256
252.500	150.852	80.004	19.995	102.949	20.170	-3.666	-0.256
253.000	150.734	80.004	19.996	102.955	20.171	-3.727	-0.247
253.500	150.617	80.006	19.994	102.962	20.169	-3.631	-0.239
254.000	150.451	80.005	19.995	102.965	20.165	-3.378	-0.259
254.500	150.345	80.004	19.995	102.972	20.164	-3.291	-0.278
255.000	150.202	80.004	19.995	102.974	20.166	-3.431	-0.260
255.500	150.116	80.004	19.995	102.972	20.170	-3.688	-0.239
256.000	149.945	80.005	19.994	102.970	20.166	-3.445	-0.243
256.500	149.837	80.004	19.994	102.966	20.169	-3.646	-0.268
257.000	149.705	80.005	19.995	102.966	20.166	-3.456	-0.259
257.500	149.592	80.006	19.994	102.970	20.166	-3.418	-0.242
258.000	149.481	80.005	19.994	102.972	20.169	-3.607	-0.234
258.500	149.327	80.006	19.994	102.972	20.169	-3.591	-0.245
259.000	149.190	80.007	19.994	102.976	20.167	-3.491	-0.278
259.500	149.063	80.005	19.994	102.973	20.166	-3.422	-0.277
260.000	148.931	80.007	19.994	102.969	20.167	-3.473	-0.262
260.500	148.792	80.005	19.994	102.962	20.166	-3.423	-0.265
261.000	148.668	80.006	19.995	102.961	20.170	-3.663	-0.267
261.500	148.541	80.005	19.994	102.959	20.170	-3.683	-0.258
262.001	148.421	80.006	19.994	102.960	20.165	-3.359	-0.249
262.500	148.286	80.006	19.994	102.963	20.168	-3.554	-0.250
263.000	148.154	80.005	19.995	102.967	20.168	-3.532	-0.261
263.500	148.028	80.007	19.995	102.970	20.168	-3.525	-0.263
264.000	147.885	80.004	19.994	102.974	20.168	-3.543	-0.263
264.500	147.764	80.007	19.995	102.977	20.169	-3.620	-0.267
265.000	147.665	80.005	19.995	102.979	20.166	-3.423	-0.242
265.500	147.534	80.006	19.995	102.980	20.170	-3.683	-0.225
266.000	147.408	80.005	19.995	102.973	20.166	-3.438	-0.243
266.500	147.282	80.005	19.995	102.968	20.166	-3.390	-0.254
267.000	147.150	80.007	19.994	102.964	20.163	-3.215	-0.255
267.500	147.011	80.006	19.995	102.963	20.167	-3.508	-0.264
268.000	146.892	80.005	19.993	102.962	20.166	-3.456	-0.265
268.500	146.746	80.006	19.994	102.968	20.167	-3.482	-0.262
269.000	146.639	80.006	19.994	102.970	20.168	-3.533	-0.259
269.500	146.546	80.006	19.994	102.973	20.169	-3.657	-0.226
270.000	146.386	80.005	19.994	102.974	20.167	-3.515	-0.226
270.500	146.304	80.005	19.995	102.976	20.166	-3.455	-0.247
271.000	146.184	80.007	19.994	102.976	20.167	-3.512	-0.222
271.500	146.062	80.006	19.995	102.977	20.165	-3.353	-0.222
272.001	145.940	80.008	19.994	102.978	20.170	-3.715	-0.243
272.500	145.847	80.006	19.995	102.978	20.167	-3.512	-0.230
273.000	145.749	80.006	19.995	102.977	20.168	-3.568	-0.203
273.500	145.583	80.007	19.994	102.978	20.170	-3.713	-0.227
274.000	145.462	80.008	19.994	102.977	20.172	-3.855	-0.276
274.500	145.321	80.006	19.993	102.977	20.169	-3.656	-0.275
275.000	145.220	80.008	19.994	102.977	20.170	-3.715	-0.252
275.500	145.090	80.008	19.995	102.976	20.169	-3.640	-0.236
276.000	144.956	80.007	19.996	102.977	20.166	-3.449	-0.248
276.500	144.859	80.007	19.993	102.977	20.165	-3.423	-0.248
277.000	144.729	80.006	19.994	102.976	20.167	-3.533	-0.229
277.500	144.636	80.007	19.993	102.971	20.166	-3.425	-0.225
278.000	144.523	80.006	19.994	102.967	20.171	-3.778	-0.214
278.500	144.398	80.008	19.995	102.965	20.167	-3.549	-0.222
279.000	144.251	80.006	19.995	102.962	20.166	-3.433	-0.255
279.500	144.134	80.008	19.994	102.960	20.161	-3.141	-0.268
280.000	144.011	80.005	19.993	102.965	20.158	-2.918	-0.252
280.500	143.924	80.007	19.995	102.970	20.155	-2.741	-0.225
281.000	143.785	80.006	19.995	102.974	20.145	-2.006	-0.218
281.500	143.647	80.008	19.994	102.978	20.139	-1.601	-0.252
282.000	143.564	80.006	19.994	102.996	20.126	-0.761	-0.249
282.500	143.427	80.007	19.994	103.070	20.114	0.071	-0.220
283.000	143.350	80.006	19.994	103.198	20.103	0.798	-0.217
283.500	143.256	80.006	19.994	103.362	20.091	1.637	-0.192
284.000	143.206	80.007	19.995	103.545	20.080	2.335	-0.157
284.500	143.149	80.006	19.995	103.725	20.065	3.364	-0.125
285.000	143.083	80.008	19.995	103.856	20.060	3.698	-0.115
285.500	143.105	80.007	19.994	103.937	20.048	4.492	-0.084
286.000	143.079	80.007	19.994	103.981	20.040	5.025	-0.024
286.500	143.126	80.006	19.993	104.006	20.032	5.583	0.008
287.000	143.146	80.007	19.994	104.019	20.030	5.752	0.044
287.500	143.212	80.008	19.994	104.025	20.024	6.127	0.077
288.000	143.245	80.007	19.994	104.027	20.015	6.776	0.093
288.500	143.335	80.007	19.994	104.025	20.014	6.785	0.111
289.000	143.449	80.008	19.994	104.019	20.010	7.087	0.163
289.501	143.544	80.006	19.994	104.011	20.005	7.384	0.207
290.000	143.706	80.007	19.995	104.001	20.005	7.443	0.233
290.500	143.840	80.008	19.993	103.986	20.005	7.449	0.276
291.000	143.992	80.007	19.993	103.975	20.002	7.595	0.291
291.500	144.170	80.005	19.994	103.966	20.000	7.759	0.308
292.000	144.401	80.007	19.994	103.959	19.997	7.983	0.370
292.500	144.533	80.007	19.995	103.948	19.995	8.107	0.386
293.000	144.796	80.008	19.993	103.939	19.994	8.169	0.379
293.500	144.996	80.006	19.993	103.931	19.995	8.116	0.429
294.000	145.274	80.007	19.993	103.923	19.993	8.197	0.471
294.500	145.523	80.009	19.994	103.916	19.994	8.166	0.502
295.000	145.803	80.008	19.994	103.915	19.993	8.255	0.528
295.500	146.098	80.008	19.993	103.914	19.994	8.186	0.552
296.000	146.345	80.007	19.994	103.913	19.995	8.104	0.558
296.500	146.643	80.007	19.994	103.912	19.992	8.290	0.543
297.000	146.949	80.008	19.993	103.911	19.995	8.075	0.574
297.500	147.252	80.008	19.993	103.906	19.994	8.163	0.606
298.000	147.625	80.008	19.993	103.901	19.994	8.132	0.643
298.500	147.930	80.008	19.993	103.894	19.994	8.153	0.677
299.000	148.285	80.008	19.993	103.888	19.994	8.126	0.669
299.500	148.629	80.006	19.994	103.882	19.995	8.059	0.679
300.000	148.997	80.008	19.993	103.880	19.996	8.001	0.705
300.500	149.377	80.009	19.994	103.878	19.994	8.151	0.730
301.000	149.792	80.008	19.993	103.878	19.996	8.040	0.772
301.500	150.135	80.008	19.994	103.875	19.996	8.042	0.777
302.000	150.553	80.008	19.993	103.867	19.995	8.105	0.759
302.500	150.947	80.008	19.994	103.860	19.997	7.947	0.787
303.000	151.431	80.009	19.994	103.852	19.996	7.993	0.845
303.500	151.820	80.009	19.993	103.845	19.995	8.063	0.875
304.000	152.281	80.008	19.994	103.840	19.996	8.009	0.861
304.500	152.713	80.007	19.993	103.840	19.997	7.930	0.871
305.000	153.166	80.009	19.994	103.841	19.999	7.804	0.889
305.500	153.618	80.008	19.993	103.840	20.001	7.687	0.895
306.000	154.054	80.009	19.993	103.840	20.004	7.464	0.896
306.500	154.544	80.008	19.994	103.839	20.006	7.357	0.907
307.000	154.983	80.008	19.993	103.838	20.004	7.494	0.928
307.500	155.480	80.004	19.994	103.837	20.007	7.256	0.932
308.000	155.981	80.006	19.994	103.835	20.005	7.406	0.967
308.500	156.486	80.006	19.995	103.825	20.009	7.157	1.002
309.000	156.989	80.005	19.994	103.809	20.008	7.198	1.007
309.500	157.478	80.006	19.994	103.795	20.010	7.072	1.000
310.000	157.990	80.006	19.994	103.784	20.009	7.110	0.996
310.500	158.504	80.005	19.994	103.774	20.009	7.109	1.014
311.000	159.036	80.005	19.994	103.774	20.013	6.868	1.036
311.500	159.603	80.006	19.994	103.774	20.014	6.784	1.072
312.000	160.087	80.006	19.995	103.774	20.014	6.764	1.074
312.500	160.618	80.005	19.995	103.774	20.014	6.766	1.033
313.000	161.141	80.005	19.995	103.771	20.014	6.786	1.035
313.500	161.705	80.006	19.995	103.765	20.016	6.665	1.071
314.000	162.332	80.004	19.995	103.762	20.019	6.443	1.139
314.500	162.850	80.005	19.996	103.758	20.017	6.611	1.168
315.000	163.373	80.006	19.994	103.751	20.020	6.375	1.093
315.500	163.935	80.005	19.995	103.744	20.020	6.419	1.063
316.000	164.531	80.006	19.995	103.739	20.021	6.313	1.121
316.500	165.100	80.005	19.994	103.732	20.023	6.197	1.161
317.000	165.690	80.006	19.994	103.724	20.023	6.152	1.162
317.500	166.270	80.006	19.994	103.712	20.024	6.126	1.165
318.000	166.827	80.004	19.994	103.705	20.025	6.037	1.154
318.500	167.465	80.005	19.994	103.699	20.030	5.684	1.166
319.000	168.006	80.006	19.995	103.694	20.030	5.706	1.187
319.500	168.619	80.006	19.995	103.690	20.029	5.752	1.166
320.000	169.184	80.005	19.994	103.690	20.029	5.777	1.166
320.500	169.822	80.005	19.994	103.684	20.033	5.501	1.191
321.000	170.398	80.006	19.994	103.675	20.037	5.220	1.208
321.500	170.995	80.005	19.995	103.666	20.037	5.214	1.194
322.000	171.587	80.005	19.994	103.658	20.035	5.406	1.181
322.500	172.202	80.006	19.994	103.650	20.037	5.232	1.198
323.000	172.803	80.005	19.995	103.646	20.041	5.003	1.212
323.500	173.373	80.007	19.994	103.646	20.042	4.910	1.193
324.000	174.017	80.005	19.994	103.645	20.041	4.960	1.192
324.500	174.609	80.004	19.994	103.639	20.043	4.827	1.225
325.000	175.182	80.006	19.995	103.633	20.044	4.788	1.200
325.500	175.775	80.005	19.995	103.625	20.046	4.604	1.165
326.000	176.374	80.006	19.994	103.617	20.044	4.752	1.180
326.500	176.974	80.005	19.995	103.609	20.044	4.756	1.196
327.000	177.551	80.006	19.994	103.606	20.045	4.731	1.188
327.500	178.187	80.007	19.993	103.605	20.050	4.376	1.195
328.000	178.764	80.005	19.994	103.604	20.044	4.742	1.213
328.500	179.437	80.005	19.995	103.603	20.049	4.464	1.231
329.000	180.034	80.006	19.994	103.603	20.048	4.477	1.260
329.500	180.641	80.005	19.994	103.602	20.050	4.344	1.237
330.000	181.279	80.006	19.995	103.601	20.051	4.274	1.224
330.500	181.852	80.005	19.994	103.596	20.054	4.078	1.228
331.000	182.487	80.005	19.995	103.588	20.054	4.113	1.210
331.500	183.073	80.006	19.994	103.581	20.055	4.000	1.215
332.000	183.691	80.005	19.994	103.573	20.054	4.124	1.213
332.500	184.321	80.006	19.994	103.566	20.057	3.909	1.226
333.000	184.922	80.005	19.995	103.563	20.055	4.061	1.239
333.500	185.562	80.006	19.995	103.563	20.057	3.865	1.236
334.000	186.183	80.007	19.994	103.564	20.059	3.732	1.251
334.500	186.758	80.005	19.994	103.563	20.058	3.813	1.228
335.000	187.420	80.006	19.995	103.563	20.060	3.694	1.216
335.500	188.027	80.006	19.995	103.562	20.061	3.600	1.253
336.000	188.662	80.006	19.995	103.555	20.060	3.700	1.255
336.500	189.267	80.005	19.996	103.552	20.060	3.696	1.241
337.000	189.856	80.005	19.994	103.552	20.060	3.662	1.217
337.500	190.504	80.005	19.995	103.547	20.063	3.500	1.215
338.000	191.074	80.007	19.995	103.540	20.063	3.514	1.227
338.500	191.675	80.004	19.995	103.539	20.061	3.631	1.195
339.000	192.308	80.004	19.995	103.533	20.065	3.326	1.203
339.500	192.897	80.004	19.996	103.526	20.065	3.350	1.228
340.000	193.485	80.005	19.995	103.524	20.065	3.381	1.199
340.500	194.116	80.005	19.995	103.524	20.064	3.407	1.198
341.000	194.680	80.005	19.997	103.524	20.066	3.290	1.207
341.500	195.293	80.005	19.996	103.524	20.065	3.322	1.186
342.000	195.879	80.005	19.996	103.524	20.068	3.163	1.188
342.500	196.500	80.005	19.996	103.522	20.069	3.063	1.203
343.000	197.086	80.003	19.997	103.522	20.069	3.055	1.207
343.500	197.677	80.006	19.995	103.522	20.070	3.048	1.192
344.000	198.302	80.005	19.995	103.522	20.074	2.722	1.197
344.500	198.933	80.005	19.995	103.519	20.070	2.986	1.236
345.000	199.450	80.004	19.996	103.517	20.070	2.986	1.202
345.500	200.109	80.004	19.996	103.514	20.073	2.812	1.162
346.000	200.721	80.005	19.995	103.508	20.076	2.637	1.223
346.500	201.298	80.004	19.995	103.501	20.073	2.805	1.230
347.000	201.900	80.005	19.996	103.496	20.076	2.629	1.184
347.500	202.438	80.004	19.995	103.493	20.074	2.760	1.159
348.000	203.059	80.004	19.995	103.488	20.076	2.614	1.149
348.500	203.681	80.005	19.996	103.486	20.074	2.769	1.201
349.000	204.239	80.005	19.996	103.485	20.077	2.572	1.212
349.500	204.824	80.006	19.995	103.484	20.076	2.612	1.162
350.000	205.431	80.006	19.994	103.483	20.078	2.465	1.167
350.500	205.985	80.006	19.994	103.482	20.077	2.564	1.176
351.000	206.598	80.006	19.994	103.483	20.076	2.583	1.164
351.500	207.153	80.007	19.994	103.481	20.079	2.439	1.168
352.000	207.781	80.005	19.994	103.478	20.080	2.359	1.176
352.500	208.341	80.006	19.994	103.477	20.080	2.354	1.185
353.000	208.897	80.007	19.994	103.474	20.080	2.359	1.151
353.500	209.472	80.008	19.994	103.466	20.081	2.298	1.123
354.000	210.022	80.006	19.995	103.460	20.077	2.550	1.128
354.500	210.637	80.007	19.995	103.457	20.080	2.359	1.145
355.000	211.195	80.007	19.993	103.449	20.082	2.200	1.169
355.500	211.773	80.007	19.995	103.441	20.081	2.256	1.154
356.000	212.330	80.007	19.995	103.439	20.081	2.298	1.135
356.500	212.875	80.007	19.994	103.437	20.085	1.977	1.119
357.000	213.472	80.006	19.993	103.433	20.082	2.221	1.122
357.500	214.061	80.007	19.994	103.428	20.087	1.905	1.164
358.000	214.604	80.006	19.994	103.424	20.083	2.121	1.159
358.500	215.152	80.008	19.994	103.419	20.087	1.871	1.111
359.000	215.710	80.007	19.994	103.418	20.087	1.845	1.098
359.500	216.243	80.008	19.994	103.419	20.086	1.934	1.098
360.000	216.826	80.009	19.994	103.418	20.084	2.063	1.103
360.500	217.413	80.007	19.994	103.418	20.085	2.017	1.143
361.000	217.905	80.007	19.994	103.419	20.085	2.038	1.125
361.500	218.451	80.006	19.993	103.415	20.087	1.881	1.059
362.000	218.979	80.007	19.994	103.415	20.088	1.820	1.056
362.500	219.542	80.006	19.993	103.416	20.085	1.991	1.082
363.000	220.088	80.005	19.994	103.416	20.087	1.864	1.100
363.500	220.633	80.006	19.994	103.418	20.090	1.698	1.100
364.001	221.159	80.006	19.994	103.422	20.088	1.786	1.081
364.500	221.696	80.007	19.994	103.425	20.089	1.751	1.067
365.000	222.236	80.005	19.994	103.424	20.090	1.681	1.070
365.500	222.795	80.005	19.994	103.423	20.093	1.492	1.088
366.000	223.306	80.006	19.994	103.419	20.090	1.648	1.085
366.500	223.810	80.004	19.994	103.417	20.094	1.419	1.043
367.000	224.313	80.007	19.995	103.414	20.092	1.563	1.011
367.500	224.852	80.006	19.994	103.415	20.092	1.557	1.024
368.000	225.397	80.006	19.994	103.416	20.095	1.347	1.063
368.500	225.921	80.007	19.994	103.415	20.093	1.483	1.077
369.000	226.444	80.007	19.995	103.413	20.091	1.585	1.058
369.500	226.969	80.006	19.995	103.411	20.093	1.446	1.048
370.000	227.479	80.006	19.994	103.408	20.095	1.324	1.042
370.500	227.979	80.006	19.995	103.407	20.094	1.393	1.022
371.000	228.536	80.005	19.995	103.406	20.095	1.321	1.034
371.500	229.029	80.005	19.994	103.406	20.095	1.311	1.054
372.000	229.551	80.005	19.993	103.406	20.094	1.387	1.033
372.500	230.104	80.005	19.995	103.408	20.097	1.202	1.044
373.000	230.601	80.005	19.994	103.408	20.096	1.296	1.063
373.500	231.138	80.008	19.994	103.409	20.097	1.197	1.042
374.000	231.619	80.006	19.994	103.408	20.098	1.119	1.026
374.500	232.124	80.008	19.993	103.407	20.096	1.276	1.002
375.000	232.622	80.007	19.994	103.406	20.099	1.043	0.994
375.500	233.132	80.007	19.994	103.402	20.100	1.025	1.005
376.000	233.602	80.007	19.995	103.399	20.096	1.272	0.994
376.500	234.103	80.008	19.995	103.396	20.096	1.261	0.976
377.000	234.653	80.007	19.994	103.396	20.097	1.184	1.011
377.500	235.113	80.007	19.994	103.396	20.097	1.206	1.030
378.000	235.621	80.009	19.994	103.398	20.098	1.134	0.989
378.501	236.101	80.006	19.993	103.398	20.097	1.186	0.978
379.000	236.576	80.008	19.994	103.402	20.097	1.167	0.971
379.500	237.054	80.006	19.994	103.404	20.097	1.230	0.954
380.000	237.580	80.009	19.994	103.404	20.097	1.182	0.979
380.500	238.051	80.008	19.994	103.406	20.097	1.202	1.001
381.000	238.553	80.009	19.993	103.405	20.096	1.263	0.985
381.500	239.047	80.006	19.995	103.402	20.095	1.331	0.984
382.000	239.518	80.006	19.994	103.398	20.099	1.054	0.980
382.500	239.998	80.008	19.993	103.392	20.097	1.172	0.958
383.000	240.493	80.008	19.995	103.385	20.098	1.139	0.963
383.500	240.959	80.008	19.994	103.381	20.099	1.060	0.968
384.000	241.435	80.007	19.993	103.378	20.098	1.117	0.951
384.500	241.952	80.008	19.993	103.374	20.099	1.040	0.968
385.001	242.405	80.007	19.993	103.373	20.098	1.123	0.982
385.501	242.929	80.006	19.994	103.376	20.098	1.119	0.974
386.000	243.350	80.007	19.995	103.378	20.100	0.966	0.961
386.500	243.818	80.008	19.993	103.379	20.100	1.007	0.917
387.000	244.285	80.009	19.993	103.379	20.100	1.005	0.912
387.500	244.762	80.007	19.993	103.379	20.102	0.848	0.939
388.000	245.268	80.010	19.994	103.376	20.100	1.017	0.963
388.500	245.720	80.006	19.994	103.374	20.104	0.707	0.970
389.000	246.248	80.006	19.994	103.373	20.101	0.916	0.969
389.500	246.670	80.007	19.994	103.372	20.101	0.914	0.965
390.000	247.138	80.006	19.994	103.372	20.101	0.947	0.920
390.500	247.608	80.005	19.994	103.372	20.102	0.851	0.914
391.000	248.030	80.008	19.994	103.371	20.101	0.951	0.915
391.500	248.512	80.004	19.994	103.371	20.100	0.969	0.898
392.000	248.997	80.007	19.994	103.370	20.100	0.977	0.936
392.500	249.495	80.004	19.994	103.365	20.101	0.910	0.975
393.000	249.937	80.005	19.995	103.344	20.101	0.917	0.961
393.500	250.413	80.006	19.993	103.333	20.102	0.838	0.928
394.000	250.864	80.004	19.994	103.328	20.101	0.949	0.922
394.500	251.349	80.005	19.994	103.328	20.104	0.707	0.932
395.000	251.794	80.005	19.993	103.332	20.103	0.783	0.933
395.500	252.213	80.005	19.994	103.361	20.102	0.888	0.897
396.000	252.714	80.005	19.994	103.399	20.106	0.626	0.892
396.500	253.159	80.003	19.994	103.407	20.104	0.713	0.933
397.000	253.634	80.005	19.994	103.407	20.104	0.759	0.933
397.500	254.090	80.005	19.995	103.406	20.104	0.748	0.926
398.000	254.530	80.005	19.995	103.396	20.103	0.797	0.914
398.500	254.975	80.006	19.995	103.366	20.105	0.661	0.891
399.000	255.431	80.006	19.994	103.362	20.103	0.764	0.893
399.500	255.901	80.004	19.994	103.358	20.105	0.637	0.913
400.000	256.373	80.005	19.993	103.352	20.106	0.581	0.934
400.500	256.810	80.006	19.995	103.348	20.106	0.589	0.925
401.000	257.216	80.006	19.995	103.346	20.105	0.629	0.876
401.500	257.678	80.005	19.995	103.346	20.105	0.637	0.856
402.000	258.127	80.005	19.994	103.348	20.107	0.519	0.890
402.500	258.589	80.006	19.995	103.350	20.107	0.506	0.911
403.000	259.063	80.006	19.994	103.348	20.108	0.478	0.924
403.500	259.475	80.007	19.995	103.345	20.107	0.548	0.911
404.000	259.893	80.005	19.995	103.338	20.108	0.458	0.858
404.500	260.315	80.005	19.995	103.332	20.106	0.561	0.835
405.000	260.746	80.004	19.995	103.329	20.107	0.557	0.847
405.500	261.191	80.004	19.995	103.329	20.108	0.452	0.864
406.000	261.606	80.006	19.994	103.329	20.104	0.731	0.867
406.500	262.021	80.005	19.994	103.332	20.105	0.677	0.845
407.000	262.483	80.005	19.995	103.339	20.109	0.362	0.854
407.500	262.899	80.005	19.995	103.339	20.108	0.485	0.878
408.000	263.350	80.005	19.995	103.340	20.109	0.362	0.872
408.500	263.760	80.006	19.994	103.340	20.109	0.395	0.864
409.000	264.193	80.005	19.995	103.336	20.109	0.413	0.852
409.500	264.621	80.006	19.996	103.329	20.107	0.509	0.852
410.000	265.064	80.007	19.995	103.329	20.111	0.268	0.866
410.500	265.469	80.005	19.995	103.328	20.110	0.347	0.859
411.000	265.880	80.005	19.995	103.329	20.110	0.303	0.832
411.500	266.312	80.005	19.995	103.329	20.110	0.345	0.830
412.000	266.702	80.007	19.994	103.329	20.112	0.179	0.832
412.500	267.161	80.005	19.995	103.329	20.107	0.520	0.835
413.000	267.546	80.005	19.994	103.329	20.112	0.203	0.847
413.500	267.978	80.006	19.996	103.329	20.112	0.223	0.830
414.000	268.389	80.005	19.995	103.329	20.113	0.100	0.830
414.500	268.826	80.007	19.994	103.328	20.112	0.188	0.846
415.000	269.219	80.007	19.994	103.328	20.111	0.257	0.839
415.500	269.627	80.005	19.995	103.326	20.113	0.126	0.815
416.000	270.067	80.005	19.995	103.324	20.111	0.234	0.824
416.500	270.493	80.007	19.995	103.324	20.112	0.223	0.857
417.000	270.910	80.005	19.995	103.324	20.114	0.054	0.855
417.500	271.347	80.006	19.995	103.324	20.111	0.236	0.848
418.000	271.708	80.006	19.995	103.325	20.114	0.037	0.826
418.500	272.128	80.005	19.995	103.326	20.114	0.052	0.789
419.000	272.541	80.005	19.995	103.322	20.116	-0.087	0.807
419.500	272.946	80.006	19.994	103.322	20.113	0.149	0.825
420.000	273.308	80.004	19.995	103.319	20.113	0.102	0.793
420.500	273.723	80.005	19.994	103.314	20.116	-0.081	0.772
421.000	274.128	80.007	19.995	103.315	20.115	0.007	0.798
421.500	274.552	80.005	19.994	103.316	20.116	-0.079	0.824
422.000	274.885	80.005	19.994	103.314	20.114	0.039	0.793
422.500	275.315	80.005	19.995	103.315	20.115	0.015	0.760
423.000	275.706	80.005	19.995	103.318	20.115	0.022	0.792
423.500	276.098	80.004	19.995	103.318	20.117	-0.116	0.802
424.000	276.490	80.004	19.995	103.321	20.115	-0.031	0.784
424.500	276.871	80.005	19.994	103.324	20.114	0.026	0.779
425.000	277.258	80.005	19.995	103.326	20.119	-0.273	0.771
425.500	277.674	80.005	19.995	103.328	20.115	-0.039	0.785
426.000	278.047	80.003	19.995	103.328	20.114	0.024	0.796
426.500	278.459	80.005	19.996	103.325	20.116	-0.100	0.787
427.000	278.827	80.005	19.995	103.320	20.116	-0.078	0.783
427.500	279.227	80.003	19.995	103.301	20.116	-0.050	0.774
428.000	279.622	80.005	19.995	103.287	20.116	-0.065	0.781
428.500	279.988	80.005	19.995	103.280	20.115	0.009	0.778
429.000	280.368	80.004	19.995	103.280	20.118	-0.242	0.754
429.500	280.754	80.005	19.994	103.282	20.118	-0.242	0.756
430.000	281.141	80.003	19.995	103.298	20.117	-0.127	0.770
430.500	281.510	80.006	19.996	103.313	20.114	0.063	0.764
431.000	281.930	80.003	19.995	103.326	20.120	-0.323	0.772
431.500	282.287	80.004	19.995	103.353	20.117	-0.161	0.783
432.000	282.703	80.005	19.995	103.358	20.120	-0.347	0.775
432.500	283.067	80.005	19.996	103.360	20.121	-0.397	0.776
433.000	283.465	80.007	19.995	103.354	20.121	-0.410	0.771
433.500	283.855	80.004	19.995	103.343	20.121	-0.406	0.775
434.000	284.215	80.005	19.996	103.315	20.121	-0.415	0.769
434.500	284.574	80.007	19.995	103.307	20.119	-0.284	0.734
435.000	284.985	80.005	19.995	103.303	20.117	-0.170	0.745
435.500	285.371	80.005	19.995	103.304	20.123	-0.574	0.784
436.000	285.730	80.005	19.995	103.305	20.121	-0.384	0.771
436.500	286.083	80.005	19.995	103.302	20.119	-0.306	0.728
437.000	286.488	80.003	19.995	103.300	20.121	-0.406	0.735
437.500	286.879	80.005	19.994	103.298	20.124	-0.581	0.777
438.000	287.227	80.006	19.996	103.299	20.120	-0.317	0.768
438.500	287.623	80.006	19.995	103.295	20.123	-0.524	0.742
439.000	288.039	80.007	19.995	103.297	20.121	-0.424	0.778
439.500	288.342	80.007	19.995	103.299	20.122	-0.489	0.766
440.000	288.714	80.008	19.994	103.299	20.121	-0.435	0.697
440.500	289.111	80.005	19.996	103.297	20.121	-0.411	0.722
441.000	289.447	80.006	19.994	103.299	20.121	-0.382	0.751
441.500	289.832	80.006	19.994	103.299	20.122	-0.461	0.727
442.000	290.222	80.006	19.994	103.298	20.123	-0.576	0.748
442.500	290.556	80.006	19.994	103.298	20.122	-0.489	0.750
443.000	290.933	80.007	19.995	103.298	20.125	-0.651	0.717
443.500	291.283	80.006	19.995	103.295	20.128	-0.864	0.719
444.000	291.679	80.006	19.995	103.293	20.124	-0.642	0.736
444.500	292.065	80.006	19.994	103.293	20.122	-0.447	0.764
445.000	292.378	80.005	19.994	103.295	20.124	-0.627	0.741
445.501	292.785	80.006	19.994	103.300	20.123	-0.539	0.710
446.000	293.099	80.008	19.994	103.300	20.125	-0.709	0.720
446.500	293.485	80.005	19.994	103.300	20.123	-0.522	0.710
447.000	293.839	80.007	19.993	103.302	20.126	-0.725	0.720
447.500	294.176	80.004	19.993	103.300	20.124	-0.592	0.716
448.000	294.565	80.006	19.994	103.296	20.127	-0.830	0.708
448.500	294.913	80.007	19.994	103.297	20.126	-0.777	0.732
449.000	295.228	80.005	19.994	103.298	20.127	-0.791	0.700
449.500	295.615	80.007	19.994	103.297	20.126	-0.718	0.682
450.000	295.965	80.005	19.994	103.297	20.127	-0.795	0.720
450.500	296.295	80.006	19.994	103.297	20.127	-0.817	0.709
451.000	296.636	80.007	19.995	103.296	20.126	-0.775	0.676
451.500	297.037	80.006	19.994	103.295	20.128	-0.889	0.707
452.000	297.376	80.004	19.993	103.295	20.125	-0.672	0.741
452.500	297.682	80.005	19.995	103.294	20.127	-0.819	0.692
453.000	298.061	80.007	19.994	103.294	20.126	-0.780	0.665
453.500	298.402	80.006	19.994	103.293	20.129	-0.922	0.702
454.000	298.700	80.007	19.994	103.293	20.125	-0.664	0.679
454.500	299.082	80.007	19.993	103.292	20.127	-0.803	0.659
455.000	299.398	80.005	19.995	103.292	20.127	-0.817	0.689
455.500	299.748	80.007	19.995	103.292	20.125	-0.688	0.682
456.000	300.090	80.007	19.995	103.292	20.124	-0.620	0.679
456.500	300.425	80.007	19.994	103.292	20.126	-0.758	0.684
457.000	300.775	80.005	19.994	103.291	20.128	-0.911	0.681
457.500	301.127	80.009	19.995	103.290	20.125	-0.662	0.694
458.000	301.440	80.006	19.994	103.288	20.128	-0.885	0.683
458.500	301.770	80.009	19.994	103.283	20.128	-0.876	0.654
459.000	302.099	80.008	19.993	103.281	20.128	-0.858	0.651
459.500	302.437	80.009	19.993	103.275	20.129	-0.967	0.662
460.000	302.761	80.008	19.994	103.267	20.130	-0.989	0.664
460.500	303.117	80.008	19.994	103.261	20.127	-0.837	0.671
461.000	303.448	80.006	19.995	103.263	20.130	-1.042	0.684
461.500	303.779	80.006	19.995	103.262	20.129	-0.928	0.675
462.000	304.085	80.008	19.995	103.264	20.128	-0.904	0.650
462.500	304.401	80.008	19.994	103.268	20.130	-0.991	0.630
463.000	304.710	80.008	19.995	103.269	20.130	-1.050	0.624
463.500	305.044	80.008	19.994	103.266	20.131	-1.066	0.634
464.000	305.371	80.009	19.994	103.266	20.132	-1.140	0.652
464.500	305.684	80.008	19.994	103.267	20.132	-1.162	0.650
465.000	306.011	80.007	19.993	103.268	20.132	-1.122	0.640
465.500	306.321	80.008	19.994	103.270	20.133	-1.208	0.638
466.000	306.658	80.008	19.995	103.268	20.130	-1.011	0.642
466.500	306.947	80.008	19.994	103.263	20.130	-1.048	0.637
467.000	307.266	80.006	19.994	103.263	20.131	-1.105	0.617
467.500	307.614	80.006	19.994	103.259	20.129	-0.978	0.637
468.000	307.896	80.007	19.994	103.258	20.131	-1.090	0.649
468.500	308.187	80.005	19.994	103.259	20.134	-1.273	0.602
469.000	308.483	80.006	19.994	103.259	20.130	-1.027	0.580
469.500	308.816	80.007	19.994	103.256	20.129	-0.944	0.608
470.000	309.120	80.006	19.995	103.255	20.129	-0.974	0.633
470.500	309.440	80.004	19.995	103.252	20.132	-1.123	0.630
471.000	309.784	80.005	19.995	103.251	20.131	-1.101	0.644
471.500	310.088	80.006	19.995	103.252	20.131	-1.101	0.656
472.000	310.382	80.005	19.993	103.258	20.133	-1.195	0.623
472.500	310.699	80.003	19.995	103.259	20.132	-1.136	0.605
473.000	311.003	80.005	19.994	103.260	20.132	-1.155	0.616
473.500	311.333	80.008	19.994	103.262	20.131	-1.090	0.627
474.000	311.610	80.005	19.994	103.263	20.133	-1.238	0.620
474.500	311.926	80.005	19.994	103.258	20.131	-1.116	0.600
475.000	312.256	80.007	19.994	103.260	20.132	-1.118	0.620
475.500	312.539	80.005	19.994	103.260	20.133	-1.241	0.630
476.000	312.859	80.005	19.994	103.257	20.136	-1.411	0.608
476.500	313.144	80.005	19.994	103.256	20.134	-1.273	0.604
477.000	313.427	80.005	19.994	103.253	20.132	-1.168	0.587
477.500	313.731	80.006	19.994	103.250	20.136	-1.426	0.578
478.000	314.077	80.005	19.994	103.251	20.134	-1.252	0.618
478.500	314.318	80.005	19.994	103.251	20.135	-1.358	0.618
479.000	314.631	80.005	19.993	103.253	20.136	-1.389	0.570
479.500	314.935	80.004	19.993	103.253	20.136	-1.439	0.585
480.000	315.211	80.004	19.994	103.253	20.137	-1.470	0.599
480.500	315.495	80.004	19.994	103.254	20.138	-1.581	0.570
481.000	315.787	80.006	19.995	103.254	20.138	-1.553	0.568
481.500	316.065	80.005	19.994	103.252	20.137	-1.511	0.573
482.000	316.374	80.006	19.994	103.252	20.136	-1.400	0.579
482.500	316.643	80.005	19.994	103.252	20.143	-1.891	0.582
483.000	316.944	80.006	19.994	103.252	20.140	-1.673	0.574
483.500	317.180	80.005	19.994	103.252	20.137	-1.483	0.554
484.000	317.511	80.006	19.995	103.251	20.137	-1.481	0.552
484.500	317.802	80.004	19.994	103.251	20.138	-1.562	0.594
485.000	318.051	80.005	19.994	103.251	20.140	-1.704	0.580
485.500	318.354	80.005	19.994	103.252	20.137	-1.496	0.546
486.000	318.674	80.008	19.994	103.252	20.138	-1.581	0.588
486.500	318.912	80.004	19.994	103.252	20.136	-1.403	0.591
487.000	319.211	80.003	19.994	103.251	20.139	-1.616	0.548
487.500	319.495	80.005	19.994	103.251	20.139	-1.629	0.560
488.000	319.762	80.005	19.994	103.250	20.139	-1.629	0.567
488.500	320.031	80.004	19.994	103.250	20.140	-1.684	0.543
489.000	320.324	80.006	19.994	103.249	20.140	-1.664	0.549
489.500	320.608	80.005	19.994	103.250	20.141	-1.776	0.570
490.000	320.869	80.005	19.994	103.251	20.140	-1.686	0.561
490.500	321.169	80.005	19.995	103.252	20.140	-1.695	0.553
491.000	321.441	80.004	19.995	103.252	20.138	-1.566	0.566
491.500	321.728	80.005	19.994	103.251	20.141	-1.726	0.565
492.000	321.993	80.005	19.995	103.248	20.138	-1.566	0.555
492.500	322.248	80.005	19.994	103.246	20.140	-1.708	0.536
493.000	322.510	80.006	19.994	103.246	20.141	-1.756	0.519
493.500	322.822	80.005	19.994	103.246	20.141	-1.723	0.545
494.000	323.111	80.005	19.996	103.248	20.140	-1.673	0.587
494.500	323.359	80.005	19.995	103.250	20.140	-1.684	0.569
495.000	323.652	80.005	19.996	103.252	20.141	-1.761	0.539
495.500	323.928	80.005	19.995	103.247	20.144	-1.955	0.555
496.001	324.160	80.004	19.995	103.241	20.138	-1.549	0.539
496.500	324.429	80.006	19.995	103.238	20.139	-1.612	0.505
497.000	324.721	80.006	19.995	103.238	20.139	-1.652	0.531
497.500	325.006	80.005	19.995	103.238	20.138	-1.573	0.569
498.000	325.234	80.005	19.995	103.244	20.139	-1.612	0.545
498.500	325.518	80.006	19.996	103.250	20.141	-1.778	0.512
499.000	325.777	80.005	19.995	103.252	20.140	-1.703	0.528
499.500	326.030	80.005	19.996	103.251	20.139	-1.590	0.528
500.000	326.290	80.006	19.995	103.248	20.142	-1.811	0.513
500.500	326.575	80.007	19.995	103.247	20.140	-1.690	0.529
501.000	326.876	80.004	19.995	103.246	20.140	-1.684	0.565
501.500	327.150	80.005	19.996	103.245	20.141	-1.752	0.581
502.000	327.401	80.005	19.995	103.244	20.141	-1.782	0.550
502.500	327.644	80.004	19.995	103.244	20.143	-1.911	0.509
503.000	327.915	80.004	19.995	103.245	20.141	-1.765	0.504
503.500	328.183	80.005	19.994	103.245	20.141	-1.730	0.526
504.000	328.454	80.004	19.994	103.245	20.142	-1.819	0.539
504.500	328.715	80.004	19.995	103.246	20.142	-1.789	0.535
505.000	328.924	80.004	19.994	103.250	20.141	-1.754	0.501
505.500	329.214	80.004	19.995	103.246	20.141	-1.780	0.485
506.000	329.479	80.005	19.994	103.246	20.138	-1.555	0.527
506.500	329.759	80.006	19.994	103.243	20.140	-1.715	0.550
507.000	329.985	80.005	19.994	103.239	20.142	-1.822	0.525
507.500	330.282	80.005	19.994	103.235	20.140	-1.667	0.514
508.000	330.521	80.004	19.995	103.238	20.140	-1.693	0.530
508.500	330.800	80.004	19.995	103.240	20.139	-1.648	0.527
509.000	331.063	80.005	19.994	103.245	20.144	-1.947	0.530
509.500	331.332	80.006	19.994	103.250	20.140	-1.669	0.537
510.000	331.590	80.006	19.994	103.259	20.138	-1.538	0.530
510.500	331.810	80.003	19.994	103.261	20.141	-1.772	0.503
511.000	332.078	80.005	19.995	103.262	20.141	-1.772	0.483
511.500	332.338	80.005	19.994	103.262	20.140	-1.706	0.508
512.000	332.599	80.005	19.994	103.261	20.144	-1.947	0.525
512.500	332.872	80.005	19.993	103.257	20.145	-2.038	0.528
513.000	333.154	80.006	19.994	103.253	20.143	-1.879	0.545
513.500	333.379	80.005	19.994	103.248	20.143	-1.872	0.531
514.000	333.654	80.007	19.994	103.245	20.143	-1.884	0.503
514.500	333.901	80.006	19.994	103.245	20.145	-2.049	0.511
515.000	334.158	80.008	19.995	103.245	20.143	-1.921	0.513
515.500	334.414	80.006	19.994	103.245	20.143	-1.897	0.509
516.000	334.726	80.004	19.995	103.247	20.144	-1.931	0.541
516.500	334.931	80.007	19.995	103.244	20.144	-1.940	0.542
517.000	335.157	80.006	19.994	103.239	20.145	-2.056	0.473
517.500	335.452	80.006	19.994	103.232	20.145	-2.003	0.476
518.000	335.706	80.008	19.994	103.225	20.145	-1.993	0.535
518.500	335.939	80.006	19.995	103.220	20.143	-1.873	0.518
519.000	336.222	80.007	19.994	103.220	20.143	-1.855	0.502
519.500	336.428	80.005	19.996	103.218	20.145	-2.026	0.503
520.000	336.708	80.007	19.995	103.219	20.149	-2.262	0.488
520.500	336.969	80.007	19.995	103.219	20.148	-2.205	0.514
521.000	337.275	80.007	19.996	103.222	20.145	-2.056	0.554
521.500	337.458	80.006	19.996	103.223	20.146	-2.082	0.528
522.000	337.681	80.006	19.995	103.222	20.146	-2.100	0.447
522.500	337.952	80.006	19.995	103.220	20.147	-2.179	0.450
523.000	338.226	80.006	19.996	103.223	20.144	-1.986	0.519
523.500	338.454	80.006	19.995	103.219	20.148	-2.215	0.523
524.000	338.693	80.004	19.995	103.215	20.149	-2.283	0.485
524.500	338.930	80.006	19.996	103.216	20.147	-2.176	0.472
525.000	339.184	80.005	19.996	103.218	20.148	-2.257	0.483
525.500	339.447	80.006	19.997	103.218	20.150	-2.325	0.504
526.000	339.688	80.005	19.996	103.221	20.150	-2.342	0.511
526.500	339.938	80.006	19.995	103.223	20.151	-2.450	0.497
527.000	340.205	80.005	19.995	103.223	20.149	-2.272	0.504
527.500	340.393	80.006	19.996	103.224	20.146	-2.122	0.486
528.000	340.642	80.005	19.996	103.224	20.149	-2.290	0.446
528.500	340.933	80.005	19.996	103.222	20.147	-2.168	0.488
529.000	341.159	80.005	19.995	103.221	20.145	-1.990	0.529
529.500	341.441	80.007	19.995	103.221	20.148	-2.209	0.513
530.000	341.663	80.004	19.995	103.219	20.148	-2.226	0.506
530.500	341.902	80.006	19.996	103.216	20.147	-2.178	0.483
531.000	342.130	80.006	19.996	103.214	20.146	-2.073	0.464
531.500	342.400	80.007	19.995	103.212	20.146	-2.123	0.482
532.000	342.645	80.006	19.995	103.211	20.148	-2.233	0.506
532.500	342.869	80.006	19.996	103.213	20.150	-2.350	0.492
533.000	343.084	80.007	19.995	103.215	20.146	-2.091	0.454
533.500	343.330	80.005	19.995	103.216	20.147	-2.127	0.450
534.000	343.594	80.006	19.995	103.217	20.147	-2.171	0.485
534.500	343.822	80.007	19.995	103.218	20.147	-2.180	0.501
535.000	344.081	80.006	19.994	103.219	20.148	-2.200	0.489
535.500	344.300	80.006	19.995	103.218	20.149	-2.265	0.483
536.000	344.522	80.007	19.994	103.219	20.146	-2.071	0.460
536.500	344.808	80.008	19.994	103.218	20.149	-2.274	0.475
537.000	345.047	80.007	19.994	103.218	20.147	-2.174	0.516
537.500	345.276	80.007	19.994	103.216	20.148	-2.229	0.496
538.000	345.564	80.007	19.994	103.216	20.150	-2.347	0.492
538.500	345.762	80.006	19.994	103.214	20.147	-2.178	0.501
539.000	346.006	80.008	19.994	103.216	20.152	-2.462	0.465
539.500	346.249	80.006	19.994	103.216	20.150	-2.373	0.465
540.000	346.489	80.010	19.995	103.216	20.150	-2.390	0.484
540.500	346.779	80.010	19.993	103.217	20.151	-2.418	0.506
541.000	347.003	80.007	19.995	103.218	20.149	-2.265	0.522
541.500	347.201	80.007	19.994	103.221	20.149	-2.265	0.468
542.000	347.467	80.005	19.994	103.228	20.148	-2.211	0.443
542.500	347.700	80.009	19.993	103.232	20.147	-2.145	0.481
543.000	347.928	80.007	19.994	103.234	20.145	-2.051	0.480
543.500	348.150	80.007	19.993	103.240	20.145	-2.017	0.456
544.000	348.394	80.010	19.993	103.243	20.145	-2.052	0.459
544.500	348.652	80.010	19.993	103.243	20.144	-1.988	0.484
545.000	348.888	80.011	19.994	103.245	20.148	-2.244	0.498
545.500	349.136	80.009	19.993	103.246	20.147	-2.161	0.489
546.000	349.386	80.009	19.994	103.239	20.148	-2.211	0.492
546.500	349.663	80.010	19.993	103.232	20.147	-2.176	0.513
547.000	349.867	80.007	19.994	103.225	20.148	-2.248	0.504
547.500	350.108	80.008	19.994	103.218	20.148	-2.190	0.462
548.000	350.393	80.006	19.994	103.214	20.147	-2.148	0.485
548.500	350.626	80.007	19.994	103.216	20.145	-2.032	0.522
549.000	350.843	80.007	19.994	103.218	20.144	-1.945	0.484
549.500	351.093	80.006	19.994	103.220	20.145	-2.038	0.458
550.000	351.346	80.006	19.993	103.220	20.143	-1.916	0.485
550.500	351.564	80.006	19.995	103.225	20.147	-2.176	0.487
551.000	351.798	80.006	19.994	103.229	20.148	-2.221	0.462
551.500	352.038	80.005	19.994	103.233	20.147	-2.162	0.463
552.000	352.315	80.006	19.995	103.231	20.148	-2.226	0.495
552.500	352.549	80.005	19.994	103.233	20.149	-2.263	0.514
553.000	352.803	80.005	19.994	103.229	20.147	-2.161	0.500
553.500	353.043	80.006	19.994	103.224	20.148	-2.229	0.491
554.000	353.316	80.005	19.994	103.225	20.150	-2.340	0.503
554.500	353.532	80.005	19.994	103.227	20.150	-2.375	0.501
555.000	353.783	80.006	19.995	103.227	20.153	-2.546	0.478
555.500	353.990	80.005	19.995	103.227	20.150	-2.342	0.463
556.000	354.233	80.005	19.994	103.227	20.146	-2.084	0.454
556.500	354.452	80.007	19.994	103.221	20.151	-2.430	0.456
557.000	354.730	80.005	19.994	103.218	20.150	-2.351	0.480
557.500	354.958	80.005	19.994	103.216	20.147	-2.132	0.502
558.000	355.200	80.006	19.994	103.215	20.150	-2.366	0.488
558.500	355.448	80.006	19.995	103.215	20.145	-2.051	0.480
559.000	355.688	80.006	19.995	103.216	20.145	-2.025	0.489
559.500	355.926	80.006	19.994	103.217	20.150	-2.375	0.483
560.000	356.174	80.005	19.995	103.220	20.147	-2.158	0.482
560.500	356.414	80.005	19.994	103.225	20.147	-2.136	0.487
561.000	356.611	80.006	19.994	103.229	20.148	-2.256	0.462
561.500	356.881	80.006	19.994	103.235	20.149	-2.279	0.452
562.000	357.131	80.006	19.994	103.239	20.145	-2.047	0.494
562.500	357.361	80.006	19.994	103.239	20.146	-2.108	0.500
563.000	357.619	80.006	19.995	103.236	20.146	-2.080	0.484
563.500	357.847	80.005	19.994	103.234	20.150	-2.329	0.487
564.000	358.111	80.005	19.994	103.229	20.148	-2.196	0.489
564.500	358.348	80.005	19.994	103.224	20.147	-2.159	0.496
565.000	358.606	80.005	19.994	103.221	20.148	-2.257	0.498
565.500	358.866	80.006	19.995	103.220	20.148	-2.218	0.507
566.000	359.074	80.006	19.994	103.219	20.146	-2.073	0.493
566.500	359.339	80.006	19.994	103.218	20.146	-2.078	0.470
567.000	359.590	80.007	19.994	103.221	20.149	-2.272	0.495
567.500	359.833	80.005	19.994	103.223	20.146	-2.117	0.505
568.000	360.063	80.006	19.994	103.222	20.146	-2.078	0.483
568.500	360.286	80.007	19.994	103.221	20.147	-2.152	0.463
569.000	360.563	80.005	19.994	103.220	20.146	-2.071	0.476
569.500	360.789	80.005	19.994	103.225	20.146	-2.090	0.501
570.000	361.027	80.007	19.994	103.229	20.148	-2.239	0.484
570.500	361.277	80.007	19.993	103.237	20.147	-2.149	0.476
571.000	361.537	80.006	19.995	103.240	20.147	-2.174	0.499
571.500	361.739	80.006	19.994	103.243	20.147	-2.134	0.486
572.000	362.026	80.005	19.993	103.238	20.149	-2.318	0.475
572.500	362.223	80.004	19.993	103.232	20.148	-2.206	0.486
573.000	362.484	80.005	19.994	103.228	20.147	-2.187	0.472
573.500	362.727	80.006	19.994	103.231	20.149	-2.290	0.481
574.000	362.968	80.003	19.995	103.228	20.150	-2.377	0.493
574.500	363.195	80.003	19.993	103.230	20.148	-2.233	0.476
575.000	363.444	80.005	19.993	103.230	20.151	-2.412	0.472
575.500	363.701	80.007	19.993	103.227	20.148	-2.242	0.491
576.000	363.941	80.006	19.993	103.229	20.152	-2.460	0.501
576.500	364.189	80.004	19.994	103.230	20.151	-2.438	0.492
577.000	364.444	80.005	19.993	103.230	20.148	-2.204	0.495
577.500	364.696	80.006	19.994	103.229	20.154	-2.639	0.505
578.000	364.920	80.006	19.994	103.231	20.148	-2.195	0.491
578.500	365.184	80.006	19.993	103.227	20.149	-2.265	0.482
579.000	365.382	80.006	19.994	103.231	20.152	-2.482	0.475
579.500	365.668	80.004	19.995	103.235	20.150	-2.348	0.473
580.000	365.877	80.004	19.993	103.241	20.152	-2.486	0.489
580.500	366.152	80.005	19.993	103.239	20.148	-2.255	0.489
581.000	366.416	80.004	19.995	103.243	20.152	-2.489	0.511
581.500	366.650	80.006	19.995	103.242	20.150	-2.383	0.519
582.000	366.883	80.006	19.994	103.237	20.152	-2.489	0.483
582.500	367.131	80.006	19.994	103.231	20.149	-2.275	0.474
583.000	367.380	80.006	19.995	103.233	20.151	-2.421	0.489
583.500	367.631	80.005	19.994	103.227	20.152	-2.469	0.499
584.000	367.919	80.006	19.995	103.222	20.150	-2.364	0.519
584.500	368.164	80.005	19.995	103.219	20.153	-2.585	0.536
585.000	368.350	80.006	19.995	103.220	20.149	-2.277	0.482
585.500	368.629	80.004	19.995	103.220	20.148	-2.248	0.448
586.000	368.865	80.005	19.996	103.219	20.152	-2.506	0.490
586.500	369.144	80.005	19.995	103.218	20.148	-2.198	0.515
587.000	369.397	80.005	19.994	103.222	20.151	-2.419	0.524
587.500	369.667	80.005	19.995	103.224	20.152	-2.460	0.527
588.000	369.880	80.004	19.994	103.227	20.152	-2.513	0.503
588.500	370.178	80.006	19.995	103.234	20.151	-2.434	0.497
589.000	370.455	80.004	19.994	103.240	20.150	-2.373	0.543
589.500	370.693	80.005	19.994	103.242	20.153	-2.576	0.545
590.000	370.959	80.005	19.995	103.241	20.149	-2.324	0.510
590.500	371.200	80.004	19.995	103.236	20.149	-2.303	0.506
591.000	371.457	80.007	19.994	103.236	20.152	-2.500	0.503
591.500	371.678	80.007	19.995	103.233	20.151	-2.440	0.487
592.000	371.963	80.005	19.995	103.227	20.154	-2.642	0.492
592.500	372.208	80.005	19.995	103.227	20.153	-2.580	0.518
593.000	372.458	80.007	19.995	103.226	20.152	-2.525	0.512
593.500	372.765	80.006	19.995	103.221	20.151	-2.453	0.526
594.000	372.986	80.007	19.995	103.217	20.151	-2.447	0.543
594.500	373.262	80.006	19.995	103.217	20.158	-2.897	0.512
595.000	373.499	80.006	19.995	103.218	20.152	-2.471	0.505
595.500	373.753	80.007	19.995	103.221	20.154	-2.624	0.502
596.000	374.025	80.006	19.995	103.221	20.155	-2.676	0.509
596.500	374.314	80.007	19.995	103.221	20.154	-2.646	0.544
597.000	374.539	80.007	19.994	103.222	20.155	-2.702	0.537
597.500	374.800	80.008	19.994	103.218	20.152	-2.502	0.499
598.000	375.077	80.007	19.994	103.214	20.153	-2.567	0.512
598.500	375.286	80.006	19.996	103.219	20.157	-2.797	0.512
599.000	375.540	80.007	19.995	103.221	20.153	-2.541	0.474
599.500	375.810	80.006	19.995	103.227	20.156	-2.764	0.494
600.000	376.090	80.008	19.995	103.232	20.151	-2.447	0.537
600.500	376.347	80.007	19.994	103.236	20.156	-2.749	0.543
601.000	376.580	80.008	19.994	103.231	20.157	-2.803	0.513
601.500	376.860	80.007	19.994	103.228	20.154	-2.655	0.502
602.000	377.087	80.007	19.994	103.223	20.155	-2.679	0.510
602.500	377.365	80.008	19.995	103.223	20.154	-2.629	0.506
603.000	377.643	80.006	19.994	103.224	20.157	-2.834	0.531
603.500	377.878	80.008	19.995	103.231	20.156	-2.738	0.535
604.000	378.139	80.005	19.994	103.240	20.157	-2.832	0.504
604.500	378.412	80.006	19.995	103.241	20.154	-2.629	0.515
605.000	378.671	80.008	19.995	103.237	20.155	-2.664	0.533
605.500	378.921	80.006	19.995	103.232	20.154	-2.624	0.520
606.000	379.173	80.007	19.995	103.227	20.153	-2.537	0.506
606.501	379.464	80.007	19.995	103.220	20.155	-2.703	0.522
607.000	379.689	80.007	19.995	103.222	20.155	-2.677	0.529
607.500	379.931	80.007	19.994	103.228	20.156	-2.746	0.491
608.000	380.228	80.007	19.994	103.229	20.154	-2.652	0.503
608.500	380.483	80.006	19.994	103.229	20.155	-2.700	0.545
609.000	380.761	80.009	19.995	103.228	20.155	-2.696	0.542
609.500	381.003	80.007	19.994	103.222	20.156	-2.768	0.526
610.000	381.256	80.006	19.995	103.218	20.152	-2.493	0.508
610.500	381.508	80.007	19.995	103.220	20.156	-2.738	0.500
611.001	381.764	80.008	19.995	103.221	20.157	-2.825	0.507
611.500	382.012	80.006	19.994	103.220	20.155	-2.674	0.507
612.000	382.258	80.007	19.995	103.220	20.155	-2.718	0.500
612.500	382.555	80.006	19.995	103.217	20.156	-2.771	0.518
613.000	382.803	80.007	19.996	103.214	20.152	-2.484	0.544
613.501	383.041	80.005	19.995	103.213	20.156	-2.753	0.515
614.000	383.316	80.006	19.995	103.215	20.156	-2.731	0.500
614.500	383.572	80.006	19.996	103.217	20.158	-2.928	0.522
615.000	383.832	80.007	19.995	103.219	20.160	-3.041	0.523
615.500	384.062	80.007	19.996	103.220	20.157	-2.832	0.503
616.000	384.339	80.006	19.996	103.218	20.160	-3.022	0.499
616.500	384.593	80.007	19.995	103.218	20.157	-2.819	0.519
617.000	384.846	80.007	19.995	103.217	20.159	-2.961	0.519
617.500	385.158	80.005	19.994	103.216	20.157	-2.854	0.536
618.000	385.397	80.005	19.995	103.221	20.159	-2.954	0.558
618.500	385.641	80.006	19.995	103.226	20.158	-2.878	0.517
619.000	385.876	80.009	19.995	103.230	20.157	-2.810	0.481
619.500	386.135	80.006	19.996	103.231	20.158	-2.869	0.486
620.000	386.388	80.007	19.995	103.231	20.159	-2.934	0.503
620.501	386.689	80.010	19.995	103.225	20.162	-3.146	0.533
621.000	386.893	80.007	19.996	103.220	20.161	-3.083	0.529
621.500	387.127	80.005	19.994	103.220	20.161	-3.125	0.471
622.000	387.424	80.007	19.995	103.219	20.162	-3.177	0.484
622.500	387.679	80.007	19.994	103.218	20.161	-3.072	0.542
623.000	387.948	80.007	19.995	103.218	20.161	-3.116	0.539
623.500	388.226	80.008	19.995	103.219	20.160	-3.009	0.536
624.000	388.437	80.007	19.995	103.214	20.161	-3.067	0.518
624.500	388.701	80.008	19.994	103.218	20.163	-3.199	0.482
625.000	388.948	80.009	19.995	103.218	20.164	-3.295	0.493
625.500	389.225	80.006	19.994	103.218	20.160	-3.037	0.518
626.000	389.494	80.011	19.994	103.218	20.163	-3.233	0.536
626.500	389.728	80.007	19.995	103.218	20.163	-3.220	0.525
627.000	389.998	80.007	19.995	103.214	20.159	-2.969	0.503
627.500	390.293	80.006	19.994	103.215	20.162	-3.164	0.534
628.000	390.502	80.009	19.994	103.215	20.162	-3.188	0.534
628.500	390.763	80.009	19.995	103.215	20.159	-2.930	0.487
629.000	391.048	80.008	19.994	103.214	20.162	-3.162	0.508
629.500	391.309	80.009	19.993	103.214	20.160	-3.050	0.546
630.000	391.556	80.009	19.994	103.214	20.161	-3.112	0.528
630.500	391.811	80.006	19.993	103.214	20.160	-3.048	0.505
631.000	392.046	80.004	19.995	103.214	20.161	-3.090	0.495
631.500	392.311	80.006	19.994	103.214	20.160	-3.030	0.495
632.001	392.582	80.006	19.994	103.214	20.159	-2.954	0.518
632.500	392.841	80.006	19.993	103.214	20.162	-3.160	0.533
633.000	393.120	80.007	19.994	103.218	20.158	-2.919	0.534
633.500	393.334	80.006	19.993	103.219	20.160	-3.037	0.516
634.000	393.603	80.006	19.994	103.219	20.157	-2.856	0.488
634.500	393.896	80.006	19.995	103.220	20.156	-2.747	0.523
635.000	394.146	80.006	19.994	103.221	20.161	-3.101	0.552
635.500	394.387	80.007	19.994	103.218	20.160	-3.033	0.517
636.000	394.675	80.005	19.993	103.218	20.160	-3.044	0.510
636.500	394.898	80.003	19.994	103.219	20.162	-3.183	0.520
637.000	395.166	80.006	19.994	103.223	20.158	-2.928	0.501
637.500	395.424	80.005	19.994	103.226	20.163	-3.227	0.508
638.000	395.684	80.005	19.993	103.225	20.164	-3.295	0.522
638.500	395.943	80.005	19.994	103.225	20.166	-3.415	0.518
639.000	396.221	80.007	19.994	103.225	20.161	-3.088	0.528
639.500	396.437	80.005	19.994	103.221	20.162	-3.149	0.516
640.000	396.688	80.004	19.993	103.218	20.160	-3.037	0.481
640.500	396.983	80.006	19.993	103.217	20.163	-3.251	0.506
641.000	397.199	80.006	19.994	103.217	20.161	-3.083	0.528
641.500	397.452	80.006	19.994	103.218	20.164	-3.290	0.490
642.000	397.692	80.006	19.994	103.218	20.164	-3.266	0.481
642.500	397.960	80.003	19.993	103.218	20.162	-3.131	0.500
643.000	398.189	80.005	19.995	103.218	20.161	-3.064	0.503
643.500	398.427	80.006	19.995	103.218	20.163	-3.223	0.483
644.000	398.720	80.004	19.995	103.218	20.162	-3.144	0.499
644.500	398.925	80.004	19.995	103.216	20.162	-3.169	0.514
645.000	399.205	80.002	19.994	103.216	20.163	-3.219	0.492
645.500	399.450	80.004	19.995	103.216	20.163	-3.243	0.505
646.000	399.732	80.006	19.994	103.216	20.163	-3.212	0.526
646.500	399.951	80.006	19.995	103.217	20.161	-3.094	0.514
647.000	400.223	80.005	19.994	103.217	20.162	-3.155	0.496
647.500	400.446	80.005	19.995	103.216	20.162	-3.192	0.493
648.000	400.680	80.006	19.994	103.216	20.161	-3.063	0.476
648.500	400.898	80.004	19.994	103.215	20.163	-3.234	0.455
649.000	401.179	80.005	19.994	103.213	20.164	-3.267	0.475
649.500	401.453	80.006	19.993	103.214	20.165	-3.363	0.526
650.000	401.704	80.006	19.994	103.215	20.166	-3.435	0.540
650.500	401.955	80.006	19.994	103.220	20.166	-3.409	0.514
651.000	402.198	80.005	19.995	103.224	20.163	-3.251	0.498
651.501	402.485	80.005	19.995	103.226	20.161	-3.127	0.512
652.000	402.705	80.007	19.995	103.228	20.163	-3.258	0.518
652.500	402.998	80.006	19.995	103.227	20.164	-3.276	0.510
653.000	403.236	80.007	19.995	103.223	20.165	-3.363	0.522
653.500	403.504	80.005	19.996	103.219	20.164	-3.269	0.518
654.000	403.716	80.004	19.994	103.216	20.165	-3.395	0.493
654.500	403.985	80.005	19.995	103.214	20.163	-3.223	0.481
655.000	404.240	80.006	19.995	103.212	20.166	-3.411	0.503
655.500	404.495	80.007	19.995	103.212	20.164	-3.304	0.517
656.000	404.747	80.005	19.995	103.212	20.165	-3.384	0.508
656.500	404.984	80.005	19.994	103.212	20.165	-3.373	0.498
657.000	405.224	80.004	19.995	103.211	20.166	-3.457	0.483
657.500	405.488	80.007	19.995	103.212	20.166	-3.465	0.490
658.000	405.732	80.008	19.994	103.212	20.167	-3.481	0.506
658.500	406.012	80.007	19.995	103.212	20.165	-3.347	0.516
659.000	406.238	80.006	19.995	103.212	20.167	-3.507	0.515
659.501	406.512	80.003	19.994	103.211	20.166	-3.400	0.503
660.000	406.771	80.004	19.994	103.211	20.163	-3.245	0.517
660.500	406.993	80.004	19.993	103.211	20.164	-3.280	0.507
661.000	407.264	80.006	19.993	103.213	20.162	-3.188	0.487
661.500	407.537	80.006	19.993	103.214	20.161	-3.087	0.518
662.000	407.750	80.004	19.994	103.216	20.164	-3.317	0.515
662.500	408.046	80.004	19.994	103.216	20.163	-3.253	0.498
663.000	408.299	80.006	19.994	103.216	20.165	-3.337	0.529
663.500	408.554	80.006	19.994	103.214	20.162	-3.173	0.528
664.000	408.824	80.006	19.995	103.215	20.166	-3.418	0.517
664.500	409.094	80.007	19.994	103.215	20.163	-3.254	0.533
665.000	409.295	80.003	19.993	103.216	20.164	-3.306	0.505
665.500	409.554	80.005	19.994	103.222	20.163	-3.215	0.465
666.000	409.841	80.006	19.994	103.224	20.165	-3.378	0.503
666.500	410.077	80.004	19.994	103.222	20.166	-3.409	0.535
667.000	410.363	80.004	19.994	103.222	20.168	-3.573	0.523
667.500	410.628	80.004	19.994	103.222	20.165	-3.380	0.537
668.000	410.859	80.005	19.994	103.216	20.168	-3.588	0.523
668.500	411.131	80.005	19.994	103.213	20.168	-3.568	0.499
669.000	411.431	80.006	19.994	103.213	20.166	-3.418	0.538
669.500	411.645	80.007	19.995	103.213	20.165	-3.361	0.543
670.000	411.954	80.008	19.994	103.213	20.166	-3.420	0.518
670.500	412.180	80.005	19.994	103.213	20.165	-3.372	0.529
671.000	412.443	80.007	19.994	103.214	20.169	-3.642	0.512
671.500	412.657	80.007	19.994	103.214	20.168	-3.555	0.483
672.000	412.971	80.006	19.995	103.214	20.168	-3.577	0.503
672.500	413.230	80.005	19.995	103.214	20.167	-3.511	0.550
673.000	413.487	80.007	19.994	103.214	20.168	-3.540	0.544
673.501	413.729	80.005	19.995	103.214	20.172	-3.804	0.508
674.000	413.984	80.007	19.994	103.213	20.170	-3.704	0.498
674.500	414.225	80.006	19.995	103.211	20.169	-3.616	0.496
675.000	414.503	80.007	19.995	103.210	20.173	-3.889	0.508
675.500	414.700	80.006	19.994	103.208	20.171	-3.736	0.497
676.000	414.973	80.006	19.994	103.208	20.169	-3.621	0.472
676.500	415.212	80.007	19.994	103.208	20.167	-3.474	0.491
677.000	415.517	80.007	19.993	103.211	20.169	-3.629	0.528
677.500	415.764	80.007	19.994	103.212	20.170	-3.688	0.548
678.000	416.021	80.006	19.994	103.214	20.168	-3.536	0.528
678.500	416.325	80.005	19.995	103.214	20.167	-3.494	0.533
679.000	416.548	80.009	19.995	103.214	20.170	-3.688	0.544
679.500	416.844	80.005	19.994	103.212	20.168	-3.585	0.523
680.000	417.125	80.006	19.995	103.212	20.169	-3.616	0.547
680.500	417.368	80.008	19.994	103.212	20.170	-3.706	0.550
681.000	417.637	80.005	19.995	103.212	20.168	-3.576	0.518
681.500	417.876	80.005	19.994	103.212	20.166	-3.448	0.510
682.000	418.163	80.006	19.994	103.213	20.169	-3.636	0.516
682.500	418.415	80.006	19.995	103.214	20.167	-3.480	0.532
683.000	418.700	80.008	19.994	103.216	20.166	-3.461	0.538
683.500	418.942	80.005	19.995	103.216	20.166	-3.431	0.532
684.000	419.239	80.004	19.995	103.216	20.168	-3.585	0.533
684.500	419.490	80.006	19.995	103.215	20.167	-3.487	0.544
685.000	419.767	80.005	19.995	103.214	20.167	-3.526	0.538
685.500	420.047	80.005	19.994	103.213	20.166	-3.458	0.543
686.000	420.323	80.004	19.994	103.213	20.168	-3.554	0.557
686.500	420.559	80.004	19.994	103.216	20.163	-3.248	0.534
687.000	420.877	80.006	19.994	103.216	20.165	-3.357	0.532
687.500	421.139	80.007	19.994	103.216	20.163	-3.259	0.567
688.000	421.448	80.007	19.995	103.216	20.161	-3.130	0.576
688.500	421.715	80.008	19.995	103.215	20.164	-3.269	0.574
689.000	421.968	80.005	19.995	103.213	20.167	-3.513	0.548
689.500	422.228	80.005	19.995	103.213	20.165	-3.358	0.516
690.000	422.512	80.005	19.995	103.216	20.162	-3.187	0.529
690.500	422.768	80.008	19.994	103.217	20.161	-3.104	0.542
691.000	423.058	80.004	19.995	103.219	20.161	-3.089	0.543
691.500	423.353	80.006	19.995	103.222	20.165	-3.332	0.565
692.000	423.574	80.006	19.994	103.225	20.164	-3.275	0.551
692.500	423.838	80.006	19.995	103.223	20.164	-3.293	0.501
693.000	424.120	80.006	19.994	103.221	20.161	-3.109	0.515
693.500	424.365	80.006	19.995	103.222	20.166	-3.444	0.536
694.000	424.678	80.006	19.994	103.218	20.163	-3.243	0.543
694.500	424.991	80.005	19.994	103.215	20.166	-3.419	0.592
695.000	425.248	80.006	19.993	103.218	20.164	-3.325	0.598
695.500	425.522	80.003	19.995	103.219	20.164	-3.313	0.551
696.000	425.824	80.007	19.994	103.222	20.167	-3.500	0.553
696.500	426.045	80.008	19.994	103.228	20.164	-3.290	0.550
697.000	426.343	80.006	19.994	103.234	20.168	-3.559	0.521
697.500	426.597	80.005	19.993	103.238	20.164	-3.279	0.536
698.000	426.881	80.004	19.995	103.241	20.164	-3.292	0.545
698.500	427.125	80.005	19.995	103.238	20.166	-3.452	0.532
699.000	427.472	80.007	19.994	103.231	20.167	-3.498	0.559
699.500	427.698	80.004	19.995	103.226	20.167	-3.507	0.582
700.000	427.933	80.005	19.993	103.221	20.166	-3.413	0.517
700.500	428.232	80.008	19.994	103.219	20.166	-3.402	0.498
701.000	428.495	80.005	19.994	103.227	20.167	-3.496	0.549
701.500	428.816	80.007	19.994	103.231	20.163	-3.214	0.573
702.000	429.054	80.006	19.994	103.230	20.168	-3.594	0.571
702.500	429.283	80.007	19.994	103.228	20.170	-3.680	0.513
703.000	429.592	80.007	19.994	103.225	20.163	-3.262	0.503
703.500	429.852	80.006	19.995	103.217	20.166	-3.407	0.553
704.000	430.167	80.008	19.994	103.214	20.164	-3.321	0.572
704.500	430.413	80.007	19.995	103.214	20.167	-3.492	0.568
705.000	430.695	80.006	19.995	103.216	20.166	-3.400	0.545
705.500	430.950	80.007	19.995	103.216	20.163	-3.234	0.532
706.000	431.232	80.007	19.994	103.216	20.167	-3.494	0.537
706.500	431.555	80.005	19.994	103.216	20.171	-3.793	0.571
707.000	431.791	80.007	19.994	103.217	20.166	-3.441	0.582
707.500	432.115	80.006	19.995	103.221	20.172	-3.815	0.559
708.000	432.339	80.007	19.994	103.225	20.166	-3.417	0.554
708.500	432.654	80.008	19.996	103.228	20.174	-3.990	0.543
709.000	432.950	80.006	19.995	103.229	20.168	-3.551	0.575
709.500	433.184	80.006	19.996	103.227	20.168	-3.564	0.571
710.000	433.478	80.005	19.995	103.222	20.168	-3.555	0.529
710.500	433.709	80.005	19.995	103.216	20.172	-3.837	0.526
711.000	434.051	80.006	19.995	103.215	20.174	-3.964	0.549
711.500	434.309	80.005	19.995	103.214	20.167	-3.509	0.586
712.000	434.585	80.005	19.995	103.214	20.170	-3.730	0.567
712.500	434.873	80.005	19.995	103.213	20.173	-3.901	0.549
713.000	435.172	80.005	19.995	103.213	20.175	-4.042	0.576
713.500	435.407	80.004	19.995	103.211	20.163	-3.217	0.560
714.000	435.690	80.004	19.996	103.210	20.162	-3.147	0.526
714.500	435.983	80.006	19.995	103.211	20.165	-3.346	0.547
715.000	436.274	80.004	19.995	103.212	20.169	-3.654	0.580
715.500	436.557	80.004	19.995	103.212	20.173	-3.907	0.579
716.000	436.772	80.005	19.996	103.212	20.178	-4.252	0.537
716.500	437.118	80.004	19.995	103.214	20.173	-3.904	0.529
717.000	437.287	80.005	19.995	103.214	20.163	-3.253	0.538
717.500	437.692	80.005	19.996	103.213	20.167	-3.472	0.544
718.000	437.847	80.004	19.995	103.213	20.176	-4.134	0.568
718.500	438.212	80.005	19.995	103.214	20.173	-3.869	0.540
719.000	438.469	80.005	19.994	103.212	20.168	-3.568	0.571
719.500	438.704	80.005	19.994	103.211	20.171	-3.737	0.557
720.000	438.973	80.004	19.995	103.210	20.172	-3.822	0.498
720.500	439.335	80.004	19.994	103.210	20.170	-3.720	0.567
721.000	439.556	80.005	19.994	103.210	20.176	-4.113	0.606
721.500	439.888	80.006	19.995	103.210	20.170	-3.672	0.568
722.000	440.124	80.006	19.995	103.210	20.170	-3.718	0.561
722.500	440.476	80.005	19.994	103.211	20.170	-3.700	0.578
723.000	440.743	80.006	19.994	103.212	20.169	-3.626	0.603
723.500	440.911	80.005	19.994	103.212	20.170	-3.680	0.528
724.000	441.242	80.006	19.995	103.213	20.175	-4.047	0.467
724.500	441.376	80.005	19.994	103.213	20.170	-3.693	0.482
725.000	441.959	80.005	19.994	103.212	20.172	-3.807	0.591
725.500	441.964	80.006	19.995	103.212	20.175	-4.054	0.653
726.000	442.098	80.005	19.996	103.212	20.171	-3.759	0.364
726.500	442.865	80.006	19.995	103.212	20.170	-3.715	0.521
727.000	442.605	80.007	19.994	103.212	20.170	-3.724	0.704
727.500	442.697	80.006	19.995	103.218	20.173	-3.879	0.169
728.000	443.234	80.008	19.994	103.220	20.173	-3.932	0.230
728.500	443.709	80.006	19.994	103.220	20.169	-3.636	0.821
729.000	444.326	80.005	19.994	103.220	20.166	-3.425	1.052
729.500	444.725	80.005	19.994	103.218	20.170	-3.704	1.054
730.000	444.452	80.005	19.993	103.211	20.171	-3.733	0.570
730.500	444.474	80.005	19.994	103.203	20.166	-3.443	-0.063
731.000	444.706	80.006	19.994	103.197	20.166	-3.462	0.002
731.500	445.488	80.006	19.995	103.193	20.170	-3.711	0.634
732.000	446.052	80.006	19.994	103.188	20.171	-3.740	1.180
732.500	446.281	80.005	19.994	103.189	20.172	-3.862	1.070
733.000	446.353	80.005	19.994	103.195	20.172	-3.802	0.547
733.500	446.142	80.006	19.993	103.200	20.172	-3.802	0.081
734.000	446.879	80.004	19.994	103.205	20.172	-3.813	0.194
734.500	446.923	80.005	19.994	103.211	20.173	-3.894	0.653
735.000	447.158	80.005	19.993	103.210	20.174	-3.969	0.530
735.500	447.395	80.004	19.994	103.208	20.171	-3.784	0.376
736.000	447.653	80.006	19.995	103.204	20.172	-3.827	0.484
736.500	447.908	80.005	19.994	103.199	20.173	-3.932	0.504
737.000	448.196	80.007	19.994	103.193	20.175	-4.039	0.527
737.500	448.394	80.005	19.994	103.193	20.173	-3.930	0.514
738.000	448.723	80.006	19.994	103.194	20.176	-4.081	0.506
738.500	448.966	80.006	19.994	103.193	20.176	-4.112	0.550
739.000	449.311	80.006	19.993	103.197	20.175	-4.035	0.581
739.500	449.468	80.005	19.995	103.203	20.170	-3.729	0.545
740.000	449.765	80.007	19.994	103.199	20.174	-3.940	0.478
740.500	450.024	80.005	19.994	103.195	20.176	-4.111	0.505
741.000	450.273	80.005	19.994	103.193	20.172	-3.818	0.532
741.500	450.461	80.004	19.995	103.190	20.175	-4.004	0.473
742.000	450.817	80.005	19.994	103.187	20.176	-4.072	0.490
742.500	451.000	80.006	19.994	103.186	20.177	-4.157	0.541
743.000	451.280	80.004	19.995	103.190	20.176	-4.078	0.501
743.500	451.526	80.003	19.993	103.197	20.175	-4.045	0.495
744.000	451.812	80.006	19.994	103.201	20.175	-4.065	0.529
744.500	451.983	80.004	19.995	103.204	20.175	-4.012	0.494
745.000	452.276	80.006	19.994	103.207	20.176	-4.099	0.461
745.500	452.530	80.004	19.996	103.201	20.175	-4.058	0.506
746.000	452.820	80.006	19.994	103.194	20.174	-3.964	0.546
746.500	453.021	80.003	19.994	103.187	20.175	-4.027	0.518
747.000	453.278	80.005	19.994	103.180	20.175	-4.058	0.474
747.500	453.532	80.005	19.994	103.179	20.173	-3.899	0.484
748.000	453.794	80.006	19.994	103.181	20.176	-4.078	0.513
748.500	454.012	80.004	19.994	103.183	20.176	-4.085	0.498
749.000	454.269	80.006	19.994	103.182	20.175	-4.028	0.478
749.500	454.537	80.004	19.994	103.181	20.180	-4.338	0.500
750.000	454.811	80.004	19.995	103.183	20.179	-4.314	0.533
750.501	455.014	80.004	19.995	103.190	20.178	-4.206	0.509
751.000	455.293	80.005	19.994	103.196	20.177	-4.182	0.480
751.500	455.554	80.005	19.994	103.203	20.178	-4.207	0.511
752.000	455.762	80.004	19.995	103.206	20.177	-4.185	0.505
752.500	456.013	80.006	19.994	103.201	20.177	-4.140	0.464
753.000	456.298	80.005	19.994	103.194	20.178	-4.221	0.497
753.500	456.466	80.004	19.994	103.191	20.183	-4.540	0.495
754.000	456.787	80.005	19.995	103.191	20.178	-4.247	0.471
754.500	456.984	80.007	19.994	103.195	20.178	-4.247	0.503
755.000	457.244	80.004	19.993	103.202	20.179	-4.282	0.487
755.500	457.493	80.005	19.993	103.209	20.178	-4.209	0.483
756.000	457.740	80.006	19.993	103.212	20.178	-4.207	0.503
756.500	457.940	80.007	19.994	103.211	20.180	-4.367	0.472
757.000	458.216	80.008	19.993	103.210	20.180	-4.345	0.461
757.500	458.440	80.007	19.992	103.209	20.179	-4.311	0.488
758.000	458.696	80.006	19.994	103.204	20.179	-4.310	0.490
758.500	458.949	80.007	19.993	103.196	20.179	-4.333	0.495
759.000	459.183	80.007	19.993	103.196	20.180	-4.380	0.498
759.500	459.406	80.005	19.993	103.193	20.179	-4.307	0.472
760.000	459.637	80.006	19.992	103.193	20.180	-4.362	0.456
760.500	459.911	80.004	19.993	103.199	20.181	-4.429	0.479
761.000	460.092	80.006	19.994	103.206	20.177	-4.176	0.480
761.500	460.399	80.008	19.994	103.208	20.182	-4.515	0.471
762.000	460.622	80.006	19.994	103.209	20.182	-4.499	0.510
762.500	460.828	80.006	19.994	103.205	20.182	-4.502	0.480
763.001	461.084	80.005	19.995	103.198	20.182	-4.537	0.445
763.500	461.330	80.008	19.993	103.192	20.181	-4.432	0.482
764.000	461.639	80.007	19.995	103.192	20.181	-4.428	0.529
764.500	461.813	80.006	19.993	103.192	20.182	-4.510	0.519
765.000	462.096	80.006	19.995	103.192	20.184	-4.607	0.470
765.500	462.272	80.008	19.994	103.192	20.185	-4.688	0.458
766.000	462.561	80.007	19.995	103.194	20.184	-4.653	0.462
766.500	462.768	80.004	19.994	103.194	20.181	-4.426	0.481
767.000	463.001	80.005	19.994	103.195	20.181	-4.459	0.468
767.500	463.261	80.005	19.993	103.200	20.180	-4.343	0.466
768.000	463.549	80.006	19.995	103.203	20.183	-4.540	0.521
768.500	463.763	80.002	19.993	103.206	20.184	-4.664	0.525
769.000	463.932	80.003	19.993	103.203	20.184	-4.629	0.442
769.500	464.196	80.004	19.993	103.203	20.183	-4.599	0.408
770.000	464.406	80.003	19.994	103.202	20.183	-4.579	0.453
770.500	464.646	80.004	19.994	103.205	20.183	-4.572	0.462
771.000	464.902	80.005	19.995	103.206	20.186	-4.800	0.473
771.500	465.124	80.004	19.993	103.209	20.182	-4.516	0.487
772.000	465.381	80.005	19.994	103.208	20.180	-4.378	0.479
772.500	465.609	80.005	19.994	103.208	20.180	-4.400	0.482
773.000	465.838	80.005	19.995	103.206	20.181	-4.420	0.471
773.500	466.052	80.005	19.994	103.205	20.183	-4.562	0.450
774.000	466.276	80.004	19.995	103.205	20.182	-4.529	0.440
774.500	466.551	80.007	19.994	103.203	20.179	-4.270	0.468
775.000	466.759	80.006	19.995	103.202	20.184	-4.633	0.491
775.500	467.039	80.007	19.996	103.203	20.183	-4.581	0.486
776.000	467.273	80.006	19.995	103.202	20.182	-4.532	0.501
776.500	467.514	80.006	19.995	103.199	20.185	-4.710	0.494
777.000	467.762	80.007	19.995	103.196	20.182	-4.510	0.483
777.500	467.973	80.006	19.995	103.194	20.181	-4.458	0.475
778.000	468.257	80.007	19.995	103.192	20.181	-4.428	0.477
778.500	468.469	80.006	19.995	103.190	20.180	-4.400	0.495
779.000	468.712	80.006	19.994	103.190	20.182	-4.498	0.476
779.500	468.952	80.007	19.995	103.193	20.180	-4.397	0.469
780.000	469.168	80.005	19.995	103.196	20.182	-4.529	0.469
780.500	469.429	80.007	19.994	103.194	20.184	-4.629	0.466
781.000	469.668	80.007	19.994	103.194	20.180	-4.364	0.489
781.500	469.905	80.008	19.994	103.193	20.182	-4.517	0.488
782.000	470.107	80.004	19.995	103.192	20.180	-4.347	0.458
782.500	470.369	80.008	19.995	103.189	20.179	-4.307	0.451
783.000	470.603	80.006	19.994	103.185	20.183	-4.592	0.480
783.500	470.878	80.005	19.994	103.186	20.181	-4.437	0.503
784.000	471.057	80.008	19.994	103.189	20.181	-4.413	0.482
784.500	471.337	80.006	19.995	103.191	20.182	-4.502	0.457
785.000	471.535	80.007	19.994	103.194	20.181	-4.463	0.468
785.500	471.764	80.010	19.994	103.196	20.179	-4.312	0.452
786.000	472.012	80.007	19.994	103.199	20.181	-4.406	0.453
786.500	472.234	80.006	19.995	103.199	20.178	-4.218	0.474
787.000	472.493	80.008	19.993	103.200	20.180	-4.388	0.475
787.500	472.711	80.007	19.995	103.201	20.180	-4.343	0.478
788.000	472.994	80.008	19.993	103.204	20.179	-4.308	0.489
788.500	473.194	80.008	19.995	103.204	20.181	-4.423	0.492
789.000	473.474	80.007	19.995	103.199	20.181	-4.452	0.482
789.500	473.681	80.008	19.994	103.195	20.182	-4.480	0.483
790.000	473.959	80.007	19.994	103.195	20.183	-4.541	0.486
790.500	474.213	80.008	19.995	103.193	20.181	-4.456	0.509
791.000	474.435	80.007	19.994	103.194	20.182	-4.478	0.504
791.500	474.696	80.007	19.994	103.198	20.179	-4.323	0.480
792.000	474.922	80.006	19.995	103.204	20.184	-4.635	0.485
792.500	475.180	80.007	19.993	103.205	20.183	-4.583	0.485
793.000	475.416	80.005	19.994	103.207	20.182	-4.537	0.489
793.501	475.631	80.002	19.994	103.204	20.184	-4.618	0.472
794.000	475.917	80.003	19.995	103.200	20.181	-4.450	0.476
794.500	476.105	80.003	19.995	103.197	20.184	-4.613	0.488
795.000	476.337	80.004	19.995	103.195	20.184	-4.642	0.447
795.500	476.589	80.005	19.995	103.196	20.184	-4.614	0.452
796.000	476.844	80.004	19.996	103.200	20.183	-4.577	0.495
796.500	477.080	80.004	19.996	103.201	20.183	-4.579	0.499
797.000	477.329	80.004	19.995	103.199	20.186	-4.802	0.488
797.500	477.551	80.004	19.995	103.199	20.184	-4.629	0.478
798.000	477.795	80.005	19.996	103.198	20.183	-4.555	0.469
798.500	478.070	80.007	19.996	103.196	20.181	-4.436	0.492
799.000	478.313	80.004	19.996	103.197	20.184	-4.618	0.518
799.500	478.534	80.003	19.997	103.196	20.184	-4.646	0.491
800.000	478.779	80.004	19.996	103.197	20.186	-4.747	0.465
800.500	479.008	80.003	19.996	103.196	20.184	-4.649	0.470
801.000	479.274	80.005	19.995	103.197	20.183	-4.552	0.484
801.500	479.508	80.004	19.995	103.200	20.182	-4.511	0.498
802.000	479.740	80.005	19.995	103.206	20.184	-4.666	0.483
802.500	480.003	80.006	19.996	103.207	20.184	-4.629	0.481
803.000	480.266	80.006	19.996	103.208	20.183	-4.556	0.510
803.500	480.478	80.003	19.995	103.204	20.185	-4.683	0.500
804.000	480.746	80.004	19.995	103.201	20.185	-4.717	0.478
804.500	480.990	80.005	19.996	103.200	20.183	-4.577	0.496
805.000	481.259	80.004	19.996	103.200	20.186	-4.765	0.512
805.500	481.515	80.003	19.996	103.198	20.184	-4.610	0.519
806.000	481.792	80.005	19.995	103.198	20.186	-4.774	0.529
806.500	482.018	80.004	19.995	103.195	20.187	-4.811	0.518
807.000	482.272	80.003	19.994	103.194	20.182	-4.516	0.491
807.500	482.515	80.005	19.995	103.192	20.182	-4.470	0.488
808.000	482.759	80.005	19.995	103.194	20.184	-4.636	0.492
808.500	483.012	80.005	19.996	103.198	20.184	-4.625	0.492
809.000	483.257	80.003	19.994	103.199	20.183	-4.574	0.498
809.500	483.516	80.003	19.995	103.197	20.182	-4.482	0.501
810.000	483.741	80.004	19.995	103.198	20.180	-4.386	0.494
810.500	484.027	80.003	19.996	103.197	20.183	-4.572	0.497
811.000	484.234	80.004	19.994	103.195	20.185	-4.703	0.502
811.500	484.528	80.006	19.994	103.196	20.186	-4.751	0.497
812.000	484.782	80.006	19.994	103.196	20.182	-4.533	0.525
812.500	485.033	80.007	19.994	103.198	20.184	-4.620	0.526
813.000	485.258	80.004	19.994	103.200	20.180	-4.368	0.491
813.500	485.531	80.005	19.994	103.204	20.183	-4.570	0.487
814.000	485.777	80.005	19.995	103.201	20.185	-4.682	0.508
814.500	486.043	80.005	19.994	103.199	20.182	-4.478	0.515
815.000	486.291	80.005	19.994	103.192	20.184	-4.620	0.513
815.500	486.536	80.004	19.994	103.186	20.184	-4.623	0.504
816.000	486.813	80.004	19.994	103.179	20.185	-4.728	0.508
816.500	487.072	80.007	19.994	103.181	20.185	-4.714	0.529
817.001	487.314	80.004	19.995	103.181	20.185	-4.725	0.519
817.500	487.604	80.004	19.993	103.181	20.184	-4.663	0.516
818.000	487.828	80.005	19.994	103.181	20.182	-4.502	0.523
818.500	488.073	80.002	19.995	103.185	20.187	-4.812	0.492
819.000	488.343	80.005	19.994	103.190	20.185	-4.674	0.492
819.500	488.584	80.006	19.995	103.195	20.185	-4.736	0.513
820.000	488.861	80.002	19.994	103.196	20.186	-4.744	0.514
820.500	489.105	80.004	19.994	103.198	20.186	-4.793	0.519
821.000	489.371	80.003	19.994	103.196	20.187	-4.830	0.516
821.501	489.605	80.005	19.995	103.193	20.186	-4.800	0.505
822.000	489.855	80.004	19.995	103.194	20.184	-4.609	0.492
822.500	490.149	80.004	19.994	103.199	20.186	-4.805	0.514
823.000	490.398	80.003	19.995	103.201	20.184	-4.628	0.544
823.500	490.610	80.004	19.994	103.203	20.186	-4.745	0.502
824.000	490.900	80.004	19.993	103.205	20.185	-4.688	0.481
824.500	491.136	80.003	19.994	103.200	20.184	-4.638	0.514
825.000	491.405	80.003	19.994	103.195	20.186	-4.795	0.516
825.500	491.653	80.000	19.994	103.191	20.187	-4.838	0.511
826.000	491.918	80.002	19.995	103.190	20.188	-4.921	0.515
826.500	492.159	80.005	19.994	103.185	20.187	-4.816	0.509
827.000	492.401	80.004	19.994	103.186	20.189	-4.952	0.494
827.500	492.654	80.003	19.994	103.191	20.184	-4.605	0.489
828.000	492.934	80.003	19.994	103.198	20.185	-4.701	0.514
828.500	493.232	80.003	19.993	103.202	20.185	-4.675	0.555
829.000	493.485	80.004	19.994	103.207	20.184	-4.629	0.564
829.500	493.728	80.002	19.994	103.212	20.186	-4.778	0.523
830.000	494.001	80.004	19.994	103.212	20.183	-4.592	0.506
830.500	494.250	80.003	19.994	103.206	20.186	-4.788	0.519
831.000	494.523	80.004	19.995	103.200	20.185	-4.733	0.522
831.500	494.796	80.006	19.994	103.194	20.187	-4.819	0.534
832.000	495.063	80.004	19.994	103.192	20.187	-4.836	0.543
832.500	495.262	80.003	19.995	103.192	20.186	-4.793	0.503
833.000	495.547	80.005	19.994	103.197	20.187	-4.856	0.475
833.500	495.816	80.003	19.995	103.203	20.186	-4.799	0.519
834.000	496.074	80.003	19.995	103.203	20.189	-4.967	0.540
834.500	496.323	80.007	19.995	103.200	20.186	-4.793	0.517
835.000	496.579	80.002	19.995	103.200	20.185	-4.705	0.506
835.500	496.814	80.003	19.994	103.200	20.184	-4.660	0.498
836.000	497.063	80.005	19.995	103.201	20.186	-4.764	0.487
836.500	497.352	80.005	19.994	103.208	20.188	-4.929	0.511
837.000	497.598	80.006	19.994	103.212	20.187	-4.837	0.537
837.500	497.857	80.004	19.994	103.209	20.185	-4.692	0.520
838.000	498.092	80.004	19.994	103.205	20.187	-4.858	0.500
838.500	498.397	80.006	19.994	103.200	20.186	-4.801	0.517
839.000	498.594	80.007	19.994	103.193	20.185	-4.718	0.521
839.500	498.911	80.006	19.993	103.192	20.186	-4.747	0.508
840.000	499.118	80.004	19.994	103.195	20.188	-4.935	0.519
840.500	499.349	80.007	19.994	103.195	20.187	-4.806	0.481
841.000	499.621	80.007	19.995	103.197	20.187	-4.834	0.470
841.500	499.897	80.004	19.993	103.201	20.186	-4.789	0.526
842.000	500.158	80.004	19.994	103.202	20.187	-4.837	0.543
842.500	500.396	80.006	19.994	103.201	20.188	-4.898	0.518
843.000	500.660	80.006	19.993	103.202	20.191	-5.102	0.500
843.500	500.884	80.005	19.994	103.203	20.189	-4.944	0.495
844.000	501.168	80.007	19.993	103.205	20.191	-5.093	0.499
844.500	501.412	80.007	19.995	103.206	20.184	-4.652	0.519
845.000	501.676	80.004	19.995	103.201	20.187	-4.820	0.518
845.500	501.925	80.005	19.994	103.201	20.187	-4.831	0.510
846.001	502.164	80.005	19.993	103.199	20.186	-4.789	0.501
846.501	502.464	80.006	19.993	103.196	20.189	-4.942	0.514
847.000	502.700	80.004	19.995	103.194	20.186	-4.754	0.537
847.500	502.929	80.005	19.994	103.194	20.184	-4.638	0.500
848.000	503.192	80.008	19.994	103.194	20.188	-4.909	0.478
848.500	503.418	80.004	19.994	103.197	20.189	-4.941	0.491
849.000	503.696	80.006	19.994	103.200	20.188	-4.876	0.497
849.500	503.984	80.005	19.994	103.201	20.189	-4.983	0.535
850.000	504.251	80.007	19.994	103.205	20.190	-5.038	0.560
850.500	504.475	80.004	19.994	103.204	20.192	-5.166	0.523
851.000	504.729	80.003	19.993	103.203	20.189	-5.000	0.484
851.500	504.989	80.006	19.994	103.203	20.188	-4.910	0.496
852.000	505.245	80.006	19.993	103.199	20.191	-5.121	0.516
852.500	505.506	80.008	19.994	103.192	20.190	-5.044	0.517
853.000	505.761	80.004	19.993	103.188	20.190	-5.059	0.516
853.500	506.003	80.005	19.994	103.185	20.189	-4.985	0.506
854.000	506.250	80.004	19.995	103.181	20.186	-4.762	0.493
854.500	506.502	80.004	19.994	103.182	20.187	-4.842	0.494
855.000	506.768	80.005	19.994	103.182	20.191	-5.124	0.508
855.500	507.028	80.007	19.994	103.182	20.190	-5.015	0.522
856.000	507.261	80.005	19.994	103.182	20.188	-4.921	0.510
856.500	507.542	80.005	19.993	103.179	20.189	-4.978	0.504
857.000	507.768	80.004	19.994	103.179	20.188	-4.913	0.511
857.500	508.033	80.007	19.995	103.183	20.187	-4.849	0.499
858.000	508.304	80.006	19.994	103.190	20.189	-4.981	0.514
858.500	508.539	80.004	19.994	103.190	20.190	-5.014	0.521
859.000	508.817	80.005	19.994	103.193	20.190	-5.056	0.509
859.500	509.037	80.006	19.994	103.195	20.192	-5.189	0.505
860.000	509.299	80.006	19.993	103.197	20.190	-5.060	0.490
860.500	509.545	80.006	19.995	103.197	20.189	-4.984	0.495
861.000	509.807	80.006	19.994	103.198	20.190	-5.032	0.508
861.500	510.110	80.005	19.994	103.199	20.191	-5.089	0.536
862.000	510.335	80.006	19.994	103.203	20.192	-5.170	0.547
862.500	510.555	80.008	19.994	103.202	20.193	-5.238	0.487
863.000	510.811	80.007	19.994	103.200	20.192	-5.201	0.460
863.500	511.093	80.005	19.995	103.201	20.192	-5.145	0.507
864.000	511.329	80.005	19.994	103.204	20.191	-5.102	0.528
864.500	511.587	80.006	19.994	103.204	20.189	-4.959	0.506
865.000	511.819	80.007	19.994	103.206	20.193	-5.211	0.492
865.500	512.082	80.005	19.994	103.208	20.191	-5.128	0.493
866.000	512.355	80.008	19.995	103.209	20.192	-5.189	0.516
866.500	512.585	80.007	19.995	103.209	20.193	-5.240	0.520
867.000	512.847	80.008	19.994	103.208	20.193	-5.248	0.497
867.500	513.128	80.006	19.995	103.203	20.192	-5.144	0.517
868.000	513.340	80.007	19.995	103.199	20.193	-5.274	0.518
868.500	513.612	80.006	19.995	103.198	20.193	-5.209	0.488
869.000	513.883	80.007	19.995	103.192	20.192	-5.169	0.513
869.500	514.161	80.007	19.994	103.188	20.194	-5.277	0.546
870.001	514.390	80.008	19.995	103.187	20.195	-5.342	0.528
870.500	514.645	80.005	19.995	103.187	20.193	-5.233	0.496
871.000	514.912	80.003	19.995	103.184	20.193	-5.254	0.503
871.500	515.159	80.008	19.994	103.183	20.191	-5.112	0.518
872.000	515.382	80.006	19.994	103.181	20.190	-5.040	0.492
872.500	515.642	80.006	19.995	103.178	20.196	-5.423	0.477
873.000	515.903	80.006	19.995	103.175	20.196	-5.458	0.502
873.500	516.162	80.007	19.995	103.174	20.194	-5.314	0.520
874.000	516.450	80.004	19.995	103.178	20.193	-5.215	0.534
874.500	516.676	80.004	19.994	103.186	20.194	-5.294	0.531
875.000	516.916	80.005	19.995	103.187	20.195	-5.372	0.490
875.500	517.221	80.003	19.994	103.189	20.194	-5.313	0.506
876.000	517.421	80.004	19.994	103.189	20.195	-5.375	0.525
876.500	517.682	80.004	19.995	103.186	20.193	-5.265	0.483
877.000	517.967	80.005	19.996	103.180	20.193	-5.266	0.503
877.500	518.204	80.006	19.994	103.179	20.191	-5.113	0.534
878.000	518.431	80.003	19.994	103.178	20.195	-5.405	0.493
878.500	518.655	80.004	19.995	103.179	20.195	-5.349	0.458
879.000	518.935	80.006	19.995	103.181	20.194	-5.320	0.478
879.500	519.188	80.005	19.994	103.182	20.195	-5.358	0.519
880.000	519.452	80.003	19.994	103.183	20.192	-5.152	0.525
880.500	519.715	80.005	19.996	103.184	20.192	-5.205	0.522
881.000	519.929	80.005	19.994	103.186	20.191	-5.135	0.502
881.500	520.203	80.004	19.995	103.188	20.190	-5.071	0.482
882.000	520.463	80.005	19.994	103.192	20.190	-5.025	0.511
882.501	520.732	80.005	19.995	103.189	20.193	-5.226	0.531
883.000	520.989	80.003	19.994	103.190	20.193	-5.237	0.528
883.500	521.220	80.005	19.994	103.191	20.191	-5.134	0.507
884.000	521.449	80.003	19.994	103.191	20.193	-5.217	0.474
884.500	521.685	80.005	19.995	103.189	20.190	-5.037	0.462
885.000	521.951	80.003	19.995	103.193	20.194	-5.295	0.484
885.500	522.192	80.006	19.995	103.194	20.194	-5.312	0.505
886.000	522.468	80.004	19.995	103.191	20.193	-5.255	0.512
886.500	522.721	80.006	19.995	103.187	20.194	-5.292	0.523
887.000	522.992	80.005	19.995	103.187	20.191	-5.139	0.526
887.500	523.174	80.003	19.996	103.185	20.193	-5.220	0.488
888.000	523.462	80.005	19.995	103.185	20.191	-5.087	0.461
888.500	523.699	80.005	19.996	103.185	20.191	-5.108	0.498
889.000	523.967	80.006	19.995	103.185	20.193	-5.261	0.516
889.500	524.232	80.004	19.994	103.184	20.191	-5.139	0.519
890.000	524.472	80.005	19.995	103.181	20.191	-5.089	0.519
890.500	524.702	80.004	19.995	103.178	20.194	-5.310	0.487
891.001	524.917	80.005	19.994	103.179	20.191	-5.100	0.458
891.500	525.156	80.003	19.995	103.178	20.192	-5.148	0.450
892.000	525.434	80.004	19.995	103.177	20.195	-5.367	0.486
892.500	525.640	80.004	19.996	103.177	20.192	-5.144	0.500
893.000	525.958	80.004	19.996	103.183	20.193	-5.224	0.504
893.500	526.181	80.004	19.994	103.184	20.191	-5.115	0.532
894.000	526.407	80.005	19.994	103.185	20.189	-4.956	0.495
894.500	526.657	80.004	19.995	103.185	20.191	-5.084	0.463
895.000	526.855	80.005	19.995	103.184	20.192	-5.159	0.461
895.500	527.102	80.005	19.995	103.178	20.194	-5.281	0.446
896.000	527.354	80.005	19.994	103.177	20.191	-5.109	0.472
896.500	527.608	80.005	19.995	103.177	20.188	-4.918	0.503
897.000	527.881	80.005	19.995	103.178	20.193	-5.270	0.517
897.500	528.097	80.003	19.995	103.178	20.190	-5.019	0.508
898.000	528.336	80.004	19.994	103.178	20.193	-5.244	0.472
898.500	528.547	80.005	19.994	103.179	20.190	-5.015	0.453
899.000	528.821	80.005	19.996	103.181	20.192	-5.161	0.468
899.500	529.052	80.005	19.994	103.181	20.191	-5.098	0.495
900.000	529.293	80.003	19.995	103.184	20.190	-5.063	0.488
900.500	529.536	80.004	19.995	103.184	20.189	-4.978	0.478
901.000	529.766	80.005	19.995	103.182	20.188	-4.934	0.479
901.500	530.012	80.004	19.996	103.180	20.192	-5.145	0.474
902.000	530.224	80.004	19.995	103.179	20.190	-5.066	0.467
902.500	530.488	80.006	19.994	103.176	20.190	-5.040	0.467
903.000	530.769	80.005	19.995	103.176	20.188	-4.902	0.510
903.500	530.981	80.005	19.995	103.179	20.188	-4.874	0.519
904.000	531.229	80.003	19.995	103.179	20.189	-4.977	0.477
904.500	531.503	80.005	19.994	103.178	20.193	-5.222	0.491
905.000	531.692	80.006	19.994	103.178	20.190	-5.062	0.492
905.500	531.954	80.004	19.993	103.178	20.192	-5.200	0.457
906.000	532.194	80.005	19.995	103.176	20.193	-5.213	0.476
906.500	532.421	80.005	19.995	103.177	20.192	-5.189	0.484
907.000	532.668	80.004	19.994	103.177	20.194	-5.306	0.471
907.500	532.881	80.006	19.994	103.178	20.191	-5.116	0.467
908.000	533.152	80.003	19.994	103.179	20.192	-5.186	0.472
908.500	533.385	80.005	19.994	103.179	20.191	-5.083	0.494
909.000	533.606	80.006	19.993	103.177	20.192	-5.175	0.479
909.500	533.873	80.006	19.995	103.177	20.192	-5.160	0.471
910.000	534.091	80.006	19.995	103.176	20.192	-5.145	0.487
910.500	534.349	80.005	19.994	103.174	20.192	-5.193	0.480
911.000	534.602	80.006	19.995	103.174	20.192	-5.165	0.493
911.500	534.824	80.004	19.994	103.174	20.194	-5.303	0.493
912.000	535.083	80.005	19.994	103.179	20.193	-5.272	0.479
912.500	535.325	80.005	19.994	103.184	20.191	-5.095	0.491
913.000	535.583	80.006	19.994	103.189	20.192	-5.147	0.500
913.500	535.809	80.006	19.995	103.192	20.194	-5.287	0.492
914.000	536.064	80.004	19.995	103.197	20.194	-5.318	0.483
914.500	536.326	80.008	19.994	103.195	20.195	-5.371	0.499
915.000	536.588	80.005	19.994	103.192	20.195	-5.366	0.520
915.500	536.779	80.005	19.993	103.189	20.197	-5.519	0.488
916.000	537.039	80.004	19.993	103.189	20.195	-5.392	0.452
916.500	537.295	80.005	19.993	103.191	20.195	-5.363	0.484
917.000	537.551	80.006	19.995	103.193	20.196	-5.451	0.514
917.500	537.774	80.006	19.993	103.194	20.198	-5.589	0.496
918.000	538.031	80.007	19.994	103.196	20.198	-5.575	0.480
918.500	538.283	80.007	19.994	103.198	20.197	-5.512	0.494
919.000	538.558	80.008	19.993	103.199	20.199	-5.639	0.518
919.500	538.797	80.006	19.993	103.197	20.197	-5.495	0.521
920.000	539.040	80.007	19.994	103.196	20.199	-5.621	0.498
920.500	539.284	80.005	19.993	103.193	20.195	-5.355	0.485
921.000	539.556	80.005	19.995	103.191	20.195	-5.372	0.502
921.500	539.782	80.006	19.994	103.186	20.193	-5.257	0.507
922.000	540.067	80.006	19.994	103.186	20.194	-5.314	0.504
922.500	540.294	80.007	19.993	103.188	20.197	-5.480	0.512
923.000	540.543	80.006	19.993	103.193	20.196	-5.460	0.494
923.500	540.788	80.003	19.994	103.193	20.197	-5.538	0.485
924.000	541.031	80.005	19.994	103.191	20.199	-5.652	0.491
924.500	541.279	80.010	19.994	103.189	20.199	-5.654	0.489
925.000	541.523	80.006	19.994	103.188	20.200	-5.680	0.491
925.500	541.775	80.007	19.994	103.184	20.200	-5.718	0.494
926.000	541.993	80.007	19.994	103.188	20.198	-5.563	0.483
926.500	542.278	80.007	19.995	103.195	20.198	-5.556	0.487
927.000	542.503	80.006	19.995	103.200	20.199	-5.633	0.507
927.500	542.782	80.006	19.994	103.200	20.197	-5.523	0.506
928.000	543.041	80.005	19.995	103.200	20.201	-5.768	0.521
928.500	543.299	80.005	19.994	103.194	20.198	-5.582	0.528
929.000	543.543	80.006	19.994	103.191	20.198	-5.605	0.509
929.500	543.795	80.005	19.994	103.189	20.197	-5.532	0.499
930.000	544.022	80.008	19.995	103.189	20.199	-5.632	0.488
930.500	544.301	80.009	19.995	103.190	20.200	-5.715	0.493
931.000	544.532	80.007	19.994	103.191	20.197	-5.531	0.508
931.500	544.778	80.006	19.994	103.190	20.198	-5.603	0.494
932.000	545.049	80.006	19.995	103.189	20.195	-5.374	0.497
932.500	545.256	80.006	19.993	103.188	20.198	-5.558	0.497
933.000	545.534	80.010	19.994	103.189	20.196	-5.456	0.481
933.500	545.776	80.005	19.995	103.188	20.197	-5.478	0.503
934.000	546.044	80.007	19.995	103.187	20.196	-5.449	0.516
934.500	546.286	80.007	19.995	103.189	20.197	-5.539	0.510
935.000	546.509	80.007	19.995	103.191	20.198	-5.585	0.487
935.500	546.792	80.006	19.995	103.191	20.201	-5.762	0.485
936.000	547.013	80.007	19.993	103.191	20.198	-5.582	0.504
936.500	547.309	80.009	19.994	103.189	20.200	-5.689	0.510
937.000	547.561	80.006	19.994	103.186	20.197	-5.484	0.532
937.500	547.792	80.009	19.995	103.186	20.197	-5.506	0.516
938.000	548.032	80.006	19.994	103.189	20.198	-5.549	0.477
938.500	548.298	80.007	19.994	103.195	20.199	-5.630	0.489
939.000	548.574	80.007	19.994	103.196	20.198	-5.572	0.524
939.500	548.838	80.009	19.994	103.200	20.198	-5.572	0.541
940.000	549.071	80.006	19.994	103.201	20.197	-5.495	0.518
940.500	549.324	80.007	19.994	103.196	20.199	-5.626	0.491
941.000	549.564	80.005	19.993	103.197	20.198	-5.547	0.490
941.500	549.833	80.007	19.994	103.202	20.197	-5.541	0.501
942.000	550.090	80.007	19.993	103.202	20.199	-5.615	0.518
942.500	550.307	80.008	19.994	103.200	20.197	-5.528	0.500
943.000	550.576	80.007	19.994	103.201	20.197	-5.477	0.480
943.500	550.815	80.009	19.994	103.195	20.200	-5.678	0.497
944.000	551.081	80.010	19.994	103.190	20.196	-5.418	0.507
944.500	551.330	80.007	19.994	103.185	20.197	-5.481	0.510
945.000	551.572	80.006	19.994	103.184	20.198	-5.599	0.503
945.500	551.850	80.008	19.994	103.187	20.196	-5.465	0.506
946.000	552.087	80.008	19.993	103.187	20.194	-5.285	0.518
946.500	552.324	80.008	19.994	103.187	20.194	-5.337	0.494
947.000	552.575	80.007	19.994	103.190	20.197	-5.497	0.481
947.500	552.866	80.008	19.994	103.193	20.198	-5.582	0.515
948.000	553.109	80.008	19.993	103.188	20.198	-5.551	0.538
948.500	553.343	80.005	19.993	103.190	20.202	-5.837	0.506
949.000	553.606	80.008	19.994	103.188	20.199	-5.611	0.487
949.500	553.851	80.009	19.995	103.186	20.199	-5.630	0.502
950.000	554.142	80.008	19.995	103.182	20.198	-5.563	0.522
950.500	554.383	80.009	19.993	103.185	20.199	-5.650	0.534
951.000	554.634	80.006	19.994	103.185	20.195	-5.401	0.512
951.500	554.902	80.006	19.994	103.191	20.199	-5.643	0.505
952.000	555.127	80.005	19.994	103.193	20.196	-5.471	0.506
952.500	555.388	80.005	19.994	103.193	20.197	-5.480	0.490
953.000	555.626	80.004	19.995	103.191	20.199	-5.617	0.493
953.500	555.905	80.006	19.994	103.191	20.201	-5.781	0.508
954.000	556.158	80.004	19.995	103.192	20.200	-5.701	0.524
954.500	556.383	80.005	19.994	103.192	20.197	-5.539	0.505
955.000	556.638	80.006	19.995	103.194	20.200	-5.733	0.479
955.500	556.851	80.004	19.994	103.194	20.199	-5.664	0.474
956.000	557.126	80.004	19.994	103.192	20.200	-5.711	0.478
956.500	557.387	80.004	19.994	103.185	20.198	-5.583	0.512
957.000	557.616	80.004	19.994	103.185	20.197	-5.508	0.513
957.500	557.894	80.006	19.994	103.188	20.200	-5.718	0.499
958.000	558.091	80.005	19.995	103.193	20.199	-5.664	0.491
958.500	558.336	80.004	19.995	103.195	20.199	-5.646	0.458
959.000	558.629	80.004	19.994	103.198	20.198	-5.602	0.490
959.500	558.862	80.004	19.994	103.196	20.199	-5.617	0.532
960.000	559.127	80.004	19.994	103.192	20.200	-5.687	0.512
960.500	559.348	80.005	19.996	103.188	20.201	-5.795	0.492
961.000	559.601	80.004	19.993	103.187	20.200	-5.722	0.480
961.500	559.875	80.004	19.995	103.186	20.198	-5.572	0.501
962.000	560.150	80.005	19.995	103.188	20.200	-5.703	0.538
962.500	560.385	80.004	19.993	103.187	20.200	-5.686	0.529
963.000	560.623	80.004	19.995	103.187	20.199	-5.612	0.491
963.500	560.844	80.005	19.995	103.186	20.198	-5.605	0.466
964.000	561.107	80.005	19.995	103.186	20.197	-5.507	0.471
964.500	561.368	80.006	19.993	103.183	20.200	-5.705	0.504
965.000	561.598	80.003	19.994	103.185	20.197	-5.504	0.508
965.500	561.840	80.005	19.995	103.186	20.196	-5.442	0.481
966.000	562.120	80.006	19.994	103.186	20.199	-5.634	0.497
966.501	562.379	80.005	19.996	103.184	20.202	-5.831	0.531
967.000	562.638	80.006	19.994	103.184	20.200	-5.710	0.529
967.500	562.871	80.006	19.994	103.180	20.198	-5.560	0.505
968.000	563.131	80.006	19.996	103.179	20.202	-5.854	0.492
968.500	563.355	80.005	19.995	103.180	20.198	-5.571	0.489
969.000	563.618	80.005	19.994	103.184	20.197	-5.507	0.486
969.500	563.875	80.004	19.994	103.185	20.197	-5.529	0.503
970.000	564.115	80.006	19.994	103.191	20.201	-5.757	0.508
970.500	564.376	80.005	19.994	103.193	20.197	-5.534	0.499
971.000	564.630	80.005	19.994	103.189	20.199	-5.664	0.509
971.500	564.841	80.006	19.996	103.186	20.199	-5.618	0.490
972.000	565.102	80.006	19.994	103.185	20.197	-5.486	0.468
972.500	565.360	80.005	19.995	103.178	20.198	-5.587	0.495
973.000	565.609	80.005	19.993	103.175	20.197	-5.537	0.513
973.500	565.874	80.004	19.994	103.175	20.201	-5.775	0.510
974.000	566.112	80.006	19.995	103.175	20.197	-5.496	0.509
974.500	566.358	80.002	19.995	103.175	20.196	-5.460	0.494
975.000	566.600	80.002	19.994	103.176	20.197	-5.498	0.486
975.500	566.860	80.005	19.995	103.180	20.201	-5.803	0.495
976.000	567.136	80.006	19.995	103.184	20.197	-5.497	0.519
976.500	567.357	80.003	19.994	103.190	20.201	-5.786	0.517
977.000	567.597	80.006	19.995	103.198	20.200	-5.727	0.479
977.501	567.824	80.004	19.995	103.203	20.200	-5.723	0.464
978.000	568.105	80.005	19.995	103.203	20.199	-5.657	0.488
978.500	568.369	80.006	19.995	103.204	20.200	-5.685	0.527
979.000	568.612	80.004	19.995	103.203	20.198	-5.583	0.526
979.500	568.835	80.006	19.995	103.201	20.197	-5.532	0.486
980.000	569.104	80.002	19.995	103.197	20.201	-5.773	0.479
980.500	569.369	80.004	19.995	103.193	20.202	-5.865	0.513
981.000	569.621	80.006	19.995	103.191	20.200	-5.693	0.525
981.500	569.868	80.005	19.995	103.186	20.201	-5.766	0.508
982.000	570.125	80.001	19.994	103.181	20.201	-5.778	0.501
982.500	570.399	80.004	19.995	103.182	20.202	-5.851	0.518
983.000	570.614	80.004	19.995	103.183	20.203	-5.910	0.510
983.500	570.875	80.004	19.995	103.182	20.203	-5.893	0.483
984.000	571.118	80.004	19.996	103.183	20.199	-5.670	0.490
984.500	571.341	80.004	19.995	103.182	20.200	-5.685	0.484
985.000	571.616	80.003	19.996	103.179	20.200	-5.692	0.482
985.500	571.868	80.005	19.996	103.180	20.198	-5.603	0.513
986.000	572.090	80.003	19.995	103.183	20.200	-5.741	0.500
986.500	572.386	80.004	19.996	103.184	20.201	-5.786	0.496
987.000	572.620	80.004	19.995	103.183	20.198	-5.607	0.524
987.500	572.874	80.003	19.996	103.183	20.199	-5.641	0.509
988.000	573.114	80.003	19.996	103.181	20.202	-5.860	0.491
988.500	573.386	80.005	19.997	103.182	20.202	-5.822	0.503
989.000	573.671	80.003	19.996	103.183	20.201	-5.762	0.535
989.500	573.942	80.004	19.996	103.186	20.199	-5.646	0.556
990.000	574.199	80.005	19.995	103.185	20.200	-5.724	0.542
990.500	574.460	80.003	19.996	103.185	20.202	-5.836	0.523
991.000	574.699	80.004	19.996	103.179	20.198	-5.548	0.509
991.500	574.974	80.003	19.996	103.176	20.198	-5.596	0.507
992.000	575.205	80.006	19.995	103.175	20.197	-5.493	0.510
992.500	575.473	80.006	19.994	103.179	20.199	-5.643	0.503
993.000	575.744	80.004	19.994	103.179	20.199	-5.647	0.519
993.500	575.998	80.005	19.995	103.187	20.197	-5.540	0.532
994.000	576.226	80.005	19.994	103.193	20.201	-5.747	0.503
994.500	576.489	80.005	19.996	103.192	20.200	-5.703	0.486
995.000	576.777	80.005	19.995	103.189	20.202	-5.835	0.521
995.500	576.970	80.006	19.995	103.188	20.198	-5.586	0.516
996.000	577.277	80.007	19.994	103.182	20.201	-5.787	0.491
996.500	577.502	80.006	19.994	103.175	20.202	-5.875	0.517
997.000	577.771	80.005	19.995	103.175	20.202	-5.870	0.513
997.500	578.028	80.006	19.995	103.180	20.205	-6.056	0.510
998.000	578.278	80.007	19.996	103.185	20.202	-5.858	0.516
998.500	578.531	80.008	19.994	103.186	20.202	-5.853	0.505
999.000	578.791	80.007	19.993	103.188	20.204	-5.946	0.508
999.500	579.041	80.006	19.994	103.191	20.204	-6.002	0.511
1000.000	579.295	80.006	19.994	103.190	20.207	-6.149	0.507
1000.500	579.525	80.009	19.994	103.187	20.205	-6.063	0.494
1001.001	579.782	80.006	19.994	103.187	20.206	-6.083	0.485
1001.500	580.069	80.006	19.995	103.186	20.203	-5.918	0.516
1002.000	580.303	80.006	19.993	103.184	20.207	-6.152	0.533
1002.500	580.574	80.006	19.995	103.182	20.206	-6.082	0.513
1003.000	580.823	80.006	19.995	103.184	20.206	-6.100	0.512
1003.500	581.047	80.006	19.994	103.189	20.204	-6.008	0.497
1004.000	581.327	80.005	19.993	103.196	20.206	-6.127	0.489
1004.500	581.581	80.006	19.994	103.200	20.203	-5.919	0.519
1005.000	581.846	80.006	19.994	103.206	20.203	-5.937	0.526
1005.500	582.097	80.005	19.994	103.209	20.204	-5.983	0.517
1006.000	582.328	80.005	19.994	103.202	20.203	-5.921	0.499
1006.500	582.591	80.006	19.994	103.196	20.204	-5.967	0.488
1007.001	582.857	80.006	19.995	103.195	20.203	-5.886	0.511
1007.500	583.108	80.004	19.994	103.195	20.204	-5.975	0.523
1008.000	583.382	80.005	19.994	103.193	20.204	-5.947	0.521
1008.500	583.645	80.004	19.995	103.192	20.203	-5.901	0.531
1009.000	583.905	80.006	19.994	103.192	20.203	-5.942	0.530
1009.500	584.127	80.004	19.995	103.189	20.203	-5.933	0.502
1010.000	584.403	80.005	19.995	103.183	20.204	-5.997	0.490
1010.500	584.625	80.006	19.994	103.182	20.202	-5.848	0.498
1011.000	584.891	80.007	19.994	103.185	20.203	-5.923	0.493
1011.500	585.174	80.006	19.995	103.185	20.202	-5.827	0.519
1012.000	585.429	80.005	19.995	103.188	20.202	-5.839	0.544
1012.500	585.669	80.007	19.994	103.195	20.202	-5.817	0.516
1013.000	585.954	80.005	19.995	103.194	20.205	-6.066	0.510
1013.500	586.186	80.006	19.993	103.193	20.203	-5.893	0.521
1014.000	586.472	80.006	19.994	103.192	20.202	-5.879	0.517
1014.500	586.727	80.005	19.993	103.190	20.205	-6.039	0.529
1015.000	586.976	80.005	19.994	103.185	20.204	-5.947	0.522
1015.500	587.201	80.006	19.995	103.184	20.205	-6.070	0.489
1016.000	587.481	80.006	19.994	103.182	20.204	-5.950	0.489
1016.500	587.752	80.004	19.994	103.183	20.203	-5.915	0.528
1017.000	587.973	80.006	19.994	103.182	20.204	-5.966	0.522
1017.500	588.250	80.006	19.993	103.182	20.205	-6.051	0.495
1018.000	588.489	80.006	19.994	103.186	20.204	-5.994	0.507
1018.500	588.707	80.004	19.994	103.193	20.205	-6.048	0.487
1019.000	588.999	80.007	19.993	103.196	20.207	-6.212	0.483
1019.500	589.253	80.006	19.994	103.203	20.207	-6.189	0.528
1020.000	589.503	80.005	19.994	103.209	20.200	-5.716	0.525
1020.500	589.757	80.007	19.994	103.209	20.204	-5.986	0.504
1021.000	590.035	80.006	19.993	103.204	20.203	-5.907	0.518
1021.500	590.278	80.006	19.993	103.201	20.203	-5.911	0.527
1022.000	590.556	80.008	19.994	103.193	20.200	-5.709	0.521
1022.500	590.789	80.007	19.993	103.186	20.204	-6.011	0.516
1023.000	591.052	80.009	19.994	103.181	20.202	-5.847	0.503
1023.500	591.277	80.007	19.993	103.180	20.204	-5.972	0.492
1024.001	591.527	80.008	19.994	103.181	20.203	-5.937	0.482
1024.501	591.814	80.008	19.994	103.186	20.201	-5.751	0.506
1025.001	592.090	80.010	19.993	103.190	20.205	-6.017	0.549
1025.500	592.326	80.005	19.993	103.189	20.204	-5.987	0.537
1026.000	592.564	80.007	19.994	103.188	20.201	-5.799	0.493
1026.500	592.819	80.008	19.993	103.187	20.204	-5.974	0.484
1027.000	593.088	80.008	19.993	103.183	20.204	-5.997	0.509
1027.500	593.342	80.008	19.993	103.178	20.199	-5.643	0.524
1028.000	593.606	80.008	19.993	103.178	20.202	-5.856	0.521
1028.500	593.852	80.008	19.994	103.178	20.203	-5.893	0.514
1029.000	594.112	80.006	19.993	103.179	20.201	-5.802	0.507
1029.500	594.401	80.008	19.994	103.178	20.201	-5.809	0.528
1030.001	594.658	80.006	19.994	103.178	20.203	-5.910	0.548
1030.501	594.884	80.006	19.994	103.177	20.202	-5.859	0.514
1031.000	595.173	80.006	19.994	103.176	20.202	-5.826	0.499
1031.500	595.440	80.007	19.994	103.175	20.198	-5.584	0.535
1032.000	595.682	80.006	19.993	103.177	20.200	-5.707	0.532
1032.500	595.952	80.007	19.993	103.181	20.203	-5.899	0.510
1033.000	596.185	80.005	19.994	103.185	20.202	-5.843	0.508
1033.500	596.433	80.006	19.993	103.186	20.200	-5.690	0.492
1034.000	596.736	80.006	19.994	103.188	20.202	-5.816	0.516
1034.500	596.969	80.004	19.994	103.186	20.196	-5.449	0.544
1035.000	597.215	80.006	19.993	103.183	20.202	-5.840	0.508
1035.500	597.461	80.006	19.992	103.183	20.204	-5.951	0.486
1036.000	597.704	80.005	19.994	103.185	20.201	-5.770	0.491
1036.501	597.993	80.005	19.993	103.187	20.201	-5.755	0.510
1037.001	598.218	80.006	19.993	103.187	20.204	-5.952	0.523
1037.500	598.499	80.005	19.994	103.187	20.201	-5.787	0.510
1038.000	598.777	80.005	19.994	103.189	20.204	-5.978	0.532
1038.500	599.019	80.004	19.993	103.190	20.205	-6.043	0.539
1039.000	599.303	80.005	19.994	103.188	20.205	-6.033	0.523
1039.500	599.509	80.005	19.995	103.192	20.203	-5.890	0.508
1040.000	599.743	80.005	19.994	103.198	20.202	-5.829	0.465
1040.501	600.044	80.004	19.994	103.198	20.203	-5.932	0.488
1041.001	600.294	80.004	19.994	103.198	20.202	-5.862	0.543
1041.501	600.561	80.005	19.993	103.204	20.205	-6.054	0.534
1042.000	600.809	80.005	19.995	103.204	20.206	-6.142	0.516
1042.500	601.074	80.005	19.994	103.198	20.203	-5.919	0.514
1043.000	601.331	80.004	19.995	103.195	20.204	-5.980	0.518
1043.500	601.585	80.005	19.995	103.189	20.205	-6.059	0.517
1044.000	601.824	80.005	19.994	103.184	20.203	-5.944	0.502
1044.500	602.096	80.004	19.994	103.179	20.203	-5.905	0.502
1045.000	602.340	80.005	19.995	103.184	20.202	-5.874	0.514
1045.500	602.610	80.005	19.995	103.187	20.204	-5.981	0.515
1046.000	602.886	80.005	19.994	103.192	20.205	-6.079	0.530
1046.500	603.147	80.005	19.995	103.196	20.204	-6.006	0.541
1047.000	603.407	80.005	19.994	103.195	20.206	-6.082	0.529
1047.500	603.632	80.006	19.994	103.194	20.205	-6.034	0.503
1048.001	603.933	80.004	19.994	103.192	20.207	-6.181	0.505
1048.501	604.166	80.005	19.995	103.193	20.209	-6.331	0.530
1049.001	604.468	80.005	19.995	103.189	20.206	-6.135	0.535
1049.501	604.709	80.006	19.994	103.192	20.206	-6.146	0.539
1050.000	604.991	80.005	19.994	103.189	20.206	-6.129	0.533
1050.500	605.236	80.006	19.995	103.188	20.208	-6.242	0.525
1051.000	605.514	80.006	19.995	103.187	20.207	-6.161	0.525
1051.500	605.770	80.005	19.995	103.192	20.208	-6.268	0.529
1052.000	606.019	80.005	19.994	103.192	20.207	-6.209	0.520
1052.500	606.304	80.005	19.995	103.191	20.206	-6.083	0.519
1053.000	606.549	80.006	19.995	103.190	20.206	-6.118	0.532
1053.500	606.811	80.005	19.995	103.189	20.204	-5.960	0.519
1054.000	607.052	80.005	19.994	103.189	20.205	-6.053	0.505
1054.500	607.308	80.006	19.994	103.194	20.206	-6.132	0.500
1055.000	607.583	80.006	19.994	103.201	20.204	-5.996	0.514
1055.500	607.868	80.006	19.995	103.207	20.207	-6.186	0.545
1056.000	608.152	80.007	19.994	103.208	20.205	-6.047	0.564
1056.500	608.372	80.006	19.995	103.206	20.203	-5.915	0.536
1057.000	608.621	80.005	19.995	103.205	20.205	-6.073	0.486
1057.500	608.881	80.005	19.994	103.201	20.202	-5.830	0.489
1058.000	609.138	80.006	19.995	103.200	20.205	-6.048	0.513
1058.500	609.432	80.005	19.995	103.200	20.207	-6.151	0.534
1059.000	609.689	80.004	19.994	103.199	20.202	-5.871	0.551
1059.500	609.930	80.005	19.995	103.196	20.205	-6.051	0.524
1060.000	610.197	80.006	19.994	103.195	20.205	-6.060	0.503
1060.500	610.462	80.004	19.995	103.192	20.205	-6.029	0.520
1061.000	610.721	80.005	19.996	103.193	20.205	-6.070	0.528
1061.501	610.960	80.004	19.995	103.196	20.205	-6.017	0.511
1062.001	611.229	80.004	19.994	103.195	20.207	-6.148	0.503
1062.500	611.475	80.004	19.995	103.199	20.209	-6.296	0.511
1063.000	611.770	80.006	19.996	103.198	20.202	-5.836	0.528
1063.500	611.990	80.005	19.994	103.193	20.205	-6.058	0.528
1064.001	612.276	80.005	19.995	103.189	20.206	-6.097	0.510
1064.501	612.549	80.005	19.995	103.189	20.206	-6.085	0.533
1065.000	612.780	80.004	19.995	103.183	20.205	-6.079	0.532
1065.500	613.068	80.005	19.994	103.181	20.207	-6.170	0.511
1066.000	613.276	80.006	19.994	103.180	20.206	-6.114	0.507
1066.500	613.539	80.005	19.994	103.177	20.204	-6.002	0.484
1067.000	613.802	80.005	19.995	103.177	20.205	-6.054	0.499
1067.500	614.052	80.005	19.994	103.178	20.206	-6.120	0.520
1068.000	614.297	80.004	19.996	103.179	20.206	-6.139	0.504
1068.500	614.592	80.005	19.995	103.180	20.204	-5.949	0.517
1069.000	614.808	80.003	19.994	103.180	20.207	-6.150	0.525
1069.500	615.094	80.004	19.995	103.181	20.206	-6.142	0.506
1070.000	615.329	80.005	19.995	103.180	20.207	-6.169	0.512
1070.500	615.587	80.005	19.995	103.179	20.207	-6.166	0.508
1071.000	615.832	80.003	19.995	103.179	20.207	-6.175	0.498
1071.501	616.103	80.003	19.994	103.180	20.208	-6.225	0.509
1072.001	616.372	80.004	19.995	103.187	20.208	-6.243	0.528
1072.500	616.594	80.004	19.995	103.193	20.207	-6.155	0.516
1073.000	616.868	80.004	19.996	103.199	20.206	-6.093	0.494
1073.500	617.109	80.005	19.995	103.207	20.207	-6.150	0.506
1074.000	617.380	80.005	19.995	103.213	20.206	-6.091	0.513
1074.500	617.598	80.004	19.995	103.208	20.205	-6.077	0.500
1075.000	617.882	80.004	19.996	103.201	20.207	-6.204	0.496
1075.500	618.145	80.005	19.995	103.195	20.206	-6.117	0.525
1076.001	618.378	80.006	19.995	103.189	20.204	-5.951	0.521
1076.501	618.621	80.006	19.995	103.184	20.205	-6.033	0.486
1077.000	618.855	80.006	19.996	103.185	20.203	-5.945	0.477
1077.500	619.099	80.006	19.995	103.186	20.207	-6.156	0.478
1078.000	619.367	80.005	19.996	103.189	20.207	-6.158	0.495
1078.500	619.645	80.006	19.995	103.194	20.205	-6.069	0.529
1079.000	619.886	80.005	19.995	103.195	20.204	-5.997	0.532
1079.500	620.177	80.006	19.995	103.192	20.206	-6.113	0.525
1080.000	620.431	80.006	19.995	103.191	20.202	-5.817	0.538
1080.500	620.666	80.005	19.994	103.189	20.200	-5.728	0.517
1081.000	620.920	80.006	19.995	103.183	20.203	-5.905	0.489
1081.500	621.162	80.005	19.994	103.183	20.203	-5.941	0.493
1082.000	621.410	80.005	19.995	103.187	20.205	-6.072	0.493
1082.500	621.665	80.006	19.995	103.188	20.204	-5.993	0.497
1083.000	621.930	80.005	19.994	103.188	20.206	-6.116	0.512
1083.500	622.163	80.006	19.993	103.193	20.204	-6.000	0.508
1084.000	622.439	80.006	19.995	103.193	20.206	-6.090	0.503
1084.500	622.665	80.004	19.995	103.192	20.206	-6.137	0.506
1085.000	622.918	80.005	19.993	103.197	20.205	-6.050	0.490
1085.500	623.145	80.006	19.994	103.202	20.207	-6.192	0.480
1086.000	623.429	80.005	19.994	103.199	20.204	-5.998	0.496
1086.500	623.658	80.005	19.994	103.197	20.208	-6.226	0.512
1087.000	623.928	80.005	19.993	103.195	20.205	-6.031	0.506
1087.500	624.165	80.004	19.993	103.189	20.204	-6.006	0.503
1088.000	624.417	80.006	19.994	103.182	20.207	-6.166	0.498
1088.500	624.659	80.006	19.993	103.181	20.207	-6.187	0.492
1089.001	624.904	80.006	19.993	103.184	20.207	-6.150	0.490
1089.501	625.147	80.005	19.994	103.191	20.204	-6.012	0.487
1090.000	625.404	80.005	19.994	103.197	20.206	-6.141	0.494
1090.501	625.622	80.007	19.993	103.198	20.207	-6.196	0.487
1091.001	625.895	80.005	19.995	103.201	20.207	-6.182	0.483
1091.500	626.171	80.005	19.994	103.199	20.205	-6.042	0.520
1092.001	626.377	80.005	19.993	103.192	20.206	-6.118	0.516
1092.501	626.608	80.005	19.994	103.188	20.207	-6.160	0.459
1093.000	626.898	80.005	19.993	103.186	20.205	-6.039	0.479
1093.501	627.104	80.005	19.994	103.184	20.205	-6.015	0.509
1094.001	627.388	80.006	19.994	103.187	20.206	-6.106	0.494
1094.500	627.611	80.005	19.995	103.189	20.203	-5.923	0.499
1095.000	627.870	80.007	19.995	103.188	20.207	-6.206	0.494
1095.500	628.144	80.006	19.994	103.187	20.206	-6.129	0.507
1096.000	628.411	80.006	19.994	103.188	20.205	-6.038	0.537
1096.500	628.668	80.007	19.995	103.183	20.206	-6.092	0.533
1097.000	628.899	80.005	19.994	103.181	20.204	-5.949	0.506
1097.500	629.163	80.006	19.993	103.181	20.205	-6.043	0.491
1098.000	629.433	80.006	19.994	103.186	20.206	-6.082	0.514
1098.500	629.639	80.007	19.993	103.189	20.204	-6.010	0.505
1099.000	629.920	80.006	19.993	103.193	20.204	-5.973	0.482
1099.500	630.170	80.007	19.994	103.197	20.207	-6.180	0.509
1100.000	630.430	80.006	19.994	103.199	20.208	-6.278	0.520
1100.500	630.657	80.007	19.994	103.200	20.206	-6.147	0.498
1101.000	630.954	80.007	19.995	103.201	20.208	-6.278	0.506
1101.500	631.214	80.007	19.994	103.203	20.206	-6.145	0.541
1102.000	631.448	80.008	19.994	103.204	20.208	-6.274	0.525
1102.501	631.707	80.008	19.994	103.209	20.206	-6.145	0.494
1103.001	631.970	80.008	19.994	103.209	20.209	-6.295	0.508
1103.501	632.206	80.008	19.994	103.202	20.205	-6.076	0.510
1104.001	632.488	80.008	19.993	103.196	20.210	-6.352	0.509
1104.500	632.738	80.008	19.994	103.196	20.205	-6.079	0.525
1105.001	632.988	80.007	19.994	103.195	20.209	-6.317	0.516
1105.501	633.209	80.009	19.993	103.196	20.207	-6.194	0.485
1106.001	633.494	80.008	19.994	103.204	20.206	-6.106	0.488
1106.501	633.714	80.007	19.994	103.211	20.207	-6.180	0.505
1107.000	633.981	80.007	19.994	103.210	20.210	-6.366	0.496
1107.500	634.226	80.008	19.993	103.206	20.207	-6.169	0.500
1108.000	634.502	80.008	19.994	103.202	20.207	-6.206	0.517
1108.500	634.770	80.007	19.992	103.199	20.207	-6.206	0.532
1109.000	635.030	80.007	19.994	103.194	20.207	-6.154	0.536
1109.500	635.263	80.006	19.994	103.195	20.208	-6.224	0.511
1110.000	635.532	80.006	19.994	103.198	20.210	-6.366	0.497
1110.500	635.771	80.008	19.994	103.199	20.209	-6.316	0.505
1111.000	636.051	80.005	19.993	103.203	20.209	-6.298	0.514
1111.501	636.302	80.005	19.994	103.205	20.210	-6.399	0.525
1112.001	636.579	80.008	19.993	103.203	20.210	-6.382	0.530
1112.501	636.794	80.006	19.993	103.204	20.208	-6.266	0.510
1113.001	637.060	80.007	19.994	103.204	20.207	-6.174	0.487
1113.500	637.364	80.007	19.993	103.198	20.208	-6.251	0.525
1114.001	637.599	80.005	19.994	103.194	20.211	-6.424	0.554
1114.501	637.855	80.006	19.993	103.190	20.208	-6.242	0.515
1115.001	638.091	80.004	19.993	103.185	20.206	-6.102	0.492
1115.500	638.391	80.005	19.994	103.185	20.205	-6.062	0.514
1116.000	638.609	80.006	19.994	103.191	20.207	-6.149	0.527
1116.500	638.861	80.004	19.994	103.197	20.209	-6.309	0.494
1117.000	639.166	80.005	19.993	103.203	20.210	-6.374	0.513
1117.500	639.412	80.004	19.994	103.207	20.209	-6.322	0.553
1118.000	639.669	80.003	19.994	103.210	20.209	-6.300	0.527
1118.500	639.926	80.005	19.994	103.210	20.209	-6.335	0.508
1119.001	640.150	80.006	19.993	103.209	20.209	-6.315	0.497
1119.501	640.437	80.005	19.994	103.209	20.212	-6.490	0.496
1120.000	640.684	80.004	19.993	103.208	20.210	-6.385	0.523
1120.500	640.934	80.006	19.993	103.208	20.210	-6.405	0.516
1121.000	641.215	80.005	19.994	103.205	20.207	-6.150	0.514
1121.500	641.461	80.005	19.994	103.206	20.211	-6.422	0.529
1122.000	641.681	80.005	19.994	103.207	20.209	-6.328	0.496
1122.500	641.984	80.005	19.994	103.205	20.211	-6.417	0.494
1123.000	642.241	80.005	19.993	103.200	20.213	-6.609	0.542
1123.500	642.511	80.005	19.993	103.197	20.211	-6.431	0.544
1124.000	642.758	80.006	19.993	103.195	20.211	-6.475	0.522
1124.500	643.005	80.004	19.993	103.191	20.209	-6.348	0.505
1125.001	643.244	80.004	19.994	103.191	20.213	-6.573	0.490
1125.501	643.496	80.005	19.995	103.196	20.214	-6.654	0.488
1126.000	643.746	80.006	19.994	103.202	20.212	-6.487	0.497
1126.500	643.985	80.005	19.994	103.205	20.211	-6.456	0.496
1127.000	644.282	80.005	19.993	103.209	20.210	-6.402	0.513
1127.500	644.501	80.004	19.994	103.211	20.210	-6.374	0.526
1128.000	644.766	80.007	19.993	103.208	20.211	-6.457	0.500
1128.500	645.008	80.005	19.994	103.206	20.211	-6.472	0.496
1129.000	645.272	80.005	19.994	103.206	20.211	-6.444	0.507
1129.500	645.544	80.003	19.993	103.204	20.211	-6.446	0.521
1130.000	645.676	80.006	19.994	103.206	20.212	-6.547	0.470
1130.500	646.068	80.006	19.994	103.208	20.211	-6.416	0.464
1131.000	646.286	80.005	19.994	103.204	20.207	-6.199	0.567
1131.500	646.499	80.005	19.994	103.200	20.209	-6.297	0.521
1132.001	646.826	80.005	19.994	103.197	20.210	-6.356	0.485
1132.501	647.050	80.005	19.992	103.191	20.210	-6.413	0.545
1133.000	647.331	80.023	19.995	103.188	20.210	-6.380	0.528
1133.500	647.540	80.026	19.997	103.197	20.209	-6.305	0.498
1134.000	647.832	80.026	19.997	103.202	20.210	-6.410	0.496
1134.500	648.063	80.023	19.996	103.207	20.212	-6.547	0.512
1135.000	648.326	80.014	19.995	103.212	20.210	-6.401	0.509
1135.500	648.568	80.010	19.995	103.215	20.210	-6.415	0.500
1136.000	648.800	80.004	19.995	103.209	20.213	-6.607	0.489
1136.500	649.072	80.004	19.996	103.203	20.211	-6.448	0.489
1137.000	649.367	80.004	19.995	103.198	20.212	-6.518	0.535
1137.501	649.606	80.004	19.994	103.196	20.210	-6.393	0.551
1138.001	649.874	80.005	19.995	103.190	20.211	-6.476	0.521
1138.500	650.114	80.005	19.995	103.187	20.211	-6.452	0.507
1139.000	650.405	80.004	19.994	103.186	20.209	-6.324	0.520
1139.500	650.647	80.005	19.995	103.185	20.210	-6.400	0.532
1140.000	650.895	80.004	19.994	103.181	20.212	-6.531	0.511
1140.500	651.127	80.003	19.995	103.180	20.211	-6.419	0.485
1141.000	651.387	80.004	19.995	103.181	20.210	-6.362	0.486
1141.500	651.618	80.004	19.996	103.181	20.209	-6.300	0.492
1142.000	651.879	80.004	19.996	103.180	20.211	-6.477	0.492
1142.500	652.116	80.005	19.995	103.182	20.211	-6.448	0.495
1143.000	652.381	80.006	19.996	103.185	20.210	-6.363	0.499
1143.501	652.636	80.003	19.996	103.189	20.211	-6.433	0.511
1144.001	652.888	80.002	19.995	103.195	20.212	-6.494	0.514
1144.500	653.167	80.004	19.996	103.200	20.209	-6.313	0.519
1145.000	653.385	80.004	19.995	103.202	20.212	-6.488	0.514
1145.500	653.674	80.003	19.995	103.204	20.212	-6.525	0.502
1146.000	653.922	80.004	19.995	103.199	20.212	-6.530	0.522
1146.500	654.180	80.004	19.996	103.195	20.215	-6.729	0.521
1147.000	654.436	80.004	19.995	103.192	20.208	-6.270	0.510
1147.500	654.716	80.004	19.995	103.192	20.210	-6.403	0.525
1148.000	654.931	80.003	19.993	103.190	20.214	-6.655	0.516
1148.500	655.167	80.005	19.995	103.190	20.214	-6.668	0.473
1149.000	655.444	80.003	19.994	103.187	20.211	-6.455	0.482
1149.500	655.716	80.005	19.994	103.185	20.212	-6.506	0.531
1150.000	655.946	80.004	19.994	103.185	20.211	-6.425	0.525
1150.500	656.198	80.004	19.993	103.188	20.213	-6.585	0.492
1151.001	656.472	80.005	19.995	103.195	20.214	-6.634	0.504
1151.501	656.687	80.005	19.994	103.197	20.212	-6.506	0.507
1152.001	656.919	80.004	19.994	103.205	20.212	-6.489	0.468
1152.500	657.183	80.004	19.994	103.209	20.212	-6.538	0.472
1153.000	657.460	80.003	19.994	103.212	20.214	-6.652	0.519
1153.500	657.692	80.002	19.994	103.213	20.214	-6.637	0.525
1154.000	657.909	80.005	19.995	103.218	20.215	-6.707	0.479
1154.500	658.191	80.005	19.994	103.217	20.217	-6.836	0.474
1155.000	658.432	80.005	19.995	103.217	20.212	-6.491	0.511
1155.500	658.688	80.006	19.994	103.215	20.213	-6.574	0.510
1156.001	658.920	80.005	19.994	103.212	20.214	-6.673	0.493
1156.501	659.164	80.005	19.995	103.209	20.211	-6.482	0.482
1157.000	659.438	80.005	19.994	103.203	20.213	-6.585	0.497
1157.501	659.671	80.007	19.995	103.196	20.211	-6.478	0.512
1158.001	659.939	80.007	19.995	103.196	20.212	-6.522	0.504
1158.500	660.142	80.006	19.994	103.197	20.211	-6.432	0.486
1159.000	660.407	80.003	19.995	103.199	20.210	-6.405	0.469
1159.500	660.640	80.006	19.994	103.200	20.211	-6.451	0.483
1160.001	660.910	80.006	19.993	103.206	20.210	-6.410	0.501
1160.501	661.179	80.007	19.995	103.208	20.212	-6.525	0.522
1161.001	661.447	80.006	19.994	103.204	20.213	-6.567	0.538
1161.500	661.662	80.006	19.994	103.204	20.210	-6.350	0.509
1162.000	661.877	80.008	19.995	103.207	20.214	-6.623	0.456
1162.500	662.213	80.006	19.994	103.203	20.213	-6.563	0.491
1163.000	662.433	80.008	19.996	103.200	20.211	-6.418	0.554
1163.500	662.650	80.007	19.995	103.203	20.209	-6.321	0.497
1164.000	662.902	80.006	19.995	103.204	20.211	-6.427	0.453
1164.500	663.109	80.005	19.995	103.203	20.213	-6.563	0.464
1165.000	663.371	80.007	19.996	103.203	20.210	-6.361	0.464
1165.500	663.614	80.006	19.997	103.205	20.212	-6.504	0.487
1166.000	663.889	80.005	19.996	103.203	20.211	-6.425	0.511
1166.501	664.133	80.005	19.996	103.197	20.212	-6.530	0.518
1167.001	664.370	80.005	19.995	103.194	20.215	-6.696	0.500
1167.500	664.595	80.006	19.995	103.195	20.210	-6.357	0.472
1168.000	664.880	80.005	19.997	103.195	20.210	-6.353	0.486
1168.500	665.143	80.005	19.996	103.195	20.215	-6.723	0.529
1169.000	665.347	80.005	19.994	103.197	20.213	-6.569	0.507
1169.500	665.624	80.005	19.997	103.201	20.212	-6.488	0.474
1170.000	665.875	80.005	19.995	103.202	20.213	-6.587	0.505
1170.500	666.082	80.004	19.995	103.202	20.214	-6.668	0.493
1171.000	666.374	80.006	19.996	103.206	20.213	-6.574	0.478
1171.501	666.595	80.006	19.995	103.210	20.215	-6.716	0.506
1172.001	666.832	80.006	19.994	103.210	20.214	-6.659	0.486
1172.500	667.098	80.005	19.995	103.211	20.214	-6.637	0.481
1173.000	667.297	80.005	19.995	103.209	20.212	-6.484	0.484
1173.500	667.551	80.005	19.995	103.204	20.214	-6.673	0.459
1174.000	667.829	80.006	19.995	103.201	20.212	-6.502	0.492
1174.500	668.077	80.007	19.994	103.197	20.214	-6.638	0.529
1175.000	668.308	80.006	19.996	103.198	20.214	-6.653	0.503
1175.501	668.575	80.006	19.995	103.198	20.215	-6.709	0.489
1176.001	668.817	80.005	19.995	103.203	20.216	-6.773	0.503
1176.500	669.099	80.007	19.995	103.203	20.214	-6.661	0.516
1177.000	669.309	80.007	19.995	103.205	20.213	-6.581	0.508
1177.500	669.530	80.005	19.995	103.203	20.214	-6.681	0.462
1178.000	669.817	80.007	19.994	103.202	20.216	-6.799	0.469
1178.500	670.056	80.007	19.994	103.200	20.213	-6.551	0.517
1179.000	670.301	80.007	19.994	103.201	20.214	-6.683	0.505
1179.500	670.563	80.009	19.993	103.199	20.211	-6.423	0.496
1180.000	670.771	80.006	19.993	103.200	20.215	-6.710	0.489
1180.500	671.029	80.009	19.995	103.200	20.212	-6.511	0.468
1181.000	671.358	80.006	19.995	103.199	20.209	-6.346	0.526
1181.500	671.503	80.006	19.995	103.199	20.214	-6.639	0.530
1182.000	671.786	80.008	19.993	103.201	20.213	-6.551	0.450
1182.500	672.036	80.008	19.995	103.200	20.215	-6.723	0.480
1183.000	672.316	80.008	19.993	103.198	20.216	-6.793	0.532
1183.500	672.563	80.008	19.994	103.198	20.210	-6.357	0.528
1184.000	672.772	80.009	19.994	103.196	20.212	-6.523	0.492
1184.500	673.070	80.007	19.994	103.193	20.214	-6.652	0.482
1185.000	673.299	80.008	19.996	103.189	20.217	-6.834	0.517
1185.500	673.559	80.010	19.995	103.192	20.212	-6.546	0.508
1186.000	673.767	80.008	19.995	103.194	20.215	-6.718	0.479
1186.500	674.053	80.008	19.994	103.196	20.215	-6.740	0.481
1187.000	674.274	80.007	19.995	103.197	20.215	-6.696	0.500
1187.500	674.500	80.008	19.993	103.196	20.216	-6.787	0.477
1188.000	674.806	80.007	19.994	103.198	20.215	-6.730	0.490
1188.500	675.025	80.007	19.993	103.198	20.217	-6.839	0.529
1189.000	675.297	80.009	19.994	103.201	20.213	-6.560	0.508
1189.500	675.575	80.006	19.994	103.205	20.216	-6.813	0.520
1190.000	675.815	80.006	19.995	103.207	20.215	-6.737	0.534
1190.500	676.041	80.006	19.994	103.199	20.214	-6.678	0.492
1191.000	676.290	80.007	19.993	103.193	20.214	-6.649	0.470
1191.500	676.563	80.006	19.993	103.187	20.214	-6.671	0.498
1192.000	676.795	80.006	19.994	103.181	20.217	-6.872	0.513
1192.500	677.043	80.005	19.994	103.180	20.214	-6.654	0.492
1193.000	677.289	80.004	19.995	103.186	20.214	-6.631	0.487
1193.500	677.534	80.004	19.994	103.190	20.215	-6.727	0.492
1194.000	677.773	80.005	19.995	103.196	20.214	-6.639	0.487
1194.500	678.026	80.004	19.993	103.202	20.214	-6.677	0.488
1195.000	678.280	80.003	19.994	103.207	20.212	-6.504	0.500
1195.500	678.528	80.006	19.995	103.204	20.213	-6.604	0.505
1196.000	678.813	80.005	19.993	103.202	20.213	-6.550	0.517
1196.501	679.011	80.005	19.994	103.197	20.212	-6.506	0.508
1197.001	679.281	80.005	19.994	103.196	20.215	-6.690	0.476
1197.500	679.561	80.006	19.994	103.198	20.214	-6.655	0.509
1198.000	679.831	80.003	19.994	103.204	20.213	-6.611	0.550
1198.500	680.069	80.004	19.994	103.209	20.214	-6.672	0.529
1199.000	680.317	80.004	19.994	103.215	20.214	-6.626	0.497
1199.500	680.576	80.005	19.995	103.216	20.213	-6.574	0.496
1200.000	680.844	80.004	19.994	103.215	20.215	-6.707	0.517
1200.500	681.046	80.006	19.994	103.214	20.212	-6.547	0.498
1201.000	681.375	80.005	19.994	103.213	20.217	-6.823	0.501
1201.500	681.604	80.005	19.994	103.212	20.211	-6.444	0.545
1202.000	681.886	80.005	19.995	103.213	20.209	-6.322	0.534
1202.500	682.088	80.005	19.994	103.212	20.213	-6.576	0.498
1203.000	682.394	80.005	19.995	103.212	20.210	-6.370	0.496
1203.500	682.633	80.004	19.995	103.206	20.211	-6.442	0.526
1204.000	682.902	80.005	19.994	103.201	20.212	-6.492	0.526
1204.500	683.192	80.005	19.994	103.198	20.214	-6.680	0.533
1205.000	683.409	80.005	19.993	103.198	20.211	-6.435	0.533
1205.500	683.679	80.004	19.993	103.195	20.211	-6.472	0.497
1206.000	683.927	80.004	19.994	103.198	20.211	-6.418	0.502
1206.501	684.183	80.005	19.995	103.202	20.211	-6.464	0.511
1207.001	684.425	80.006	19.994	103.203	20.210	-6.398	0.501
1207.500	684.713	80.005	19.993	103.199	20.213	-6.573	0.514
1208.000	684.907	80.005	19.993	103.196	20.214	-6.643	0.506
1208.500	685.195	80.004	19.994	103.195	20.214	-6.650	0.482
1209.000	685.428	80.005	19.993	103.195	20.217	-6.833	0.501
1209.500	685.688	80.004	19.994	103.196	20.213	-6.586	0.506
1210.000	685.960	80.006	19.994	103.198	20.217	-6.868	0.512
1210.500	686.257	80.004	19.994	103.201	20.215	-6.735	0.551
1211.000	686.456	80.005	19.994	103.204	20.216	-6.798	0.533
1211.500	686.739	80.006	19.993	103.205	20.214	-6.619	0.489
1212.000	686.963	80.006	19.994	103.202	20.214	-6.628	0.494
1212.500	687.249	80.005	19.993	103.204	20.215	-6.724	0.509
1213.000	687.473	80.005	19.993	103.205	20.218	-6.888	0.511
1213.500	687.734	80.005	19.994	103.203	20.218	-6.921	0.497
1214.000	688.001	80.006	19.994	103.200	20.213	-6.604	0.506
1214.500	688.232	80.005	19.993	103.204	20.215	-6.687	0.513
1215.000	688.443	80.006	19.994	103.207	20.215	-6.742	0.470
1215.500	688.778	80.006	19.993	103.210	20.215	-6.690	0.494
1216.000	689.045	80.006	19.994	103.213	20.216	-6.812	0.573
1216.500	689.238	80.005	19.993	103.217	20.216	-6.813	0.531
1217.000	689.528	80.006	19.994	103.215	20.218	-6.948	0.471
1217.500	689.754	80.006	19.993	103.213	20.214	-6.672	0.500
1218.000	689.997	80.006	19.993	103.209	20.216	-6.775	0.493
1218.500	690.254	80.006	19.993	103.209	20.215	-6.694	0.485
1219.000	690.489	80.005	19.994	103.207	20.218	-6.897	0.496
1219.500	690.767	80.006	19.995	103.207	20.214	-6.683	0.503
1220.001	691.039	80.005	19.993	103.209	20.215	-6.720	0.531
1220.501	691.286	80.006	19.993	103.212	20.217	-6.849	0.534
1221.000	691.499	80.005	19.994	103.212	20.214	-6.679	0.489
1221.500	691.793	80.005	19.995	103.209	20.216	-6.812	0.484
1222.001	692.047	80.006	19.994	103.204	20.217	-6.867	0.528
1222.501	692.312	80.005	19.994	103.203	20.217	-6.867	0.533
1223.000	692.537	80.005	19.995	103.203	20.218	-6.928	0.504
1223.500	692.824	80.006	19.994	103.201	20.216	-6.798	0.501
1224.000	693.054	80.005	19.995	103.204	20.213	-6.591	0.514
1224.500	693.309	80.005	19.995	103.207	20.214	-6.674	0.501
1225.000	693.580	80.004	19.995	103.204	20.215	-6.724	0.506
1225.500	693.817	80.005	19.994	103.199	20.218	-6.923	0.517
1226.000	694.084	80.004	19.994	103.196	20.217	-6.875	0.506
1226.501	694.330	80.006	19.995	103.194	20.217	-6.835	0.509
1227.001	694.601	80.005	19.995	103.195	20.215	-6.739	0.515
1227.500	694.849	80.003	19.995	103.194	20.217	-6.833	0.518
1228.000	695.088	80.006	19.995	103.194	20.220	-7.036	0.503
1228.500	695.310	80.004	19.995	103.194	20.214	-6.676	0.474
1229.000	695.613	80.004	19.994	103.195	20.217	-6.820	0.493
1229.500	695.834	80.005	19.995	103.196	20.215	-6.702	0.524
1230.000	696.109	80.004	19.996	103.202	20.217	-6.868	0.510
1230.500	696.350	80.003	19.995	103.204	20.217	-6.820	0.506
1231.001	696.586	80.006	19.995	103.208	20.213	-6.581	0.497
1231.501	696.891	80.005	19.995	103.206	20.215	-6.717	0.509
1232.000	697.140	80.003	19.994	103.202	20.215	-6.735	0.547
1232.500	697.390	80.005	19.995	103.198	20.215	-6.744	0.527
1233.000	697.627	80.006	19.995	103.201	20.217	-6.841	0.493
1233.500	697.872	80.007	19.995	103.200	20.215	-6.720	0.484
1234.000	698.160	80.006	19.995	103.203	20.215	-6.700	0.507
1234.501	698.392	80.005	19.995	103.206	20.214	-6.646	0.527
1235.001	698.651	80.005	19.995	103.210	20.214	-6.676	0.505
1235.501	698.919	80.005	19.995	103.211	20.213	-6.573	0.509
1236.001	699.201	80.004	19.995	103.207	20.212	-6.545	0.538
1236.500	699.441	80.006	19.994	103.206	20.215	-6.697	0.536
1237.000	699.701	80.006	19.995	103.207	20.212	-6.521	0.512
1237.500	699.958	80.006	19.994	103.207	20.216	-6.778	0.508
1238.000	700.212	80.007	19.993	103.206	20.211	-6.449	0.514
1238.500	700.546	80.007	19.994	103.211	20.211	-6.443	0.550
1239.000	700.787	80.007	19.995	103.213	20.211	-6.478	0.581
1239.500	701.078	80.007	19.994	103.213	20.213	-6.564	0.554
1240.001	701.320	80.006	19.994	103.213	20.213	-6.605	0.533
1240.501	701.620	80.008	19.995	103.212	20.212	-6.544	0.538
1241.000	701.882	80.008	19.995	103.212	20.214	-6.673	0.552
1241.500	702.142	80.006	19.995	103.213	20.215	-6.706	0.542
1242.000	702.433	80.006	19.995	103.213	20.213	-6.579	0.536
1242.500	702.722	80.005	19.994	103.209	20.214	-6.683	0.566
1243.000	702.981	80.007	19.994	103.204	20.215	-6.751	0.564
1243.500	703.229	80.006	19.995	103.201	20.217	-6.845	0.527
1244.000	703.537	80.006	19.995	103.199	20.214	-6.637	0.531
1244.500	703.800	80.006	19.994	103.198	20.214	-6.636	0.564
1245.000	704.088	80.006	19.995	103.199	20.215	-6.715	0.561
1245.500	704.353	80.005	19.996	103.204	20.217	-6.848	0.552
1246.000	704.632	80.007	19.995	103.208	20.214	-6.673	0.549
1246.500	704.893	80.005	19.996	103.209	20.215	-6.723	0.542
1247.000	705.165	80.006	19.995	103.211	20.216	-6.778	0.537
1247.501	705.458	80.006	19.996	103.213	20.214	-6.679	0.549
1248.001	705.741	80.006	19.994	103.212	20.218	-6.952	0.571
1248.500	705.990	80.006	19.995	103.208	20.216	-6.784	0.554
1249.000	706.274	80.006	19.995	103.203	20.216	-6.761	0.533
1249.501	706.564	80.005	19.994	103.199	20.216	-6.811	0.553
1250.001	706.830	80.005	19.995	103.194	20.214	-6.676	0.564
1250.500	707.116	80.005	19.994	103.189	20.215	-6.737	0.554
1251.000	707.379	80.006	19.995	103.188	20.214	-6.671	0.551
1251.500	707.652	80.005	19.995	103.186	20.215	-6.700	0.543
1252.000	707.934	80.005	19.996	103.183	20.217	-6.861	0.545
1252.500	708.170	80.007	19.995	103.188	20.218	-6.896	0.536
1253.000	708.496	80.006	19.995	103.195	20.215	-6.726	0.540
1253.500	708.761	80.007	19.995	103.199	20.216	-6.809	0.577
1254.001	709.032	80.005	19.995	103.201	20.217	-6.881	0.564
1254.501	709.305	80.005	19.995	103.200	20.218	-6.928	0.540
1255.000	709.590	80.006	19.994	103.194	20.217	-6.853	0.551
1255.500	709.866	80.007	19.995	103.187	20.215	-6.728	0.560
1256.000	710.118	80.005	19.996	103.180	20.216	-6.781	0.545
1256.500	710.398	80.006	19.995	103.179	20.214	-6.680	0.530
1257.000	710.691	80.005	19.995	103.186	20.221	-7.101	0.552
1257.501	710.990	80.006	19.995	103.192	20.218	-6.922	0.582
1258.001	711.240	80.007	19.995	103.192	20.216	-6.797	0.570
1258.500	711.528	80.006	19.994	103.195	20.217	-6.824	0.543
1259.000	711.767	80.006	19.995	103.198	20.217	-6.868	0.533
1259.500	712.064	80.006	19.996	103.192	20.216	-6.800	0.532
1260.000	712.332	80.007	19.994	103.185	20.216	-6.800	0.551
1260.501	712.609	80.006	19.996	103.185	20.214	-6.656	0.555
1261.001	712.857	80.008	19.995	103.181	20.214	-6.658	0.535
1261.501	713.130	80.006	19.995	103.177	20.218	-6.889	0.523
1262.000	713.401	80.007	19.996	103.182	20.217	-6.828	0.533
1262.500	713.656	80.006	19.994	103.186	20.215	-6.701	0.535
1263.000	713.988	80.007	19.995	103.187	20.215	-6.736	0.556
1263.500	714.200	80.008	19.996	103.186	20.217	-6.883	0.565
1264.000	714.485	80.007	19.995	103.186	20.218	-6.902	0.521
1264.500	714.723	80.006	19.995	103.180	20.215	-6.739	0.510
1265.000	715.001	80.008	19.995	103.177	20.217	-6.837	0.520
1265.500	715.265	80.007	19.994	103.176	20.218	-6.936	0.529
1266.000	715.542	80.006	19.995	103.177	20.218	-6.888	0.541
1266.500	715.794	80.006	19.994	103.176	20.216	-6.802	0.535
1267.000	716.091	80.007	19.995	103.178	20.220	-7.058	0.540
1267.501	716.363	80.007	19.994	103.183	20.219	-6.982	0.559
1268.001	716.586	80.006	19.994	103.187	20.220	-7.032	0.532
1268.500	716.851	80.007	19.995	103.190	20.219	-7.003	0.491
1269.000	717.118	80.007	19.994	103.190	20.222	-7.189	0.510
1269.500	717.417	80.007	19.994	103.189	20.219	-6.974	0.549
1270.000	717.618	80.005	19.995	103.184	20.215	-6.736	0.533
1270.500	717.879	80.005	19.995	103.182	20.216	-6.786	0.481
1271.001	718.168	80.005	19.994	103.184	20.216	-6.763	0.506
1271.501	718.418	80.005	19.993	103.187	20.216	-6.763	0.545
1272.000	718.646	80.005	19.994	103.191	20.219	-6.975	0.509
1272.500	718.936	80.006	19.994	103.196	20.218	-6.936	0.498
1273.000	719.174	80.004	19.994	103.195	20.220	-7.071	0.522
1273.500	719.403	80.004	19.994	103.195	20.219	-6.997	0.497
1274.000	719.689	80.003	19.994	103.194	20.218	-6.903	0.491
1274.500	719.940	80.003	19.994	103.191	20.219	-6.969	0.526
1275.001	720.180	80.005	19.994	103.188	20.222	-7.207	0.514
1275.501	720.441	80.005	19.994	103.187	20.221	-7.118	0.496
1276.000	720.656	80.004	19.994	103.184	20.221	-7.127	0.489
1276.500	720.941	80.005	19.994	103.183	20.217	-6.863	0.488
1277.000	721.215	80.005	19.994	103.182	20.218	-6.948	0.529
1277.501	721.474	80.005	19.995	103.180	20.219	-6.965	0.546
1278.001	721.705	80.004	19.993	103.181	20.219	-6.968	0.511
1278.500	721.977	80.004	19.994	103.185	20.217	-6.840	0.496
1279.000	722.217	80.003	19.994	103.186	20.221	-7.091	0.507
1279.500	722.450	80.004	19.994	103.191	20.217	-6.866	0.492
1280.000	722.686	80.004	19.994	103.192	20.219	-6.983	0.471
1280.500	722.994	80.005	19.994	103.195	20.219	-6.971	0.507
1281.000	723.249	80.006	19.994	103.192	20.216	-6.783	0.554
1281.500	723.493	80.005	19.994	103.191	20.219	-6.978	0.531
1282.000	723.722	80.005	19.994	103.188	20.219	-7.016	0.486
1282.500	724.016	80.005	19.994	103.188	20.219	-6.987	0.498
1283.000	724.250	80.003	19.995	103.184	20.220	-7.040	0.525
1283.500	724.504	80.006	19.994	103.184	20.220	-7.082	0.508
1284.000	724.681	80.004	19.994	103.184	20.222	-7.162	0.459
1284.500	724.974	80.004	19.994	103.184	20.222	-7.184	0.451
1285.000	725.231	80.005	19.994	103.184	20.221	-7.151	0.510
1285.501	725.436	80.004	19.995	103.183	20.221	-7.113	0.506
1286.001	725.754	80.003	19.995	103.181	20.222	-7.186	0.493
1286.500	726.027	80.005	19.994	103.176	20.219	-6.989	0.557
1287.000	726.256	80.005	19.994	103.172	20.220	-7.046	0.546
1287.500	726.463	80.006	19.995	103.166	20.223	-7.221	0.469
1288.000	726.727	80.005	19.996	103.165	20.222	-7.209	0.453
1288.500	726.994	80.005	19.994	103.165	20.221	-7.118	0.500
1289.000	727.241	80.004	19.994	103.169	20.223	-7.223	0.522
1289.500	727.504	80.006	19.995	103.170	20.223	-7.262	0.512
1290.000	727.743	80.004	19.995	103.175	20.223	-7.271	0.506
1290.500	727.996	80.005	19.995	103.173	20.221	-7.136	0.497
1291.000	728.229	80.005	19.994	103.172	20.220	-7.076	0.489
1291.500	728.486	80.005	19.995	103.172	20.221	-7.150	0.488
1292.001	728.726	80.005	19.995	103.172	20.219	-6.998	0.493
1292.501	728.988	80.005	19.995	103.170	20.219	-6.991	0.499
1293.000	729.261	80.004	19.995	103.169	20.222	-7.212	0.519
1293.500	729.494	80.005	19.994	103.165	20.224	-7.290	0.521
1294.000	729.765	80.005	19.994	103.164	20.223	-7.266	0.505
1294.500	730.018	80.006	19.995	103.164	20.222	-7.210	0.514
1295.000	730.221	80.004	19.994	103.165	20.221	-7.149	0.490
1295.500	730.518	80.004	19.994	103.168	20.221	-7.122	0.478
1296.001	730.768	80.004	19.994	103.173	20.220	-7.070	0.524
1296.501	731.011	80.006	19.995	103.173	20.221	-7.113	0.520
1297.000	731.281	80.004	19.995	103.174	20.220	-7.021	0.503
1297.500	731.549	80.005	19.994	103.174	20.217	-6.862	0.525
1298.000	731.805	80.006	19.995	103.174	20.220	-7.062	0.531
1298.500	732.055	80.005	19.995	103.176	20.218	-6.929	0.515
1299.000	732.301	80.005	19.995	103.177	20.216	-6.814	0.501
1299.500	732.541	80.006	19.993	103.176	20.221	-7.102	0.490
1300.000	732.815	80.004	19.994	103.174	20.220	-7.022	0.500
1300.500	733.068	80.007	19.994	103.174	20.218	-6.945	0.521
1301.001	733.343	80.004	19.996	103.173	20.222	-7.194	0.528
1301.501	733.559	80.005	19.995	103.173	20.221	-7.127	0.510
1302.001	733.846	80.006	19.995	103.174	20.219	-6.969	0.497
1302.501	734.088	80.004	19.995	103.176	20.219	-6.975	0.516
1303.000	734.373	80.006	19.995	103.176	20.220	-7.080	0.528
1303.500	734.588	80.005	19.995	103.176	20.221	-7.120	0.513
1304.000	734.887	80.004	19.994	103.176	20.220	-7.083	0.507
1304.500	735.130	80.006	19.994	103.175	20.220	-7.030	0.528
1305.000	735.344	80.004	19.994	103.175	20.218	-6.928	0.499
1305.500	735.606	80.006	19.994	103.174	20.220	-7.043	0.467
1306.000	735.835	80.004	19.994	103.172	20.221	-7.135	0.484
1306.501	736.062	80.005	19.994	103.172	20.219	-7.000	0.474
1307.001	736.364	80.005	19.995	103.173	20.219	-7.002	0.493
1307.501	736.629	80.006	19.994	103.174	20.222	-7.218	0.548
1308.001	736.859	80.004	19.993	103.177	20.222	-7.170	0.531
1308.501	737.099	80.004	19.994	103.181	20.223	-7.240	0.483
1309.001	737.347	80.005	19.995	103.183	20.221	-7.118	0.479
1309.501	737.578	80.004	19.994	103.182	20.222	-7.168	0.483
1310.000	737.842	80.005	19.994	103.180	20.223	-7.232	0.487
1310.500	738.099	80.004	19.996	103.178	20.222	-7.181	0.508
1311.000	738.368	80.005	19.995	103.176	20.222	-7.164	0.523
1311.500	738.605	80.004	19.994	103.175	20.221	-7.096	0.516
1312.000	738.836	80.005	19.995	103.175	20.223	-7.223	0.487
1312.500	739.073	80.006	19.995	103.176	20.224	-7.291	0.468
1313.000	739.327	80.005	19.995	103.177	20.226	-7.487	0.480
1313.500	739.583	80.006	19.994	103.177	20.224	-7.323	0.500
1314.000	739.849	80.006	19.995	103.176	20.223	-7.243	0.516
1314.500	740.103	80.006	19.995	103.176	20.227	-7.503	0.521
1315.000	740.360	80.005	19.994	103.175	20.224	-7.344	0.516
1315.500	740.650	80.007	19.995	103.174	20.228	-7.574	0.529
1316.000	740.919	80.006	19.994	103.174	20.227	-7.495	0.553
1316.500	741.136	80.006	19.995	103.174	20.228	-7.602	0.522
1317.000	741.399	80.006	19.995	103.174	20.227	-7.515	0.483
1317.500	741.684	80.007	19.995	103.175	20.223	-7.260	0.514
1318.000	741.899	80.006	19.995	103.175	20.223	-7.258	0.524
1318.500	742.140	80.006	19.994	103.174	20.224	-7.328	0.478
1319.000	742.430	80.007	19.995	103.174	20.229	-7.656	0.494
1319.500	742.664	80.008	19.994	103.174	20.227	-7.525	0.528
1320.000	742.931	80.006	19.995	103.174	20.226	-7.442	0.513
1320.500	743.188	80.006	19.994	103.174	20.224	-7.341	0.513
1321.000	743.467	80.006	19.995	103.175	20.226	-7.448	0.530
