Sample ID:	C:\MCC\MCC Cal\Test\Luan_Panel_MCC_30K_min_211118_R1.txt
Sample Weight (mg):	4.77
Heating Rate (C/s):	0.5
Combustor Temp (C):	900
N2 Flow Rate (cc/min):	80
O2 Flow Rate (cc/min):	20
Calibration File:	C:\MCC\MCC Cal\Coeff1 JN10440_30_210304.txt.txt
T Correction Coefficients:	0	1.024463	0
Time Shift (s):	14
*
Time (s)	Temperature (C)	N2 flow rate (cc/min)	O2 flow rate (cc/min)	Flow Rate (cc/min)	Oxygen (%)	HRR (W/g)	Heating rate (C/s)
0.000	107.497	80.003	19.996	103.035	20.240	0.243	-0.002
0.499	107.497	80.002	19.995	103.035	20.242	0.115	-0.039
1.000	107.489	80.004	19.998	103.036	20.243	0.066	-0.027
1.500	107.471	80.002	19.999	103.034	20.242	0.145	-0.017
2.000	107.522	80.003	19.999	103.034	20.243	0.064	0.004
2.500	107.497	80.003	19.997	103.034	20.239	0.325	0.029
2.999	107.487	80.003	19.997	103.033	20.243	0.056	-0.004
3.499	107.492	80.004	19.996	103.033	20.242	0.081	-0.020
4.000	107.492	80.003	19.997	103.034	20.246	-0.122	-0.000
4.500	107.487	80.003	19.996	103.035	20.241	0.169	0.000
5.000	107.473	80.002	19.996	103.036	20.242	0.141	-0.012
5.500	107.490	80.003	19.996	103.036	20.244	0.011	-0.008
6.000	107.501	80.003	19.996	103.036	20.242	0.128	0.016
6.500	107.510	80.003	19.996	103.035	20.244	-0.051	0.025
7.000	107.537	80.004	19.996	103.034	20.243	0.040	0.028
7.500	107.495	80.003	19.996	103.032	20.243	0.040	0.010
8.000	107.462	80.004	19.996	103.031	20.242	0.120	-0.045
8.500	107.499	80.003	19.995	103.031	20.243	0.049	-0.035
9.000	107.480	80.002	19.996	103.030	20.243	0.079	0.012
9.499	107.487	80.003	19.996	103.030	20.242	0.124	0.003
10.000	107.449	80.002	19.996	103.030	20.241	0.175	-0.022
10.501	107.466	80.003	19.995	103.030	20.241	0.192	-0.026
11.000	107.469	80.003	19.994	103.028	20.238	0.374	-0.000
11.499	107.463	80.002	19.995	103.022	20.240	0.250	0.009
11.999	107.459	80.001	19.995	103.021	20.241	0.211	-0.007
12.499	107.429	80.002	19.995	103.022	20.238	0.403	-0.022
12.999	107.497	80.001	19.994	103.024	20.240	0.275	0.002
13.499	107.451	80.001	19.994	103.027	20.242	0.087	0.030
13.999	107.464	80.001	19.995	103.034	20.242	0.098	-0.005
14.499	107.477	80.000	19.995	103.036	20.242	0.128	-0.003
14.999	107.473	80.000	19.995	103.036	20.241	0.186	0.017
15.499	107.473	80.001	19.995	103.036	20.240	0.248	0.003
15.999	107.438	80.000	19.994	103.036	20.239	0.309	-0.020
16.499	107.446	80.001	19.996	103.037	20.238	0.352	-0.031
16.999	107.458	80.001	19.995	103.037	20.240	0.280	-0.003
17.499	107.503	80.001	19.995	103.037	20.241	0.188	0.038
17.999	107.502	80.000	19.994	103.040	20.240	0.271	0.050
18.499	107.455	80.000	19.993	103.045	20.239	0.309	-0.002
19.000	107.467	80.000	19.995	103.044	20.241	0.211	-0.042
19.500	107.462	80.000	19.996	103.045	20.239	0.331	-0.014
20.000	107.473	80.001	19.995	103.049	20.238	0.373	0.007
20.499	107.501	80.000	19.996	103.048	20.241	0.175	0.022
21.000	107.507	80.000	19.994	103.047	20.240	0.246	0.036
21.500	107.460	80.001	19.995	103.053	20.236	0.487	-0.004
22.000	107.498	80.001	19.994	103.058	20.239	0.326	-0.025
22.500	107.492	80.002	19.994	103.059	20.238	0.365	0.012
23.000	107.481	80.001	19.996	103.061	20.236	0.544	0.008
23.500	107.509	80.000	19.994	103.066	20.239	0.335	-0.000
24.000	107.479	80.001	19.994	103.070	20.235	0.583	0.007
24.500	107.494	80.002	19.995	103.072	20.235	0.587	-0.008
24.999	107.510	80.001	19.994	103.076	20.239	0.303	0.008
25.499	107.498	80.001	19.996	103.078	20.235	0.555	0.018
25.999	107.537	80.001	19.996	103.080	20.238	0.354	0.016
26.499	107.532	80.001	19.995	103.083	20.237	0.461	0.031
26.999	107.523	80.001	19.995	103.087	20.237	0.463	0.010
27.499	107.529	80.001	19.996	103.087	20.235	0.563	-0.009
27.999	107.580	80.001	19.995	103.088	20.238	0.395	0.027
28.499	107.544	80.001	19.996	103.085	20.238	0.369	0.036
28.999	107.561	80.001	19.996	103.077	20.235	0.587	-0.002
29.500	107.563	80.001	19.995	103.071	20.238	0.358	0.000
30.000	107.588	80.001	19.994	103.070	20.236	0.505	0.023
30.499	107.550	80.001	19.995	103.069	20.235	0.599	0.007
30.999	107.614	80.002	19.996	103.070	20.236	0.497	0.006
31.499	107.606	80.001	19.995	103.071	20.235	0.588	0.041
31.999	107.614	80.003	19.996	103.072	20.237	0.465	0.028
32.499	107.656	80.002	19.996	103.072	20.236	0.511	0.025
32.999	107.668	80.001	19.996	103.072	20.236	0.531	0.052
33.500	107.696	80.001	19.996	103.071	20.235	0.618	0.047
34.000	107.680	80.002	19.995	103.071	20.232	0.780	0.026
34.499	107.723	80.002	19.996	103.073	20.233	0.727	0.020
34.999	107.705	80.002	19.996	103.080	20.231	0.884	0.026
35.499	107.766	80.002	19.996	103.088	20.234	0.658	0.034
35.999	107.764	80.001	19.995	103.095	20.231	0.837	0.051
36.499	107.757	80.000	19.997	103.104	20.232	0.805	0.025
37.000	107.767	80.001	19.995	103.111	20.226	1.221	-0.003
37.500	107.807	80.003	19.995	103.112	20.229	1.014	0.026
37.999	107.801	80.001	19.996	103.115	20.227	1.127	0.042
38.499	107.842	80.002	19.995	103.121	20.226	1.183	0.034
38.999	107.843	80.001	19.995	103.126	20.228	1.070	0.038
39.499	107.886	80.002	19.996	103.132	20.228	1.078	0.043
39.999	107.902	80.002	19.995	103.142	20.222	1.447	0.051
40.499	107.906	80.001	19.995	103.154	20.221	1.525	0.039
41.000	107.949	80.002	19.995	103.163	20.222	1.498	0.034
41.501	107.989	80.000	19.995	103.174	20.221	1.511	0.065
42.000	108.018	80.001	19.996	103.185	20.217	1.807	0.076
42.499	108.043	80.001	19.994	103.198	20.220	1.630	0.062
42.999	108.092	80.000	19.996	103.207	20.217	1.770	0.064
43.499	108.168	80.001	19.995	103.215	20.217	1.809	0.100
43.999	108.170	80.001	19.996	103.221	20.217	1.804	0.102
44.499	108.209	80.001	19.995	103.227	20.215	1.947	0.059
44.999	108.238	80.002	19.996	103.228	20.213	2.041	0.054
45.499	108.294	80.002	19.995	103.228	20.214	1.977	0.077
45.999	108.342	80.000	19.996	103.226	20.213	2.047	0.094
46.499	108.413	80.002	19.996	103.226	20.211	2.222	0.111
46.999	108.496	80.002	19.995	103.221	20.212	2.133	0.137
47.499	108.517	80.002	19.996	103.215	20.210	2.273	0.130
47.999	108.525	80.001	19.996	103.213	20.211	2.207	0.066
48.499	108.629	80.002	19.995	103.216	20.208	2.439	0.070
49.000	108.716	80.001	19.995	103.218	20.208	2.433	0.152
49.500	108.774	80.002	19.995	103.225	20.210	2.246	0.168
49.999	108.810	80.002	19.996	103.230	20.208	2.391	0.119
50.499	108.895	80.001	19.995	103.234	20.207	2.469	0.107
50.999	108.936	80.002	19.995	103.233	20.208	2.401	0.124
51.499	109.005	80.001	19.996	103.231	20.207	2.488	0.118
51.999	109.077	80.002	19.995	103.230	20.204	2.701	0.125
52.500	109.142	80.002	19.994	103.231	20.206	2.513	0.139
53.000	109.231	80.001	19.995	103.235	20.206	2.541	0.145
53.499	109.292	80.001	19.997	103.238	20.204	2.654	0.152
53.999	109.377	80.003	19.996	103.240	20.204	2.671	0.148
54.499	109.458	80.002	19.996	103.239	20.206	2.522	0.156
54.999	109.529	80.002	19.995	103.237	20.206	2.518	0.159
55.500	109.641	80.002	19.996	103.234	20.208	2.416	0.168
56.001	109.676	80.004	19.995	103.229	20.208	2.386	0.166
56.500	109.788	80.003	19.995	103.228	20.210	2.290	0.147
56.999	109.895	80.004	19.996	103.229	20.208	2.390	0.183
57.499	109.965	80.004	19.996	103.230	20.209	2.331	0.198
57.999	110.081	80.004	19.996	103.229	20.208	2.416	0.182
58.499	110.195	80.004	19.996	103.232	20.210	2.283	0.208
59.000	110.251	80.003	19.995	103.232	20.210	2.277	0.200
59.500	110.324	80.003	19.995	103.232	20.210	2.294	0.149
59.999	110.424	80.003	19.996	103.233	20.208	2.379	0.151
60.499	110.543	80.004	19.996	103.234	20.208	2.407	0.196
60.999	110.601	80.003	19.995	103.233	20.209	2.330	0.198
61.499	110.676	80.004	19.995	103.233	20.210	2.281	0.155
61.999	110.815	80.003	19.996	103.235	20.206	2.554	0.174
62.499	110.895	80.002	19.995	103.243	20.209	2.351	0.216
62.999	111.006	80.003	19.995	103.249	20.209	2.351	0.204
63.499	111.093	80.003	19.995	103.255	20.207	2.477	0.194
63.999	111.196	80.003	19.996	103.262	20.206	2.548	0.194
64.500	111.264	80.003	19.996	103.267	20.207	2.494	0.181
65.000	111.422	80.002	19.996	103.261	20.204	2.690	0.199
65.499	111.505	80.003	19.996	103.253	20.205	2.609	0.234
65.999	111.637	80.003	19.995	103.245	20.205	2.590	0.228
66.499	111.741	80.004	19.996	103.238	20.206	2.528	0.225
67.000	111.866	80.003	19.995	103.231	20.204	2.675	0.232
67.500	111.954	80.004	19.996	103.229	20.204	2.668	0.221
67.999	112.069	80.001	19.996	103.235	20.208	2.443	0.208
68.500	112.170	80.002	19.995	103.242	20.207	2.460	0.210
69.000	112.318	80.002	19.995	103.248	20.204	2.669	0.232
69.500	112.432	80.002	19.995	103.253	20.204	2.675	0.256
70.001	112.517	80.003	19.996	103.253	20.209	2.330	0.231
70.500	112.656	80.001	19.996	103.252	20.206	2.549	0.211
70.999	112.767	80.002	19.997	103.252	20.205	2.611	0.237
71.499	112.910	80.002	19.995	103.251	20.204	2.652	0.252
71.999	113.055	80.002	19.996	103.253	20.204	2.658	0.271
72.499	113.161	80.002	19.995	103.257	20.203	2.741	0.270
72.999	113.247	80.001	19.996	103.254	20.207	2.456	0.221
73.500	113.381	80.003	19.996	103.254	20.202	2.807	0.206
74.001	113.527	80.001	19.996	103.257	20.201	2.850	0.250
74.501	113.658	80.003	19.996	103.256	20.201	2.862	0.279
75.001	113.788	80.004	19.995	103.256	20.204	2.675	0.269
75.501	113.916	80.003	19.996	103.260	20.201	2.875	0.260
76.000	114.028	80.001	19.995	103.261	20.202	2.849	0.249
76.499	114.153	80.002	19.995	103.262	20.201	2.917	0.238
76.999	114.285	80.003	19.995	103.265	20.201	2.856	0.246
77.499	114.430	80.003	19.996	103.268	20.200	2.977	0.267
77.999	114.571	80.002	19.995	103.269	20.200	2.947	0.282
78.499	114.713	80.002	19.995	103.269	20.203	2.756	0.284
79.000	114.820	80.002	19.995	103.269	20.203	2.717	0.266
79.500	114.996	80.003	19.995	103.270	20.203	2.745	0.266
79.999	115.092	80.003	19.995	103.269	20.201	2.915	0.277
80.500	115.241	80.004	19.995	103.270	20.200	2.943	0.258
81.000	115.402	80.003	19.995	103.270	20.203	2.737	0.277
81.499	115.509	80.004	19.995	103.270	20.201	2.881	0.289
81.999	115.651	80.004	19.994	103.269	20.203	2.734	0.259
82.499	115.838	80.004	19.996	103.270	20.202	2.817	0.289
82.999	115.953	80.004	19.996	103.268	20.202	2.845	0.315
83.499	116.126	80.003	19.995	103.266	20.200	2.930	0.295
83.999	116.245	80.004	19.994	103.264	20.200	2.962	0.290
84.499	116.407	80.004	19.994	103.264	20.202	2.841	0.286
84.999	116.566	80.004	19.994	103.265	20.200	2.924	0.301
85.499	116.684	80.004	19.996	103.268	20.199	3.035	0.299
85.999	116.862	80.005	19.995	103.274	20.198	3.082	0.287
86.499	117.003	80.005	19.995	103.282	20.200	2.952	0.308
86.999	117.173	80.004	19.995	103.283	20.198	3.062	0.315
87.499	117.298	80.003	19.996	103.282	20.201	2.854	0.303
87.999	117.454	80.004	19.995	103.281	20.198	3.054	0.288
88.499	117.654	80.004	19.996	103.277	20.199	3.028	0.319
88.999	117.754	80.005	19.996	103.270	20.199	3.041	0.329
89.499	117.910	80.004	19.996	103.270	20.197	3.188	0.278
89.999	118.099	80.003	19.996	103.270	20.198	3.088	0.300
90.499	118.268	80.002	19.995	103.269	20.196	3.216	0.352
90.999	118.448	80.004	19.995	103.269	20.195	3.258	0.354
91.500	118.556	80.003	19.996	103.268	20.198	3.082	0.318
92.000	118.736	80.003	19.996	103.266	20.198	3.114	0.288
92.500	118.885	80.003	19.996	103.267	20.197	3.146	0.308
93.001	119.039	80.003	19.996	103.270	20.196	3.224	0.316
93.501	119.214	80.002	19.995	103.270	20.196	3.224	0.316
94.000	119.412	80.003	19.996	103.271	20.197	3.160	0.351
94.499	119.552	80.002	19.997	103.271	20.198	3.073	0.355
94.999	119.721	80.001	19.996	103.269	20.196	3.224	0.324
95.500	119.901	80.001	19.996	103.267	20.197	3.152	0.329
96.001	120.059	80.001	19.996	103.267	20.196	3.243	0.343
96.500	120.238	80.001	19.996	103.267	20.197	3.152	0.338
96.999	120.400	80.001	19.997	103.268	20.196	3.248	0.339
97.499	120.543	80.001	19.998	103.271	20.194	3.361	0.323
98.000	120.727	80.000	19.997	103.272	20.196	3.205	0.316
98.501	120.905	80.001	19.996	103.273	20.193	3.405	0.345
99.000	121.098	80.003	19.996	103.273	20.194	3.377	0.367
99.499	121.213	80.002	19.996	103.275	20.198	3.075	0.339
100.000	121.383	80.002	19.995	103.276	20.196	3.233	0.296
100.501	121.563	80.002	19.997	103.275	20.198	3.096	0.317
101.000	121.759	80.000	19.998	103.274	20.195	3.288	0.363
101.499	121.958	80.000	19.996	103.273	20.199	3.049	0.386
101.999	122.143	80.001	19.996	103.270	20.198	3.056	0.390
102.499	122.307	80.001	19.995	103.268	20.198	3.054	0.367
102.999	122.489	80.000	19.995	103.267	20.195	3.281	0.347
103.500	122.665	80.001	19.996	103.266	20.197	3.137	0.352
104.000	122.796	80.001	19.995	103.266	20.197	3.139	0.333
104.499	122.994	80.001	19.996	103.270	20.196	3.222	0.318
104.999	123.180	80.001	19.996	103.277	20.198	3.099	0.356
105.499	123.389	80.002	19.995	103.282	20.196	3.192	0.389
105.999	123.523	80.003	19.994	103.282	20.198	3.086	0.369
106.499	123.726	80.002	19.995	103.282	20.198	3.118	0.340
106.999	123.867	80.002	19.994	103.278	20.198	3.096	0.340
107.499	124.062	80.003	19.994	103.271	20.194	3.331	0.340
107.999	124.231	80.002	19.996	103.266	20.199	3.035	0.350
108.499	124.434	80.003	19.995	103.270	20.197	3.188	0.368
109.000	124.640	80.001	19.994	103.274	20.196	3.252	0.390
109.500	124.811	80.002	19.995	103.275	20.198	3.067	0.393
109.999	125.013	80.002	19.995	103.276	20.196	3.194	0.375
110.499	125.152	80.002	19.994	103.276	20.197	3.154	0.357
111.000	125.349	80.001	19.995	103.272	20.197	3.188	0.338
111.500	125.524	80.002	19.995	103.269	20.198	3.060	0.354
112.000	125.757	80.003	19.995	103.270	20.197	3.173	0.390
112.500	125.964	80.002	19.996	103.275	20.200	2.924	0.424
112.999	126.140	80.001	19.996	103.279	20.195	3.305	0.412
113.499	126.342	80.002	19.995	103.279	20.194	3.324	0.381
113.999	126.507	80.001	19.995	103.279	20.197	3.170	0.373
114.499	126.699	80.002	19.995	103.277	20.201	2.915	0.362
114.999	126.895	80.002	19.995	103.271	20.197	3.151	0.372
115.499	127.079	80.003	19.995	103.268	20.199	3.030	0.384
115.999	127.275	80.003	19.995	103.268	20.197	3.130	0.380
116.499	127.483	80.003	19.995	103.267	20.196	3.237	0.392
116.999	127.661	80.002	19.995	103.269	20.197	3.162	0.395
117.500	127.850	80.002	19.995	103.274	20.199	2.992	0.377
118.001	128.054	80.003	19.996	103.276	20.198	3.092	0.380
118.500	128.250	80.002	19.995	103.276	20.200	2.926	0.397
119.000	128.419	80.002	19.995	103.278	20.196	3.213	0.382
119.500	128.610	80.004	19.995	103.283	20.200	2.953	0.362
120.000	128.838	80.004	19.995	103.279	20.200	2.956	0.389
120.500	129.023	80.003	19.995	103.278	20.202	2.826	0.416
121.000	129.205	80.002	19.995	103.279	20.198	3.118	0.390
121.500	129.390	80.003	19.994	103.279	20.201	2.886	0.367
121.999	129.603	80.002	19.996	103.272	20.198	3.115	0.382
122.499	129.796	80.003	19.994	103.271	20.199	3.032	0.402
122.999	129.994	80.002	19.994	103.272	20.201	2.885	0.399
123.499	130.188	80.002	19.995	103.275	20.199	3.030	0.391
123.999	130.385	80.001	19.996	103.280	20.201	2.879	0.391
124.499	130.619	80.002	19.995	103.287	20.200	2.941	0.411
124.999	130.817	80.001	19.995	103.291	20.201	2.877	0.432
125.499	130.966	80.001	19.996	103.292	20.198	3.097	0.390
125.999	131.207	80.001	19.995	103.293	20.203	2.734	0.368
126.499	131.382	80.002	19.996	103.290	20.196	3.250	0.403
126.999	131.589	80.002	19.995	103.287	20.198	3.120	0.399
127.499	131.769	80.003	19.995	103.284	20.200	2.943	0.385
127.999	131.974	80.001	19.995	103.285	20.200	2.958	0.387
128.500	132.244	80.001	19.994	103.285	20.197	3.146	0.430
129.000	132.430	80.001	19.995	103.284	20.199	2.986	0.466
129.500	132.640	80.002	19.996	103.283	20.197	3.167	0.426
130.000	132.809	80.002	19.994	103.282	20.195	3.311	0.387
130.500	133.026	80.002	19.995	103.281	20.201	2.888	0.383
131.000	133.213	80.002	19.996	103.279	20.198	3.120	0.395
131.500	133.461	80.001	19.995	103.278	20.197	3.137	0.420
132.000	133.658	80.002	19.995	103.276	20.199	2.988	0.440
132.500	133.859	80.002	19.995	103.276	20.195	3.280	0.421
133.000	134.058	80.001	19.997	103.275	20.197	3.179	0.399
133.500	134.306	80.002	19.995	103.272	20.199	3.005	0.424
134.000	134.518	80.002	19.995	103.274	20.197	3.186	0.454
134.500	134.689	80.002	19.995	103.273	20.198	3.100	0.422
135.000	134.916	80.002	19.995	103.274	20.196	3.245	0.390
135.500	135.083	80.002	19.995	103.274	20.196	3.233	0.396
136.000	135.304	80.003	19.995	103.273	20.196	3.218	0.391
136.500	135.509	80.000	19.995	103.271	20.198	3.096	0.407
137.000	135.737	80.002	19.995	103.271	20.198	3.098	0.429
137.500	135.943	80.003	19.996	103.270	20.198	3.081	0.433
138.000	136.169	80.003	19.994	103.270	20.198	3.073	0.433
138.500	136.416	80.003	19.995	103.271	20.197	3.173	0.453
139.000	136.602	80.003	19.996	103.270	20.198	3.114	0.453
139.500	136.774	80.004	19.995	103.271	20.197	3.158	0.395
140.000	137.005	80.004	19.995	103.276	20.199	3.045	0.380
140.500	137.197	80.003	19.995	103.279	20.196	3.194	0.413
141.000	137.442	80.003	19.995	103.279	20.200	2.950	0.430
141.500	137.629	80.003	19.994	103.279	20.199	2.986	0.434
142.000	137.852	80.003	19.996	103.279	20.199	3.007	0.421
142.500	138.048	80.003	19.995	103.274	20.198	3.075	0.415
143.000	138.303	80.004	19.994	103.273	20.201	2.854	0.435
143.500	138.484	80.005	19.995	103.275	20.199	3.026	0.443
144.000	138.709	80.004	19.996	103.276	20.200	2.956	0.421
144.500	138.927	80.003	19.994	103.279	20.200	2.979	0.425
145.000	139.150	80.003	19.994	103.280	20.199	3.024	0.442
145.500	139.378	80.003	19.995	103.279	20.201	2.851	0.446
146.000	139.586	80.004	19.995	103.280	20.200	2.952	0.444
146.500	139.776	80.003	19.995	103.280	20.200	2.977	0.416
147.000	139.998	80.004	19.995	103.279	20.197	3.146	0.405
147.500	140.211	80.004	19.994	103.278	20.202	2.826	0.424
148.000	140.425	80.003	19.995	103.276	20.197	3.137	0.431
148.500	140.634	80.004	19.995	103.272	20.202	2.813	0.425
149.000	140.866	80.003	19.994	103.271	20.198	3.065	0.432
149.500	141.045	80.003	19.996	103.270	20.201	2.913	0.426
150.000	141.320	80.003	19.995	103.270	20.202	2.849	0.432
150.500	141.534	80.004	19.995	103.270	20.201	2.867	0.471
151.000	141.721	80.002	19.995	103.271	20.199	3.028	0.445
151.500	141.957	80.004	19.996	103.271	20.201	2.913	0.412
152.000	142.172	80.003	19.995	103.272	20.198	3.094	0.437
152.500	142.399	80.003	19.995	103.271	20.198	3.065	0.446
153.000	142.606	80.002	19.995	103.271	20.203	2.769	0.438
153.500	142.869	80.003	19.995	103.271	20.201	2.896	0.452
154.000	143.050	80.002	19.995	103.271	20.199	3.031	0.457
154.500	143.270	80.003	19.995	103.270	20.198	3.054	0.422
155.000	143.509	80.002	19.996	103.274	20.196	3.212	0.430
155.500	143.736	80.003	19.996	103.275	20.199	3.047	0.463
156.000	143.943	80.001	19.996	103.275	20.201	2.898	0.450
156.500	144.191	80.003	19.996	103.275	20.200	2.977	0.445
157.000	144.422	80.003	19.996	103.275	20.197	3.143	0.467
157.500	144.631	80.002	19.996	103.271	20.196	3.228	0.459
158.000	144.871	80.002	19.997	103.271	20.198	3.062	0.445
158.500	145.061	80.002	19.996	103.271	20.197	3.180	0.440
159.000	145.287	80.003	19.997	103.271	20.196	3.239	0.423
159.500	145.550	80.003	19.997	103.271	20.198	3.061	0.452
160.000	145.750	80.003	19.996	103.270	20.196	3.207	0.476
160.500	145.974	80.003	19.997	103.270	20.197	3.129	0.443
161.000	146.186	80.003	19.996	103.270	20.194	3.384	0.430
161.500	146.411	80.004	19.996	103.269	20.197	3.147	0.437
162.000	146.658	80.004	19.996	103.269	20.199	3.045	0.455
162.500	146.867	80.004	19.995	103.270	20.197	3.143	0.464
163.000	147.098	80.005	19.996	103.269	20.195	3.290	0.448
163.500	147.292	80.004	19.996	103.269	20.195	3.281	0.432
164.000	147.533	80.004	19.995	103.269	20.196	3.251	0.430
164.500	147.783	80.005	19.996	103.269	20.199	3.004	0.463
165.000	147.997	80.003	19.996	103.267	20.197	3.185	0.478
165.500	148.228	80.006	19.996	103.270	20.195	3.262	0.454
166.000	148.409	80.004	19.996	103.272	20.196	3.230	0.428
166.500	148.647	80.005	19.995	103.273	20.196	3.228	0.415
167.000	148.867	80.005	19.996	103.274	20.193	3.429	0.438
167.500	149.107	80.006	19.996	103.275	20.196	3.250	0.459
168.000	149.318	80.005	19.995	103.276	20.193	3.395	0.456
168.500	149.576	80.003	19.995	103.272	20.193	3.418	0.460
169.000	149.791	80.006	19.995	103.271	20.192	3.490	0.471
169.500	149.979	80.004	19.996	103.270	20.191	3.550	0.438
170.000	150.250	80.004	19.996	103.269	20.190	3.648	0.431
170.500	150.449	80.004	19.995	103.265	20.195	3.310	0.465
171.000	150.670	80.004	19.996	103.265	20.196	3.248	0.445
171.500	150.857	80.004	19.995	103.265	20.192	3.486	0.414
172.000	151.143	80.005	19.995	103.271	20.193	3.433	0.441
172.500	151.349	80.004	19.995	103.273	20.192	3.520	0.482
173.000	151.581	80.003	19.995	103.275	20.194	3.330	0.465
173.500	151.796	80.004	19.995	103.277	20.193	3.418	0.443
174.000	152.074	80.002	19.995	103.281	20.195	3.262	0.470
174.500	152.247	80.003	19.996	103.281	20.194	3.367	0.472
175.000	152.522	80.004	19.995	103.282	20.199	3.050	0.450
175.500	152.729	80.003	19.995	103.283	20.195	3.286	0.465
176.000	152.946	80.003	19.995	103.282	20.195	3.303	0.453
176.500	153.185	80.003	19.996	103.280	20.195	3.297	0.440
177.000	153.398	80.002	19.995	103.274	20.198	3.107	0.454
177.500	153.634	80.001	19.996	103.272	20.198	3.116	0.450
178.000	153.848	80.002	19.995	103.273	20.198	3.116	0.450
178.500	154.116	80.003	19.995	103.273	20.196	3.239	0.466
179.000	154.330	80.001	19.994	103.273	20.195	3.296	0.482
179.500	154.562	80.002	19.995	103.274	20.198	3.071	0.464
180.000	154.779	80.001	19.996	103.273	20.197	3.171	0.447
180.500	154.983	80.001	19.996	103.270	20.195	3.307	0.435
181.000	155.217	80.000	19.996	103.270	20.196	3.228	0.429
181.500	155.422	80.001	19.995	103.269	20.197	3.162	0.439
182.000	155.661	80.000	19.996	103.270	20.195	3.283	0.442
182.500	155.873	80.000	19.996	103.270	20.194	3.324	0.447
183.000	156.120	80.002	19.996	103.274	20.195	3.277	0.455
183.500	156.345	80.001	19.996	103.280	20.199	3.030	0.465
184.000	156.578	80.001	19.996	103.282	20.196	3.233	0.465
184.500	156.826	80.001	19.995	103.282	20.195	3.267	0.469
185.000	157.076	80.001	19.996	103.284	20.197	3.175	0.490
185.500	157.286	80.001	19.996	103.280	20.194	3.330	0.480
186.000	157.541	80.000	19.996	103.274	20.192	3.520	0.463
186.500	157.793	80.002	19.996	103.271	20.195	3.281	0.486
187.000	158.041	80.001	19.997	103.274	20.195	3.292	0.503
187.500	158.233	80.000	19.997	103.275	20.192	3.481	0.470
188.000	158.479	80.000	19.996	103.276	20.193	3.394	0.439
188.500	158.721	80.002	19.997	103.277	20.194	3.375	0.463
189.000	158.951	80.001	19.997	103.277	20.191	3.565	0.480
189.500	159.218	80.000	19.996	103.279	20.191	3.586	0.485
190.000	159.450	80.002	19.996	103.278	20.194	3.333	0.498
190.500	159.667	80.001	19.997	103.286	20.197	3.130	0.474
191.000	159.948	80.001	19.998	103.287	20.196	3.198	0.474
191.500	160.141	80.002	19.997	103.288	20.198	3.073	0.486
192.000	160.389	80.001	19.997	103.284	20.197	3.171	0.457
192.500	160.636	80.002	19.997	103.288	20.193	3.405	0.468
193.000	160.901	80.001	19.997	103.283	20.195	3.320	0.504
193.500	161.136	80.002	19.996	103.281	20.194	3.339	0.506
194.000	161.368	80.001	19.997	103.278	20.193	3.394	0.483
194.500	161.617	80.002	19.997	103.276	20.194	3.339	0.474
195.000	161.848	80.000	19.996	103.270	20.194	3.362	0.481
195.500	162.073	80.002	19.996	103.269	20.192	3.462	0.468
196.000	162.312	80.001	19.995	103.271	20.190	3.597	0.460
196.500	162.546	80.002	19.996	103.276	20.197	3.184	0.469
197.000	162.782	80.003	19.995	103.279	20.194	3.330	0.471
197.500	163.029	80.002	19.996	103.282	20.193	3.450	0.477
198.000	163.285	80.002	19.996	103.288	20.192	3.499	0.493
198.500	163.555	80.003	19.995	103.288	20.197	3.172	0.514
199.000	163.763	80.002	19.995	103.284	20.192	3.483	0.503
199.500	164.017	80.003	19.995	103.282	20.194	3.381	0.470
200.000	164.234	80.002	19.995	103.278	20.193	3.424	0.466
200.500	164.501	80.001	19.995	103.273	20.190	3.620	0.477
201.000	164.789	80.002	19.995	103.274	20.194	3.388	0.520
201.500	164.995	80.002	19.994	103.275	20.194	3.371	0.525
202.000	165.210	80.002	19.994	103.276	20.191	3.554	0.457
202.500	165.451	80.002	19.995	103.278	20.191	3.579	0.438
203.000	165.722	80.001	19.995	103.280	20.189	3.701	0.484
203.500	165.956	80.002	19.994	103.281	20.190	3.624	0.509
204.000	166.227	80.002	19.995	103.282	20.193	3.458	0.505
204.500	166.477	80.001	19.994	103.282	20.190	3.650	0.513
205.000	166.704	80.001	19.995	103.281	20.190	3.644	0.499
205.500	166.943	80.000	19.996	103.279	20.189	3.678	0.472
206.000	167.201	80.001	19.997	103.281	20.190	3.622	0.481
206.500	167.424	80.003	19.995	103.280	20.191	3.586	0.489
207.000	167.646	80.001	19.995	103.279	20.194	3.369	0.463
207.500	167.927	80.000	19.995	103.279	20.195	3.297	0.474
208.000	168.165	80.001	19.994	103.282	20.188	3.750	0.511
208.500	168.418	80.001	19.995	103.283	20.191	3.552	0.505
209.000	168.634	80.001	19.995	103.284	20.190	3.622	0.480
209.500	168.890	80.001	19.995	103.289	20.193	3.394	0.470
210.000	169.151	80.000	19.996	103.294	20.190	3.618	0.494
210.500	169.424	80.002	19.995	103.293	20.189	3.661	0.525
211.000	169.621	80.002	19.996	103.289	20.190	3.616	0.502
211.500	169.888	80.001	19.995	103.288	20.192	3.494	0.468
212.000	170.169	80.002	19.995	103.289	20.188	3.746	0.506
212.500	170.399	80.002	19.994	103.291	20.192	3.495	0.529
213.000	170.673	80.001	19.995	103.290	20.194	3.371	0.507
213.500	170.892	80.002	19.994	103.290	20.189	3.693	0.498
214.000	171.112	80.000	19.994	103.288	20.188	3.738	0.466
214.500	171.366	80.000	19.994	103.283	20.188	3.746	0.457
215.000	171.649	80.002	19.995	103.278	20.194	3.342	0.505
215.500	171.829	80.001	19.994	103.278	20.193	3.401	0.500
216.000	172.095	80.002	19.995	103.279	20.192	3.486	0.454
216.500	172.323	80.000	19.995	103.281	20.192	3.493	0.470
217.000	172.594	80.001	19.994	103.281	20.193	3.416	0.497
217.500	172.851	80.000	19.995	103.281	20.189	3.682	0.513
218.000	173.076	80.002	19.995	103.279	20.192	3.467	0.505
218.500	173.320	80.001	19.995	103.276	20.191	3.558	0.475
219.000	173.565	80.002	19.995	103.275	20.193	3.452	0.479
219.500	173.819	80.002	19.995	103.275	20.191	3.580	0.495
220.000	174.064	80.003	19.996	103.276	20.191	3.580	0.499
220.500	174.332	80.003	19.995	103.276	20.193	3.418	0.506
221.000	174.574	80.002	19.995	103.276	20.190	3.653	0.511
221.500	174.807	80.003	19.995	103.276	20.192	3.491	0.493
222.000	175.092	80.003	19.995	103.279	20.190	3.606	0.496
222.500	175.353	80.002	19.995	103.277	20.191	3.557	0.531
223.000	175.603	80.002	19.995	103.277	20.193	3.437	0.529
223.500	175.811	80.003	19.995	103.276	20.189	3.672	0.485
224.000	176.045	80.002	19.994	103.274	20.189	3.708	0.450
224.500	176.310	80.002	19.995	103.271	20.190	3.659	0.471
225.000	176.549	80.003	19.995	103.269	20.189	3.695	0.502
225.500	176.839	80.005	19.994	103.268	20.188	3.744	0.516
226.000	177.062	80.002	19.995	103.268	20.192	3.522	0.521
226.500	177.320	80.004	19.995	103.268	20.191	3.535	0.497
227.000	177.577	80.004	19.995	103.269	20.192	3.516	0.498
227.500	177.833	80.004	19.994	103.274	20.189	3.689	0.514
228.000	178.057	80.004	19.995	103.274	20.191	3.537	0.497
228.500	178.343	80.004	19.994	103.277	20.190	3.604	0.495
229.000	178.573	80.005	19.995	103.277	20.192	3.471	0.513
229.500	178.845	80.003	19.995	103.275	20.191	3.531	0.509
230.000	179.088	80.004	19.994	103.271	20.192	3.514	0.509
230.500	179.337	80.003	19.994	103.271	20.191	3.580	0.504
231.000	179.590	80.004	19.995	103.267	20.188	3.765	0.497
231.500	179.830	80.003	19.994	103.267	20.189	3.661	0.498
232.000	180.082	80.003	19.994	103.268	20.188	3.752	0.492
232.500	180.327	80.004	19.995	103.268	20.189	3.710	0.494
233.000	180.582	80.004	19.994	103.268	20.190	3.638	0.498
233.500	180.805	80.005	19.995	103.267	20.190	3.599	0.490
234.000	181.097	80.004	19.994	103.266	20.189	3.678	0.497
234.500	181.360	80.003	19.995	103.266	20.188	3.774	0.535
235.000	181.605	80.004	19.995	103.267	20.191	3.584	0.531
235.500	181.845	80.003	19.994	103.271	20.188	3.729	0.497
236.000	182.060	80.003	19.995	103.272	20.190	3.601	0.470
236.500	182.343	80.003	19.995	103.276	20.189	3.701	0.476
237.000	182.590	80.003	19.995	103.277	20.188	3.782	0.514
237.500	182.833	80.004	19.995	103.277	20.189	3.691	0.510
238.001	183.082	80.003	19.995	103.273	20.191	3.578	0.491
238.501	183.357	80.004	19.994	103.273	20.189	3.691	0.508
239.000	183.571	80.003	19.994	103.270	20.190	3.653	0.506
239.499	183.828	80.004	19.994	103.269	20.191	3.592	0.480
239.999	184.107	80.004	19.995	103.269	20.190	3.655	0.504
240.499	184.342	80.003	19.995	103.269	20.188	3.747	0.525
241.000	184.596	80.005	19.994	103.270	20.189	3.680	0.501
241.500	184.837	80.004	19.994	103.270	20.186	3.926	0.492
241.999	185.108	80.004	19.994	103.270	20.188	3.732	0.503
242.499	185.365	80.004	19.995	103.270	20.187	3.861	0.520
242.999	185.595	80.006	19.995	103.270	20.188	3.795	0.508
243.499	185.885	80.004	19.995	103.269	20.186	3.917	0.503
243.999	186.133	80.003	19.995	103.269	20.188	3.791	0.529
244.499	186.388	80.005	19.995	103.269	20.185	3.942	0.521
244.999	186.671	80.003	19.995	103.270	20.187	3.813	0.521
245.500	186.922	80.005	19.994	103.271	20.186	3.918	0.536
246.000	187.181	80.004	19.994	103.272	20.186	3.912	0.521
246.499	187.406	80.004	19.995	103.274	20.185	3.949	0.497
246.999	187.674	80.004	19.995	103.275	20.185	3.970	0.489
247.499	187.895	80.004	19.995	103.274	20.184	4.002	0.491
247.999	188.136	80.004	19.995	103.273	20.187	3.829	0.476
248.499	188.396	80.004	19.996	103.271	20.187	3.846	0.482
248.999	188.663	80.004	19.995	103.268	20.188	3.782	0.514
249.499	188.911	80.004	19.996	103.268	20.187	3.844	0.521
249.999	189.175	80.006	19.995	103.267	20.185	3.970	0.513
250.500	189.405	80.004	19.995	103.282	20.182	4.159	0.503
251.000	189.645	80.005	19.995	103.261	20.184	4.025	0.482
251.500	189.915	80.006	19.995	103.235	20.185	3.968	0.490
251.999	190.147	80.005	19.996	103.217	20.184	4.025	0.506
252.499	190.421	80.004	19.996	103.208	20.183	4.091	0.504
252.999	190.649	80.004	19.996	103.189	20.186	3.880	0.504
253.499	190.944	80.004	19.996	103.233	20.183	4.108	0.512
253.999	191.129	80.005	19.995	103.280	20.182	4.138	0.502
254.499	191.430	80.003	19.996	103.304	20.182	4.136	0.483
254.999	191.645	80.004	19.995	103.313	20.184	4.001	0.501
255.499	191.878	80.004	19.995	103.318	20.183	4.070	0.481
255.999	192.180	80.004	19.996	103.296	20.182	4.176	0.491
256.500	192.395	80.004	19.995	103.274	20.180	4.312	0.526
257.000	192.639	80.004	19.995	103.267	20.183	4.119	0.488
257.500	192.892	80.004	19.995	103.268	20.178	4.423	0.478
258.000	193.152	80.003	19.995	103.267	20.178	4.464	0.504
258.500	193.425	80.003	19.995	103.267	20.178	4.406	0.523
259.000	193.615	80.002	19.996	103.267	20.178	4.447	0.499
259.500	193.866	80.003	19.996	103.269	20.177	4.500	0.452
260.000	194.125	80.001	19.996	103.270	20.179	4.357	0.475
260.500	194.401	80.002	19.994	103.274	20.179	4.372	0.522
261.000	194.646	80.002	19.994	103.274	20.178	4.436	0.528
261.500	194.880	80.002	19.996	103.274	20.178	4.459	0.500
262.000	195.130	80.002	19.994	103.273	20.180	4.317	0.481
262.500	195.360	80.001	19.996	103.272	20.176	4.543	0.482
263.000	195.659	80.001	19.995	103.268	20.177	4.476	0.505
263.500	195.876	80.001	19.995	103.269	20.176	4.579	0.523
264.000	196.155	80.001	19.996	103.269	20.178	4.412	0.506
264.500	196.380	80.002	19.995	103.269	20.180	4.332	0.500
265.000	196.636	80.002	19.993	103.272	20.177	4.478	0.493
265.500	196.851	80.001	19.996	103.273	20.178	4.466	0.476
266.000	197.119	80.002	19.996	103.273	20.176	4.570	0.477
266.500	197.364	80.001	19.997	103.273	20.173	4.749	0.497
267.000	197.606	80.003	19.996	103.274	20.176	4.568	0.500
267.500	197.864	80.002	19.996	103.272	20.176	4.560	0.493
268.000	198.122	80.002	19.995	103.271	20.176	4.598	0.508
268.500	198.382	80.002	19.996	103.272	20.177	4.519	0.517
269.000	198.606	80.003	19.995	103.272	20.177	4.485	0.501
269.500	198.843	80.002	19.996	103.272	20.175	4.660	0.473
270.000	199.069	80.002	19.996	103.272	20.173	4.756	0.462
270.500	199.326	80.002	19.996	103.273	20.178	4.460	0.473
271.000	199.564	80.003	19.995	103.272	20.176	4.543	0.489
271.500	199.820	80.003	19.996	103.272	20.175	4.660	0.495
272.000	200.024	80.002	19.995	103.273	20.177	4.534	0.477
272.500	200.267	80.003	19.996	103.272	20.176	4.558	0.454
273.000	200.543	80.002	19.995	103.272	20.176	4.572	0.483
273.500	200.774	80.002	19.997	103.272	20.176	4.577	0.513
274.000	201.036	80.002	19.996	103.273	20.174	4.706	0.500
274.500	201.303	80.001	19.996	103.273	20.172	4.851	0.511
275.000	201.563	80.002	19.995	103.274	20.173	4.805	0.528
275.500	201.768	80.002	19.995	103.273	20.175	4.617	0.496
276.000	202.029	80.002	19.996	103.273	20.174	4.701	0.466
276.500	202.308	80.002	19.996	103.271	20.173	4.775	0.503
277.000	202.567	80.000	19.996	103.271	20.176	4.603	0.538
277.500	202.808	80.001	19.995	103.271	20.174	4.705	0.518
278.000	203.047	80.001	19.996	103.272	20.173	4.784	0.490
278.500	203.279	80.000	19.996	103.272	20.174	4.717	0.476
279.000	203.513	80.000	19.995	103.273	20.176	4.602	0.469
279.500	203.772	80.001	19.996	103.272	20.173	4.783	0.479
280.000	204.021	80.001	19.996	103.271	20.168	5.097	0.500
280.500	204.273	80.000	19.996	103.270	20.173	4.798	0.505
281.000	204.507	80.001	19.996	103.270	20.170	4.950	0.494
281.500	204.780	80.001	19.995	103.270	20.172	4.847	0.497
282.000	205.002	80.001	19.996	103.270	20.173	4.754	0.501
282.500	205.258	80.001	19.995	103.271	20.173	4.743	0.486
283.000	205.536	80.000	19.996	103.270	20.172	4.822	0.505
283.500	205.755	80.001	19.996	103.271	20.171	4.920	0.516
284.000	206.005	79.999	19.995	103.270	20.170	5.003	0.484
284.500	206.258	80.001	19.996	103.270	20.172	4.815	0.486
285.000	206.512	80.000	19.996	103.270	20.170	5.008	0.505
285.500	206.760	80.000	19.996	103.267	20.171	4.935	0.504
286.000	206.996	80.002	19.996	103.263	20.169	5.058	0.493
286.500	207.252	80.001	19.996	103.263	20.166	5.229	0.488
287.000	207.534	80.001	19.997	103.262	20.170	4.984	0.515
287.500	207.736	80.000	19.996	103.261	20.168	5.105	0.511
288.000	207.987	80.001	19.996	103.262	20.170	4.958	0.468
288.500	208.255	80.002	19.996	103.265	20.168	5.116	0.485
289.000	208.506	80.001	19.997	103.264	20.168	5.081	0.519
289.500	208.740	80.002	19.996	103.264	20.166	5.271	0.502
290.000	208.949	80.002	19.996	103.265	20.165	5.324	0.464
290.500	209.228	80.001	19.995	103.264	20.164	5.373	0.465
291.000	209.453	80.002	19.996	103.264	20.164	5.354	0.496
291.500	209.713	80.003	19.996	103.263	20.163	5.467	0.495
292.000	209.951	80.001	19.996	103.262	20.163	5.444	0.492
292.500	210.245	80.002	19.995	103.262	20.161	5.586	0.515
293.000	210.453	80.001	19.995	103.264	20.164	5.407	0.517
293.500	210.677	80.001	19.995	103.265	20.164	5.380	0.467
294.000	210.899	80.003	19.996	103.264	20.161	5.587	0.439
294.500	211.197	80.002	19.995	103.263	20.162	5.540	0.483
295.000	211.421	80.002	19.994	103.263	20.157	5.831	0.521
295.500	211.671	80.001	19.996	103.263	20.157	5.870	0.498
296.000	211.905	80.002	19.995	103.258	20.160	5.642	0.479
296.500	212.205	80.002	19.996	103.259	20.157	5.883	0.509
297.000	212.415	80.002	19.995	103.260	20.159	5.736	0.522
297.500	212.683	80.000	19.996	103.261	20.153	6.142	0.494
298.000	212.891	80.002	19.996	103.262	20.155	5.961	0.477
298.500	213.150	80.003	19.996	103.268	20.155	6.002	0.472
299.000	213.389	80.003	19.995	103.269	20.153	6.093	0.482
299.500	213.639	80.002	19.995	103.269	20.152	6.168	0.493
300.000	213.895	80.003	19.997	103.269	20.152	6.195	0.497
300.500	214.145	80.002	19.995	103.269	20.153	6.108	0.506
301.000	214.389	80.003	19.994	103.269	20.153	6.117	0.500
301.500	214.649	80.003	19.995	103.268	20.150	6.353	0.499
302.000	214.852	80.003	19.995	103.268	20.151	6.287	0.484
302.500	215.127	80.003	19.996	103.268	20.149	6.366	0.470
303.000	215.347	80.003	19.995	103.267	20.150	6.323	0.486
303.500	215.596	80.004	19.995	103.267	20.149	6.427	0.482
304.000	215.813	80.002	19.996	103.267	20.150	6.340	0.467
304.500	216.088	80.004	19.995	103.267	20.148	6.440	0.479
305.000	216.342	80.003	19.996	103.264	20.146	6.607	0.511
305.500	216.556	80.004	19.995	103.264	20.149	6.428	0.499
306.000	216.788	80.004	19.996	103.263	20.147	6.509	0.457
306.500	217.070	80.003	19.995	103.263	20.146	6.613	0.480
307.000	217.314	80.004	19.995	103.264	20.144	6.735	0.519
307.500	217.546	80.004	19.995	103.265	20.145	6.692	0.501
308.000	217.803	80.005	19.996	103.265	20.142	6.847	0.483
308.500	218.013	80.002	19.995	103.266	20.142	6.868	0.478
309.000	218.285	80.005	19.995	103.266	20.140	6.982	0.475
309.500	218.536	80.003	19.996	103.266	20.144	6.707	0.503
310.000	218.802	80.004	19.995	103.268	20.145	6.673	0.520
310.500	219.017	80.004	19.996	103.268	20.144	6.716	0.499
311.000	219.272	80.005	19.996	103.268	20.142	6.872	0.476
311.500	219.475	80.003	19.995	103.268	20.138	7.109	0.464
312.000	219.726	80.004	19.996	103.267	20.139	7.042	0.456
312.500	219.978	80.005	19.995	103.267	20.139	7.091	0.478
313.000	220.185	80.003	19.996	103.267	20.140	7.031	0.481
313.500	220.488	80.004	19.996	103.266	20.137	7.180	0.485
314.000	220.752	80.004	19.995	103.267	20.139	7.092	0.539
314.500	220.987	80.004	19.996	103.267	20.136	7.284	0.533
315.000	221.205	80.004	19.997	103.267	20.136	7.253	0.476
315.500	221.432	80.002	19.996	103.266	20.138	7.172	0.449
316.000	221.672	80.004	19.995	103.266	20.134	7.401	0.456
316.500	221.950	80.004	19.995	103.266	20.135	7.376	0.493
317.000	222.167	80.003	19.995	103.262	20.135	7.342	0.507
317.500	222.482	80.002	19.995	103.262	20.134	7.411	0.513
318.000	222.753	80.003	19.996	103.262	20.134	7.439	0.559
318.500	222.971	80.005	19.995	103.262	20.133	7.452	0.538
319.000	223.196	80.004	19.995	103.262	20.132	7.545	0.466
319.500	223.426	80.003	19.994	103.265	20.132	7.528	0.449
320.000	223.669	80.003	19.995	103.263	20.131	7.581	0.464
320.500	223.911	80.002	19.995	103.261	20.130	7.671	0.479
321.000	224.187	80.003	19.995	103.254	20.129	7.737	0.502
321.500	224.434	80.003	19.995	103.248	20.128	7.801	0.521
322.000	224.662	80.004	19.995	103.243	20.131	7.628	0.499
322.500	224.896	80.003	19.996	103.245	20.129	7.776	0.468
323.000	225.133	80.004	19.995	103.249	20.128	7.816	0.467
323.500	225.400	80.003	19.996	103.255	20.129	7.776	0.488
324.000	225.652	80.003	19.996	103.258	20.131	7.624	0.511
324.500	225.914	80.004	19.995	103.264	20.130	7.708	0.516
325.000	226.147	80.002	19.994	103.264	20.130	7.678	0.504
325.500	226.396	80.004	19.995	103.267	20.128	7.784	0.489
326.000	226.678	80.004	19.996	103.274	20.130	7.660	0.506
326.500	226.875	80.005	19.996	103.283	20.127	7.908	0.505
327.000	227.096	80.003	19.995	103.284	20.122	8.208	0.449
327.500	227.356	80.004	19.995	103.285	20.123	8.180	0.450
328.000	227.564	80.005	19.995	103.283	20.123	8.165	0.475
328.500	227.826	80.004	19.994	103.274	20.127	7.891	0.469
329.000	228.078	80.004	19.994	103.269	20.123	8.138	0.492
329.500	228.333	80.004	19.995	103.269	20.122	8.195	0.510
330.000	228.550	80.004	19.996	103.269	20.122	8.237	0.490
330.500	228.809	80.005	19.995	103.268	20.119	8.436	0.474
331.000	229.108	80.004	19.995	103.271	20.118	8.480	0.518
331.500	229.334	80.005	19.995	103.271	20.119	8.456	0.541
332.000	229.606	80.006	19.995	103.270	20.119	8.422	0.511
332.500	229.852	80.006	19.995	103.270	20.118	8.505	0.507
333.000	230.036	80.005	19.994	103.269	20.121	8.299	0.474
333.500	230.337	80.006	19.995	103.269	20.116	8.601	0.458
334.000	230.578	80.005	19.994	103.268	20.119	8.453	0.514
334.500	230.784	80.005	19.994	103.267	20.115	8.674	0.495
335.000	231.064	80.007	19.994	103.266	20.116	8.653	0.467
335.500	231.324	80.004	19.994	103.266	20.115	8.702	0.513
336.000	231.559	80.005	19.994	103.266	20.117	8.584	0.518
336.500	231.783	80.004	19.994	103.267	20.114	8.763	0.477
337.000	232.053	80.004	19.994	103.268	20.114	8.766	0.476
337.500	232.276	80.003	19.994	103.268	20.112	8.891	0.493
338.000	232.499	80.005	19.995	103.268	20.112	8.912	0.469
338.500	232.790	80.004	19.995	103.268	20.112	8.872	0.480
339.000	233.037	80.003	19.995	103.268	20.114	8.791	0.526
339.500	233.260	80.004	19.995	103.269	20.110	9.025	0.504
340.000	233.507	80.004	19.994	103.270	20.111	8.997	0.470
340.500	233.783	80.002	19.994	103.270	20.111	8.983	0.496
341.000	234.010	80.003	19.995	103.270	20.108	9.181	0.513
341.500	234.232	80.001	19.996	103.270	20.110	9.059	0.476
342.000	234.487	80.002	19.995	103.272	20.108	9.139	0.463
342.500	234.747	80.002	19.995	103.274	20.111	8.975	0.496
343.000	234.982	80.002	19.995	103.274	20.106	9.322	0.505
343.500	235.244	80.001	19.996	103.274	20.106	9.310	0.496
344.000	235.493	80.001	19.995	103.274	20.108	9.176	0.504
344.500	235.710	80.001	19.997	103.273	20.107	9.261	0.489
345.000	235.944	80.001	19.995	103.271	20.106	9.286	0.459
345.500	236.219	80.001	19.994	103.271	20.108	9.158	0.480
346.000	236.464	80.001	19.995	103.271	20.108	9.139	0.514
346.500	236.720	80.001	19.995	103.271	20.104	9.407	0.511
347.000	236.959	80.002	19.995	103.272	20.106	9.307	0.498
347.500	237.215	80.002	19.996	103.271	20.102	9.582	0.495
348.000	237.491	80.001	19.994	103.272	20.103	9.501	0.514
348.500	237.677	80.002	19.997	103.272	20.100	9.733	0.497
349.000	237.938	80.003	19.995	103.272	20.103	9.530	0.454
349.500	238.180	80.002	19.996	103.272	20.099	9.773	0.475
350.000	238.469	80.003	19.994	103.273	20.098	9.859	0.517
350.500	238.708	80.003	19.996	103.272	20.098	9.810	0.529
351.000	238.914	80.003	19.996	103.273	20.100	9.720	0.487
351.500	239.155	80.002	19.995	103.272	20.099	9.788	0.446
352.000	239.398	80.002	19.995	103.272	20.098	9.852	0.466
352.500	239.612	80.002	19.995	103.271	20.098	9.831	0.471
353.000	239.885	80.003	19.995	103.269	20.098	9.810	0.472
353.500	240.126	80.003	19.994	103.267	20.097	9.880	0.500
354.000	240.359	80.002	19.996	103.264	20.095	10.033	0.494
354.500	240.596	80.003	19.995	103.260	20.097	9.886	0.472
355.000	240.843	80.004	19.995	103.260	20.093	10.182	0.477
355.500	241.120	80.003	19.995	103.261	20.093	10.167	0.504
356.000	241.344	80.003	19.996	103.262	20.096	9.969	0.512
356.500	241.599	80.003	19.995	103.264	20.091	10.301	0.490
357.000	241.824	80.002	19.997	103.267	20.091	10.282	0.480
357.500	242.056	80.002	19.995	103.267	20.090	10.367	0.469
358.000	242.339	80.003	19.995	103.267	20.091	10.301	0.486
358.500	242.599	80.003	19.996	103.267	20.090	10.350	0.529
359.000	242.816	80.002	19.996	103.267	20.086	10.627	0.510
359.500	243.088	80.003	19.996	103.267	20.090	10.386	0.483
360.000	243.343	80.002	19.995	103.267	20.088	10.506	0.508
360.500	243.556	80.002	19.996	103.267	20.087	10.553	0.497
361.000	243.797	80.003	19.995	103.267	20.087	10.563	0.461
361.500	244.036	80.002	19.996	103.268	20.087	10.574	0.467
362.000	244.278	80.001	19.996	103.267	20.087	10.602	0.481
362.500	244.504	80.002	19.996	103.267	20.087	10.584	0.474
363.000	244.808	80.003	19.997	103.267	20.087	10.603	0.499
363.500	245.023	80.003	19.996	103.267	20.083	10.821	0.525
364.000	245.253	80.003	19.996	103.267	20.086	10.622	0.482
364.500	245.516	80.003	19.996	103.268	20.086	10.669	0.470
365.000	245.766	80.003	19.995	103.268	20.082	10.946	0.503
365.500	246.009	80.002	19.996	103.268	20.079	11.114	0.503
366.000	246.244	80.003	19.995	103.268	20.082	10.935	0.486
366.500	246.480	80.002	19.995	103.268	20.081	11.022	0.475
367.000	246.739	80.002	19.996	103.268	20.079	11.127	0.483
367.500	247.014	80.002	19.996	103.268	20.080	11.083	0.514
368.000	247.220	80.004	19.996	103.268	20.080	11.027	0.507
368.500	247.436	80.003	19.996	103.268	20.076	11.326	0.451
369.000	247.711	80.003	19.995	103.269	20.076	11.317	0.456
369.500	247.922	80.002	19.995	103.271	20.077	11.281	0.488
370.000	248.187	80.003	19.996	103.271	20.076	11.318	0.481
370.500	248.464	80.001	19.997	103.270	20.075	11.418	0.509
371.000	248.692	80.003	19.996	103.270	20.072	11.581	0.524
371.500	248.936	80.001	19.996	103.268	20.071	11.684	0.489
372.000	249.176	80.002	19.996	103.267	20.070	11.749	0.478
372.500	249.442	80.003	19.997	103.267	20.072	11.626	0.495
373.000	249.673	80.002	19.997	103.269	20.067	11.959	0.501
373.500	249.929	80.003	19.997	103.271	20.069	11.776	0.492
374.000	250.194	80.001	19.995	103.271	20.071	11.685	0.505
374.500	250.421	80.002	19.996	103.271	20.065	12.081	0.507
375.000	250.672	80.003	19.996	103.273	20.067	11.934	0.485
375.500	250.944	80.002	19.997	103.274	20.063	12.176	0.500
376.000	251.141	80.003	19.996	103.276	20.064	12.167	0.495
376.500	251.422	80.002	19.996	103.276	20.065	12.089	0.473
377.000	251.633	80.003	19.995	103.277	20.064	12.122	0.485
377.500	251.883	80.000	19.996	103.275	20.059	12.469	0.477
378.000	252.138	80.002	19.997	103.271	20.061	12.341	0.483
378.500	252.339	80.002	19.996	103.268	20.060	12.407	0.480
379.000	252.597	80.002	19.997	103.269	20.058	12.560	0.457
379.500	252.883	80.002	19.996	103.268	20.058	12.555	0.502
380.000	253.094	80.002	19.996	103.270	20.056	12.704	0.521
380.500	253.376	80.003	19.996	103.269	20.056	12.685	0.495
381.000	253.612	80.004	19.996	103.275	20.053	12.903	0.506
381.500	253.817	80.002	19.997	103.280	20.053	12.892	0.479
382.000	254.067	80.004	19.997	103.284	20.052	12.931	0.448
382.500	254.327	80.002	19.996	103.284	20.051	12.988	0.482
383.000	254.584	80.001	19.997	103.287	20.050	13.062	0.513
383.500	254.811	80.002	19.996	103.283	20.051	12.994	0.501
384.000	255.045	80.005	19.996	103.278	20.046	13.367	0.473
384.500	255.291	80.003	19.996	103.275	20.047	13.320	0.471
385.000	255.479	80.003	19.995	103.276	20.043	13.539	0.457
385.500	255.770	80.005	19.996	103.274	20.044	13.495	0.456
386.000	255.981	80.002	19.998	103.279	20.043	13.539	0.490
386.500	256.224	80.004	19.994	103.283	20.041	13.687	0.478
387.000	256.436	80.004	19.995	103.283	20.040	13.753	0.455
387.500	256.727	80.004	19.996	103.282	20.041	13.685	0.479
388.000	256.963	80.004	19.996	103.283	20.039	13.843	0.515
388.500	257.207	80.005	19.996	103.283	20.039	13.835	0.503
389.000	257.453	80.005	19.995	103.285	20.036	14.023	0.485
389.500	257.663	80.004	19.995	103.287	20.033	14.248	0.473
390.000	257.929	80.004	19.996	103.292	20.033	14.227	0.466
390.500	258.180	80.005	19.995	103.298	20.032	14.339	0.496
391.000	258.406	80.004	19.995	103.298	20.030	14.426	0.497
391.500	258.637	80.004	19.995	103.299	20.029	14.528	0.467
392.000	258.903	80.004	19.996	103.303	20.029	14.515	0.477
392.500	259.182	80.004	19.995	103.305	20.025	14.773	0.521
393.000	259.385	80.005	19.995	103.304	20.024	14.832	0.513
393.500	259.638	80.003	19.995	103.306	20.022	15.015	0.468
394.000	259.877	80.004	19.994	103.306	20.017	15.330	0.474
394.500	260.132	80.005	19.994	103.305	20.017	15.342	0.493
395.000	260.372	80.003	19.994	103.305	20.018	15.228	0.495
395.500	260.597	80.003	19.995	103.305	20.018	15.237	0.480
396.000	260.879	80.004	19.997	103.306	20.015	15.480	0.486
396.500	261.123	80.003	19.996	103.306	20.014	15.526	0.516
397.000	261.383	80.004	19.995	103.311	20.012	15.672	0.515
397.500	261.611	80.002	19.995	103.313	20.008	15.903	0.496
398.000	261.787	80.004	19.994	103.315	20.007	15.989	0.446
398.500	262.088	80.004	19.995	103.315	20.006	16.084	0.441
399.000	262.306	80.004	19.997	103.313	20.006	16.087	0.498
399.500	262.589	80.003	19.995	103.307	20.002	16.355	0.510
400.000	262.763	80.002	19.995	103.305	20.004	16.175	0.479
400.500	263.059	80.002	19.995	103.305	20.001	16.438	0.464
401.000	263.325	80.003	19.995	103.306	19.996	16.764	0.516
401.500	263.537	80.003	19.996	103.309	19.998	16.638	0.520
402.000	263.785	80.003	19.995	103.312	19.997	16.700	0.469
402.500	264.006	80.004	19.995	103.314	19.990	17.172	0.465
403.000	264.255	80.002	19.996	103.314	19.991	17.050	0.469
403.500	264.514	80.003	19.996	103.314	19.988	17.258	0.488
404.000	264.771	80.003	19.995	103.317	19.990	17.137	0.512
404.500	265.037	80.004	19.996	103.320	19.985	17.494	0.520
405.000	265.270	80.004	19.996	103.318	19.983	17.593	0.511
405.500	265.476	80.003	19.995	103.318	19.982	17.696	0.469
406.000	265.727	80.003	19.994	103.318	19.980	17.798	0.448
406.500	265.985	80.003	19.995	103.313	19.975	18.152	0.484
407.000	266.212	80.005	19.996	103.311	19.975	18.147	0.497
407.500	266.465	80.003	19.995	103.313	19.972	18.373	0.483
408.000	266.714	80.003	19.996	103.319	19.970	18.489	0.491
408.500	266.989	80.004	19.995	103.327	19.969	18.590	0.513
409.000	267.188	80.004	19.995	103.335	19.969	18.572	0.499
409.500	267.418	80.004	19.996	103.340	19.966	18.789	0.451
410.000	267.685	80.003	19.994	103.344	19.962	19.016	0.463
410.500	267.962	80.003	19.995	103.345	19.964	18.939	0.520
411.000	268.196	80.003	19.996	103.342	19.961	19.133	0.528
411.500	268.420	80.005	19.993	103.343	19.958	19.312	0.485
412.000	268.670	80.004	19.995	103.344	19.959	19.212	0.466
412.500	268.928	80.004	19.993	103.346	19.954	19.550	0.490
413.000	269.156	80.004	19.994	103.346	19.955	19.534	0.497
413.500	269.429	80.004	19.994	103.349	19.950	19.821	0.494
414.000	269.675	80.004	19.995	103.350	19.949	19.926	0.510
414.500	269.912	80.004	19.995	103.352	19.945	20.168	0.501
415.000	270.178	80.004	19.995	103.352	19.946	20.109	0.493
415.500	270.399	80.005	19.995	103.352	19.946	20.107	0.494
416.000	270.652	80.003	19.995	103.350	19.944	20.240	0.481
416.500	270.915	80.005	19.994	103.342	19.939	20.614	0.495
417.000	271.191	80.005	19.994	103.333	19.939	20.590	0.527
417.500	271.438	80.005	19.995	103.332	19.935	20.856	0.531
418.000	271.737	80.005	19.994	103.331	19.933	20.986	0.535
418.500	271.950	80.005	19.995	103.332	19.934	20.967	0.529
419.000	272.240	80.006	19.995	103.337	19.932	21.072	0.508
419.500	272.482	80.005	19.994	103.344	19.932	21.057	0.517
420.000	272.723	80.005	19.994	103.346	19.930	21.215	0.507
420.500	272.962	80.004	19.993	103.347	19.931	21.162	0.481
421.000	273.233	80.004	19.996	103.348	19.923	21.667	0.495
421.500	273.452	80.005	19.995	103.351	19.926	21.463	0.500
422.000	273.658	80.005	19.995	103.351	19.923	21.669	0.457
422.500	273.926	80.004	19.995	103.352	19.925	21.533	0.449
423.000	274.198	80.004	19.994	103.350	19.918	22.024	0.507
423.500	274.486	80.002	19.994	103.350	19.922	21.730	0.550
424.000	274.700	80.003	19.995	103.347	19.918	21.988	0.531
424.500	274.984	80.003	19.996	103.345	19.918	22.028	0.500
425.000	275.200	80.002	19.994	103.344	19.917	22.092	0.499
425.500	275.488	80.003	19.996	103.344	19.917	22.111	0.502
426.000	275.716	80.004	19.996	103.345	19.912	22.403	0.510
426.500	275.983	80.003	19.996	103.346	19.913	22.368	0.506
427.000	276.266	80.004	19.994	103.347	19.910	22.554	0.522
427.500	276.474	80.002	19.994	103.350	19.907	22.787	0.520
428.000	276.738	80.003	19.993	103.353	19.904	22.952	0.482
428.500	277.008	80.003	19.993	103.354	19.903	23.014	0.503
429.000	277.226	80.003	19.994	103.354	19.902	23.112	0.511
429.500	277.509	80.002	19.996	103.353	19.902	23.090	0.495
430.000	277.765	80.002	19.995	103.350	19.897	23.419	0.520
430.500	278.018	80.003	19.994	103.347	19.895	23.548	0.524
431.000	278.257	80.002	19.995	103.346	19.894	23.633	0.500
431.500	278.545	80.002	19.996	103.344	19.894	23.660	0.510
432.000	278.771	80.003	19.994	103.344	19.888	24.035	0.521
432.500	279.034	80.004	19.995	103.343	19.891	23.842	0.502
433.000	279.278	80.002	19.997	103.343	19.890	23.952	0.498
433.500	279.546	80.003	19.995	103.344	19.884	24.295	0.509
434.000	279.825	80.004	19.995	103.345	19.884	24.339	0.529
434.500	280.076	80.003	19.995	103.346	19.886	24.168	0.538
435.000	280.312	80.003	19.995	103.346	19.883	24.351	0.509
435.500	280.605	80.002	19.995	103.345	19.881	24.515	0.508
436.000	280.853	80.002	19.996	103.345	19.879	24.647	0.535
436.500	281.104	80.004	19.995	103.344	19.879	24.647	0.520
437.000	281.363	80.001	19.995	103.345	19.876	24.879	0.505
437.500	281.644	80.003	19.995	103.345	19.875	24.920	0.525
438.000	281.879	80.002	19.995	103.354	19.874	24.986	0.528
438.500	282.135	80.003	19.995	103.347	19.871	25.214	0.504
439.000	282.385	80.003	19.994	103.325	19.869	25.350	0.499
439.500	282.646	80.003	19.995	103.310	19.868	25.428	0.509
440.000	282.875	80.003	19.996	103.299	19.866	25.532	0.501
440.500	283.170	80.002	19.997	103.284	19.865	25.618	0.507
441.000	283.422	80.003	19.995	103.284	19.859	26.031	0.535
441.500	283.676	80.002	19.995	103.310	19.859	26.024	0.526
442.000	283.967	80.002	19.996	103.354	19.859	25.991	0.525
442.500	284.191	80.003	19.995	103.377	19.859	26.038	0.530
443.000	284.453	80.003	19.996	103.391	19.859	26.040	0.500
443.500	284.715	80.002	19.996	103.398	19.854	26.339	0.505
444.000	284.949	80.002	19.996	103.394	19.855	26.311	0.510
444.500	285.213	80.005	19.996	103.366	19.850	26.608	0.497
445.000	285.445	80.002	19.995	103.352	19.854	26.340	0.497
445.500	285.730	80.001	19.996	103.346	19.851	26.552	0.507
446.000	285.984	80.002	19.995	103.347	19.844	26.999	0.528
446.500	286.244	80.002	19.996	103.347	19.843	27.119	0.526
447.000	286.520	80.003	19.996	103.347	19.842	27.153	0.525
447.500	286.750	80.001	19.996	103.347	19.841	27.206	0.521
448.000	287.019	80.002	19.997	103.346	19.839	27.361	0.503
448.500	287.267	80.002	19.994	103.345	19.840	27.309	0.508
449.000	287.550	80.004	19.996	103.344	19.836	27.545	0.524
449.500	287.783	80.002	19.996	103.344	19.835	27.609	0.523
450.000	288.045	80.003	19.995	103.345	19.832	27.840	0.505
450.500	288.277	80.002	19.995	103.345	19.829	28.034	0.495
451.000	288.494	80.001	19.996	103.348	19.826	28.219	0.472
451.500	288.786	80.003	19.995	103.354	19.828	28.131	0.479
452.000	289.072	80.003	19.995	103.358	19.827	28.206	0.543
452.500	289.315	80.004	19.995	103.361	19.823	28.475	0.553
453.000	289.569	80.003	19.996	103.365	19.819	28.704	0.513
453.500	289.824	80.003	19.996	103.370	19.815	28.954	0.503
454.000	290.067	80.003	19.995	103.366	19.815	28.984	0.504
454.500	290.333	80.002	19.995	103.363	19.813	29.099	0.503
455.000	290.589	80.002	19.996	103.362	19.813	29.125	0.516
455.500	290.856	80.003	19.995	103.358	19.810	29.308	0.523
456.000	291.105	80.001	19.997	103.351	19.809	29.395	0.519
456.500	291.383	80.002	19.996	103.352	19.807	29.508	0.521
457.000	291.671	80.002	19.995	103.358	19.806	29.576	0.547
457.500	291.916	80.000	19.996	103.356	19.807	29.559	0.550
458.000	292.163	80.000	19.996	103.357	19.804	29.706	0.513
458.500	292.418	80.002	19.995	103.358	19.800	30.017	0.497
459.000	292.681	80.002	19.995	103.357	19.798	30.134	0.510
459.500	292.924	80.003	19.996	103.356	19.792	30.528	0.512
460.000	293.187	80.002	19.995	103.360	19.795	30.313	0.506
460.500	293.437	80.002	19.995	103.362	19.791	30.595	0.510
461.000	293.692	80.000	19.996	103.363	19.789	30.748	0.509
461.500	293.949	80.001	19.996	103.363	19.788	30.839	0.508
462.000	294.157	80.001	19.996	103.363	19.787	30.853	0.488
462.500	294.451	80.001	19.995	103.366	19.785	31.050	0.484
463.000	294.710	80.001	19.995	103.372	19.785	31.008	0.528
463.500	294.964	80.001	19.996	103.375	19.777	31.547	0.533
464.000	295.226	80.001	19.996	103.378	19.776	31.626	0.515
464.500	295.467	80.002	19.995	103.373	19.775	31.721	0.510
465.000	295.712	80.002	19.996	103.371	19.776	31.647	0.494
465.500	295.982	80.002	19.996	103.371	19.773	31.848	0.501
466.000	296.249	80.002	19.996	103.373	19.770	32.023	0.526
466.500	296.504	80.002	19.996	103.376	19.766	32.293	0.529
467.000	296.741	80.002	19.996	103.384	19.763	32.508	0.507
467.500	296.979	80.003	19.997	103.385	19.761	32.661	0.484
468.000	297.226	80.003	19.995	103.385	19.758	32.857	0.480
468.500	297.480	80.004	19.996	103.385	19.760	32.729	0.493
469.000	297.741	80.002	19.995	103.383	19.757	32.887	0.508
469.500	297.996	80.002	19.995	103.381	19.753	33.165	0.515
470.000	298.272	80.002	19.997	103.381	19.750	33.386	0.523
470.500	298.469	80.002	19.997	103.381	19.750	33.369	0.502
471.000	298.790	80.002	19.996	103.382	19.748	33.524	0.496
471.500	299.001	80.002	19.997	103.384	19.745	33.701	0.525
472.000	299.315	80.001	19.997	103.386	19.746	33.628	0.528
472.500	299.528	80.002	19.996	103.386	19.745	33.743	0.526
473.000	299.800	80.002	19.994	103.387	19.741	33.990	0.506
473.500	300.032	80.003	19.996	103.384	19.740	34.030	0.494
474.000	300.299	80.004	19.996	103.381	19.737	34.291	0.501
474.500	300.544	80.002	19.996	103.381	19.733	34.569	0.506
475.000	300.806	80.002	19.995	103.381	19.732	34.611	0.510
475.500	301.050	80.002	19.996	103.381	19.729	34.832	0.507
476.000	301.319	80.003	19.996	103.385	19.724	35.136	0.509
476.500	301.542	80.003	19.995	103.388	19.726	35.034	0.503
477.000	301.826	80.002	19.996	103.388	19.723	35.203	0.500
477.500	302.059	80.003	19.996	103.388	19.720	35.426	0.512
478.000	302.277	80.002	19.996	103.387	19.718	35.568	0.484
478.500	302.557	80.002	19.995	103.387	19.717	35.652	0.475
479.000	302.802	80.002	19.995	103.387	19.715	35.765	0.512
479.500	303.118	80.003	19.995	103.388	19.712	35.961	0.543
480.000	303.338	80.003	19.995	103.388	19.705	36.435	0.549
480.500	303.577	80.002	19.996	103.388	19.706	36.339	0.498
481.000	303.788	80.002	19.996	103.388	19.704	36.526	0.455
481.500	304.037	80.004	19.995	103.389	19.703	36.601	0.455
482.000	304.317	80.002	19.996	103.389	19.703	36.601	0.494
482.500	304.548	80.001	19.995	103.389	19.698	36.937	0.520
483.000	304.786	80.003	19.994	103.389	19.697	36.965	0.490
483.500	305.072	80.002	19.995	103.389	19.692	37.309	0.497
484.000	305.280	80.003	19.995	103.389	19.691	37.417	0.509
484.500	305.578	80.002	19.995	103.389	19.690	37.473	0.500
485.000	305.799	80.003	19.996	103.391	19.686	37.729	0.512
485.500	306.118	80.004	19.995	103.393	19.685	37.779	0.529
486.000	306.329	80.002	19.995	103.393	19.680	38.136	0.535
486.500	306.578	80.003	19.996	103.400	19.677	38.336	0.495
487.000	306.797	80.003	19.994	103.407	19.681	38.076	0.464
487.500	307.080	80.004	19.996	103.412	19.680	38.127	0.485
488.000	307.303	80.002	19.995	103.414	19.676	38.432	0.504
488.500	307.580	80.004	19.994	103.416	19.675	38.454	0.504
489.000	307.819	80.004	19.996	103.410	19.677	38.367	0.508
489.500	308.117	80.004	19.995	103.403	19.672	38.692	0.526
490.000	308.276	80.003	19.996	103.396	19.661	39.401	0.497
490.500	308.566	80.004	19.995	103.395	19.654	39.899	0.453
491.000	308.796	80.005	19.994	103.395	19.660	39.491	0.485
491.500	309.039	80.005	19.997	103.402	19.659	39.538	0.497
492.000	309.342	80.005	19.995	103.408	19.654	39.857	0.509
492.500	309.530	80.004	19.995	103.412	19.649	40.254	0.518
493.000	309.766	80.005	19.995	103.413	19.649	40.201	0.458
493.500	310.079	80.005	19.995	103.411	19.647	40.374	0.486
494.000	310.252	80.005	19.994	103.412	19.645	40.470	0.517
494.500	310.514	80.005	19.994	103.413	19.644	40.573	0.461
495.000	310.853	80.006	19.995	103.414	19.638	40.975	0.518
495.500	311.049	80.005	19.995	103.416	19.633	41.308	0.568
496.000	311.259	80.005	19.996	103.420	19.634	41.240	0.471
496.500	311.534	80.005	19.996	103.417	19.632	41.348	0.446
497.000	311.811	80.006	19.995	103.417	19.630	41.521	0.518
497.500	312.029	80.006	19.993	103.418	19.627	41.699	0.524
498.000	312.289	80.005	19.994	103.419	19.626	41.763	0.487
498.500	312.579	80.004	19.995	103.420	19.625	41.883	0.514
499.000	312.837	80.006	19.996	103.422	19.622	42.076	0.549
499.500	313.052	80.005	19.995	103.421	19.620	42.194	0.511
500.000	313.355	80.005	19.994	103.420	19.613	42.677	0.495
500.500	313.411	80.005	19.994	103.419	19.612	42.737	0.438
501.000	314.053	80.005	19.994	103.413	19.608	43.019	0.528
501.500	314.047	80.005	19.995	103.408	19.607	43.066	0.667
502.000	314.372	80.005	19.996	103.406	19.603	43.338	0.478
502.500	314.851	80.005	19.996	103.406	19.604	43.270	0.561
503.000	314.954	80.004	19.995	103.406	19.600	43.571	0.693
503.500	315.330	80.005	19.995	103.412	19.595	43.865	0.530
504.000	315.404	80.004	19.996	103.417	19.593	44.005	0.464
504.500	315.282	80.004	19.994	103.420	19.594	43.940	0.201
505.000	315.608	80.003	19.994	103.420	19.590	44.243	0.078
505.500	316.202	80.003	19.996	103.421	19.590	44.256	0.563
506.000	316.149	80.004	19.996	103.422	19.586	44.523	0.731
506.500	316.476	80.002	19.996	103.423	19.581	44.827	0.408
507.000	316.728	80.003	19.997	103.423	19.578	45.035	0.427
507.500	317.017	80.002	19.996	103.423	19.576	45.158	0.560
508.000	317.255	80.001	19.995	103.423	19.577	45.103	0.534
508.500	317.497	80.003	19.996	103.424	19.571	45.480	0.503
509.000	317.726	80.002	19.995	103.424	19.567	45.779	0.475
509.500	317.957	80.003	19.997	103.427	19.570	45.570	0.465
510.000	318.185	80.001	19.995	103.432	19.566	45.826	0.460
510.500	318.499	80.002	19.996	103.433	19.563	46.060	0.501
511.000	318.657	80.002	19.994	103.432	19.558	46.382	0.507
511.500	318.934	80.003	19.995	103.433	19.559	46.323	0.454
512.000	319.218	80.002	19.995	103.429	19.550	46.964	0.498
512.500	319.483	80.002	19.995	103.424	19.551	46.899	0.555
513.000	319.683	80.003	19.996	103.423	19.549	46.992	0.507
513.500	319.902	80.001	19.994	103.423	19.546	47.232	0.442
514.000	320.187	80.001	19.995	103.425	19.540	47.640	0.461
514.500	320.372	80.002	19.997	103.430	19.539	47.716	0.487
515.000	320.633	80.001	19.996	103.434	19.536	47.878	0.458
515.500	320.912	80.002	19.997	103.437	19.535	47.961	0.493
516.000	321.142	80.002	19.996	103.440	19.533	48.102	0.525
516.500	321.407	80.003	19.996	103.438	19.530	48.265	0.502
517.000	321.624	80.003	19.996	103.435	19.526	48.538	0.488
517.500	321.893	80.002	19.996	103.432	19.524	48.734	0.484
518.000	322.123	80.002	19.997	103.431	19.525	48.655	0.493
518.500	322.376	80.002	19.996	103.432	19.520	48.960	0.491
519.000	322.587	80.002	19.994	103.436	19.514	49.409	0.474
519.500	322.847	80.003	19.995	103.440	19.515	49.339	0.468
520.000	323.121	80.004	19.995	103.446	19.510	49.686	0.502
520.500	323.339	80.003	19.995	103.451	19.508	49.807	0.513
521.000	323.592	80.003	19.996	103.454	19.505	50.013	0.481
521.500	323.825	80.002	19.996	103.457	19.503	50.123	0.478
522.000	324.061	80.003	19.995	103.460	19.498	50.456	0.478
522.500	324.316	80.003	19.995	103.458	19.494	50.733	0.480
523.000	324.551	80.002	19.994	103.456	19.493	50.792	0.490
523.500	324.775	80.002	19.996	103.454	19.491	50.957	0.474
524.000	325.061	80.002	19.994	103.454	19.486	51.275	0.485
524.500	325.245	80.003	19.996	103.452	19.485	51.376	0.490
525.000	325.487	80.002	19.995	103.454	19.484	51.426	0.448
525.500	325.723	80.003	19.994	103.456	19.481	51.646	0.452
526.000	325.973	80.003	19.996	103.460	19.477	51.915	0.482
526.500	326.230	80.003	19.995	103.460	19.474	52.114	0.496
527.000	326.465	80.001	19.996	103.463	19.471	52.318	0.500
527.500	326.726	80.003	19.996	103.464	19.466	52.638	0.494
528.000	326.976	80.003	19.995	103.464	19.466	52.669	0.504
528.500	327.240	80.002	19.995	103.465	19.463	52.849	0.512
529.000	327.474	80.004	19.996	103.466	19.457	53.248	0.506
529.500	327.683	80.003	19.995	103.467	19.456	53.333	0.471
530.000	327.930	80.002	19.996	103.466	19.452	53.568	0.449
530.500	328.196	80.002	19.996	103.466	19.452	53.619	0.484
531.001	328.394	80.003	19.995	103.465	19.451	53.661	0.489
531.500	328.645	80.002	19.994	103.464	19.442	54.262	0.457
532.000	328.929	80.002	19.995	103.466	19.442	54.244	0.492
532.500	329.179	80.002	19.996	103.466	19.437	54.579	0.535
533.000	329.388	80.001	19.995	103.466	19.436	54.674	0.496
533.500	329.651	80.002	19.996	103.466	19.435	54.774	0.466
534.000	329.881	80.003	19.996	103.466	19.430	55.057	0.482
534.500	330.143	80.002	19.995	103.465	19.429	55.174	0.492
535.000	330.358	80.002	19.996	103.466	19.426	55.352	0.484
535.500	330.616	80.002	19.996	103.466	19.422	55.620	0.475
536.000	330.819	80.002	19.997	103.466	19.418	55.899	0.467
536.500	331.114	80.002	19.995	103.468	19.419	55.810	0.480
537.000	331.355	80.003	19.996	103.472	19.414	56.146	0.517
537.500	331.570	80.001	19.996	103.471	19.411	56.362	0.496
538.000	331.849	80.001	19.995	103.470	19.412	56.300	0.475
538.500	332.084	80.002	19.996	103.475	19.408	56.610	0.504
539.000	332.327	80.002	19.995	103.481	19.408	56.554	0.497
539.500	332.567	80.002	19.994	103.485	19.401	57.064	0.481
540.000	332.825	80.001	19.996	103.493	19.400	57.118	0.490
540.500	333.049	80.001	19.997	103.501	19.395	57.442	0.490
541.000	333.298	80.002	19.996	103.502	19.396	57.387	0.478
541.500	333.528	80.001	19.996	103.494	19.393	57.568	0.476
542.000	333.815	80.002	19.997	103.489	19.387	57.964	0.498
542.500	334.031	80.001	19.995	103.488	19.384	58.231	0.510
543.000	334.311	80.002	19.995	103.487	19.383	58.238	0.499
543.500	334.523	80.002	19.995	103.489	19.382	58.314	0.494
544.000	334.747	80.001	19.997	103.496	19.380	58.457	0.464
544.500	335.040	80.001	19.996	103.500	19.375	58.841	0.477
545.000	335.308	80.002	19.995	103.502	19.374	58.865	0.539
545.500	335.525	80.001	19.997	103.502	19.372	59.003	0.523
546.000	335.795	80.003	19.995	103.506	19.366	59.449	0.486
546.500	336.013	80.001	19.997	103.510	19.366	59.428	0.488
547.000	336.246	80.001	19.995	103.511	19.369	59.203	0.469
547.500	336.512	80.001	19.995	103.511	19.360	59.823	0.475
548.000	336.741	80.003	19.997	103.511	19.357	60.050	0.497
548.500	336.995	80.002	19.996	103.508	19.355	60.188	0.490
549.000	337.258	80.004	19.996	103.506	19.354	60.252	0.500
549.500	337.545	80.003	19.995	103.505	19.353	60.269	0.533
550.000	337.761	80.004	19.995	103.504	19.350	60.513	0.526
550.500	338.038	80.003	19.996	103.499	19.347	60.690	0.498
551.000	338.289	80.003	19.996	103.499	19.344	60.881	0.511
551.500	338.531	80.005	19.996	103.497	19.342	61.055	0.511
552.000	338.788	80.004	19.994	103.496	19.342	61.015	0.496
552.500	339.035	80.003	19.996	103.495	19.340	61.185	0.501
553.000	339.275	80.002	19.996	103.500	19.337	61.406	0.496
553.500	339.533	80.003	19.996	103.499	19.335	61.521	0.493
554.000	339.769	80.004	19.995	103.500	19.331	61.798	0.496
554.500	340.035	80.004	19.996	103.501	19.335	61.517	0.498
555.000	340.297	80.005	19.996	103.501	19.332	61.685	0.515
555.500	340.509	80.004	19.996	103.501	19.332	61.735	0.501
556.000	340.782	80.005	19.996	103.500	19.325	62.184	0.479
556.500	340.978	80.004	19.996	103.500	19.326	62.156	0.477
557.000	341.239	80.005	19.995	103.500	19.327	62.091	0.463
557.500	341.552	80.003	19.995	103.500	19.324	62.284	0.515
558.000	341.781	80.005	19.996	103.500	19.319	62.590	0.558
558.500	342.017	80.004	19.996	103.501	19.320	62.528	0.503
559.000	342.263	80.003	19.995	103.501	19.319	62.609	0.474
559.500	342.546	80.004	19.996	103.501	19.319	62.573	0.506
560.000	342.764	80.002	19.996	103.501	19.319	62.609	0.515
560.500	343.034	80.003	19.997	103.501	19.319	62.606	0.494
561.000	343.260	80.003	19.996	103.501	19.314	62.907	0.492
561.500	343.532	80.003	19.996	103.500	19.319	62.597	0.497
562.000	343.797	80.003	19.995	103.500	19.315	62.842	0.518
562.500	344.002	80.002	19.996	103.500	19.314	62.928	0.503
563.000	344.295	80.002	19.996	103.500	19.310	63.187	0.483
563.500	344.557	80.003	19.995	103.500	19.314	62.889	0.526
564.000	344.816	80.002	19.996	103.500	19.310	63.142	0.538
564.500	345.076	80.002	19.996	103.499	19.314	62.905	0.520
565.000	345.323	80.001	19.995	103.498	19.311	63.140	0.513
565.500	345.569	80.002	19.999	103.496	19.316	62.840	0.500
566.000	345.812	80.003	19.998	103.496	19.317	62.765	0.491
566.500	346.114	80.003	19.998	103.496	19.314	62.956	0.517
567.000	346.351	80.002	19.998	103.496	19.316	62.749	0.542
567.500	346.587	80.003	19.999	103.497	19.316	62.765	0.506
568.000	346.850	80.004	19.997	103.498	19.312	63.031	0.486
568.500	347.130	80.002	19.997	103.495	19.317	62.686	0.521
569.000	347.393	80.004	19.998	103.493	19.316	62.755	0.544
569.500	347.646	80.003	19.997	103.493	19.320	62.463	0.530
570.000	347.909	80.004	19.996	103.493	19.316	62.744	0.516
570.500	348.121	80.003	19.996	103.492	19.318	62.645	0.495
571.000	348.392	80.004	19.997	103.495	19.319	62.584	0.479
571.500	348.664	80.003	19.996	103.497	19.321	62.456	0.513
572.000	348.927	80.003	19.996	103.495	19.321	62.433	0.539
572.500	349.189	80.003	19.995	103.495	19.323	62.269	0.530
573.000	349.435	80.004	19.996	103.466	19.323	62.261	0.516
573.500	349.679	80.004	19.996	103.439	19.325	62.131	0.499
574.000	349.995	80.004	19.997	103.424	19.329	61.902	0.525
574.500	350.222	80.005	19.996	103.416	19.331	61.713	0.551
575.000	350.499	80.005	19.996	103.437	19.336	61.431	0.524
575.500	350.738	80.005	19.995	103.476	19.335	61.441	0.510
576.000	350.997	80.005	19.997	103.499	19.340	61.157	0.506
576.500	351.270	80.005	19.995	103.509	19.343	60.924	0.515
577.000	351.527	80.005	19.996	103.510	19.342	60.989	0.532
577.500	351.796	80.006	19.996	103.482	19.345	60.762	0.528
578.000	352.036	80.006	19.994	103.465	19.353	60.244	0.517
578.500	352.325	80.006	19.995	103.459	19.352	60.275	0.519
579.000	352.582	80.006	19.995	103.456	19.357	59.973	0.538
579.500	352.868	80.006	19.994	103.451	19.358	59.879	0.544
580.000	353.135	80.005	19.994	103.443	19.362	59.599	0.548
580.500	353.397	80.005	19.995	103.436	19.365	59.392	0.541
581.000	353.652	80.005	19.995	103.432	19.370	59.061	0.523
581.500	353.939	80.005	19.995	103.430	19.374	58.820	0.529
582.000	354.204	80.006	19.994	103.429	19.381	58.313	0.547
582.500	354.477	80.005	19.995	103.430	19.384	58.125	0.545
583.000	354.701	80.006	19.994	103.430	19.392	57.566	0.518
583.500	354.992	80.006	19.996	103.427	19.392	57.546	0.506
584.000	355.172	80.006	19.994	103.425	19.400	57.003	0.493
584.500	355.473	80.004	19.995	103.423	19.402	56.884	0.476
585.000	355.765	80.004	19.995	103.422	19.408	56.516	0.537
585.500	356.000	80.005	19.995	103.422	19.413	56.123	0.560
586.000	356.272	80.003	19.996	103.422	19.420	55.691	0.517
586.500	356.560	80.004	19.994	103.418	19.424	55.402	0.534
587.000	356.782	80.004	19.996	103.414	19.431	54.956	0.535
587.500	357.067	80.003	19.995	103.409	19.436	54.617	0.508
588.000	357.334	80.004	19.995	103.405	19.442	54.194	0.529
588.500	357.597	80.003	19.995	103.400	19.445	53.945	0.541
589.000	357.869	80.003	19.995	103.399	19.454	53.369	0.532
589.500	358.143	80.002	19.996	103.397	19.460	52.989	0.541
590.000	358.367	80.003	19.995	103.395	19.466	52.567	0.522
590.500	358.676	80.002	19.995	103.388	19.475	51.909	0.515
591.000	358.915	80.003	19.995	103.381	19.481	51.530	0.540
591.500	359.176	80.004	19.994	103.372	19.488	51.095	0.524
592.000	359.439	80.002	19.996	103.363	19.495	50.566	0.512
592.500	359.674	80.004	19.995	103.358	19.504	50.001	0.511
593.000	359.974	80.002	19.994	103.358	19.511	49.519	0.517
593.500	360.209	80.002	19.995	103.356	19.519	48.946	0.535
594.000	360.476	80.002	19.995	103.355	19.526	48.457	0.518
594.500	360.783	80.002	19.995	103.355	19.536	47.806	0.538
595.000	361.035	80.003	19.995	103.351	19.546	47.109	0.567
595.500	361.267	80.002	19.996	103.344	19.550	46.886	0.522
596.000	361.552	80.002	19.995	103.341	19.559	46.272	0.501
596.500	361.826	80.001	19.996	103.336	19.567	45.705	0.538
597.000	362.073	80.002	19.997	103.329	19.573	45.314	0.540
597.500	362.356	80.002	19.995	103.324	19.582	44.715	0.525
598.000	362.600	80.001	19.995	103.324	19.592	44.052	0.528
598.500	362.879	80.002	19.995	103.321	19.600	43.452	0.525
599.000	363.130	80.002	19.995	103.320	19.608	42.923	0.527
599.500	363.396	80.002	19.996	103.319	19.619	42.164	0.524
600.000	363.648	80.003	19.995	103.317	19.626	41.695	0.517
600.500	363.911	80.003	19.997	103.313	19.636	41.015	0.516
601.000	364.186	80.002	19.995	103.310	19.646	40.378	0.527
601.500	364.435	80.002	19.995	103.307	19.656	39.703	0.531
602.000	364.735	80.002	19.995	103.306	19.668	38.897	0.536
602.500	364.973	80.002	19.996	103.304	19.673	38.511	0.543
603.000	365.249	80.002	19.996	103.303	19.682	37.945	0.526
603.500	365.487	80.002	19.996	103.296	19.692	37.228	0.514
604.000	365.751	80.002	19.996	103.290	19.697	36.921	0.508
604.500	366.050	80.002	19.995	103.286	19.709	36.071	0.533
605.000	366.317	80.002	19.996	103.280	19.719	35.395	0.565
605.500	366.592	80.002	19.995	103.274	19.729	34.755	0.554
606.000	366.811	80.003	19.996	103.271	19.738	34.169	0.518
606.500	367.077	80.003	19.995	103.271	19.744	33.764	0.489
607.000	367.351	80.002	19.995	103.269	19.756	32.934	0.513
607.500	367.624	80.001	19.994	103.268	19.766	32.283	0.544
608.000	367.907	80.003	19.995	103.267	19.774	31.726	0.552
608.500	368.178	80.002	19.995	103.268	19.779	31.373	0.555
609.000	368.462	80.004	19.994	103.266	19.791	30.545	0.555
609.500	368.679	80.002	19.994	103.263	19.800	29.976	0.528
610.000	368.947	80.003	19.994	103.262	19.812	29.170	0.493
610.500	369.261	80.003	19.994	103.258	19.820	28.602	0.534
611.000	369.492	80.002	19.995	103.256	19.831	27.866	0.564
611.500	369.784	80.005	19.995	103.250	19.839	27.342	0.534
612.000	370.034	80.003	19.995	103.246	19.848	26.704	0.532
612.500	370.336	80.002	19.995	103.240	19.858	26.031	0.546
613.000	370.569	80.004	19.993	103.238	19.864	25.626	0.543
613.500	370.855	80.003	19.995	103.233	19.873	25.026	0.527
614.000	371.100	80.003	19.994	103.233	19.881	24.491	0.525
614.500	371.410	80.004	19.996	103.230	19.886	24.138	0.543
615.000	371.671	80.004	19.995	103.224	19.896	23.499	0.563
615.500	371.881	80.003	19.995	103.219	19.904	22.937	0.521
616.000	372.198	80.003	19.995	103.216	19.911	22.486	0.499
616.500	372.464	80.002	19.993	103.216	19.918	21.968	0.555
617.000	372.719	80.004	19.995	103.218	19.923	21.641	0.552
617.500	372.992	80.003	19.994	103.223	19.932	21.023	0.525
618.000	373.217	80.002	19.997	103.227	19.940	20.480	0.513
618.500	373.525	80.002	19.996	103.230	19.946	20.065	0.515
619.000	373.797	80.002	19.995	103.230	19.951	19.726	0.556
619.500	374.086	80.002	19.995	103.230	19.961	19.108	0.570
620.000	374.324	80.003	19.995	103.229	19.965	18.826	0.544
620.500	374.559	80.003	19.995	103.228	19.971	18.373	0.500
621.000	374.847	80.002	19.994	103.224	19.980	17.785	0.498
621.500	375.114	80.003	19.995	103.219	19.982	17.670	0.539
622.000	375.361	80.003	19.995	103.216	19.988	17.244	0.534
622.500	375.610	80.002	19.996	103.216	19.994	16.866	0.505
623.000	375.860	80.003	19.995	103.212	20.001	16.362	0.497
623.500	376.112	80.003	19.995	103.210	20.004	16.152	0.501
624.000	376.413	80.001	19.995	103.211	20.009	15.811	0.528
624.500	376.688	80.002	19.995	103.215	20.016	15.400	0.565
625.000	376.931	80.001	19.995	103.216	20.017	15.330	0.547
625.500	377.218	80.003	19.997	103.219	20.023	14.926	0.524
626.000	377.477	80.002	19.997	103.220	20.028	14.575	0.538
626.500	377.735	80.001	19.996	103.216	20.027	14.633	0.531
627.000	378.013	80.003	19.997	103.207	20.035	14.111	0.526
627.500	378.274	80.003	19.996	103.198	20.037	13.957	0.538
628.000	378.540	80.003	19.996	103.192	20.040	13.751	0.533
628.500	378.801	80.002	19.996	103.189	20.043	13.563	0.527
629.000	379.029	80.003	19.996	103.188	20.046	13.312	0.508
629.500	379.284	80.002	19.996	103.195	20.051	12.992	0.486
630.000	379.548	80.002	19.996	103.197	20.054	12.781	0.500
630.500	379.824	80.002	19.997	103.197	20.056	12.664	0.529
631.000	380.043	80.002	19.996	103.197	20.058	12.520	0.518
631.500	380.320	80.002	19.996	103.196	20.063	12.183	0.496
632.000	380.583	80.002	19.997	103.192	20.064	12.118	0.518
632.500	380.851	80.002	19.997	103.191	20.067	11.945	0.535
633.000	381.094	80.003	19.996	103.191	20.071	11.664	0.521
633.500	381.376	80.003	19.997	103.193	20.073	11.536	0.518
634.000	381.602	80.005	19.997	103.199	20.075	11.413	0.517
634.500	381.875	80.003	19.996	103.204	20.077	11.253	0.503
635.000	382.122	80.004	19.996	103.206	20.081	10.948	0.510
635.500	382.368	80.004	19.995	103.207	20.083	10.843	0.507
636.000	382.618	80.003	19.995	103.205	20.082	10.944	0.494
636.500	382.908	80.003	19.995	103.199	20.086	10.628	0.518
637.000	383.162	80.003	19.996	103.192	20.092	10.261	0.542
637.500	383.438	80.004	19.994	103.189	20.092	10.241	0.537
638.000	383.686	80.002	19.996	103.188	20.091	10.275	0.527
638.500	383.917	80.004	19.995	103.189	20.093	10.199	0.501
639.000	384.178	80.003	19.996	103.189	20.094	10.077	0.485
639.500	384.454	80.003	19.996	103.189	20.097	9.931	0.515
640.000	384.690	80.004	19.995	103.189	20.100	9.726	0.524
640.500	384.958	80.003	19.996	103.185	20.097	9.877	0.508
641.000	385.205	80.003	19.995	103.183	20.098	9.817	0.510
641.500	385.473	80.003	19.995	103.183	20.098	9.836	0.515
642.000	385.684	80.003	19.996	103.183	20.102	9.552	0.497
642.500	385.972	80.004	19.995	103.183	20.105	9.354	0.489
643.000	386.219	80.003	19.994	103.186	20.104	9.416	0.517
643.500	386.460	80.002	19.996	103.187	20.105	9.346	0.511
644.000	386.749	80.003	19.996	103.188	20.106	9.272	0.509
644.500	387.029	80.002	19.996	103.188	20.104	9.431	0.549
645.000	387.248	80.002	19.995	103.188	20.108	9.148	0.534
645.500	387.505	80.002	19.995	103.187	20.106	9.265	0.488
646.000	387.768	80.004	19.995	103.188	20.108	9.167	0.498
646.500	388.014	80.002	19.996	103.188	20.107	9.222	0.515
647.000	388.256	80.002	19.995	103.188	20.110	9.012	0.499
647.500	388.543	80.003	19.996	103.188	20.110	8.999	0.508
648.000	388.798	80.001	19.994	103.192	20.110	9.052	0.535
648.500	389.034	80.002	19.994	103.195	20.112	8.901	0.517
649.000	389.276	80.003	19.996	103.196	20.113	8.824	0.485
649.500	389.530	80.003	19.996	103.196	20.113	8.826	0.487
650.000	389.800	80.002	19.996	103.196	20.115	8.707	0.510
650.500	390.076	80.003	19.995	103.192	20.114	8.780	0.535
651.000	390.328	80.002	19.996	103.191	20.114	8.752	0.537
651.500	390.556	80.002	19.996	103.194	20.112	8.895	0.504
652.000	390.860	80.002	19.996	103.195	20.117	8.539	0.506
652.500	391.097	80.002	19.996	103.199	20.117	8.522	0.536
653.000	391.334	80.002	19.995	103.200	20.116	8.624	0.507
653.500	391.630	80.003	19.996	103.198	20.116	8.643	0.504
654.000	391.880	80.002	19.996	103.195	20.117	8.565	0.539
654.500	392.128	80.003	19.996	103.195	20.118	8.516	0.522
655.000	392.396	80.002	19.995	103.195	20.119	8.386	0.507
655.500	392.644	80.003	19.996	103.199	20.118	8.503	0.516
656.000	392.911	80.002	19.996	103.200	20.120	8.339	0.516
656.500	393.213	80.005	19.996	103.200	20.119	8.383	0.542
657.000	393.447	80.002	19.996	103.200	20.121	8.304	0.552
657.500	393.714	80.002	19.997	103.197	20.120	8.377	0.518
658.000	393.981	80.003	19.995	103.192	20.121	8.294	0.518
658.500	394.234	80.003	19.997	103.192	20.121	8.288	0.527
659.000	394.475	80.004	19.996	103.191	20.118	8.513	0.507
659.500	394.733	80.004	19.995	103.192	20.119	8.394	0.496
660.000	395.007	80.004	19.996	103.191	20.120	8.379	0.515
660.500	395.287	80.004	19.996	103.191	20.117	8.518	0.543
661.000	395.546	80.004	19.997	103.191	20.122	8.213	0.547
661.500	395.812	80.004	19.996	103.190	20.122	8.189	0.532
662.000	396.070	80.004	19.996	103.189	20.121	8.294	0.524
662.500	396.302	80.004	19.997	103.189	20.126	7.944	0.507
663.000	396.571	80.004	19.996	103.189	20.126	7.976	0.496
663.500	396.836	80.005	19.996	103.190	20.124	8.080	0.517
664.000	397.095	80.004	19.996	103.190	20.126	7.965	0.529
664.500	397.345	80.003	19.996	103.190	20.130	7.707	0.517
665.000	397.574	80.005	19.996	103.190	20.128	7.776	0.495
665.500	397.854	80.004	19.996	103.190	20.129	7.710	0.494
666.000	398.144	80.004	19.996	103.190	20.129	7.748	0.539
666.500	398.354	80.005	19.995	103.190	20.129	7.767	0.534
667.000	398.598	80.004	19.996	103.191	20.132	7.528	0.477
667.500	398.860	80.004	19.995	103.191	20.134	7.373	0.480
668.000	399.165	80.003	19.996	103.191	20.130	7.670	0.536
668.500	399.382	80.004	19.995	103.190	20.132	7.519	0.544
669.000	399.660	80.003	19.995	103.190	20.131	7.637	0.509
669.500	399.879	80.002	19.995	103.189	20.132	7.556	0.496
670.000	400.163	80.003	19.995	103.189	20.132	7.547	0.500
670.500	400.424	80.003	19.995	103.189	20.132	7.545	0.524
671.000	400.660	80.003	19.996	103.189	20.134	7.425	0.521
671.500	400.922	80.002	19.996	103.189	20.133	7.473	0.498
672.000	401.172	80.002	19.995	103.190	20.135	7.317	0.505
672.500	401.411	80.002	19.994	103.190	20.136	7.260	0.500
673.000	401.658	80.003	19.995	103.190	20.133	7.467	0.488
673.500	401.915	80.001	19.995	103.190	20.138	7.136	0.495
674.000	402.178	80.001	19.994	103.191	20.137	7.222	0.512
674.500	402.404	80.001	19.994	103.192	20.135	7.343	0.504
675.000	402.680	80.002	19.994	103.191	20.137	7.201	0.495
675.500	402.925	80.002	19.995	103.191	20.138	7.154	0.512
676.000	403.200	80.002	19.994	103.190	20.138	7.152	0.521
676.500	403.460	80.001	19.995	103.190	20.138	7.105	0.527
677.000	403.697	80.001	19.995	103.190	20.139	7.056	0.516
677.500	403.936	80.002	19.994	103.191	20.137	7.213	0.487
678.000	404.217	80.002	19.994	103.190	20.137	7.183	0.498
678.500	404.499	80.003	19.995	103.187	20.140	7.030	0.541
679.000	404.717	80.003	19.995	103.182	20.139	7.064	0.532
679.500	404.961	80.002	19.994	103.177	20.141	6.917	0.481
680.000	405.235	80.002	19.994	103.172	20.139	7.068	0.490
680.500	405.466	80.002	19.996	103.170	20.141	6.943	0.511
681.000	405.737	80.001	19.995	103.173	20.143	6.819	0.504
681.500	406.001	80.002	19.995	103.177	20.141	6.960	0.518
682.000	406.227	80.003	19.994	103.182	20.140	7.004	0.512
682.500	406.453	80.002	19.995	103.187	20.139	7.056	0.471
683.000	406.711	80.002	19.995	103.191	20.141	6.936	0.468
683.500	406.968	80.002	19.994	103.191	20.141	6.904	0.499
684.000	407.249	80.002	19.996	103.190	20.144	6.721	0.526
684.500	407.487	80.002	19.995	103.190	20.145	6.665	0.528
685.000	407.737	80.002	19.995	103.189	20.145	6.666	0.503
685.500	408.002	80.003	19.995	103.188	20.144	6.697	0.502
686.000	408.239	80.002	19.995	103.188	20.146	6.582	0.509
686.500	408.523	80.003	19.996	103.187	20.143	6.770	0.511
687.000	408.767	80.003	19.995	103.187	20.144	6.740	0.524
687.500	408.987	80.003	19.995	103.186	20.147	6.512	0.496
688.000	409.251	80.001	19.995	103.186	20.148	6.491	0.474
688.500	409.478	80.001	19.994	103.186	20.146	6.613	0.487
689.000	409.767	80.002	19.995	103.187	20.147	6.552	0.503
689.500	410.016	80.002	19.995	103.188	20.149	6.363	0.527
690.000	410.257	80.002	19.997	103.189	20.147	6.533	0.514
690.500	410.513	80.002	19.996	103.189	20.147	6.527	0.494
691.000	410.735	80.003	19.996	103.189	20.147	6.536	0.487
691.500	410.975	80.004	19.996	103.189	20.148	6.461	0.470
692.000	411.260	80.002	19.995	103.189	20.149	6.397	0.494
692.500	411.495	80.003	19.994	103.189	20.151	6.260	0.523
693.000	411.725	80.003	19.996	103.188	20.148	6.482	0.492
693.500	412.002	80.003	19.995	103.188	20.147	6.523	0.486
694.000	412.252	80.003	19.996	103.186	20.148	6.461	0.517
694.500	412.501	80.002	19.996	103.186	20.147	6.540	0.513
695.000	412.769	80.004	19.997	103.186	20.146	6.614	0.508
695.500	412.972	80.003	19.995	103.187	20.146	6.613	0.494
696.000	413.240	80.002	19.997	103.187	20.149	6.361	0.471
696.500	413.491	80.003	19.997	103.188	20.150	6.338	0.495
697.000	413.742	80.002	19.997	103.186	20.146	6.605	0.510
697.500	414.000	80.001	19.996	103.182	20.146	6.568	0.505
698.000	414.203	80.002	19.996	103.181	20.151	6.286	0.485
698.500	414.483	80.003	19.996	103.181	20.153	6.139	0.472
699.000	414.696	80.002	19.995	103.181	20.149	6.378	0.488
699.500	414.976	80.002	19.996	103.183	20.151	6.254	0.493
700.000	415.202	80.002	19.996	103.187	20.151	6.258	0.500
700.500	415.447	80.003	19.995	103.186	20.151	6.241	0.488
701.000	415.696	80.002	19.996	103.187	20.150	6.353	0.482
701.500	415.992	80.003	19.995	103.185	20.151	6.270	0.519
702.000	416.230	80.002	19.995	103.185	20.153	6.131	0.539
702.500	416.470	80.002	19.995	103.185	20.151	6.280	0.506
703.000	416.725	80.002	19.996	103.187	20.150	6.327	0.487
703.500	416.988	80.003	19.996	103.187	20.150	6.303	0.507
704.000	417.212	80.003	19.996	103.190	20.154	6.039	0.503
704.500	417.457	80.003	19.996	103.190	20.154	6.030	0.478
705.000	417.701	80.001	19.996	103.189	20.155	6.013	0.479
705.500	417.962	80.001	19.996	103.189	20.153	6.109	0.497
706.000	418.223	80.002	19.997	103.185	20.155	5.958	0.513
706.500	418.433	80.001	19.996	103.179	20.156	5.911	0.496
707.000	418.699	80.003	19.995	103.175	20.155	6.000	0.474
707.500	418.909	80.002	19.995	103.175	20.153	6.088	0.476
708.000	419.181	80.003	19.996	103.175	20.153	6.098	0.479
708.500	419.426	80.003	19.996	103.178	20.157	5.825	0.499
709.000	419.679	80.001	19.996	103.183	20.157	5.826	0.508
709.500	419.919	80.002	19.996	103.187	20.154	6.077	0.496
710.000	420.180	80.003	19.996	103.189	20.154	6.051	0.497
710.500	420.427	80.003	19.995	103.189	20.157	5.825	0.504
711.000	420.651	80.003	19.996	103.189	20.155	5.975	0.489
711.500	420.940	80.004	19.996	103.186	20.158	5.781	0.492
712.000	421.205	80.004	19.995	103.182	20.157	5.879	0.534
712.500	421.430	80.002	19.996	103.181	20.159	5.723	0.522
713.000	421.686	80.002	19.995	103.180	20.157	5.828	0.485
713.500	421.929	80.003	19.997	103.178	20.157	5.866	0.490
714.000	422.178	80.005	19.995	103.180	20.159	5.687	0.495
714.500	422.438	80.002	19.995	103.185	20.160	5.655	0.501
715.000	422.696	80.003	19.995	103.186	20.159	5.691	0.514
715.500	422.954	80.003	19.995	103.187	20.160	5.621	0.517
716.000	423.200	80.004	19.995	103.189	20.161	5.572	0.510
716.500	423.441	80.004	19.995	103.190	20.157	5.830	0.495
717.000	423.667	80.003	19.994	103.190	20.159	5.745	0.476
717.500	423.956	80.004	19.995	103.189	20.161	5.608	0.491
718.000	424.202	80.004	19.994	103.189	20.157	5.865	0.525
718.500	424.454	80.005	19.995	103.189	20.161	5.586	0.517
719.000	424.729	80.004	19.997	103.189	20.159	5.689	0.512
719.500	424.979	80.004	19.995	103.189	20.159	5.702	0.526
720.000	425.245	80.005	19.996	103.190	20.161	5.601	0.521
720.500	425.478	80.004	19.996	103.190	20.160	5.675	0.508
721.000	425.724	80.005	19.996	103.190	20.161	5.610	0.489
721.500	425.979	80.005	19.995	103.190	20.158	5.755	0.490
722.000	426.250	80.005	19.995	103.189	20.163	5.481	0.514
722.500	426.480	80.004	19.995	103.188	20.160	5.649	0.513
723.000	426.768	80.003	19.996	103.188	20.162	5.542	0.509
723.500	426.995	80.003	19.996	103.188	20.160	5.655	0.517
724.000	427.273	80.004	19.996	103.188	20.158	5.809	0.510
724.500	427.542	80.003	19.996	103.189	20.161	5.577	0.526
725.000	427.780	80.003	19.996	103.190	20.162	5.543	0.527
725.500	428.047	80.003	19.996	103.190	20.160	5.673	0.506
726.000	428.308	80.003	19.996	103.187	20.162	5.529	0.517
726.500	428.590	80.004	19.996	103.186	20.159	5.687	0.535
727.000	428.839	80.003	19.996	103.186	20.161	5.584	0.537
727.500	429.102	80.003	19.995	103.189	20.160	5.680	0.522
728.000	429.353	80.003	19.997	103.175	20.161	5.564	0.513
728.500	429.597	80.004	19.995	103.155	20.160	5.649	0.504
729.000	429.850	80.003	19.996	103.140	20.161	5.560	0.496
729.500	430.125	80.004	19.996	103.129	20.162	5.540	0.513
730.000	430.369	80.003	19.996	103.123	20.162	5.527	0.523
730.500	430.633	80.004	19.996	103.159	20.165	5.340	0.513
731.000	430.864	80.004	19.996	103.199	20.162	5.487	0.501
731.500	431.130	80.001	19.996	103.218	20.160	5.645	0.496
732.000	431.391	80.003	19.995	103.229	20.164	5.402	0.512
732.500	431.647	80.003	19.995	103.232	20.162	5.498	0.522
733.000	431.867	80.001	19.995	103.206	20.161	5.557	0.496
733.500	432.138	80.004	19.995	103.186	20.163	5.464	0.483
734.000	432.399	80.004	19.996	103.182	20.166	5.248	0.512
734.500	432.670	80.004	19.995	103.180	20.167	5.178	0.532
735.000	432.924	80.004	19.995	103.175	20.166	5.233	0.529
735.500	433.190	80.003	19.995	103.171	20.163	5.446	0.522
736.000	433.469	80.002	19.995	103.170	20.165	5.323	0.532
736.500	433.656	80.004	19.996	103.165	20.167	5.201	0.506
737.000	433.979	80.004	19.994	103.160	20.164	5.359	0.488
737.500	434.215	80.004	19.995	103.162	20.167	5.208	0.535
738.000	434.445	80.004	19.995	103.165	20.169	5.036	0.512
738.500	434.709	80.004	19.995	103.167	20.170	4.987	0.480
739.000	435.000	80.004	19.994	103.170	20.172	4.857	0.524
739.500	435.226	80.002	19.995	103.177	20.169	5.008	0.536
740.000	435.474	80.003	19.995	103.181	20.168	5.100	0.495
740.500	435.716	80.004	19.995	103.181	20.168	5.128	0.482
741.000	435.983	80.004	19.995	103.182	20.170	4.949	0.499
741.500	436.246	80.004	19.996	103.181	20.171	4.897	0.520
742.000	436.492	80.004	19.996	103.182	20.171	4.928	0.520
742.500	436.786	80.005	19.996	103.181	20.170	4.996	0.525
743.000	436.999	80.005	19.995	103.185	20.168	5.100	0.523
743.500	437.274	80.005	19.995	103.185	20.169	5.072	0.497
744.000	437.545	80.004	19.995	103.186	20.170	4.976	0.517
744.500	437.800	80.005	19.995	103.184	20.170	4.989	0.536
745.000	438.056	80.004	19.995	103.185	20.170	4.985	0.518
745.500	438.277	80.005	19.996	103.184	20.168	5.137	0.495
746.000	438.565	80.004	19.996	103.185	20.168	5.111	0.493
746.500	438.814	80.005	19.995	103.187	20.170	4.977	0.523
747.000	439.079	80.006	19.997	103.188	20.171	4.883	0.525
747.500	439.328	80.007	19.996	103.185	20.172	4.857	0.514
748.000	439.558	80.005	19.997	103.179	20.171	4.904	0.497
748.500	439.862	80.005	19.997	103.177	20.171	4.881	0.507
749.000	440.092	80.004	19.995	103.175	20.171	4.923	0.534
749.500	440.396	80.007	19.996	103.171	20.171	4.909	0.534
750.000	440.587	80.006	19.995	103.173	20.171	4.887	0.515
750.500	440.889	80.004	19.996	103.178	20.173	4.770	0.494
751.000	441.137	80.005	19.996	103.173	20.170	4.981	0.521
751.500	441.409	80.004	19.996	103.169	20.174	4.681	0.535
752.000	441.637	80.004	19.996	103.166	20.176	4.599	0.510
752.500	441.926	80.004	19.996	103.164	20.175	4.661	0.508
753.000	442.168	80.003	19.997	103.163	20.174	4.731	0.524
753.500	442.443	80.002	19.996	103.165	20.178	4.460	0.524
754.000	442.661	80.003	19.998	103.169	20.174	4.682	0.506
754.500	442.899	80.003	19.997	103.171	20.175	4.650	0.474
755.000	443.167	80.003	19.996	103.168	20.174	4.691	0.481
755.500	443.431	80.002	19.997	103.163	20.177	4.501	0.519
756.000	443.663	80.001	19.996	103.164	20.174	4.681	0.514
756.500	443.926	80.003	19.997	103.162	20.178	4.454	0.495
757.000	444.166	80.003	19.996	103.159	20.179	4.399	0.499
757.500	444.440	80.003	19.997	103.159	20.175	4.620	0.508
758.000	444.680	80.003	19.996	103.160	20.174	4.712	0.514
758.500	444.949	80.003	19.997	103.156	20.180	4.284	0.511
759.000	445.192	80.002	19.996	103.161	20.177	4.472	0.511
759.500	445.418	80.003	19.996	103.160	20.179	4.343	0.491
760.000	445.683	80.003	19.996	103.159	20.176	4.563	0.480
760.500	445.923	80.001	19.996	103.157	20.179	4.340	0.498
761.000	446.178	80.003	19.996	103.156	20.181	4.216	0.500
761.500	446.423	80.004	19.997	103.150	20.181	4.252	0.497
762.000	446.675	80.002	19.996	103.151	20.179	4.342	0.498
762.500	446.939	80.002	19.996	103.156	20.176	4.546	0.507
763.000	447.196	80.002	19.996	103.161	20.178	4.431	0.519
763.500	447.450	80.003	19.995	103.165	20.176	4.587	0.516
764.000	447.692	80.003	19.996	103.168	20.181	4.198	0.503
764.500	447.968	80.002	19.995	103.169	20.179	4.364	0.507
765.000	448.183	80.003	19.995	103.163	20.179	4.335	0.504
765.500	448.439	80.004	19.996	103.159	20.179	4.345	0.481
766.000	448.709	80.001	19.995	103.156	20.181	4.238	0.499
766.500	448.995	80.003	19.995	103.155	20.183	4.110	0.541
767.000	449.224	80.002	19.996	103.154	20.181	4.236	0.535
767.500	449.468	80.003	19.995	103.156	20.182	4.189	0.494
768.000	449.707	80.004	19.995	103.157	20.184	4.004	0.479
768.500	449.974	80.002	19.995	103.160	20.183	4.096	0.495
769.000	450.237	80.002	19.995	103.157	20.183	4.077	0.518
769.500	450.487	80.002	19.995	103.157	20.185	3.932	0.522
770.000	450.722	80.003	19.995	103.156	20.180	4.279	0.499
770.500	450.989	80.003	19.996	103.156	20.184	4.040	0.493
771.000	451.249	80.004	19.995	103.153	20.184	4.052	0.514
771.500	451.461	80.002	19.995	103.153	20.184	4.046	0.499
772.000	451.758	80.004	19.995	103.153	20.184	4.013	0.491
772.500	451.997	80.004	19.995	103.153	20.184	4.013	0.523
773.000	452.239	80.001	19.995	103.152	20.183	4.064	0.508
773.500	452.515	80.004	19.994	103.153	20.186	3.900	0.499
774.000	452.723	80.005	19.995	103.154	20.186	3.927	0.501
774.500	452.991	80.004	19.995	103.154	20.185	3.946	0.480
775.000	453.208	80.005	19.995	103.158	20.184	4.001	0.481
775.500	453.456	80.003	19.995	103.164	20.183	4.069	0.475
776.000	453.716	80.002	19.995	103.168	20.184	3.999	0.486
776.500	453.975	80.002	19.995	103.173	20.185	3.969	0.514
777.000	454.186	80.003	19.994	103.179	20.186	3.861	0.494
777.500	454.471	80.003	19.995	103.178	20.187	3.859	0.483
778.000	454.714	80.002	19.995	103.174	20.184	4.000	0.512
778.500	454.970	80.002	19.995	103.170	20.188	3.742	0.513
779.000	455.213	80.002	19.995	103.164	20.184	4.021	0.499
779.500	455.434	80.003	19.996	103.160	20.185	3.994	0.481
780.000	455.694	80.003	19.996	103.164	20.189	3.674	0.473
780.500	455.962	80.002	19.995	103.166	20.188	3.729	0.505
781.000	456.236	80.003	19.996	103.170	20.188	3.755	0.535
781.500	456.481	80.004	19.996	103.177	20.186	3.872	0.530
782.000	456.718	80.002	19.995	103.178	20.187	3.793	0.501
782.500	456.961	80.002	19.995	103.173	20.186	3.862	0.481
783.000	457.216	80.002	19.995	103.169	20.191	3.531	0.489
783.500	457.455	80.001	19.994	103.164	20.190	3.612	0.496
784.000	457.724	80.003	19.995	103.160	20.190	3.655	0.501
784.500	457.937	80.003	19.995	103.159	20.188	3.789	0.495
785.000	458.200	80.002	19.996	103.161	20.189	3.708	0.479
785.500	458.485	80.001	19.996	103.168	20.189	3.691	0.512
786.000	458.720	80.003	19.995	103.176	20.190	3.623	0.534
786.500	458.993	80.003	19.996	103.181	20.189	3.670	0.514
787.000	459.215	80.003	19.995	103.185	20.190	3.655	0.502
787.500	459.500	80.001	19.995	103.184	20.190	3.599	0.501
788.000	459.717	80.003	19.995	103.177	20.189	3.686	0.504
788.500	459.946	80.002	19.995	103.171	20.193	3.414	0.474
789.000	460.219	80.004	19.995	103.166	20.192	3.516	0.474
789.500	460.460	80.003	19.995	103.161	20.192	3.501	0.508
790.000	460.719	80.002	19.995	103.160	20.191	3.531	0.507
790.500	460.985	80.002	19.995	103.164	20.190	3.597	0.512
791.000	461.236	80.001	19.996	103.164	20.191	3.572	0.521
791.500	461.457	80.002	19.996	103.161	20.192	3.521	0.494
792.000	461.728	80.004	19.995	103.160	20.193	3.416	0.482
792.500	461.977	80.004	19.996	103.161	20.191	3.550	0.506
793.000	462.218	80.000	19.995	103.162	20.192	3.465	0.505
793.500	462.461	80.003	19.995	103.160	20.195	3.271	0.487
794.000	462.738	80.004	19.995	103.160	20.196	3.235	0.502
794.500	462.990	80.004	19.995	103.159	20.193	3.403	0.525
795.000	463.257	80.003	19.995	103.159	20.192	3.467	0.524
795.500	463.465	80.002	19.995	103.157	20.196	3.220	0.497
796.000	463.726	80.003	19.995	103.156	20.198	3.089	0.472
796.500	463.949	80.001	19.995	103.157	20.199	3.034	0.477
797.000	464.235	80.004	19.994	103.157	20.196	3.228	0.497
797.500	464.428	80.004	19.994	103.160	20.197	3.172	0.494
798.000	464.715	80.003	19.995	103.163	20.200	2.957	0.479
798.500	464.956	80.006	19.994	103.164	20.197	3.158	0.504
799.000	465.195	80.005	19.995	103.165	20.196	3.198	0.504
799.500	465.434	80.003	19.994	103.165	20.198	3.066	0.479
800.000	465.692	80.004	19.995	103.161	20.196	3.188	0.487
800.500	465.980	80.004	19.995	103.156	20.198	3.096	0.521
801.000	466.200	80.005	19.995	103.155	20.196	3.203	0.527
801.500	466.496	80.004	19.994	103.154	20.200	2.959	0.512
802.000	466.731	80.004	19.994	103.154	20.199	3.023	0.523
802.500	466.967	80.004	19.995	103.154	20.197	3.123	0.501
803.000	467.256	80.004	19.994	103.156	20.199	3.015	0.498
803.500	467.480	80.003	19.995	103.156	20.197	3.175	0.519
804.000	467.725	80.004	19.993	103.156	20.200	2.934	0.491
804.500	467.964	80.006	19.995	103.158	20.197	3.118	0.476
805.000	468.218	80.003	19.993	103.158	20.195	3.314	0.488
805.500	468.462	80.005	19.995	103.157	20.200	2.917	0.495
806.000	468.705	80.004	19.994	103.161	20.199	3.004	0.492
806.500	468.981	80.004	19.994	103.162	20.200	2.981	0.503
807.000	469.214	80.005	19.994	103.166	20.196	3.190	0.514
807.500	469.482	80.002	19.994	103.170	20.201	2.855	0.506
808.000	469.741	80.001	19.994	103.170	20.199	3.005	0.514
808.500	469.982	80.004	19.995	103.168	20.200	2.956	0.514
809.000	470.259	80.004	19.994	103.170	20.201	2.896	0.509
809.500	470.493	80.004	19.995	103.167	20.199	3.019	0.514
810.000	470.748	80.003	19.995	103.162	20.200	2.938	0.500
810.500	471.011	80.003	19.996	103.164	20.201	2.913	0.504
811.000	471.242	80.004	19.995	103.163	20.202	2.830	0.506
811.500	471.526	80.003	19.994	103.164	20.199	3.034	0.505
812.000	471.770	80.004	19.996	103.163	20.202	2.793	0.522
812.500	472.047	80.004	19.996	103.167	20.203	2.740	0.524
813.000	472.263	80.002	19.995	103.167	20.202	2.800	0.507
813.500	472.503	80.003	19.995	103.167	20.204	2.676	0.475
814.000	472.775	80.001	19.995	103.163	20.201	2.881	0.484
814.500	473.048	80.003	19.995	103.161	20.201	2.907	0.529
815.000	473.333	80.004	19.996	103.158	20.199	3.037	0.551
815.500	473.605	80.004	19.996	103.156	20.200	2.955	0.557
816.000	473.844	80.003	19.996	103.156	20.198	3.062	0.534
816.500	474.130	80.004	19.995	103.158	20.198	3.073	0.518
817.000	474.372	80.002	19.996	103.157	20.200	2.943	0.527
817.500	474.604	80.002	19.996	103.155	20.201	2.907	0.501
818.000	474.875	80.003	19.996	103.153	20.198	3.066	0.489
818.500	475.134	80.005	19.996	103.154	20.199	3.030	0.516
819.000	475.377	80.005	19.995	103.151	20.199	3.032	0.516
819.500	475.646	80.005	19.995	103.151	20.199	2.994	0.507
820.000	475.932	80.003	19.996	103.151	20.198	3.062	0.534
820.500	476.167	80.005	19.995	103.151	20.201	2.868	0.538
821.000	476.419	80.004	19.995	103.151	20.202	2.840	0.504
821.500	476.638	80.002	19.995	103.151	20.198	3.081	0.479
822.000	476.916	80.004	19.995	103.152	20.202	2.808	0.484
822.500	477.181	80.003	19.996	103.152	20.197	3.169	0.520
823.000	477.441	80.006	19.996	103.152	20.199	3.028	0.534
823.500	477.683	80.005	19.996	103.152	20.201	2.879	0.514
824.000	477.927	80.004	19.996	103.151	20.202	2.832	0.494
824.500	478.221	80.005	19.995	103.150	20.200	2.955	0.512
825.000	478.471	80.004	19.996	103.150	20.201	2.874	0.541
825.500	478.716	80.007	19.995	103.150	20.204	2.652	0.519
826.000	479.023	80.006	19.995	103.152	20.203	2.736	0.523
826.500	479.253	80.007	19.995	103.152	20.200	2.923	0.544
827.000	479.515	80.006	19.996	103.153	20.200	2.951	0.515
827.500	479.759	80.006	19.995	103.153	20.202	2.840	0.499
828.000	480.023	80.007	19.995	103.153	20.203	2.759	0.507
828.500	480.255	80.006	19.995	103.152	20.202	2.840	0.502
829.000	480.552	80.006	19.996	103.152	20.205	2.614	0.512
829.500	480.776	80.006	19.995	103.152	20.204	2.691	0.524
830.000	481.026	80.004	19.995	103.154	20.205	2.606	0.497
830.500	481.272	80.005	19.995	103.158	20.206	2.522	0.485
831.000	481.522	80.002	19.995	103.157	20.208	2.424	0.496
831.500	481.817	80.007	19.995	103.156	20.205	2.627	0.521
832.000	482.067	80.006	19.994	103.155	20.205	2.601	0.545
832.500	482.312	80.003	19.995	103.154	20.206	2.535	0.520
833.000	482.625	80.004	19.995	103.151	20.207	2.474	0.526
833.500	482.862	80.005	19.996	103.152	20.207	2.490	0.554
834.000	483.111	80.006	19.996	103.152	20.206	2.548	0.519
834.500	483.360	80.005	19.995	103.156	20.205	2.578	0.492
835.000	483.602	80.004	19.995	103.157	20.205	2.584	0.494
835.500	483.862	80.001	19.994	103.161	20.205	2.631	0.496
836.000	484.106	80.005	19.996	103.163	20.207	2.446	0.502
836.500	484.377	80.003	19.996	103.164	20.208	2.391	0.509
837.000	484.653	80.003	19.996	103.164	20.205	2.638	0.531
837.500	484.908	80.004	19.995	103.164	20.206	2.531	0.539
838.000	485.151	80.003	19.995	103.159	20.201	2.870	0.514
838.500	485.403	80.005	19.994	103.156	20.207	2.495	0.497
839.000	485.695	80.003	19.995	103.155	20.205	2.591	0.519
839.500	485.912	80.001	19.995	103.153	20.205	2.636	0.526
840.000	486.162	80.003	19.996	103.157	20.206	2.570	0.488
840.500	486.447	80.001	19.997	103.163	20.205	2.602	0.501
841.000	486.715	80.002	19.996	103.164	20.205	2.606	0.544
841.500	486.945	80.001	19.996	103.164	20.206	2.525	0.526
842.000	487.205	80.002	19.995	103.163	20.205	2.612	0.494
842.500	487.475	80.002	19.996	103.158	20.205	2.610	0.509
843.000	487.726	80.003	19.996	103.154	20.205	2.640	0.525
843.500	487.983	80.002	19.996	103.158	20.204	2.655	0.515
844.000	488.277	80.001	19.997	103.158	20.204	2.646	0.530
844.500	488.519	80.002	19.997	103.157	20.205	2.616	0.543
845.000	488.747	80.003	19.996	103.158	20.209	2.320	0.503
845.500	489.020	80.003	19.997	103.156	20.210	2.299	0.486
846.000	489.290	80.003	19.997	103.152	20.207	2.493	0.522
846.500	489.526	80.002	19.995	103.151	20.206	2.553	0.524
847.000	489.788	80.003	19.996	103.151	20.205	2.644	0.502
847.500	490.031	80.003	19.997	103.150	20.205	2.638	0.502
848.000	490.260	80.002	19.996	103.149	20.206	2.550	0.489
848.500	490.571	80.002	19.996	103.150	20.204	2.676	0.506
849.000	490.793	80.002	19.996	103.150	20.207	2.488	0.537
849.500	491.054	80.002	19.996	103.150	20.205	2.610	0.508
850.000	491.314	80.004	19.997	103.150	20.203	2.721	0.502
850.500	491.589	80.001	19.996	103.151	20.204	2.693	0.528
851.000	491.843	80.003	19.996	103.152	20.198	3.079	0.532
851.500	492.075	80.001	19.996	103.152	20.203	2.725	0.508
852.000	492.322	80.002	19.996	103.152	20.202	2.812	0.482
852.500	492.605	80.003	19.996	103.154	20.201	2.847	0.504
853.000	492.836	80.003	19.997	103.154	20.204	2.710	0.522
853.500	493.086	80.001	19.995	103.153	20.198	3.105	0.498
854.000	493.360	80.001	19.996	103.153	20.201	2.857	0.503
854.500	493.615	80.004	19.995	103.153	20.203	2.778	0.526
855.000	493.913	80.004	19.996	103.151	20.204	2.685	0.541
855.500	494.129	80.003	19.994	103.150	20.207	2.491	0.533
856.000	494.384	80.003	19.995	103.150	20.203	2.725	0.493
856.500	494.672	80.001	19.995	103.151	20.206	2.554	0.507
857.000	494.899	80.002	19.995	103.151	20.204	2.687	0.529
857.500	495.164	80.003	19.996	103.151	20.203	2.748	0.503
858.000	495.415	80.002	19.995	103.153	20.207	2.465	0.504
858.500	495.670	80.003	19.995	103.154	20.203	2.738	0.511
859.000	495.925	80.003	19.994	103.156	20.205	2.584	0.509
859.500	496.231	80.003	19.995	103.159	20.203	2.780	0.536
860.000	496.453	80.003	19.994	103.162	20.204	2.680	0.544
860.500	496.691	80.004	19.995	103.163	20.205	2.640	0.494
861.000	496.947	80.006	19.995	103.161	20.204	2.680	0.477
861.500	497.199	80.003	19.994	103.160	20.201	2.881	0.501
862.000	497.486	80.001	19.995	103.159	20.206	2.563	0.524
862.500	497.717	80.005	19.995	103.156	20.207	2.506	0.529
863.000	497.954	80.004	19.994	103.157	20.207	2.506	0.492
863.500	498.196	80.002	19.995	103.157	20.208	2.408	0.473
864.000	498.529	80.002	19.996	103.156	20.207	2.476	0.527
864.500	498.708	80.003	19.995	103.154	20.209	2.373	0.544
865.000	499.019	80.001	19.993	103.154	20.207	2.478	0.501
865.500	499.246	80.003	19.995	103.153	20.208	2.431	0.514
866.000	499.460	80.001	19.995	103.156	20.206	2.510	0.489
866.500	499.728	80.004	19.994	103.157	20.207	2.467	0.461
867.000	499.948	80.001	19.995	103.158	20.208	2.433	0.485
867.500	500.250	80.002	19.994	103.159	20.203	2.772	0.505
868.000	500.466	80.001	19.995	103.159	20.207	2.499	0.520
868.500	500.727	80.000	19.994	103.156	20.206	2.510	0.497
869.000	501.003	80.003	19.994	103.158	20.210	2.286	0.507
869.500	501.285	80.002	19.995	103.157	20.206	2.521	0.548
870.000	501.539	80.003	19.994	103.157	20.209	2.320	0.547
870.500	501.775	80.002	19.996	103.157	20.210	2.241	0.513
871.000	502.057	80.002	19.995	103.157	20.207	2.465	0.504
871.500	502.279	80.002	19.996	103.154	20.207	2.486	0.511
872.000	502.544	80.001	19.995	103.155	20.208	2.431	0.496
872.500	502.755	80.002	19.994	103.155	20.206	2.521	0.482
873.000	503.044	80.002	19.995	103.155	20.206	2.565	0.488
873.500	503.302	80.003	19.995	103.155	20.206	2.546	0.523
874.000	503.547	80.002	19.995	103.155	20.208	2.399	0.525
874.500	503.812	80.002	19.995	103.154	20.205	2.642	0.507
875.000	504.038	80.003	19.995	103.154	20.208	2.396	0.501
875.500	504.326	80.003	19.995	103.154	20.206	2.518	0.502
876.000	504.575	80.002	19.995	103.154	20.208	2.431	0.525
876.500	504.847	80.003	19.995	103.154	20.205	2.627	0.529
877.000	505.095	80.001	19.996	103.154	20.208	2.414	0.520
877.500	505.338	80.003	19.995	103.154	20.205	2.627	0.505
878.000	505.575	80.005	19.995	103.154	20.206	2.516	0.486
878.500	505.867	80.004	19.995	103.154	20.206	2.565	0.505
879.000	506.093	80.003	19.996	103.153	20.205	2.593	0.523
879.500	506.370	80.003	19.995	103.151	20.206	2.572	0.510
880.000	506.594	80.000	19.994	103.152	20.206	2.531	0.502
880.500	506.872	80.003	19.996	103.152	20.207	2.476	0.502
881.000	507.107	80.003	19.995	103.156	20.207	2.444	0.507
881.500	507.369	80.004	19.995	103.156	20.205	2.585	0.505
882.000	507.625	80.004	19.995	103.156	20.203	2.736	0.508
882.500	507.887	80.005	19.995	103.156	20.205	2.634	0.518
883.000	508.120	80.003	19.995	103.154	20.204	2.702	0.506
883.500	508.407	80.004	19.994	103.150	20.204	2.702	0.508
884.000	508.649	80.004	19.994	103.152	20.207	2.482	0.525
884.500	508.947	80.005	19.996	103.154	20.206	2.565	0.534
885.000	509.186	80.003	19.995	103.157	20.203	2.742	0.538
885.500	509.433	80.006	19.995	103.161	20.210	2.298	0.512
886.000	509.616	80.002	19.996	103.166	20.205	2.608	0.458
886.500	509.914	80.004	19.995	103.164	20.209	2.356	0.455
887.000	510.186	80.004	19.995	103.162	20.205	2.582	0.525
887.500	510.418	80.005	19.995	103.158	20.205	2.602	0.537
888.000	510.670	80.004	19.995	103.155	20.204	2.706	0.494
888.500	510.925	80.004	19.995	103.150	20.201	2.902	0.496
889.000	511.158	80.004	19.995	103.152	20.206	2.510	0.497
889.500	511.421	80.005	19.995	103.151	20.207	2.501	0.491
890.000	511.686	80.005	19.995	103.151	20.205	2.584	0.512
890.500	511.948	80.003	19.995	103.152	20.207	2.474	0.528
891.000	512.165	80.004	19.995	103.154	20.205	2.610	0.504
891.500	512.408	80.004	19.994	103.152	20.207	2.489	0.470
892.000	512.671	80.004	19.995	103.153	20.204	2.651	0.483
892.500	512.926	80.003	19.995	103.153	20.209	2.356	0.512
893.000	513.187	80.003	19.995	103.152	20.209	2.365	0.517
893.500	513.436	80.004	19.995	103.151	20.206	2.553	0.513
894.000	513.700	80.007	19.995	103.157	20.209	2.344	0.512
894.500	513.960	80.003	19.994	103.161	20.209	2.310	0.518
895.000	514.201	80.005	19.994	103.163	20.210	2.248	0.512
895.500	514.483	80.002	19.995	103.164	20.211	2.237	0.512
896.000	514.718	80.003	19.995	103.164	20.212	2.171	0.521
896.500	514.974	80.005	19.995	103.160	20.212	2.145	0.504
897.000	515.237	80.003	19.995	103.157	20.209	2.352	0.505
897.500	515.543	80.003	19.996	103.155	20.210	2.265	0.544
898.000	515.764	80.002	19.995	103.154	20.208	2.397	0.548
898.500	516.029	80.003	19.996	103.153	20.208	2.391	0.506
899.000	516.306	80.003	19.995	103.150	20.210	2.280	0.514
899.500	516.550	80.003	19.995	103.150	20.210	2.282	0.532
900.000	516.811	80.002	19.995	103.149	20.210	2.250	0.513
900.500	517.044	80.004	19.995	103.150	20.212	2.137	0.499
901.000	517.293	80.003	19.995	103.150	20.211	2.211	0.488
901.500	517.566	80.004	19.995	103.149	20.209	2.318	0.502
902.000	517.805	80.003	19.994	103.148	20.208	2.378	0.517
902.500	518.042	80.004	19.995	103.150	20.210	2.297	0.493
903.000	518.315	80.004	19.996	103.150	20.209	2.346	0.493
903.500	518.553	80.006	19.994	103.150	20.211	2.226	0.511
904.000	518.809	80.004	19.995	103.150	20.208	2.380	0.503
904.500	519.095	80.004	19.995	103.150	20.209	2.324	0.518
905.000	519.356	80.005	19.995	103.149	20.212	2.151	0.545
905.500	519.605	80.005	19.995	103.148	20.208	2.422	0.528
906.000	519.838	80.003	19.995	103.149	20.209	2.335	0.496
906.500	520.081	80.003	19.994	103.150	20.208	2.409	0.479
907.000	520.360	80.007	19.995	103.150	20.208	2.395	0.499
907.500	520.590	80.007	19.995	103.150	20.208	2.414	0.515
908.000	520.853	80.002	19.995	103.150	20.209	2.335	0.501
908.500	521.113	80.004	19.995	103.149	20.208	2.378	0.508
909.000	521.334	80.005	19.995	103.146	20.209	2.328	0.502
909.500	521.635	80.006	19.995	103.144	20.210	2.280	0.501
910.000	521.887	80.005	19.995	103.144	20.208	2.416	0.538
910.500	522.154	80.007	19.996	103.146	20.210	2.275	0.536
911.000	522.395	80.005	19.995	103.150	20.210	2.288	0.513
911.500	522.638	80.004	19.995	103.153	20.212	2.147	0.495
912.000	522.900	80.006	19.995	103.155	20.209	2.350	0.494
912.500	523.151	80.004	19.996	103.156	20.210	2.281	0.509
913.000	523.413	80.005	19.995	103.156	20.212	2.154	0.513
913.500	523.662	80.004	19.995	103.154	20.209	2.336	0.512
914.000	523.903	80.003	19.994	103.155	20.210	2.272	0.501
914.500	524.161	80.004	19.996	103.156	20.205	2.588	0.495
915.000	524.450	80.001	19.995	103.156	20.207	2.450	0.523
915.500	524.694	80.004	19.996	103.160	20.211	2.210	0.540
916.000	524.921	80.002	19.996	103.159	20.210	2.276	0.502
916.500	525.185	80.001	19.995	103.158	20.211	2.232	0.481
917.000	525.435	80.001	19.995	103.158	20.213	2.101	0.503
917.500	525.737	80.002	19.995	103.159	20.209	2.312	0.533
918.000	525.939	80.003	19.995	103.159	20.209	2.351	0.528
918.500	526.220	80.001	19.995	103.159	20.208	2.419	0.494
919.000	526.494	80.003	19.996	103.159	20.209	2.350	0.519
919.500	526.725	80.003	19.996	103.159	20.209	2.373	0.530
920.000	526.986	80.001	19.995	103.157	20.210	2.305	0.498
920.500	527.212	80.000	19.996	103.154	20.208	2.418	0.489
921.000	527.496	80.000	19.995	103.153	20.209	2.324	0.499
921.500	527.759	80.000	19.995	103.154	20.208	2.397	0.529
922.000	528.024	80.001	19.996	103.154	20.209	2.356	0.537
922.500	528.291	80.003	19.996	103.154	20.211	2.181	0.530
923.000	528.546	80.002	19.995	103.156	20.206	2.516	0.527
923.500	528.806	80.002	19.995	103.160	20.207	2.491	0.518
924.000	529.039	80.003	19.995	103.145	20.211	2.198	0.504
924.500	529.318	80.002	19.994	103.129	20.207	2.480	0.503
925.000	529.537	80.004	19.994	103.115	20.207	2.463	0.505
925.500	529.847	80.001	19.996	103.105	20.209	2.335	0.514
926.000	530.079	80.004	19.995	103.096	20.211	2.218	0.535
926.500	530.354	80.003	19.995	103.111	20.210	2.299	0.524
927.000	530.601	80.004	19.996	103.136	20.212	2.158	0.514
927.500	530.865	80.002	19.995	103.182	20.212	2.118	0.516
928.000	531.124	80.003	19.995	103.202	20.211	2.173	0.517
928.500	531.339	80.004	19.995	103.209	20.210	2.271	0.499
929.000	531.587	80.001	19.995	103.210	20.207	2.499	0.469
929.500	531.868	80.001	19.996	103.200	20.213	2.079	0.496
930.000	532.125	80.004	19.996	103.169	20.212	2.111	0.533
930.500	532.408	80.002	19.996	103.157	20.210	2.262	0.539
931.000	532.658	80.003	19.995	103.154	20.211	2.233	0.537
931.500	532.919	80.003	19.996	103.154	20.211	2.215	0.522
932.000	533.149	80.002	19.996	103.154	20.209	2.348	0.501
932.500	533.387	80.000	19.995	103.153	20.212	2.143	0.479
933.000	533.683	79.999	19.995	103.154	20.211	2.207	0.501
933.500	533.942	80.004	19.996	103.154	20.212	2.162	0.545
934.000	534.217	80.002	19.997	103.154	20.214	1.998	0.545
934.500	534.450	80.001	19.997	103.155	20.213	2.053	0.521
935.000	534.724	80.003	19.996	103.155	20.215	1.934	0.507
935.500	534.981	80.003	19.995	103.155	20.211	2.207	0.519
936.000	535.222	80.002	19.997	103.154	20.211	2.197	0.515
936.500	535.499	80.001	19.997	103.154	20.212	2.120	0.508
937.000	535.713	80.003	19.995	103.153	20.214	2.036	0.504
937.500	536.019	80.000	19.996	103.152	20.215	1.919	0.505
938.000	536.280	80.001	19.996	103.152	20.215	1.934	0.544
938.500	536.554	80.003	19.995	103.154	20.215	1.953	0.551
939.000	536.764	80.003	19.996	103.154	20.214	1.992	0.509
939.500	537.028	80.001	19.996	103.154	20.213	2.058	0.479
940.000	537.283	79.999	19.996	103.155	20.216	1.853	0.497
940.500	537.585	80.002	19.996	103.154	20.217	1.802	0.538
941.000	537.789	80.001	19.996	103.154	20.213	2.045	0.531
941.500	538.088	80.002	19.996	103.154	20.216	1.872	0.505
942.000	538.294	80.002	19.996	103.154	20.214	2.021	0.504
942.500	538.578	80.000	19.996	103.156	20.215	1.932	0.497
943.000	538.873	80.002	19.996	103.157	20.211	2.194	0.535
943.500	539.106	80.002	19.996	103.155	20.212	2.149	0.554
944.000	539.360	80.001	19.996	103.154	20.214	1.996	0.508
944.500	539.626	80.002	19.996	103.154	20.214	2.036	0.503
945.000	539.879	80.002	19.996	103.152	20.215	1.911	0.520
945.500	540.166	80.003	19.996	103.151	20.215	1.951	0.530
946.000	540.361	80.001	19.996	103.150	20.212	2.147	0.511
946.500	540.626	80.000	19.996	103.150	20.216	1.898	0.471
947.000	540.867	80.001	19.997	103.150	20.217	1.789	0.483
947.500	541.165	80.004	19.996	103.149	20.214	1.983	0.522
948.000	541.396	80.003	19.996	103.149	20.214	1.994	0.534
948.500	541.684	80.000	19.996	103.149	20.214	2.009	0.524
949.000	541.963	80.002	19.997	103.149	20.217	1.810	0.543
949.500	542.197	80.003	19.996	103.148	20.216	1.849	0.540
950.000	542.499	80.002	19.996	103.148	20.216	1.870	0.525
950.500	542.712	80.004	19.996	103.148	20.216	1.876	0.525
951.000	543.003	80.001	19.996	103.148	20.214	1.977	0.509
951.500	543.300	80.001	19.996	103.149	20.213	2.077	0.546
952.000	543.486	80.001	19.996	103.151	20.211	2.179	0.536
952.500	543.759	79.999	19.996	103.152	20.214	2.007	0.471
953.000	544.035	80.001	19.996	103.153	20.211	2.184	0.504
953.500	544.276	80.003	19.996	103.157	20.214	1.990	0.533
954.000	544.516	80.002	19.995	103.156	20.213	2.056	0.499
954.500	544.768	80.003	19.995	103.154	20.214	1.996	0.486
955.000	545.035	80.003	19.995	103.154	20.216	1.872	0.505
955.500	545.268	80.000	19.996	103.157	20.216	1.874	0.510
956.000	545.534	80.002	19.995	103.159	20.216	1.877	0.500
956.500	545.814	80.001	19.995	103.163	20.217	1.776	0.522
957.000	546.065	80.003	19.996	103.162	20.218	1.759	0.538
957.500	546.319	80.003	19.996	103.161	20.217	1.815	0.518
958.000	546.583	80.003	19.995	103.157	20.216	1.838	0.512
958.500	546.867	80.003	19.995	103.155	20.216	1.857	0.533
959.000	547.113	80.002	19.995	103.154	20.216	1.876	0.539
959.500	547.381	80.002	19.996	103.156	20.211	2.179	0.522
960.000	547.660	80.001	19.994	103.157	20.214	1.989	0.531
960.500	547.929	80.004	19.996	103.157	20.215	1.936	0.547
961.000	548.157	80.002	19.995	103.156	20.214	2.011	0.522
961.500	548.413	80.005	19.994	103.155	20.215	1.964	0.490
962.000	548.701	80.003	19.995	103.155	20.214	1.996	0.514
962.500	548.950	80.002	19.994	103.158	20.217	1.804	0.541
963.000	549.228	80.004	19.996	103.158	20.214	1.973	0.532
963.500	549.489	80.003	19.995	103.156	20.215	1.938	0.533
964.000	549.727	80.005	19.996	103.154	20.214	2.034	0.519
964.500	549.974	80.004	19.995	103.154	20.214	1.973	0.492
965.000	550.232	80.004	19.996	103.151	20.215	1.928	0.495
965.500	550.538	80.004	19.996	103.152	20.215	1.924	0.535
966.000	550.763	80.004	19.995	103.152	20.214	1.975	0.548
966.500	551.037	80.005	19.995	103.152	20.214	2.011	0.515
967.000	551.317	80.008	19.994	103.151	20.213	2.088	0.527
967.500	551.583	80.005	19.995	103.150	20.212	2.160	0.550
968.000	551.821	80.006	19.995	103.150	20.216	1.870	0.525
968.500	552.079	80.005	19.995	103.151	20.217	1.817	0.500
969.000	552.319	80.004	19.995	103.150	20.217	1.789	0.497
969.500	552.609	80.004	19.995	103.152	20.212	2.122	0.514
970.000	552.879	80.007	19.997	103.152	20.214	2.024	0.545
970.500	553.130	80.003	19.995	103.152	20.214	2.009	0.540
971.000	553.413	80.004	19.994	103.151	20.212	2.117	0.527
971.500	553.654	80.002	19.995	103.150	20.214	2.011	0.529
972.000	553.936	80.004	19.994	103.145	20.210	2.301	0.523
972.500	554.198	80.002	19.995	103.144	20.213	2.056	0.534
973.000	554.468	80.005	19.996	103.144	20.213	2.070	0.538
973.500	554.704	80.003	19.996	103.144	20.210	2.243	0.519
974.000	554.972	80.003	19.996	103.146	20.213	2.038	0.505
974.500	555.237	80.003	19.995	103.148	20.214	2.024	0.519
975.000	555.492	80.004	19.995	103.149	20.216	1.889	0.527
975.500	555.772	80.003	19.994	103.149	20.214	2.024	0.527
976.000	556.039	80.004	19.996	103.149	20.215	1.928	0.541
976.500	556.276	80.003	19.995	103.150	20.215	1.949	0.525
977.000	556.538	80.002	19.995	103.150	20.215	1.966	0.501
977.500	556.770	80.003	19.996	103.150	20.214	2.002	0.497
978.000	557.034	80.003	19.995	103.150	20.214	2.028	0.495
978.500	557.301	80.002	19.995	103.150	20.214	1.994	0.514
979.000	557.547	80.002	19.995	103.151	20.217	1.827	0.522
979.500	557.868	80.004	19.995	103.151	20.215	1.923	0.540
980.000	558.088	80.004	19.995	103.151	20.218	1.763	0.554
980.500	558.367	80.003	19.995	103.151	20.219	1.651	0.520
981.000	558.614	80.003	19.995	103.151	20.217	1.828	0.513
981.500	558.856	80.003	19.994	103.151	20.216	1.879	0.508
982.000	559.138	80.005	19.995	103.152	20.216	1.864	0.506
982.500	559.404	80.005	19.996	103.152	20.214	2.011	0.536
983.000	559.661	80.002	19.995	103.152	20.215	1.964	0.536
983.500	559.893	80.004	19.995	103.153	20.219	1.659	0.506
984.000	560.184	80.004	19.994	103.153	20.220	1.616	0.506
984.500	560.403	80.002	19.995	103.153	20.215	1.908	0.516
985.000	560.717	80.001	19.993	103.153	20.216	1.877	0.521
985.500	560.941	80.005	19.995	103.153	20.217	1.804	0.536
986.000	561.205	80.004	19.995	103.153	20.216	1.879	0.513
986.500	561.473	80.004	19.994	103.153	20.219	1.676	0.510
987.000	561.740	80.004	19.995	103.153	20.217	1.776	0.533
987.500	562.011	80.004	19.995	103.152	20.219	1.635	0.536
988.000	562.269	80.007	19.994	103.152	20.217	1.796	0.534
988.500	562.519	80.005	19.994	103.152	20.218	1.716	0.519
989.000	562.786	80.005	19.994	103.152	20.218	1.715	0.513
989.500	563.060	80.006	19.995	103.152	20.213	2.077	0.529
990.000	563.316	80.004	19.994	103.152	20.220	1.587	0.536
990.500	563.562	80.005	19.995	103.152	20.216	1.842	0.516
991.000	563.803	80.007	19.993	103.152	20.215	1.943	0.494
991.500	564.092	80.007	19.994	103.152	20.216	1.879	0.508
992.000	564.332	80.005	19.994	103.152	20.217	1.781	0.530
992.500	564.569	80.005	19.995	103.152	20.217	1.795	0.503
993.000	564.864	80.005	19.995	103.153	20.214	1.977	0.504
993.500	565.115	80.005	19.994	103.154	20.213	2.064	0.539
994.000	565.392	80.005	19.995	103.156	20.217	1.785	0.537
994.500	565.635	80.006	19.994	103.158	20.218	1.734	0.524
995.000	565.884	80.004	19.995	103.157	20.214	2.004	0.506
995.500	566.134	80.005	19.994	103.156	20.217	1.774	0.496
996.000	566.431	80.004	19.994	103.156	20.217	1.834	0.523
996.500	566.696	80.004	19.995	103.154	20.216	1.877	0.554
997.000	566.962	80.003	19.995	103.153	20.213	2.080	0.547
997.500	567.224	80.004	19.994	103.153	20.217	1.777	0.529
998.000	567.499	80.003	19.994	103.153	20.212	2.163	0.532
998.500	567.755	80.004	19.995	103.153	20.216	1.853	0.534
999.000	567.973	80.002	19.995	103.154	20.218	1.761	0.503
999.500	568.240	80.003	19.995	103.154	20.217	1.827	0.479
1000.000	568.487	80.001	19.995	103.153	20.216	1.874	0.499
1000.500	568.761	80.002	19.995	103.153	20.214	2.030	0.518
1001.000	569.023	80.001	19.995	103.152	20.212	2.130	0.529
1001.500	569.307	80.003	19.994	103.152	20.214	2.022	0.540
1002.000	569.562	80.002	19.995	103.152	20.215	1.962	0.542
1002.500	569.804	80.004	19.994	103.153	20.215	1.906	0.518
1003.000	570.080	80.002	19.995	103.154	20.218	1.734	0.508
1003.500	570.381	80.000	19.996	103.154	20.217	1.808	0.548
1004.000	570.596	80.002	19.995	103.154	20.216	1.898	0.546
1004.500	570.813	80.002	19.996	103.154	20.218	1.719	0.474
1005.000	571.120	80.003	19.995	103.153	20.222	1.497	0.478
1005.500	571.352	80.004	19.995	103.153	20.219	1.663	0.532
1006.000	571.604	80.003	19.996	103.150	20.217	1.828	0.511
1006.500	571.868	80.002	19.996	103.148	20.218	1.721	0.500
1007.000	572.144	80.003	19.996	103.144	20.216	1.840	0.528
1007.500	572.376	80.004	19.996	103.140	20.215	1.955	0.524
1008.000	572.636	80.004	19.996	103.136	20.217	1.776	0.500
1008.500	572.899	80.004	19.996	103.136	20.215	1.928	0.508
1009.000	573.166	80.003	19.996	103.138	20.215	1.958	0.526
1009.500	573.395	80.001	19.996	103.142	20.211	2.184	0.513
1010.000	573.670	80.002	19.996	103.147	20.213	2.060	0.500
1010.500	573.986	80.003	19.996	103.151	20.211	2.212	0.548
1011.000	574.243	80.005	19.995	103.151	20.213	2.058	0.582
1011.500	574.512	80.003	19.996	103.151	20.213	2.058	0.549
1012.000	574.766	80.004	19.997	103.151	20.215	1.910	0.524
1012.500	575.042	80.001	19.996	103.149	20.215	1.919	0.527
1013.000	575.295	80.002	19.995	103.147	20.215	1.942	0.529
1013.500	575.573	80.003	19.996	103.147	20.213	2.041	0.530
1014.000	575.807	80.004	19.996	103.147	20.217	1.789	0.521
1014.500	576.036	80.003	19.997	103.149	20.216	1.870	0.487
1015.000	576.302	80.002	19.995	103.150	20.212	2.169	0.479
1015.500	576.543	80.004	19.996	103.152	20.215	1.970	0.502
1016.000	576.769	80.001	19.995	103.152	20.215	1.949	0.487
1016.500	577.064	80.004	19.995	103.152	20.213	2.039	0.494
1017.000	577.326	80.003	19.995	103.151	20.214	1.979	0.539
1017.500	577.590	80.004	19.996	103.150	20.219	1.698	0.542
1018.000	577.873	80.002	19.996	103.149	20.213	2.054	0.537
1018.500	578.105	80.003	19.995	103.148	20.216	1.866	0.531
1019.000	578.342	80.003	19.994	103.143	20.212	2.122	0.492
1019.500	578.619	80.004	19.996	103.137	20.215	1.960	0.492
1020.000	578.890	80.003	19.996	103.133	20.215	1.940	0.531
1020.500	579.118	80.002	19.995	103.133	20.218	1.747	0.523
1021.000	579.395	80.003	19.996	103.136	20.216	1.840	0.502
1021.500	579.628	80.004	19.995	103.144	20.217	1.779	0.508
1022.000	579.910	80.003	19.996	103.158	20.221	1.548	0.513
1022.500	580.112	80.003	19.995	103.165	20.221	1.565	0.499
1023.000	580.381	80.003	19.996	103.167	20.218	1.704	0.477
1023.500	580.600	80.002	19.994	103.165	20.221	1.546	0.480
1024.000	580.852	80.003	19.995	103.162	20.222	1.484	0.480
1024.500	581.147	80.003	19.995	103.156	20.218	1.710	0.510
1025.000	581.371	80.002	19.996	103.151	20.219	1.697	0.533
1025.500	581.634	80.003	19.996	103.150	20.218	1.763	0.503
1026.000	581.903	80.005	19.997	103.148	20.219	1.653	0.510
1026.499	582.170	80.002	19.996	103.147	20.216	1.843	0.534
1026.999	582.414	80.005	19.996	103.145	20.218	1.706	0.524
1027.499	582.644	80.002	19.996	103.145	20.216	1.881	0.493
1027.999	582.871	80.003	19.996	103.142	20.220	1.614	0.465
1028.499	583.166	80.003	19.996	103.144	20.219	1.634	0.489
1028.999	583.436	80.005	19.996	103.144	20.215	1.926	0.544
1029.500	583.700	80.003	19.996	103.146	20.216	1.855	0.549
1030.000	583.912	80.002	19.996	103.146	20.217	1.787	0.505
1030.499	584.163	80.002	19.996	103.149	20.218	1.706	0.469
1030.999	584.411	80.003	19.997	103.149	20.220	1.627	0.481
1031.499	584.656	80.001	19.997	103.149	20.214	1.986	0.496
1031.999	584.897	80.004	19.997	103.149	20.216	1.851	0.490
1032.499	585.132	80.002	19.997	103.149	20.218	1.747	0.481
1032.999	585.403	80.002	19.996	103.149	20.219	1.634	0.491
1033.499	585.679	80.001	19.997	103.148	20.218	1.702	0.527
1033.999	585.908	80.002	19.997	103.148	20.217	1.770	0.526
1034.499	586.191	80.001	19.998	103.149	20.217	1.787	0.508
1035.000	586.437	80.001	19.998	103.151	20.215	1.940	0.521
1035.500	586.668	80.002	19.998	103.151	20.218	1.712	0.503
1035.999	586.909	80.000	19.997	103.152	20.218	1.735	0.474
1036.499	587.191	80.002	19.998	103.151	20.218	1.714	0.497
1036.999	587.448	80.001	19.996	103.150	20.214	1.980	0.531
1037.499	587.701	80.002	19.998	103.147	20.214	2.012	0.524
1037.999	587.929	80.002	19.999	103.147	20.214	1.991	0.496
1038.499	588.237	80.002	19.997	103.146	20.215	1.932	0.508
1039.000	588.410	80.002	19.997	103.147	20.213	2.104	0.508
1039.501	588.700	80.003	19.996	103.148	20.214	1.981	0.472
1040.001	588.930	80.003	19.997	103.150	20.214	2.021	0.491
1040.500	589.153	80.005	19.997	103.150	20.218	1.740	0.486
1040.999	589.415	80.004	19.997	103.149	20.217	1.821	0.469
1041.499	589.685	80.003	19.996	103.145	20.216	1.855	0.509
1041.999	589.891	80.004	19.996	103.141	20.217	1.804	0.504
1042.499	590.152	80.003	19.996	103.140	20.214	1.975	0.472
1042.999	590.402	80.005	19.996	103.139	20.216	1.887	0.489
1043.499	590.659	80.004	19.996	103.139	20.218	1.747	0.509
1043.999	590.926	80.004	19.995	103.141	20.215	1.934	0.516
1044.500	591.167	80.002	19.995	103.142	20.215	1.934	0.516
1045.000	591.421	80.003	19.994	103.143	20.216	1.864	0.501
1045.499	591.627	80.003	19.996	103.144	20.218	1.766	0.478
1045.999	591.917	80.003	19.997	103.149	20.216	1.889	0.478
1046.500	592.156	80.004	19.996	103.160	20.219	1.646	0.513
1047.000	592.379	80.005	19.996	103.169	20.214	1.976	0.495
1047.500	592.625	80.004	19.995	103.177	20.216	1.902	0.465
1048.000	592.919	80.005	19.995	103.183	20.215	1.951	0.504
1048.499	593.143	80.004	19.994	103.183	20.217	1.823	0.529
1048.999	593.401	80.004	19.995	103.176	20.219	1.638	0.500
1049.499	593.632	80.003	19.995	103.170	20.215	1.962	0.486
1049.999	593.885	80.004	19.996	103.163	20.217	1.815	0.487
1050.500	594.142	80.004	19.995	103.158	20.217	1.834	0.497
1051.000	594.437	80.004	19.996	103.155	20.217	1.774	0.531
1051.500	594.630	80.003	19.995	103.155	20.220	1.625	0.520
1052.000	594.883	80.004	19.995	103.154	20.217	1.808	0.467
1052.500	595.136	80.004	19.995	103.152	20.218	1.747	0.475
1053.001	595.404	80.003	19.995	103.151	20.219	1.691	0.513
1053.500	595.648	80.003	19.995	103.150	20.220	1.589	0.517
1054.000	595.908	80.004	19.995	103.149	20.216	1.843	0.508
1054.500	596.128	80.002	19.995	103.149	20.218	1.751	0.492
1054.999	596.422	80.003	19.996	103.152	20.220	1.582	0.497
1055.500	596.626	80.002	19.996	103.152	20.217	1.802	0.506
1056.000	596.939	80.002	19.995	103.156	20.215	1.941	0.507
1056.500	597.127	80.002	19.996	103.162	20.218	1.717	0.509
1057.000	597.403	80.002	19.996	103.167	20.222	1.484	0.483
1057.499	597.628	80.002	19.996	103.169	20.223	1.382	0.483
1057.999	597.856	80.002	19.995	103.168	20.225	1.245	0.477
1058.499	598.095	80.003	19.996	103.164	20.223	1.409	0.460
1058.999	598.360	80.004	19.995	103.158	20.221	1.546	0.486
1059.499	598.604	80.003	19.996	103.153	20.221	1.516	0.507
1060.000	598.869	80.003	19.994	103.151	20.222	1.444	0.509
1060.500	599.104	80.005	19.996	103.151	20.219	1.665	0.504
1060.999	599.338	80.003	19.995	103.150	20.222	1.461	0.484
1061.499	599.617	80.001	19.995	103.151	20.221	1.542	0.491
1062.000	599.864	80.003	19.996	103.148	20.220	1.591	0.520
1062.500	600.098	80.002	19.995	103.144	20.220	1.587	0.503
1062.999	600.342	80.004	19.996	103.140	20.223	1.412	0.479
1063.500	600.584	80.002	19.995	103.138	20.219	1.650	0.482
1064.000	600.837	80.003	19.995	103.138	20.221	1.561	0.491
1064.500	601.093	80.003	19.995	103.141	20.217	1.774	0.502
1065.000	601.330	80.003	19.995	103.146	20.218	1.712	0.501
1065.500	601.579	80.003	19.995	103.150	20.221	1.539	0.489
1066.001	601.798	80.004	19.995	103.153	20.217	1.797	0.477
1066.500	602.047	80.004	19.995	103.153	20.220	1.571	0.468
1067.000	602.299	80.003	19.995	103.153	20.220	1.589	0.484
1067.501	602.521	80.004	19.995	103.153	20.222	1.441	0.487
1068.000	602.795	80.004	19.994	103.153	20.220	1.589	0.485
1068.499	603.031	80.005	19.995	103.153	20.218	1.712	0.503
1068.999	603.290	80.006	19.995	103.155	20.220	1.614	0.502
1069.500	603.514	80.004	19.995	103.155	20.219	1.638	0.489
1070.000	603.766	80.006	19.995	103.155	20.220	1.627	0.480
1070.499	604.044	80.005	19.995	103.159	20.219	1.667	0.503
1070.999	604.247	80.006	19.994	103.160	20.217	1.819	0.506
1071.499	604.557	80.005	19.994	103.158	20.218	1.723	0.497
1071.999	604.788	80.004	19.995	103.157	20.217	1.827	0.526
1072.499	605.012	80.007	19.995	103.159	20.217	1.815	0.498
1072.999	605.296	80.005	19.994	103.155	20.217	1.808	0.482
1073.499	605.549	80.006	19.995	103.154	20.218	1.753	0.523
1073.999	605.792	80.007	19.995	103.154	20.214	1.975	0.517
1074.499	606.064	80.006	19.995	103.156	20.220	1.625	0.506
1074.999	606.300	80.006	19.995	103.156	20.216	1.883	0.511
1075.500	606.560	80.005	19.996	103.159	20.216	1.876	0.502
1076.000	606.822	80.005	19.994	103.162	20.218	1.746	0.509
1076.499	607.084	80.007	19.995	103.162	20.214	1.989	0.523
1076.999	607.294	80.006	19.995	103.160	20.217	1.817	0.498
1077.499	607.567	80.006	19.994	103.157	20.216	1.857	0.478
1077.999	607.840	80.004	19.995	103.157	20.218	1.712	0.515
1078.499	608.114	80.003	19.995	103.156	20.215	1.925	0.546
1078.999	608.391	80.004	19.996	103.156	20.216	1.870	0.549
1079.499	608.646	80.005	19.996	103.156	20.214	2.021	0.541
1079.999	608.925	80.003	19.996	103.157	20.214	1.987	0.533
1080.500	609.174	80.005	19.995	103.160	20.213	2.083	0.532
1081.000	609.449	80.001	19.994	103.161	20.216	1.881	0.526
1081.499	609.743	80.003	19.995	103.165	20.217	1.823	0.546
1082.000	609.981	80.004	19.996	103.169	20.216	1.847	0.551
1082.501	610.253	80.003	19.995	103.169	20.215	1.913	0.521
1083.000	610.542	80.004	19.996	103.162	20.213	2.077	0.535
1083.499	610.815	80.003	19.994	103.158	20.214	1.973	0.562
1083.999	611.130	80.004	19.995	103.155	20.214	1.985	0.575
1084.499	611.354	80.003	19.994	103.151	20.215	1.906	0.564
1085.000	611.619	80.003	19.995	103.150	20.214	2.002	0.514
1085.500	611.917	80.003	19.995	103.150	20.214	2.013	0.526
1086.000	612.227	80.002	19.995	103.150	20.214	2.002	0.586
1086.500	612.439	80.004	19.994	103.151	20.214	1.992	0.565
1086.999	612.733	80.003	19.994	103.151	20.213	2.083	0.514
1087.499	613.007	80.003	19.994	103.157	20.212	2.107	0.537
1087.999	613.288	80.004	19.994	103.164	20.213	2.064	0.561
1088.500	613.547	80.002	19.996	103.165	20.211	2.175	0.547
1089.001	613.853	80.003	19.999	103.166	20.217	1.819	0.552
1089.501	614.137	80.002	19.995	103.167	20.214	2.007	0.577
1090.001	614.355	80.003	19.994	103.161	20.216	1.896	0.546
1090.500	614.682	80.003	19.994	103.155	20.213	2.090	0.524
1090.999	614.965	80.002	19.995	103.154	20.213	2.041	0.578
1091.499	615.261	80.003	19.995	103.152	20.213	2.052	0.595
1092.000	615.556	80.003	19.996	103.151	20.213	2.103	0.585
1092.501	615.844	80.004	19.995	103.151	20.213	2.047	0.587
1093.001	616.087	80.003	19.995	103.152	20.213	2.041	0.557
1093.501	616.366	80.002	19.995	103.152	20.215	1.953	0.527
1094.001	616.650	80.003	19.995	103.152	20.214	2.024	0.542
1094.501	616.929	80.003	19.996	103.151	20.216	1.875	0.563
1095.000	617.231	80.004	19.995	103.150	20.215	1.949	0.572
1095.500	617.510	80.003	19.996	103.153	20.214	2.028	0.581
1096.001	617.761	80.004	19.996	103.154	20.215	1.964	0.555
1096.501	618.053	80.002	19.996	103.154	20.214	2.015	0.536
1097.001	618.361	80.004	19.997	103.154	20.212	2.145	0.572
1097.501	618.614	80.003	19.995	103.157	20.217	1.830	0.581
1098.000	618.899	80.002	19.995	103.153	20.213	2.039	0.550
1098.499	619.198	80.004	19.996	103.153	20.215	1.970	0.561
1099.000	619.442	80.003	19.996	103.153	20.212	2.107	0.563
1099.500	619.729	80.004	19.996	103.152	20.216	1.877	0.537
1099.999	620.020	80.004	19.996	103.150	20.214	1.975	0.555
1100.500	620.326	80.005	19.996	103.149	20.216	1.872	0.587
1101.001	620.592	80.004	19.996	103.150	20.215	1.968	0.584
1101.501	620.890	80.002	19.996	103.149	20.215	1.919	0.568
1102.001	621.130	80.004	19.995	103.149	20.213	2.058	0.551
1102.500	621.443	80.004	19.997	103.149	20.214	1.983	0.545
1103.000	621.725	80.003	19.996	103.149	20.215	1.943	0.574
1103.500	621.990	80.003	19.996	103.148	20.215	1.913	0.571
1103.999	622.299	80.003	19.996	103.148	20.213	2.071	0.561
1104.500	622.551	80.004	19.996	103.149	20.215	1.927	0.568
1105.001	622.868	80.003	19.995	103.149	20.216	1.883	0.565
1105.500	623.139	80.004	19.997	103.149	20.219	1.655	0.578
1105.999	623.427	80.003	19.996	103.150	20.219	1.689	0.573
1106.499	623.723	80.004	19.996	103.151	20.219	1.689	0.571
1106.999	624.008	80.001	19.996	103.152	20.218	1.755	0.583
1107.500	624.250	80.004	19.995	103.152	20.216	1.847	0.554
1108.000	624.544	80.002	19.997	103.152	20.218	1.729	0.531
1108.499	624.823	80.003	19.996	103.151	20.216	1.847	0.554
1108.999	625.129	80.002	19.997	103.151	20.218	1.765	0.579
1109.499	625.398	80.004	19.995	103.150	20.218	1.721	0.580
1109.999	625.703	80.003	19.996	103.150	20.220	1.588	0.574
1110.500	625.967	80.002	19.995	103.151	20.220	1.612	0.572
1111.000	626.277	80.001	19.996	103.151	20.222	1.482	0.571
1111.499	626.547	80.002	19.994	103.150	20.219	1.699	0.577
1112.000	626.815	80.002	19.995	103.151	20.220	1.593	0.559
1112.501	627.073	80.002	19.996	103.151	20.220	1.631	0.532
1113.001	627.364	80.001	19.996	103.151	20.218	1.723	0.537
1113.501	627.645	80.002	19.997	103.152	20.218	1.763	0.560
1114.000	627.921	80.003	19.996	103.153	20.218	1.717	0.564
1114.499	628.210	80.001	19.995	103.156	20.219	1.666	0.561
1114.999	628.493	80.002	19.996	103.158	20.216	1.838	0.569
1115.499	628.762	80.002	19.996	103.160	20.218	1.712	0.562
1115.999	629.042	80.002	19.995	103.162	20.217	1.823	0.551
1116.499	629.319	80.002	19.996	103.163	20.218	1.744	0.553
1116.999	629.614	80.002	19.995	103.164	20.218	1.731	0.565
1117.499	629.886	80.001	19.995	103.164	20.223	1.416	0.569
1117.999	630.165	80.002	19.995	103.162	20.217	1.804	0.559
1118.499	630.495	80.000	19.995	103.161	20.220	1.629	0.580
1118.999	630.728	80.002	19.995	103.159	20.221	1.524	0.586
1119.499	631.018	80.004	19.995	103.158	20.220	1.612	0.543
1119.999	631.302	80.003	19.996	103.159	20.219	1.667	0.548
1120.499	631.561	80.003	19.995	103.161	20.220	1.601	0.558
1120.999	631.840	80.004	19.996	103.161	20.220	1.622	0.541
1121.499	632.125	80.001	19.994	103.160	20.217	1.797	0.551
1121.999	632.410	80.003	19.996	103.158	20.219	1.695	0.567
1122.499	632.687	80.002	19.995	103.155	20.221	1.503	0.566
1122.999	632.939	80.001	19.995	103.152	20.222	1.452	0.546
1123.499	633.211	80.002	19.997	103.150	20.220	1.606	0.527
1124.000	633.507	80.003	19.996	103.150	20.219	1.676	0.546
1124.500	633.771	80.003	19.996	103.150	20.218	1.763	0.564
1124.999	634.080	80.002	19.996	103.150	20.218	1.721	0.566
1125.499	634.374	80.004	19.996	103.151	20.220	1.629	0.588
1126.000	634.616	80.002	19.995	103.153	20.220	1.569	0.570
1126.501	634.889	80.003	19.996	103.153	20.221	1.533	0.526
1127.000	635.213	80.004	19.996	103.153	20.218	1.721	0.556
1127.499	635.426	80.004	19.996	103.154	20.220	1.631	0.567
1128.000	635.700	80.002	19.995	103.155	20.220	1.572	0.512
1128.500	635.997	80.002	19.996	103.154	20.220	1.578	0.529
1129.000	636.242	80.003	19.996	103.158	20.218	1.738	0.556
1129.500	636.552	80.002	19.996	103.163	20.220	1.619	0.548
1129.999	636.786	80.001	19.995	103.168	20.221	1.510	0.549
1130.499	637.067	80.001	19.997	103.172	20.221	1.505	0.530
1131.000	637.362	80.001	19.995	103.175	20.221	1.550	0.546
1131.500	637.623	80.002	19.996	103.170	20.221	1.531	0.566
1131.999	637.879	80.002	19.996	103.166	20.218	1.721	0.536
1132.499	638.167	80.003	19.996	103.162	20.220	1.614	0.530
1132.999	638.456	80.003	19.995	103.159	20.221	1.525	0.560
1133.499	638.701	80.003	19.995	103.159	20.222	1.431	0.556
1133.999	638.998	80.003	19.994	103.164	20.221	1.508	0.538
1134.499	639.255	80.002	19.996	103.164	20.221	1.512	0.548
1134.999	639.532	80.004	19.995	103.165	20.224	1.309	0.544
1135.500	639.781	80.003	19.995	103.163	20.221	1.548	0.530
1136.000	640.079	80.003	19.996	103.160	20.220	1.606	0.537
1136.500	640.324	80.004	19.996	103.155	20.220	1.618	0.545
1137.001	640.606	80.003	19.996	103.154	20.220	1.633	0.535
1137.500	640.855	80.004	19.997	103.150	20.221	1.529	0.529
1138.000	641.120	80.003	19.995	103.149	20.221	1.512	0.523
1138.501	641.373	80.003	19.995	103.148	20.220	1.629	0.516
1139.001	641.650	80.002	19.995	103.148	20.221	1.561	0.524
1139.501	641.906	80.002	19.996	103.147	20.220	1.578	0.532
1140.001	642.156	80.003	19.995	103.149	20.218	1.755	0.520
1140.500	642.468	80.003	19.995	103.149	20.217	1.785	0.534
1141.000	642.699	80.004	19.994	103.150	20.219	1.665	0.552
1141.501	642.984	80.003	19.996	103.150	20.219	1.644	0.530
1142.000	643.245	80.003	19.996	103.150	20.221	1.522	0.532
1142.499	643.463	80.004	19.996	103.152	20.220	1.633	0.513
1142.999	643.785	80.004	19.994	103.155	20.220	1.601	0.509
1143.499	644.045	80.004	19.996	103.158	20.220	1.567	0.561
1143.999	644.304	80.004	19.995	103.158	20.220	1.618	0.550
1144.499	644.555	80.003	19.994	103.158	20.222	1.493	0.515
1144.999	644.821	80.004	19.996	103.157	20.222	1.442	0.514
1145.499	645.053	80.004	19.994	103.156	20.219	1.638	0.508
1145.999	645.288	80.003	19.995	103.154	20.216	1.868	0.482
1146.499	645.596	80.002	19.994	103.154	20.219	1.682	0.505
1146.999	645.872	80.005	19.994	103.155	20.222	1.465	0.563
1147.499	646.098	80.005	19.995	103.154	20.217	1.789	0.543
1147.999	646.364	80.005	19.995	103.152	20.219	1.642	0.497
1148.499	646.609	80.005	19.995	103.150	20.221	1.505	0.501
1148.999	646.918	80.004	19.996	103.149	20.218	1.757	0.533
1149.499	647.186	80.006	19.996	103.148	20.221	1.516	0.566
1149.999	647.420	80.004	19.995	103.148	20.218	1.725	0.539
1150.500	647.686	80.004	19.995	103.150	20.218	1.744	0.501
1151.001	647.903	80.004	19.995	103.153	20.218	1.719	0.492
1151.501	648.178	80.005	19.996	103.154	20.219	1.653	0.488
1152.001	648.464	80.005	19.994	103.155	20.219	1.634	0.527
1152.501	648.713	80.006	19.995	103.155	20.219	1.640	0.548
1153.000	648.948	80.006	19.994	103.155	20.219	1.678	0.509
1153.500	649.245	80.005	19.994	103.154	20.220	1.591	0.508
1154.001	649.465	80.004	19.995	103.152	20.218	1.708	0.525
1154.500	649.731	80.005	19.995	103.152	20.217	1.783	0.502
1154.999	650.002	80.004	19.995	103.152	20.220	1.633	0.511
1155.499	650.250	80.006	19.994	103.150	20.221	1.525	0.527
1155.999	650.557	80.006	19.996	103.149	20.218	1.732	0.537
1156.499	650.825	80.005	19.997	103.150	20.220	1.621	0.565
1156.999	651.039	80.005	19.995	103.151	20.218	1.710	0.529
1157.499	651.303	80.006	19.996	103.152	20.219	1.676	0.480
1157.999	651.543	80.006	19.995	103.156	20.221	1.559	0.491
1158.500	651.803	80.006	19.995	103.157	20.221	1.559	0.502
1159.000	652.044	80.006	19.996	103.156	20.221	1.559	0.501
1159.499	652.300	80.005	19.996	103.154	20.222	1.488	0.499
1160.000	652.529	80.005	19.996	103.152	20.222	1.431	0.491
1160.500	652.804	80.005	19.996	103.149	20.218	1.714	0.494
1161.000	653.063	80.003	19.995	103.147	20.219	1.678	0.519
1161.500	653.313	80.004	19.995	103.147	20.221	1.548	0.521
1161.999	653.581	80.003	19.995	103.148	20.221	1.518	0.513
1162.499	653.848	80.003	19.997	103.150	20.220	1.595	0.527
1162.999	654.079	80.002	19.995	103.150	20.219	1.644	0.517
1163.499	654.351	80.002	19.996	103.150	20.220	1.567	0.501
1164.000	654.617	80.003	19.995	103.150	20.220	1.578	0.520
1164.500	654.848	80.002	19.995	103.151	20.217	1.831	0.517
1164.999	655.108	80.002	19.994	103.150	20.220	1.606	0.494
1165.499	655.363	80.002	19.997	103.151	20.220	1.588	0.503
1165.999	655.627	80.003	19.997	103.151	20.221	1.507	0.517
1166.499	655.924	80.002	19.994	103.152	20.221	1.563	0.540
1167.000	656.151	80.003	19.996	103.152	20.220	1.569	0.542
1167.500	656.415	80.003	19.996	103.154	20.218	1.704	0.507
1167.999	656.653	80.002	19.995	103.159	20.223	1.397	0.497
1168.499	656.890	80.002	19.996	103.161	20.220	1.586	0.489
1168.999	657.137	80.003	19.995	103.161	20.223	1.371	0.479
1169.499	657.426	80.003	19.996	103.161	20.222	1.497	0.510
1169.999	657.661	80.002	19.995	103.159	20.221	1.557	0.530
1170.499	657.927	80.002	19.994	103.154	20.222	1.478	0.512
1170.999	658.149	80.003	19.996	103.152	20.221	1.542	0.495
1171.499	658.445	80.002	19.996	103.152	20.222	1.493	0.503
1171.999	658.679	80.002	19.995	103.153	20.222	1.488	0.524
1172.499	658.937	80.003	19.996	103.154	20.223	1.388	0.511
1172.999	659.209	80.001	19.995	103.156	20.223	1.377	0.511
1173.499	659.440	80.002	19.994	103.157	20.222	1.450	0.516
1174.000	659.719	80.003	19.995	103.160	20.224	1.324	0.506
1174.500	659.971	80.003	19.995	103.162	20.226	1.226	0.521
1174.999	660.226	80.001	19.995	103.163	20.223	1.365	0.519
1175.499	660.507	80.002	19.995	103.163	20.223	1.363	0.521
1175.999	660.765	80.003	19.994	103.162	20.223	1.410	0.538
1176.499	661.003	80.002	19.995	103.159	20.221	1.499	0.518
1176.999	661.255	80.003	19.995	103.155	20.224	1.309	0.493
1177.500	661.470	80.003	19.996	103.154	20.220	1.631	0.479
1178.000	661.752	80.004	19.994	103.153	20.221	1.520	0.482
1178.499	661.988	80.002	19.995	103.154	20.225	1.273	0.508
1178.999	662.236	80.003	19.995	103.154	20.226	1.164	0.501
1179.499	662.489	80.003	19.996	103.153	20.224	1.335	0.492
1180.000	662.721	80.004	19.995	103.153	20.225	1.235	0.493
1180.500	663.019	80.004	19.995	103.153	20.225	1.245	0.507
1181.000	663.272	80.003	19.995	103.153	20.224	1.313	0.540
1181.500	663.515	80.004	19.995	103.153	20.223	1.377	0.523
1181.999	663.767	80.004	19.994	103.153	20.223	1.397	0.496
1182.499	664.024	80.003	19.994	103.153	20.220	1.631	0.502
1182.999	664.271	80.003	19.995	103.153	20.220	1.591	0.506
1183.499	664.561	80.002	19.995	103.153	20.224	1.313	0.521
1183.999	664.775	80.002	19.995	103.153	20.222	1.433	0.521
1184.500	665.007	80.003	19.995	103.153	20.224	1.309	0.475
1185.000	665.268	80.004	19.995	103.152	20.225	1.281	0.469
1185.499	665.527	80.003	19.995	103.148	20.224	1.318	0.507
1185.999	665.765	80.002	19.995	103.148	20.224	1.339	0.509
1186.499	666.039	80.003	19.994	103.148	20.222	1.442	0.504
1186.999	666.286	80.003	19.995	103.149	20.223	1.397	0.517
1187.499	666.557	80.001	19.994	103.149	20.224	1.341	0.520
1188.000	666.822	80.004	19.994	103.153	20.225	1.280	0.527
1188.500	667.062	80.002	19.995	103.153	20.221	1.523	0.521
1188.999	667.308	80.001	19.995	103.153	20.220	1.618	0.496
1189.500	667.534	80.002	19.995	103.152	20.221	1.512	0.479
1190.000	667.798	80.002	19.996	103.152	20.223	1.427	0.480
1190.499	668.039	80.002	19.994	103.152	20.221	1.527	0.497
1190.999	668.264	80.001	19.995	103.152	20.218	1.721	0.486
1191.499	668.564	80.002	19.996	103.152	20.219	1.651	0.496
1191.999	668.773	80.001	19.996	103.152	20.221	1.540	0.517
1192.499	669.062	80.002	19.996	103.153	20.221	1.516	0.504
1193.000	669.296	80.002	19.996	103.152	20.219	1.680	0.510
1193.500	669.566	80.002	19.997	103.152	20.221	1.523	0.513
1193.999	669.827	80.002	19.995	103.153	20.224	1.316	0.518
1194.499	670.061	80.002	19.996	103.155	20.222	1.456	0.513
1195.000	670.279	80.001	19.995	103.160	20.223	1.373	0.473
1195.500	670.614	80.000	19.995	103.161	20.220	1.576	0.502
1196.000	670.800	80.001	19.996	103.161	20.222	1.473	0.537
1196.500	671.054	80.001	19.996	103.161	20.226	1.181	0.481
1196.999	671.368	80.000	19.996	103.156	20.222	1.486	0.504
1197.500	671.566	80.001	19.995	103.151	20.222	1.435	0.540
1198.001	671.782	80.001	19.996	103.151	20.220	1.610	0.463
1198.501	672.106	80.001	19.996	103.150	20.222	1.489	0.477
1199.001	672.345	80.001	19.996	103.150	20.222	1.486	0.551
1199.501	672.609	80.001	19.996	103.152	20.220	1.608	0.533
1200.001	672.830	80.000	19.995	103.153	20.220	1.633	0.495
1200.500	673.072	80.001	19.995	103.153	20.221	1.518	0.474
1201.000	673.323	80.001	19.995	103.154	20.218	1.721	0.478
1201.500	673.593	80.002	19.996	103.154	20.220	1.595	0.507
1202.000	673.822	80.003	19.996	103.154	20.217	1.819	0.510
1202.500	674.062	80.002	19.995	103.154	20.220	1.580	0.484
1203.000	674.375	80.002	19.995	103.154	20.221	1.550	0.511
1203.500	674.597	80.001	19.995	103.153	20.218	1.721	0.544
1204.000	674.888	80.002	19.995	103.154	20.217	1.811	0.524
1204.500	675.119	80.003	19.996	103.153	20.219	1.661	0.517
1205.000	675.349	80.003	19.995	103.153	20.218	1.700	0.492
1205.500	675.628	80.002	19.997	103.155	20.221	1.538	0.486
1206.000	675.851	80.004	19.997	103.155	20.218	1.727	0.505
1206.500	676.133	80.003	19.995	103.154	20.218	1.729	0.503
1207.000	676.419	80.003	19.995	103.153	20.220	1.625	0.536
1207.500	676.658	80.003	19.996	103.152	20.219	1.668	0.546
1208.001	676.909	80.004	19.995	103.149	20.220	1.610	0.507
1208.500	677.154	80.004	19.996	103.148	20.219	1.634	0.493
1209.000	677.400	80.003	19.997	103.148	20.220	1.599	0.493
1209.500	677.681	80.003	19.996	103.148	20.218	1.715	0.509
1210.000	677.894	80.003	19.996	103.148	20.217	1.783	0.511
1210.500	678.137	80.004	19.997	103.149	20.219	1.638	0.475
1211.000	678.407	80.005	19.996	103.152	20.221	1.548	0.484
1211.500	678.656	80.004	19.995	103.156	20.222	1.471	0.516
1212.000	678.869	80.004	19.996	103.156	20.219	1.642	0.490
1212.500	679.176	80.004	19.995	103.156	20.219	1.697	0.491
1213.000	679.402	80.004	19.996	103.155	20.219	1.659	0.526
1213.500	679.674	80.004	19.996	103.152	20.221	1.508	0.515
1214.000	679.897	80.003	19.995	103.148	20.220	1.602	0.496
1214.500	680.153	80.002	19.995	103.147	20.219	1.668	0.487
1215.000	680.405	80.005	19.996	103.147	20.218	1.723	0.494
1215.500	680.639	80.003	19.996	103.148	20.217	1.815	0.497
1216.000	680.907	80.003	19.995	103.149	20.219	1.655	0.494
1216.500	681.174	80.004	19.996	103.150	20.218	1.740	0.518
1217.000	681.423	80.003	19.996	103.150	20.218	1.715	0.525
1217.500	681.659	80.003	19.996	103.150	20.218	1.732	0.500
1218.000	681.896	80.002	19.996	103.149	20.218	1.704	0.479
1218.500	682.186	80.003	19.997	103.148	20.221	1.508	0.501
1219.001	682.407	80.003	19.996	103.148	20.221	1.553	0.519
1219.500	682.700	80.003	19.995	103.149	20.216	1.836	0.512
1220.000	682.934	80.002	19.996	103.149	20.219	1.665	0.520
1220.500	683.138	80.001	19.997	103.149	20.217	1.794	0.483
1221.000	683.385	80.003	19.995	103.149	20.219	1.648	0.445
1221.500	683.635	80.002	19.996	103.149	20.220	1.593	0.474
1222.000	683.891	80.003	19.995	103.148	20.220	1.584	0.501
1222.500	684.162	80.003	19.996	103.147	20.216	1.843	0.516
1223.000	684.390	80.002	19.996	103.148	20.220	1.616	0.513
1223.500	684.661	80.002	19.996	103.149	20.221	1.501	0.499
1224.000	684.943	80.002	19.997	103.149	20.222	1.478	0.526
1224.500	685.155	80.002	19.996	103.150	20.221	1.553	0.524
1225.000	685.404	80.001	19.995	103.150	20.221	1.514	0.477
1225.500	685.679	80.003	19.997	103.149	20.220	1.572	0.492
1226.000	685.912	80.004	19.995	103.147	20.223	1.388	0.516
1226.500	686.142	80.002	19.996	103.147	20.222	1.446	0.485
1227.000	686.412	80.003	19.996	103.147	20.223	1.420	0.482
1227.500	686.676	80.003	19.996	103.147	20.222	1.450	0.517
1228.000	686.931	80.003	19.997	103.148	20.223	1.395	0.526
1228.500	687.125	80.002	19.996	103.147	20.226	1.200	0.484
1229.000	687.388	80.004	19.996	103.148	20.223	1.401	0.453
1229.500	687.636	80.004	19.996	103.148	20.223	1.409	0.484
1230.000	687.897	80.004	19.995	103.148	20.219	1.634	0.510
1230.500	688.130	80.005	19.995	103.147	20.220	1.621	0.502
1231.000	688.415	80.005	19.996	103.148	20.223	1.376	0.506
1231.500	688.656	80.005	19.997	103.147	20.221	1.514	0.523
1232.000	688.895	80.005	19.996	103.147	20.220	1.587	0.503
1232.500	689.145	80.004	19.995	103.147	20.224	1.356	0.484
1233.000	689.414	80.006	19.997	103.148	20.223	1.403	0.504
1233.500	689.642	80.005	19.996	103.147	20.219	1.697	0.508
1234.000	689.910	80.006	19.994	103.148	20.222	1.488	0.497
1234.500	690.146	80.006	19.995	103.147	20.220	1.631	0.500
1235.000	690.379	80.006	19.994	103.145	20.219	1.640	0.486
1235.500	690.632	80.005	19.995	103.144	20.221	1.535	0.477
1236.000	690.884	80.005	19.994	103.144	20.219	1.642	0.496
1236.500	691.120	80.006	19.995	103.144	20.221	1.538	0.497
1237.000	691.391	80.005	19.994	103.145	20.221	1.544	0.498
1237.500	691.612	80.005	19.995	103.147	20.221	1.506	0.500
1238.000	691.889	80.005	19.995	103.149	20.218	1.727	0.495
1238.500	692.108	80.005	19.995	103.150	20.219	1.676	0.497
1239.000	692.408	80.005	19.995	103.152	20.223	1.427	0.508
1239.500	692.639	80.006	19.994	103.152	20.224	1.328	0.525
1240.000	692.891	80.005	19.995	103.152	20.222	1.456	0.507
1240.500	693.168	80.006	19.996	103.151	20.222	1.467	0.506
1241.000	693.385	80.005	19.994	103.151	20.220	1.625	0.512
1241.500	693.630	80.005	19.994	103.149	20.223	1.429	0.478
1242.000	693.842	80.005	19.995	103.149	20.222	1.454	0.459
1242.500	694.112	80.005	19.995	103.150	20.222	1.446	0.469
1243.000	694.342	80.003	19.996	103.150	20.220	1.591	0.491
1243.500	694.627	80.004	19.993	103.150	20.219	1.644	0.508
1244.000	694.867	80.002	19.994	103.150	20.220	1.604	0.520
1244.500	695.113	80.002	19.994	103.150	20.222	1.480	0.505
1245.000	695.371	80.001	19.994	103.150	20.219	1.635	0.495
1245.500	695.625	80.002	19.995	103.151	20.223	1.410	0.508
1246.000	695.851	80.004	19.996	103.151	20.221	1.563	0.496
1246.500	696.124	80.004	19.995	103.151	20.219	1.667	0.489
1247.000	696.367	80.002	19.996	103.151	20.220	1.586	0.507
1247.500	696.608	80.002	19.994	103.151	20.220	1.582	0.500
1248.000	696.883	80.003	19.995	103.151	20.217	1.774	0.500
1248.500	697.112	80.002	19.996	103.151	20.220	1.587	0.510
1249.000	697.365	80.001	19.997	103.151	20.220	1.617	0.493
1249.500	697.563	80.002	19.995	103.151	20.223	1.410	0.466
1250.000	697.880	80.002	19.994	103.151	20.219	1.682	0.483
1250.500	698.086	80.003	19.995	103.151	20.219	1.683	0.519
1251.000	698.335	80.003	19.996	103.152	20.218	1.753	0.489
1251.500	698.605	80.002	19.996	103.152	20.219	1.655	0.487
1252.000	698.838	80.001	19.995	103.152	20.218	1.727	0.511
1252.500	699.098	80.001	19.995	103.152	20.217	1.800	0.497
1253.000	699.383	80.002	19.995	103.152	20.218	1.749	0.519
1253.500	699.588	80.001	19.997	103.152	20.220	1.621	0.518
1254.000	699.828	80.002	19.995	103.153	20.223	1.369	0.468
1254.500	700.086	80.003	19.995	103.153	20.221	1.538	0.471
1255.000	700.347	80.003	19.994	103.153	20.219	1.695	0.508
1255.500	700.609	80.003	19.996	103.152	20.218	1.721	0.521
1256.000	700.848	80.003	19.995	103.152	20.221	1.521	0.512
1256.500	701.058	80.002	19.996	103.151	20.219	1.693	0.475
1257.000	701.350	80.002	19.994	103.152	20.221	1.563	0.475
1257.500	701.571	80.002	19.996	103.152	20.220	1.585	0.508
1258.000	701.853	80.002	19.995	103.152	20.220	1.608	0.508
1258.500	702.065	80.002	19.995	103.146	20.220	1.597	0.499
1259.000	702.307	80.002	19.994	103.140	20.223	1.391	0.474
1259.500	702.572	80.002	19.995	103.140	20.225	1.282	0.480
1260.000	702.875	80.003	19.996	103.140	20.220	1.600	0.537
1260.500	703.057	80.002	19.995	103.141	20.222	1.433	0.527
1261.000	703.271	80.003	19.996	103.148	20.223	1.382	0.440
1261.500	703.529	80.003	19.995	103.151	20.221	1.555	0.433
1262.000	703.777	80.002	19.997	103.148	20.221	1.529	0.489
1262.500	704.059	80.002	19.996	103.145	20.222	1.437	0.518
1263.000	704.284	80.003	19.995	103.143	20.221	1.544	0.519
1263.500	704.528	80.002	19.996	103.137	20.221	1.544	0.488
1264.000	704.764	80.002	19.995	103.133	20.221	1.559	0.475
1264.500	705.033	80.001	19.995	103.134	20.221	1.506	0.493
1265.000	705.263	80.004	19.995	103.136	20.221	1.520	0.502
1265.500	705.483	80.001	19.994	103.136	20.222	1.471	0.474
1266.000	705.760	80.003	19.994	103.139	20.222	1.452	0.473
1266.500	705.961	80.001	19.994	103.141	20.221	1.504	0.488
1267.000	706.248	80.002	19.993	103.141	20.221	1.518	0.483
1267.500	706.478	80.002	19.994	103.141	20.223	1.405	0.503
1268.000	706.717	80.002	19.995	103.142	20.222	1.476	0.493
1268.500	706.987	80.003	19.996	103.145	20.222	1.437	0.489
1269.000	707.201	80.003	19.993	103.148	20.221	1.525	0.497
1269.500	707.467	80.003	19.995	103.147	20.223	1.422	0.482
1270.000	707.694	80.002	19.995	103.145	20.222	1.489	0.487
1270.500	707.972	80.004	19.994	103.145	20.220	1.578	0.499
1271.000	708.191	80.002	19.994	103.144	20.223	1.427	0.501
1271.500	708.423	80.002	19.996	103.144	20.221	1.503	0.474
1272.001	708.690	80.003	19.994	103.144	20.221	1.544	0.475
1272.501	708.933	80.003	19.996	103.146	20.221	1.512	0.504
1273.001	709.201	80.004	19.995	103.146	20.219	1.642	0.511
1273.500	709.426	80.003	19.995	103.146	20.223	1.378	0.502
1274.000	709.689	80.003	19.994	103.147	20.221	1.525	0.490
1274.501	709.938	80.004	19.995	103.149	20.221	1.520	0.500
1275.000	710.196	80.002	19.994	103.145	20.219	1.659	0.510
1275.500	710.430	80.004	19.995	103.143	20.222	1.478	0.500
1276.000	710.677	80.001	19.994	103.143	20.220	1.571	0.487
1276.500	710.922	80.003	19.995	103.141	20.217	1.791	0.486
1277.000	711.152	80.001	19.996	103.142	20.220	1.572	0.484
1277.500	711.462	80.003	19.995	103.146	20.218	1.742	0.508
1278.000	711.715	80.002	19.995	103.148	20.223	1.414	0.552
1278.500	711.952	80.001	19.995	103.148	20.220	1.582	0.527
1279.000	712.174	80.002	19.996	103.150	20.222	1.437	0.474
1279.500	712.440	80.002	19.996	103.150	20.220	1.567	0.474
1280.000	712.680	80.003	19.995	103.150	20.224	1.335	0.497
1280.500	712.931	80.002	19.996	103.151	20.221	1.535	0.499
1281.000	713.168	80.003	19.996	103.150	20.223	1.395	0.489
1281.500	713.453	80.001	19.996	103.149	20.222	1.457	0.505
1282.000	713.665	80.003	19.996	103.149	20.224	1.329	0.510
1282.500	713.929	80.002	19.996	103.149	20.224	1.350	0.487
1283.000	714.203	80.002	19.994	103.149	20.226	1.226	0.507
1283.500	714.452	80.002	19.995	103.149	20.223	1.388	0.530
1284.001	714.698	80.003	19.995	103.150	20.224	1.312	0.509
1284.500	714.936	80.001	19.996	103.150	20.222	1.470	0.490
1285.000	715.192	80.001	19.994	103.150	20.224	1.310	0.490
1285.500	715.455	80.002	19.996	103.151	20.222	1.442	0.506
1286.001	715.729	80.002	19.996	103.153	20.224	1.318	0.528
1286.500	715.948	80.003	19.995	103.155	20.224	1.323	0.515
1287.000	716.237	80.002	19.997	103.154	20.224	1.340	0.501
1287.500	716.457	80.003	19.996	103.155	20.221	1.516	0.508
1288.000	716.750	80.003	19.996	103.154	20.222	1.439	0.510
1288.501	716.992	80.002	19.995	103.152	20.224	1.306	0.524
1289.001	717.228	80.003	19.997	103.150	20.222	1.473	0.507
1289.500	717.465	80.004	19.994	103.150	20.228	1.091	0.476
1290.000	717.743	80.004	19.995	103.150	20.222	1.431	0.494
1290.501	718.019	80.003	19.994	103.151	20.227	1.137	0.534
1291.000	718.216	80.004	19.997	103.151	20.222	1.433	0.514
1291.500	718.488	80.003	19.996	103.152	20.223	1.399	0.471
1292.000	718.760	80.005	19.996	103.152	20.221	1.553	0.507
1292.500	719.015	80.004	19.994	103.151	20.220	1.625	0.536
1293.000	719.256	80.004	19.996	103.149	20.220	1.569	0.511
1293.500	719.517	80.005	19.994	103.147	20.222	1.431	0.498
1294.000	719.763	80.005	19.996	103.147	20.219	1.659	0.505
1294.500	720.030	80.004	19.995	103.152	20.222	1.497	0.510
1295.000	720.269	80.004	19.994	103.145	20.221	1.514	0.510
1295.500	720.534	80.004	19.995	103.129	20.225	1.237	0.505
1296.000	720.785	80.004	19.996	103.116	20.222	1.484	0.510
1296.500	721.021	80.004	19.996	103.108	20.220	1.584	0.501
1297.000	721.295	80.004	19.996	103.102	20.223	1.401	0.498
1297.500	721.523	80.003	19.996	103.109	20.226	1.166	0.506
1298.000	721.777	80.005	19.994	103.130	20.225	1.252	0.492
1298.500	722.058	80.004	19.995	103.172	20.228	1.092	0.508
1299.000	722.299	80.003	19.996	103.193	20.224	1.309	0.528
1299.500	722.541	80.004	19.994	103.199	20.225	1.237	0.503
1300.000	722.805	80.004	19.993	103.200	20.225	1.294	0.495
1300.500	723.086	80.003	19.997	103.194	20.224	1.316	0.526
1301.000	723.330	80.004	19.994	103.166	20.226	1.190	0.535
1301.500	723.583	80.004	19.995	103.152	20.226	1.207	0.511
1302.000	723.805	80.004	19.995	103.148	20.222	1.440	0.486
1302.500	724.077	80.004	19.995	103.148	20.227	1.102	0.484
1303.000	724.331	80.003	19.995	103.148	20.225	1.273	0.510
1303.500	724.590	80.003	19.995	103.148	20.224	1.309	0.519
1304.000	724.824	80.003	19.995	103.149	20.225	1.275	0.503
1304.500	725.107	80.003	19.996	103.148	20.227	1.141	0.506
1305.000	725.348	80.002	19.996	103.148	20.223	1.382	0.521
1305.500	725.560	80.003	19.996	103.148	20.226	1.192	0.488
1306.000	725.864	80.004	19.996	103.148	20.225	1.254	0.484
1306.501	726.109	80.003	19.996	103.148	20.226	1.166	0.532
1307.001	726.364	80.003	19.995	103.149	20.220	1.585	0.524
1307.500	726.605	80.003	19.994	103.149	20.226	1.169	0.498
1308.000	726.853	80.002	19.996	103.149	20.227	1.143	0.493
1308.500	727.149	80.002	19.996	103.150	20.227	1.152	0.517
1309.000	727.420	80.003	19.996	103.150	20.227	1.098	0.555
1309.501	727.675	80.003	19.997	103.149	20.222	1.474	0.547
1310.000	727.933	80.003	19.997	103.149	20.225	1.256	0.520
1310.500	728.186	80.002	19.994	103.149	20.226	1.175	0.512
1311.000	728.437	80.002	19.995	103.149	20.221	1.512	0.507
1311.500	728.678	80.002	19.995	103.148	20.221	1.552	0.498
1312.000	728.939	80.003	19.996	103.149	20.221	1.540	0.497
1312.500	729.212	80.002	19.995	103.149	20.226	1.167	0.518
1313.000	729.453	80.003	19.995	103.148	20.222	1.484	0.524
1313.500	729.736	80.004	19.995	103.146	20.223	1.409	0.519
1314.000	729.967	80.003	19.995	103.145	20.224	1.326	0.519
1314.500	730.223	80.003	19.996	103.143	20.225	1.260	0.500
1315.000	730.497	80.003	19.995	103.138	20.228	1.036	0.509
1315.500	730.769	80.004	19.996	103.139	20.226	1.224	0.538
1316.000	730.989	80.004	19.995	103.140	20.225	1.264	0.519
1316.500	731.265	80.004	19.998	103.141	20.225	1.288	0.494
1317.000	731.489	80.004	19.997	103.143	20.227	1.139	0.498
1317.500	731.783	80.004	19.996	103.148	20.226	1.183	0.509
1318.000	732.046	80.005	19.997	103.147	20.224	1.350	0.538
1318.500	732.277	80.004	19.997	103.147	20.225	1.233	0.526
1319.000	732.524	80.004	19.993	103.147	20.227	1.113	0.486
1319.500	732.785	80.004	19.995	103.146	20.224	1.324	0.493
1320.000	733.018	80.004	19.994	103.145	20.226	1.216	0.501
1320.500	733.305	80.004	19.996	103.145	20.225	1.254	0.507
1321.000	733.531	80.004	19.996	103.145	20.224	1.303	0.516
1321.500	733.800	80.004	19.995	103.144	20.226	1.198	0.504
1322.000	734.076	80.005	19.995	103.144	20.223	1.375	0.520
1322.500	734.335	80.004	19.997	103.145	20.224	1.343	0.540
1323.000	734.564	80.003	19.995	103.146	20.223	1.392	0.511
1323.500	734.792	80.004	19.995	103.146	20.225	1.280	0.472
1324.000	735.073	80.004	19.996	103.149	20.221	1.552	0.483
1324.500	735.317	80.003	19.997	103.150	20.225	1.288	0.517
1325.000	735.578	80.003	19.995	103.150	20.226	1.218	0.515
1325.500	735.811	80.003	19.995	103.151	20.225	1.290	0.500
1326.000	736.059	80.003	19.997	103.150	20.221	1.552	0.487
1326.500	736.341	80.003	19.994	103.150	20.224	1.303	0.505
1327.000	736.561	80.001	19.994	103.149	20.225	1.288	0.516
1327.500	736.823	80.002	19.995	103.150	20.221	1.512	0.492
1328.000	737.065	80.002	19.995	103.150	20.222	1.461	0.493
1328.500	737.326	80.001	19.996	103.151	20.223	1.378	0.504
1329.000	737.587	80.003	19.992	103.147	20.221	1.540	0.512
1329.501	737.874	80.002	19.994	103.145	20.226	1.173	0.535
1330.000	738.110	80.003	19.994	103.144	20.223	1.412	0.536
1330.500	738.362	80.002	19.995	103.142	20.222	1.461	0.505
1331.000	738.612	80.002	19.996	103.142	20.224	1.339	0.495
1331.500	738.848	80.001	19.994	103.147	20.224	1.318	0.495
1332.000	739.084	80.002	19.994	103.152	20.225	1.247	0.479
1332.501	739.371	80.002	19.993	103.154	20.224	1.324	0.497
1333.001	739.640	80.003	19.993	103.156	20.225	1.265	0.539
1333.501	739.882	80.002	19.995	103.155	20.224	1.320	0.534
1334.000	740.129	80.002	19.994	103.154	20.224	1.331	0.500
1334.500	740.400	80.002	19.996	103.152	20.223	1.369	0.504
1335.000	740.620	80.004	19.994	103.151	20.224	1.297	0.505
1335.500	740.887	80.002	19.995	103.151	20.223	1.397	0.489
1336.000	741.132	80.003	19.996	103.151	20.226	1.201	0.499
1336.500	741.401	80.003	19.996	103.151	20.227	1.156	0.513
1337.000	741.654	80.003	19.995	103.150	20.225	1.271	0.518
1337.500	741.917	80.002	19.996	103.150	20.229	0.960	0.519
1338.000	742.177	80.003	19.996	103.150	20.223	1.367	0.520
1338.500	742.460	80.003	19.996	103.149	20.226	1.218	0.533
1339.000	742.680	80.003	19.994	103.149	20.225	1.243	0.523
1339.501	742.938	80.003	19.994	103.148	20.225	1.262	0.491
1340.001	743.179	80.003	19.996	103.149	20.221	1.523	0.489
1340.500	743.427	80.001	19.993	103.148	20.224	1.342	0.494
1341.000	743.670	80.002	19.994	103.149	20.227	1.128	0.490
