Sample ID:	C:\MCC\MCC Cal\Test\Rubber_Foam_Pipe_Insulation_MCC_30K_min_220126_R1.txt
Sample Weight (mg):	4.68
Heating Rate (C/s):	0.5
Combustor Temp (C):	900
N2 Flow Rate (cc/min):	80
O2 Flow Rate (cc/min):	20
Calibration File:	C:\MCC\MCC Cal\Coeff1 JN10440_30_210304.txt.txt
T Correction Coefficients:	0	1.024463	0
Time Shift (s):	14
*
Time (s)	Temperature (C)	N2 flow rate (cc/min)	O2 flow rate (cc/min)	Flow Rate (cc/min)	Oxygen (%)	HRR (W/g)	Heating rate (C/s)
0.000	112.947	80.005	19.996	103.676	20.277	-0.187	0.005
0.500	112.940	80.006	19.995	103.677	20.278	-0.236	-0.014
1.000	112.967	80.005	19.996	103.675	20.276	-0.113	-0.002
1.500	112.962	80.006	19.994	103.671	20.277	-0.146	0.021
2.000	112.949	80.004	19.994	103.675	20.277	-0.147	0.002
2.500	112.933	80.005	19.995	103.680	20.279	-0.289	-0.023
3.000	112.929	80.005	19.995	103.683	20.278	-0.208	-0.024
3.500	112.906	80.005	19.995	103.684	20.275	0.013	-0.023
4.000	112.969	80.004	19.994	103.686	20.275	-0.019	0.006
4.500	112.964	80.004	19.995	103.687	20.276	-0.110	0.049
5.000	112.955	80.005	19.995	103.685	20.276	-0.074	0.022
5.500	112.957	80.004	19.994	103.688	20.275	-0.021	-0.011
6.000	112.948	80.005	19.994	103.689	20.279	-0.303	-0.007
6.500	112.939	80.005	19.993	103.695	20.275	-0.025	-0.012
7.000	112.970	80.004	19.993	103.698	20.275	-0.045	0.003
7.500	112.948	80.003	19.993	103.704	20.276	-0.089	0.015
8.000	112.929	80.004	19.994	103.706	20.277	-0.147	-0.017
8.500	112.991	80.005	19.994	103.710	20.273	0.151	0.001
9.000	112.953	80.005	19.995	103.710	20.275	-0.043	0.034
9.500	112.971	80.004	19.994	103.712	20.273	0.151	0.002
10.001	112.974	80.004	19.994	103.711	20.275	0.000	0.000
10.501	112.991	80.002	19.993	103.710	20.270	0.344	0.020
11.001	112.977	80.004	19.994	103.709	20.276	-0.078	0.012
11.501	112.949	80.003	19.994	103.703	20.273	0.104	-0.020
12.000	112.968	80.004	19.994	103.695	20.273	0.146	-0.026
12.500	112.995	80.004	19.995	103.692	20.270	0.357	0.019
13.000	112.972	80.004	19.994	103.686	20.270	0.304	0.025
13.500	112.981	80.003	19.995	103.680	20.274	0.032	-0.005
14.000	112.994	80.004	19.995	103.685	20.275	-0.036	0.004
14.500	112.997	80.004	19.994	103.692	20.263	0.788	0.019
15.000	113.022	80.004	19.995	103.695	20.272	0.208	0.022
15.500	113.043	80.004	19.994	103.701	20.267	0.524	0.037
16.000	113.014	80.004	19.994	103.708	20.272	0.216	0.019
16.500	113.007	80.004	19.994	103.709	20.270	0.304	-0.022
17.000	113.054	80.004	19.994	103.710	20.271	0.229	0.002
17.500	113.009	80.003	19.994	103.716	20.268	0.448	0.021
18.000	113.034	80.004	19.994	103.720	20.268	0.469	-0.009
18.500	113.032	80.003	19.994	103.720	20.270	0.308	0.001
19.000	113.068	80.005	19.995	103.721	20.274	0.074	0.028
19.500	113.046	80.004	19.996	103.720	20.268	0.435	0.024
20.000	113.064	80.002	19.993	103.714	20.268	0.484	0.005
20.500	113.109	80.004	19.995	103.711	20.271	0.287	0.029
21.000	113.128	80.004	19.996	103.709	20.269	0.412	0.063
21.500	113.058	80.003	19.996	103.712	20.267	0.535	0.007
22.000	113.074	80.005	19.994	103.714	20.266	0.615	-0.053
22.500	113.092	80.005	19.993	103.714	20.269	0.422	-0.010
23.000	113.151	80.005	19.996	103.715	20.267	0.543	0.056
23.500	113.099	80.004	19.994	103.716	20.273	0.098	0.042
24.000	113.120	80.005	19.994	103.713	20.269	0.376	-0.012
24.500	113.109	80.004	19.995	103.711	20.269	0.395	-0.011
25.000	113.185	80.005	19.994	103.713	20.269	0.392	0.038
25.500	113.145	80.006	19.995	103.712	20.267	0.515	0.051
26.000	113.194	80.005	19.994	103.711	20.269	0.414	0.023
26.500	113.142	80.005	19.993	103.716	20.270	0.329	0.003
27.000	113.205	80.006	19.995	103.723	20.263	0.793	0.004
27.500	113.194	80.005	19.995	103.728	20.270	0.343	0.031
28.001	113.256	80.006	19.994	103.734	20.269	0.371	0.052
28.500	113.195	80.005	19.994	103.738	20.265	0.644	0.027
29.000	113.291	80.006	19.993	103.737	20.267	0.558	0.018
29.500	113.276	80.005	19.994	103.736	20.270	0.329	0.058
30.000	113.289	80.004	19.993	103.735	20.263	0.793	0.039
30.500	113.325	80.005	19.993	103.734	20.260	1.007	0.024
31.000	113.338	80.006	19.993	103.734	20.264	0.736	0.050
31.500	113.340	80.006	19.993	103.737	20.262	0.903	0.032
32.000	113.384	80.007	19.994	103.737	20.263	0.824	0.031
32.501	113.424	80.006	19.993	103.739	20.265	0.704	0.065
33.001	113.422	80.006	19.993	103.741	20.263	0.788	0.061
33.500	113.442	80.006	19.992	103.745	20.265	0.685	0.028
34.000	113.491	80.006	19.993	103.746	20.258	1.132	0.043
34.500	113.461	80.007	19.993	103.752	20.261	0.937	0.044
35.000	113.519	80.007	19.994	103.759	20.258	1.174	0.024
35.500	113.557	80.006	19.993	103.767	20.261	0.962	0.062
36.000	113.528	80.006	19.994	103.774	20.260	1.032	0.052
36.500	113.638	80.006	19.993	103.783	20.261	0.928	0.045
37.001	113.584	80.005	19.994	103.794	20.258	1.129	0.069
37.501	113.719	80.006	19.994	103.802	20.256	1.308	0.068
38.000	113.702	80.005	19.992	103.805	20.257	1.259	0.099
38.500	113.740	80.005	19.995	103.811	20.258	1.159	0.069
39.000	113.748	80.007	19.994	103.818	20.250	1.693	0.033
39.500	113.778	80.005	19.993	103.824	20.252	1.547	0.043
40.000	113.813	80.006	19.994	103.832	20.253	1.496	0.052
40.500	113.848	80.007	19.995	103.841	20.253	1.498	0.068
41.000	113.888	80.006	19.995	103.844	20.255	1.363	0.072
41.500	113.968	80.004	19.993	103.845	20.248	1.831	0.097
42.000	113.990	80.006	19.993	103.848	20.254	1.466	0.111
42.500	114.024	80.006	19.994	103.851	20.252	1.578	0.079
43.000	114.075	80.006	19.994	103.855	20.249	1.767	0.071
43.500	114.117	80.006	19.994	103.861	20.247	1.911	0.089
44.000	114.181	80.006	19.993	103.867	20.250	1.684	0.100
44.500	114.194	80.007	19.994	103.864	20.249	1.758	0.092
45.001	114.273	80.007	19.995	103.860	20.251	1.657	0.084
45.501	114.339	80.006	19.994	103.860	20.248	1.828	0.118
46.000	114.440	80.006	19.993	103.860	20.246	2.004	0.156
46.500	114.449	80.005	19.993	103.859	20.247	1.896	0.139
47.000	114.577	80.007	19.994	103.862	20.247	1.930	0.124
47.500	114.543	80.007	19.995	103.864	20.242	2.248	0.115
48.000	114.631	80.007	19.993	103.865	20.243	2.169	0.074
48.500	114.739	80.007	19.994	103.865	20.248	1.856	0.125
49.000	114.772	80.007	19.993	103.858	20.243	2.174	0.169
49.501	114.846	80.007	19.993	103.857	20.247	1.905	0.124
50.001	114.901	80.006	19.992	103.855	20.244	2.099	0.118
50.500	115.003	80.006	19.993	103.855	20.244	2.099	0.143
51.000	115.110	80.007	19.992	103.857	20.242	2.303	0.183
51.500	115.127	80.008	19.993	103.865	20.240	2.407	0.166
52.000	115.230	80.007	19.993	103.867	20.239	2.483	0.122
52.500	115.302	80.008	19.993	103.872	20.237	2.613	0.147
53.000	115.361	80.006	19.993	103.874	20.242	2.257	0.153
53.500	115.454	80.008	19.997	103.878	20.237	2.585	0.142
54.000	115.537	80.009	19.995	103.885	20.239	2.500	0.164
54.501	115.640	80.007	19.993	103.891	20.239	2.505	0.181
55.001	115.738	80.008	19.995	103.892	20.237	2.598	0.194
55.501	115.837	80.007	19.993	103.896	20.236	2.715	0.199
56.000	115.872	80.008	19.993	103.897	20.240	2.422	0.166
56.500	115.991	80.007	19.994	103.896	20.238	2.511	0.144
57.000	116.066	80.007	19.995	103.895	20.238	2.538	0.174
57.500	116.178	80.008	19.994	103.891	20.237	2.612	0.190
58.000	116.241	80.007	19.994	103.887	20.235	2.733	0.181
58.500	116.330	80.008	19.994	103.887	20.231	3.017	0.164
59.000	116.472	80.007	19.993	103.885	20.235	2.761	0.191
59.500	116.527	80.007	19.994	103.886	20.235	2.735	0.214
60.000	116.659	80.006	19.994	103.891	20.241	2.349	0.192
60.500	116.758	80.006	19.993	103.895	20.234	2.854	0.209
61.000	116.858	80.005	19.993	103.894	20.235	2.737	0.215
61.500	116.947	80.005	19.993	103.893	20.235	2.771	0.195
62.000	117.065	80.006	19.993	103.887	20.239	2.478	0.198
62.500	117.163	80.005	19.994	103.883	20.236	2.686	0.211
63.000	117.272	80.005	19.993	103.876	20.235	2.737	0.211
63.500	117.396	80.006	19.993	103.875	20.236	2.694	0.220
64.000	117.484	80.005	19.993	103.876	20.235	2.773	0.223
64.500	117.596	80.006	19.992	103.875	20.238	2.512	0.206
65.000	117.697	80.004	19.993	103.874	20.239	2.466	0.206
65.500	117.810	80.006	19.993	103.875	20.237	2.620	0.213
66.000	117.910	80.005	19.994	103.871	20.237	2.637	0.214
66.500	117.993	80.006	19.993	103.870	20.236	2.711	0.199
67.000	118.134	80.005	19.993	103.872	20.237	2.648	0.204
67.500	118.282	80.006	19.993	103.878	20.234	2.851	0.256
68.001	118.374	80.005	19.993	103.881	20.230	3.074	0.264
68.501	118.495	80.006	19.994	103.883	20.235	2.754	0.226
69.000	118.609	80.005	19.993	103.884	20.234	2.841	0.224
69.500	118.749	80.005	19.993	103.887	20.231	3.033	0.245
70.000	118.850	80.004	19.993	103.888	20.231	3.056	0.248
70.500	118.967	80.004	19.993	103.890	20.235	2.735	0.230
71.000	119.102	80.004	19.993	103.892	20.234	2.834	0.235
71.500	119.160	80.005	19.992	103.896	20.235	2.783	0.222
72.000	119.315	80.005	19.994	103.899	20.234	2.819	0.203
72.500	119.489	80.005	19.993	103.899	20.237	2.626	0.271
73.000	119.586	80.005	19.993	103.902	20.230	3.069	0.300
73.500	119.700	80.004	19.993	103.906	20.232	2.993	0.241
74.000	119.871	80.004	19.994	103.905	20.234	2.853	0.247
74.500	119.974	80.006	19.992	103.903	20.232	2.980	0.279
75.000	120.111	80.004	19.994	103.903	20.228	3.208	0.257
75.500	120.209	80.004	19.993	103.904	20.227	3.337	0.238
76.000	120.369	80.004	19.994	103.904	20.226	3.390	0.247
76.500	120.482	80.004	19.993	103.904	20.228	3.237	0.266
77.001	120.636	80.004	19.994	103.904	20.231	3.034	0.270
77.501	120.747	80.005	19.993	103.904	20.231	3.026	0.265
78.000	120.923	80.004	19.995	103.904	20.231	3.056	0.276
78.501	121.045	80.005	19.993	103.904	20.231	3.045	0.293
79.001	121.205	80.006	19.994	103.904	20.229	3.180	0.290
79.500	121.321	80.004	19.993	103.906	20.229	3.155	0.279
80.000	121.475	80.004	19.994	103.906	20.230	3.115	0.273
80.500	121.610	80.005	19.993	103.907	20.229	3.138	0.279
81.000	121.746	80.004	19.994	103.908	20.232	2.931	0.280
81.500	121.872	80.005	19.994	103.908	20.228	3.235	0.267
82.000	122.003	80.004	19.993	103.908	20.227	3.292	0.260
82.500	122.167	80.003	19.994	103.910	20.229	3.138	0.276
83.000	122.334	80.004	19.994	103.913	20.231	3.026	0.313
83.500	122.487	80.004	19.993	103.913	20.230	3.100	0.326
84.000	122.627	80.004	19.994	103.917	20.232	2.942	0.307
84.500	122.788	80.005	19.994	103.922	20.233	2.912	0.297
85.000	122.924	80.003	19.993	103.928	20.231	3.039	0.299
85.500	123.118	80.003	19.994	103.932	20.232	2.956	0.313
86.000	123.253	80.004	19.993	103.939	20.235	2.774	0.329
86.500	123.416	80.004	19.995	103.943	20.228	3.240	0.314
87.000	123.596	80.004	19.994	103.943	20.230	3.079	0.321
87.500	123.745	80.003	19.995	103.941	20.232	2.953	0.336
88.000	123.901	80.002	19.993	103.940	20.231	3.054	0.317
88.500	124.044	80.003	19.995	103.939	20.227	3.308	0.302
89.000	124.207	80.004	19.993	103.934	20.234	2.849	0.302
89.500	124.328	80.004	19.994	103.935	20.228	3.207	0.295
90.000	124.519	80.005	19.994	103.937	20.232	2.963	0.298
90.500	124.645	80.003	19.994	103.936	20.227	3.325	0.315
91.001	124.857	80.003	19.993	103.935	20.229	3.137	0.328
91.501	124.997	80.005	19.994	103.938	20.229	3.200	0.345
92.000	125.214	80.003	19.994	103.940	20.231	3.012	0.354
92.500	125.386	80.004	19.994	103.941	20.230	3.090	0.373
93.000	125.522	80.004	19.993	103.942	20.230	3.115	0.348
93.500	125.691	80.002	19.993	103.941	20.229	3.151	0.307
94.000	125.928	80.005	19.993	103.936	20.230	3.088	0.356
94.500	126.063	80.004	19.995	103.929	20.231	3.045	0.388
95.000	126.229	80.004	19.994	103.926	20.232	2.977	0.336
95.500	126.399	80.004	19.994	103.924	20.234	2.808	0.319
96.000	126.557	80.003	19.994	103.923	20.236	2.715	0.332
96.500	126.751	80.004	19.994	103.924	20.232	2.969	0.340
97.001	126.939	80.004	19.994	103.927	20.231	3.037	0.367
97.501	127.105	80.003	19.993	103.925	20.231	2.999	0.368
98.000	127.299	80.004	19.994	103.920	20.234	2.806	0.357
98.500	127.475	80.004	19.994	103.914	20.232	2.929	0.365
99.000	127.643	80.004	19.993	103.913	20.228	3.251	0.357
99.500	127.825	80.004	19.994	103.913	20.230	3.080	0.347
100.000	128.004	80.004	19.995	103.912	20.230	3.098	0.355
100.500	128.144	80.004	19.994	103.911	20.230	3.126	0.340
101.000	128.356	80.004	19.995	103.913	20.230	3.133	0.336
101.500	128.528	80.005	19.995	103.915	20.232	2.982	0.368
102.001	128.707	80.004	19.995	103.915	20.228	3.256	0.367
102.501	128.887	80.005	19.995	103.919	20.230	3.099	0.355
103.000	129.100	80.005	19.995	103.920	20.233	2.906	0.376
103.500	129.289	80.005	19.995	103.922	20.231	3.058	0.398
104.000	129.420	80.006	19.995	103.925	20.230	3.096	0.361
104.500	129.611	80.004	19.995	103.927	20.226	3.387	0.321
105.000	129.791	80.006	19.995	103.926	20.232	2.935	0.346
105.500	129.968	80.004	19.995	103.930	20.228	3.261	0.364
106.000	130.192	80.004	19.995	103.932	20.228	3.215	0.379
106.500	130.366	80.006	19.995	103.927	20.230	3.128	0.399
107.000	130.544	80.006	19.996	103.925	20.228	3.243	0.374
107.500	130.697	80.005	19.994	103.922	20.234	2.808	0.341
108.000	130.925	80.006	19.994	103.920	20.231	3.060	0.357
108.500	131.127	80.006	19.995	103.916	20.229	3.164	0.406
109.000	131.282	80.005	19.995	103.914	20.227	3.287	0.393
109.500	131.465	80.004	19.995	103.919	20.228	3.238	0.347
110.000	131.708	80.004	19.994	103.921	20.229	3.158	0.382
110.500	131.852	80.006	19.994	103.918	20.230	3.073	0.407
111.000	132.090	80.005	19.995	103.918	20.230	3.102	0.385
111.500	132.277	80.006	19.994	103.917	20.231	3.016	0.403
112.000	132.436	80.004	19.995	103.913	20.232	2.935	0.385
112.500	132.602	80.005	19.994	103.910	20.232	2.980	0.336
113.000	132.813	80.003	19.994	103.908	20.230	3.109	0.351
113.500	133.044	80.006	19.998	103.909	20.230	3.077	0.410
114.001	133.192	80.006	19.997	103.915	20.234	2.811	0.411
114.501	133.416	80.005	19.996	103.918	20.233	2.891	0.376
115.000	133.558	80.005	19.996	103.919	20.228	3.274	0.369
115.500	133.759	80.005	19.996	103.921	20.234	2.814	0.355
116.000	133.977	80.005	19.995	103.923	20.228	3.248	0.381
116.500	134.176	80.005	19.994	103.921	20.232	2.994	0.418
117.000	134.372	80.004	19.996	103.915	20.229	3.162	0.406
117.500	134.537	80.005	19.996	103.913	20.228	3.266	0.378
118.000	134.744	80.004	19.995	103.915	20.229	3.200	0.366
118.500	134.975	80.007	19.995	103.914	20.230	3.122	0.405
119.000	135.174	80.005	19.994	103.916	20.226	3.349	0.434
119.500	135.323	80.005	19.995	103.920	20.228	3.224	0.389
120.000	135.534	80.004	19.993	103.921	20.232	2.963	0.354
120.500	135.714	80.004	19.994	103.923	20.230	3.084	0.376
121.000	135.938	80.005	19.995	103.927	20.230	3.124	0.398
121.500	136.140	80.005	19.995	103.928	20.232	2.929	0.415
122.000	136.359	80.005	19.994	103.929	20.231	3.035	0.424
122.500	136.518	80.006	19.994	103.930	20.227	3.295	0.399
123.000	136.736	80.005	19.993	103.932	20.226	3.355	0.378
123.500	136.945	80.006	19.993	103.930	20.234	2.846	0.402
124.000	137.119	80.005	19.993	103.923	20.229	3.149	0.405
124.500	137.332	80.005	19.994	103.918	20.231	3.037	0.385
125.000	137.548	80.005	19.993	103.919	20.226	3.346	0.409
125.500	137.759	80.006	19.994	103.916	20.230	3.124	0.429
126.000	137.940	80.007	19.995	103.919	20.229	3.143	0.410
126.500	138.160	80.006	19.995	103.925	20.229	3.193	0.396
127.000	138.375	80.006	19.994	103.928	20.228	3.251	0.418
127.500	138.574	80.006	19.992	103.927	20.229	3.202	0.424
128.000	138.781	80.005	19.993	103.926	20.228	3.219	0.409
128.500	138.983	80.008	19.993	103.920	20.229	3.153	0.407
129.000	139.149	80.007	19.994	103.914	20.231	3.013	0.388
129.500	139.364	80.006	19.995	103.913	20.231	3.019	0.374
130.000	139.581	80.008	19.992	103.910	20.226	3.400	0.407
130.500	139.759	80.007	19.992	103.910	20.236	2.717	0.413
131.000	139.971	80.007	19.993	103.914	20.226	3.367	0.393
131.500	140.167	80.007	19.993	103.916	20.228	3.225	0.399
132.000	140.395	80.007	19.993	103.920	20.224	3.520	0.416
132.500	140.599	80.008	19.993	103.924	20.228	3.221	0.428
133.000	140.820	80.007	19.992	103.924	20.228	3.249	0.429
133.500	141.013	80.008	19.993	103.921	20.229	3.175	0.419
134.000	141.223	80.007	19.993	103.924	20.229	3.198	0.408
134.500	141.404	80.008	19.993	103.925	20.226	3.348	0.397
135.000	141.621	80.008	19.994	103.927	20.228	3.244	0.395
135.500	141.827	80.007	19.992	103.927	20.226	3.386	0.411
136.000	142.024	80.007	19.994	103.926	20.227	3.289	0.413
136.500	142.291	80.007	19.993	103.929	20.228	3.227	0.434
137.000	142.442	80.007	19.993	103.929	20.231	3.037	0.441
137.500	142.685	80.007	19.994	103.928	20.230	3.079	0.406
138.000	142.881	80.007	19.994	103.934	20.227	3.289	0.416
138.500	143.093	80.006	19.994	103.939	20.230	3.102	0.424
139.000	143.307	80.006	19.993	103.939	20.231	3.056	0.418
139.500	143.522	80.005	19.994	103.940	20.227	3.305	0.428
140.000	143.713	80.004	19.994	103.943	20.232	2.971	0.418
140.500	143.980	80.005	19.994	103.942	20.235	2.776	0.432
141.000	144.195	80.004	19.994	103.941	20.231	3.060	0.470
141.500	144.399	80.003	19.994	103.940	20.227	3.318	0.451
142.000	144.591	80.005	19.994	103.939	20.230	3.087	0.408
142.500	144.836	80.005	19.995	103.932	20.229	3.161	0.417
143.000	145.033	80.005	19.994	103.928	20.228	3.225	0.439
143.500	145.253	80.005	19.994	103.923	20.228	3.263	0.429
144.000	145.475	80.004	19.994	103.918	20.227	3.326	0.429
144.500	145.684	80.004	19.993	103.915	20.228	3.269	0.437
145.000	145.866	80.004	19.994	103.920	20.226	3.398	0.411
145.500	146.100	80.004	19.992	103.924	20.228	3.248	0.403
146.000	146.324	80.005	19.994	103.926	20.226	3.352	0.437
146.500	146.529	80.004	19.994	103.932	20.227	3.323	0.444
147.000	146.733	80.004	19.993	103.934	20.228	3.269	0.419
147.500	146.939	80.004	19.992	103.936	20.228	3.229	0.410
148.000	147.168	80.003	19.993	103.935	20.228	3.257	0.423
148.500	147.359	80.003	19.993	103.931	20.228	3.242	0.427
149.000	147.628	80.004	19.993	103.930	20.226	3.399	0.440
149.500	147.813	80.003	19.993	103.933	20.230	3.085	0.457
150.000	148.029	80.003	19.994	103.933	20.227	3.323	0.428
150.500	148.269	80.005	19.993	103.936	20.228	3.236	0.429
151.000	148.502	80.003	19.993	103.939	20.227	3.342	0.464
151.500	148.707	80.004	19.993	103.939	20.223	3.560	0.455
152.000	148.913	80.004	19.993	103.935	20.227	3.276	0.424
152.500	149.130	80.003	19.993	103.931	20.225	3.422	0.417
153.000	149.386	80.005	19.994	103.931	20.225	3.479	0.448
153.501	149.587	80.005	19.994	103.934	20.225	3.433	0.466
154.001	149.824	80.004	19.994	103.935	20.223	3.602	0.448
154.500	150.042	80.004	19.993	103.940	20.225	3.441	0.446
155.000	150.252	80.006	19.994	103.943	20.226	3.399	0.441
155.500	150.478	80.005	19.993	103.941	20.225	3.460	0.432
156.000	150.681	80.005	19.993	103.938	20.225	3.460	0.433
156.500	150.891	80.005	19.993	103.934	20.226	3.382	0.421
157.000	151.112	80.004	19.993	103.933	20.225	3.439	0.422
157.500	151.303	80.004	19.993	103.934	20.225	3.422	0.421
158.000	151.543	80.004	19.993	103.936	20.224	3.526	0.421
158.500	151.725	80.004	19.994	103.940	20.223	3.604	0.427
159.000	151.964	80.005	19.992	103.943	20.226	3.401	0.421
159.500	152.220	80.005	19.994	103.942	20.222	3.646	0.458
160.000	152.457	80.004	19.993	103.940	20.224	3.536	0.495
160.500	152.677	80.004	19.993	103.934	20.225	3.439	0.475
161.000	152.843	80.004	19.993	103.927	20.225	3.460	0.421
161.500	153.158	80.004	19.995	103.923	20.227	3.335	0.433
162.000	153.321	80.005	19.994	103.920	20.225	3.448	0.480
162.500	153.600	80.006	19.994	103.921	20.225	3.479	0.460
163.000	153.762	80.004	19.993	103.927	20.226	3.350	0.441
163.500	154.000	80.003	19.992	103.931	20.225	3.424	0.421
164.000	154.206	80.005	19.994	103.934	20.222	3.648	0.422
164.500	154.440	80.005	19.994	103.937	20.224	3.515	0.442
165.000	154.645	80.004	19.994	103.938	20.224	3.551	0.440
165.500	154.876	80.005	19.993	103.937	20.222	3.636	0.438
166.000	155.110	80.005	19.994	103.934	20.224	3.545	0.450
166.500	155.342	80.005	19.994	103.933	20.223	3.612	0.465
167.000	155.527	80.005	19.992	103.932	20.222	3.663	0.442
167.500	155.761	80.003	19.993	103.932	20.225	3.435	0.418
168.000	156.000	80.004	19.994	103.933	20.225	3.446	0.446
168.500	156.211	80.005	19.994	103.938	20.227	3.334	0.461
169.000	156.441	80.004	19.994	103.939	20.224	3.505	0.446
169.500	156.667	80.004	19.993	103.940	20.225	3.473	0.449
170.000	156.890	80.004	19.994	103.940	20.222	3.668	0.452
170.500	157.138	80.005	19.994	103.940	20.220	3.770	0.460
171.000	157.398	80.004	19.994	103.939	20.224	3.535	0.490
171.500	157.577	80.003	19.995	103.939	20.224	3.532	0.473
172.000	157.823	80.004	19.996	103.934	20.220	3.783	0.431
172.500	158.065	80.005	19.994	103.929	20.222	3.628	0.456
173.000	158.270	80.004	19.993	103.926	20.222	3.658	0.468
173.500	158.507	80.002	19.995	103.926	20.224	3.514	0.444
174.000	158.725	80.004	19.995	103.928	20.221	3.713	0.449
174.500	158.988	80.004	19.995	103.931	20.227	3.291	0.468
175.000	159.170	80.005	19.996	103.935	20.224	3.497	0.463
175.500	159.435	80.004	19.995	103.938	20.223	3.575	0.446
176.000	159.647	80.003	19.995	103.938	20.226	3.378	0.462
176.500	159.887	80.005	19.995	103.937	20.223	3.561	0.464
177.000	160.140	80.003	19.996	103.937	20.224	3.537	0.472
177.500	160.386	80.004	19.994	103.937	20.220	3.760	0.496
178.000	160.606	80.004	19.995	103.937	20.221	3.715	0.482
178.500	160.827	80.005	19.995	103.933	20.223	3.594	0.454
179.000	161.048	80.003	19.995	103.927	20.222	3.683	0.442
179.500	161.274	80.004	19.995	103.923	20.220	3.804	0.445
180.000	161.478	80.005	19.995	103.919	20.223	3.569	0.439
180.500	161.742	80.004	19.995	103.919	20.221	3.708	0.450
181.000	161.974	80.005	19.994	103.919	20.220	3.770	0.482
181.500	162.171	80.005	19.994	103.923	20.222	3.689	0.462
182.000	162.418	80.004	19.995	103.926	20.221	3.708	0.436
182.500	162.665	80.005	19.994	103.924	20.225	3.471	0.469
183.000	162.897	80.005	19.994	103.921	20.219	3.889	0.487
183.500	163.121	80.006	19.994	103.920	20.223	3.592	0.467
184.000	163.401	80.005	19.994	103.918	20.222	3.635	0.480
184.500	163.599	80.005	19.993	103.919	20.224	3.524	0.492
185.000	163.871	80.005	19.994	103.924	20.222	3.677	0.474
185.500	164.084	80.005	19.994	103.922	20.219	3.861	0.478
186.000	164.290	80.005	19.995	103.921	20.220	3.827	0.452
186.500	164.548	80.007	19.994	103.920	20.217	3.967	0.441
187.000	164.793	80.005	19.995	103.916	20.222	3.657	0.483
187.500	165.010	80.005	19.993	103.913	20.220	3.816	0.482
188.000	165.226	80.006	19.995	103.913	20.222	3.689	0.448
188.500	165.545	80.005	19.995	103.915	20.221	3.740	0.484
189.000	165.751	80.005	19.993	103.915	20.222	3.632	0.530
189.500	165.986	80.007	19.994	103.916	20.217	3.987	0.483
190.000	166.185	80.006	19.994	103.913	20.220	3.775	0.438
190.500	166.433	80.005	19.994	103.916	20.217	3.970	0.440
191.000	166.672	80.006	19.995	103.920	20.217	4.010	0.467
191.500	166.921	80.007	19.994	103.925	20.215	4.152	0.488
192.000	167.156	80.005	19.993	103.929	20.218	3.911	0.486
192.500	167.394	80.005	19.993	103.935	20.217	4.002	0.478
193.000	167.579	80.005	19.994	103.930	20.216	4.038	0.449
193.500	167.849	80.005	19.993	103.924	20.217	4.004	0.439
194.000	168.095	80.005	19.994	103.918	20.218	3.919	0.485
194.500	168.244	80.005	19.995	103.916	20.217	3.968	0.456
195.000	168.517	80.003	19.994	103.913	20.216	4.089	0.409
195.500	168.771	80.005	19.994	103.914	20.217	4.015	0.474
196.000	169.020	80.004	19.995	103.917	20.216	4.091	0.515
196.500	169.246	80.005	19.994	103.921	20.216	4.078	0.490
197.000	169.454	80.004	19.994	103.921	20.216	4.089	0.454
197.500	169.703	80.004	19.994	103.921	20.215	4.165	0.445
198.000	169.973	80.005	19.994	103.926	20.217	3.970	0.488
198.500	170.190	80.003	19.995	103.928	20.216	4.085	0.503
199.000	170.430	80.005	19.995	103.931	20.217	4.013	0.472
199.500	170.683	80.004	19.995	103.934	20.214	4.239	0.474
200.000	170.862	80.004	19.996	103.938	20.214	4.186	0.462
200.500	171.129	80.004	19.996	103.937	20.215	4.153	0.439
201.000	171.367	80.003	19.995	103.937	20.214	4.197	0.476
201.500	171.612	80.004	19.994	103.938	20.214	4.202	0.494
202.000	171.851	80.004	19.994	103.939	20.212	4.359	0.484
202.500	172.100	80.005	19.995	103.940	20.215	4.125	0.486
203.000	172.311	80.004	19.995	103.940	20.211	4.392	0.473
203.500	172.561	80.004	19.994	103.938	20.211	4.418	0.460
204.000	172.844	80.004	19.995	103.938	20.216	4.094	0.497
204.500	173.041	80.005	19.995	103.939	20.212	4.377	0.507
205.000	173.302	80.004	19.995	103.940	20.210	4.488	0.469
205.500	173.481	80.004	19.995	103.942	20.213	4.297	0.449
206.000	173.781	80.005	19.995	103.942	20.217	4.028	0.460
206.500	173.986	80.004	19.995	103.942	20.213	4.282	0.492
207.000	174.240	80.006	19.995	103.939	20.212	4.320	0.482
207.500	174.465	80.005	19.995	103.935	20.215	4.149	0.469
208.000	174.727	80.005	19.994	103.935	20.213	4.250	0.483
208.500	174.961	80.005	19.994	103.934	20.215	4.166	0.491
209.000	175.195	80.006	19.994	103.933	20.211	4.447	0.482
209.500	175.427	80.005	19.994	103.933	20.213	4.246	0.467
210.000	175.658	80.007	19.994	103.936	20.214	4.208	0.465
210.500	175.902	80.005	19.996	103.937	20.213	4.266	0.469
211.000	176.165	80.006	19.993	103.936	20.211	4.424	0.491
211.500	176.419	80.006	19.994	103.932	20.210	4.483	0.512
212.000	176.653	80.006	19.993	103.930	20.206	4.757	0.503
212.500	176.843	80.006	19.993	103.925	20.208	4.625	0.456
213.000	177.110	80.005	19.992	103.922	20.206	4.740	0.441
213.500	177.363	80.006	19.994	103.922	20.206	4.776	0.488
214.001	177.590	80.005	19.993	103.920	20.212	4.335	0.499
214.501	177.784	80.005	19.993	103.920	20.208	4.634	0.451
215.000	178.050	80.005	19.993	103.925	20.209	4.539	0.441
215.500	178.296	80.005	19.993	103.925	20.207	4.666	0.486
216.000	178.565	80.005	19.992	103.925	20.209	4.553	0.514
216.500	178.799	80.007	19.993	103.926	20.209	4.579	0.509
217.000	179.092	80.005	19.993	103.929	20.208	4.645	0.515
217.500	179.267	80.005	19.993	103.924	20.206	4.784	0.497
218.000	179.511	80.005	19.993	103.925	20.203	4.992	0.444
218.500	179.782	80.006	19.993	103.927	20.202	5.033	0.468
219.000	180.003	80.004	19.993	103.930	20.206	4.740	0.504
219.500	180.241	80.004	19.993	103.927	20.209	4.571	0.475
220.000	180.518	80.005	19.993	103.926	20.207	4.689	0.486
220.500	180.774	80.004	19.993	103.921	20.204	4.886	0.524
221.000	180.993	80.004	19.994	103.916	20.205	4.833	0.505
221.500	181.242	80.003	19.993	103.915	20.204	4.869	0.471
222.000	181.498	80.005	19.993	103.918	20.201	5.131	0.486
222.500	181.747	80.004	19.993	103.924	20.203	4.992	0.505
223.000	181.980	80.004	19.994	103.925	20.200	5.176	0.494
223.500	182.193	80.004	19.994	103.925	20.205	4.799	0.465
224.000	182.471	80.004	19.994	103.925	20.199	5.257	0.469
224.500	182.701	80.004	19.993	103.923	20.202	5.023	0.499
225.000	182.949	80.005	19.995	103.919	20.200	5.195	0.493
225.500	183.168	80.004	19.994	103.920	20.199	5.227	0.472
226.001	183.430	80.004	19.994	103.920	20.202	5.051	0.474
226.500	183.682	80.004	19.994	103.919	20.200	5.204	0.498
227.000	183.912	80.006	19.995	103.919	20.202	5.019	0.498
227.500	184.166	80.004	19.994	103.920	20.201	5.110	0.483
228.000	184.412	80.004	19.993	103.920	20.201	5.106	0.492
228.500	184.644	80.004	19.994	103.919	20.200	5.188	0.489
229.000	184.898	80.005	19.994	103.915	20.200	5.159	0.482
229.500	185.191	80.005	19.994	103.912	20.201	5.120	0.517
230.000	185.466	80.005	19.994	103.910	20.200	5.150	0.558
230.500	185.680	80.004	19.993	103.910	20.199	5.254	0.529
231.000	185.926	80.004	19.994	103.914	20.197	5.357	0.474
231.500	186.131	80.005	19.994	103.921	20.198	5.341	0.455
232.000	186.425	80.005	19.993	103.925	20.198	5.309	0.475
232.500	186.648	80.004	19.994	103.926	20.198	5.330	0.508
233.000	186.927	80.003	19.994	103.921	20.199	5.244	0.509
233.500	187.128	80.004	19.995	103.918	20.199	5.252	0.491
234.000	187.399	80.003	19.996	103.918	20.198	5.336	0.477
234.500	187.679	80.005	19.995	103.919	20.198	5.338	0.512
235.000	187.901	80.005	19.994	103.922	20.198	5.330	0.526
235.500	188.117	80.003	19.994	103.923	20.195	5.499	0.470
236.000	188.407	80.005	19.994	103.924	20.198	5.288	0.472
236.500	188.625	80.004	19.994	103.923	20.195	5.502	0.507
237.000	188.860	80.005	19.994	103.921	20.194	5.578	0.480
237.500	189.145	80.005	19.994	103.920	20.194	5.629	0.486
238.000	189.374	80.005	19.994	103.924	20.194	5.621	0.517
238.500	189.663	80.005	19.993	103.925	20.194	5.565	0.516
239.000	189.855	80.005	19.993	103.926	20.192	5.727	0.500
239.500	190.109	80.004	19.993	103.928	20.189	5.943	0.463
240.000	190.407	80.004	19.994	103.932	20.191	5.801	0.499
240.500	190.641	80.005	19.995	103.933	20.190	5.841	0.542
241.000	190.896	80.004	19.994	103.935	20.192	5.743	0.511
241.500	191.128	80.003	19.993	103.937	20.188	6.027	0.488
242.000	191.385	80.005	19.993	103.937	20.191	5.787	0.488
242.500	191.680	80.004	19.993	103.934	20.189	5.925	0.520
243.000	191.896	80.004	19.995	103.930	20.187	6.052	0.531
243.500	192.152	80.005	19.994	103.929	20.189	5.925	0.492
244.000	192.410	80.005	19.994	103.928	20.191	5.836	0.493
244.500	192.666	80.006	19.994	103.927	20.189	5.944	0.514
245.000	192.908	80.004	19.994	103.930	20.190	5.864	0.506
245.500	193.182	80.004	19.994	103.935	20.188	5.980	0.507
246.000	193.400	80.003	19.994	103.934	20.186	6.145	0.504
246.500	193.649	80.005	19.995	103.932	20.187	6.114	0.479
247.000	193.880	80.005	19.995	103.931	20.187	6.071	0.473
247.500	194.151	80.005	19.994	103.928	20.185	6.232	0.491
248.000	194.392	80.004	19.993	103.925	20.187	6.057	0.507
248.501	194.680	80.005	19.995	103.925	20.185	6.211	0.520
249.001	194.916	80.004	19.994	103.924	20.187	6.072	0.526
249.500	195.133	80.003	19.994	103.925	20.183	6.347	0.489
250.000	195.406	80.005	19.995	103.921	20.183	6.369	0.472
250.500	195.701	80.005	19.994	103.921	20.185	6.212	0.529
251.000	195.910	80.006	19.994	103.923	20.186	6.149	0.536
251.500	196.173	80.005	19.995	103.923	20.186	6.166	0.488
252.000	196.409	80.004	19.993	103.925	20.184	6.261	0.486
252.500	196.682	80.005	19.994	103.932	20.182	6.411	0.504
253.000	196.897	80.004	19.994	103.936	20.185	6.224	0.498
253.500	197.140	80.004	19.991	103.936	20.186	6.129	0.473
254.000	197.390	80.004	19.994	103.938	20.186	6.167	0.475
254.500	197.619	80.004	19.994	103.934	20.186	6.184	0.486
255.000	197.879	80.005	19.994	103.932	20.183	6.325	0.485
255.500	198.129	80.003	19.995	103.929	20.184	6.265	0.500
256.000	198.448	80.004	19.993	103.930	20.182	6.403	0.539
256.500	198.653	80.005	19.994	103.931	20.181	6.507	0.546
257.000	198.914	80.004	19.995	103.932	20.181	6.515	0.495
257.500	199.213	80.005	19.994	103.930	20.181	6.503	0.513
258.000	199.407	80.002	19.993	103.931	20.180	6.590	0.526
258.500	199.677	80.004	19.993	103.928	20.180	6.541	0.478
259.000	199.923	80.003	19.994	103.927	20.182	6.407	0.490
259.500	200.177	80.004	19.994	103.924	20.182	6.426	0.508
260.000	200.438	80.004	19.994	103.921	20.182	6.412	0.508
260.500	200.650	80.005	19.993	103.919	20.180	6.596	0.494
261.000	200.912	80.005	19.993	103.916	20.181	6.528	0.473
261.500	201.218	80.005	19.994	103.913	20.179	6.613	0.521
262.000	201.420	80.005	19.993	103.914	20.179	6.653	0.538
262.500	201.679	80.006	19.994	103.914	20.179	6.666	0.485
263.000	201.951	80.005	19.994	103.915	20.176	6.819	0.496
263.500	202.155	80.005	19.994	103.918	20.179	6.645	0.504
264.000	202.437	80.006	19.994	103.919	20.178	6.700	0.481
264.500	202.716	80.005	19.993	103.920	20.179	6.636	0.523
265.000	202.973	80.006	19.993	103.918	20.175	6.935	0.549
265.500	203.245	80.006	19.993	103.915	20.177	6.793	0.533
266.000	203.522	80.005	19.994	103.912	20.177	6.768	0.539
266.500	203.722	80.006	19.994	103.912	20.178	6.717	0.512
267.000	203.951	80.006	19.994	103.911	20.177	6.772	0.453
267.500	204.249	80.005	19.994	103.911	20.179	6.668	0.478
268.000	204.490	80.005	19.994	103.911	20.175	6.939	0.533
268.500	204.758	80.005	19.994	103.910	20.175	6.935	0.524
269.000	205.007	80.006	19.992	103.908	20.174	6.952	0.513
269.500	205.252	80.005	19.993	103.908	20.177	6.776	0.505
270.000	205.472	80.005	19.993	103.908	20.175	6.926	0.480
270.500	205.760	80.005	19.994	103.909	20.176	6.848	0.487
271.000	206.027	80.006	19.994	103.909	20.177	6.759	0.531
271.500	206.267	80.006	19.993	103.909	20.174	6.956	0.531
272.000	206.515	80.005	19.995	103.909	20.174	6.997	0.497
272.500	206.791	80.005	19.994	103.908	20.173	7.052	0.506
273.000	207.053	80.005	19.994	103.907	20.177	6.782	0.531
273.500	207.294	80.005	19.994	103.907	20.175	6.910	0.520
274.000	207.561	80.005	19.994	103.906	20.173	7.015	0.505
274.500	207.838	80.006	19.994	103.905	20.172	7.106	0.526
275.000	208.023	80.005	19.994	103.905	20.172	7.136	0.503
275.500	208.311	80.005	19.993	103.905	20.171	7.170	0.468
276.000	208.575	80.004	19.994	103.905	20.168	7.405	0.512
276.500	208.849	80.004	19.994	103.906	20.169	7.314	0.545
277.000	209.073	80.004	19.994	103.907	20.165	7.594	0.518
277.500	209.323	80.004	19.993	103.908	20.169	7.304	0.486
278.000	209.615	80.005	19.992	103.909	20.169	7.325	0.508
278.500	209.910	80.004	19.994	103.909	20.167	7.437	0.564
279.000	210.133	80.004	19.993	103.910	20.167	7.456	0.553
279.500	210.375	80.005	19.994	103.910	20.167	7.490	0.492
280.000	210.652	80.006	19.994	103.909	20.164	7.639	0.492
280.500	210.881	80.005	19.994	103.909	20.168	7.380	0.513
281.000	211.166	80.004	19.994	103.910	20.164	7.637	0.510
281.500	211.368	80.006	19.993	103.907	20.164	7.651	0.500
282.000	211.635	80.004	19.994	103.906	20.166	7.522	0.478
282.500	211.921	80.005	19.994	103.906	20.168	7.363	0.511
283.000	212.150	80.006	19.993	103.905	20.165	7.626	0.534
283.500	212.432	80.005	19.995	103.905	20.165	7.596	0.513
284.000	212.676	80.004	19.993	103.905	20.166	7.536	0.518
284.500	212.920	80.006	19.994	103.905	20.166	7.541	0.507
285.000	213.168	80.005	19.993	103.907	20.162	7.833	0.490
285.500	213.441	80.006	19.995	103.910	20.164	7.691	0.506
286.000	213.708	80.005	19.994	103.911	20.161	7.915	0.530
286.500	213.959	80.006	19.994	103.911	20.163	7.744	0.529
287.000	214.221	80.006	19.995	103.911	20.162	7.816	0.515
287.500	214.459	80.006	19.995	103.909	20.160	7.952	0.506
288.000	214.687	80.005	19.994	103.905	20.160	7.949	0.483
288.500	214.950	80.007	19.994	103.903	20.160	7.975	0.479
289.000	215.217	80.006	19.994	103.903	20.161	7.897	0.510
289.500	215.463	80.004	19.993	103.903	20.161	7.891	0.522
290.000	215.690	80.006	19.995	103.902	20.159	7.986	0.493
290.500	215.960	80.007	19.995	103.902	20.155	8.326	0.485
291.000	216.233	80.006	19.995	103.902	20.157	8.191	0.520
291.500	216.473	80.007	19.993	103.901	20.158	8.072	0.528
292.000	216.749	80.007	19.994	103.901	20.156	8.238	0.515
292.500	216.969	80.008	19.994	103.902	20.152	8.486	0.506
293.000	217.248	80.005	19.994	103.902	20.154	8.352	0.497
293.500	217.499	80.006	19.996	103.902	20.157	8.158	0.514
294.000	217.779	80.006	19.997	103.902	20.156	8.261	0.531
294.500	218.007	80.006	19.995	103.905	20.151	8.561	0.520
295.000	218.267	80.006	19.995	103.907	20.152	8.520	0.498
295.500	218.550	80.005	19.994	103.908	20.151	8.579	0.515
296.000	218.775	80.006	19.996	103.910	20.150	8.642	0.525
296.500	219.016	80.005	19.996	103.911	20.152	8.481	0.487
297.000	219.320	80.004	19.995	103.909	20.148	8.797	0.506
297.500	219.519	80.005	19.995	103.908	20.150	8.677	0.524
298.000	219.781	80.005	19.995	103.910	20.148	8.760	0.482
298.500	220.042	80.006	19.995	103.909	20.148	8.781	0.492
299.000	220.280	80.003	19.993	103.907	20.148	8.776	0.511
299.500	220.522	80.004	19.994	103.906	20.146	8.941	0.489
300.000	220.799	80.003	19.994	103.905	20.143	9.098	0.499
300.500	221.081	80.003	19.994	103.903	20.143	9.101	0.539
301.000	221.295	80.003	19.994	103.904	20.143	9.146	0.528
301.500	221.567	80.004	19.995	103.907	20.140	9.311	0.491
302.000	221.800	80.004	19.994	103.907	20.142	9.191	0.496
302.500	222.052	80.004	19.994	103.908	20.138	9.492	0.495
303.000	222.332	80.004	19.995	103.908	20.137	9.551	0.508
303.500	222.575	80.005	19.994	103.906	20.136	9.579	0.528
304.000	222.826	80.004	19.994	103.903	20.135	9.670	0.509
304.500	223.074	80.005	19.993	103.903	20.131	9.962	0.496
305.000	223.320	80.004	19.992	103.907	20.133	9.812	0.496
305.500	223.532	80.005	19.993	103.914	20.133	9.838	0.476
306.000	223.810	80.005	19.993	103.921	20.129	10.085	0.474
306.500	224.075	80.005	19.993	103.928	20.130	10.035	0.517
307.000	224.308	80.003	19.994	103.929	20.128	10.152	0.520
307.500	224.559	80.005	19.994	103.930	20.127	10.234	0.491
308.000	224.835	80.005	19.995	103.927	20.127	10.226	0.506
308.501	225.065	80.004	19.993	103.923	20.125	10.405	0.516
309.000	225.322	80.003	19.993	103.917	20.125	10.384	0.496
309.500	225.562	80.005	19.993	103.923	20.122	10.591	0.492
310.000	225.859	80.004	19.994	103.924	20.121	10.661	0.517
310.500	226.071	80.005	19.993	103.926	20.119	10.788	0.523
311.000	226.331	80.005	19.994	103.928	20.119	10.813	0.491
311.500	226.586	80.004	19.993	103.934	20.118	10.871	0.493
312.000	226.831	80.005	19.994	103.934	20.113	11.180	0.507
312.500	227.103	80.003	19.994	103.935	20.110	11.396	0.508
313.001	227.335	80.005	19.993	103.931	20.109	11.468	0.511
313.500	227.613	80.004	19.992	103.926	20.112	11.294	0.507
314.000	227.873	80.004	19.994	103.921	20.108	11.531	0.524
314.500	228.108	80.005	19.993	103.922	20.110	11.421	0.517
315.000	228.355	80.006	19.994	103.922	20.104	11.836	0.488
315.500	228.615	80.004	19.994	103.929	20.105	11.732	0.494
316.000	228.847	80.004	19.994	103.937	20.106	11.717	0.500
316.500	229.153	80.006	19.994	103.940	20.101	12.031	0.515
317.000	229.362	80.005	19.995	103.939	20.099	12.172	0.526
317.500	229.575	80.003	19.994	103.935	20.099	12.166	0.468
318.000	229.863	80.005	19.994	103.933	20.097	12.325	0.462
318.500	230.095	80.004	19.993	103.932	20.095	12.436	0.510
319.000	230.347	80.005	19.993	103.935	20.094	12.546	0.502
319.500	230.624	80.004	19.992	103.936	20.094	12.551	0.507
320.000	230.879	80.005	19.993	103.940	20.091	12.732	0.530
320.500	231.139	80.004	19.993	103.942	20.091	12.738	0.523
321.000	231.396	80.003	19.993	103.942	20.088	12.941	0.516
321.501	231.607	80.005	19.994	103.942	20.085	13.170	0.493
322.000	231.884	80.004	19.994	103.943	20.084	13.201	0.478
322.500	232.119	80.004	19.994	103.942	20.080	13.522	0.500
323.000	232.335	80.004	19.994	103.944	20.079	13.585	0.482
323.500	232.621	80.004	19.994	103.943	20.078	13.636	0.477
324.000	232.824	80.004	19.994	103.943	20.079	13.550	0.495
324.500	233.083	80.004	19.993	103.942	20.077	13.736	0.475
325.000	233.359	80.005	19.994	103.942	20.071	14.115	0.499
325.500	233.596	80.004	19.993	103.942	20.075	13.808	0.524
326.000	233.845	80.003	19.993	103.943	20.073	14.007	0.499
326.500	234.093	80.004	19.993	103.943	20.070	14.160	0.491
327.000	234.315	80.004	19.993	103.944	20.068	14.317	0.483
327.500	234.591	80.004	19.993	103.944	20.068	14.328	0.484
328.000	234.839	80.004	19.994	103.945	20.065	14.531	0.511
328.500	235.025	80.004	19.993	103.944	20.063	14.690	0.479
329.000	235.310	80.005	19.993	103.942	20.059	14.983	0.452
329.500	235.561	80.004	19.994	103.937	20.062	14.748	0.503
330.000	235.802	80.005	19.994	103.937	20.059	14.918	0.514
330.500	236.080	80.003	19.993	103.936	20.057	15.090	0.505
331.000	236.313	80.004	19.994	103.938	20.055	15.250	0.515
331.500	236.554	80.004	19.994	103.940	20.053	15.382	0.493
332.000	236.799	80.003	19.994	103.946	20.051	15.513	0.481
332.500	237.039	80.004	19.993	103.946	20.052	15.402	0.486
333.001	237.260	80.004	19.994	103.945	20.047	15.750	0.473
333.500	237.499	80.003	19.994	103.941	20.052	15.433	0.460
334.000	237.759	80.005	19.994	103.941	20.047	15.765	0.479
334.500	237.996	80.003	19.993	103.939	20.048	15.710	0.498
335.000	238.241	80.004	19.995	103.938	20.045	15.884	0.489
335.500	238.477	80.003	19.994	103.940	20.043	16.048	0.482
336.000	238.702	80.003	19.992	103.940	20.042	16.126	0.471
336.500	238.957	80.003	19.993	103.938	20.040	16.262	0.470
337.000	239.208	80.003	19.994	103.937	20.038	16.403	0.493
337.500	239.461	80.004	19.993	103.933	20.037	16.465	0.505
338.000	239.661	80.003	19.993	103.930	20.040	16.288	0.479
338.500	239.938	80.004	19.993	103.933	20.037	16.475	0.465
339.000	240.158	80.004	19.993	103.930	20.038	16.440	0.487
339.500	240.399	80.003	19.993	103.931	20.041	16.177	0.479
340.000	240.634	80.005	19.992	103.937	20.033	16.785	0.469
340.500	240.903	80.005	19.993	103.936	20.035	16.636	0.490
341.000	241.125	80.004	19.992	103.932	20.034	16.661	0.498
341.500	241.370	80.005	19.992	103.934	20.032	16.830	0.479
342.000	241.606	80.005	19.993	103.935	20.034	16.658	0.473
342.500	241.899	80.004	19.994	103.933	20.032	16.812	0.505
343.000	242.125	80.005	19.992	103.936	20.034	16.695	0.524
343.500	242.347	80.005	19.993	103.938	20.033	16.779	0.484
344.000	242.621	80.006	19.992	103.937	20.033	16.748	0.471
344.500	242.875	80.006	19.993	103.930	20.033	16.727	0.512
345.000	243.102	80.006	19.994	103.926	20.032	16.796	0.505
345.500	243.362	80.005	19.992	103.921	20.031	16.863	0.484
346.000	243.577	80.006	19.994	103.918	20.033	16.744	0.481
346.500	243.828	80.007	19.994	103.915	20.034	16.697	0.471
347.000	244.109	80.006	19.994	103.915	20.035	16.636	0.499
347.500	244.329	80.007	19.994	103.915	20.036	16.583	0.516
348.000	244.552	80.006	19.993	103.917	20.033	16.788	0.472
348.500	244.830	80.006	19.994	103.920	20.036	16.585	0.472
349.000	245.037	80.006	19.994	103.925	20.030	16.968	0.493
349.500	245.300	80.007	19.993	103.933	20.029	17.020	0.478
350.000	245.526	80.005	19.993	103.937	20.030	16.966	0.479
350.500	245.787	80.006	19.994	103.941	20.031	16.875	0.488
351.000	246.033	80.005	19.993	103.941	20.027	17.176	0.497
351.500	246.286	80.005	19.993	103.942	20.029	17.004	0.503
352.000	246.523	80.005	19.994	103.944	20.028	17.116	0.494
352.500	246.775	80.004	19.994	103.946	20.027	17.140	0.489
353.000	247.032	80.003	19.995	103.951	20.029	17.017	0.499
353.500	247.289	80.005	19.996	103.955	20.028	17.116	0.511
354.000	247.550	80.005	19.994	103.960	20.028	17.110	0.516
354.500	247.760	80.004	19.995	103.961	20.028	17.080	0.495
355.000	248.013	80.005	19.996	103.967	20.028	17.076	0.467
355.500	248.270	80.005	19.994	103.969	20.028	17.074	0.487
356.000	248.501	80.005	19.995	103.971	20.030	16.993	0.499
356.500	248.752	80.005	19.996	103.975	20.026	17.215	0.484
357.000	249.033	80.005	19.995	103.979	20.027	17.177	0.507
357.500	249.304	80.005	19.994	103.980	20.024	17.380	0.543
358.000	249.536	80.006	19.995	103.980	20.025	17.341	0.528
358.500	249.821	80.005	19.994	103.980	20.026	17.251	0.510
359.000	250.073	80.006	19.995	103.980	20.025	17.333	0.527
359.500	250.322	80.005	19.994	103.980	20.024	17.361	0.519
360.000	250.591	80.004	19.995	103.979	20.026	17.226	0.509
360.500	250.835	80.005	19.993	103.977	20.023	17.461	0.516
361.000	251.100	80.005	19.994	103.970	20.024	17.382	0.511
361.500	251.364	80.004	19.993	103.968	20.022	17.494	0.518
362.000	251.609	80.006	19.994	103.968	20.020	17.659	0.519
362.500	251.874	80.006	19.993	103.969	20.020	17.662	0.510
363.000	252.096	80.005	19.994	103.971	20.022	17.513	0.498
363.500	252.361	80.005	19.994	103.978	20.023	17.454	0.487
364.000	252.587	80.006	19.994	103.980	20.021	17.619	0.489
364.500	252.855	80.006	19.994	103.981	20.022	17.498	0.493
365.000	253.065	80.006	19.993	103.981	20.021	17.584	0.487
365.500	253.332	80.007	19.994	103.981	20.021	17.605	0.478
366.000	253.595	80.006	19.993	103.982	20.021	17.582	0.503
366.500	253.823	80.006	19.994	103.982	20.020	17.659	0.510
367.000	254.100	80.008	19.994	103.984	20.022	17.501	0.498
367.500	254.362	80.007	19.993	103.984	20.018	17.816	0.522
368.000	254.598	80.008	19.993	103.984	20.012	18.226	0.518
368.500	254.842	80.008	19.993	103.984	20.013	18.129	0.489
369.000	255.131	80.008	19.994	103.988	20.015	18.043	0.506
369.500	255.396	80.007	19.993	103.993	20.012	18.209	0.544
370.000	255.620	80.008	19.994	104.000	20.005	18.692	0.522
370.500	255.903	80.008	19.993	104.007	20.007	18.568	0.498
371.000	256.139	80.008	19.993	104.014	20.004	18.791	0.513
371.500	256.384	80.007	19.993	104.018	20.004	18.789	0.500
372.000	256.600	80.006	19.993	104.017	20.002	18.927	0.471
372.500	256.888	80.006	19.993	104.017	19.998	19.217	0.483
373.000	257.153	80.008	19.993	104.018	19.990	19.722	0.528
373.500	257.372	80.007	19.993	104.013	19.990	19.746	0.519
374.000	257.667	80.006	19.994	104.011	19.988	19.866	0.499
374.500	257.918	80.007	19.994	104.010	19.984	20.160	0.530
375.000	258.173	80.007	19.995	104.010	19.978	20.607	0.526
375.500	258.401	80.007	19.994	104.009	19.976	20.739	0.494
376.000	258.661	80.005	19.993	104.013	19.973	20.887	0.485
376.500	258.892	80.006	19.995	104.014	19.969	21.228	0.490
377.000	259.179	80.006	19.994	104.015	19.964	21.528	0.504
377.500	259.402	80.004	19.993	104.010	19.958	21.931	0.514
378.000	259.637	80.006	19.995	104.006	19.958	21.982	0.484
378.500	259.900	80.005	19.995	104.007	19.953	22.302	0.478
379.000	260.166	80.005	19.994	104.008	19.946	22.797	0.514
379.500	260.436	80.004	19.994	104.007	19.945	22.888	0.533
380.000	260.669	80.005	19.994	104.012	19.939	23.293	0.519
380.500	260.917	80.004	19.994	104.017	19.932	23.735	0.492
381.000	261.203	80.005	19.995	104.016	19.927	24.117	0.508
381.500	261.420	80.004	19.994	104.011	19.922	24.459	0.519
382.000	261.667	80.004	19.995	104.008	19.916	24.861	0.483
382.500	261.948	80.003	19.996	104.007	19.911	25.161	0.496
383.000	262.204	80.003	19.994	104.007	19.906	25.517	0.532
383.500	262.476	80.002	19.995	104.007	19.900	25.972	0.533
384.000	262.699	80.004	19.994	104.010	19.890	26.671	0.512
384.500	262.957	80.004	19.995	104.013	19.885	27.000	0.488
385.000	263.183	80.004	19.994	104.007	19.881	27.267	0.482
385.500	263.443	80.004	19.995	104.001	19.874	27.704	0.485
386.000	263.709	80.003	19.995	103.995	19.869	28.076	0.506
386.500	263.930	80.003	19.994	103.990	19.859	28.795	0.507
387.000	264.160	80.004	19.993	103.984	19.852	29.249	0.470
387.500	264.438	80.003	19.994	103.983	19.849	29.450	0.479
388.000	264.669	80.004	19.993	103.983	19.838	30.197	0.508
388.500	264.904	80.005	19.993	103.983	19.832	30.587	0.487
389.000	265.172	80.004	19.995	103.980	19.825	31.091	0.484
389.500	265.423	80.004	19.994	103.979	19.816	31.735	0.511
390.000	265.705	80.003	19.994	103.972	19.810	32.109	0.526
390.500	265.899	80.004	19.994	103.964	19.802	32.689	0.504
391.000	266.189	80.006	19.993	103.953	19.793	33.323	0.480
391.500	266.409	80.006	19.993	103.939	19.791	33.472	0.497
392.000	266.642	80.005	19.994	103.925	19.783	33.968	0.482
392.500	266.897	80.005	19.994	103.915	19.777	34.424	0.471
393.000	267.172	80.006	19.994	103.899	19.769	34.954	0.509
393.500	267.413	80.005	19.993	103.887	19.763	35.364	0.523
394.000	267.688	80.006	19.994	103.872	19.756	35.851	0.516
394.500	267.898	80.005	19.993	103.857	19.746	36.579	0.501
395.000	268.185	80.004	19.995	103.844	19.742	36.854	0.491
395.500	268.399	80.005	19.995	103.835	19.739	37.045	0.498
396.000	268.654	80.005	19.995	103.822	19.731	37.623	0.485
396.500	268.915	80.005	19.994	103.813	19.726	37.966	0.493
397.000	269.124	80.005	19.994	103.805	19.724	38.078	0.494
397.500	269.413	80.005	19.994	103.790	19.720	38.338	0.484
398.000	269.634	80.004	19.994	103.775	19.716	38.671	0.504
398.500	269.890	80.005	19.993	103.763	19.717	38.547	0.494
399.000	270.163	80.004	19.994	103.750	19.713	38.858	0.503
399.500	270.393	80.005	19.993	103.737	19.712	38.891	0.516
400.000	270.651	80.004	19.994	103.728	19.713	38.851	0.496
400.500	270.904	80.005	19.993	103.720	19.715	38.732	0.500
401.000	271.145	80.003	19.993	103.713	19.713	38.892	0.502
401.500	271.422	80.006	19.993	103.710	19.717	38.558	0.506
402.000	271.691	80.005	19.993	103.707	19.721	38.326	0.532
402.500	271.947	80.004	19.994	103.705	19.721	38.308	0.535
403.000	272.222	80.004	19.993	103.704	19.724	38.074	0.528
403.500	272.411	80.004	19.994	103.699	19.725	38.066	0.498
404.000	272.637	80.003	19.992	103.699	19.736	37.297	0.439
404.500	272.888	80.005	19.994	103.699	19.739	37.098	0.446
405.000	273.161	80.004	19.993	103.701	19.743	36.830	0.501
405.500	273.395	80.005	19.994	103.703	19.745	36.644	0.515
406.000	273.621	80.005	19.993	103.710	19.755	35.973	0.484
406.500	273.880	80.004	19.993	103.710	19.759	35.670	0.473
407.000	274.114	80.004	19.994	103.709	19.765	35.272	0.489
407.500	274.352	80.004	19.993	103.712	19.771	34.827	0.482
408.000	274.594	80.005	19.993	103.716	19.780	34.217	0.476
408.500	274.858	80.005	19.993	103.719	19.787	33.752	0.493
409.000	275.097	80.005	19.995	103.724	19.797	33.086	0.505
409.500	275.287	80.004	19.993	103.734	19.803	32.623	0.466
410.000	275.574	80.003	19.992	103.739	19.810	32.178	0.453
410.500	275.804	80.004	19.994	103.742	19.819	31.569	0.497
411.000	276.021	80.004	19.994	103.746	19.827	31.025	0.482
411.500	276.272	80.003	19.994	103.752	19.834	30.503	0.457
412.000	276.516	80.003	19.993	103.759	19.844	29.802	0.481
412.500	276.758	80.005	19.995	103.763	19.851	29.361	0.491
413.000	277.005	80.003	19.993	103.771	19.853	29.178	0.488
413.501	277.238	80.004	19.996	103.778	19.862	28.544	0.485
414.001	277.438	80.003	19.996	103.783	19.874	27.760	0.456
414.500	277.701	80.004	19.995	103.788	19.877	27.525	0.448
415.000	277.982	80.004	19.995	103.796	19.886	26.912	0.503
415.500	278.179	80.003	19.995	103.800	19.894	26.360	0.511
416.000	278.447	80.003	19.994	103.801	19.899	25.981	0.472
416.500	278.681	80.004	19.994	103.801	19.912	25.143	0.483
417.000	278.922	80.004	19.994	103.797	19.914	24.956	0.489
417.500	279.176	80.004	19.994	103.793	19.920	24.583	0.485
418.000	279.417	80.005	19.994	103.795	19.931	23.819	0.495
418.500	279.632	80.004	19.994	103.801	19.935	23.518	0.475
419.000	279.881	80.004	19.993	103.808	19.941	23.131	0.460
419.500	280.156	80.004	19.995	103.816	19.943	22.949	0.494
420.000	280.381	80.006	19.994	103.824	19.948	22.618	0.512
420.500	280.610	80.005	19.994	103.826	19.957	21.981	0.477
421.000	280.862	80.005	19.994	103.826	19.960	21.788	0.467
421.500	281.095	80.005	19.994	103.826	19.966	21.374	0.483
422.000	281.306	80.006	19.994	103.825	19.969	21.166	0.464
422.500	281.572	80.005	19.994	103.824	19.975	20.765	0.461
423.000	281.826	80.006	19.993	103.824	19.981	20.356	0.498
423.500	282.053	80.005	19.994	103.824	19.986	19.956	0.501
424.000	282.304	80.006	19.993	103.825	19.989	19.753	0.480
424.500	282.549	80.006	19.993	103.825	19.994	19.454	0.487
425.000	282.781	80.006	19.993	103.825	19.992	19.565	0.486
425.500	283.064	80.006	19.993	103.825	20.003	18.798	0.496
426.000	283.250	80.007	19.993	103.825	20.005	18.683	0.492
426.500	283.518	80.006	19.994	103.826	20.010	18.357	0.462
427.000	283.779	80.006	19.992	103.826	20.014	18.019	0.492
427.501	284.013	80.006	19.993	103.828	20.015	17.952	0.512
428.000	284.242	80.006	19.994	103.831	20.021	17.581	0.479
428.500	284.489	80.005	19.993	103.831	20.024	17.367	0.469
429.000	284.724	80.005	19.993	103.832	20.027	17.119	0.479
429.500	284.988	80.006	19.993	103.832	20.029	16.981	0.490
430.000	285.218	80.007	19.991	103.830	20.036	16.494	0.496
430.500	285.400	80.007	19.993	103.827	20.038	16.382	0.453
431.000	285.672	80.006	19.992	103.830	20.041	16.186	0.433
431.500	285.928	80.006	19.992	103.832	20.045	15.883	0.491
432.000	286.131	80.006	19.993	103.833	20.045	15.924	0.494
432.500	286.414	80.006	19.993	103.837	20.048	15.662	0.472
433.000	286.661	80.006	19.993	103.838	20.053	15.349	0.508
433.500	286.882	80.004	19.994	103.840	20.056	15.153	0.499
434.000	287.143	80.003	19.992	103.839	20.059	14.952	0.475
434.500	287.383	80.006	19.992	103.837	20.060	14.886	0.491
435.000	287.637	80.006	19.994	103.833	20.061	14.796	0.498
435.500	287.879	80.005	19.993	103.834	20.063	14.638	0.495
436.000	288.072	80.006	19.992	103.830	20.068	14.331	0.466
436.500	288.378	80.005	19.994	103.828	20.067	14.414	0.467
437.000	288.607	80.005	19.993	103.829	20.073	13.931	0.517
437.500	288.839	80.006	19.993	103.829	20.077	13.701	0.498
438.000	289.095	80.004	19.993	103.830	20.073	13.989	0.474
438.500	289.317	80.006	19.993	103.830	20.077	13.720	0.483
439.000	289.592	80.006	19.994	103.830	20.078	13.635	0.487
439.500	289.798	80.006	19.995	103.829	20.086	13.069	0.489
440.000	290.068	80.006	19.993	103.829	20.081	13.425	0.478
440.500	290.306	80.005	19.994	103.826	20.085	13.141	0.492
441.000	290.564	80.006	19.993	103.826	20.087	13.027	0.503
441.500	290.774	80.005	19.994	103.826	20.089	12.860	0.482
442.000	291.087	80.006	19.993	103.825	20.088	12.955	0.495
442.500	291.312	80.005	19.994	103.825	20.093	12.599	0.530
443.000	291.551	80.006	19.993	103.825	20.090	12.766	0.502
443.500	291.806	80.006	19.994	103.828	20.098	12.207	0.479
444.001	292.066	80.006	19.994	103.829	20.093	12.599	0.504
444.501	292.333	80.007	19.993	103.829	20.098	12.255	0.521
445.000	292.551	80.006	19.993	103.830	20.097	12.292	0.506
445.500	292.818	80.006	19.993	103.830	20.099	12.165	0.485
446.000	293.089	80.007	19.993	103.827	20.106	11.706	0.511
446.500	293.297	80.006	19.994	103.827	20.100	12.115	0.508
447.000	293.552	80.007	19.994	103.828	20.100	12.081	0.471
447.500	293.785	80.007	19.994	103.827	20.103	11.860	0.476
448.000	294.039	80.007	19.994	103.827	20.099	12.136	0.487
448.500	294.294	80.006	19.994	103.830	20.108	11.548	0.497
449.000	294.573	80.006	19.994	103.834	20.104	11.799	0.522
449.500	294.781	80.007	19.994	103.833	20.107	11.638	0.511
450.000	295.054	80.007	19.993	103.833	20.107	11.581	0.484
450.500	295.297	80.006	19.994	103.833	20.109	11.490	0.498
451.000	295.567	80.007	19.995	103.833	20.110	11.436	0.515
451.500	295.780	80.006	19.993	103.830	20.110	11.391	0.498
452.000	296.042	80.007	19.993	103.831	20.109	11.464	0.479
452.500	296.309	80.007	19.992	103.830	20.113	11.224	0.502
453.000	296.531	80.007	19.994	103.830	20.111	11.347	0.509
453.500	296.806	80.006	19.994	103.829	20.116	11.014	0.493
454.000	297.050	80.008	19.993	103.828	20.115	11.060	0.508
454.500	297.271	80.006	19.993	103.828	20.118	10.874	0.492
455.000	297.558	80.006	19.993	103.829	20.118	10.861	0.487
455.500	297.831	80.007	19.993	103.829	20.117	10.947	0.534
456.000	298.060	80.006	19.993	103.829	20.119	10.779	0.531
456.500	298.282	80.006	19.993	103.828	20.122	10.606	0.476
457.000	298.528	80.004	19.993	103.828	20.122	10.547	0.459
457.500	298.800	80.004	19.993	103.834	20.122	10.545	0.493
458.000	299.051	80.005	19.994	103.835	20.125	10.348	0.521
458.500	299.314	80.005	19.992	103.835	20.122	10.577	0.519
459.000	299.546	80.004	19.994	103.837	20.122	10.594	0.504
459.500	299.831	80.005	19.993	103.838	20.121	10.672	0.506
460.000	300.081	80.004	19.993	103.834	20.126	10.324	0.526
460.500	300.280	80.004	19.994	103.836	20.127	10.195	0.492
461.000	300.544	80.005	19.994	103.836	20.127	10.228	0.456
461.500	300.819	80.003	19.993	103.834	20.128	10.147	0.501
462.000	301.046	80.005	19.993	103.837	20.127	10.214	0.520
462.500	301.336	80.005	19.994	103.838	20.127	10.206	0.509
463.000	301.562	80.004	19.993	103.835	20.131	9.987	0.517
463.500	301.831	80.005	19.993	103.838	20.129	10.071	0.506
464.000	302.058	80.005	19.993	103.842	20.128	10.162	0.496
464.500	302.333	80.003	19.993	103.839	20.129	10.069	0.499
465.000	302.554	80.004	19.993	103.841	20.131	9.974	0.499
465.500	302.829	80.005	19.993	103.845	20.130	10.047	0.495
466.000	303.025	80.005	19.994	103.847	20.130	10.013	0.483
466.500	303.298	80.004	19.995	103.847	20.131	9.959	0.471
467.000	303.550	80.004	19.993	103.853	20.130	9.993	0.497
467.500	303.819	80.003	19.995	103.852	20.129	10.078	0.523
468.000	304.088	80.004	19.995	103.850	20.134	9.732	0.530
468.500	304.338	80.004	19.994	103.846	20.130	10.007	0.529
469.001	304.576	80.004	19.994	103.845	20.134	9.733	0.503
469.500	304.817	80.004	19.994	103.844	20.133	9.825	0.483
470.000	305.072	80.003	19.995	103.843	20.133	9.805	0.488
470.500	305.325	80.004	19.995	103.843	20.133	9.797	0.502
471.000	305.572	80.004	19.994	103.845	20.133	9.844	0.504
471.500	305.859	80.004	19.994	103.843	20.135	9.658	0.517
472.000	306.130	80.004	19.994	103.839	20.132	9.895	0.546
472.500	306.363	80.004	19.995	103.839	20.133	9.813	0.531
473.000	306.625	80.004	19.994	103.843	20.133	9.785	0.500
473.500	306.914	80.005	19.996	103.846	20.136	9.582	0.523
474.000	307.128	80.004	19.996	103.853	20.137	9.534	0.527
474.500	307.406	80.006	19.997	103.858	20.134	9.739	0.498
475.000	307.635	80.005	19.994	103.860	20.136	9.608	0.499
475.500	307.917	80.006	19.997	103.856	20.136	9.574	0.509
476.000	308.167	80.005	19.995	103.853	20.137	9.510	0.522
476.500	308.389	80.005	19.995	103.849	20.136	9.622	0.502
477.000	308.678	80.005	19.994	103.841	20.137	9.569	0.492
477.500	308.960	80.006	19.996	103.836	20.140	9.325	0.541
478.000	309.131	80.004	19.993	103.835	20.138	9.488	0.512
478.500	309.436	80.005	19.996	103.831	20.140	9.318	0.464
479.000	309.710	80.006	19.994	103.833	20.136	9.574	0.528
479.500	309.943	80.006	19.996	103.839	20.138	9.436	0.543
480.000	310.168	80.006	19.996	103.843	20.141	9.258	0.482
480.500	310.426	80.004	19.994	103.844	20.139	9.388	0.471
481.000	310.712	80.004	19.994	103.847	20.141	9.235	0.514
481.500	310.999	80.004	19.995	103.843	20.137	9.524	0.559
482.000	311.234	80.004	19.993	103.839	20.141	9.288	0.548
482.500	311.460	80.005	19.994	103.836	20.138	9.439	0.491
483.000	311.760	80.005	19.994	103.836	20.138	9.445	0.493
483.500	312.020	80.005	19.994	103.837	20.140	9.348	0.543
484.000	312.280	80.005	19.995	103.839	20.136	9.623	0.540
484.500	312.540	80.005	19.993	103.846	20.140	9.335	0.520
485.000	312.828	80.006	19.993	103.849	20.139	9.406	0.534
485.500	313.065	80.004	19.993	103.850	20.140	9.363	0.537
486.000	313.308	80.005	19.993	103.846	20.139	9.380	0.502
486.500	313.555	80.005	19.994	103.842	20.141	9.278	0.484
487.000	313.841	80.004	19.993	103.835	20.138	9.446	0.512
487.500	314.106	80.004	19.993	103.830	20.137	9.528	0.543
488.000	314.347	80.004	19.994	103.831	20.140	9.310	0.529
488.500	314.628	80.005	19.992	103.837	20.137	9.569	0.514
489.000	314.874	80.005	19.993	103.842	20.141	9.231	0.524
489.500	315.132	80.005	19.994	103.846	20.139	9.400	0.515
490.000	315.404	80.004	19.993	103.851	20.137	9.534	0.517
490.500	315.667	80.003	19.993	103.849	20.137	9.505	0.533
491.000	315.934	80.004	19.993	103.843	20.139	9.391	0.532
491.500	316.181	80.003	19.993	103.844	20.141	9.287	0.522
492.000	316.432	80.004	19.994	103.845	20.137	9.521	0.506
492.500	316.697	80.004	19.993	103.841	20.138	9.500	0.507
493.000	316.924	80.004	19.994	103.841	20.138	9.500	0.504
493.500	317.214	80.005	19.994	103.845	20.135	9.671	0.505
494.000	317.455	80.004	19.994	103.844	20.138	9.464	0.524
494.500	317.733	80.005	19.994	103.841	20.138	9.449	0.525
495.000	317.986	80.006	19.994	103.839	20.136	9.616	0.524
495.500	318.211	80.004	19.993	103.837	20.138	9.474	0.504
496.000	318.511	80.004	19.993	103.835	20.138	9.434	0.502
496.500	318.721	80.005	19.993	103.836	20.141	9.232	0.518
497.000	318.977	80.005	19.992	103.840	20.139	9.420	0.488
497.500	319.306	80.005	19.993	103.839	20.139	9.395	0.526
498.000	319.515	80.006	19.993	103.838	20.143	9.117	0.561
498.500	319.805	80.006	19.993	103.838	20.140	9.357	0.518
499.000	320.029	80.005	19.994	103.835	20.142	9.205	0.507
499.500	320.276	80.005	19.994	103.838	20.141	9.292	0.493
500.000	320.562	80.005	19.994	103.845	20.140	9.308	0.502
500.500	320.775	80.005	19.994	103.849	20.141	9.259	0.516
501.000	321.082	80.006	19.993	103.847	20.141	9.248	0.510
501.500	321.286	80.006	19.993	103.843	20.140	9.346	0.515
502.000	321.582	80.005	19.994	103.836	20.140	9.324	0.505
502.500	321.769	80.006	19.993	103.832	20.144	9.074	0.491
503.000	322.089	80.006	19.995	103.828	20.144	9.034	0.495
503.500	322.291	80.005	19.994	103.828	20.141	9.259	0.515
504.000	322.567	80.007	19.994	103.828	20.136	9.594	0.500
504.500	322.827	80.007	19.993	103.828	20.139	9.397	0.506
505.000	323.086	80.006	19.993	103.825	20.144	9.083	0.528
505.500	323.325	80.006	19.994	103.827	20.140	9.296	0.509
506.000	323.615	80.006	19.993	103.827	20.145	8.982	0.514
506.500	323.825	80.006	19.993	103.828	20.144	9.083	0.515
507.000	324.069	80.006	19.995	103.832	20.144	9.058	0.477
507.500	324.360	80.007	19.993	103.836	20.144	9.061	0.494
508.000	324.564	80.004	19.993	103.835	20.147	8.845	0.515
508.500	324.826	80.006	19.994	103.835	20.145	9.018	0.480
509.000	325.087	80.005	19.993	103.836	20.142	9.216	0.494
509.500	325.362	80.005	19.994	103.834	20.144	9.032	0.530
510.000	325.650	80.006	19.994	103.831	20.147	8.841	0.549
510.500	325.857	80.006	19.994	103.832	20.143	9.153	0.529
511.000	326.131	80.005	19.993	103.835	20.145	8.978	0.488
511.500	326.385	80.006	19.993	103.836	20.142	9.162	0.504
512.000	326.640	80.005	19.993	103.840	20.144	9.082	0.518
512.501	326.895	80.006	19.994	103.841	20.143	9.134	0.510
513.000	327.124	80.005	19.994	103.842	20.143	9.134	0.497
513.501	327.410	80.007	19.993	103.839	20.145	8.978	0.500
514.001	327.646	80.005	19.993	103.838	20.146	8.904	0.518
514.500	327.902	80.005	19.993	103.834	20.146	8.913	0.507
515.000	328.148	80.006	19.993	103.833	20.143	9.146	0.497
515.500	328.423	80.005	19.993	103.834	20.144	9.076	0.512
516.000	328.679	80.006	19.994	103.835	20.147	8.861	0.526
516.500	328.903	80.006	19.993	103.832	20.146	8.936	0.506
517.000	329.183	80.005	19.992	103.834	20.148	8.781	0.492
517.500	329.396	80.006	19.993	103.835	20.144	9.029	0.498
518.000	329.673	80.007	19.992	103.837	20.143	9.103	0.492
518.500	329.936	80.007	19.995	103.843	20.146	8.913	0.515
519.000	330.188	80.006	19.993	103.848	20.144	9.076	0.527
519.500	330.457	80.006	19.993	103.848	20.143	9.142	0.518
520.000	330.702	80.005	19.994	103.848	20.145	8.958	0.518
520.500	330.937	80.005	19.993	103.846	20.143	9.097	0.497
521.000	331.184	80.008	19.993	103.842	20.145	8.970	0.481
521.500	331.451	80.006	19.992	103.841	20.145	9.002	0.498
522.000	331.704	80.007	19.993	103.846	20.143	9.153	0.517
522.500	331.965	80.005	19.994	103.852	20.145	8.984	0.517
523.000	332.221	80.005	19.993	103.853	20.143	9.090	0.515
523.500	332.465	80.006	19.993	103.856	20.145	8.997	0.509
524.000	332.763	80.006	19.993	103.855	20.143	9.124	0.521
524.500	332.978	80.006	19.993	103.852	20.145	8.952	0.527
525.000	333.263	80.006	19.993	103.848	20.142	9.195	0.506
525.500	333.511	80.007	19.993	103.847	20.141	9.284	0.517
526.000	333.768	80.006	19.993	103.846	20.144	9.070	0.519
526.500	334.042	80.006	19.992	103.849	20.142	9.212	0.518
527.000	334.316	80.008	19.993	103.852	20.141	9.261	0.540
527.500	334.583	80.006	19.993	103.852	20.145	9.003	0.545
528.000	334.801	80.007	19.994	103.853	20.144	9.064	0.513
528.500	335.080	80.006	19.993	103.855	20.141	9.243	0.491
529.000	335.380	80.006	19.993	103.850	20.143	9.117	0.537
529.500	335.631	80.008	19.994	103.842	20.149	8.732	0.565
530.000	335.888	80.008	19.993	103.844	20.145	9.003	0.529
530.500	336.100	80.008	19.994	103.842	20.147	8.829	0.488
531.000	336.392	80.008	19.994	103.840	20.147	8.878	0.487
531.500	336.648	80.008	19.994	103.845	20.149	8.725	0.526
532.000	336.886	80.007	19.992	103.845	20.141	9.276	0.521
532.500	337.121	80.007	19.993	103.840	20.147	8.816	0.483
533.000	337.372	80.004	19.994	103.839	20.147	8.850	0.479
533.500	337.623	80.008	19.996	103.837	20.147	8.865	0.494
534.000	337.931	80.006	19.996	103.832	20.146	8.928	0.531
534.500	338.142	80.005	19.995	103.835	20.145	8.969	0.539
535.000	338.407	80.006	19.994	103.833	20.146	8.903	0.498
535.500	338.652	80.005	19.994	103.837	20.146	8.887	0.493
536.000	338.915	80.005	19.995	103.842	20.149	8.692	0.509
536.500	339.176	80.005	19.995	103.844	20.148	8.796	0.516
537.000	339.427	80.004	19.994	103.845	20.150	8.662	0.518
537.500	339.700	80.005	19.994	103.845	20.146	8.885	0.518
538.000	339.906	80.004	19.994	103.840	20.146	8.944	0.502
538.500	340.202	80.005	19.994	103.836	20.150	8.615	0.491
539.000	340.446	80.005	19.996	103.833	20.148	8.742	0.521
539.500	340.682	80.005	19.995	103.833	20.147	8.819	0.509
540.000	340.966	80.006	19.995	103.833	20.145	8.959	0.500
540.500	341.210	80.005	19.995	103.833	20.146	8.889	0.524
541.000	341.469	80.005	19.994	103.834	20.146	8.916	0.516
541.500	341.731	80.006	19.994	103.837	20.147	8.875	0.512
542.000	341.961	80.005	19.994	103.836	20.149	8.699	0.507
542.500	342.224	80.005	19.995	103.837	20.145	8.988	0.492
543.000	342.495	80.005	19.996	103.841	20.147	8.842	0.513
543.500	342.769	80.004	19.994	103.840	20.146	8.880	0.540
544.000	342.986	80.006	19.993	103.837	20.149	8.713	0.518
544.500	343.278	80.005	19.993	103.837	20.146	8.917	0.500
545.000	343.511	80.004	19.994	103.839	20.147	8.838	0.517
545.500	343.767	80.005	19.993	103.834	20.149	8.726	0.507
546.000	343.994	80.004	19.993	103.834	20.147	8.819	0.486
546.500	344.264	80.003	19.992	103.833	20.151	8.542	0.490
547.000	344.520	80.004	19.994	103.832	20.146	8.934	0.512
547.500	344.774	80.005	19.994	103.829	20.146	8.887	0.518
548.000	345.032	80.005	19.994	103.832	20.146	8.906	0.511
548.500	345.280	80.004	19.993	103.832	20.146	8.889	0.509
549.000	345.556	80.005	19.994	103.833	20.147	8.832	0.515
549.500	345.824	80.003	19.993	103.833	20.150	8.637	0.534
550.000	346.079	80.005	19.994	103.832	20.146	8.936	0.534
550.500	346.295	80.004	19.993	103.830	20.147	8.841	0.497
551.000	346.580	80.005	19.994	103.831	20.147	8.840	0.486
551.500	346.796	80.005	19.994	103.833	20.146	8.940	0.501
552.000	347.074	80.004	19.994	103.836	20.145	8.957	0.498
552.500	347.313	80.003	19.993	103.838	20.148	8.798	0.506
553.000	347.615	80.004	19.995	103.839	20.144	9.082	0.529
553.500	347.826	80.005	19.994	103.840	20.148	8.783	0.527
554.000	348.079	80.004	19.995	103.838	20.146	8.880	0.488
554.500	348.318	80.004	19.995	103.833	20.144	9.023	0.478
555.000	348.598	80.006	19.994	103.830	20.145	9.014	0.505
555.500	348.852	80.005	19.994	103.828	20.146	8.898	0.526
556.000	349.073	80.005	19.995	103.824	20.146	8.938	0.504
556.500	349.378	80.006	19.993	103.825	20.143	9.095	0.501
557.000	349.628	80.005	19.994	103.824	20.145	9.016	0.541
557.500	349.888	80.006	19.993	103.825	20.145	8.982	0.532
558.000	350.149	80.005	19.993	103.829	20.145	9.012	0.515
558.500	350.395	80.005	19.994	103.831	20.144	9.044	0.514
559.000	350.663	80.006	19.995	103.831	20.147	8.845	0.511
559.500	350.886	80.005	19.995	103.831	20.143	9.152	0.502
560.000	351.173	80.006	19.995	103.829	20.142	9.156	0.500
560.501	351.396	80.006	19.995	103.825	20.144	9.042	0.510
561.000	351.676	80.005	19.994	103.823	20.140	9.307	0.507
561.500	351.912	80.006	19.994	103.825	20.143	9.137	0.510
562.000	352.159	80.005	19.995	103.826	20.142	9.156	0.499
562.500	352.397	80.005	19.995	103.826	20.141	9.262	0.484
563.000	352.696	80.005	19.995	103.831	20.143	9.118	0.511
563.500	352.937	80.005	19.994	103.833	20.144	9.025	0.538
564.000	353.206	80.004	19.994	103.832	20.144	9.075	0.524
564.500	353.437	80.004	19.996	103.832	20.145	9.010	0.505
565.000	353.740	80.004	19.995	103.832	20.144	9.065	0.518
565.500	353.958	80.004	19.995	103.828	20.142	9.165	0.528
566.000	354.182	80.004	19.994	103.827	20.144	9.027	0.481
566.500	354.453	80.004	19.994	103.826	20.140	9.338	0.469
567.000	354.694	80.005	19.995	103.826	20.137	9.568	0.504
567.500	354.959	80.006	19.994	103.827	20.143	9.139	0.509
568.000	355.211	80.004	19.995	103.828	20.142	9.162	0.511
568.500	355.468	80.003	19.995	103.828	20.140	9.322	0.514
569.000	355.714	80.004	19.994	103.828	20.143	9.152	0.506
569.500	355.948	80.004	19.995	103.828	20.139	9.366	0.491
570.000	356.197	80.005	19.995	103.828	20.140	9.323	0.481
570.500	356.417	80.004	19.995	103.828	20.141	9.251	0.476
571.000	356.699	80.004	19.995	103.827	20.141	9.268	0.486
571.500	356.966	80.004	19.994	103.827	20.140	9.302	0.526
572.000	357.208	80.004	19.994	103.828	20.143	9.116	0.529
572.500	357.413	80.002	19.994	103.828	20.135	9.660	0.478
573.000	357.698	80.005	19.994	103.827	20.140	9.306	0.469
573.500	357.920	80.004	19.994	103.828	20.143	9.092	0.499
574.000	358.178	80.003	19.993	103.829	20.138	9.493	0.493
574.500	358.428	80.005	19.992	103.829	20.139	9.387	0.494
575.000	358.678	80.005	19.994	103.829	20.137	9.569	0.504
575.500	358.935	80.005	19.994	103.829	20.134	9.741	0.504
576.000	359.144	80.004	19.994	103.828	20.141	9.232	0.486
576.500	359.416	80.004	19.994	103.828	20.134	9.777	0.473
577.000	359.642	80.004	19.994	103.828	20.136	9.581	0.489
577.500	359.920	80.005	19.993	103.828	20.141	9.265	0.501
578.000	360.134	80.007	19.994	103.828	20.141	9.242	0.498
578.500	360.394	80.006	19.994	103.828	20.137	9.521	0.484
579.000	360.653	80.006	19.993	103.828	20.138	9.468	0.497
579.500	360.907	80.006	19.994	103.829	20.137	9.513	0.516
580.000	361.147	80.006	19.993	103.828	20.137	9.526	0.503
580.500	361.381	80.006	19.992	103.830	20.140	9.337	0.484
581.000	361.674	80.006	19.992	103.831	20.138	9.435	0.500
581.500	361.899	80.006	19.994	103.832	20.139	9.380	0.522
582.000	362.151	80.006	19.993	103.834	20.138	9.447	0.498
582.500	362.364	80.006	19.993	103.835	20.138	9.489	0.471
583.000	362.643	80.007	19.993	103.833	20.134	9.745	0.478
583.500	362.841	80.006	19.993	103.831	20.133	9.802	0.484
584.000	363.107	80.006	19.993	103.831	20.133	9.824	0.471
584.500	363.338	80.007	19.993	103.829	20.133	9.795	0.481
585.000	363.624	80.006	19.993	103.829	20.135	9.649	0.507
585.500	363.834	80.006	19.992	103.829	20.134	9.714	0.506
586.000	364.078	80.006	19.994	103.829	20.136	9.613	0.475
586.500	364.360	80.006	19.993	103.830	20.137	9.509	0.490
587.000	364.603	80.006	19.993	103.831	20.136	9.629	0.526
587.500	364.863	80.006	19.993	103.836	20.138	9.502	0.514
588.000	365.079	80.005	19.993	103.837	20.134	9.716	0.489
588.500	365.327	80.004	19.994	103.840	20.134	9.716	0.470
589.000	365.550	80.006	19.995	103.844	20.135	9.687	0.468
589.500	365.838	80.005	19.993	103.844	20.135	9.708	0.491
590.000	366.071	80.005	19.992	103.842	20.133	9.808	0.516
590.500	366.302	80.006	19.993	103.843	20.134	9.754	0.492
591.001	366.577	80.005	19.993	103.843	20.134	9.723	0.485
591.501	366.835	80.004	19.993	103.841	20.134	9.776	0.520
592.000	367.067	80.006	19.993	103.840	20.134	9.771	0.511
592.500	367.336	80.006	19.993	103.840	20.134	9.737	0.496
593.000	367.576	80.004	19.992	103.845	20.134	9.760	0.506
593.500	367.820	80.005	19.995	103.848	20.132	9.877	0.496
594.000	368.079	80.007	19.995	103.853	20.133	9.790	0.493
594.500	368.343	80.005	19.994	103.860	20.134	9.723	0.513
595.000	368.560	80.004	19.995	103.866	20.132	9.862	0.502
595.500	368.821	80.004	19.994	103.863	20.131	9.936	0.480
596.000	369.047	80.006	19.995	103.863	20.134	9.743	0.483
596.500	369.319	80.006	19.994	103.862	20.133	9.782	0.493
597.000	369.566	80.006	19.993	103.862	20.130	10.000	0.508
597.500	369.790	80.004	19.995	103.862	20.132	9.898	0.495
598.000	370.046	80.005	19.993	103.865	20.129	10.101	0.475
598.500	370.293	80.005	19.994	103.866	20.131	9.978	0.492
599.000	370.571	80.006	19.994	103.867	20.131	9.974	0.514
599.500	370.811	80.005	19.994	103.866	20.128	10.134	0.521
600.000	371.072	80.007	19.995	103.864	20.127	10.236	0.509
600.500	371.300	80.007	19.996	103.864	20.127	10.267	0.495
601.000	371.536	80.006	19.993	103.864	20.129	10.085	0.477
601.500	371.802	80.005	19.993	103.863	20.126	10.277	0.483
602.000	372.044	80.007	19.994	103.864	20.122	10.566	0.505
602.500	372.320	80.006	19.993	103.866	20.126	10.279	0.513
603.000	372.562	80.006	19.993	103.866	20.126	10.277	0.518
603.500	372.824	80.007	19.992	103.865	20.127	10.205	0.511
604.000	373.099	80.007	19.992	103.868	20.125	10.346	0.520
604.500	373.340	80.006	19.994	103.867	20.128	10.174	0.527
605.000	373.610	80.007	19.994	103.866	20.127	10.213	0.514
605.500	373.827	80.007	19.992	103.866	20.126	10.310	0.499
606.000	374.117	80.009	19.993	103.867	20.121	10.624	0.497
606.501	374.335	80.007	19.994	103.866	20.122	10.552	0.507
607.001	374.580	80.008	19.993	103.867	20.119	10.770	0.485
607.500	374.855	80.008	19.993	103.868	20.124	10.445	0.492
608.000	375.118	80.009	19.994	103.870	20.120	10.698	0.529
608.500	375.360	80.008	19.994	103.871	20.121	10.642	0.522
609.000	375.612	80.008	19.993	103.870	20.118	10.877	0.499
609.500	375.858	80.008	19.994	103.870	20.118	10.848	0.496
610.000	376.116	80.008	19.993	103.874	20.118	10.886	0.501
610.500	376.356	80.008	19.994	103.877	20.118	10.877	0.502
611.000	376.604	80.008	19.994	103.882	20.117	10.920	0.493
611.500	376.870	80.007	19.993	103.885	20.119	10.818	0.501
612.000	377.085	80.009	19.993	103.888	20.114	11.102	0.498
612.500	377.352	80.008	19.994	103.890	20.115	11.047	0.482
613.000	377.633	80.007	19.993	103.888	20.114	11.113	0.515
613.500	377.892	80.007	19.995	103.888	20.113	11.221	0.544
614.000	378.108	80.007	19.993	103.892	20.111	11.331	0.507
614.500	378.364	80.006	19.993	103.896	20.109	11.464	0.474
615.000	378.635	80.006	19.994	103.896	20.110	11.388	0.500
615.500	378.879	80.007	19.993	103.900	20.108	11.549	0.521
616.000	379.106	80.006	19.994	103.898	20.109	11.490	0.493
616.500	379.338	80.006	19.993	103.898	20.108	11.576	0.465
617.000	379.630	80.005	19.993	103.896	20.108	11.542	0.492
617.500	379.890	80.005	19.993	103.897	20.110	11.428	0.538
618.000	380.138	80.005	19.994	103.898	20.108	11.532	0.530
618.500	380.362	80.006	19.994	103.902	20.104	11.822	0.490
619.000	380.614	80.005	19.994	103.901	20.106	11.714	0.474
619.500	380.894	80.004	19.994	103.903	20.110	11.445	0.504
620.000	381.124	80.004	19.993	103.903	20.106	11.716	0.521
620.500	381.351	80.004	19.994	103.903	20.109	11.515	0.483
621.000	381.622	80.005	19.994	103.902	20.104	11.861	0.477
621.500	381.884	80.005	19.994	103.902	20.103	11.889	0.515
622.000	382.094	80.004	19.995	103.901	20.106	11.664	0.503
622.500	382.374	80.005	19.994	103.901	20.102	11.959	0.481
623.000	382.598	80.004	19.994	103.902	20.106	11.704	0.497
623.500	382.894	80.004	19.995	103.901	20.100	12.104	0.512
624.000	383.134	80.004	19.995	103.902	20.102	11.977	0.528
624.500	383.416	80.005	19.995	103.903	20.100	12.131	0.529
625.000	383.589	80.004	19.995	103.903	20.100	12.123	0.489
625.500	383.885	80.004	19.995	103.901	20.102	11.986	0.462
626.000	384.126	80.005	19.994	103.902	20.100	12.076	0.503
626.500	384.405	80.005	19.994	103.901	20.095	12.471	0.529
627.000	384.626	80.004	19.994	103.901	20.099	12.172	0.510
627.500	384.888	80.005	19.994	103.902	20.098	12.242	0.492
628.000	385.149	80.004	19.995	103.903	20.097	12.301	0.503
628.500	385.379	80.006	19.995	103.902	20.095	12.473	0.507
629.000	385.648	80.006	19.994	103.903	20.098	12.260	0.495
629.500	385.898	80.004	19.995	103.904	20.097	12.309	0.509
630.000	386.143	80.005	19.994	103.902	20.095	12.434	0.507
630.501	386.389	80.006	19.995	103.902	20.095	12.438	0.493
631.000	386.634	80.005	19.994	103.901	20.093	12.608	0.491
631.500	386.912	80.007	19.993	103.900	20.097	12.304	0.507
632.000	387.144	80.005	19.994	103.894	20.093	12.580	0.517
632.500	387.423	80.005	19.994	103.889	20.093	12.614	0.511
633.000	387.645	80.004	19.993	103.883	20.093	12.597	0.506
633.500	387.924	80.005	19.994	103.880	20.093	12.615	0.501
634.000	388.175	80.004	19.993	103.879	20.094	12.486	0.515
634.500	388.424	80.004	19.994	103.882	20.090	12.764	0.515
635.000	388.697	80.005	19.993	103.886	20.094	12.503	0.511
635.500	388.957	80.006	19.994	103.887	20.093	12.567	0.528
636.000	389.198	80.006	19.996	103.884	20.094	12.533	0.517
636.500	389.457	80.005	19.994	103.879	20.090	12.824	0.501
637.000	389.681	80.005	19.993	103.874	20.089	12.873	0.491
637.500	389.947	80.006	19.993	103.869	20.087	12.983	0.486
638.000	390.188	80.005	19.995	103.869	20.090	12.773	0.499
638.500	390.480	80.004	19.994	103.869	20.090	12.783	0.520
639.000	390.708	80.005	19.993	103.869	20.092	12.688	0.526
639.500	390.977	80.005	19.993	103.869	20.088	12.958	0.508
640.000	391.226	80.007	19.994	103.874	20.086	13.086	0.508
640.500	391.482	80.005	19.993	103.874	20.085	13.102	0.511
641.000	391.732	80.003	19.993	103.874	20.084	13.212	0.505
641.500	392.014	80.005	19.994	103.873	20.086	13.059	0.519
642.000	392.248	80.003	19.993	103.870	20.085	13.138	0.524
642.500	392.507	80.005	19.993	103.864	20.083	13.243	0.504
643.000	392.746	80.006	19.994	103.862	20.078	13.607	0.495
643.500	393.032	80.005	19.993	103.862	20.079	13.571	0.512
644.000	393.267	80.004	19.994	103.861	20.080	13.487	0.523
644.500	393.508	80.004	19.994	103.863	20.082	13.337	0.498
645.000	393.798	80.004	19.994	103.864	20.078	13.618	0.504
645.500	394.102	80.005	19.994	103.864	20.076	13.775	0.563
646.000	394.304	80.005	19.994	103.863	20.077	13.663	0.550
646.500	394.597	80.004	19.994	103.862	20.077	13.693	0.500
647.000	394.855	80.005	19.993	103.860	20.076	13.755	0.523
647.500	395.112	80.004	19.994	103.858	20.076	13.759	0.533
648.000	395.365	80.004	19.994	103.857	20.075	13.810	0.513
648.500	395.601	80.005	19.993	103.858	20.069	14.213	0.500
649.000	395.891	80.006	19.994	103.859	20.075	13.808	0.507
649.500	396.141	80.005	19.994	103.862	20.073	13.961	0.533
650.000	396.394	80.004	19.994	103.860	20.070	14.158	0.522
650.500	396.646	80.004	19.995	103.854	20.067	14.358	0.504
651.000	396.916	80.004	19.994	103.847	20.068	14.293	0.514
651.500	397.126	80.005	19.994	103.843	20.070	14.143	0.501
652.001	397.438	80.003	19.995	103.841	20.068	14.287	0.500
652.500	397.714	80.004	19.994	103.844	20.064	14.572	0.555
653.000	397.929	80.002	19.994	103.852	20.065	14.541	0.540
653.500	398.204	80.003	19.997	103.859	20.065	14.500	0.491
654.000	398.465	80.006	19.996	103.865	20.058	14.986	0.513
654.500	398.707	80.004	19.996	103.865	20.061	14.785	0.520
655.000	398.966	80.004	19.994	103.860	20.058	14.984	0.502
655.500	399.191	80.004	19.996	103.854	20.058	15.033	0.492
656.000	399.481	80.005	19.995	103.850	20.054	15.258	0.499
656.500	399.716	80.004	19.995	103.848	20.055	15.222	0.520
657.000	399.998	80.005	19.994	103.842	20.053	15.366	0.521
657.500	400.212	80.006	19.994	103.840	20.055	15.228	0.507
658.000	400.485	80.005	19.995	103.839	20.052	15.424	0.491
658.500	400.803	80.006	19.996	103.839	20.055	15.201	0.539
659.000	401.046	80.005	19.995	103.836	20.056	15.127	0.576
659.500	401.299	80.005	19.995	103.838	20.050	15.570	0.529
660.000	401.538	80.005	19.996	103.839	20.053	15.373	0.494
660.500	401.811	80.005	19.996	103.837	20.047	15.752	0.502
661.000	402.066	80.005	19.994	103.835	20.049	15.635	0.520
661.500	402.286	80.007	19.994	103.831	20.044	15.968	0.502
662.001	402.562	80.006	19.994	103.829	20.046	15.833	0.486
662.500	402.807	80.007	19.994	103.827	20.044	15.998	0.508
663.000	403.062	80.006	19.995	103.829	20.037	16.486	0.510
663.500	403.338	80.007	19.994	103.830	20.037	16.477	0.516
664.000	403.614	80.006	19.993	103.830	20.038	16.354	0.542
664.500	403.855	80.007	19.995	103.829	20.036	16.498	0.535
665.000	404.111	80.006	19.994	103.829	20.029	16.980	0.507
665.500	404.348	80.007	19.993	103.827	20.033	16.753	0.495
666.000	404.616	80.007	19.993	103.825	20.032	16.772	0.499
666.500	404.874	80.007	19.994	103.825	20.031	16.870	0.516
667.000	405.152	80.006	19.993	103.824	20.027	17.120	0.532
667.500	405.390	80.007	19.994	103.824	20.025	17.275	0.526
668.000	405.610	80.007	19.993	103.824	20.026	17.212	0.486
668.500	405.915	80.006	19.993	103.824	20.025	17.274	0.491
669.000	406.155	80.006	19.994	103.824	20.020	17.622	0.535
669.500	406.399	80.007	19.993	103.824	20.021	17.575	0.515
670.000	406.649	80.007	19.993	103.824	20.020	17.598	0.489
670.500	406.957	80.006	19.994	103.825	20.017	17.856	0.526
671.000	407.212	80.006	19.993	103.825	20.013	18.101	0.560
671.500	407.460	80.007	19.994	103.825	20.010	18.353	0.533
672.000	407.719	80.007	19.994	103.825	20.011	18.284	0.505
672.500	407.973	80.007	19.994	103.824	20.014	18.059	0.510
673.000	408.238	80.007	19.995	103.823	20.012	18.179	0.516
673.500	408.467	80.006	19.994	103.824	20.008	18.470	0.507
674.000	408.755	80.007	19.994	103.824	20.004	18.759	0.505
674.500	409.028	80.006	19.994	103.824	20.004	18.748	0.539
675.000	409.260	80.007	19.994	103.825	20.003	18.828	0.533
675.501	409.515	80.007	19.994	103.825	19.999	19.111	0.496
676.000	409.776	80.006	19.993	103.825	19.999	19.098	0.502
676.500	410.004	80.007	19.994	103.823	19.995	19.363	0.502
677.000	410.304	80.008	19.994	103.823	19.996	19.287	0.508
677.501	410.505	80.007	19.994	103.823	19.993	19.490	0.514
678.001	410.742	80.007	19.993	103.823	19.989	19.753	0.469
678.501	411.028	80.006	19.994	103.821	19.991	19.660	0.480
679.001	411.271	80.007	19.993	103.819	19.987	19.904	0.526
679.500	411.534	80.007	19.993	103.816	19.985	20.038	0.518
680.000	411.783	80.007	19.994	103.816	19.981	20.349	0.509
680.500	412.074	80.008	19.994	103.816	19.979	20.468	0.526
681.000	412.297	80.007	19.994	103.817	19.975	20.737	0.527
681.500	412.528	80.007	19.995	103.821	19.974	20.843	0.484
682.000	412.791	80.007	19.994	103.824	19.975	20.743	0.474
682.500	413.039	80.006	19.994	103.824	19.973	20.912	0.503
683.000	413.322	80.007	19.994	103.823	19.971	21.050	0.521
683.500	413.560	80.007	19.993	103.820	19.968	21.199	0.526
684.000	413.817	80.007	19.993	103.816	19.964	21.487	0.508
684.500	414.076	80.008	19.994	103.812	19.967	21.263	0.505
685.000	414.276	80.007	19.994	103.811	19.960	21.786	0.488
685.500	414.502	80.008	19.994	103.812	19.957	21.972	0.443
686.000	414.778	80.009	19.994	103.814	19.956	22.050	0.464
686.500	415.016	80.008	19.993	103.819	19.953	22.244	0.508
687.000	415.329	80.008	19.993	103.822	19.949	22.570	0.532
687.500	415.542	80.008	19.993	103.823	19.949	22.554	0.538
688.000	415.792	80.009	19.994	103.823	19.945	22.808	0.494
688.500	416.053	80.008	19.994	103.823	19.944	22.889	0.487
689.000	416.307	80.009	19.994	103.823	19.941	23.107	0.513
689.500	416.562	80.008	19.993	103.823	19.937	23.389	0.512
690.000	416.794	80.007	19.993	103.822	19.939	23.236	0.498
690.500	417.076	80.008	19.993	103.821	19.935	23.543	0.500
691.000	417.310	80.008	19.994	103.821	19.931	23.774	0.515
691.500	417.560	80.007	19.992	103.821	19.929	23.908	0.500
692.000	417.817	80.008	19.994	103.821	19.926	24.145	0.496
692.500	418.070	80.006	19.993	103.822	19.924	24.304	0.509
693.000	418.325	80.006	19.993	103.821	19.925	24.188	0.509
693.500	418.539	80.005	19.994	103.816	19.917	24.754	0.488
694.000	418.805	80.006	19.993	103.808	19.918	24.679	0.474
694.500	419.055	80.006	19.993	103.804	19.915	24.909	0.498
695.000	419.311	80.006	19.994	103.798	19.911	25.165	0.511
695.500	419.537	80.006	19.994	103.801	19.912	25.126	0.494
696.000	419.819	80.006	19.993	103.805	19.908	25.399	0.495
696.500	420.083	80.006	19.993	103.810	19.905	25.581	0.527
697.000	420.320	80.004	19.994	103.810	19.901	25.876	0.523
697.500	420.545	80.006	19.993	103.812	19.899	26.012	0.481
698.000	420.834	80.005	19.993	103.807	19.894	26.337	0.488
698.500	421.071	80.006	19.991	103.806	19.894	26.338	0.520
699.000	421.286	80.004	19.993	103.808	19.892	26.464	0.489
699.500	421.556	80.005	19.992	103.811	19.889	26.728	0.468
700.000	421.784	80.005	19.993	103.815	19.886	26.883	0.491
700.500	422.023	80.004	19.993	103.821	19.882	27.171	0.483
701.000	422.313	80.005	19.993	103.824	19.877	27.550	0.498
701.500	422.561	80.006	19.992	103.824	19.879	27.386	0.534
702.000	422.789	80.005	19.993	103.825	19.873	27.808	0.507
702.501	423.036	80.005	19.993	103.824	19.874	27.767	0.475
703.001	423.256	80.005	19.993	103.818	19.871	27.964	0.471
703.500	423.503	80.006	19.993	103.811	19.862	28.544	0.467
704.000	423.768	80.005	19.993	103.809	19.864	28.414	0.490
704.500	424.023	80.006	19.993	103.808	19.860	28.697	0.516
705.000	424.268	80.005	19.993	103.811	19.859	28.809	0.510
705.500	424.521	80.004	19.993	103.817	19.857	28.927	0.499
706.001	424.744	80.005	19.994	103.823	19.853	29.157	0.487
706.501	425.000	80.005	19.994	103.827	19.852	29.239	0.477
707.001	425.222	80.006	19.994	103.828	19.846	29.675	0.479
707.501	425.479	80.005	19.994	103.825	19.845	29.713	0.478
708.001	425.717	80.005	19.994	103.821	19.837	30.269	0.487
708.500	426.011	80.004	19.993	103.820	19.839	30.171	0.514
709.000	426.267	80.004	19.994	103.819	19.834	30.532	0.541
709.500	426.469	80.005	19.995	103.816	19.835	30.436	0.504
710.000	426.735	80.006	19.994	103.819	19.829	30.872	0.464
710.500	426.995	80.005	19.993	103.823	19.822	31.328	0.497
711.000	427.206	80.006	19.993	103.823	19.821	31.429	0.498
711.500	427.488	80.006	19.994	103.822	19.816	31.740	0.482
712.000	427.715	80.004	19.994	103.823	19.817	31.668	0.501
712.501	427.966	80.004	19.994	103.821	19.816	31.753	0.494
713.001	428.237	80.004	19.993	103.821	19.811	32.083	0.500
713.500	428.460	80.005	19.997	103.822	19.809	32.268	0.508
714.000	428.722	80.003	19.995	103.825	19.805	32.484	0.490
714.500	428.987	80.005	19.994	103.826	19.800	32.853	0.506
715.000	429.171	80.005	19.995	103.828	19.796	33.132	0.488
715.500	429.452	80.004	19.995	103.826	19.796	33.146	0.457
716.000	429.718	80.004	19.995	103.826	19.790	33.582	0.506
716.500	429.983	80.005	19.995	103.821	19.786	33.816	0.539
717.000	430.248	80.004	19.994	103.819	19.785	33.895	0.530
717.500	430.454	80.004	19.995	103.815	19.783	34.034	0.501
718.000	430.669	80.004	19.995	103.816	19.775	34.611	0.446
718.500	430.947	80.004	19.993	103.816	19.773	34.735	0.457
719.000	431.196	80.005	19.994	103.821	19.772	34.815	0.510
719.500	431.441	80.005	19.994	103.823	19.765	35.278	0.511
720.000	431.697	80.003	19.994	103.827	19.761	35.567	0.497
720.500	431.940	80.004	19.994	103.828	19.758	35.783	0.499
721.000	432.235	80.004	19.993	103.826	19.756	35.893	0.519
721.500	432.469	80.003	19.995	103.824	19.754	36.063	0.534
722.000	432.708	80.004	19.994	103.821	19.750	36.344	0.501
722.500	432.931	80.005	19.994	103.817	19.745	36.659	0.468
723.000	433.232	80.004	19.994	103.815	19.739	37.078	0.494
723.500	433.448	80.006	19.996	103.816	19.739	37.049	0.521
724.000	433.710	80.005	19.993	103.816	19.737	37.228	0.497
724.500	433.921	80.004	19.994	103.816	19.733	37.511	0.475
725.000	434.190	80.004	19.993	103.816	19.731	37.627	0.477
725.500	434.425	80.004	19.995	103.816	19.727	37.898	0.492
726.000	434.708	80.004	19.994	103.814	19.724	38.112	0.511
726.500	434.949	80.004	19.993	103.814	19.718	38.532	0.521
727.000	435.223	80.004	19.994	103.817	19.713	38.863	0.520
727.500	435.474	80.005	19.995	103.817	19.712	38.969	0.520
728.000	435.722	80.004	19.994	103.815	19.708	39.230	0.512
728.500	435.972	80.005	19.993	103.817	19.710	39.088	0.499
729.000	436.237	80.005	19.995	103.815	19.700	39.773	0.506
729.500	436.447	80.005	19.994	103.812	19.696	40.044	0.495
730.000	436.705	80.003	19.993	103.814	19.696	40.081	0.471
730.500	436.945	80.006	19.995	103.817	19.692	40.360	0.483
731.000	437.230	80.005	19.995	103.818	19.687	40.676	0.512
731.500	437.467	80.004	19.994	103.817	19.684	40.911	0.524
732.000	437.716	80.004	19.994	103.817	19.678	41.311	0.504
732.500	437.987	80.003	19.994	103.816	19.677	41.387	0.503
733.000	438.204	80.005	19.994	103.814	19.673	41.630	0.504
733.500	438.464	80.004	19.994	103.810	19.671	41.811	0.483
734.000	438.708	80.005	19.994	103.814	19.668	41.972	0.490
734.500	438.914	80.005	19.996	103.817	19.661	42.446	0.477
735.000	439.209	80.006	19.995	103.820	19.661	42.471	0.476
735.500	439.448	80.006	19.995	103.822	19.655	42.870	0.517
736.000	439.677	80.005	19.994	103.825	19.654	42.954	0.501
736.500	439.967	80.005	19.993	103.825	19.653	43.048	0.494
737.000	440.187	80.006	19.994	103.821	19.648	43.397	0.514
737.500	440.445	80.006	19.995	103.815	19.645	43.604	0.494
738.001	440.706	80.006	19.995	103.813	19.643	43.705	0.498
738.500	440.969	80.005	19.995	103.813	19.640	43.931	0.521
739.000	441.257	80.006	19.995	103.814	19.636	44.198	0.538
739.500	441.459	80.006	19.996	103.818	19.631	44.523	0.521
740.000	441.721	80.007	19.994	103.819	19.631	44.565	0.477
740.500	441.963	80.006	19.994	103.814	19.628	44.740	0.484
741.000	442.210	80.006	19.995	103.807	19.622	45.172	0.497
741.500	442.480	80.006	19.996	103.800	19.620	45.342	0.503
742.000	442.720	80.006	19.995	103.794	19.618	45.482	0.513
742.500	442.976	80.006	19.995	103.796	19.614	45.695	0.503
743.000	443.213	80.006	19.994	103.797	19.610	45.998	0.494
743.500	443.480	80.007	19.996	103.801	19.606	46.267	0.498
744.000	443.759	80.006	19.995	103.804	19.606	46.300	0.525
744.500	443.978	80.005	19.996	103.807	19.599	46.782	0.523
745.000	444.222	80.006	19.996	103.808	19.597	46.921	0.481
745.500	444.507	80.004	19.995	103.809	19.597	46.916	0.496
746.000	444.768	80.005	19.996	103.806	19.591	47.355	0.538
746.500	445.015	80.007	19.995	103.810	19.589	47.491	0.527
747.000	445.240	80.005	19.994	103.813	19.585	47.726	0.490
747.500	445.534	80.005	19.994	103.810	19.587	47.622	0.495
748.000	445.757	80.006	19.996	103.809	19.582	47.944	0.518
748.500	446.010	80.005	19.994	103.809	19.580	48.112	0.496
749.000	446.278	80.006	19.996	103.807	19.577	48.315	0.499
749.500	446.511	80.004	19.996	103.804	19.575	48.417	0.512
750.000	446.768	80.005	19.995	103.805	19.571	48.741	0.496
750.500	447.050	80.005	19.995	103.804	19.571	48.744	0.514
751.000	447.258	80.005	19.995	103.805	19.566	49.058	0.514
751.500	447.524	80.005	19.994	103.805	19.563	49.257	0.482
752.000	447.780	80.006	19.994	103.803	19.560	49.495	0.498
752.500	448.061	80.005	19.994	103.802	19.560	49.467	0.529
753.000	448.302	80.006	19.994	103.806	19.557	49.651	0.529
753.500	448.554	80.006	19.994	103.808	19.554	49.901	0.507
754.000	448.845	80.006	19.994	103.809	19.553	49.948	0.518
754.500	449.093	80.005	19.994	103.814	19.551	50.092	0.541
755.000	449.317	80.006	19.993	103.820	19.548	50.286	0.506
755.500	449.549	80.007	19.995	103.819	19.548	50.335	0.464
756.000	449.818	80.005	19.994	103.821	19.545	50.512	0.479
756.500	450.084	80.007	19.994	103.823	19.546	50.475	0.518
757.000	450.332	80.007	19.994	103.821	19.544	50.547	0.524
757.500	450.588	80.007	19.994	103.821	19.538	50.992	0.509
758.000	450.821	80.005	19.993	103.822	19.537	51.046	0.496
758.500	451.087	80.007	19.993	103.822	19.538	51.023	0.494
759.000	451.323	80.006	19.994	103.823	19.536	51.102	0.501
759.500	451.601	80.007	19.994	103.825	19.534	51.255	0.508
760.000	451.861	80.006	19.993	103.826	19.531	51.483	0.525
760.500	452.076	80.005	19.993	103.826	19.531	51.493	0.506
761.000	452.329	80.007	19.993	103.826	19.531	51.482	0.472
761.500	452.578	80.006	19.994	103.826	19.526	51.801	0.486
762.000	452.837	80.007	19.994	103.825	19.527	51.787	0.505
762.500	453.091	80.008	19.993	103.825	19.527	51.739	0.510
763.000	453.368	80.008	19.993	103.824	19.526	51.850	0.522
763.500	453.601	80.006	19.995	103.821	19.527	51.740	0.521
764.000	453.850	80.009	19.994	103.818	19.522	52.113	0.496
764.500	454.105	80.007	19.993	103.818	19.523	52.009	0.493
765.000	454.391	80.007	19.995	103.819	19.522	52.122	0.522
765.500	454.613	80.007	19.994	103.818	19.522	52.120	0.524
766.000	454.856	80.007	19.993	103.821	19.523	52.018	0.487
766.500	455.142	80.008	19.993	103.824	19.523	52.050	0.498
767.000	455.423	80.007	19.993	103.825	19.521	52.173	0.548
767.500	455.655	80.009	19.993	103.824	19.520	52.271	0.539
768.000	455.915	80.007	19.992	103.824	19.520	52.218	0.502
768.500	456.186	80.008	19.994	103.824	19.523	52.046	0.512
769.000	456.403	80.006	19.993	103.823	19.523	52.034	0.510
769.500	456.666	80.006	19.994	103.822	19.521	52.206	0.484
770.000	456.913	80.007	19.993	103.820	19.519	52.297	0.495
770.500	457.160	80.006	19.994	103.820	19.522	52.085	0.502
771.001	457.421	80.006	19.994	103.821	19.524	51.996	0.501
771.500	457.645	80.005	19.992	103.823	19.524	51.947	0.497
772.000	457.918	80.006	19.993	103.823	19.519	52.334	0.491
772.500	458.179	80.005	19.994	103.825	19.526	51.827	0.516
773.000	458.433	80.003	19.992	103.820	19.523	52.018	0.524
773.500	458.657	80.005	19.995	103.818	19.530	51.520	0.497
774.000	458.931	80.005	19.995	103.818	19.530	51.525	0.488
774.500	459.164	80.004	19.995	103.817	19.527	51.720	0.502
775.000	459.452	80.005	19.994	103.814	19.530	51.557	0.514
775.500	459.675	80.004	19.994	103.818	19.529	51.587	0.517
776.000	459.925	80.005	19.994	103.820	19.532	51.416	0.492
776.500	460.202	80.005	19.994	103.820	19.535	51.177	0.499
777.000	460.427	80.004	19.994	103.821	19.534	51.248	0.514
777.500	460.702	80.005	19.995	103.823	19.539	50.940	0.502
778.000	460.919	80.004	19.993	103.823	19.538	50.984	0.496
778.500	461.195	80.005	19.994	103.823	19.543	50.633	0.492
779.000	461.434	80.004	19.994	103.822	19.545	50.464	0.504
779.500	461.705	80.004	19.994	103.823	19.548	50.281	0.513
780.000	461.950	80.005	19.994	103.826	19.545	50.490	0.513
780.500	462.197	80.003	19.994	103.826	19.548	50.267	0.504
781.000	462.439	80.004	19.994	103.825	19.553	49.928	0.490
781.500	462.691	80.005	19.993	103.825	19.557	49.685	0.492
782.000	462.951	80.004	19.995	103.825	19.559	49.560	0.503
782.500	463.229	80.004	19.994	103.826	19.558	49.588	0.525
783.000	463.442	80.004	19.993	103.827	19.563	49.267	0.515
783.500	463.696	80.005	19.993	103.828	19.565	49.134	0.479
784.000	463.969	80.006	19.993	103.825	19.569	48.821	0.497
784.500	464.185	80.006	19.994	103.819	19.570	48.769	0.508
785.000	464.448	80.006	19.993	103.815	19.573	48.548	0.484
785.500	464.720	80.005	19.994	103.811	19.575	48.457	0.507
786.000	464.921	80.005	19.992	103.806	19.578	48.249	0.504
786.500	465.213	80.005	19.993	103.810	19.582	47.917	0.483
787.000	465.448	80.006	19.994	103.816	19.586	47.691	0.510
787.500	465.700	80.006	19.993	103.816	19.590	47.414	0.507
788.000	465.964	80.005	19.993	103.813	19.593	47.174	0.501
788.500	466.210	80.006	19.993	103.810	19.597	46.912	0.513
789.000	466.434	80.007	19.993	103.803	19.599	46.785	0.490
789.500	466.697	80.005	19.993	103.795	19.604	46.447	0.479
790.001	466.939	80.005	19.993	103.790	19.609	46.078	0.496
790.501	467.181	80.005	19.992	103.790	19.614	45.728	0.495
791.001	467.462	80.004	19.994	103.792	19.615	45.685	0.504
791.500	467.668	80.005	19.993	103.793	19.620	45.326	0.505
792.000	467.944	80.006	19.993	103.797	19.624	45.036	0.484
792.500	468.166	80.005	19.993	103.798	19.628	44.763	0.490
793.000	468.418	80.006	19.994	103.802	19.631	44.578	0.486
793.500	468.715	80.006	19.993	103.806	19.637	44.134	0.512
794.001	468.948	80.005	19.993	103.807	19.638	44.059	0.539
794.501	469.191	80.006	19.993	103.806	19.644	43.679	0.503
795.001	469.452	80.006	19.993	103.811	19.650	43.230	0.490
795.500	469.702	80.006	19.993	103.814	19.651	43.153	0.507
796.000	469.931	80.005	19.994	103.815	19.657	42.767	0.495
796.500	470.175	80.006	19.994	103.819	19.661	42.480	0.476
797.000	470.465	80.006	19.994	103.823	19.667	42.052	0.504
797.500	470.673	80.005	19.992	103.822	19.672	41.719	0.516
798.000	470.968	80.005	19.994	103.816	19.675	41.510	0.500
798.500	471.216	80.004	19.994	103.811	19.682	41.045	0.523
799.000	471.463	80.005	19.994	103.810	19.689	40.567	0.520
799.500	471.667	80.005	19.994	103.813	19.691	40.430	0.474
800.000	471.965	80.004	19.995	103.813	19.698	39.919	0.477
800.500	472.175	80.005	19.995	103.819	19.701	39.732	0.505
801.000	472.420	80.005	19.994	103.820	19.705	39.423	0.482
801.500	472.681	80.005	19.994	103.820	19.711	39.048	0.480
802.000	472.952	80.005	19.994	103.820	19.716	38.687	0.518
802.500	473.186	80.005	19.993	103.817	19.721	38.320	0.518
803.000	473.429	80.004	19.993	103.812	19.725	38.027	0.491
803.500	473.699	80.004	19.993	103.812	19.730	37.697	0.495
804.000	473.972	80.005	19.993	103.811	19.734	37.404	0.528
804.500	474.222	80.005	19.994	103.810	19.743	36.803	0.533
805.000	474.480	80.004	19.994	103.811	19.746	36.609	0.516
805.500	474.746	80.006	19.994	103.816	19.748	36.448	0.516
806.000	475.023	80.004	19.994	103.821	19.757	35.837	0.533
806.500	475.237	80.003	19.994	103.821	19.762	35.509	0.517
807.000	475.488	80.005	19.995	103.822	19.765	35.277	0.478
807.500	475.757	80.003	19.994	103.823	19.770	34.965	0.492
808.000	476.019	80.004	19.995	103.820	19.776	34.490	0.525
808.500	476.251	80.003	19.995	103.819	19.778	34.403	0.513
809.000	476.485	80.004	19.994	103.818	19.786	33.822	0.481
809.500	476.750	80.005	19.994	103.814	19.790	33.519	0.482
810.000	476.976	80.005	19.995	103.815	19.796	33.154	0.495
810.500	477.225	80.004	19.993	103.817	19.803	32.641	0.483
811.000	477.490	80.004	19.996	103.817	19.809	32.248	0.495
811.500	477.779	80.005	19.996	103.820	19.814	31.923	0.534
812.000	478.037	80.005	19.994	103.824	19.815	31.815	0.551
812.500	478.285	80.004	19.995	103.824	19.823	31.236	0.526
813.000	478.545	80.006	19.994	103.824	19.832	30.637	0.507
813.500	478.755	80.006	19.994	103.821	19.837	30.293	0.489
814.000	479.046	80.005	19.995	103.819	19.841	30.045	0.485
814.500	479.309	80.005	19.993	103.819	19.843	29.854	0.528
815.000	479.573	80.006	19.995	103.819	19.847	29.632	0.541
815.500	479.810	80.006	19.994	103.816	19.854	29.099	0.514
816.000	480.048	80.005	19.994	103.813	19.856	28.974	0.488
816.500	480.300	80.006	19.994	103.810	19.866	28.292	0.482
817.000	480.581	80.006	19.994	103.809	19.869	28.078	0.511
817.500	480.825	80.005	19.995	103.808	19.873	27.824	0.529
818.000	481.085	80.005	19.993	103.811	19.877	27.537	0.515
818.500	481.361	80.005	19.994	103.817	19.885	27.006	0.520
819.000	481.602	80.006	19.994	103.821	19.887	26.829	0.526
819.500	481.858	80.006	19.993	103.822	19.897	26.124	0.507
820.000	482.106	80.006	19.994	103.822	19.901	25.842	0.500
820.500	482.372	80.005	19.994	103.823	19.911	25.180	0.509
821.000	482.590	80.005	19.993	103.824	19.915	24.931	0.499
821.500	482.856	80.005	19.993	103.824	19.920	24.525	0.485
822.000	483.137	80.007	19.993	103.824	19.920	24.576	0.516
822.500	483.367	80.006	19.993	103.825	19.925	24.234	0.529
823.000	483.612	80.005	19.993	103.826	19.934	23.572	0.493
823.500	483.894	80.006	19.992	103.826	19.935	23.516	0.501
824.000	484.176	80.006	19.993	103.831	19.942	23.037	0.546
824.500	484.422	80.006	19.994	103.833	19.945	22.812	0.546
825.000	484.661	80.007	19.994	103.833	19.953	22.310	0.506
825.500	484.920	80.006	19.994	103.833	19.958	21.950	0.492
826.000	485.188	80.005	19.993	103.833	19.960	21.822	0.513
826.500	485.470	80.006	19.994	103.828	19.965	21.475	0.538
827.000	485.787	80.006	19.993	103.828	19.969	21.199	0.574
827.500	486.049	80.006	19.994	103.831	19.975	20.749	0.590
828.000	486.291	80.004	19.993	103.838	19.978	20.512	0.542
828.500	486.465	80.006	19.993	103.843	19.985	20.049	0.460
829.000	486.754	80.004	19.993	103.849	19.989	19.782	0.439
829.500	486.983	80.005	19.995	103.853	19.993	19.509	0.490
830.000	487.224	80.005	19.994	103.855	19.998	19.160	0.494
830.500	487.519	80.005	19.996	103.851	20.000	19.034	0.503
831.000	487.789	80.005	19.995	103.846	20.003	18.783	0.550
831.500	488.028	80.003	19.994	103.841	20.011	18.247	0.537
832.000	488.271	80.004	19.995	103.838	20.017	17.877	0.495
832.500	488.558	80.004	19.994	103.833	20.018	17.761	0.506
833.000	488.816	80.004	19.994	103.832	20.023	17.442	0.537
833.500	489.124	80.005	19.997	103.832	20.025	17.266	0.555
834.000	489.420	80.005	19.996	103.837	20.029	16.985	0.585
834.500	489.689	80.004	19.996	103.842	20.033	16.707	0.585
835.000	489.923	80.005	19.997	103.849	20.040	16.263	0.534
835.500	490.216	80.004	19.996	103.851	20.041	16.157	0.515
836.000	490.410	80.005	19.996	103.857	20.044	15.939	0.507
836.500	490.667	80.005	19.995	103.855	20.048	15.678	0.469
837.000	490.940	80.005	19.995	103.849	20.048	15.680	0.491
837.500	491.193	80.005	19.994	103.847	20.057	15.061	0.528
838.000	491.453	80.006	19.994	103.851	20.059	14.955	0.520
838.500	491.713	80.005	19.995	103.844	20.064	14.628	0.517
839.000	491.973	80.005	19.995	103.840	20.067	14.387	0.520
839.500	492.266	80.006	19.996	103.845	20.068	14.291	0.536
840.000	492.491	80.006	19.994	103.845	20.071	14.098	0.535
840.500	492.770	80.006	19.993	103.843	20.071	14.090	0.511
841.000	493.022	80.006	19.994	103.849	20.084	13.234	0.517
841.500	493.270	80.005	19.994	103.855	20.080	13.480	0.516
842.000	493.553	80.005	19.993	103.857	20.086	13.067	0.516
842.500	493.823	80.006	19.993	103.860	20.090	12.777	0.542
843.000	494.086	80.008	19.995	103.863	20.091	12.691	0.543
843.500	494.361	80.005	19.994	103.865	20.094	12.540	0.536
844.000	494.627	80.007	19.994	103.866	20.096	12.348	0.540
844.500	494.897	80.006	19.993	103.866	20.097	12.284	0.539
845.000	495.162	80.007	19.992	103.866	20.101	12.038	0.535
845.500	495.445	80.008	19.993	103.852	20.101	12.055	0.541
846.000	495.670	80.007	19.994	103.825	20.108	11.565	0.528
846.500	495.906	80.007	19.993	103.815	20.113	11.183	0.485
847.000	496.185	80.005	19.993	103.810	20.111	11.308	0.488
847.500	496.433	80.007	19.993	103.810	20.116	10.986	0.521
848.000	496.723	80.006	19.994	103.824	20.119	10.757	0.533
848.500	496.961	80.006	19.993	103.874	20.117	10.948	0.533
849.000	497.218	80.008	19.993	103.902	20.122	10.556	0.512
849.500	497.500	80.006	19.992	103.907	20.123	10.478	0.517
850.000	497.761	80.006	19.992	103.907	20.124	10.432	0.540
850.500	498.006	80.005	19.994	103.906	20.129	10.106	0.524
851.000	498.300	80.007	19.993	103.882	20.127	10.242	0.523
851.500	498.549	80.005	19.994	103.863	20.129	10.070	0.541
852.000	498.835	80.007	19.993	103.861	20.134	9.716	0.539
852.500	499.064	80.005	19.993	103.861	20.134	9.766	0.525
853.000	499.328	80.005	19.993	103.859	20.136	9.627	0.504
853.500	499.626	80.005	19.992	103.857	20.139	9.379	0.527
854.000	499.826	80.005	19.994	103.857	20.141	9.239	0.530
854.500	500.096	80.006	19.994	103.857	20.143	9.110	0.484
855.000	500.404	80.005	19.993	103.855	20.148	8.797	0.524
855.500	500.628	80.005	19.994	103.853	20.149	8.698	0.555
856.000	500.908	80.005	19.993	103.855	20.154	8.378	0.517
856.500	501.192	80.004	19.994	103.855	20.155	8.295	0.534
857.000	501.445	80.004	19.994	103.854	20.153	8.420	0.551
857.501	501.685	80.005	19.995	103.859	20.152	8.508	0.515
858.001	501.952	80.006	19.993	103.861	20.157	8.162	0.500
858.500	502.203	80.004	19.993	103.862	20.159	7.996	0.512
859.000	502.475	80.004	19.994	103.863	20.160	7.944	0.521
859.500	502.688	80.004	19.993	103.863	20.163	7.713	0.504
860.000	502.978	80.003	19.994	103.859	20.162	7.820	0.494
860.500	503.247	80.005	19.995	103.855	20.167	7.466	0.531
861.000	503.502	80.005	19.993	103.850	20.168	7.417	0.542
861.500	503.758	80.005	19.993	103.850	20.172	7.131	0.517
862.000	504.039	80.005	19.994	103.846	20.168	7.377	0.524
862.500	504.222	80.005	19.993	103.848	20.170	7.270	0.500
863.000	504.539	80.004	19.994	103.851	20.171	7.186	0.482
863.500	504.757	80.005	19.995	103.854	20.168	7.390	0.518
864.000	505.029	80.005	19.994	103.850	20.174	6.958	0.513
864.500	505.290	80.005	19.994	103.848	20.176	6.811	0.512
865.000	505.538	80.003	19.992	103.846	20.174	6.951	0.521
865.500	505.788	80.006	19.994	103.841	20.175	6.913	0.503
866.000	506.037	80.004	19.993	103.836	20.178	6.705	0.498
866.500	506.310	80.004	19.995	103.834	20.179	6.654	0.510
867.000	506.574	80.005	19.994	103.833	20.178	6.712	0.530
867.500	506.844	80.004	19.994	103.833	20.180	6.587	0.536
868.000	507.095	80.005	19.994	103.838	20.182	6.386	0.528
868.500	507.362	80.005	19.994	103.845	20.185	6.235	0.519
869.000	507.630	80.005	19.994	103.847	20.185	6.207	0.526
869.500	507.869	80.006	19.993	103.853	20.184	6.275	0.521
870.000	508.193	80.004	19.995	103.851	20.187	6.047	0.535
870.500	508.456	80.005	19.994	103.844	20.187	6.091	0.576
871.000	508.646	80.004	19.993	103.836	20.189	5.957	0.520
871.500	508.902	80.006	19.994	103.837	20.191	5.822	0.450
872.000	509.208	80.005	19.994	103.839	20.190	5.837	0.504
872.500	509.429	80.005	19.993	103.839	20.194	5.618	0.544
873.000	509.711	80.005	19.993	103.840	20.195	5.506	0.515
873.500	509.975	80.004	19.993	103.841	20.194	5.582	0.525
874.000	510.161	80.005	19.993	103.838	20.196	5.423	0.498
874.500	510.467	80.005	19.994	103.832	20.196	5.438	0.471
875.000	510.734	80.005	19.995	103.832	20.197	5.389	0.532
875.500	511.023	80.006	19.993	103.833	20.199	5.256	0.564
876.000	511.233	80.005	19.993	103.835	20.199	5.243	0.527
876.500	511.450	80.004	19.993	103.834	20.201	5.099	0.463
877.000	511.716	80.004	19.995	103.833	20.204	4.923	0.455
877.500	511.930	80.005	19.992	103.830	20.205	4.834	0.482
878.000	512.203	80.004	19.995	103.827	20.204	4.882	0.484
878.500	512.453	80.005	19.994	103.825	20.205	4.831	0.505
879.000	512.691	80.004	19.994	103.825	20.214	4.204	0.505
879.500	512.954	80.005	19.994	103.825	20.206	4.774	0.494
880.000	513.202	80.005	19.993	103.825	20.207	4.709	0.506
880.500	513.481	80.005	19.993	103.824	20.210	4.458	0.519
881.000	513.748	80.004	19.994	103.824	20.208	4.620	0.537
881.500	514.004	80.004	19.993	103.824	20.209	4.542	0.535
882.000	514.266	80.004	19.994	103.824	20.210	4.489	0.521
882.500	514.537	80.004	19.993	103.824	20.209	4.520	0.526
883.000	514.806	80.005	19.993	103.825	20.213	4.278	0.537
883.500	515.043	80.003	19.993	103.825	20.212	4.334	0.523
884.000	515.291	80.003	19.993	103.825	20.214	4.172	0.495
884.500	515.552	80.004	19.994	103.825	20.217	4.017	0.497
885.000	515.827	80.003	19.994	103.825	20.217	3.975	0.523
885.500	516.058	80.003	19.992	103.826	20.215	4.143	0.521
886.000	516.304	80.004	19.994	103.827	20.217	4.013	0.492
886.500	516.559	80.003	19.992	103.827	20.220	3.782	0.489
887.000	516.840	80.004	19.994	103.828	20.218	3.897	0.518
887.500	517.113	80.004	19.993	103.828	20.218	3.910	0.545
888.000	517.372	80.003	19.993	103.828	20.215	4.104	0.543
888.500	517.601	80.003	19.994	103.828	20.223	3.557	0.510
889.000	517.859	80.004	19.993	103.827	20.220	3.799	0.487
889.500	518.125	80.004	19.993	103.827	20.221	3.689	0.505
890.000	518.373	80.004	19.994	103.826	20.225	3.454	0.519
890.500	518.637	80.003	19.994	103.826	20.225	3.433	0.513
891.000	518.920	80.003	19.993	103.826	20.225	3.458	0.529
891.500	519.167	80.005	19.994	103.826	20.224	3.518	0.539
892.000	519.374	80.003	19.994	103.823	20.229	3.166	0.492
892.500	519.696	80.004	19.994	103.819	20.228	3.246	0.492
893.000	520.013	80.004	19.995	103.818	20.229	3.155	0.584
893.500	520.149	80.005	19.997	103.818	20.231	3.013	0.546
894.000	520.453	80.004	19.995	103.820	20.227	3.289	0.446
894.500	520.691	80.005	19.995	103.823	20.228	3.219	0.491
895.000	520.936	80.006	19.995	103.828	20.224	3.478	0.513
895.500	521.192	80.006	19.993	103.828	20.229	3.195	0.492
896.000	521.452	80.005	19.994	103.827	20.231	3.026	0.508
896.500	521.675	80.006	19.995	103.824	20.228	3.240	0.499
897.000	521.922	80.005	19.994	103.824	20.227	3.291	0.476
897.500	522.201	80.005	19.994	103.823	20.230	3.064	0.498
898.000	522.445	80.006	19.994	103.823	20.231	3.022	0.525
898.500	522.684	80.005	19.994	103.823	20.228	3.208	0.503
899.000	522.942	80.005	19.995	103.825	20.233	2.888	0.490
899.500	523.185	80.005	19.994	103.825	20.234	2.848	0.499
900.001	523.452	80.006	19.994	103.825	20.233	2.865	0.505
900.501	523.721	80.005	19.995	103.826	20.235	2.718	0.523
901.000	523.943	80.005	19.995	103.824	20.234	2.810	0.514
901.500	524.214	80.005	19.994	103.819	20.232	2.932	0.492
902.000	524.458	80.005	19.994	103.813	20.234	2.801	0.504
902.500	524.697	80.005	19.995	103.809	20.234	2.843	0.499
903.000	524.973	80.006	19.994	103.807	20.233	2.924	0.499
903.500	525.247	80.005	19.994	103.807	20.237	2.616	0.532
904.000	525.507	80.005	19.994	103.809	20.237	2.625	0.541
904.500	525.746	80.005	19.993	103.812	20.231	3.019	0.517
905.000	525.995	80.006	19.993	103.813	20.237	2.642	0.494
905.500	526.239	80.004	19.993	103.811	20.237	2.601	0.491
906.000	526.477	80.004	19.993	103.808	20.236	2.665	0.488
906.500	526.726	80.006	19.994	103.808	20.237	2.591	0.484
907.000	526.977	80.005	19.992	103.808	20.238	2.517	0.493
907.500	527.251	80.006	19.993	103.808	20.236	2.657	0.513
908.000	527.504	80.004	19.993	103.808	20.239	2.476	0.526
908.500	527.731	80.004	19.994	103.807	20.239	2.483	0.503
909.000	527.982	80.004	19.995	103.809	20.240	2.419	0.479
909.500	528.224	80.004	19.994	103.809	20.236	2.699	0.486
910.000	528.450	80.005	19.992	103.807	20.240	2.411	0.481
910.500	528.752	80.004	19.994	103.808	20.239	2.441	0.498
911.000	528.975	80.004	19.993	103.808	20.238	2.576	0.527
911.500	529.232	80.005	19.996	103.808	20.240	2.373	0.502
912.001	529.501	80.004	19.993	103.805	20.236	2.653	0.502
912.501	529.728	80.005	19.994	103.811	20.239	2.441	0.511
913.001	529.978	80.005	19.993	103.813	20.240	2.407	0.487
913.500	530.254	80.004	19.994	103.817	20.239	2.451	0.502
914.000	530.493	80.004	19.995	103.819	20.242	2.301	0.520
914.500	530.740	80.006	19.996	103.823	20.239	2.489	0.500
915.000	531.031	80.004	19.993	103.823	20.245	2.050	0.512
915.500	531.293	80.006	19.996	103.823	20.242	2.233	0.546
916.000	531.550	80.005	19.995	103.823	20.243	2.214	0.536
916.500	531.760	80.004	19.994	103.824	20.242	2.241	0.493
917.000	532.061	80.004	19.996	103.824	20.244	2.133	0.489
917.500	532.279	80.006	19.994	103.823	20.243	2.216	0.515
918.000	532.593	80.005	19.995	103.824	20.240	2.381	0.525
918.500	532.823	80.006	19.995	103.823	20.242	2.296	0.538
919.000	533.091	80.006	19.994	103.823	20.242	2.235	0.521
919.500	533.357	80.005	19.995	103.823	20.240	2.386	0.516
920.000	533.615	80.007	19.996	103.823	20.241	2.358	0.529
920.500	533.906	80.007	19.995	103.822	20.244	2.125	0.536
921.000	534.164	80.005	19.994	103.818	20.242	2.265	0.549
921.500	534.398	80.006	19.993	103.813	20.241	2.326	0.521
922.000	534.710	80.006	19.994	103.812	20.244	2.131	0.519
922.500	534.973	80.006	19.994	103.809	20.244	2.163	0.560
923.000	535.201	80.007	19.995	103.806	20.244	2.120	0.533
923.500	535.449	80.005	19.994	103.808	20.245	2.038	0.483
924.000	535.780	80.004	19.994	103.811	20.243	2.178	0.528
924.500	536.045	80.006	19.994	103.810	20.243	2.203	0.588
925.000	536.304	80.007	19.994	103.813	20.245	2.038	0.560
925.500	536.570	80.006	19.994	103.816	20.246	1.957	0.525
926.000	536.840	80.006	19.996	103.818	20.245	2.086	0.531
926.500	537.105	80.007	19.994	103.819	20.244	2.158	0.536
927.000	537.383	80.006	19.994	103.820	20.247	1.936	0.539
927.500	537.657	80.007	19.996	103.819	20.245	2.036	0.548
928.000	537.911	80.005	19.995	103.813	20.245	2.061	0.540
928.500	538.198	80.005	19.994	103.809	20.246	1.993	0.534
929.001	538.467	80.006	19.995	103.806	20.246	2.017	0.548
929.501	538.736	80.004	19.995	103.807	20.246	1.979	0.547
930.000	539.044	80.005	19.993	103.808	20.246	1.997	0.558
930.500	539.330	80.006	19.996	103.806	20.247	1.936	0.585
931.000	539.607	80.005	19.994	103.806	20.246	1.987	0.579
931.500	539.841	80.004	19.994	103.807	20.247	1.900	0.537
932.000	540.109	80.005	19.994	103.805	20.247	1.917	0.506
932.500	540.413	80.005	19.993	103.806	20.245	2.029	0.537
933.000	540.688	80.004	19.995	103.814	20.245	2.040	0.576
933.500	540.906	80.005	19.995	103.815	20.249	1.783	0.536
934.000	541.235	80.004	19.994	103.815	20.246	1.989	0.519
934.500	541.472	80.005	19.994	103.816	20.246	1.983	0.557
935.000	541.713	80.004	19.994	103.811	20.245	2.031	0.522
935.500	542.019	80.004	19.995	103.809	20.252	1.595	0.512
936.000	542.349	80.004	19.994	103.811	20.250	1.703	0.591
936.500	542.616	80.004	19.994	103.809	20.250	1.732	0.616
937.000	542.866	80.006	19.993	103.810	20.247	1.955	0.557
937.500	543.115	80.004	19.993	103.815	20.248	1.874	0.508
938.001	543.397	80.004	19.994	103.817	20.248	1.851	0.515
938.501	543.670	80.005	19.993	103.813	20.247	1.923	0.543
939.000	543.938	80.004	19.993	103.810	20.248	1.832	0.548
939.500	544.252	80.005	19.993	103.807	20.246	1.963	0.562
940.000	544.447	80.004	19.993	103.806	20.250	1.724	0.546
940.500	544.823	80.004	19.993	103.802	20.246	2.015	0.540
941.000	545.065	80.005	19.993	103.807	20.245	2.063	0.594
941.500	545.318	80.005	19.994	103.809	20.245	2.055	0.556
942.000	545.642	80.005	19.994	103.805	20.245	2.078	0.536
942.500	545.901	80.003	19.993	103.801	20.244	2.098	0.580
943.000	546.186	80.005	19.992	103.802	20.246	1.983	0.564
943.500	546.451	80.005	19.994	103.799	20.246	2.017	0.547
944.000	546.765	80.004	19.992	103.798	20.246	1.963	0.565
944.500	547.049	80.006	19.993	103.800	20.249	1.762	0.588
945.000	547.311	80.004	19.993	103.803	20.245	2.038	0.572
945.500	547.631	80.004	19.994	103.802	20.251	1.662	0.564
946.000	547.881	80.004	19.995	103.800	20.248	1.849	0.576
946.500	548.156	80.004	19.993	103.798	20.250	1.741	0.548
947.000	548.452	80.006	19.993	103.802	20.249	1.800	0.548
947.500	548.694	80.005	19.994	103.804	20.248	1.841	0.554
948.000	549.004	80.003	19.993	103.806	20.252	1.603	0.545
948.500	549.297	80.005	19.994	103.810	20.249	1.769	0.578
949.000	549.544	80.004	19.992	103.816	20.249	1.800	0.572
949.500	549.844	80.005	19.993	103.815	20.250	1.743	0.543
950.000	550.124	80.005	19.994	103.813	20.248	1.872	0.563
950.500	550.403	80.005	19.993	103.811	20.250	1.705	0.570
951.000	550.665	80.005	19.993	103.808	20.250	1.709	0.550
951.500	550.964	80.006	19.994	103.803	20.250	1.692	0.551
952.000	551.230	80.005	19.994	103.798	20.247	1.891	0.563
952.500	551.494	80.004	19.993	103.795	20.250	1.737	0.547
953.000	551.779	80.003	19.993	103.793	20.248	1.830	0.540
953.500	552.050	80.005	19.996	103.792	20.247	1.900	0.553
954.000	552.297	80.004	19.995	103.797	20.248	1.822	0.537
954.500	552.599	80.004	19.997	103.802	20.250	1.692	0.533
955.000	552.848	80.004	19.995	103.809	20.250	1.701	0.550
955.500	553.105	80.004	19.993	103.812	20.248	1.845	0.529
956.000	553.440	80.003	19.995	103.814	20.249	1.788	0.549
956.500	553.689	80.004	19.995	103.813	20.250	1.718	0.588
957.000	554.022	80.004	19.994	103.811	20.250	1.720	0.583
957.500	554.283	80.004	19.994	103.808	20.250	1.737	0.588
958.000	554.580	80.004	19.994	103.805	20.250	1.720	0.576
958.500	554.850	80.004	19.994	103.804	20.247	1.940	0.563
959.000	555.111	80.003	19.993	103.800	20.247	1.890	0.549
959.500	555.370	80.003	19.994	103.801	20.249	1.813	0.526
960.000	555.670	80.004	19.994	103.800	20.252	1.540	0.540
960.500	555.949	80.004	19.994	103.802	20.249	1.773	0.569
961.000	556.217	80.005	19.994	103.809	20.250	1.730	0.563
961.500	556.495	80.004	19.992	103.813	20.250	1.734	0.546
962.000	556.749	80.004	19.994	103.813	20.246	1.991	0.539
962.500	557.023	80.002	19.994	103.815	20.249	1.775	0.530
963.000	557.302	80.003	19.995	103.817	20.251	1.666	0.541
963.500	557.574	80.003	19.993	103.815	20.249	1.806	0.552
964.000	557.819	80.004	19.995	103.811	20.251	1.652	0.534
964.500	558.098	80.003	19.993	103.807	20.251	1.675	0.521
965.000	558.355	80.003	19.993	103.802	20.251	1.667	0.530
965.500	558.700	80.004	19.994	103.799	20.252	1.578	0.569
966.000	558.909	80.003	19.994	103.799	20.252	1.584	0.578
966.500	559.198	80.003	19.993	103.797	20.251	1.637	0.526
967.000	559.439	80.002	19.993	103.798	20.253	1.493	0.514
967.500	559.742	80.004	19.992	103.800	20.250	1.730	0.538
968.000	560.039	80.004	19.993	103.801	20.250	1.703	0.572
968.500	560.296	80.003	19.993	103.798	20.252	1.605	0.577
969.000	560.553	80.003	19.992	103.799	20.254	1.410	0.534
969.500	560.833	80.004	19.993	103.801	20.250	1.711	0.526
970.000	561.059	80.003	19.992	103.800	20.248	1.857	0.521
970.500	561.361	80.003	19.993	103.802	20.248	1.864	0.517
971.000	561.615	80.004	19.994	103.805	20.248	1.823	0.542
971.500	561.870	80.004	19.994	103.809	20.248	1.827	0.532
972.000	562.180	80.005	19.993	103.814	20.249	1.808	0.536
972.500	562.426	80.005	19.993	103.819	20.248	1.872	0.560
973.000	562.702	80.004	19.993	103.820	20.247	1.898	0.539
973.500	562.971	80.005	19.994	103.819	20.248	1.832	0.534
974.000	563.234	80.005	19.992	103.818	20.251	1.624	0.538
974.500	563.471	80.006	19.993	103.816	20.249	1.811	0.516
975.000	563.774	80.005	19.994	103.814	20.249	1.794	0.520
975.500	564.019	80.005	19.992	103.814	20.248	1.826	0.544
976.000	564.285	80.007	19.993	103.817	20.252	1.550	0.530
976.500	564.563	80.005	19.994	103.816	20.249	1.785	0.527
977.000	564.819	80.008	19.993	103.816	20.250	1.683	0.538
977.500	565.114	80.006	19.994	103.817	20.250	1.705	0.542
978.000	565.407	80.006	19.995	103.817	20.250	1.692	0.570
978.500	565.620	80.006	19.994	103.816	20.251	1.671	0.547
979.000	565.903	80.005	19.993	103.818	20.251	1.644	0.501
979.500	566.192	80.005	19.993	103.817	20.253	1.508	0.534
980.000	566.406	80.006	19.994	103.817	20.251	1.626	0.538
980.500	566.703	80.007	19.994	103.819	20.249	1.769	0.507
981.000	566.976	80.006	19.993	103.821	20.249	1.784	0.541
981.500	567.219	80.007	19.994	103.822	20.249	1.809	0.543
982.000	567.475	80.005	19.993	103.822	20.251	1.628	0.507
982.500	567.768	80.006	19.993	103.822	20.251	1.656	0.524
983.000	568.029	80.006	19.994	103.823	20.253	1.514	0.551
983.500	568.300	80.006	19.995	103.822	20.254	1.412	0.543
984.000	568.550	80.005	19.995	103.821	20.252	1.588	0.526
984.500	568.822	80.005	19.994	103.818	20.250	1.686	0.521
985.000	569.074	80.006	19.994	103.810	20.247	1.904	0.523
985.500	569.354	80.005	19.994	103.805	20.250	1.743	0.528
986.000	569.638	80.005	19.993	103.803	20.250	1.713	0.548
986.500	569.860	80.004	19.995	103.803	20.251	1.646	0.535
987.000	570.147	80.004	19.993	103.808	20.252	1.565	0.507
987.500	570.441	80.005	19.994	103.814	20.250	1.743	0.545
988.000	570.689	80.005	19.995	103.812	20.247	1.915	0.562
988.500	570.977	80.005	19.994	103.807	20.248	1.841	0.539
989.000	571.185	80.004	19.996	103.805	20.250	1.698	0.516
989.500	571.442	80.004	19.995	103.802	20.251	1.643	0.480
990.000	571.707	80.005	19.995	103.796	20.249	1.792	0.493
990.500	572.028	80.004	19.994	103.796	20.248	1.849	0.554
991.000	572.276	80.006	19.994	103.798	20.249	1.781	0.578
991.500	572.531	80.005	19.994	103.796	20.249	1.766	0.536
992.000	572.790	80.004	19.994	103.794	20.250	1.737	0.509
992.500	573.073	80.006	19.994	103.800	20.251	1.652	0.528
993.000	573.350	80.005	19.993	103.807	20.247	1.896	0.551
993.500	573.614	80.005	19.993	103.808	20.248	1.853	0.551
994.000	573.869	80.004	19.994	103.807	20.249	1.792	0.530
994.500	574.135	80.005	19.994	103.808	20.250	1.692	0.520
995.000	574.423	80.005	19.994	103.808	20.249	1.785	0.537
995.500	574.692	80.005	19.993	103.806	20.251	1.662	0.556
996.000	574.985	80.006	19.994	103.809	20.248	1.843	0.560
996.500	575.184	80.006	19.993	103.809	20.250	1.733	0.527
997.000	575.476	80.006	19.994	103.808	20.249	1.767	0.491
997.500	575.766	80.006	19.994	103.802	20.248	1.854	0.536
998.000	576.028	80.006	19.994	103.797	20.250	1.720	0.567
998.500	576.256	80.005	19.993	103.791	20.253	1.514	0.521
999.000	576.545	80.008	19.993	103.793	20.253	1.533	0.503
999.500	576.805	80.007	19.993	103.798	20.250	1.726	0.533
1000.000	577.042	80.008	19.994	103.803	20.250	1.684	0.523
1000.500	577.319	80.007	19.994	103.806	20.253	1.506	0.506
1001.000	577.609	80.007	19.995	103.810	20.248	1.824	0.541
1001.500	577.853	80.007	19.993	103.814	20.250	1.734	0.550
1002.000	578.115	80.006	19.993	103.814	20.253	1.539	0.520
1002.500	578.402	80.007	19.993	103.814	20.251	1.630	0.527
1003.000	578.676	80.006	19.994	103.818	20.248	1.830	0.555
1003.500	578.885	80.007	19.994	103.820	20.250	1.738	0.522
1004.001	579.186	80.007	19.993	103.816	20.252	1.550	0.496
1004.500	579.436	80.007	19.993	103.815	20.253	1.527	0.531
1005.000	579.688	80.008	19.994	103.817	20.247	1.955	0.526
1005.500	579.968	80.007	19.995	103.816	20.247	1.887	0.517
1006.000	580.227	80.007	19.994	103.811	20.245	2.091	0.536
1006.500	580.518	80.006	19.993	103.808	20.250	1.682	0.544
1007.000	580.756	80.006	19.994	103.802	20.252	1.586	0.539
1007.500	580.997	80.007	19.995	103.794	20.252	1.542	0.504
1008.000	581.282	80.006	19.995	103.791	20.252	1.571	0.503
1008.500	581.545	80.005	19.995	103.791	20.253	1.508	0.537
1009.000	581.832	80.005	19.996	103.794	20.251	1.628	0.549
1009.500	582.075	80.006	19.995	103.795	20.252	1.559	0.540
1010.000	582.364	80.005	19.994	103.797	20.251	1.669	0.531
1010.500	582.601	80.004	19.995	103.797	20.251	1.618	0.529
1011.000	582.861	80.004	19.995	103.800	20.250	1.682	0.511
1011.500	583.137	80.004	19.995	103.802	20.252	1.607	0.516
1012.000	583.413	80.004	19.995	103.806	20.252	1.557	0.544
1012.500	583.696	80.003	19.994	103.812	20.252	1.559	0.556
1013.000	583.957	80.003	19.996	103.818	20.249	1.783	0.552
1013.500	584.193	80.004	20.000	103.821	20.250	1.735	0.520
1014.000	584.464	80.005	19.997	103.825	20.253	1.501	0.502
1014.500	584.696	80.002	19.997	103.828	20.251	1.622	0.505
1015.000	584.968	80.004	19.997	103.823	20.253	1.518	0.503
1015.500	585.208	80.002	19.996	103.819	20.250	1.692	0.508
1016.000	585.497	80.003	19.998	103.814	20.252	1.597	0.521
1016.500	585.714	80.003	19.996	103.806	20.254	1.421	0.518
1017.001	585.980	80.003	19.996	103.802	20.251	1.648	0.494
1017.501	586.269	80.003	19.996	103.799	20.250	1.695	0.519
1018.000	586.526	80.003	19.996	103.799	20.255	1.368	0.551
1018.500	586.774	80.004	19.996	103.800	20.249	1.760	0.526
1019.000	587.027	80.003	19.996	103.805	20.251	1.675	0.503
1019.500	587.309	80.003	19.997	103.804	20.251	1.627	0.518
1020.000	587.567	80.004	19.996	103.807	20.255	1.368	0.538
1020.500	587.812	80.003	19.996	103.808	20.249	1.756	0.522
1021.000	588.063	80.003	19.995	103.804	20.249	1.773	0.499
1021.500	588.340	80.004	19.995	103.802	20.251	1.618	0.511
1022.000	588.566	80.003	19.996	103.805	20.252	1.544	0.515
1022.500	588.840	80.003	19.996	103.805	20.256	1.302	0.502
1023.001	589.090	80.004	19.994	103.801	20.252	1.550	0.512
1023.500	589.327	80.004	19.995	103.801	20.254	1.442	0.505
1024.000	589.586	80.003	19.994	103.797	20.254	1.451	0.492
1024.500	589.856	80.004	19.995	103.794	20.253	1.472	0.513
1025.000	590.113	80.004	19.994	103.791	20.251	1.671	0.528
1025.500	590.392	80.004	19.994	103.791	20.253	1.493	0.531
1026.000	590.648	80.003	19.993	103.791	20.254	1.427	0.535
1026.500	590.866	80.003	19.994	103.791	20.254	1.444	0.505
1027.000	591.158	80.004	19.994	103.790	20.254	1.463	0.493
1027.500	591.370	80.005	19.994	103.792	20.254	1.470	0.507
1028.000	591.647	80.003	19.994	103.794	20.252	1.561	0.496
1028.500	591.912	80.005	19.994	103.793	20.253	1.485	0.515
1029.000	592.183	80.004	19.995	103.795	20.254	1.448	0.539
1029.500	592.426	80.004	19.994	103.796	20.253	1.476	0.525
1030.000	592.688	80.004	19.992	103.794	20.253	1.483	0.510
1030.500	592.954	80.005	19.994	103.792	20.255	1.396	0.517
1031.000	593.213	80.005	19.993	103.792	20.255	1.349	0.526
1031.500	593.468	80.003	19.994	103.791	20.255	1.396	0.519
1032.000	593.719	80.004	19.993	103.794	20.252	1.582	0.510
1032.500	593.978	80.005	19.994	103.800	20.252	1.561	0.508
1033.001	594.258	80.004	19.992	103.806	20.252	1.582	0.525
1033.501	594.496	80.005	19.994	103.808	20.253	1.529	0.529
1034.000	594.798	80.003	19.994	103.810	20.252	1.557	0.529
1034.501	595.030	80.005	19.992	103.806	20.258	1.160	0.537
1035.001	595.293	80.003	19.993	103.799	20.255	1.357	0.515
1035.500	595.561	80.004	19.994	103.794	20.255	1.376	0.513
1036.001	595.824	80.005	19.993	103.793	20.257	1.254	0.531
1036.501	596.072	80.004	19.993	103.790	20.253	1.474	0.521
1037.000	596.332	80.003	19.994	103.790	20.256	1.292	0.509
1037.500	596.605	80.005	19.994	103.791	20.256	1.317	0.520
1038.000	596.845	80.004	19.994	103.792	20.256	1.311	0.523
1038.500	597.090	80.004	19.995	103.791	20.256	1.313	0.499
1039.000	597.333	80.004	19.995	103.791	20.254	1.457	0.487
1039.500	597.589	80.005	19.995	103.790	20.257	1.196	0.493
1040.000	597.870	80.004	19.995	103.789	20.257	1.236	0.517
1040.500	598.121	80.004	19.994	103.787	20.255	1.340	0.535
1041.000	598.371	80.004	19.994	103.789	20.253	1.527	0.517
1041.500	598.597	80.004	19.994	103.789	20.255	1.374	0.488
1042.000	598.863	80.003	19.993	103.788	20.259	1.088	0.484
1042.500	599.095	80.004	19.995	103.789	20.256	1.328	0.495
1043.000	599.363	80.003	19.995	103.789	20.256	1.319	0.499
1043.500	599.564	80.003	19.994	103.787	20.259	1.103	0.484
1044.000	599.837	80.003	19.995	103.787	20.262	0.893	0.471
1044.500	600.097	80.004	19.995	103.787	20.261	0.965	0.504
1045.000	600.312	80.004	19.994	103.787	20.260	1.033	0.504
1045.500	600.579	80.003	19.995	103.787	20.257	1.198	0.479
1046.000	600.830	80.003	19.995	103.787	20.260	1.009	0.500
1046.500	601.058	80.004	19.993	103.787	20.258	1.162	0.498
1047.000	601.321	80.003	19.995	103.787	20.261	0.918	0.485
1047.500	601.541	80.003	19.996	103.787	20.261	0.978	0.487
1048.000	601.790	80.003	19.994	103.787	20.258	1.173	0.476
1048.500	602.040	80.004	19.994	103.786	20.257	1.205	0.484
1049.000	602.258	80.005	19.994	103.785	20.255	1.396	0.483
1049.500	602.509	80.005	19.994	103.785	20.258	1.192	0.469
1050.000	602.769	80.004	19.994	103.785	20.258	1.164	0.490
1050.501	602.979	80.005	19.994	103.786	20.256	1.304	0.490
1051.001	603.249	80.005	19.994	103.786	20.257	1.256	0.475
1051.500	603.479	80.005	19.993	103.788	20.258	1.148	0.490
1052.000	603.710	80.005	19.993	103.787	20.258	1.186	0.481
1052.500	603.945	80.006	19.994	103.787	20.253	1.478	0.463
1053.000	604.167	80.005	19.994	103.786	20.257	1.215	0.461
1053.500	604.449	80.005	19.993	103.786	20.258	1.188	0.481
1054.000	604.680	80.005	19.993	103.786	20.259	1.071	0.508
1054.500	604.947	80.006	19.992	103.785	20.256	1.281	0.506
1055.000	605.108	80.005	19.994	103.788	20.258	1.175	0.463
1055.500	605.347	80.006	19.992	103.788	20.256	1.326	0.413
1056.000	605.606	80.006	19.993	103.788	20.257	1.217	0.449
1056.500	605.824	80.005	19.993	103.788	20.261	0.967	0.488
1057.000	606.071	80.006	19.993	103.788	20.257	1.209	0.471
1057.500	606.338	80.006	19.994	103.785	20.257	1.224	0.490
1058.000	606.564	80.008	19.993	103.785	20.258	1.169	0.504
1058.500	606.798	80.005	19.994	103.785	20.259	1.069	0.476
1059.000	607.047	80.006	19.993	103.785	20.258	1.188	0.471
1059.500	607.253	80.007	19.995	103.785	20.259	1.109	0.469
1060.000	607.494	80.007	19.993	103.785	20.260	1.044	0.451
1060.500	607.737	80.007	19.993	103.785	20.257	1.219	0.465
1061.000	607.950	80.007	19.994	103.785	20.261	0.986	0.470
1061.500	608.193	80.005	19.994	103.785	20.259	1.088	0.456
1062.000	608.397	80.006	19.994	103.785	20.261	0.942	0.452
1062.500	608.626	80.007	19.995	103.785	20.258	1.162	0.440
1063.000	608.842	80.006	19.992	103.785	20.258	1.171	0.439
1063.500	609.067	80.007	19.993	103.784	20.260	1.012	0.443
1064.000	609.294	80.008	19.993	103.784	20.261	0.980	0.447
1064.500	609.504	80.006	19.994	103.784	20.258	1.160	0.445
1065.000	609.749	80.006	19.994	103.785	20.258	1.156	0.446
1065.501	609.995	80.004	19.993	103.787	20.262	0.908	0.472
1066.001	610.202	80.005	19.993	103.789	20.263	0.810	0.472
1066.501	610.442	80.005	19.994	103.789	20.263	0.838	0.450
1067.001	610.668	80.007	19.994	103.789	20.260	1.022	0.457
1067.500	610.924	80.005	19.993	103.788	20.261	0.961	0.474
1068.000	611.095	80.006	19.994	103.787	20.259	1.124	0.454
1068.500	611.342	80.005	19.993	103.786	20.262	0.870	0.422
1069.000	611.574	80.006	19.993	103.786	20.262	0.857	0.448
1069.500	611.817	80.004	19.994	103.787	20.261	0.967	0.477
1070.000	612.040	80.006	19.993	103.788	20.259	1.101	0.471
1070.500	612.294	80.005	19.994	103.788	20.259	1.058	0.472
1071.000	612.540	80.006	19.993	103.788	20.261	0.982	0.488
1071.500	612.756	80.005	19.993	103.788	20.258	1.190	0.481
1072.001	613.031	80.005	19.994	103.787	20.258	1.175	0.477
1072.501	613.244	80.004	19.993	103.788	20.263	0.816	0.490
1073.001	613.491	80.004	19.993	103.789	20.261	0.986	0.474
1073.501	613.693	80.005	19.996	103.789	20.258	1.179	0.455
1074.000	613.967	80.006	19.995	103.793	20.260	1.007	0.462
1074.500	614.198	80.006	19.996	103.797	20.261	0.957	0.491
1075.000	614.415	80.004	19.993	103.797	20.260	1.048	0.477
1075.500	614.677	80.005	19.995	103.796	20.258	1.188	0.463
1076.000	614.928	80.005	19.994	103.796	20.259	1.092	0.496
1076.500	615.165	80.004	19.994	103.792	20.262	0.904	0.501
1077.000	615.403	80.005	19.995	103.788	20.260	0.995	0.482
1077.500	615.644	80.005	19.994	103.787	20.261	0.948	0.477
1078.001	615.872	80.006	19.994	103.787	20.260	0.995	0.474
1078.501	616.149	80.005	19.994	103.787	20.259	1.082	0.487
1079.000	616.405	80.006	19.994	103.786	20.259	1.065	0.519
1079.500	616.614	80.006	19.995	103.786	20.254	1.449	0.499
1080.000	616.885	80.006	19.994	103.786	20.256	1.273	0.473
1080.500	617.124	80.006	19.994	103.785	20.258	1.179	0.495
1081.000	617.346	80.007	19.994	103.786	20.258	1.160	0.485
1081.500	617.581	80.006	19.995	103.787	20.258	1.128	0.459
1082.000	617.854	80.007	19.993	103.789	20.257	1.198	0.483
1082.500	618.074	80.007	19.994	103.789	20.259	1.124	0.501
1083.000	618.313	80.006	19.994	103.790	20.261	0.939	0.476
1083.500	618.572	80.007	19.993	103.791	20.258	1.162	0.478
1084.001	618.813	80.006	19.994	103.792	20.260	0.993	0.499
1084.501	619.044	80.006	19.994	103.791	20.256	1.285	0.487
1085.000	619.304	80.006	19.993	103.790	20.257	1.222	0.482
1085.500	619.534	80.007	19.994	103.789	20.256	1.281	0.490
1086.001	619.810	80.005	19.994	103.787	20.259	1.065	0.498
1086.501	620.053	80.006	19.994	103.786	20.261	0.961	0.512
1087.000	620.312	80.006	19.993	103.786	20.259	1.065	0.510
1087.500	620.541	80.006	19.993	103.785	20.258	1.179	0.496
1088.001	620.784	80.005	19.993	103.785	20.261	0.973	0.480
1088.501	621.040	80.006	19.993	103.785	20.258	1.145	0.486
1089.000	621.323	80.004	19.994	103.788	20.263	0.829	0.519
1089.500	621.504	80.004	19.994	103.789	20.260	1.054	0.501
1090.000	621.766	80.005	19.993	103.790	20.260	1.041	0.453
1090.500	622.039	80.003	19.993	103.791	20.259	1.084	0.489
1091.001	622.294	80.003	19.994	103.791	20.258	1.190	0.532
1091.501	622.556	80.004	19.994	103.789	20.257	1.200	0.522
1092.000	622.799	80.004	19.994	103.788	20.259	1.067	0.511
1092.500	623.031	80.003	19.995	103.789	20.259	1.097	0.490
1093.000	623.254	80.004	19.995	103.789	20.264	0.761	0.465
1093.500	623.540	80.004	19.994	103.789	20.259	1.105	0.482
1094.000	623.758	80.003	19.994	103.789	20.260	1.050	0.507
1094.500	624.018	80.005	19.994	103.789	20.258	1.177	0.491
1095.000	624.250	80.003	19.995	103.789	20.260	1.052	0.485
1095.500	624.541	80.003	19.993	103.789	20.258	1.139	0.508
1096.000	624.739	80.003	19.994	103.788	20.260	1.007	0.505
1096.500	625.012	80.003	19.994	103.788	20.260	0.990	0.480
1097.000	625.259	80.004	19.994	103.788	20.255	1.357	0.496
1097.500	625.513	80.004	19.995	103.789	20.258	1.133	0.511
1098.000	625.764	80.003	19.995	103.789	20.261	0.986	0.503
1098.500	626.000	80.002	19.995	103.789	20.258	1.175	0.496
1099.001	626.284	80.004	19.993	103.790	20.257	1.222	0.504
1099.501	626.506	80.004	19.994	103.789	20.259	1.092	0.513
1100.000	626.759	80.004	19.994	103.789	20.257	1.241	0.490
1100.500	627.009	80.004	19.994	103.788	20.263	0.829	0.489
1101.000	627.247	80.004	19.995	103.788	20.257	1.201	0.495
1101.500	627.479	80.002	19.994	103.787	20.257	1.232	0.479
1102.000	627.744	80.004	19.995	103.787	20.259	1.103	0.484
1102.500	628.031	80.003	19.994	103.787	20.260	1.041	0.524
1103.000	628.258	80.004	19.995	103.787	20.258	1.160	0.533
1103.500	628.495	80.003	19.995	103.787	20.260	1.005	0.489
1104.000	628.747	80.004	19.994	103.787	20.259	1.084	0.476
1104.500	629.009	80.003	19.995	103.786	20.257	1.232	0.501
1105.000	629.259	80.003	19.995	103.785	20.261	0.946	0.512
1105.500	629.553	80.004	19.994	103.783	20.259	1.097	0.528
1106.000	629.780	80.004	19.995	103.782	20.259	1.096	0.533
1106.500	630.036	80.003	19.995	103.781	20.258	1.194	0.502
1107.000	630.299	80.004	19.995	103.782	20.257	1.217	0.500
1107.501	630.528	80.005	19.996	103.782	20.262	0.891	0.505
1108.001	630.771	80.004	19.995	103.782	20.262	0.914	0.482
1108.500	631.020	80.003	19.995	103.783	20.262	0.912	0.482
1109.001	631.287	80.005	19.995	103.782	20.257	1.249	0.504
1109.501	631.534	80.004	19.995	103.782	20.261	0.965	0.515
1110.000	631.816	80.004	19.995	103.781	20.259	1.088	0.522
1110.500	632.063	80.004	19.994	103.783	20.259	1.097	0.529
1111.000	632.318	80.004	19.994	103.782	20.262	0.899	0.516
1111.500	632.566	80.004	19.995	103.781	20.259	1.061	0.502
1112.001	632.826	80.004	19.996	103.782	20.261	0.965	0.505
1112.501	633.035	80.007	19.995	103.782	20.258	1.173	0.488
1113.000	633.320	80.004	19.995	103.782	20.259	1.107	0.482
1113.500	633.577	80.005	19.996	103.782	20.258	1.160	0.518
1114.000	633.858	80.005	19.996	103.783	20.260	1.044	0.540
1114.500	634.120	80.003	19.994	103.782	20.258	1.131	0.540
1115.000	634.396	80.005	19.995	103.782	20.260	0.993	0.541
1115.500	634.634	80.005	19.994	103.783	20.259	1.120	0.526
1116.000	634.929	80.005	19.994	103.783	20.257	1.241	0.523
1116.500	635.175	80.005	19.995	103.784	20.259	1.095	0.537
1117.000	635.443	80.004	19.994	103.784	20.262	0.893	0.528
1117.500	635.695	80.004	19.994	103.784	20.260	1.018	0.517
1118.000	635.940	80.004	19.993	103.784	20.260	1.048	0.508
1118.500	636.191	80.004	19.993	103.783	20.262	0.912	0.496
1119.000	636.470	80.004	19.993	103.783	20.260	1.018	0.513
1119.500	636.693	80.006	19.993	103.783	20.261	0.931	0.517
1120.000	636.966	80.004	19.994	103.783	20.259	1.107	0.499
1120.501	637.219	80.005	19.995	103.784	20.259	1.114	0.511
1121.001	637.494	80.004	19.993	103.783	20.261	0.980	0.527
1121.501	637.744	80.003	19.994	103.782	20.259	1.096	0.526
1122.000	637.963	80.004	19.994	103.782	20.259	1.067	0.497
1122.501	638.256	80.003	19.993	103.783	20.258	1.188	0.490
1123.001	638.484	80.005	19.993	103.783	20.260	1.001	0.517
1123.500	638.729	80.005	19.995	103.785	20.262	0.874	0.497
1124.000	638.985	80.004	19.994	103.785	20.260	1.018	0.487
1124.500	639.255	80.004	19.994	103.786	20.261	0.978	0.514
1125.000	639.522	80.004	19.995	103.786	20.262	0.893	0.531
1125.500	639.785	80.004	19.994	103.785	20.262	0.908	0.533
1126.000	640.018	80.003	19.994	103.782	20.264	0.770	0.513
1126.500	640.278	80.005	19.994	103.778	20.263	0.821	0.495
1127.000	640.520	80.004	19.994	103.778	20.266	0.624	0.498
1127.500	640.806	80.004	19.995	103.779	20.264	0.725	0.515
1128.000	641.040	80.004	19.994	103.780	20.264	0.736	0.524
1128.500	641.321	80.005	19.994	103.782	20.262	0.874	0.518
1129.000	641.573	80.005	19.994	103.786	20.259	1.075	0.524
1129.500	641.847	80.004	19.993	103.786	20.261	0.973	0.530
1130.000	642.081	80.005	19.993	103.786	20.262	0.868	0.517
1130.500	642.327	80.004	19.993	103.786	20.260	1.016	0.494
1131.000	642.639	80.005	19.994	103.786	20.260	1.043	0.519
1131.500	642.908	80.004	19.993	103.785	20.260	1.048	0.569
1132.000	643.157	80.005	19.993	103.785	20.260	1.052	0.550
1132.500	643.388	80.005	19.994	103.784	20.263	0.844	0.499
1133.000	643.639	80.006	19.993	103.783	20.261	0.948	0.481
1133.500	643.898	80.006	19.995	103.784	20.260	0.999	0.496
1134.000	644.182	80.005	19.994	103.784	20.261	0.918	0.526
1134.500	644.413	80.006	19.995	103.785	20.262	0.872	0.529
1135.000	644.668	80.006	19.995	103.786	20.259	1.092	0.501
1135.500	644.965	80.006	19.994	103.787	20.261	0.974	0.519
1136.000	645.201	80.006	19.994	103.787	20.260	0.993	0.542
1136.500	645.404	80.005	19.992	103.787	20.260	1.003	0.486
1137.001	645.711	80.006	19.994	103.787	20.261	0.984	0.475
1137.501	646.011	80.006	19.994	103.786	20.261	0.982	0.559
1138.000	646.236	80.007	19.993	103.786	20.264	0.747	0.566
1138.500	646.537	80.006	19.993	103.787	20.259	1.088	0.525
1139.000	646.789	80.007	19.995	103.786	20.263	0.787	0.539
1139.500	647.034	80.006	19.993	103.786	20.260	1.035	0.526
1140.000	647.320	80.005	19.993	103.785	20.260	1.012	0.514
1140.500	647.590	80.006	19.995	103.784	20.259	1.069	0.543
1141.000	647.890	80.006	19.994	103.785	20.261	0.925	0.563
1141.500	648.085	80.006	19.993	103.785	20.262	0.867	0.533
1142.000	648.436	80.006	19.995	103.785	20.263	0.821	0.520
1142.500	648.696	80.005	19.993	103.786	20.264	0.776	0.578
1143.000	648.880	80.004	19.994	103.787	20.261	0.959	0.528
1143.500	649.135	80.005	19.993	103.786	20.262	0.876	0.441
1144.000	649.411	80.005	19.993	103.784	20.263	0.793	0.485
1144.500	649.664	80.003	19.993	103.782	20.262	0.908	0.531
1145.000	649.932	80.006	19.993	103.782	20.263	0.819	0.525
1145.500	650.180	80.005	19.993	103.782	20.261	0.982	0.518
1146.000	650.477	80.003	19.994	103.783	20.262	0.912	0.530
1146.500	650.720	80.005	19.994	103.785	20.261	0.920	0.542
1147.000	651.022	80.004	19.992	103.788	20.262	0.899	0.542
1147.500	651.310	80.005	19.993	103.786	20.260	1.026	0.568
1148.000	651.548	80.006	19.993	103.780	20.262	0.910	0.558
1148.500	651.829	80.005	19.993	103.773	20.263	0.800	0.522
1149.000	652.060	80.005	19.993	103.768	20.260	1.020	0.516
1149.500	652.298	80.006	19.993	103.765	20.263	0.808	0.490
1150.000	652.563	80.005	19.993	103.766	20.262	0.910	0.486
1150.500	652.856	80.005	19.994	103.772	20.262	0.902	0.530
1151.000	653.144	80.006	19.994	103.779	20.259	1.067	0.570
1151.500	653.406	80.007	19.993	103.784	20.260	1.014	0.565
1152.000	653.674	80.005	19.993	103.788	20.262	0.908	0.540
1152.501	653.947	80.007	19.993	103.786	20.263	0.800	0.536
1153.001	654.206	80.006	19.993	103.786	20.260	1.010	0.536
1153.500	654.470	80.006	19.992	103.786	20.263	0.819	0.527
1154.001	654.739	80.005	19.993	103.785	20.263	0.842	0.528
1154.501	655.040	80.004	19.993	103.784	20.261	0.952	0.551
1155.000	655.281	80.006	19.993	103.784	20.262	0.891	0.556
1155.501	655.550	80.006	19.993	103.782	20.261	0.923	0.526
1156.001	655.791	80.005	19.993	103.781	20.259	1.118	0.510
1156.501	656.102	80.006	19.993	103.782	20.263	0.832	0.531
1157.001	656.357	80.007	19.993	103.783	20.261	0.946	0.559
1157.501	656.582	80.006	19.993	103.783	20.262	0.910	0.523
1158.001	656.910	80.006	19.992	103.786	20.262	0.891	0.517
1158.501	657.184	80.007	19.993	103.786	20.261	0.963	0.578
1159.000	657.384	80.007	19.993	103.785	20.264	0.728	0.538
1159.500	657.666	80.006	19.992	103.785	20.264	0.711	0.477
1160.000	657.903	80.006	19.994	103.783	20.263	0.783	0.500
1160.500	658.178	80.006	19.992	103.779	20.263	0.844	0.516
1161.000	658.467	80.006	19.994	103.779	20.262	0.916	0.538
1161.500	658.690	80.007	19.994	103.780	20.262	0.855	0.538
1162.000	658.973	80.005	19.992	103.780	20.263	0.846	0.509
1162.500	659.280	80.006	19.994	103.783	20.265	0.651	0.549
1163.000	659.503	80.006	19.994	103.780	20.264	0.774	0.560
1163.500	659.769	80.006	19.993	103.775	20.264	0.742	0.509
1164.000	660.040	80.006	19.993	103.767	20.264	0.753	0.513
1164.500	660.328	80.006	19.994	103.763	20.260	0.999	0.548
1165.000	660.586	80.006	19.992	103.763	20.264	0.749	0.552
1165.500	660.813	80.005	19.993	103.766	20.263	0.842	0.515
1166.000	661.122	80.005	19.993	103.769	20.261	0.957	0.510
1166.500	661.345	80.005	19.994	103.776	20.263	0.834	0.534
1167.000	661.646	80.005	19.993	103.779	20.261	0.927	0.528
1167.500	661.856	80.004	19.994	103.772	20.261	0.953	0.517
1168.000	662.135	80.005	19.995	103.774	20.257	1.197	0.500
1168.500	662.381	80.004	19.995	103.776	20.264	0.749	0.507
1169.000	662.661	80.003	19.995	103.776	20.259	1.061	0.526
1169.500	662.905	80.005	19.994	103.776	20.260	1.039	0.525
1170.000	663.174	80.004	19.994	103.775	20.265	0.675	0.519
1170.500	663.471	80.004	19.994	103.767	20.265	0.645	0.540
1171.001	663.683	80.004	19.995	103.763	20.262	0.904	0.537
1171.501	663.923	80.006	19.993	103.763	20.260	1.005	0.480
1172.000	664.216	80.004	19.993	103.764	20.265	0.700	0.492
1172.500	664.489	80.005	19.995	103.769	20.266	0.626	0.550
1173.000	664.804	80.005	19.995	103.777	20.264	0.715	0.578
1173.500	664.987	80.004	19.994	103.780	20.268	0.439	0.543
1174.000	665.238	80.005	19.995	103.781	20.256	1.269	0.466
1174.500	665.503	80.004	19.994	103.779	20.262	0.880	0.475
1175.000	665.765	80.004	19.992	103.779	20.259	1.082	0.521
1175.500	666.028	80.004	19.995	103.778	20.256	1.296	0.526
1176.000	666.302	80.004	19.994	103.777	20.264	0.745	0.531
1176.500	666.532	80.004	19.994	103.776	20.259	1.095	0.521
1177.000	666.816	80.004	19.993	103.774	20.259	1.093	0.509
1177.500	667.087	80.004	19.994	103.770	20.261	0.946	0.535
1178.000	667.291	80.005	19.994	103.765	20.261	0.978	0.514
1178.500	667.590	80.004	19.994	103.760	20.260	1.046	0.488
1179.000	667.825	80.006	19.993	103.755	20.262	0.908	0.519
1179.500	668.089	80.006	19.994	103.757	20.257	1.235	0.517
1180.000	668.298	80.005	19.993	103.760	20.260	0.999	0.486
1180.500	668.556	80.003	19.994	103.761	20.257	1.234	0.470
1181.000	668.807	80.003	19.994	103.766	20.264	0.717	0.488
1181.500	669.105	80.004	19.993	103.773	20.263	0.819	0.529
1182.000	669.342	80.003	19.994	103.774	20.261	0.976	0.543
1182.500	669.625	80.005	19.994	103.776	20.261	0.935	0.527
1183.000	669.854	80.004	19.995	103.782	20.263	0.834	0.515
1183.500	670.100	80.005	19.994	103.776	20.262	0.910	0.494
1184.000	670.378	80.005	19.994	103.772	20.263	0.781	0.500
1184.501	670.712	80.005	19.994	103.770	20.262	0.897	0.568
1185.001	670.842	80.004	19.994	103.769	20.259	1.107	0.538
1185.500	671.102	80.004	19.994	103.766	20.261	0.929	0.427
1186.000	671.441	80.004	19.995	103.766	20.264	0.728	0.494
1186.500	671.715	80.004	19.994	103.765	20.262	0.876	0.606
1187.000	671.911	80.005	19.995	103.762	20.262	0.868	0.541
1187.500	672.269	80.005	19.994	103.761	20.263	0.817	0.512
1188.000	672.357	80.004	19.994	103.764	20.263	0.834	0.500
1188.500	672.654	80.005	19.994	103.770	20.258	1.126	0.415
1189.000	672.863	80.005	19.994	103.776	20.261	0.921	0.445
1189.500	673.119	80.005	19.995	103.780	20.264	0.772	0.486
1190.000	673.447	80.005	19.995	103.784	20.262	0.897	0.524
1190.500	673.647	80.003	19.994	103.780	20.264	0.745	0.556
1191.000	673.874	80.006	19.994	103.779	20.260	1.018	0.478
1191.500	674.183	80.005	19.995	103.779	20.261	0.978	0.481
1192.000	674.434	80.005	19.995	103.777	20.260	1.044	0.548
1192.500	674.713	80.005	19.995	103.771	20.261	0.976	0.545
1193.000	674.968	80.003	19.994	103.769	20.262	0.914	0.532
1193.500	675.223	80.004	19.996	103.767	20.262	0.904	0.522
1194.000	675.488	80.002	19.997	103.767	20.260	1.025	0.516
1194.500	675.741	80.003	19.997	103.769	20.263	0.797	0.519
1195.000	676.076	80.002	19.994	103.776	20.256	1.281	0.552
1195.500	676.291	80.003	19.996	103.779	20.262	0.850	0.569
1196.001	676.462	80.005	19.995	103.780	20.263	0.829	0.468
1196.501	676.785	80.004	19.994	103.773	20.261	0.984	0.440
1197.001	676.998	80.002	19.996	103.766	20.260	1.042	0.515
1197.501	677.279	80.003	19.994	103.759	20.262	0.916	0.516
1198.001	677.539	80.002	19.995	103.755	20.261	0.969	0.518
1198.501	677.767	80.004	19.995	103.753	20.258	1.146	0.515
1199.000	678.035	80.003	19.994	103.760	20.261	0.931	0.492
1199.500	678.303	80.004	19.995	103.763	20.261	0.935	0.516
1200.001	678.559	80.003	19.995	103.770	20.260	1.039	0.530
1200.501	678.816	80.004	19.995	103.771	20.264	0.745	0.519
1201.000	679.077	80.004	19.994	103.771	20.266	0.617	0.515
1201.501	679.325	80.003	19.994	103.769	20.264	0.766	0.513
1202.001	679.542	80.003	19.994	103.770	20.262	0.912	0.487
1202.500	679.821	80.003	19.995	103.767	20.261	0.927	0.480
1203.000	680.071	80.004	19.995	103.771	20.263	0.840	0.512
1203.500	680.336	80.003	19.994	103.772	20.263	0.817	0.522
1204.000	680.582	80.002	19.994	103.776	20.260	1.020	0.513
1204.500	680.831	80.003	19.993	103.777	20.261	0.963	0.503
1205.001	681.121	80.004	19.994	103.779	20.263	0.842	0.517
1205.501	681.307	80.003	19.994	103.781	20.263	0.832	0.508
1206.000	681.583	80.005	19.994	103.782	20.262	0.885	0.469
1206.500	681.869	80.004	19.992	103.782	20.265	0.683	0.512
1207.000	682.108	80.004	19.994	103.783	20.259	1.116	0.543
1207.500	682.366	80.004	19.994	103.784	20.261	0.925	0.511
1208.000	682.626	80.004	19.994	103.780	20.264	0.768	0.507
1208.500	682.836	80.004	19.994	103.778	20.263	0.808	0.494
1209.000	683.087	80.005	19.993	103.775	20.264	0.745	0.466
1209.500	683.427	80.005	19.994	103.773	20.263	0.846	0.526
1210.000	683.627	80.006	19.993	103.772	20.262	0.882	0.565
1210.500	683.873	80.005	19.993	103.769	20.266	0.611	0.493
1211.000	684.120	80.005	19.993	103.768	20.262	0.870	0.469
1211.500	684.366	80.007	19.994	103.765	20.264	0.734	0.493
1212.000	684.655	80.006	19.994	103.763	20.263	0.832	0.514
1212.500	684.884	80.005	19.993	103.761	20.266	0.598	0.526
1213.000	685.092	80.006	19.992	103.766	20.265	0.643	0.478
1213.500	685.407	80.006	19.993	103.770	20.265	0.651	0.480
1214.000	685.070	80.005	19.994	103.777	20.266	0.596	0.251
1214.500	685.931	80.005	19.993	103.777	20.268	0.471	0.251
1215.000	686.221	80.005	19.994	103.777	20.263	0.795	0.838
1215.501	686.460	80.005	19.993	103.775	20.264	0.742	0.840
1216.001	686.633	80.005	19.994	103.771	20.263	0.793	0.470
1216.500	686.921	80.006	19.993	103.767	20.264	0.778	0.436
1217.000	687.081	80.005	19.993	103.765	20.263	0.848	0.455
1217.500	687.401	80.005	19.994	103.765	20.263	0.842	0.464
1218.000	687.710	80.005	19.994	103.766	20.263	0.819	0.555
1218.500	687.880	80.005	19.993	103.768	20.263	0.813	0.554
1219.000	688.215	80.006	19.994	103.767	20.262	0.849	0.492
1219.500	688.481	80.006	19.993	103.770	20.262	0.870	0.553
1220.000	688.663	80.005	19.993	103.774	20.263	0.846	0.524
1220.500	688.952	80.004	19.993	103.776	20.263	0.795	0.460
1221.001	689.179	80.005	19.993	103.777	20.264	0.768	0.493
1221.501	689.435	80.005	19.993	103.777	20.263	0.832	0.499
1222.001	689.706	80.004	19.995	103.773	20.265	0.692	0.505
1222.501	689.964	80.006	19.994	103.769	20.265	0.696	0.528
1223.001	690.181	80.005	19.993	103.765	20.265	0.675	0.502
1223.501	690.462	80.004	19.994	103.765	20.265	0.668	0.487
1224.000	690.729	80.005	19.993	103.771	20.263	0.812	0.523
1224.501	690.944	80.005	19.992	103.777	20.264	0.740	0.515
1225.001	691.234	80.005	19.993	103.781	20.260	1.027	0.494
1225.501	691.476	80.005	19.994	103.787	20.261	0.923	0.519
1226.001	691.724	80.005	19.994	103.789	20.263	0.844	0.511
1226.501	691.986	80.007	19.992	103.788	20.264	0.732	0.500
1227.000	692.229	80.006	19.993	103.788	20.260	1.040	0.508
1227.501	692.479	80.005	19.995	103.785	20.265	0.709	0.500
1228.001	692.731	80.004	19.993	103.778	20.261	0.934	0.498
1228.500	692.986	80.005	19.994	103.770	20.263	0.802	0.504
1229.000	693.239	80.006	19.994	103.763	20.263	0.823	0.508
1229.501	693.487	80.006	19.993	103.761	20.259	1.063	0.504
1230.001	693.701	80.004	19.994	103.762	20.262	0.868	0.482
1230.500	693.983	80.005	19.994	103.763	20.261	0.927	0.479
1231.000	694.228	80.004	19.993	103.765	20.264	0.753	0.511
1231.500	694.451	80.006	19.995	103.765	20.265	0.692	0.497
1232.000	694.733	80.007	19.992	103.761	20.262	0.865	0.486
1232.500	694.962	80.004	19.993	103.757	20.263	0.781	0.508
1233.000	695.213	80.006	19.994	103.755	20.263	0.798	0.495
1233.500	695.480	80.006	19.994	103.755	20.261	0.982	0.499
1234.000	695.718	80.005	19.994	103.760	20.262	0.861	0.512
1234.500	695.974	80.006	19.993	103.764	20.261	0.969	0.500
1235.000	696.247	80.006	19.994	103.764	20.261	0.967	0.511
1235.500	696.491	80.007	19.993	103.764	20.262	0.859	0.523
1236.000	696.720	80.007	19.993	103.765	20.262	0.895	0.495
1236.501	697.022	80.006	19.993	103.763	20.262	0.883	0.502
1237.001	697.199	80.007	19.994	103.756	20.259	1.067	0.505
1237.500	697.474	80.007	19.993	103.758	20.260	1.054	0.466
1238.000	697.719	80.007	19.993	103.761	20.263	0.804	0.486
1238.500	698.014	80.007	19.994	103.759	20.260	1.037	0.530
1239.000	698.192	80.008	19.992	103.755	20.261	0.972	0.507
1239.500	698.467	80.006	19.993	103.754	20.260	1.039	0.463
1240.000	698.661	80.007	19.993	103.751	20.258	1.135	0.460
1240.500	698.938	80.007	19.992	103.748	20.262	0.916	0.470
1241.000	699.199	80.007	19.993	103.754	20.259	1.061	0.505
1241.500	699.484	80.008	19.994	103.758	20.256	1.269	0.542
1242.000	699.713	80.005	19.992	103.760	20.260	1.037	0.530
1242.500	699.978	80.005	19.993	103.763	20.259	1.084	0.504
1243.000	700.222	80.008	19.994	103.769	20.260	1.054	0.501
1243.500	700.472	80.007	19.993	103.766	20.261	0.925	0.502
1244.000	700.747	80.008	19.993	103.765	20.261	0.965	0.509
1244.500	700.991	80.006	19.992	103.769	20.258	1.184	0.522
1245.000	701.239	80.007	19.992	103.773	20.259	1.107	0.506
1245.500	701.494	80.005	19.993	103.771	20.258	1.156	0.498
1246.000	701.741	80.007	19.994	103.770	20.262	0.853	0.502
1246.501	702.029	80.007	19.994	103.767	20.260	1.004	0.518
1247.001	702.235	80.005	19.992	103.763	20.261	0.967	0.515
1247.501	702.502	80.005	19.993	103.761	20.260	1.033	0.483
1248.001	702.742	80.006	19.994	103.759	20.262	0.899	0.490
1248.500	703.001	80.004	19.993	103.759	20.261	0.929	0.504
1249.000	703.281	80.003	19.994	103.764	20.259	1.109	0.519
1249.500	703.509	80.005	19.994	103.764	20.261	0.940	0.523
1250.000	703.754	80.004	19.994	103.764	20.262	0.851	0.491
1250.500	703.994	80.006	19.994	103.768	20.263	0.779	0.479
1251.001	704.273	80.005	19.994	103.768	20.260	1.012	0.501
1251.502	704.522	80.004	19.994	103.766	20.258	1.128	0.523
1252.001	704.783	80.004	19.994	103.767	20.259	1.076	0.519
1252.500	704.986	80.005	19.993	103.766	20.258	1.179	0.488
1253.000	705.223	80.004	19.993	103.763	20.260	1.018	0.452
1253.500	705.483	80.005	19.995	103.766	20.260	0.997	0.468
1254.000	705.784	80.004	19.994	103.770	20.259	1.124	0.529
1254.500	706.011	80.004	19.995	103.770	20.262	0.874	0.544
1255.000	706.252	80.004	19.995	103.772	20.259	1.074	0.498
1255.500	706.522	80.004	19.995	103.775	20.261	0.931	0.490
1256.000	706.788	80.003	19.995	103.773	20.259	1.091	0.523
1256.500	707.041	80.004	19.994	103.767	20.258	1.146	0.527
1257.000	707.240	80.004	19.995	103.763	20.261	0.948	0.485
1257.500	707.537	80.004	19.995	103.759	20.259	1.080	0.474
1258.001	707.789	80.004	19.994	103.756	20.258	1.182	0.523
1258.501	708.029	80.005	19.994	103.758	20.259	1.069	0.520
1259.000	708.252	80.004	19.995	103.760	20.261	0.976	0.477
1259.500	708.527	80.006	19.994	103.762	20.260	1.050	0.480
1260.000	708.788	80.006	19.995	103.766	20.258	1.167	0.517
1260.500	709.026	80.005	19.994	103.769	20.257	1.203	0.518
1261.000	709.321	80.007	19.995	103.767	20.259	1.088	0.516
1261.500	709.582	80.005	19.994	103.767	20.260	1.031	0.545
1262.000	709.778	80.005	19.993	103.772	20.260	1.035	0.507
1262.500	710.051	80.005	19.996	103.773	20.259	1.080	0.463
1263.000	710.320	80.006	19.994	103.772	20.260	1.041	0.505
1263.500	710.571	80.006	19.994	103.773	20.257	1.213	0.531
1264.000	710.807	80.004	19.995	103.773	20.254	1.402	0.504
1264.500	711.099	80.003	19.994	103.770	20.260	0.999	0.508
1265.000	711.339	80.005	19.994	103.766	20.259	1.057	0.530
1265.500	711.594	80.005	19.994	103.762	20.256	1.301	0.513
1266.000	711.841	80.005	19.994	103.758	20.260	1.054	0.499
1266.500	712.094	80.005	19.994	103.755	20.258	1.126	0.501
1267.000	712.346	80.004	19.994	103.752	20.257	1.198	0.502
1267.500	712.567	80.004	19.994	103.752	20.258	1.128	0.489
1268.000	712.828	80.005	19.995	103.758	20.259	1.094	0.478
1268.500	713.097	80.003	19.993	103.765	20.254	1.466	0.506
1269.000	713.363	80.004	19.993	103.773	20.257	1.245	0.532
1269.500	713.591	80.005	19.993	103.780	20.261	0.982	0.514
1270.000	713.843	80.005	19.993	103.782	20.258	1.141	0.487
1270.500	714.088	80.004	19.994	103.782	20.260	1.029	0.488
1271.000	714.342	80.004	19.994	103.783	20.257	1.247	0.498
1271.500	714.613	80.004	19.993	103.783	20.260	1.050	0.512
1272.000	714.858	80.003	19.993	103.783	20.260	0.993	0.520
1272.500	715.084	80.004	19.994	103.786	20.258	1.176	0.493
1273.000	715.359	80.003	19.995	103.784	20.258	1.176	0.486
1273.500	715.603	80.003	19.994	103.780	20.262	0.909	0.510
1274.000	715.860	80.003	19.993	103.776	20.260	1.006	0.510
1274.500	716.145	80.004	19.993	103.773	20.261	0.955	0.522
1275.000	716.409	80.004	19.994	103.767	20.259	1.082	0.545
1275.500	716.640	80.003	19.994	103.764	20.260	1.005	0.522
1276.001	716.867	80.004	19.995	103.762	20.261	0.980	0.476
1276.501	717.128	80.004	19.994	103.764	20.259	1.115	0.473
1277.001	717.402	80.003	19.995	103.766	20.259	1.075	0.511
1277.501	717.630	80.004	19.994	103.773	20.259	1.094	0.519
1278.001	717.860	80.004	19.995	103.775	20.261	0.931	0.480
1278.502	718.119	80.004	19.995	103.778	20.259	1.069	0.473
1279.002	718.392	80.003	19.994	103.781	20.262	0.870	0.510
1279.501	718.612	80.003	19.995	103.781	20.261	0.980	0.513
1280.000	718.845	80.003	19.994	103.776	20.255	1.334	0.473
1280.500	719.058	80.002	19.996	103.773	20.258	1.129	0.450
1281.000	719.382	80.004	19.995	103.772	20.259	1.103	0.491
1281.500	719.623	80.002	19.996	103.767	20.261	0.918	0.551
1282.000	719.869	80.004	19.994	103.762	20.258	1.175	0.526
1282.500	720.079	80.001	19.995	103.764	20.257	1.201	0.471
1283.000	720.357	80.003	19.995	103.768	20.257	1.218	0.472
1283.500	720.617	80.003	19.995	103.746	20.259	1.080	0.513
1284.000	720.839	80.003	19.995	103.727	20.257	1.233	0.510
1284.501	721.126	80.004	19.996	103.716	20.260	1.022	0.495
1285.001	721.356	80.003	19.994	103.711	20.260	1.040	0.513
1285.500	721.603	80.002	19.994	103.709	20.259	1.099	0.497
1286.001	721.818	80.003	19.995	103.745	20.261	0.940	0.470
1286.501	722.077	80.002	19.994	103.792	20.260	1.046	0.468
1287.000	722.334	80.002	19.995	103.808	20.262	0.902	0.495
1287.500	722.594	80.004	19.995	103.809	20.259	1.065	0.517
1288.000	722.803	80.004	19.995	103.809	20.262	0.874	0.493
1288.500	723.094	80.003	19.993	103.795	20.258	1.184	0.484
1289.000	723.322	80.005	19.996	103.769	20.260	1.039	0.510
1289.500	723.587	80.004	19.994	103.764	20.258	1.128	0.506
1290.000	723.778	80.003	19.995	103.763	20.260	1.016	0.475
1290.500	724.073	80.005	19.994	103.761	20.259	1.086	0.471
1291.000	724.337	80.005	19.995	103.764	20.259	1.086	0.523
1291.501	724.534	80.004	19.994	103.764	20.259	1.124	0.510
1292.001	724.819	80.006	19.994	103.767	20.260	0.991	0.471
1292.501	725.073	80.004	19.994	103.774	20.259	1.061	0.510
1293.000	725.291	80.005	19.995	103.779	20.256	1.319	0.506
1293.500	725.572	80.005	19.994	103.780	20.261	0.978	0.486
1294.000	725.841	80.005	19.995	103.781	20.261	0.957	0.524
1294.500	726.062	80.006	19.994	103.775	20.257	1.239	0.520
1295.000	726.299	80.004	19.994	103.771	20.257	1.262	0.474
1295.500	726.573	80.006	19.993	103.766	20.258	1.154	0.485
1296.000	726.807	80.005	19.994	103.762	20.257	1.217	0.510
1296.500	727.091	80.006	19.994	103.764	20.258	1.164	0.513
1297.000	727.336	80.006	19.995	103.769	20.260	1.016	0.524
1297.500	727.624	80.006	19.995	103.772	20.259	1.107	0.531
1298.000	727.827	80.006	19.994	103.777	20.257	1.201	0.511
1298.500	728.119	80.006	19.994	103.781	20.257	1.243	0.493
1299.000	728.385	80.005	19.994	103.781	20.258	1.175	0.527
1299.500	728.614	80.004	19.994	103.782	20.257	1.256	0.526
1300.001	728.892	80.004	19.993	103.784	20.257	1.198	0.501
1300.501	729.171	80.006	19.993	103.783	20.258	1.152	0.532
1301.000	729.440	80.007	19.992	103.779	20.255	1.359	0.553
1301.500	729.694	80.004	19.994	103.774	20.256	1.321	0.536
1302.000	729.976	80.004	19.993	103.772	20.256	1.307	0.530
1302.500	730.243	80.003	19.994	103.769	20.254	1.419	0.542
1303.000	730.482	80.005	19.993	103.769	20.261	0.942	0.527
1303.500	730.778	80.003	19.994	103.774	20.258	1.135	0.520
1304.000	731.040	80.006	19.993	103.778	20.254	1.428	0.546
1304.500	731.281	80.003	19.994	103.776	20.256	1.275	0.531
1305.000	731.581	80.004	19.994	103.776	20.257	1.203	0.522
1305.500	731.842	80.004	19.993	103.775	20.256	1.294	0.551
1306.001	732.074	80.003	19.994	103.775	20.258	1.146	0.527
1306.501	732.345	80.004	19.993	103.777	20.257	1.222	0.498
1307.000	732.659	80.005	19.994	103.781	20.256	1.268	0.544
1307.500	732.907	80.004	19.993	103.783	20.256	1.273	0.574
1308.001	733.160	80.006	19.993	103.781	20.257	1.249	0.532
1308.501	733.442	80.005	19.994	103.778	20.260	1.039	0.518
1309.001	733.697	80.004	19.994	103.778	20.256	1.317	0.536
1309.501	734.017	80.004	19.993	103.777	20.258	1.184	0.556
1310.001	734.253	80.005	19.994	103.779	20.254	1.445	0.566
1310.501	734.534	80.004	19.994	103.783	20.258	1.169	0.537
1311.000	734.797	80.005	19.994	103.786	20.258	1.175	0.530
1311.500	735.096	80.005	19.994	103.786	20.256	1.324	0.553
1312.000	735.331	80.006	19.995	103.784	20.260	1.039	0.548
1312.500	735.636	80.006	19.994	103.777	20.256	1.321	0.537
1313.000	735.902	80.006	19.993	103.771	20.258	1.154	0.555
1313.500	736.134	80.005	19.996	103.765	20.258	1.167	0.535
1314.000	736.398	80.006	19.995	103.762	20.256	1.288	0.497
1314.501	736.669	80.006	19.995	103.762	20.259	1.112	0.516
1315.001	736.981	80.006	19.995	103.764	20.255	1.362	0.559
1315.500	737.165	80.007	19.995	103.770	20.255	1.373	0.540
1316.000	737.476	80.007	19.995	103.772	20.256	1.285	0.495
1316.500	737.797	80.005	19.994	103.774	20.256	1.332	0.563
1317.000	738.032	80.007	19.994	103.775	20.255	1.385	0.594
1317.500	738.306	80.007	19.994	103.779	20.255	1.381	0.533
1318.000	738.570	80.007	19.992	103.780	20.255	1.392	0.523
1318.500	738.849	80.006	19.993	103.782	20.255	1.375	0.540
1319.000	739.134	80.007	19.993	103.781	20.252	1.595	0.553
1319.500	739.390	80.005	19.993	103.780	20.252	1.546	0.552
1320.000	739.706	80.008	19.994	103.773	20.252	1.557	0.557
1320.500	739.931	80.007	19.993	103.772	20.252	1.557	0.557
1321.000	740.234	80.007	19.993	103.772	20.250	1.729	0.535
1321.500	740.492	80.006	19.994	103.772	20.252	1.578	0.545
1322.000	740.716	80.007	19.993	103.772	20.253	1.487	0.521
1322.500	741.011	80.006	19.994	103.775	20.252	1.604	0.500
1323.000	741.315	80.005	19.992	103.775	20.253	1.527	0.559
1323.500	741.589	80.007	19.993	103.774	20.253	1.498	0.588
1324.000	741.878	80.005	19.994	103.771	20.255	1.368	0.570
1324.500	742.163	80.006	19.994	103.771	20.254	1.408	0.568
1325.000	742.446	80.006	19.994	103.769	20.254	1.404	0.571
1325.501	742.686	80.004	19.993	103.767	20.252	1.601	0.546
1326.001	743.005	80.006	19.994	103.768	20.255	1.387	0.541
1326.500	743.215	80.004	19.992	103.770	20.253	1.504	0.544
