Sample ID:	C:\MCC\MCC Cal\Test\Polyester_Carpet_HighPile_MCC_30K_min_211027_R1.txt
Sample Weight (mg):	4.74
Heating Rate (C/s):	0.5
Combustor Temp (C):	900
N2 Flow Rate (cc/min):	80
O2 Flow Rate (cc/min):	20
Calibration File:	C:\MCC\MCC Cal\Coeff1 JN10440_30_210304.txt.txt
T Correction Coefficients:	0	1.024463	0
Time Shift (s):	14
*
Time (s)	Temperature (C)	N2 flow rate (cc/min)	O2 flow rate (cc/min)	Flow Rate (cc/min)	Oxygen (%)	HRR (W/g)	Heating rate (C/s)
0.000	107.360	79.998	19.996	102.998	20.134	-0.446	0.011
0.500	107.357	80.000	19.996	102.998	20.136	-0.582	0.010
1.000	107.318	79.999	19.997	102.995	20.131	-0.236	-0.022
1.500	107.364	79.999	19.996	102.993	20.133	-0.338	-0.017
2.000	107.369	79.999	19.995	102.986	20.134	-0.454	0.029
2.500	107.307	79.999	19.995	102.980	20.133	-0.384	-0.003
3.000	107.333	79.999	19.996	102.974	20.132	-0.314	-0.047
3.500	107.338	79.998	19.995	102.971	20.135	-0.465	-0.003
4.000	107.360	80.000	19.994	102.968	20.131	-0.204	0.029
4.501	107.377	79.999	19.995	102.969	20.129	-0.106	0.033
5.001	107.366	80.001	19.995	102.974	20.132	-0.278	0.023
5.500	107.326	80.000	19.995	102.976	20.131	-0.236	-0.022
6.000	107.332	79.999	19.995	102.978	20.129	-0.104	-0.043
6.500	107.333	80.000	19.995	102.979	20.131	-0.257	-0.013
7.000	107.356	80.001	19.995	102.979	20.131	-0.218	0.016
7.500	107.362	79.999	19.995	102.981	20.129	-0.072	0.027
8.000	107.362	79.999	19.996	102.986	20.128	-0.047	0.017
8.500	107.372	79.996	19.996	102.990	20.128	-0.042	0.008
9.000	107.370	79.999	19.995	102.995	20.128	-0.011	0.009
9.500	107.381	79.999	19.996	103.001	20.129	-0.091	0.008
10.000	107.351	80.000	19.996	103.003	20.128	-0.011	-0.005
10.500	107.327	79.998	19.996	103.002	20.129	-0.112	-0.037
11.000	107.373	79.999	19.996	103.000	20.124	0.242	-0.016
11.500	107.343	79.999	19.996	102.997	20.125	0.148	0.020
12.000	107.327	79.999	19.996	102.998	20.127	0.038	-0.015
12.501	107.341	79.997	19.996	103.005	20.123	0.295	-0.024
13.001	107.359	79.999	19.996	103.014	20.122	0.418	0.015
13.501	107.334	79.998	19.996	103.023	20.123	0.331	0.013
14.001	107.366	79.995	19.996	103.032	20.125	0.210	0.000
14.501	107.393	79.997	19.997	103.039	20.123	0.327	0.033
15.001	107.409	79.996	19.996	103.039	20.119	0.570	0.051
15.500	107.406	79.998	19.996	103.040	20.118	0.661	0.028
16.000	107.409	79.997	19.996	103.041	20.120	0.543	0.007
16.500	107.409	79.994	19.997	103.044	20.117	0.710	0.002
17.000	107.445	79.996	19.997	103.045	20.116	0.778	0.019
17.500	107.431	79.997	19.996	103.045	20.114	0.897	0.029
18.000	107.431	79.995	19.997	103.047	20.118	0.687	0.004
18.500	107.445	79.995	19.996	103.053	20.111	1.123	-0.000
19.000	107.468	79.997	19.997	103.059	20.112	1.070	0.026
19.500	107.490	79.994	19.996	103.067	20.111	1.114	0.041
20.000	107.487	79.996	19.997	103.076	20.110	1.186	0.032
20.501	107.518	79.996	19.997	103.087	20.110	1.171	0.023
21.000	107.558	79.995	19.997	103.095	20.111	1.102	0.049
21.500	107.534	79.997	19.997	103.105	20.108	1.351	0.044
22.000	107.590	79.997	19.997	103.112	20.112	1.078	0.024
22.500	107.631	79.995	19.998	103.121	20.106	1.455	0.064
23.000	107.653	79.994	19.998	103.124	20.110	1.220	0.080
23.500	107.660	79.997	19.998	103.125	20.109	1.261	0.046
24.000	107.697	79.996	19.997	103.125	20.110	1.212	0.036
24.500	107.788	79.995	19.996	103.125	20.103	1.653	0.086
25.000	107.786	79.997	19.996	103.123	20.104	1.601	0.109
25.500	107.810	79.995	19.997	103.123	20.103	1.650	0.056
26.000	107.838	79.996	19.997	103.124	20.101	1.813	0.037
26.500	107.894	79.997	19.997	103.124	20.105	1.530	0.068
27.000	107.922	79.996	19.997	103.124	20.102	1.752	0.084
27.500	107.972	79.997	19.996	103.124	20.100	1.848	0.081
28.000	108.016	79.995	19.997	103.127	20.102	1.710	0.086
28.500	108.057	79.998	19.996	103.133	20.097	2.085	0.090
29.000	108.096	79.997	19.996	103.141	20.103	1.653	0.083
29.500	108.165	79.996	19.997	103.151	20.103	1.676	0.094
30.000	108.215	79.994	19.996	103.163	20.100	1.850	0.114
30.500	108.278	79.997	19.996	103.175	20.102	1.750	0.116
31.000	108.333	79.996	19.996	103.184	20.102	1.735	0.116
31.500	108.400	79.997	19.996	103.191	20.101	1.788	0.120
32.000	108.459	79.996	19.997	103.197	20.100	1.879	0.124
32.500	108.490	79.996	19.995	103.198	20.101	1.812	0.108
33.000	108.578	79.996	19.996	103.194	20.101	1.843	0.104
33.500	108.632	79.997	19.995	103.187	20.098	2.004	0.130
34.000	108.683	79.998	19.996	103.180	20.102	1.757	0.124
34.500	108.778	79.996	19.995	103.180	20.101	1.837	0.126
35.000	108.866	79.996	19.995	103.183	20.096	2.159	0.164
35.500	108.911	79.997	19.995	103.187	20.097	2.061	0.157
36.000	108.976	79.996	19.996	103.195	20.097	2.110	0.121
36.500	109.088	79.996	19.996	103.200	20.097	2.063	0.144
37.001	109.151	79.994	19.996	103.192	20.097	2.051	0.176
37.501	109.221	79.997	19.995	103.185	20.096	2.167	0.154
38.001	109.290	79.997	19.995	103.178	20.098	2.038	0.136
38.501	109.401	79.995	19.996	103.170	20.100	1.877	0.160
39.000	109.451	79.997	19.995	103.163	20.095	2.214	0.170
39.500	109.495	79.995	19.997	103.163	20.100	1.879	0.128
40.000	109.592	79.996	19.995	103.164	20.099	1.974	0.118
40.500	109.719	79.997	19.996	103.166	20.097	2.072	0.183
41.000	109.779	79.996	19.995	103.168	20.098	2.042	0.205
41.500	109.874	79.996	19.995	103.168	20.097	2.067	0.171
42.000	109.976	79.996	19.994	103.172	20.098	2.002	0.176
42.500	110.032	79.996	19.996	103.176	20.098	2.025	0.177
43.000	110.145	79.997	19.995	103.178	20.099	1.926	0.163
43.500	110.245	79.996	19.996	103.180	20.097	2.055	0.191
44.000	110.329	79.995	19.997	103.183	20.094	2.260	0.199
44.501	110.406	79.996	19.995	103.180	20.097	2.108	0.173
45.001	110.514	79.997	19.996	103.178	20.095	2.214	0.173
45.500	110.638	79.996	19.996	103.180	20.095	2.248	0.208
46.000	110.745	79.995	19.996	103.183	20.094	2.258	0.232
46.501	110.839	79.997	19.996	103.183	20.097	2.072	0.217
47.001	110.934	79.998	19.996	103.189	20.095	2.205	0.195
47.500	111.025	79.995	19.995	103.192	20.094	2.320	0.187
48.000	111.156	79.997	19.996	103.192	20.094	2.298	0.204
48.500	111.218	79.997	19.996	103.192	20.095	2.201	0.208
49.000	111.342	79.998	19.996	103.189	20.092	2.446	0.190
49.500	111.441	79.998	19.995	103.188	20.093	2.326	0.204
50.000	111.561	79.997	19.996	103.187	20.094	2.294	0.221
50.500	111.659	79.998	19.996	103.187	20.095	2.234	0.219
51.000	111.736	79.998	19.996	103.188	20.092	2.404	0.196
51.500	111.886	79.994	19.995	103.194	20.094	2.292	0.201
52.000	112.044	79.997	19.997	103.197	20.091	2.486	0.267
52.500	112.142	79.999	19.995	103.197	20.096	2.128	0.282
53.000	112.244	79.997	19.996	103.199	20.095	2.213	0.228
53.500	112.352	79.997	19.996	103.199	20.093	2.368	0.205
54.000	112.491	79.996	19.996	103.195	20.098	2.014	0.228
54.500	112.610	79.996	19.997	103.192	20.096	2.167	0.253
55.000	112.740	79.997	19.997	103.193	20.091	2.502	0.254
55.500	112.845	79.997	19.996	103.190	20.095	2.239	0.242
56.000	112.971	79.998	19.995	103.187	20.093	2.330	0.233
56.500	113.125	79.999	19.995	103.186	20.094	2.315	0.255
57.000	113.210	79.999	19.995	103.189	20.093	2.347	0.259
57.500	113.360	79.999	19.996	103.189	20.098	2.048	0.237
58.001	113.499	79.999	19.995	103.190	20.095	2.199	0.262
58.501	113.579	79.999	19.994	103.193	20.096	2.163	0.254
59.000	113.755	79.998	19.995	103.198	20.093	2.326	0.238
59.500	113.863	79.998	19.996	103.201	20.095	2.186	0.270
60.000	114.016	79.999	19.995	103.208	20.095	2.197	0.273
60.500	114.136	79.999	19.995	103.215	20.095	2.247	0.267
61.000	114.254	79.999	19.996	103.218	20.094	2.317	0.255
61.500	114.395	79.999	19.995	103.218	20.096	2.137	0.248
62.000	114.522	79.999	19.996	103.216	20.097	2.105	0.264
62.500	114.671	80.000	19.996	103.215	20.096	2.150	0.272
63.000	114.837	79.999	19.996	103.215	20.094	2.264	0.295
63.500	114.954	80.001	19.994	103.216	20.099	1.945	0.299
64.001	115.108	79.999	19.996	103.220	20.094	2.277	0.277
64.501	115.222	79.998	19.995	103.222	20.097	2.057	0.270
65.000	115.365	79.999	19.995	103.216	20.092	2.438	0.262
65.500	115.510	79.999	19.995	103.209	20.094	2.284	0.272
66.000	115.648	79.998	19.996	103.203	20.096	2.182	0.285
66.500	115.801	79.997	19.996	103.198	20.094	2.260	0.287
67.000	115.946	80.001	19.995	103.196	20.096	2.183	0.294
67.500	116.102	79.999	19.996	103.196	20.094	2.302	0.299
68.000	116.265	80.000	19.995	103.201	20.094	2.287	0.310
68.500	116.361	79.996	19.995	103.204	20.092	2.439	0.290
69.000	116.559	80.000	19.996	103.205	20.096	2.145	0.276
69.501	116.696	79.998	19.995	103.205	20.096	2.134	0.314
70.001	116.806	79.997	19.996	103.205	20.096	2.145	0.291
70.501	117.009	79.999	19.995	103.201	20.095	2.192	0.280
71.001	117.169	79.999	19.996	103.200	20.093	2.372	0.338
71.500	117.295	79.999	19.995	103.201	20.092	2.399	0.325
72.000	117.505	79.999	19.995	103.201	20.094	2.306	0.311
72.500	117.639	79.998	19.995	103.202	20.094	2.314	0.339
73.000	117.810	79.999	19.995	103.202	20.093	2.329	0.324
73.500	117.947	79.999	19.995	103.201	20.091	2.498	0.307
74.000	118.134	80.000	19.996	103.200	20.091	2.486	0.316
74.500	118.276	79.999	19.995	103.200	20.089	2.594	0.327
75.000	118.429	80.001	19.996	103.200	20.090	2.532	0.312
75.500	118.629	79.999	19.995	103.200	20.090	2.564	0.324
76.000	118.774	80.000	19.995	103.200	20.089	2.655	0.349
76.500	118.979	79.999	19.996	103.200	20.088	2.697	0.347
77.000	119.074	79.998	19.996	103.204	20.089	2.661	0.325
77.500	119.259	79.999	19.995	103.210	20.091	2.498	0.290
78.001	119.423	79.999	19.995	103.218	20.092	2.430	0.315
78.502	119.588	79.998	19.996	103.226	20.090	2.587	0.339
79.002	119.740	79.999	19.996	103.233	20.089	2.604	0.323
79.502	119.943	79.999	19.995	103.237	20.088	2.724	0.336
80.001	120.121	79.999	19.996	103.238	20.088	2.690	0.368
80.500	120.279	80.000	19.996	103.238	20.087	2.763	0.358
81.000	120.484	79.998	19.996	103.238	20.089	2.650	0.349
81.500	120.635	79.999	19.996	103.238	20.088	2.718	0.359
82.000	120.834	79.998	19.995	103.238	20.091	2.477	0.353
82.500	121.004	79.999	19.996	103.238	20.090	2.532	0.360
83.000	121.194	80.000	19.996	103.238	20.090	2.575	0.365
83.500	121.353	80.000	19.996	103.238	20.089	2.615	0.354
84.000	121.576	79.999	19.996	103.238	20.094	2.320	0.365
84.500	121.725	79.999	19.996	103.238	20.091	2.467	0.377
85.000	121.894	79.999	19.995	103.238	20.092	2.456	0.345
85.500	122.088	79.998	19.996	103.238	20.093	2.390	0.340
86.000	122.307	79.998	19.996	103.238	20.091	2.490	0.388
86.500	122.468	79.997	19.996	103.240	20.090	2.575	0.396
87.000	122.668	80.002	19.996	103.241	20.090	2.566	0.371
87.500	122.835	80.000	19.996	103.242	20.091	2.494	0.365
88.000	122.979	80.001	19.996	103.244	20.090	2.583	0.339
88.500	123.197	80.000	19.997	103.246	20.090	2.560	0.336
89.000	123.392	79.998	19.996	103.250	20.088	2.672	0.387
89.500	123.572	80.000	19.997	103.256	20.091	2.481	0.394
90.001	123.763	79.998	19.996	103.260	20.088	2.706	0.373
90.501	123.913	79.998	19.996	103.261	20.089	2.598	0.356
91.001	124.113	79.999	19.995	103.263	20.088	2.667	0.346
91.501	124.359	79.999	19.995	103.261	20.090	2.565	0.398
92.001	124.515	79.996	19.995	103.255	20.085	2.908	0.424
92.501	124.723	79.997	19.996	103.251	20.085	2.881	0.383
93.001	124.917	80.001	19.995	103.251	20.090	2.591	0.383
93.501	125.098	79.998	19.996	103.248	20.087	2.763	0.388
94.001	125.294	79.998	19.996	103.243	20.089	2.627	0.376
94.501	125.480	79.995	19.997	103.244	20.085	2.896	0.380
95.001	125.686	79.998	19.996	103.245	20.086	2.816	0.386
95.501	125.913	79.999	19.996	103.243	20.088	2.712	0.412
96.000	126.129	79.998	19.996	103.242	20.087	2.754	0.438
96.500	126.281	79.996	19.997	103.244	20.086	2.862	0.405
97.001	126.534	79.998	19.996	103.247	20.085	2.901	0.387
97.502	126.716	79.995	19.997	103.250	20.084	2.974	0.420
98.002	126.930	79.996	19.997	103.252	20.085	2.868	0.415
98.501	127.157	79.996	19.996	103.251	20.085	2.888	0.418
99.000	127.348	79.997	19.996	103.251	20.084	2.951	0.429
99.500	127.530	79.997	19.996	103.252	20.086	2.814	0.396
100.000	127.771	79.997	19.996	103.252	20.084	2.937	0.398
100.500	127.951	79.995	19.996	103.255	20.086	2.856	0.421
101.000	128.187	79.996	19.996	103.255	20.086	2.825	0.418
101.500	128.376	79.998	19.996	103.259	20.084	2.956	0.421
102.000	128.569	79.997	19.996	103.262	20.088	2.708	0.404
102.500	128.801	79.996	19.996	103.266	20.090	2.573	0.404
103.000	128.997	79.995	19.996	103.268	20.089	2.651	0.426
103.500	129.198	79.994	19.996	103.272	20.086	2.806	0.412
104.000	129.421	79.996	19.996	103.270	20.086	2.861	0.411
104.500	129.630	79.998	19.996	103.265	20.085	2.890	0.428
105.000	129.854	79.996	19.996	103.264	20.085	2.913	0.432
105.500	130.036	79.996	19.996	103.263	20.087	2.737	0.420
106.000	130.293	79.995	19.997	103.259	20.087	2.746	0.423
106.500	130.485	79.997	19.997	103.258	20.087	2.739	0.444
107.000	130.704	79.998	19.996	103.258	20.088	2.686	0.430
107.500	130.924	79.997	19.996	103.253	20.090	2.593	0.425
108.000	131.123	79.998	19.996	103.252	20.090	2.572	0.429
108.500	131.326	79.997	19.997	103.254	20.088	2.697	0.410
109.000	131.553	79.999	19.998	103.257	20.086	2.831	0.416
109.500	131.790	79.997	19.997	103.259	20.088	2.713	0.447
110.000	132.041	79.996	19.997	103.257	20.087	2.768	0.476
110.500	132.223	79.996	19.997	103.254	20.087	2.770	0.461
111.000	132.470	79.997	19.997	103.250	20.088	2.712	0.431
111.500	132.670	79.996	19.996	103.245	20.087	2.797	0.438
112.000	132.903	79.997	19.998	103.240	20.084	2.958	0.440
112.500	133.109	79.998	19.997	103.240	20.084	2.947	0.436
113.000	133.329	79.999	19.998	103.240	20.086	2.835	0.433
113.501	133.578	79.999	19.997	103.240	20.085	2.890	0.447
114.001	133.798	79.998	19.998	103.239	20.086	2.846	0.469
114.500	134.017	79.996	19.997	103.242	20.087	2.790	0.454
115.000	134.262	79.996	19.998	103.243	20.087	2.750	0.451
115.500	134.480	79.996	19.998	103.247	20.090	2.589	0.464
116.000	134.719	79.997	19.997	103.254	20.090	2.570	0.460
116.500	134.935	79.997	19.997	103.261	20.087	2.777	0.456
117.000	135.180	79.997	19.997	103.265	20.089	2.598	0.458
117.501	135.385	79.998	19.996	103.266	20.088	2.701	0.455
118.001	135.610	79.997	19.997	103.263	20.088	2.689	0.440
118.500	135.840	79.996	19.997	103.255	20.084	2.951	0.443
119.000	136.068	79.996	19.995	103.249	20.086	2.844	0.456
119.500	136.305	79.996	19.997	103.241	20.088	2.718	0.461
120.000	136.556	79.997	19.998	103.239	20.087	2.750	0.477
120.500	136.775	79.998	19.997	103.237	20.086	2.849	0.479
121.000	136.989	79.994	19.997	103.237	20.085	2.913	0.451
121.500	137.247	79.998	19.996	103.237	20.089	2.661	0.452
122.001	137.478	79.996	19.996	103.238	20.089	2.606	0.480
122.501	137.716	79.996	19.996	103.239	20.084	2.979	0.479
123.000	137.934	79.998	19.996	103.239	20.086	2.849	0.463
123.500	138.156	79.998	19.996	103.239	20.087	2.738	0.448
124.000	138.432	79.995	19.997	103.239	20.088	2.680	0.469
124.500	138.617	79.997	19.996	103.238	20.088	2.680	0.480
125.000	138.864	79.996	19.996	103.243	20.089	2.604	0.447
125.500	139.115	79.997	19.996	103.251	20.091	2.458	0.465
126.000	139.308	79.997	19.995	103.258	20.088	2.686	0.471
126.500	139.556	79.997	19.996	103.264	20.091	2.468	0.443
127.000	139.801	79.998	19.995	103.271	20.087	2.739	0.467
127.500	140.035	79.997	19.996	103.266	20.090	2.549	0.486
128.000	140.283	79.996	19.995	103.259	20.088	2.664	0.480
128.500	140.531	79.998	19.995	103.252	20.088	2.672	0.489
129.000	140.752	79.997	19.995	103.247	20.089	2.623	0.482
129.500	141.026	79.996	19.996	103.242	20.088	2.695	0.482
130.000	141.263	79.998	19.996	103.244	20.087	2.738	0.503
130.500	141.480	79.996	19.996	103.247	20.087	2.735	0.482
131.000	141.699	79.998	19.995	103.253	20.086	2.803	0.445
131.500	141.936	79.998	19.996	103.257	20.089	2.617	0.446
132.000	142.187	79.997	19.996	103.262	20.086	2.820	0.472
132.500	142.388	79.997	19.996	103.268	20.087	2.742	0.470
133.000	142.679	79.999	19.996	103.265	20.087	2.782	0.472
133.500	142.919	79.997	19.995	103.260	20.088	2.698	0.512
134.000	143.161	79.996	19.996	103.254	20.088	2.721	0.507
134.500	143.381	79.996	19.995	103.249	20.087	2.778	0.472
135.000	143.658	79.996	19.996	103.243	20.087	2.730	0.479
135.500	143.905	79.998	19.997	103.250	20.088	2.717	0.510
136.000	144.161	79.999	19.995	103.256	20.086	2.817	0.513
136.500	144.403	79.997	19.995	103.263	20.087	2.774	0.501
137.000	144.631	79.999	19.995	103.268	20.087	2.776	0.484
137.500	144.903	79.999	19.996	103.268	20.088	2.681	0.484
138.000	145.111	79.999	19.996	103.261	20.086	2.827	0.490
138.500	145.367	79.999	19.995	103.254	20.090	2.566	0.472
139.000	145.641	79.999	19.996	103.247	20.091	2.463	0.497
139.500	145.872	80.000	19.995	103.242	20.088	2.664	0.517
140.000	146.113	79.999	19.996	103.239	20.087	2.746	0.489
140.500	146.369	80.000	19.997	103.239	20.088	2.695	0.485
141.000	146.606	79.999	19.996	103.243	20.090	2.541	0.495
141.500	146.821	79.999	19.996	103.245	20.089	2.602	0.473
142.000	147.053	80.000	19.996	103.245	20.086	2.861	0.450
142.500	147.327	80.000	19.996	103.245	20.089	2.600	0.476
143.000	147.571	79.998	19.996	103.245	20.089	2.647	0.512
143.500	147.819	80.001	19.996	103.240	20.089	2.632	0.505
144.000	148.059	79.999	19.995	103.236	20.089	2.651	0.490
144.500	148.333	79.999	19.995	103.234	20.090	2.558	0.501
145.000	148.613	80.001	19.996	103.234	20.091	2.477	0.534
145.500	148.827	79.999	19.996	103.233	20.088	2.706	0.524
146.000	149.055	79.998	19.995	103.228	20.088	2.669	0.468
146.500	149.326	79.998	19.996	103.229	20.088	2.705	0.471
147.000	149.563	79.999	19.995	103.228	20.088	2.686	0.503
147.500	149.826	80.000	19.996	103.227	20.087	2.790	0.504
148.000	150.071	79.998	19.995	103.228	20.086	2.803	0.504
148.500	150.297	79.998	19.996	103.232	20.087	2.746	0.489
149.000	150.553	79.999	19.996	103.233	20.088	2.681	0.477
149.500	150.818	79.999	19.996	103.236	20.086	2.831	0.502
150.000	151.050	79.998	19.996	103.237	20.083	3.034	0.509
150.500	151.298	79.998	19.995	103.237	20.085	2.911	0.488
151.000	151.561	79.999	19.996	103.239	20.086	2.806	0.496
151.500	151.770	79.998	19.997	103.238	20.089	2.595	0.492
152.000	152.038	79.998	19.996	103.238	20.086	2.799	0.475
152.500	152.332	79.999	19.996	103.236	20.086	2.858	0.520
153.000	152.590	79.998	19.995	103.237	20.091	2.511	0.557
153.500	152.838	80.000	19.996	103.238	20.091	2.519	0.529
154.000	153.106	79.998	19.996	103.239	20.087	2.786	0.511
154.500	153.329	79.998	19.996	103.238	20.090	2.577	0.504
155.000	153.556	80.000	19.996	103.239	20.087	2.742	0.471
155.500	153.824	79.998	19.995	103.239	20.090	2.576	0.472
156.000	154.067	79.998	19.996	103.246	20.088	2.695	0.502
156.500	154.296	79.998	19.995	103.230	20.090	2.566	0.492
157.000	154.558	79.998	19.994	103.209	20.086	2.863	0.482
157.500	154.834	80.000	19.995	103.198	20.087	2.789	0.514
158.000	155.081	79.997	19.995	103.190	20.088	2.719	0.530
158.500	155.323	79.999	19.996	103.183	20.088	2.729	0.506
159.000	155.560	79.999	19.995	103.200	20.085	2.886	0.484
159.500	155.791	79.998	19.995	103.232	20.086	2.859	0.473
160.000	156.079	79.997	19.996	103.281	20.089	2.653	0.493
160.500	156.313	80.001	19.995	103.306	20.091	2.473	0.521
161.000	156.549	79.998	19.996	103.312	20.091	2.505	0.496
161.500	156.827	80.000	19.995	103.311	20.091	2.518	0.492
162.001	157.078	80.000	19.994	103.302	20.091	2.467	0.522
162.500	157.316	80.001	19.994	103.269	20.093	2.383	0.509
163.000	157.603	79.999	19.995	103.256	20.093	2.340	0.507
163.500	157.799	79.999	19.994	103.249	20.092	2.419	0.504
164.000	158.056	80.000	19.994	103.250	20.090	2.550	0.468
164.500	158.320	79.999	19.994	103.254	20.092	2.395	0.487
165.000	158.588	80.000	19.994	103.254	20.091	2.508	0.527
165.500	158.822	79.998	19.994	103.254	20.093	2.347	0.517
166.000	159.061	80.000	19.994	103.256	20.090	2.537	0.487
166.500	159.302	80.000	19.994	103.255	20.090	2.590	0.476
167.000	159.624	80.000	19.995	103.249	20.093	2.368	0.522
167.500	159.851	80.000	19.995	103.242	20.092	2.451	0.556
168.000	160.118	80.000	19.996	103.236	20.091	2.457	0.522
168.500	160.383	79.999	19.995	103.233	20.091	2.502	0.513
169.000	160.632	80.001	19.994	103.234	20.093	2.372	0.523
169.500	160.861	79.999	19.994	103.235	20.090	2.548	0.496
170.000	161.094	80.001	19.994	103.239	20.090	2.544	0.470
170.500	161.356	80.000	19.995	103.236	20.093	2.368	0.479
171.000	161.640	80.000	19.995	103.229	20.094	2.287	0.521
171.501	161.847	79.998	19.994	103.224	20.091	2.465	0.518
172.001	162.127	79.999	19.995	103.222	20.090	2.539	0.489
172.501	162.380	80.000	19.995	103.221	20.093	2.336	0.511
173.000	162.631	79.999	19.996	103.221	20.091	2.488	0.519
173.500	162.857	79.999	19.995	103.224	20.091	2.507	0.490
174.000	163.130	80.000	19.996	103.222	20.090	2.534	0.488
174.500	163.400	79.997	19.995	103.216	20.090	2.588	0.521
175.000	163.635	80.000	19.995	103.214	20.090	2.537	0.524
175.500	163.888	79.999	19.995	103.216	20.094	2.295	0.497
176.000	164.196	79.997	19.997	103.218	20.096	2.136	0.525
176.500	164.402	79.997	19.997	103.222	20.092	2.456	0.537
177.000	164.680	79.997	19.996	103.226	20.094	2.278	0.499
177.500	164.918	79.996	19.997	103.223	20.096	2.160	0.500
178.000	165.187	79.998	19.995	103.219	20.097	2.086	0.512
178.500	165.441	79.996	19.997	103.215	20.098	2.011	0.515
179.000	165.709	79.998	19.996	103.213	20.098	1.986	0.523
179.500	165.950	79.997	19.996	103.210	20.100	1.870	0.515
180.000	166.206	79.997	19.996	103.212	20.099	1.967	0.503
180.500	166.484	79.998	19.996	103.217	20.102	1.756	0.515
181.000	166.724	79.998	19.997	103.223	20.102	1.715	0.526
181.500	166.973	79.999	19.997	103.227	20.105	1.521	0.503
182.000	167.162	79.996	19.996	103.233	20.108	1.349	0.464
182.500	167.454	79.998	19.996	103.238	20.106	1.485	0.460
183.000	167.728	79.997	19.996	103.239	20.110	1.192	0.524
183.500	167.968	79.999	19.996	103.239	20.110	1.224	0.540
184.000	168.250	79.995	19.996	103.240	20.108	1.317	0.518
184.500	168.466	79.998	19.995	103.240	20.107	1.383	0.510
185.000	168.726	79.997	19.996	103.240	20.109	1.264	0.487
185.500	168.986	79.996	19.996	103.239	20.112	1.033	0.498
186.000	169.201	79.997	19.997	103.238	20.111	1.161	0.497
186.501	169.504	79.998	19.996	103.239	20.110	1.203	0.496
187.001	169.732	79.998	19.996	103.238	20.109	1.262	0.524
187.500	169.994	79.996	19.997	103.238	20.108	1.343	0.511
188.000	170.261	79.998	19.996	103.238	20.108	1.362	0.510
188.500	170.524	79.998	19.996	103.239	20.111	1.159	0.530
189.000	170.743	79.998	19.997	103.238	20.109	1.269	0.506
189.500	171.010	79.997	19.996	103.239	20.108	1.370	0.483
190.000	171.251	79.996	19.997	103.235	20.108	1.362	0.497
190.500	171.502	79.998	19.997	103.231	20.107	1.432	0.501
191.000	171.731	79.999	19.995	103.231	20.108	1.364	0.486
191.500	171.963	79.998	19.996	103.231	20.105	1.531	0.470
192.000	172.200	79.998	19.996	103.230	20.109	1.260	0.465
192.500	172.478	79.997	19.998	103.229	20.108	1.358	0.492
193.000	172.749	79.998	19.995	103.227	20.106	1.462	0.532
193.500	172.959	79.998	19.996	103.226	20.105	1.523	0.515
194.000	173.224	79.996	19.997	103.226	20.104	1.582	0.478
194.500	173.498	79.998	19.996	103.225	20.105	1.570	0.507
195.000	173.744	79.998	19.996	103.224	20.101	1.790	0.529
195.500	173.981	79.998	19.996	103.225	20.101	1.837	0.502
196.000	174.213	79.998	19.996	103.224	20.101	1.818	0.476
196.501	174.480	79.998	19.996	103.219	20.100	1.854	0.484
197.001	174.715	79.999	19.996	103.216	20.101	1.828	0.500
197.501	174.984	79.999	19.998	103.217	20.101	1.799	0.503
198.001	175.204	79.999	19.998	103.217	20.103	1.686	0.496
198.501	175.470	79.998	19.997	103.213	20.101	1.801	0.487
199.001	175.710	80.000	19.997	103.210	20.104	1.617	0.497
199.501	175.979	79.998	19.996	103.208	20.101	1.828	0.507
200.000	176.197	79.997	19.997	103.207	20.100	1.883	0.498
200.500	176.455	79.998	19.997	103.203	20.096	2.127	0.482
201.000	176.665	79.998	19.996	103.202	20.095	2.220	0.472
201.500	176.900	79.997	19.997	103.201	20.097	2.104	0.456
202.000	177.186	79.999	19.996	103.201	20.097	2.059	0.483
202.500	177.466	79.999	19.996	103.201	20.098	2.045	0.543
203.001	177.704	79.998	19.996	103.200	20.095	2.189	0.542
203.500	177.920	79.997	19.996	103.200	20.098	2.043	0.485
204.000	178.200	79.999	19.997	103.200	20.091	2.464	0.475
204.500	178.398	79.998	19.996	103.199	20.096	2.176	0.487
205.000	178.685	79.997	19.996	103.199	20.093	2.380	0.482
205.500	178.970	79.999	19.996	103.199	20.093	2.326	0.529
206.000	179.209	79.997	19.997	103.199	20.094	2.271	0.548
206.500	179.458	79.997	19.997	103.197	20.092	2.403	0.506
207.000	179.678	79.996	19.997	103.196	20.094	2.311	0.479
207.500	179.941	79.993	19.997	103.190	20.095	2.220	0.476
208.000	180.198	79.998	19.997	103.186	20.090	2.527	0.501
208.500	180.381	79.995	19.997	103.183	20.090	2.546	0.480
209.000	180.651	79.995	19.997	103.183	20.091	2.457	0.447
209.500	180.871	79.996	19.997	103.182	20.091	2.495	0.471
210.000	181.169	79.997	19.997	103.185	20.089	2.654	0.504
210.500	181.417	79.997	19.997	103.185	20.091	2.498	0.532
211.000	181.709	79.996	19.997	103.185	20.090	2.582	0.543
211.500	181.936	79.997	19.997	103.184	20.092	2.413	0.529
212.000	182.164	79.996	19.996	103.180	20.092	2.421	0.487
212.500	182.409	79.997	19.997	103.180	20.088	2.684	0.464
213.001	182.686	79.997	19.997	103.182	20.087	2.747	0.498
213.501	182.906	79.997	19.997	103.184	20.087	2.741	0.509
214.000	183.168	79.996	19.996	103.181	20.089	2.640	0.489
214.500	183.413	79.996	19.998	103.180	20.088	2.667	0.495
215.000	183.623	79.997	19.997	103.178	20.091	2.468	0.481
215.500	183.879	79.998	19.996	103.175	20.092	2.415	0.460
216.000	184.120	80.000	19.995	103.172	20.091	2.489	0.482
216.500	184.365	79.997	19.995	103.174	20.089	2.603	0.492
217.000	184.628	79.998	19.995	103.176	20.091	2.491	0.497
217.500	184.865	79.999	19.996	103.181	20.089	2.622	0.504
218.000	185.103	79.998	19.996	103.182	20.091	2.485	0.487
218.500	185.317	79.997	19.995	103.186	20.090	2.553	0.463
219.000	185.639	79.999	19.995	103.191	20.089	2.642	0.494
219.500	185.881	79.996	19.997	103.196	20.088	2.724	0.550
220.000	186.114	79.999	19.996	103.197	20.089	2.627	0.519
220.500	186.387	79.998	19.995	103.202	20.088	2.710	0.490
221.000	186.657	79.999	19.995	103.202	20.092	2.430	0.525
221.500	186.857	79.998	19.995	103.199	20.090	2.538	0.507
222.000	187.106	79.999	19.995	103.197	20.090	2.529	0.460
222.500	187.368	79.999	19.995	103.196	20.090	2.534	0.480
223.000	187.597	80.000	19.996	103.195	20.092	2.434	0.501
223.500	187.836	79.998	19.995	103.195	20.092	2.406	0.480
224.000	188.081	79.999	19.994	103.198	20.091	2.502	0.476
224.500	188.342	79.997	19.995	103.197	20.091	2.468	0.495
225.000	188.568	79.999	19.995	103.193	20.093	2.334	0.497
225.500	188.832	79.999	19.995	103.193	20.090	2.569	0.489
226.000	189.075	79.999	19.995	103.192	20.091	2.497	0.499
226.500	189.284	79.997	19.996	103.192	20.088	2.677	0.479
227.000	189.540	79.998	19.995	103.194	20.094	2.267	0.458
227.500	189.763	79.999	19.994	103.197	20.090	2.535	0.472
228.000	190.099	79.997	19.996	103.198	20.088	2.663	0.519
228.500	190.290	80.000	19.996	103.199	20.090	2.576	0.542
229.000	190.568	79.999	19.995	103.199	20.093	2.375	0.498
229.500	190.835	79.998	19.996	103.201	20.094	2.277	0.507
230.000	191.067	79.998	19.994	103.203	20.093	2.341	0.522
230.500	191.278	79.999	19.994	103.200	20.093	2.349	0.471
231.000	191.572	80.000	19.995	103.195	20.093	2.356	0.473
231.500	191.749	79.995	19.995	103.194	20.093	2.372	0.488
232.000	192.008	79.999	19.995	103.192	20.092	2.440	0.454
232.500	192.241	79.999	19.996	103.190	20.090	2.529	0.464
233.000	192.470	79.998	19.994	103.193	20.090	2.559	0.477
233.500	192.743	79.998	19.995	103.199	20.092	2.398	0.482
234.000	192.964	79.998	19.996	103.200	20.092	2.402	0.498
234.500	193.233	79.998	19.996	103.203	20.093	2.337	0.492
235.000	193.455	79.996	19.996	103.207	20.090	2.538	0.491
235.500	193.715	79.997	19.996	103.207	20.092	2.413	0.486
236.000	193.970	79.998	19.995	103.207	20.093	2.349	0.498
236.500	194.220	79.998	19.995	103.207	20.094	2.290	0.510
237.000	194.501	79.998	19.996	103.207	20.092	2.411	0.518
237.500	194.730	79.998	19.996	103.205	20.091	2.474	0.520
238.000	194.942	79.999	19.995	103.205	20.090	2.538	0.476
238.500	195.214	79.999	19.995	103.205	20.087	2.777	0.463
239.000	195.455	79.998	19.995	103.205	20.091	2.515	0.499
239.500	195.649	79.999	19.995	103.203	20.096	2.118	0.474
240.000	195.945	79.997	19.996	103.203	20.094	2.303	0.462
240.500	196.171	79.999	19.996	103.203	20.091	2.470	0.506
241.000	196.379	79.999	19.996	103.203	20.093	2.368	0.478
241.500	196.673	79.999	19.996	103.202	20.092	2.442	0.468
242.000	196.895	79.999	19.996	103.202	20.092	2.394	0.509
242.500	197.143	79.999	19.995	103.201	20.091	2.470	0.493
243.000	197.390	80.000	19.996	103.201	20.091	2.500	0.483
243.501	197.665	79.998	19.995	103.200	20.093	2.341	0.508
244.001	197.920	80.000	19.995	103.200	20.093	2.379	0.526
244.500	198.179	80.000	19.996	103.199	20.093	2.364	0.522
245.000	198.414	79.998	19.995	103.199	20.093	2.345	0.504
245.500	198.638	79.998	19.995	103.199	20.093	2.389	0.477
246.000	198.881	80.001	19.996	103.199	20.092	2.404	0.463
246.500	199.128	79.999	19.997	103.196	20.094	2.290	0.478
247.000	199.410	80.000	19.996	103.196	20.091	2.466	0.510
247.500	199.654	79.998	19.997	103.196	20.090	2.548	0.527
248.000	199.910	80.001	19.995	103.196	20.091	2.470	0.513
248.500	200.149	79.999	19.996	103.196	20.091	2.474	0.497
249.000	200.412	80.000	19.996	103.199	20.091	2.489	0.499
249.500	200.632	80.001	19.996	103.197	20.092	2.436	0.493
250.000	200.943	80.001	19.996	103.197	20.092	2.415	0.507
250.500	201.142	80.000	19.994	103.197	20.095	2.205	0.520
251.000	201.339	79.999	19.996	103.196	20.091	2.461	0.453
251.500	201.626	80.000	19.995	103.194	20.096	2.180	0.440
252.000	201.841	80.000	19.996	103.195	20.093	2.351	0.494
252.500	202.092	80.000	19.995	103.194	20.093	2.358	0.484
253.000	202.350	80.000	19.995	103.194	20.098	2.013	0.487
253.500	202.604	80.001	19.994	103.194	20.094	2.314	0.511
254.000	202.878	80.000	19.995	103.197	20.098	2.042	0.520
254.500	203.124	80.000	19.995	103.197	20.096	2.140	0.524
255.000	203.364	80.001	19.994	103.199	20.095	2.203	0.503
255.500	203.612	79.998	19.996	103.199	20.095	2.220	0.487
256.000	203.866	79.999	19.996	103.200	20.096	2.152	0.495
256.501	204.119	79.999	19.995	103.201	20.096	2.127	0.504
257.001	204.390	79.999	19.995	103.200	20.098	1.995	0.515
257.501	204.629	79.999	19.996	103.201	20.097	2.104	0.517
258.000	204.862	79.998	19.996	103.201	20.099	1.977	0.491
258.500	205.134	79.998	19.996	103.199	20.097	2.116	0.489
259.000	205.400	79.998	19.996	103.197	20.094	2.298	0.522
259.500	205.645	79.998	19.996	103.197	20.093	2.352	0.524
260.000	205.854	79.997	19.996	103.197	20.094	2.288	0.483
260.500	206.178	79.998	19.996	103.197	20.091	2.481	0.494
261.000	206.422	79.999	19.995	103.200	20.094	2.284	0.550
261.500	206.645	79.997	19.995	103.201	20.095	2.244	0.517
262.000	206.887	79.996	19.997	103.201	20.096	2.152	0.466
262.500	207.137	79.998	19.995	103.200	20.097	2.098	0.478
263.000	207.378	79.998	19.995	103.199	20.095	2.242	0.492
263.500	207.641	79.999	19.997	103.191	20.097	2.116	0.498
264.000	207.897	79.998	19.996	103.185	20.096	2.148	0.511
264.500	208.158	79.998	19.996	103.183	20.096	2.142	0.518
265.000	208.412	79.998	19.996	103.183	20.096	2.169	0.516
265.500	208.686	79.996	19.995	103.183	20.094	2.260	0.521
266.000	208.942	79.998	19.996	103.190	20.095	2.203	0.529
266.500	209.188	79.998	19.996	103.196	20.095	2.189	0.516
267.000	209.438	79.998	19.997	103.197	20.099	1.926	0.499
267.500	209.712	79.999	19.996	103.196	20.099	1.954	0.510
268.000	209.956	79.998	19.997	103.195	20.096	2.159	0.521
268.500	210.199	79.998	19.997	103.194	20.097	2.076	0.502
269.000	210.468	79.997	19.995	103.193	20.097	2.080	0.500
269.500	210.679	79.996	19.996	103.192	20.099	1.928	0.496
270.000	210.952	79.999	19.997	103.193	20.099	1.922	0.482
270.500	211.207	79.997	19.997	103.195	20.099	1.915	0.506
271.001	211.471	79.999	19.997	103.195	20.098	1.983	0.523
271.501	211.714	79.997	19.996	103.196	20.096	2.129	0.513
272.001	211.970	79.997	19.996	103.195	20.101	1.799	0.503
272.501	212.220	79.998	19.996	103.191	20.100	1.911	0.503
273.000	212.466	79.997	19.996	103.188	20.097	2.059	0.501
273.500	212.705	79.998	19.997	103.186	20.101	1.845	0.490
274.001	212.970	79.998	19.997	103.184	20.098	1.987	0.495
274.501	213.207	79.996	19.996	103.188	20.098	2.021	0.503
275.000	213.449	79.996	19.996	103.191	20.095	2.219	0.490
275.500	213.758	79.998	19.997	103.193	20.097	2.106	0.515
276.000	213.962	79.997	19.996	103.192	20.099	1.920	0.532
276.500	214.226	79.998	19.996	103.191	20.100	1.884	0.490
277.000	214.481	79.999	19.996	103.188	20.101	1.816	0.494
277.500	214.766	79.998	19.997	103.183	20.100	1.899	0.530
278.000	214.973	79.998	19.997	103.179	20.101	1.812	0.516
278.500	215.237	79.998	19.995	103.182	20.105	1.572	0.481
279.000	215.472	79.997	19.996	103.185	20.102	1.754	0.485
279.500	215.723	79.997	19.996	103.187	20.097	2.061	0.492
280.001	215.991	79.997	19.997	103.191	20.098	2.025	0.502
280.501	216.240	79.998	19.995	103.193	20.100	1.883	0.518
281.001	216.507	79.997	19.996	103.188	20.098	2.017	0.517
281.501	216.729	79.997	19.995	103.183	20.100	1.858	0.503
282.001	216.971	79.998	19.996	103.182	20.099	1.936	0.477
282.501	217.230	79.998	19.996	103.182	20.102	1.733	0.482
283.000	217.528	79.997	19.995	103.179	20.101	1.828	0.528
283.500	217.733	79.998	19.996	103.184	20.098	2.019	0.530
284.000	217.990	79.998	19.995	103.187	20.098	1.989	0.483
284.500	218.263	79.996	19.996	103.185	20.101	1.794	0.496
285.000	218.501	79.997	19.996	103.181	20.100	1.869	0.520
285.500	218.729	79.998	19.995	103.180	20.101	1.779	0.489
286.000	219.008	79.998	19.995	103.175	20.099	1.953	0.487
286.500	219.227	79.997	19.995	103.169	20.099	1.930	0.502
287.000	219.501	79.996	19.997	103.167	20.100	1.913	0.495
287.500	219.730	79.994	19.995	103.166	20.102	1.727	0.498
288.000	220.007	79.996	19.995	103.168	20.100	1.905	0.504
288.500	220.226	79.995	19.995	103.174	20.103	1.684	0.501
289.000	220.488	79.995	19.995	103.179	20.101	1.803	0.489
289.500	220.695	79.996	19.996	103.184	20.099	1.932	0.475
290.000	221.002	79.996	19.996	103.189	20.101	1.805	0.491
290.500	221.238	79.996	19.995	103.190	20.100	1.875	0.528
291.000	221.469	79.994	19.996	103.191	20.101	1.835	0.505
291.500	221.768	79.996	19.995	103.191	20.102	1.746	0.499
292.000	222.003	79.996	19.997	103.193	20.100	1.898	0.532
292.500	222.257	79.997	19.996	103.195	20.104	1.608	0.511
293.000	222.519	79.997	19.997	103.200	20.102	1.752	0.502
293.500	222.748	79.995	19.997	103.201	20.103	1.701	0.504
294.000	223.019	79.996	19.996	103.201	20.103	1.668	0.496
294.500	223.248	79.995	19.997	103.200	20.102	1.721	0.500
295.000	223.491	79.995	19.996	103.200	20.100	1.903	0.486
295.500	223.750	79.997	19.997	103.198	20.102	1.740	0.487
296.000	224.003	79.997	19.997	103.195	20.101	1.825	0.507
296.501	224.265	79.996	19.995	103.196	20.103	1.697	0.514
297.000	224.486	79.996	19.997	103.197	20.102	1.742	0.499
297.500	224.730	79.997	19.996	103.194	20.100	1.852	0.474
298.000	225.010	79.995	19.997	103.193	20.102	1.725	0.495
298.500	225.233	79.998	19.998	103.192	20.105	1.541	0.514
299.000	225.485	79.997	19.997	103.193	20.104	1.619	0.489
299.500	225.742	79.996	19.997	103.190	20.104	1.617	0.492
300.000	225.994	79.996	19.997	103.190	20.103	1.704	0.509
300.500	226.250	79.998	19.996	103.188	20.106	1.481	0.509
301.000	226.468	79.996	19.996	103.188	20.104	1.623	0.491
301.500	226.736	79.998	19.996	103.185	20.103	1.685	0.480
302.000	226.986	79.996	19.996	103.181	20.105	1.541	0.502
302.500	227.220	79.997	19.998	103.178	20.107	1.397	0.501
303.000	227.511	79.997	19.996	103.180	20.103	1.706	0.505
303.500	227.732	79.998	19.996	103.178	20.103	1.676	0.519
304.000	227.979	79.997	19.997	103.179	20.104	1.577	0.489
304.500	228.234	79.997	19.998	103.178	20.102	1.729	0.485
305.000	228.471	80.000	19.996	103.180	20.103	1.706	0.497
305.500	228.739	79.998	19.996	103.174	20.104	1.589	0.499
306.000	229.071	79.999	19.996	103.172	20.103	1.685	0.553
306.500	229.264	79.999	19.997	103.167	20.105	1.526	0.563
307.000	229.539	79.998	19.997	103.167	20.102	1.742	0.497
307.500	229.797	79.997	19.997	103.164	20.103	1.670	0.500
308.000	230.036	79.999	19.996	103.168	20.103	1.647	0.515
308.500	230.269	79.999	19.997	103.170	20.102	1.716	0.485
309.000	230.524	79.999	19.996	103.170	20.103	1.676	0.480
309.500	230.770	79.998	19.996	103.170	20.105	1.513	0.494
310.000	231.024	79.997	19.997	103.168	20.103	1.691	0.500
310.500	231.253	79.997	19.996	103.162	20.102	1.738	0.492
311.001	231.531	79.999	19.995	103.160	20.100	1.905	0.495
311.500	231.794	79.998	19.995	103.160	20.104	1.632	0.524
312.001	232.043	79.997	19.996	103.159	20.102	1.740	0.526
312.501	232.303	79.998	19.996	103.160	20.103	1.683	0.511
313.000	232.526	79.999	19.995	103.160	20.104	1.640	0.496
313.500	232.748	79.999	19.995	103.160	20.102	1.753	0.464
314.000	233.057	79.998	19.996	103.160	20.102	1.772	0.488
314.500	233.295	80.000	19.996	103.160	20.101	1.814	0.539
315.000	233.527	79.997	19.996	103.161	20.104	1.613	0.508
315.500	233.752	79.997	19.996	103.161	20.106	1.483	0.463
316.000	234.003	79.998	19.995	103.162	20.103	1.700	0.467
316.500	234.259	79.997	19.996	103.162	20.101	1.842	0.492
317.000	234.490	79.999	19.996	103.162	20.102	1.767	0.497
317.500	234.739	79.999	19.996	103.161	20.103	1.680	0.483
318.000	234.936	79.997	19.995	103.161	20.102	1.757	0.463
318.500	235.203	79.998	19.995	103.161	20.105	1.557	0.455
319.000	235.462	79.997	19.996	103.160	20.106	1.486	0.495
319.500	235.731	79.998	19.996	103.161	20.105	1.562	0.527
320.000	235.944	79.997	19.996	103.161	20.103	1.659	0.505
320.500	236.200	79.997	19.995	103.161	20.105	1.534	0.476
321.000	236.453	79.997	19.996	103.163	20.104	1.583	0.489
321.500	236.653	79.998	19.996	103.165	20.105	1.545	0.480
322.000	236.953	79.996	19.996	103.165	20.104	1.577	0.476
322.500	237.213	79.998	19.996	103.166	20.105	1.560	0.530
323.000	237.472	79.999	19.995	103.166	20.107	1.424	0.540
323.500	237.689	79.998	19.995	103.164	20.103	1.642	0.498
324.000	237.973	79.999	19.995	103.162	20.102	1.727	0.488
324.500	238.215	79.997	19.998	103.162	20.105	1.551	0.514
325.000	238.413	79.997	19.995	103.162	20.104	1.581	0.483
325.500	238.695	79.998	19.996	103.162	20.106	1.481	0.459
326.000	238.919	79.998	19.996	103.162	20.101	1.789	0.493
326.500	239.179	80.000	19.995	103.162	20.104	1.621	0.495
327.000	239.425	79.999	19.995	103.162	20.102	1.733	0.495
327.500	239.678	79.999	19.996	103.162	20.102	1.771	0.502
328.000	239.918	79.999	19.997	103.163	20.105	1.570	0.496
328.500	240.140	79.998	19.996	103.164	20.106	1.456	0.478
329.000	240.380	80.000	19.996	103.165	20.103	1.647	0.462
329.500	240.637	80.000	19.995	103.165	20.104	1.632	0.480
330.000	240.881	80.000	19.996	103.165	20.104	1.634	0.499
330.500	241.116	79.999	19.995	103.168	20.105	1.566	0.490
331.000	241.379	80.000	19.995	103.169	20.101	1.829	0.488
331.500	241.639	80.000	19.996	103.167	20.102	1.740	0.511
332.000	241.893	79.999	19.995	103.167	20.103	1.699	0.519
332.500	242.123	79.999	19.996	103.167	20.102	1.774	0.499
333.000	242.389	80.000	19.996	103.166	20.104	1.625	0.490
333.500	242.658	80.000	19.995	103.166	20.104	1.638	0.515
334.000	242.869	79.998	19.996	103.167	20.105	1.517	0.508
334.500	243.123	79.999	19.995	103.166	20.104	1.585	0.473
335.000	243.398	80.001	19.995	103.165	20.102	1.735	0.497
335.500	243.643	80.000	19.996	103.162	20.105	1.540	0.524
336.000	243.885	79.998	19.995	103.160	20.105	1.542	0.504
336.500	244.112	79.999	19.996	103.162	20.103	1.648	0.478
337.000	244.335	79.999	19.996	103.164	20.105	1.568	0.459
337.500	244.612	79.999	19.995	103.167	20.104	1.629	0.476
338.000	244.872	79.999	19.995	103.170	20.106	1.504	0.519
338.500	245.098	80.000	19.995	103.170	20.104	1.594	0.512
339.000	245.360	79.999	19.997	103.169	20.106	1.477	0.487
339.500	245.618	79.997	19.995	103.166	20.105	1.553	0.503
340.000	245.873	79.996	19.996	103.165	20.105	1.568	0.516
340.500	246.106	79.997	19.995	103.166	20.105	1.526	0.501
341.000	246.332	79.996	19.995	103.172	20.108	1.314	0.474
341.500	246.599	79.996	19.996	103.175	20.106	1.502	0.476
342.000	246.833	79.996	19.998	103.178	20.104	1.610	0.497
342.500	247.120	79.997	19.997	103.179	20.109	1.293	0.511
343.000	247.366	79.998	19.995	103.175	20.103	1.657	0.527
343.500	247.569	79.998	19.996	103.171	20.104	1.600	0.491
344.000	247.859	79.997	19.995	103.169	20.105	1.538	0.471
344.500	248.086	79.998	19.995	103.169	20.103	1.651	0.505
345.000	248.330	79.998	19.995	103.170	20.103	1.698	0.493
345.500	248.591	79.997	19.996	103.173	20.106	1.492	0.488
346.000	248.850	79.996	19.996	103.175	20.103	1.699	0.513
346.500	249.080	79.996	19.995	103.176	20.104	1.574	0.505
347.000	249.351	79.997	19.995	103.176	20.105	1.522	0.495
347.500	249.636	79.999	19.996	103.175	20.105	1.513	0.528
348.000	249.859	79.996	19.995	103.172	20.102	1.742	0.532
348.500	250.130	79.997	19.995	103.169	20.103	1.689	0.502
349.000	250.434	79.998	19.994	103.167	20.104	1.589	0.534
349.500	250.633	79.996	19.997	103.164	20.107	1.386	0.539
350.000	250.876	79.997	19.996	103.164	20.107	1.435	0.473
350.500	251.140	79.995	19.996	103.163	20.107	1.414	0.475
351.000	251.358	79.997	19.996	103.164	20.110	1.185	0.495
351.500	251.625	79.997	19.995	103.164	20.106	1.492	0.484
352.000	251.890	79.997	19.996	103.169	20.108	1.327	0.509
352.500	252.130	79.996	19.998	103.175	20.107	1.426	0.518
353.000	252.377	79.997	19.998	103.175	20.107	1.407	0.496
353.500	252.607	79.998	19.995	103.175	20.104	1.585	0.482
354.000	252.879	79.996	19.995	103.174	20.106	1.449	0.489
354.500	253.115	79.997	19.995	103.168	20.104	1.576	0.505
355.000	253.373	79.997	19.996	103.162	20.105	1.551	0.501
355.500	253.602	79.998	19.996	103.162	20.106	1.475	0.491
356.000	253.839	79.997	19.996	103.162	20.109	1.252	0.476
356.500	254.099	79.998	19.997	103.163	20.108	1.339	0.481
357.000	254.368	79.997	19.995	103.163	20.103	1.708	0.513
357.500	254.556	79.996	19.996	103.163	20.107	1.431	0.493
358.000	254.798	79.997	19.996	103.162	20.111	1.161	0.444
358.500	255.063	79.996	19.997	103.162	20.105	1.568	0.468
359.000	255.327	79.996	19.996	103.161	20.107	1.373	0.518
359.500	255.570	79.996	19.997	103.161	20.107	1.430	0.518
360.000	255.807	79.997	19.996	103.161	20.107	1.401	0.493
360.500	256.062	79.998	19.996	103.161	20.105	1.556	0.486
361.000	256.335	79.997	19.996	103.159	20.110	1.202	0.510
361.500	256.548	79.996	19.996	103.160	20.106	1.437	0.507
362.000	256.798	79.995	19.995	103.160	20.110	1.168	0.474
362.500	257.019	79.995	19.996	103.159	20.108	1.329	0.467
363.000	257.306	79.997	19.997	103.160	20.108	1.303	0.490
363.500	257.571	79.997	19.996	103.162	20.108	1.324	0.530
364.000	257.799	79.998	19.996	103.161	20.112	1.064	0.522
364.500	258.049	79.996	19.996	103.163	20.109	1.238	0.485
365.000	258.306	79.997	19.996	103.167	20.107	1.416	0.493
365.500	258.553	79.997	19.997	103.170	20.107	1.412	0.505
366.000	258.835	79.996	19.996	103.170	20.108	1.367	0.516
366.500	259.082	79.997	19.996	103.170	20.106	1.448	0.529
367.000	259.309	79.997	19.996	103.168	20.108	1.340	0.502
367.500	259.536	79.997	19.997	103.163	20.106	1.437	0.464
368.000	259.788	79.996	19.996	103.161	20.110	1.225	0.466
368.501	260.012	79.997	19.996	103.160	20.108	1.361	0.478
369.001	260.272	79.998	19.996	103.160	20.110	1.215	0.480
369.500	260.516	79.997	19.996	103.161	20.107	1.424	0.494
370.000	260.797	79.995	19.996	103.161	20.108	1.310	0.514
370.500	261.020	79.997	19.996	103.161	20.109	1.249	0.515
371.000	261.260	79.998	19.997	103.160	20.110	1.208	0.484
371.500	261.508	79.995	19.996	103.159	20.110	1.219	0.476
372.000	261.776	79.997	19.996	103.158	20.109	1.242	0.502
372.500	262.024	79.997	19.996	103.157	20.109	1.289	0.515
373.000	262.243	79.996	19.996	103.156	20.110	1.230	0.491
373.500	262.467	79.996	19.997	103.157	20.109	1.268	0.455
374.000	262.725	79.995	19.996	103.157	20.111	1.132	0.463
374.500	262.963	79.997	19.997	103.158	20.108	1.354	0.489
375.000	263.195	79.996	19.996	103.160	20.111	1.164	0.482
375.500	263.485	79.996	19.996	103.159	20.108	1.322	0.496
376.000	263.725	79.996	19.996	103.159	20.110	1.191	0.527
376.500	263.960	79.996	19.996	103.157	20.112	1.091	0.502
377.000	264.228	79.995	19.997	103.153	20.109	1.278	0.489
377.501	264.470	79.997	19.995	103.150	20.110	1.195	0.507
378.001	264.716	79.996	19.997	103.148	20.109	1.255	0.499
378.500	264.925	79.996	19.996	103.144	20.111	1.136	0.471
379.000	265.147	79.995	19.997	103.146	20.109	1.270	0.443
379.500	265.383	79.996	19.996	103.146	20.111	1.125	0.445
380.000	265.658	79.997	19.997	103.144	20.111	1.159	0.485
380.500	265.859	79.997	19.996	103.146	20.108	1.310	0.493
381.000	266.132	79.998	19.997	103.147	20.113	0.975	0.475
381.500	266.352	79.996	19.996	103.141	20.111	1.113	0.484
382.000	266.623	79.996	19.997	103.137	20.112	1.064	0.493
382.500	266.887	79.997	19.996	103.139	20.112	1.058	0.513
383.000	267.098	79.996	19.997	103.138	20.109	1.284	0.504
383.500	267.386	79.997	19.996	103.135	20.113	1.003	0.487
384.000	267.630	79.998	19.996	103.138	20.112	1.094	0.516
384.500	267.861	79.997	19.996	103.145	20.109	1.234	0.503
385.000	268.127	79.999	19.997	103.146	20.110	1.166	0.486
385.500	268.340	79.998	19.996	103.145	20.110	1.225	0.488
386.000	268.594	79.997	19.996	103.150	20.112	1.096	0.473
386.500	268.838	79.998	19.996	103.150	20.112	1.034	0.483
387.000	269.078	79.997	19.997	103.149	20.113	0.968	0.491
387.500	269.287	79.998	19.997	103.150	20.108	1.314	0.466
388.000	269.510	79.998	19.996	103.152	20.113	0.985	0.440
388.500	269.777	79.998	19.997	103.152	20.109	1.246	0.461
389.000	270.022	79.997	19.997	103.156	20.113	1.026	0.501
389.500	270.331	79.998	19.994	103.152	20.111	1.136	0.533
390.000	270.530	79.997	19.995	103.150	20.110	1.231	0.531
390.500	270.783	79.997	19.997	103.148	20.109	1.248	0.480
391.000	271.017	79.998	19.996	103.147	20.112	1.093	0.470
391.500	271.333	79.999	19.993	103.145	20.111	1.110	0.519
392.000	271.546	79.999	19.997	103.149	20.110	1.178	0.539
392.500	271.796	79.998	19.996	103.150	20.112	1.045	0.495
393.000	272.050	79.998	19.997	103.146	20.112	1.076	0.483
393.500	272.286	79.998	19.996	103.142	20.112	1.062	0.497
394.000	272.533	79.997	19.997	103.140	20.112	1.062	0.487
394.500	272.792	79.998	19.996	103.138	20.110	1.219	0.494
395.000	273.047	79.999	19.996	103.140	20.110	1.210	0.510
395.500	273.257	79.997	19.997	103.146	20.111	1.155	0.490
396.000	273.526	79.998	19.997	103.152	20.113	1.003	0.472
396.500	273.782	79.999	19.999	103.157	20.110	1.187	0.502
397.000	273.967	79.998	19.997	103.159	20.113	1.017	0.483
397.500	274.254	79.998	19.996	103.159	20.113	1.026	0.456
398.000	274.497	80.000	19.996	103.159	20.111	1.108	0.502
398.500	274.706	79.998	19.996	103.159	20.113	0.969	0.491
399.000	274.980	79.998	19.997	103.159	20.109	1.257	0.467
399.500	275.248	79.998	19.997	103.160	20.112	1.075	0.512
400.000	275.477	79.999	19.996	103.160	20.113	0.992	0.520
400.500	275.701	79.998	19.996	103.160	20.115	0.884	0.475
401.000	275.993	79.997	19.996	103.160	20.114	0.913	0.485
401.500	276.205	79.999	19.995	103.161	20.112	1.049	0.510
402.000	276.437	79.998	19.996	103.160	20.113	0.979	0.474
402.500	276.674	80.000	19.995	103.160	20.114	0.952	0.456
403.000	276.959	79.999	19.995	103.160	20.114	0.896	0.495
403.500	277.195	79.998	19.995	103.161	20.116	0.807	0.521
404.000	277.446	79.998	19.996	103.161	20.114	0.922	0.504
404.500	277.688	79.998	19.995	103.161	20.113	0.996	0.490
405.000	277.906	79.998	19.996	103.160	20.112	1.074	0.476
405.500	278.175	79.999	19.995	103.160	20.115	0.835	0.474
406.000	278.425	80.000	19.994	103.160	20.114	0.928	0.503
406.500	278.692	80.000	19.996	103.157	20.111	1.104	0.518
407.000	278.931	80.001	19.994	103.154	20.111	1.102	0.511
407.500	279.179	80.000	19.996	103.152	20.113	0.990	0.496
408.000	279.433	80.000	19.996	103.149	20.112	1.032	0.495
408.500	279.646	79.999	19.995	103.148	20.114	0.954	0.485
409.000	279.921	79.999	19.995	103.150	20.112	1.045	0.477
409.500	280.135	79.999	19.996	103.153	20.113	0.964	0.488
410.000	280.405	80.000	19.995	103.155	20.114	0.939	0.487
410.500	280.629	80.000	19.994	103.159	20.112	1.083	0.489
411.000	280.932	79.999	19.994	103.160	20.110	1.168	0.510
411.500	281.120	80.001	19.992	103.160	20.112	1.077	0.509
412.000	281.393	79.997	19.995	103.155	20.116	0.812	0.476
412.500	281.614	80.001	19.996	103.155	20.114	0.935	0.477
413.000	281.858	79.999	19.994	103.155	20.116	0.790	0.480
413.500	282.131	79.999	19.994	103.155	20.112	1.034	0.491
414.000	282.375	80.000	19.994	103.156	20.115	0.892	0.517
414.500	282.632	79.998	19.995	103.162	20.111	1.102	0.509
415.000	282.869	79.998	19.997	103.163	20.111	1.115	0.498
415.500	283.107	80.000	19.993	103.163	20.112	1.056	0.485
416.000	283.398	80.002	19.992	103.160	20.114	0.946	0.503
416.500	283.587	79.999	19.994	103.160	20.116	0.808	0.505
417.000	283.876	79.998	19.994	103.158	20.111	1.098	0.479
417.500	284.079	79.999	19.994	103.156	20.113	1.007	0.485
418.000	284.330	79.997	19.997	103.154	20.108	1.321	0.473
418.500	284.613	80.000	19.995	103.153	20.112	1.062	0.494
419.000	284.827	79.998	19.996	103.152	20.112	1.083	0.515
419.500	285.109	79.999	19.996	103.153	20.110	1.198	0.496
420.000	285.350	79.999	19.995	103.154	20.111	1.102	0.509
420.500	285.591	79.998	19.995	103.155	20.111	1.143	0.503
421.000	285.835	79.997	19.995	103.157	20.108	1.342	0.483
421.500	286.084	79.999	19.994	103.159	20.111	1.145	0.489
422.000	286.359	79.997	19.993	103.159	20.113	0.990	0.509
422.500	286.563	79.997	19.993	103.161	20.113	1.003	0.502
423.000	286.856	79.997	19.996	103.163	20.111	1.149	0.488
423.501	287.096	79.997	19.995	103.163	20.112	1.085	0.514
424.001	287.336	79.997	19.994	103.163	20.110	1.202	0.506
424.500	287.604	79.997	19.995	103.159	20.106	1.481	0.494
425.000	287.828	79.996	19.992	103.155	20.107	1.392	0.500
425.500	288.115	79.999	19.994	103.152	20.111	1.117	0.501
426.000	288.331	79.997	19.994	103.144	20.108	1.348	0.507
426.500	288.576	79.995	19.994	103.138	20.112	1.053	0.482
427.000	288.783	80.001	19.996	103.134	20.111	1.159	0.457
427.500	289.056	79.999	19.998	103.132	20.113	0.969	0.466
428.000	289.300	79.995	19.997	103.132	20.108	1.346	0.498
428.501	289.571	80.002	19.992	103.139	20.112	1.058	0.516
429.001	289.794	79.999	19.991	103.145	20.110	1.181	0.504
429.500	290.019	79.993	19.998	103.147	20.110	1.187	0.471
430.000	290.272	80.000	19.993	103.146	20.109	1.289	0.464
430.500	290.565	79.999	19.999	103.145	20.111	1.115	0.512
431.000	290.777	79.995	19.996	103.139	20.110	1.170	0.526
431.500	291.016	79.998	19.994	103.138	20.108	1.318	0.478
432.000	291.284	79.999	19.994	103.145	20.109	1.282	0.479
432.501	291.503	79.996	19.999	103.148	20.110	1.198	0.497
433.001	291.735	79.993	19.998	103.148	20.111	1.140	0.469
433.500	291.993	79.999	19.994	103.154	20.110	1.187	0.470
434.000	292.243	79.997	19.994	103.153	20.110	1.174	0.499
434.500	292.491	79.999	19.992	103.151	20.114	0.960	0.504
435.000	292.769	79.991	19.999	103.154	20.113	1.013	0.512
435.500	293.011	79.997	19.992	103.157	20.112	1.096	0.523
436.000	293.280	79.992	19.999	103.159	20.111	1.129	0.515
436.500	293.504	79.999	19.993	103.161	20.111	1.098	0.502
437.000	293.754	79.995	19.991	103.162	20.117	0.738	0.483
437.500	294.001	79.998	19.998	103.162	20.113	0.992	0.485
438.000	294.238	80.000	19.993	103.163	20.112	1.094	0.490
438.501	294.494	79.993	19.993	103.162	20.113	0.971	0.489
439.000	294.772	79.999	19.996	103.161	20.113	1.019	0.513
439.500	294.999	79.997	19.995	103.159	20.111	1.132	0.519
440.000	295.249	79.996	19.997	103.156	20.114	0.897	0.491
440.500	295.523	79.994	20.003	103.155	20.114	0.922	0.501
441.000	295.710	80.001	19.994	103.153	20.115	0.884	0.492
441.500	296.033	79.997	19.995	103.149	20.110	1.233	0.486
442.000	296.279	79.998	19.993	103.143	20.115	0.894	0.540
442.500	296.500	79.997	19.994	103.140	20.110	1.172	0.518
443.000	296.792	79.999	19.996	103.141	20.111	1.147	0.490
443.500	297.004	79.997	19.999	103.142	20.111	1.157	0.508
444.000	297.271	79.999	19.995	103.146	20.109	1.259	0.491
444.500	297.501	80.001	19.990	103.153	20.108	1.310	0.488
445.000	297.778	80.000	19.998	103.160	20.111	1.162	0.502
445.500	298.042	79.998	19.993	103.160	20.108	1.325	0.524
446.000	298.289	80.001	19.986	103.160	20.111	1.125	0.526
446.500	298.527	79.994	19.999	103.163	20.109	1.240	0.498
447.001	298.811	79.999	19.997	103.159	20.109	1.284	0.504
447.501	299.060	79.997	19.994	103.157	20.109	1.301	0.528
448.000	299.259	79.994	19.999	103.159	20.108	1.305	0.490
448.500	299.579	80.000	19.994	103.158	20.109	1.253	0.483
449.000	299.817	79.998	19.993	103.156	20.107	1.392	0.539
449.500	300.094	79.996	19.997	103.159	20.111	1.144	0.537
450.000	300.315	79.996	19.996	103.158	20.108	1.348	0.507
450.500	300.573	79.999	19.996	103.157	20.108	1.325	0.488
451.000	300.807	79.998	19.994	103.157	20.110	1.185	0.485
451.500	301.089	79.997	19.997	103.154	20.107	1.388	0.504
452.000	301.324	80.000	19.993	103.151	20.110	1.185	0.517
452.500	301.572	79.995	20.002	103.149	20.112	1.041	0.500
453.000	301.816	79.997	19.996	103.149	20.107	1.397	0.487
453.500	302.091	79.998	19.996	103.145	20.111	1.164	0.506
454.000	302.333	79.995	19.996	103.144	20.107	1.380	0.518
454.500	302.593	79.997	19.996	103.143	20.108	1.305	0.509
455.000	302.854	79.998	19.994	103.142	20.107	1.376	0.511
455.500	303.103	79.998	19.997	103.141	20.108	1.340	0.516
456.000	303.336	79.997	19.997	103.143	20.108	1.340	0.496
456.500	303.570	79.996	19.999	103.147	20.106	1.456	0.474
457.000	303.800	79.995	19.997	103.151	20.108	1.329	0.465
457.500	304.081	79.997	19.996	103.156	20.110	1.177	0.487
458.000	304.328	80.000	19.994	103.157	20.111	1.126	0.520
458.500	304.573	79.996	19.997	103.159	20.107	1.384	0.510
459.000	304.814	79.997	19.996	103.159	20.106	1.478	0.489
459.500	305.080	79.997	19.995	103.159	20.107	1.395	0.497
460.000	305.321	79.997	19.998	103.153	20.105	1.571	0.507
460.500	305.603	79.998	19.998	103.147	20.108	1.365	0.514
461.000	305.824	79.999	19.996	103.144	20.108	1.346	0.513
461.500	306.080	79.998	19.997	103.144	20.106	1.452	0.490
462.000	306.339	79.998	19.997	103.145	20.105	1.541	0.497
462.500	306.571	79.996	19.999	103.150	20.107	1.371	0.503
463.000	306.846	79.998	19.996	103.156	20.105	1.530	0.499
463.500	307.119	79.997	19.998	103.160	20.107	1.403	0.528
464.000	307.327	79.997	19.992	103.159	20.105	1.564	0.514
464.500	307.613	79.999	19.995	103.156	20.105	1.515	0.487
465.000	307.853	79.999	19.996	103.156	20.105	1.549	0.510
465.500	308.106	79.999	19.994	103.156	20.104	1.623	0.510
466.000	308.373	79.999	19.993	103.152	20.102	1.770	0.506
466.500	308.611	79.996	19.995	103.145	20.101	1.778	0.512
467.000	308.863	80.001	19.995	103.142	20.101	1.822	0.498
467.500	309.113	79.998	19.999	103.140	20.103	1.702	0.496
468.000	309.344	79.997	19.998	103.133	20.103	1.695	0.491
468.500	309.624	79.999	19.997	103.130	20.102	1.750	0.496
469.000	309.873	79.999	19.996	103.130	20.100	1.878	0.520
469.500	310.144	79.998	19.994	103.129	20.102	1.770	0.525
470.000	310.376	79.999	19.996	103.132	20.100	1.867	0.512
470.500	310.619	80.000	19.992	103.139	20.101	1.787	0.489
471.000	310.881	79.998	19.996	103.147	20.102	1.759	0.490
471.500	311.151	80.000	19.993	103.155	20.103	1.655	0.518
472.000	311.411	79.998	19.996	103.163	20.102	1.766	0.531
472.500	311.623	80.001	19.996	103.163	20.100	1.863	0.501
473.000	311.883	80.001	19.994	103.163	20.103	1.675	0.472
473.500	312.159	79.999	19.996	103.162	20.101	1.819	0.504
474.000	312.420	79.997	19.997	103.162	20.101	1.819	0.536
474.500	312.662	79.997	19.998	103.159	20.101	1.819	0.520
475.000	312.931	79.998	19.998	103.158	20.102	1.764	0.507
475.500	313.214	79.995	19.997	103.159	20.098	1.980	0.532
476.000	313.430	79.996	19.998	103.157	20.098	2.033	0.526
476.500	313.697	79.996	19.998	103.157	20.094	2.255	0.491
477.000	313.968	79.999	19.996	103.159	20.100	1.874	0.510
477.500	314.209	79.999	19.996	103.160	20.098	1.990	0.525
478.000	314.473	80.001	19.995	103.160	20.099	1.950	0.508
478.500	314.739	80.001	19.996	103.161	20.099	1.961	0.518
479.000	314.986	79.998	19.997	103.162	20.097	2.073	0.522
479.500	315.246	79.999	19.997	103.163	20.097	2.086	0.510
480.000	315.464	79.997	19.994	103.162	20.094	2.313	0.492
480.500	315.696	79.998	19.997	103.163	20.095	2.247	0.464
481.000	315.979	79.998	19.997	103.163	20.096	2.166	0.483
481.500	316.220	79.997	19.996	103.162	20.098	2.043	0.520
482.000	316.471	79.999	19.996	103.158	20.096	2.145	0.508
482.500	316.733	79.995	20.000	103.152	20.097	2.077	0.502
483.000	316.983	79.998	19.997	103.144	20.094	2.311	0.513
483.500	317.209	79.998	19.996	103.137	20.094	2.275	0.494
484.000	317.507	79.996	19.997	103.132	20.094	2.281	0.500
484.500	317.746	79.997	19.997	103.131	20.097	2.101	0.531
485.000	318.012	79.997	19.998	103.135	20.096	2.179	0.521
485.500	318.265	79.997	19.996	103.138	20.092	2.429	0.512
486.000	318.500	79.998	19.995	103.141	20.092	2.404	0.503
486.500	318.749	79.997	19.998	103.147	20.091	2.499	0.486
487.000	319.010	79.997	19.996	103.149	20.090	2.560	0.497
487.500	319.256	79.996	19.997	103.144	20.088	2.671	0.509
488.000	319.529	79.999	19.995	103.143	20.088	2.662	0.513
488.500	319.791	79.998	19.994	103.144	20.090	2.547	0.527
489.000	320.020	80.000	19.995	103.140	20.091	2.511	0.513
489.500	320.273	79.997	19.997	103.139	20.089	2.634	0.487
490.000	320.509	79.998	19.997	103.139	20.090	2.568	0.486
490.500	320.786	79.999	19.996	103.139	20.090	2.571	0.501
491.000	321.027	79.998	19.996	103.139	20.090	2.567	0.516
491.500	321.263	79.997	19.996	103.142	20.089	2.632	0.497
492.000	321.562	79.999	19.995	103.141	20.088	2.664	0.506
492.500	321.781	79.998	19.997	103.146	20.087	2.740	0.527
493.000	322.014	80.000	19.996	103.147	20.087	2.793	0.485
493.500	322.284	79.999	19.996	103.143	20.086	2.844	0.477
494.000	322.522	79.993	20.001	103.137	20.085	2.912	0.506
494.500	322.740	80.000	19.994	103.137	20.085	2.903	0.482
495.000	323.025	80.001	19.992	103.134	20.085	2.922	0.479
495.500	323.286	79.999	19.996	103.138	20.087	2.734	0.524
496.000	323.520	79.997	19.998	103.144	20.084	2.990	0.521
496.500	323.745	79.999	19.997	103.145	20.082	3.122	0.477
497.000	324.006	80.002	19.995	103.143	20.083	3.058	0.472
497.500	324.295	79.999	19.994	103.147	20.084	2.975	0.518
498.000	324.531	79.997	20.000	103.147	20.080	3.204	0.537
498.500	324.769	80.000	19.995	103.147	20.083	3.016	0.500
499.000	325.003	80.001	19.995	103.154	20.083	3.060	0.473
499.500	325.271	80.001	19.998	103.158	20.079	3.289	0.487
500.000	325.519	79.999	19.997	103.158	20.082	3.081	0.509
500.500	325.780	79.997	19.996	103.158	20.080	3.243	0.513
501.000	326.037	80.001	19.989	103.158	20.080	3.266	0.513
501.500	326.292	79.995	19.996	103.157	20.078	3.378	0.515
502.000	326.512	80.000	19.995	103.153	20.075	3.575	0.494
502.500	326.773	79.995	19.996	103.149	20.077	3.406	0.478
503.000	327.052	79.996	19.995	103.149	20.075	3.573	0.510
503.500	327.325	80.002	19.991	103.147	20.074	3.645	0.546
504.000	327.606	79.999	19.994	103.149	20.076	3.539	0.553
504.500	327.838	79.999	19.996	103.154	20.073	3.685	0.534
505.000	328.052	79.996	19.996	103.160	20.072	3.761	0.480
505.500	328.296	79.997	19.999	103.160	20.071	3.848	0.452
506.000	328.548	79.996	19.997	103.160	20.071	3.831	0.477
506.500	328.844	79.997	19.995	103.159	20.068	4.018	0.522
507.000	329.069	79.997	19.995	103.159	20.069	3.971	0.534
507.500	329.334	79.996	19.996	103.158	20.065	4.255	0.506
508.000	329.589	79.998	19.992	103.158	20.065	4.253	0.505
508.500	329.840	79.999	19.993	103.158	20.064	4.349	0.513
509.000	330.085	79.998	20.000	103.157	20.065	4.236	0.501
509.500	330.328	79.991	20.000	103.155	20.064	4.315	0.492
510.000	330.628	79.996	19.993	103.155	20.064	4.298	0.515
510.500	330.848	79.992	19.992	103.156	20.063	4.362	0.531
511.000	331.111	79.995	19.990	103.158	20.062	4.453	0.502
511.500	331.355	79.995	19.995	103.159	20.059	4.683	0.495
512.000	331.621	79.994	19.994	103.161	20.060	4.586	0.508
512.500	331.884	79.995	19.994	103.163	20.061	4.552	0.520
513.000	332.106	80.000	19.995	103.162	20.058	4.734	0.507
513.500	332.375	79.997	20.000	103.162	20.056	4.847	0.488
514.000	332.658	79.998	19.997	103.161	20.056	4.876	0.522
514.501	332.898	79.998	19.997	103.161	20.054	4.970	0.538
515.001	333.161	79.999	19.991	103.162	20.054	4.985	0.513
515.501	333.405	80.002	19.991	103.163	20.056	4.878	0.505
516.001	333.639	79.993	19.999	103.163	20.050	5.279	0.492
516.500	333.933	80.003	19.992	103.163	20.052	5.166	0.503
517.000	334.164	79.995	19.998	103.163	20.050	5.275	0.527
517.500	334.400	79.998	19.998	103.163	20.051	5.217	0.496
518.001	334.654	80.003	19.990	103.160	20.050	5.264	0.478
518.501	334.909	79.998	19.996	103.160	20.046	5.520	0.499
519.001	335.204	79.999	19.991	103.161	20.045	5.599	0.529
519.500	335.425	79.999	19.992	103.161	20.044	5.690	0.533
520.000	335.661	79.996	19.995	103.159	20.043	5.777	0.487
520.500	335.911	79.998	19.996	103.159	20.042	5.849	0.471
521.000	336.193	79.998	19.998	103.158	20.044	5.660	0.508
521.500	336.424	79.997	19.996	103.158	20.041	5.889	0.522
522.001	336.639	79.997	19.992	103.158	20.040	5.921	0.480
522.501	336.909	79.999	19.994	103.160	20.040	5.952	0.466
523.000	337.142	79.996	19.996	103.162	20.037	6.152	0.494
523.500	337.411	80.000	19.993	103.162	20.040	5.957	0.502
524.000	337.662	80.002	19.992	103.163	20.037	6.160	0.511
524.500	337.885	79.997	19.999	103.160	20.039	6.048	0.497
525.000	338.145	79.998	19.995	103.159	20.034	6.391	0.478
525.500	338.371	79.999	19.997	103.158	20.033	6.436	0.484
526.000	338.633	79.999	19.994	103.159	20.033	6.461	0.487
526.500	338.873	79.999	19.995	103.159	20.028	6.751	0.495
527.000	339.129	79.997	19.995	103.160	20.029	6.702	0.499
527.500	339.380	80.004	19.993	103.162	20.028	6.764	0.501
528.000	339.689	80.001	19.992	103.162	20.028	6.781	0.533
528.500	339.901	79.999	19.997	103.162	20.022	7.147	0.541
529.000	340.208	79.999	19.996	103.162	20.025	6.967	0.520
529.500	340.422	79.999	19.996	103.163	20.025	7.002	0.520
530.000	340.622	79.998	19.998	103.163	20.022	7.154	0.468
530.500	340.885	79.997	19.997	103.162	20.024	7.035	0.439
531.000	341.135	79.998	19.995	103.161	20.024	7.065	0.488
531.500	341.373	79.998	19.995	103.163	20.019	7.366	0.500
532.000	341.648	79.998	19.995	103.163	20.019	7.347	0.500
532.500	341.915	79.996	19.994	103.164	20.022	7.150	0.527
533.000	342.145	79.999	19.995	103.165	20.020	7.340	0.519
533.500	342.406	80.000	19.993	103.166	20.019	7.389	0.494
534.000	342.629	79.996	19.995	103.164	20.014	7.703	0.488
534.500	342.870	80.002	19.995	103.164	20.012	7.883	0.474
535.000	343.126	80.003	19.992	103.163	20.011	7.917	0.481
535.500	343.408	80.000	19.994	103.165	20.014	7.730	0.518
536.000	343.620	79.998	19.997	103.165	20.013	7.766	0.516
536.500	343.915	79.997	19.987	103.168	20.010	7.959	0.501
537.000	344.156	79.995	19.996	103.169	20.009	8.048	0.521
537.500	344.433	79.998	19.997	103.170	20.007	8.220	0.527
538.000	344.669	79.995	19.993	103.170	20.006	8.258	0.515
538.500	344.894	79.996	19.995	103.171	20.006	8.252	0.487
539.000	345.161	79.997	19.990	103.168	20.006	8.258	0.477
539.500	345.400	79.996	19.993	103.168	20.001	8.605	0.499
540.000	345.644	79.997	19.994	103.166	20.000	8.648	0.494
540.500	345.921	79.997	19.998	103.166	20.004	8.392	0.502
541.000	346.156	79.997	19.996	103.165	20.002	8.536	0.517
541.500	346.393	79.998	19.996	103.168	19.999	8.735	0.492
542.000	346.685	79.996	19.997	103.169	19.999	8.767	0.500
542.500	346.925	79.998	19.996	103.169	19.998	8.803	0.530
543.000	347.174	79.996	19.996	103.168	19.997	8.899	0.510
543.500	347.456	79.997	19.995	103.167	19.995	9.036	0.510
544.000	347.641	79.996	19.996	103.166	19.993	9.123	0.499
544.500	347.905	79.997	19.995	103.164	19.993	9.163	0.458
545.000	348.151	80.001	19.995	103.164	19.991	9.292	0.480
545.500	348.429	79.998	19.994	103.165	19.990	9.362	0.517
546.000	348.709	80.000	19.995	103.165	19.986	9.589	0.541
546.500	348.959	79.996	19.995	103.166	19.988	9.451	0.544
547.000	349.202	80.000	19.999	103.167	19.988	9.496	0.511
547.500	349.456	80.001	19.995	103.166	19.983	9.812	0.495
548.000	349.700	79.999	19.993	103.166	19.986	9.640	0.497
548.500	349.961	79.997	19.993	103.166	19.985	9.661	0.502
549.000	350.194	80.000	19.992	103.165	19.984	9.765	0.500
549.500	350.461	79.993	19.999	103.167	19.983	9.830	0.497
550.000	350.732	79.999	19.995	103.167	19.985	9.659	0.519
550.500	350.951	79.999	19.995	103.167	19.981	9.937	0.515
551.000	351.210	80.001	19.992	103.167	19.982	9.915	0.484
551.500	351.478	79.997	19.992	103.167	19.980	9.998	0.502
552.000	351.746	79.998	19.994	103.163	19.982	9.888	0.532
552.500	351.989	79.998	19.997	103.165	19.979	10.070	0.524
553.000	352.214	79.999	19.998	103.164	19.978	10.140	0.489
553.500	352.458	79.996	19.997	103.164	19.973	10.479	0.468
554.000	352.732	79.998	19.993	103.162	19.974	10.420	0.494
554.500	353.016	80.001	19.994	103.162	19.974	10.410	0.538
555.000	353.273	80.001	19.994	103.161	19.975	10.359	0.549
555.500	353.516	79.999	19.994	103.162	19.974	10.401	0.520
556.000	353.763	79.999	19.997	103.162	19.973	10.511	0.495
556.500	354.029	80.001	19.996	103.164	19.973	10.484	0.501
557.000	354.259	79.997	19.995	103.164	19.969	10.741	0.505
557.500	354.475	79.999	19.997	103.164	19.969	10.749	0.471
558.000	354.775	79.997	19.993	103.162	19.968	10.808	0.481
558.500	355.024	79.999	19.994	103.163	19.966	10.944	0.533
559.000	355.248	79.997	19.992	103.162	19.967	10.933	0.511
559.500	355.522	79.998	19.993	103.163	19.965	11.016	0.485
560.000	355.771	79.997	19.995	103.164	19.962	11.238	0.511
560.500	356.009	79.994	20.001	103.166	19.963	11.174	0.505
561.000	356.279	80.000	19.993	103.164	19.962	11.251	0.497
561.500	356.508	79.998	19.995	103.164	19.962	11.282	0.503
562.000	356.724	79.998	19.995	103.163	19.961	11.301	0.472
562.500	357.018	79.998	19.994	103.162	19.962	11.217	0.478
563.001	357.305	79.997	19.997	103.162	19.963	11.200	0.545
563.500	357.542	80.000	19.994	103.164	19.958	11.548	0.552
564.000	357.812	79.999	19.998	103.164	19.961	11.349	0.516
564.500	358.035	79.996	19.998	103.162	19.957	11.605	0.500
565.000	358.286	79.998	19.998	103.161	19.959	11.421	0.483
565.500	358.561	79.997	19.996	103.160	19.956	11.679	0.500
566.000	358.795	79.998	19.995	103.160	19.957	11.619	0.517
566.500	359.056	79.998	19.995	103.160	19.955	11.748	0.502
567.000	359.275	79.998	19.998	103.161	19.953	11.882	0.488
567.500	359.504	79.992	19.996	103.158	19.954	11.800	0.464
568.000	359.769	80.002	19.995	103.157	19.951	11.969	0.471
568.500	360.012	79.994	19.997	103.158	19.952	11.906	0.501
569.000	360.291	80.003	19.994	103.156	19.951	12.023	0.515
569.500	360.526	79.994	19.999	103.156	19.952	11.952	0.518
570.000	360.780	79.992	20.003	103.159	19.952	11.923	0.502
570.500	361.052	80.004	19.995	103.158	19.948	12.181	0.507
571.000	361.283	80.006	19.995	103.158	19.950	12.094	0.514
571.500	361.544	79.993	20.000	103.161	19.945	12.418	0.497
572.000	361.804	80.003	19.992	103.160	19.951	12.000	0.507
572.500	362.040	80.001	19.995	103.161	19.947	12.240	0.509
573.000	362.283	79.998	20.002	103.163	19.948	12.201	0.487
573.500	362.541	79.998	19.999	103.161	19.946	12.360	0.490
574.000	362.797	79.997	20.000	103.158	19.944	12.453	0.507
574.500	363.062	80.002	19.988	103.157	19.947	12.234	0.518
575.000	363.290	79.999	19.996	103.157	19.944	12.463	0.507
575.500	363.549	80.004	19.988	103.157	19.946	12.313	0.490
576.000	363.799	80.001	19.993	103.159	19.942	12.586	0.499
576.500	364.027	80.002	19.991	103.160	19.940	12.717	0.494
577.000	364.300	80.000	19.995	103.165	19.943	12.531	0.489
577.500	364.542	80.000	19.996	103.164	19.942	12.591	0.508
578.000	364.810	79.999	19.996	103.164	19.943	12.508	0.513
578.500	365.038	79.997	19.995	103.162	19.941	12.667	0.503
579.000	365.329	80.001	19.994	103.163	19.939	12.840	0.508
579.500	365.559	80.003	19.997	103.160	19.940	12.721	0.520
580.000	365.843	80.000	19.996	103.158	19.941	12.681	0.518
580.500	366.075	80.002	19.992	103.159	19.939	12.828	0.515
581.000	366.332	80.001	19.994	103.162	19.940	12.771	0.502
581.500	366.548	79.999	19.997	103.165	19.941	12.696	0.481
582.000	366.823	79.996	19.997	103.165	19.940	12.751	0.483
582.500	367.087	80.002	19.994	103.166	19.939	12.819	0.515
583.000	367.327	79.999	19.995	103.166	19.938	12.859	0.521
583.500	367.561	79.998	19.999	103.163	19.937	12.916	0.489
584.000	367.832	79.998	19.995	103.158	19.933	13.217	0.489
584.500	368.070	79.997	20.000	103.157	19.936	13.003	0.507
585.000	368.339	79.998	19.991	103.156	19.935	13.107	0.508
585.500	368.618	79.998	19.994	103.159	19.935	13.050	0.527
586.000	368.864	79.996	19.996	103.160	19.933	13.220	0.537
586.500	369.098	79.994	19.996	103.161	19.934	13.148	0.503
587.000	369.346	79.993	20.006	103.160	19.934	13.144	0.481
587.500	369.628	79.995	19.994	103.160	19.932	13.254	0.506
588.000	369.885	79.999	19.990	103.157	19.931	13.332	0.534
588.500	370.101	79.999	19.997	103.158	19.930	13.425	0.505
589.000	370.404	79.997	19.996	103.158	19.928	13.525	0.496
589.500	370.658	80.000	19.995	103.160	19.930	13.451	0.538
590.000	370.889	79.998	19.999	103.162	19.928	13.588	0.521
590.500	371.128	79.999	19.993	103.162	19.929	13.510	0.477
591.000	371.400	79.997	19.997	103.161	19.931	13.388	0.490
591.500	371.639	79.994	19.996	103.161	19.927	13.626	0.511
592.000	371.915	80.001	19.999	103.160	19.926	13.679	0.513
592.500	372.147	79.998	19.996	103.159	19.925	13.729	0.512
593.001	372.370	79.996	19.998	103.161	19.927	13.638	0.482
593.501	372.671	79.998	19.991	103.162	19.925	13.730	0.489
594.002	372.909	79.993	20.001	103.163	19.925	13.753	0.531
594.501	373.227	80.000	19.995	103.164	19.927	13.659	0.547
595.000	373.455	79.998	19.993	103.163	19.925	13.791	0.551
595.500	373.720	80.001	19.999	103.161	19.926	13.715	0.519
596.000	373.985	79.999	19.998	103.160	19.923	13.874	0.511
596.501	374.216	80.001	19.995	103.158	19.920	14.088	0.513
597.001	374.517	79.998	19.997	103.158	19.923	13.902	0.514
597.502	374.729	79.999	19.995	103.158	19.923	13.887	0.523
598.001	374.967	79.997	19.997	103.159	19.921	14.048	0.482
598.500	375.234	79.998	19.996	103.159	19.920	14.088	0.477
599.000	375.478	79.997	19.998	103.161	19.921	14.044	0.507
599.500	375.745	79.994	19.993	103.161	19.921	14.035	0.511
600.000	376.013	79.995	19.998	103.161	19.916	14.347	0.524
600.500	376.227	80.004	19.995	103.161	19.920	14.084	0.509
601.000	376.484	79.999	19.992	103.162	19.920	14.116	0.477
601.500	376.793	79.998	19.988	103.163	19.921	14.025	0.519
602.000	377.019	79.996	19.994	103.165	19.919	14.186	0.550
602.500	377.247	79.998	19.993	103.166	19.917	14.273	0.494
603.000	377.523	79.997	19.997	103.167	19.915	14.446	0.479
603.500	377.787	80.006	19.993	103.166	19.916	14.393	0.522
604.000	378.001	79.998	19.995	103.167	19.916	14.391	0.509
604.500	378.256	79.999	19.995	103.166	19.917	14.317	0.473
605.000	378.511	79.999	19.996	103.168	19.917	14.290	0.489
605.500	378.793	79.998	19.994	103.168	19.913	14.572	0.523
606.000	379.004	79.998	19.994	103.168	19.915	14.440	0.515
606.500	379.249	79.998	19.994	103.165	19.914	14.531	0.475
607.000	379.511	79.997	19.995	103.165	19.912	14.633	0.482
607.500	379.798	79.999	19.996	103.163	19.913	14.570	0.528
608.000	380.059	79.998	19.996	103.162	19.911	14.687	0.548
608.500	380.311	79.997	19.996	103.162	19.913	14.553	0.530
609.000	380.514	79.997	19.996	103.162	19.910	14.769	0.484
609.500	380.818	79.998	19.996	103.161	19.912	14.659	0.482
610.000	381.042	79.998	19.994	103.161	19.913	14.587	0.518
610.500	381.283	79.997	19.996	103.162	19.907	14.972	0.496
611.000	381.560	79.998	19.996	103.162	19.910	14.808	0.491
611.500	381.812	80.000	19.996	103.162	19.907	14.976	0.523
612.000	382.092	79.998	19.996	103.162	19.910	14.785	0.531
612.500	382.323	79.998	19.994	103.162	19.909	14.853	0.522
613.000	382.596	79.996	19.996	103.162	19.906	15.065	0.507
613.500	382.788	79.996	19.996	103.162	19.908	14.937	0.484
614.000	383.038	79.998	19.995	103.162	19.905	15.115	0.454
614.500	383.352	79.997	19.996	103.163	19.904	15.209	0.504
615.000	383.560	79.998	19.996	103.163	19.904	15.188	0.543
615.500	383.828	79.997	19.996	103.162	19.904	15.221	0.498
616.000	384.073	79.999	19.995	103.161	19.904	15.203	0.494
616.500	384.398	79.997	19.995	103.161	19.898	15.567	0.542
617.000	384.640	79.997	19.996	103.161	19.901	15.381	0.569
617.500	384.895	79.996	19.997	103.161	19.898	15.588	0.532
618.000	385.081	79.998	19.994	103.161	19.901	15.384	0.469
618.500	385.332	79.997	19.996	103.158	19.896	15.702	0.439
619.000	385.609	79.997	19.995	103.157	19.895	15.776	0.482
619.500	385.861	79.997	19.996	103.156	19.897	15.681	0.528
620.000	386.155	79.998	19.995	103.156	19.889	16.210	0.538
620.500	386.407	79.996	19.995	103.157	19.895	15.833	0.546
621.000	386.656	79.998	19.995	103.160	19.894	15.873	0.524
621.500	386.879	79.998	19.996	103.162	19.892	16.037	0.486
622.000	387.169	79.998	19.995	103.164	19.884	16.526	0.492
622.500	387.446	79.999	19.994	103.164	19.891	16.063	0.540
623.000	387.681	79.998	19.992	103.164	19.879	16.886	0.540
623.500	387.952	79.999	19.995	103.166	19.885	16.514	0.509
624.000	388.201	79.997	19.996	103.165	19.882	16.713	0.513
624.500	388.453	79.997	19.996	103.165	19.883	16.640	0.511
625.000	388.744	79.997	19.995	103.166	19.880	16.827	0.522
625.500	388.918	79.998	19.995	103.166	19.884	16.555	0.504
626.001	389.174	80.000	19.991	103.164	19.876	17.098	0.447
626.501	389.462	79.999	19.995	103.165	19.879	16.908	0.487
627.000	389.653	79.997	19.994	103.165	19.875	17.167	0.512
627.500	389.983	79.996	19.995	103.165	19.875	17.182	0.500
628.000	390.265	79.997	19.996	103.165	19.876	17.114	0.566
628.500	390.392	79.998	19.995	103.165	19.873	17.319	0.510
629.001	390.728	80.002	19.991	103.166	19.872	17.382	0.436
629.501	391.049	79.998	19.996	103.168	19.869	17.556	0.560
630.001	391.283	79.998	19.995	103.168	19.869	17.599	0.606
630.501	391.496	80.000	19.995	103.170	19.867	17.694	0.501
631.000	391.683	79.998	19.996	103.171	19.868	17.640	0.424
631.500	392.195	79.999	19.995	103.173	19.864	17.887	0.550
632.000	392.114	79.999	19.995	103.175	19.863	17.976	0.565
632.500	392.562	79.998	19.995	103.177	19.867	17.725	0.399
633.000	392.619	80.000	19.996	103.181	19.861	18.089	0.436
633.500	392.950	79.999	19.993	103.186	19.861	18.125	0.446
634.000	393.346	80.001	19.993	103.184	19.859	18.250	0.557
634.500	393.951	80.000	19.996	103.179	19.858	18.335	0.864
635.000	394.219	79.998	19.995	103.178	19.854	18.586	0.937
635.500	394.351	79.999	19.996	103.172	19.855	18.533	0.637
636.000	394.127	80.000	19.996	103.170	19.854	18.614	0.154
636.500	394.602	80.000	19.998	103.175	19.852	18.723	0.079
637.000	394.782	79.999	19.995	103.182	19.852	18.699	0.453
637.500	395.060	80.000	19.997	103.189	19.848	18.961	0.557
638.000	395.292	79.999	19.996	103.196	19.850	18.870	0.485
638.500	395.562	79.999	19.996	103.198	19.849	18.952	0.506
639.000	395.893	79.999	19.998	103.198	19.846	19.121	0.551
639.500	396.055	79.999	19.996	103.190	19.841	19.434	0.547
640.000	396.268	79.997	19.998	103.184	19.839	19.569	0.434
640.500	396.571	80.001	19.997	103.182	19.839	19.608	0.446
641.000	396.837	79.998	19.995	103.178	19.840	19.530	0.543
641.500	397.040	79.997	19.997	103.177	19.841	19.501	0.519
642.000	397.413	79.999	19.994	103.185	19.837	19.778	0.522
642.500	397.530	79.997	19.997	103.191	19.835	19.882	0.532
643.000	397.898	79.998	19.997	103.191	19.831	20.121	0.488
643.500	398.055	79.998	19.996	103.194	19.827	20.414	0.506
644.000	398.365	79.997	19.996	103.196	19.827	20.423	0.496
644.500	398.592	79.997	19.996	103.196	19.830	20.243	0.502
645.001	398.816	79.998	19.996	103.197	19.822	20.755	0.494
645.501	399.091	79.999	19.996	103.196	19.819	20.959	0.475
646.001	399.307	79.999	19.995	103.189	19.819	20.969	0.495
646.501	399.655	79.998	19.997	103.181	19.818	21.022	0.527
647.001	399.823	79.998	19.997	103.175	19.817	21.130	0.540
647.501	400.084	79.999	19.995	103.170	19.810	21.589	0.473
648.000	400.379	79.999	19.996	103.173	19.810	21.557	0.492
648.500	400.603	79.999	19.996	103.178	19.809	21.670	0.537
649.000	400.775	79.998	19.995	103.179	19.807	21.798	0.458
649.500	401.080	79.999	19.997	103.179	19.803	22.022	0.437
650.000	401.375	79.999	19.995	103.176	19.803	22.026	0.538
650.500	401.579	80.000	19.996	103.168	19.797	22.431	0.550
651.000	401.849	79.999	19.996	103.171	19.798	22.360	0.487
651.500	402.097	79.998	19.996	103.177	19.796	22.514	0.496
652.000	402.361	79.999	19.996	103.184	19.795	22.608	0.515
652.500	402.543	80.000	19.996	103.192	19.791	22.883	0.479
653.000	402.847	79.998	19.996	103.201	19.789	22.995	0.466
653.500	403.114	79.999	19.996	103.203	19.786	23.193	0.528
654.000	403.357	80.001	19.995	103.203	19.784	23.326	0.541
654.500	403.583	79.998	19.997	103.202	19.779	23.708	0.490
655.000	403.876	80.002	19.995	103.199	19.780	23.638	0.494
655.500	404.125	79.999	19.996	103.196	19.775	23.958	0.531
656.000	404.355	79.999	19.994	103.190	19.776	23.862	0.510
656.500	404.599	80.000	19.996	103.187	19.769	24.365	0.476
657.000	404.864	79.998	19.997	103.182	19.768	24.440	0.491
657.500	405.101	80.000	19.995	103.180	19.764	24.682	0.506
658.000	405.309	80.000	19.995	103.180	19.762	24.856	0.474
658.500	405.639	80.000	19.996	103.185	19.760	24.965	0.491
659.000	405.824	80.001	19.996	103.188	19.754	25.383	0.527
659.500	406.097	79.998	19.996	103.193	19.753	25.459	0.487
660.000	406.309	80.002	19.997	103.196	19.749	25.711	0.472
660.500	406.570	80.000	19.995	103.197	19.747	25.875	0.479
661.000	406.834	80.000	19.995	103.198	19.747	25.841	0.499
661.500	407.067	80.000	19.997	103.198	19.741	26.261	0.511
662.000	407.303	79.999	19.995	103.194	19.739	26.396	0.483
662.500	407.584	80.000	19.995	103.191	19.737	26.515	0.492
663.000	407.786	80.000	19.995	103.187	19.730	27.027	0.500
663.500	408.051	79.999	19.996	103.186	19.728	27.141	0.476
664.000	408.315	80.000	19.995	103.187	19.722	27.558	0.499
664.500	408.542	79.998	19.998	103.191	19.723	27.481	0.510
665.000	408.812	79.998	19.996	103.195	19.720	27.725	0.493
665.500	409.056	80.000	19.996	103.198	19.715	28.017	0.505
666.000	409.297	79.999	19.995	103.199	19.714	28.150	0.500
666.501	409.569	79.998	19.997	103.200	19.713	28.184	0.499
667.001	409.793	79.998	19.996	103.200	19.710	28.398	0.504
667.500	410.033	79.997	19.997	103.200	19.704	28.814	0.481
668.000	410.287	79.996	19.997	103.202	19.700	29.054	0.479
668.500	410.539	79.996	19.998	103.202	19.697	29.251	0.499
669.000	410.773	79.998	19.999	103.202	19.692	29.567	0.496
669.500	411.052	79.998	19.997	103.203	19.689	29.813	0.500
670.000	411.316	79.999	19.997	103.203	19.686	30.025	0.528
670.500	411.561	79.997	19.998	103.203	19.682	30.249	0.525
671.000	411.803	79.997	19.997	103.204	19.678	30.549	0.498
671.500	412.013	79.996	19.998	103.209	19.675	30.736	0.470
672.000	412.278	79.997	19.997	103.215	19.670	31.118	0.464
672.501	412.534	79.998	19.997	103.222	19.668	31.220	0.498
673.000	412.775	79.998	19.996	103.225	19.664	31.507	0.509
673.500	413.059	79.997	19.997	103.230	19.659	31.829	0.511
674.000	413.281	79.995	19.998	103.232	19.655	32.128	0.515
674.500	413.522	79.997	19.997	103.238	19.649	32.515	0.485
675.000	413.765	79.998	19.997	103.246	19.644	32.840	0.473
675.500	414.056	79.997	19.997	103.251	19.645	32.781	0.509
676.000	414.292	79.997	19.995	103.254	19.640	33.121	0.531
676.500	414.486	79.998	19.997	103.262	19.635	33.488	0.479
677.000	414.764	79.997	19.997	103.261	19.631	33.723	0.451
677.500	415.024	79.998	19.997	103.255	19.629	33.909	0.505
678.000	415.289	79.996	19.996	103.254	19.625	34.181	0.532
678.500	415.533	79.997	19.996	103.244	19.618	34.613	0.517
679.000	415.796	79.997	19.997	103.228	19.612	35.063	0.508
679.500	416.013	79.996	19.998	103.215	19.605	35.493	0.493
680.000	416.260	79.998	19.995	103.206	19.603	35.628	0.472
680.500	416.504	79.997	19.997	103.199	19.596	36.119	0.478
681.000	416.779	79.997	19.996	103.200	19.594	36.240	0.505
681.500	417.036	79.997	19.995	103.202	19.588	36.692	0.526
682.000	417.277	79.998	19.995	103.203	19.585	36.856	0.515
682.500	417.518	79.997	19.995	103.208	19.577	37.465	0.490
683.000	417.785	79.997	19.996	103.217	19.576	37.515	0.494
683.500	418.035	79.998	19.994	103.225	19.568	38.067	0.512
684.000	418.271	79.997	19.995	103.233	19.562	38.481	0.502
684.500	418.524	79.997	19.996	103.244	19.560	38.611	0.488
685.000	418.761	79.998	19.997	103.250	19.553	39.046	0.490
685.500	419.009	79.997	19.995	103.250	19.550	39.258	0.487
686.000	419.238	79.998	19.995	103.253	19.543	39.741	0.481
686.500	419.513	79.997	19.995	103.258	19.538	40.065	0.491
687.000	419.750	79.998	19.995	103.255	19.531	40.540	0.508
687.500	420.020	79.997	19.995	103.252	19.528	40.763	0.510
688.000	420.256	79.997	19.996	103.252	19.526	40.901	0.506
688.500	420.487	79.997	19.996	103.248	19.517	41.490	0.486
689.000	420.761	79.999	19.994	103.245	19.509	42.040	0.486
689.500	420.993	79.999	19.995	103.246	19.507	42.182	0.505
690.000	421.278	79.999	19.995	103.247	19.501	42.599	0.511
690.500	421.496	79.997	19.996	103.247	19.495	42.981	0.510
691.000	421.752	80.003	19.996	103.247	19.492	43.197	0.489
691.500	422.003	79.996	19.997	103.249	19.488	43.468	0.490
692.000	422.280	79.997	19.995	103.254	19.482	43.913	0.517
692.500	422.526	79.998	19.997	103.261	19.474	44.424	0.526
693.000	422.733	79.995	19.998	103.265	19.471	44.608	0.489
693.500	422.976	79.998	19.994	103.272	19.467	44.904	0.451
694.000	423.227	79.997	19.998	103.274	19.460	45.407	0.472
694.500	423.478	79.994	19.997	103.275	19.459	45.468	0.498
695.000	423.748	79.997	19.996	103.276	19.454	45.789	0.511
695.500	423.977	79.995	19.999	103.280	19.447	46.264	0.510
696.000	424.234	79.998	19.996	103.282	19.441	46.665	0.493
696.500	424.476	79.997	19.996	103.281	19.432	47.304	0.493
697.000	424.741	79.999	19.997	103.280	19.431	47.390	0.503
697.500	424.969	79.997	19.998	103.280	19.421	48.011	0.500
698.000	425.243	79.997	19.996	103.277	19.417	48.287	0.497
698.500	425.514	79.998	19.996	103.276	19.416	48.364	0.524
699.000	425.743	79.997	19.996	103.276	19.408	48.931	0.523
699.500	426.009	79.997	19.997	103.277	19.399	49.514	0.497
700.000	426.259	79.997	19.996	103.277	19.394	49.865	0.505
700.500	426.501	79.998	19.996	103.278	19.389	50.233	0.504
701.000	426.741	79.998	19.995	103.277	19.381	50.737	0.487
701.500	426.988	79.998	19.996	103.277	19.378	50.995	0.485
702.000	427.247	79.998	19.996	103.276	19.372	51.403	0.496
702.500	427.493	79.997	19.996	103.274	19.364	51.920	0.505
703.000	427.748	79.997	19.996	103.274	19.362	52.040	0.503
703.500	427.976	79.998	19.997	103.273	19.355	52.537	0.492
704.000	428.235	79.998	19.997	103.274	19.347	53.115	0.486
704.500	428.570	79.998	19.996	103.274	19.343	53.336	0.540
705.000	428.771	79.998	19.996	103.276	19.337	53.762	0.565
705.500	429.043	79.999	19.997	103.276	19.332	54.081	0.504
706.000	429.266	79.996	19.997	103.278	19.328	54.384	0.484
706.500	429.542	79.999	19.996	103.283	19.324	54.644	0.497
707.000	429.807	79.999	19.996	103.285	19.318	55.084	0.520
707.500	430.082	79.998	19.996	103.286	19.316	55.225	0.540
708.000	430.298	79.998	19.995	103.287	19.308	55.733	0.515
708.500	430.586	79.998	19.999	103.286	19.299	56.336	0.498
709.000	430.838	79.998	19.997	103.281	19.297	56.480	0.522
709.500	431.089	80.000	19.996	103.280	19.290	56.985	0.522
710.000	431.339	79.998	19.997	103.279	19.289	57.032	0.502
710.500	431.593	80.000	19.994	103.280	19.283	57.421	0.502
711.000	431.861	79.999	19.996	103.282	19.279	57.721	0.513
711.500	432.140	79.998	19.994	103.286	19.268	58.482	0.534
712.000	432.392	79.999	19.997	103.293	19.266	58.607	0.539
712.500	432.610	79.999	19.997	103.301	19.263	58.829	0.501
713.000	432.870	80.002	19.998	103.306	19.254	59.420	0.474
713.500	433.133	80.000	19.996	103.312	19.251	59.651	0.500
714.000	433.393	79.998	19.996	103.313	19.248	59.837	0.523
714.500	433.649	80.001	19.996	103.310	19.241	60.279	0.520
715.000	433.907	80.001	19.996	103.308	19.237	60.563	0.515
715.500	434.177	79.997	19.999	103.308	19.234	60.789	0.521
716.000	434.468	79.999	19.999	103.303	19.230	61.051	0.544
716.500	434.716	80.002	19.995	103.303	19.223	61.502	0.550
717.000	434.996	79.999	19.995	103.306	19.218	61.888	0.534
717.500	435.234	80.000	19.997	103.308	19.210	62.392	0.524
718.000	435.469	80.002	19.995	103.308	19.206	62.669	0.496
718.500	435.741	80.000	19.996	103.312	19.205	62.751	0.490
719.000	435.973	79.999	19.996	103.315	19.198	63.229	0.505
719.500	436.282	80.000	19.995	103.315	19.192	63.612	0.523
720.000	436.533	79.999	19.995	103.315	19.189	63.849	0.551
720.500	436.762	79.999	19.995	103.315	19.182	64.323	0.520
721.000	437.052	79.998	19.995	103.316	19.180	64.463	0.500
721.500	437.295	79.999	19.995	103.316	19.179	64.489	0.526
722.000	437.573	80.000	19.994	103.316	19.174	64.877	0.527
722.500	437.796	79.999	19.996	103.316	19.169	65.201	0.511
723.000	438.064	79.999	19.997	103.317	19.165	65.425	0.496
723.500	438.304	80.000	19.995	103.317	19.163	65.585	0.499
724.000	438.576	79.999	19.996	103.319	19.160	65.791	0.510
724.500	438.870	79.999	19.995	103.319	19.157	65.971	0.539
725.000	439.100	79.999	19.995	103.319	19.151	66.367	0.545
725.500	439.339	79.998	19.996	103.318	19.151	66.397	0.497
726.000	439.639	79.999	19.994	103.318	19.150	66.462	0.504
726.500	439.870	79.998	19.996	103.316	19.146	66.744	0.535
727.000	440.121	79.998	19.996	103.316	19.143	66.960	0.506
727.500	440.378	79.998	19.996	103.316	19.142	67.018	0.495
728.000	440.651	79.998	19.996	103.317	19.139	67.245	0.519
728.500	440.903	80.001	19.995	103.317	19.137	67.327	0.528
729.000	441.196	79.998	19.995	103.317	19.138	67.266	0.535
729.500	441.467	79.998	19.996	103.318	19.137	67.351	0.555
730.000	441.718	79.998	19.996	103.318	19.133	67.634	0.543
730.500	441.963	79.997	19.995	103.318	19.133	67.591	0.509
731.000	442.198	79.998	19.996	103.318	19.135	67.502	0.488
731.500	442.484	79.998	19.995	103.317	19.132	67.668	0.500
732.000	442.730	79.997	19.998	103.313	19.132	67.717	0.527
732.500	442.985	79.999	19.997	103.312	19.134	67.544	0.517
733.000	443.225	79.998	19.997	103.309	19.132	67.668	0.498
733.500	443.483	79.998	19.997	103.302	19.134	67.566	0.497
734.000	443.763	79.997	19.996	103.297	19.136	67.421	0.518
734.500	444.021	79.997	19.996	103.295	19.133	67.606	0.538
735.000	444.243	79.999	19.996	103.292	19.137	67.307	0.509
735.500	444.520	80.000	19.998	103.288	19.141	67.024	0.490
736.000	444.762	79.998	19.995	103.288	19.140	67.099	0.509
736.500	445.001	79.999	19.996	103.287	19.144	66.873	0.500
737.000	445.288	79.998	19.997	103.284	19.146	66.736	0.503
737.500	445.540	80.000	19.996	103.282	19.149	66.484	0.533
738.000	445.794	79.999	19.995	103.281	19.150	66.417	0.523
738.500	446.026	80.000	19.995	103.282	19.153	66.223	0.496
739.000	446.299	80.000	19.996	103.281	19.159	65.832	0.495
739.500	446.573	79.999	19.997	103.280	19.161	65.677	0.526
740.000	446.808	80.000	19.995	103.280	19.164	65.441	0.528
740.500	447.063	79.999	19.996	103.279	19.171	64.982	0.500
741.000	447.317	80.000	19.997	103.277	19.176	64.635	0.500
741.500	447.575	79.998	20.000	103.275	19.180	64.371	0.511
742.000	447.808	80.000	19.995	103.275	19.185	64.007	0.502
742.500	448.090	80.002	19.996	103.276	19.190	63.666	0.503
743.000	448.337	80.001	19.995	103.276	19.197	63.238	0.522
743.500	448.597	80.000	19.994	103.273	19.199	63.062	0.518
744.001	448.830	79.999	19.996	103.271	19.205	62.703	0.500
744.500	449.071	80.000	19.995	103.266	19.211	62.278	0.484
745.000	449.348	79.999	19.997	103.258	19.218	61.829	0.496
745.500	449.605	79.999	19.994	103.251	19.225	61.333	0.526
746.000	449.839	79.998	19.996	103.246	19.232	60.820	0.512
746.501	450.102	79.997	19.999	103.243	19.240	60.277	0.494
747.001	450.363	79.998	19.995	103.241	19.245	59.970	0.510
747.500	450.564	79.999	19.996	103.240	19.255	59.258	0.493
748.000	450.859	80.001	20.001	103.239	19.264	58.701	0.479
748.500	451.094	79.994	19.994	103.231	19.272	58.158	0.513
749.000	451.339	80.000	19.994	103.227	19.279	57.621	0.506
749.501	451.644	79.996	19.996	103.223	19.282	57.443	0.515
750.001	451.843	79.998	19.996	103.219	19.294	56.646	0.527
750.500	452.111	79.998	19.995	103.213	19.304	55.970	0.486
751.000	452.366	79.996	19.995	103.214	19.309	55.608	0.495
751.500	452.610	79.997	19.995	103.210	19.315	55.168	0.511
752.000	452.856	79.996	19.995	103.208	19.326	54.418	0.494
752.500	453.083	79.995	19.996	103.206	19.336	53.794	0.481
753.000	453.352	79.998	19.997	103.206	19.341	53.431	0.485
753.500	453.610	79.997	19.995	103.209	19.356	52.400	0.512
754.000	453.891	79.998	19.994	103.214	19.364	51.880	0.534
754.500	454.091	79.999	19.996	103.215	19.368	51.558	0.510
755.000	454.358	79.997	19.997	103.217	19.377	50.943	0.474
755.500	454.613	79.997	19.996	103.218	19.388	50.218	0.494
756.000	454.856	80.000	19.996	103.215	19.397	49.602	0.510
756.500	455.074	79.997	19.997	103.210	19.405	49.051	0.480
757.000	455.327	79.999	19.997	103.208	19.415	48.389	0.466
757.500	455.585	79.997	19.995	103.206	19.423	47.834	0.491
758.000	455.829	79.997	19.998	103.203	19.433	47.192	0.507
758.500	456.065	79.996	19.997	103.202	19.445	46.363	0.491
759.000	456.326	79.996	19.997	103.202	19.456	45.615	0.488
759.500	456.576	79.997	19.997	103.200	19.464	45.069	0.504
760.000	456.801	79.997	19.996	103.199	19.470	44.623	0.493
760.501	457.044	79.998	19.997	103.196	19.481	43.909	0.471
761.001	457.307	79.999	19.997	103.189	19.491	43.244	0.487
761.500	457.552	79.997	19.997	103.182	19.502	42.488	0.507
762.000	457.824	79.996	19.998	103.179	19.509	42.021	0.513
762.500	458.060	79.997	19.997	103.176	19.516	41.497	0.512
763.000	458.304	79.997	19.997	103.173	19.524	40.966	0.493
763.501	458.552	79.996	19.997	103.174	19.533	40.383	0.486
764.001	458.798	79.996	19.998	103.175	19.542	39.766	0.493
764.500	459.071	79.997	19.998	103.174	19.549	39.300	0.507
765.000	459.305	79.998	19.996	103.169	19.551	39.121	0.513
765.500	459.547	79.997	19.996	103.168	19.557	38.734	0.492
766.000	459.810	79.998	19.996	103.166	19.564	38.247	0.491
766.500	460.032	79.998	19.996	103.163	19.571	37.783	0.495
767.000	460.295	79.996	19.997	103.162	19.578	37.283	0.484
767.500	460.536	79.997	19.999	103.161	19.581	37.101	0.494
768.000	460.789	79.996	19.997	103.159	19.586	36.728	0.500
768.500	461.027	79.998	19.996	103.158	19.590	36.467	0.493
769.000	461.249	79.998	19.997	103.157	19.596	36.105	0.475
769.500	461.502	79.997	19.996	103.155	19.598	35.923	0.467
770.000	461.743	79.998	19.996	103.149	19.599	35.845	0.485
770.500	462.007	79.997	19.997	103.143	19.602	35.686	0.499
771.000	462.238	79.997	19.997	103.137	19.609	35.169	0.500
771.500	462.471	79.997	19.995	103.131	19.606	35.402	0.479
772.000	462.774	79.998	19.996	103.126	19.607	35.359	0.500
772.500	462.995	79.998	19.997	103.124	19.611	35.022	0.530
773.000	463.250	79.998	19.996	103.125	19.611	35.024	0.500
773.500	463.472	79.997	19.996	103.125	19.613	34.953	0.476
774.000	463.738	79.998	19.996	103.123	19.613	34.887	0.483
774.500	463.952	79.999	19.996	103.123	19.613	34.933	0.485
775.000	464.223	79.998	19.996	103.119	19.613	34.950	0.482
775.500	464.503	79.998	19.995	103.112	19.613	34.914	0.518
776.000	464.715	79.997	19.996	103.104	19.610	35.092	0.521
776.500	464.972	79.999	19.995	103.096	19.612	34.992	0.480
777.000	465.220	79.997	19.994	103.090	19.608	35.237	0.487
777.500	465.468	79.998	19.995	103.088	19.606	35.398	0.501
778.000	465.737	79.999	19.996	103.087	19.606	35.393	0.506
778.500	465.956	79.999	19.994	103.087	19.604	35.550	0.502
779.000	466.209	79.998	19.995	103.087	19.603	35.628	0.480
779.500	466.495	79.997	19.996	103.086	19.599	35.885	0.506
780.000	466.748	79.997	19.997	103.084	19.597	36.016	0.538
780.500	466.972	79.999	19.997	103.082	19.595	36.136	0.508
781.001	467.227	79.998	19.996	103.082	19.592	36.324	0.478
781.500	467.492	79.998	19.996	103.082	19.586	36.785	0.499
782.000	467.743	79.997	19.997	103.079	19.586	36.770	0.518
782.500	467.991	79.998	19.996	103.077	19.583	36.967	0.507
783.000	468.297	79.997	19.996	103.077	19.577	37.372	0.526
783.500	468.524	79.997	19.996	103.077	19.575	37.472	0.544
784.000	468.747	79.998	19.997	103.077	19.571	37.737	0.492
784.500	469.027	79.998	19.996	103.079	19.566	38.085	0.476
785.000	469.287	79.998	19.996	103.081	19.561	38.420	0.521
785.500	469.546	79.998	19.996	103.081	19.559	38.589	0.530
786.000	469.780	79.999	19.997	103.082	19.558	38.619	0.506
786.500	470.043	79.998	19.997	103.082	19.553	38.995	0.495
787.000	470.266	79.996	19.996	103.082	19.551	39.120	0.492
787.500	470.545	79.997	19.997	103.082	19.548	39.316	0.494
788.000	470.820	79.998	19.996	103.082	19.543	39.640	0.528
788.500	471.081	79.997	19.996	103.082	19.537	40.057	0.545
789.000	471.285	79.997	19.996	103.083	19.533	40.319	0.500
789.500	471.557	79.999	19.995	103.083	19.527	40.769	0.470
790.000	471.829	79.998	19.996	103.083	19.522	41.056	0.510
790.500	472.062	79.999	19.995	103.083	19.518	41.363	0.525
791.000	472.343	79.998	19.995	103.083	19.518	41.379	0.509
791.500	472.576	79.998	19.995	103.082	19.510	41.885	0.514
792.000	472.875	79.999	19.995	103.083	19.506	42.182	0.523
792.500	473.078	79.999	19.996	103.083	19.502	42.457	0.517
793.000	473.356	80.000	19.997	103.083	19.498	42.668	0.492
793.500	473.638	80.000	19.997	103.082	19.494	42.981	0.521
794.000	473.858	79.999	19.997	103.082	19.491	43.167	0.531
794.500	474.163	80.000	19.997	103.082	19.489	43.290	0.513
795.000	474.449	80.000	19.996	103.082	19.484	43.673	0.558
795.500	474.664	79.998	19.998	103.082	19.480	43.909	0.546
796.000	474.952	80.001	19.996	103.082	19.478	44.062	0.502
796.500	475.181	79.999	19.996	103.083	19.473	44.381	0.510
797.000	475.451	80.000	19.995	103.083	19.469	44.660	0.508
797.500	475.713	79.999	19.997	103.082	19.468	44.710	0.516
798.000	475.977	80.000	19.996	103.078	19.464	45.014	0.529
798.500	476.193	79.999	19.997	103.070	19.461	45.185	0.503
799.000	476.478	79.999	19.996	103.062	19.458	45.415	0.490
799.500	476.721	80.000	19.996	103.054	19.456	45.545	0.514
800.000	476.993	79.999	19.995	103.048	19.455	45.589	0.521
800.500	477.249	79.998	19.996	103.046	19.451	45.855	0.521
801.000	477.480	79.999	19.996	103.046	19.451	45.892	0.508
801.500	477.755	79.999	19.996	103.046	19.451	45.866	0.497
802.000	478.032	80.000	19.995	103.044	19.447	46.130	0.529
802.500	478.319	79.998	19.995	103.042	19.452	45.783	0.558
803.000	478.561	79.999	19.995	103.037	19.451	45.888	0.547
803.500	478.793	79.999	19.994	103.034	19.454	45.677	0.501
804.000	479.068	80.000	19.995	103.028	19.456	45.559	0.491
804.500	479.311	79.999	19.997	103.022	19.455	45.593	0.512
805.000	479.559	80.001	19.994	103.018	19.462	45.117	0.504
805.500	479.780	80.001	19.994	103.014	19.470	44.567	0.480
806.000	480.077	79.998	19.995	103.008	19.472	44.453	0.494
806.500	480.348	79.999	19.995	103.003	19.477	44.103	0.543
807.000	480.559	79.999	19.997	103.001	19.482	43.788	0.525
807.500	480.840	79.998	19.995	103.000	19.491	43.216	0.487
808.000	481.087	79.998	19.995	103.000	19.501	42.507	0.510
808.500	481.414	80.000	19.995	103.001	19.507	42.090	0.550
809.000	481.638	79.997	19.995	102.999	19.519	41.277	0.562
809.500	481.885	79.998	19.996	102.998	19.529	40.620	0.511
810.000	482.182	79.998	19.995	102.997	19.542	39.769	0.507
810.500	482.409	79.999	19.995	102.994	19.549	39.266	0.534
811.000	482.654	80.000	19.996	102.993	19.562	38.348	0.498
811.500	482.937	79.999	19.995	102.991	19.579	37.199	0.500
812.000	483.181	79.999	19.995	102.988	19.591	36.377	0.528
812.500	483.453	79.999	19.995	102.987	19.603	35.623	0.522
813.000	483.702	80.000	19.995	102.989	19.617	34.638	0.519
813.500	483.972	79.999	19.995	102.992	19.634	33.451	0.520
814.000	484.218	79.999	19.996	102.998	19.646	32.655	0.518
814.500	484.455	79.999	19.996	103.002	19.660	31.714	0.499
815.000	484.696	79.999	19.995	103.005	19.675	30.727	0.480
815.500	484.913	79.999	19.997	103.007	19.690	29.687	0.468
816.001	485.184	79.998	19.995	103.011	19.707	28.541	0.473
816.501	485.419	80.001	19.993	103.020	19.720	27.686	0.497
817.001	485.721	80.000	19.995	103.028	19.737	26.528	0.521
817.501	485.971	80.000	19.995	103.036	19.750	25.603	0.544
818.000	486.250	79.998	19.995	103.044	19.765	24.627	0.541
818.500	486.502	80.000	19.995	103.049	19.777	23.811	0.530
819.000	486.782	80.000	19.994	103.050	19.794	22.644	0.531
819.500	487.025	80.000	19.995	103.057	19.802	22.073	0.527
820.000	487.270	79.999	19.994	103.064	19.820	20.882	0.506
820.500	487.573	79.999	19.994	103.071	19.832	20.082	0.518
821.000	487.789	80.001	19.997	103.077	19.846	19.102	0.534
821.500	488.059	80.001	19.996	103.083	19.856	18.457	0.503
822.000	488.313	80.000	19.996	103.083	19.866	17.786	0.505
822.500	488.576	80.002	19.996	103.081	19.877	17.006	0.521
823.000	488.825	80.001	19.995	103.072	19.888	16.261	0.515
823.500	489.053	80.002	19.995	103.064	19.900	15.451	0.495
824.000	489.362	80.001	19.995	103.056	19.909	14.815	0.507
824.500	489.585	80.000	19.996	103.046	19.919	14.130	0.534
825.000	489.865	80.001	19.997	103.041	19.929	13.460	0.517
825.501	490.094	80.002	19.996	103.044	19.937	12.960	0.506
826.001	490.356	80.001	19.997	103.051	19.950	12.039	0.500
826.501	490.626	80.000	19.997	103.058	19.955	11.687	0.511
827.001	490.848	79.999	19.997	103.065	19.968	10.809	0.512
827.500	491.109	80.000	19.998	103.067	19.980	10.038	0.487
828.000	491.359	80.000	19.997	103.065	19.987	9.542	0.497
828.501	491.583	79.999	19.996	103.066	19.990	9.328	0.492
829.001	491.861	79.999	19.997	103.065	20.000	8.694	0.488
829.501	492.089	79.999	19.997	103.066	20.006	8.266	0.504
830.000	492.372	79.999	19.996	103.071	20.012	7.827	0.508
830.500	492.647	79.998	19.996	103.077	20.017	7.475	0.534
831.001	492.908	79.999	19.996	103.078	20.024	7.032	0.547
831.500	493.142	79.997	19.996	103.080	20.030	6.642	0.515
832.000	493.423	79.997	19.998	103.083	20.034	6.362	0.506
832.501	493.671	80.000	19.997	103.085	20.040	5.926	0.523
833.000	493.939	79.997	19.997	103.085	20.046	5.538	0.523
833.500	494.209	79.999	19.997	103.085	20.050	5.254	0.526
834.000	494.444	79.998	19.997	103.086	20.056	4.863	0.521
834.500	494.712	79.998	19.996	103.085	20.059	4.627	0.504
835.000	494.971	79.998	19.997	103.084	20.061	4.537	0.515
835.500	495.233	79.997	19.997	103.083	20.066	4.216	0.524
836.000	495.463	79.998	19.996	103.083	20.069	3.954	0.507
836.500	495.711	79.999	19.996	103.081	20.075	3.574	0.485
837.000	495.937	79.999	19.996	103.082	20.072	3.786	0.476
837.500	496.195	79.999	19.995	103.082	20.076	3.527	0.479
838.000	496.461	79.997	19.996	103.084	20.081	3.145	0.504
838.500	496.722	79.998	19.996	103.084	20.081	3.152	0.526
839.000	496.970	79.998	19.996	103.084	20.081	3.145	0.518
839.501	497.226	79.998	19.996	103.085	20.088	2.721	0.507
840.001	497.494	79.998	19.996	103.085	20.084	2.933	0.514
840.500	497.769	79.998	19.996	103.081	20.089	2.592	0.534
841.000	498.019	79.997	19.997	103.079	20.089	2.600	0.534
841.500	498.297	79.999	19.996	103.078	20.092	2.437	0.526
842.000	498.540	79.998	19.996	103.073	20.092	2.395	0.525
842.500	498.740	79.998	19.997	103.069	20.091	2.458	0.483
843.000	499.045	79.998	19.996	103.070	20.093	2.329	0.474
843.500	499.257	79.998	19.997	103.076	20.095	2.187	0.511
844.000	499.510	79.998	19.997	103.079	20.095	2.193	0.491
844.500	499.782	79.997	19.996	103.084	20.096	2.153	0.495
845.000	499.999	79.997	19.996	103.090	20.095	2.227	0.507
845.500	500.287	79.997	19.996	103.093	20.099	1.966	0.497
846.000	500.503	79.998	19.997	103.089	20.101	1.824	0.504
846.501	500.750	79.998	19.996	103.086	20.097	2.097	0.483
847.000	501.031	79.999	19.997	103.085	20.102	1.745	0.496
847.500	501.310	79.997	19.997	103.084	20.101	1.814	0.544
848.000	501.541	79.998	19.996	103.083	20.099	1.975	0.535
848.500	501.787	79.998	19.998	103.082	20.102	1.720	0.494
849.000	502.040	79.998	19.997	103.083	20.102	1.739	0.487
849.500	502.252	79.998	19.997	103.082	20.101	1.799	0.481
850.000	502.541	79.998	19.997	103.081	20.103	1.690	0.483
850.500	502.774	79.998	19.997	103.080	20.102	1.775	0.512
851.000	503.043	79.997	19.997	103.080	20.099	1.936	0.512
851.500	503.278	79.998	19.996	103.079	20.101	1.779	0.503
852.000	503.518	79.998	19.997	103.080	20.099	1.924	0.490
852.500	503.757	79.998	19.997	103.080	20.102	1.773	0.477
853.000	504.033	79.996	19.997	103.080	20.101	1.830	0.497
853.500	504.290	79.997	19.998	103.080	20.103	1.693	0.524
854.000	504.479	79.997	19.997	103.081	20.105	1.506	0.490
854.500	504.765	79.996	19.997	103.080	20.105	1.508	0.461
855.000	505.032	79.997	19.997	103.081	20.107	1.415	0.514
855.500	505.203	79.996	19.997	103.085	20.104	1.637	0.495
856.000	505.492	79.997	19.997	103.089	20.105	1.567	0.449
856.500	505.707	79.997	19.997	103.091	20.105	1.561	0.482
857.000	505.991	79.997	19.997	103.091	20.107	1.425	0.501
857.500	506.250	79.996	19.997	103.091	20.102	1.741	0.521
858.000	506.479	79.998	19.997	103.087	20.105	1.569	0.515
858.500	506.691	79.997	19.997	103.083	20.103	1.641	0.465
859.000	506.946	79.997	19.998	103.082	20.104	1.599	0.454
859.500	507.196	79.998	19.997	103.083	20.104	1.637	0.486
860.000	507.456	79.996	19.998	103.083	20.104	1.576	0.507
860.500	507.680	79.997	19.998	103.083	20.104	1.614	0.497
861.000	507.937	79.996	19.997	103.083	20.101	1.838	0.482
861.501	508.184	79.997	19.997	103.083	20.104	1.616	0.492
862.001	508.402	79.997	19.998	103.084	20.103	1.665	0.485
862.500	508.692	79.997	19.997	103.085	20.105	1.538	0.487
863.000	508.918	79.998	19.996	103.088	20.104	1.605	0.512
863.500	509.187	79.998	19.997	103.088	20.107	1.376	0.506
864.000	509.401	79.996	19.996	103.088	20.103	1.641	0.489
864.500	509.634	79.998	19.996	103.087	20.108	1.347	0.465
865.000	509.859	79.996	19.996	103.088	20.105	1.514	0.452
865.500	510.128	79.997	19.995	103.086	20.108	1.304	0.476
866.000	510.366	79.998	19.995	103.086	20.108	1.351	0.500
866.500	510.630	79.998	19.996	103.085	20.106	1.453	0.504
867.000	510.851	79.999	19.995	103.087	20.105	1.512	0.494
867.500	511.108	79.998	19.995	103.086	20.111	1.126	0.481
868.000	511.353	79.998	19.995	103.088	20.106	1.487	0.490
868.500	511.597	79.997	19.996	103.093	20.110	1.169	0.496
869.000	511.833	79.997	19.995	103.096	20.109	1.256	0.485
869.500	512.077	79.999	19.995	103.099	20.113	1.027	0.480
870.000	512.333	79.998	19.996	103.102	20.109	1.263	0.490
870.500	512.558	79.997	19.996	103.104	20.106	1.439	0.490
871.000	512.815	79.999	19.995	103.104	20.110	1.168	0.481
871.500	513.059	79.997	19.995	103.106	20.111	1.113	0.491
872.000	513.310	79.999	19.996	103.103	20.108	1.350	0.498
872.500	513.535	79.997	19.996	103.102	20.107	1.386	0.486
873.000	513.790	79.999	19.996	103.101	20.112	1.062	0.478
873.500	514.043	79.999	19.995	103.099	20.105	1.552	0.494
874.000	514.289	79.999	19.995	103.095	20.111	1.115	0.503
874.500	514.567	79.999	19.996	103.094	20.109	1.294	0.512
875.000	514.813	79.999	19.996	103.093	20.109	1.274	0.524
875.500	515.050	79.999	19.995	103.098	20.108	1.364	0.504
876.000	515.286	80.000	19.996	103.102	20.109	1.281	0.478
876.500	515.524	79.999	19.995	103.107	20.109	1.296	0.474
877.000	515.810	80.000	19.994	103.117	20.106	1.482	0.499
877.500	516.045	79.998	19.994	103.108	20.108	1.342	0.522
878.000	516.292	79.999	19.995	103.085	20.111	1.147	0.501
878.500	516.547	80.000	19.995	103.066	20.111	1.152	0.492
879.000	516.833	79.999	19.996	103.055	20.106	1.461	0.521
879.500	517.094	80.000	19.995	103.046	20.109	1.281	0.544
880.000	517.323	80.000	19.996	103.056	20.109	1.270	0.519
880.500	517.568	80.000	19.995	103.092	20.112	1.033	0.482
881.000	517.839	79.999	19.997	103.132	20.106	1.461	0.496
881.500	518.116	80.000	19.995	103.153	20.108	1.334	0.532
882.000	518.351	80.000	19.996	103.164	20.105	1.571	0.530
882.500	518.617	79.997	19.996	103.168	20.106	1.478	0.506
883.000	518.896	79.999	19.997	103.155	20.110	1.196	0.523
883.500	519.128	79.999	19.996	103.128	20.109	1.259	0.528
884.000	519.403	79.999	19.996	103.112	20.110	1.204	0.509
884.500	519.649	79.998	19.996	103.103	20.110	1.172	0.514
885.000	519.899	79.999	19.995	103.097	20.110	1.228	0.508
885.500	520.166	79.999	19.996	103.097	20.108	1.325	0.507
886.000	520.461	79.999	19.996	103.097	20.110	1.225	0.540
886.500	520.683	79.999	19.995	103.096	20.111	1.122	0.540
887.000	520.918	79.998	19.995	103.094	20.110	1.215	0.487
887.500	521.173	79.999	19.996	103.093	20.109	1.270	0.474
888.000	521.459	79.999	19.996	103.090	20.106	1.452	0.515
888.500	521.729	79.999	19.996	103.091	20.106	1.459	0.548
889.000	521.970	79.998	19.996	103.091	20.110	1.228	0.534
889.500	522.248	79.997	19.996	103.093	20.109	1.243	0.515
890.000	522.473	79.999	19.995	103.096	20.106	1.478	0.511
890.500	522.756	79.999	19.995	103.098	20.109	1.287	0.505
891.000	523.020	80.000	19.996	103.098	20.106	1.467	0.528
891.500	523.288	79.998	19.995	103.098	20.108	1.312	0.540
892.000	523.551	80.000	19.997	103.100	20.110	1.213	0.532
892.500	523.809	79.999	19.996	103.100	20.110	1.223	0.526
893.000	524.099	79.999	19.995	103.099	20.111	1.128	0.534
893.500	524.378	79.999	19.995	103.103	20.110	1.209	0.558
894.001	524.585	79.999	19.996	103.109	20.110	1.202	0.527
894.501	524.880	80.000	19.996	103.112	20.109	1.266	0.494
895.001	525.190	79.999	19.996	103.115	20.108	1.306	0.554
895.501	525.420	80.000	19.995	103.118	20.108	1.366	0.572
896.001	525.662	79.999	19.996	103.119	20.106	1.474	0.505
896.501	525.933	80.000	19.995	103.119	20.112	1.082	0.492
897.000	526.194	80.000	19.997	103.120	20.109	1.241	0.523
897.500	526.469	80.000	19.996	103.119	20.108	1.325	0.534
898.000	526.730	80.000	19.995	103.119	20.110	1.213	0.536
898.500	527.021	80.000	19.996	103.119	20.109	1.251	0.544
899.000	527.285	80.001	19.995	103.117	20.108	1.323	0.554
899.500	527.561	80.001	19.996	103.115	20.112	1.086	0.548
900.000	527.856	80.000	19.996	103.114	20.111	1.149	0.555
900.500	528.102	80.000	19.995	103.114	20.113	1.026	0.556
901.000	528.337	80.001	19.995	103.113	20.107	1.387	0.511
901.500	528.630	80.000	19.996	103.112	20.107	1.398	0.504
902.000	528.889	80.002	19.996	103.113	20.112	1.060	0.540
902.500	529.143	80.001	19.995	103.110	20.112	1.079	0.533
903.000	529.437	80.001	19.995	103.109	20.113	1.026	0.531
903.500	529.721	80.000	19.995	103.110	20.109	1.236	0.563
904.000	529.979	80.000	19.996	103.109	20.111	1.098	0.560
904.500	530.284	80.000	19.995	103.107	20.111	1.145	0.553
905.000	530.514	80.001	19.996	103.105	20.113	1.018	0.549
905.500	530.800	80.001	19.995	103.104	20.115	0.876	0.526
906.000	531.097	80.001	19.994	103.099	20.113	0.963	0.549
906.500	531.352	80.002	19.995	103.098	20.113	1.014	0.567
907.000	531.583	80.000	19.994	103.100	20.109	1.279	0.519
907.500	531.901	80.001	19.994	103.101	20.112	1.086	0.517
908.000	532.162	80.000	19.994	103.100	20.111	1.162	0.564
908.500	532.421	80.000	19.995	103.099	20.113	1.003	0.550
909.000	532.667	79.999	19.995	103.096	20.113	1.022	0.512
909.500	532.930	79.999	19.995	103.092	20.111	1.143	0.506
910.000	533.183	79.999	19.996	103.089	20.109	1.257	0.512
910.500	533.452	79.999	19.995	103.086	20.109	1.279	0.519
911.000	533.753	79.998	19.995	103.085	20.107	1.410	0.546
911.500	534.059	79.998	19.995	103.085	20.110	1.232	0.589
912.000	534.313	79.998	19.997	103.089	20.105	1.510	0.583
912.500	534.568	79.998	19.996	103.093	20.107	1.425	0.534
913.000	534.867	79.998	19.996	103.096	20.112	1.077	0.532
913.500	535.122	79.998	19.996	103.100	20.106	1.440	0.554
914.000	535.373	79.997	19.996	103.100	20.114	0.933	0.530
914.500	535.632	79.998	19.996	103.098	20.110	1.185	0.507
915.000	535.918	79.997	19.996	103.093	20.110	1.213	0.528
915.500	536.196	79.997	19.995	103.093	20.107	1.414	0.555
916.000	536.486	79.999	19.996	103.091	20.109	1.264	0.566
916.500	536.754	79.998	19.996	103.094	20.110	1.206	0.563
917.000	537.020	79.999	19.996	103.094	20.110	1.189	0.546
917.500	537.278	79.998	19.997	103.093	20.109	1.283	0.529
918.000	537.548	79.997	19.996	103.090	20.109	1.234	0.526
918.500	537.846	79.997	19.997	103.093	20.111	1.145	0.547
919.000	538.110	79.996	19.997	103.096	20.113	1.010	0.565
919.500	538.366	79.997	19.996	103.101	20.108	1.353	0.541
920.000	538.653	79.997	19.997	103.105	20.112	1.033	0.532
920.500	538.899	79.997	19.996	103.112	20.109	1.249	0.538
921.000	539.178	79.998	19.996	103.111	20.110	1.185	0.529
921.500	539.422	79.996	19.997	103.111	20.112	1.065	0.524
922.000	539.689	79.997	19.997	103.110	20.111	1.105	0.517
922.500	539.969	79.996	19.996	103.115	20.110	1.188	0.529
923.000	540.219	79.998	19.997	103.115	20.109	1.285	0.538
923.500	540.531	79.997	19.997	103.117	20.112	1.035	0.546
924.000	540.771	79.998	19.996	103.117	20.113	1.018	0.557
924.500	541.030	79.998	19.997	103.119	20.110	1.222	0.526
925.000	541.290	79.998	19.995	103.119	20.114	0.931	0.509
925.500	541.525	79.997	19.996	103.120	20.111	1.130	0.507
926.000	541.803	79.998	19.996	103.120	20.113	0.978	0.504
926.500	542.073	79.996	19.998	103.120	20.114	0.952	0.531
927.000	542.353	79.997	19.997	103.120	20.112	1.086	0.549
927.500	542.646	79.997	19.996	103.120	20.113	0.990	0.561
928.000	542.920	79.998	19.996	103.113	20.112	1.052	0.570
928.500	543.165	79.998	19.996	103.106	20.112	1.084	0.543
929.000	543.413	79.998	19.996	103.101	20.112	1.048	0.506
929.500	543.682	79.998	19.996	103.094	20.112	1.048	0.505
930.000	543.953	79.997	19.995	103.087	20.114	0.918	0.529
930.501	544.226	79.997	19.995	103.087	20.112	1.046	0.542
931.000	544.503	79.998	19.997	103.090	20.111	1.118	0.547
931.500	544.753	79.998	19.996	103.094	20.110	1.209	0.538
932.001	545.007	79.999	19.995	103.098	20.112	1.056	0.515
932.500	545.291	79.998	19.995	103.100	20.109	1.295	0.521
933.000	545.552	79.998	19.997	103.101	20.111	1.154	0.541
933.500	545.796	79.999	19.996	103.100	20.110	1.181	0.525
934.000	546.085	79.998	19.995	103.096	20.112	1.060	0.519
934.501	546.334	79.998	19.996	103.097	20.112	1.054	0.536
935.001	546.559	79.999	19.995	103.102	20.113	0.976	0.506
935.500	546.848	79.998	19.996	103.102	20.111	1.152	0.494
936.000	547.124	79.998	19.996	103.101	20.109	1.249	0.539
936.500	547.387	79.999	19.995	103.102	20.110	1.202	0.552
937.000	547.655	79.997	19.997	103.099	20.111	1.101	0.535
937.500	547.959	79.998	19.995	103.096	20.109	1.296	0.552
938.000	548.188	79.998	19.997	103.095	20.108	1.308	0.553
938.500	548.419	79.999	19.996	103.095	20.112	1.094	0.497
939.000	548.699	79.998	19.995	103.092	20.112	1.075	0.485
939.500	548.979	79.998	19.997	103.091	20.111	1.124	0.535
940.000	549.213	79.998	19.997	103.087	20.108	1.340	0.537
940.500	549.492	79.998	19.996	103.087	20.113	1.016	0.513
941.000	549.738	79.999	19.997	103.089	20.112	1.035	0.519
941.500	550.025	79.997	19.995	103.097	20.114	0.958	0.529
942.000	550.252	79.996	19.995	103.100	20.113	1.011	0.524
942.500	550.524	79.998	19.996	103.106	20.115	0.872	0.507
943.001	550.839	79.997	19.997	103.111	20.112	1.048	0.543
943.501	551.042	79.997	19.997	103.115	20.109	1.275	0.552
944.000	551.307	79.997	19.996	103.110	20.107	1.389	0.493
944.500	551.538	79.997	19.996	103.106	20.110	1.209	0.483
945.000	551.808	79.995	19.996	103.100	20.110	1.196	0.499
945.500	552.038	79.997	19.997	103.097	20.109	1.256	0.500
946.000	552.330	79.996	19.997	103.096	20.110	1.213	0.511
946.500	552.524	79.996	19.997	103.099	20.112	1.094	0.504
947.000	552.816	79.995	19.996	103.100	20.108	1.302	0.486
947.500	553.068	79.995	19.997	103.107	20.108	1.326	0.515
948.000	553.334	79.996	19.997	103.106	20.108	1.357	0.531
948.500	553.603	79.996	19.997	103.102	20.109	1.251	0.526
949.000	553.840	79.996	19.997	103.098	20.110	1.196	0.521
949.500	554.117	79.995	19.996	103.097	20.109	1.275	0.510
950.000	554.395	79.995	19.998	103.091	20.107	1.429	0.535
950.500	554.631	79.996	19.997	103.091	20.110	1.190	0.535
951.000	554.915	79.997	19.996	103.092	20.107	1.374	0.517
951.500	555.176	79.996	19.997	103.092	20.106	1.438	0.532
952.000	555.425	79.996	19.997	103.096	20.105	1.565	0.527
952.500	555.651	79.998	19.997	103.103	20.104	1.574	0.492
953.000	555.912	79.998	19.997	103.103	20.108	1.321	0.481
953.500	556.167	79.998	19.996	103.103	20.107	1.385	0.501
954.000	556.431	79.998	19.998	103.103	20.107	1.434	0.517
954.500	556.654	79.998	19.997	103.099	20.105	1.569	0.503
955.000	556.927	79.999	19.996	103.094	20.105	1.521	0.492
955.500	557.182	79.999	19.996	103.092	20.106	1.463	0.512
956.000	557.438	79.998	19.996	103.089	20.107	1.410	0.519
956.500	557.687	79.999	19.996	103.087	20.106	1.461	0.508
957.000	557.921	79.998	19.995	103.087	20.104	1.595	0.494
957.500	558.161	79.999	19.996	103.084	20.103	1.650	0.478
958.000	558.395	79.999	19.996	103.088	20.105	1.542	0.474
958.500	558.661	79.999	19.996	103.093	20.099	1.915	0.487
959.000	558.893	79.999	19.995	103.098	20.102	1.730	0.499
959.500	559.183	79.998	19.996	103.100	20.103	1.698	0.510
960.000	559.440	79.998	19.995	103.099	20.105	1.546	0.534
960.500	559.702	79.999	19.997	103.095	20.101	1.784	0.533
961.000	559.944	79.999	19.996	103.094	20.104	1.631	0.512
961.500	560.179	80.000	19.995	103.093	20.103	1.669	0.491
962.000	560.429	80.000	19.995	103.091	20.101	1.788	0.481
962.500	560.676	79.999	19.995	103.096	20.101	1.841	0.491
963.000	560.937	80.000	19.995	103.098	20.102	1.745	0.503
963.500	561.220	80.000	19.995	103.095	20.102	1.737	0.526
964.000	561.475	79.999	19.995	103.093	20.098	2.031	0.541
964.500	561.726	79.999	19.995	103.092	20.099	1.951	0.522
965.000	561.948	79.999	19.995	103.088	20.094	2.254	0.490
965.500	562.185	79.998	19.996	103.091	20.098	1.989	0.466
966.000	562.428	79.999	19.994	103.097	20.093	2.349	0.470
966.500	562.704	79.999	19.996	103.101	20.097	2.114	0.499
967.000	562.954	79.999	19.995	103.109	20.091	2.476	0.522
967.500	563.216	79.999	19.996	103.108	20.097	2.109	0.519
968.000	563.463	79.998	19.995	103.103	20.094	2.303	0.510
968.500	563.706	79.998	19.995	103.103	20.095	2.197	0.499
969.000	563.939	79.999	19.995	103.101	20.091	2.495	0.483
969.500	564.189	79.998	19.996	103.099	20.089	2.648	0.480
970.000	564.433	79.999	19.995	103.103	20.090	2.555	0.489
970.500	564.710	79.999	19.995	103.103	20.087	2.790	0.508
971.000	564.891	80.000	19.995	103.098	20.087	2.754	0.489
971.500	565.138	79.999	19.995	103.096	20.084	2.947	0.443
972.000	565.437	79.998	19.995	103.095	20.086	2.850	0.487
972.500	565.667	79.999	19.996	103.097	20.087	2.756	0.538
973.000	565.920	79.999	19.996	103.102	20.083	3.042	0.506
973.500	566.171	80.000	19.995	103.106	20.084	2.960	0.493
974.001	566.419	79.999	19.995	103.107	20.083	3.002	0.501
974.501	566.644	79.999	19.995	103.110	20.081	3.199	0.486
975.000	566.946	79.999	19.995	103.110	20.081	3.157	0.500
975.500	567.213	79.999	19.995	103.110	20.079	3.310	0.548
976.000	567.417	80.000	19.995	103.113	20.081	3.191	0.520
976.500	567.684	80.000	19.997	103.118	20.077	3.416	0.472
977.000	567.923	80.000	19.995	103.119	20.076	3.490	0.489
977.500	568.169	79.999	19.996	103.120	20.077	3.454	0.495
978.000	568.399	80.000	19.996	103.120	20.075	3.600	0.480
978.500	568.666	80.001	19.996	103.121	20.073	3.727	0.486
979.000	568.880	79.999	19.996	103.120	20.072	3.751	0.489
979.500	569.147	80.000	19.996	103.120	20.069	3.963	0.481
980.000	569.377	80.001	19.996	103.121	20.069	3.967	0.489
980.500	569.620	80.000	19.995	103.121	20.072	3.811	0.485
981.000	569.893	80.000	19.995	103.120	20.068	4.071	0.495
981.500	570.131	80.000	19.997	103.121	20.068	4.067	0.513
982.000	570.375	79.999	19.997	103.121	20.064	4.305	0.496
982.500	570.617	80.000	19.997	103.121	20.063	4.372	0.484
983.000	570.861	80.001	19.996	103.121	20.061	4.522	0.486
983.501	571.107	80.001	19.996	103.120	20.064	4.308	0.488
984.001	571.297	80.001	19.995	103.119	20.057	4.789	0.463
984.501	571.572	80.002	19.995	103.119	20.060	4.596	0.451
985.001	571.805	80.001	19.996	103.119	20.057	4.776	0.487
985.500	572.039	80.001	19.995	103.119	20.056	4.834	0.487
986.000	572.340	80.002	19.995	103.120	20.051	5.201	0.501
986.500	572.556	80.001	19.995	103.119	20.051	5.196	0.526
987.000	572.831	80.000	19.995	103.119	20.050	5.253	0.504
987.501	573.089	80.000	19.995	103.119	20.048	5.419	0.512
988.001	573.299	79.999	19.994	103.119	20.043	5.724	0.500
988.500	573.569	80.000	19.996	103.120	20.042	5.786	0.474
989.000	573.813	79.999	19.995	103.120	20.043	5.773	0.497
989.500	574.053	80.001	19.995	103.117	20.039	6.000	0.499
990.000	574.313	80.001	19.995	103.115	20.037	6.122	0.492
990.500	574.561	80.000	19.995	103.113	20.036	6.202	0.504
991.000	574.815	79.999	19.995	103.107	20.033	6.458	0.505
991.500	575.065	80.000	19.995	103.104	20.030	6.644	0.503
992.000	575.301	79.999	19.995	103.107	20.029	6.718	0.495
992.500	575.597	79.999	19.994	103.107	20.026	6.913	0.509
993.000	575.794	79.999	19.995	103.107	20.025	6.994	0.512
993.500	576.052	79.998	19.995	103.112	20.022	7.158	0.474
994.000	576.319	79.998	19.996	103.116	20.023	7.088	0.490
994.500	576.545	79.999	19.995	103.117	20.022	7.141	0.509
995.000	576.812	79.999	19.996	103.120	20.018	7.463	0.493
995.500	577.037	79.998	19.996	103.123	20.018	7.434	0.492
996.000	577.263	79.999	19.997	103.124	20.013	7.790	0.471
996.500	577.541	79.999	19.996	103.124	20.012	7.865	0.478
997.000	577.786	79.998	19.997	103.124	20.008	8.147	0.514
997.500	578.038	79.999	19.996	103.123	20.007	8.196	0.509
998.000	578.260	79.998	19.995	103.124	20.005	8.305	0.485
998.500	578.588	79.999	19.996	103.124	20.001	8.582	0.512
999.000	578.780	79.999	19.996	103.124	19.997	8.857	0.535
999.500	579.021	79.998	19.995	103.124	19.997	8.899	0.476
1000.000	579.287	79.998	19.996	103.125	19.998	8.801	0.470
1000.500	579.542	79.998	19.996	103.128	19.992	9.206	0.514
1001.000	579.758	79.998	19.995	103.133	19.989	9.418	0.497
1001.500	580.067	79.999	19.996	103.138	19.987	9.522	0.498
1002.000	580.287	79.997	19.996	103.145	19.986	9.596	0.527
1002.500	580.552	79.998	19.996	103.151	19.983	9.822	0.507
1003.000	580.807	79.998	19.996	103.153	19.982	9.899	0.502
1003.500	581.075	79.997	19.995	103.151	19.978	10.181	0.521
1004.000	581.286	79.998	19.995	103.150	19.973	10.493	0.500
1004.500	581.577	79.997	19.996	103.147	19.973	10.524	0.490
1005.000	581.806	79.997	19.996	103.148	19.968	10.846	0.512
1005.500	582.058	79.998	19.995	103.146	19.971	10.622	0.501
1006.000	582.315	79.997	19.996	103.144	19.963	11.159	0.495
1006.500	582.594	79.998	19.996	103.141	19.962	11.224	0.522
1007.000	582.819	79.998	19.996	103.136	19.958	11.546	0.520
1007.500	583.099	79.997	19.997	103.130	19.956	11.681	0.504
1008.000	583.353	79.997	19.996	103.127	19.953	11.888	0.520
1008.500	583.637	79.997	19.995	103.126	19.951	11.976	0.536
1009.000	583.877	79.998	19.996	103.134	19.943	12.529	0.531
1009.500	584.132	79.997	19.995	103.141	19.944	12.456	0.509
1010.000	584.395	79.998	19.996	103.149	19.940	12.737	0.507
1010.500	584.624	79.998	19.996	103.156	19.940	12.724	0.505
1011.000	584.907	79.998	19.996	103.162	19.935	13.090	0.502
1011.500	585.173	79.997	19.995	103.162	19.934	13.152	0.530
1012.000	585.428	79.997	19.998	103.161	19.932	13.263	0.535
1012.500	585.686	79.998	19.996	103.158	19.930	13.438	0.517
1013.000	585.941	79.999	19.997	103.153	19.929	13.502	0.513
1013.500	586.210	79.998	19.996	103.146	19.926	13.665	0.518
1014.000	586.490	79.999	19.996	103.142	19.923	13.894	0.537
1014.500	586.694	79.998	19.996	103.140	19.920	14.130	0.517
1015.000	586.984	79.998	19.996	103.136	19.918	14.231	0.489
1015.500	587.242	79.997	19.996	103.138	19.914	14.495	0.521
1016.000	587.500	79.998	19.996	103.141	19.913	14.595	0.532
1016.500	587.744	79.998	19.996	103.137	19.909	14.873	0.509
1017.000	587.975	79.998	19.996	103.133	19.908	14.888	0.488
1017.500	588.221	79.997	19.997	103.134	19.904	15.220	0.476
1018.000	588.484	79.997	19.999	103.136	19.900	15.474	0.493
1018.500	588.769	79.998	19.997	103.140	19.900	15.492	0.529
1019.000	589.057	79.998	19.997	103.148	19.899	15.561	0.560
1019.500	589.300	80.000	19.996	103.155	19.897	15.655	0.552
1020.000	589.531	79.998	19.997	103.163	19.893	15.953	0.503
1020.500	589.796	80.000	19.998	103.165	19.890	16.127	0.485
1021.000	590.095	79.997	19.996	103.170	19.891	16.072	0.530
1021.500	590.303	79.999	19.997	103.173	19.884	16.568	0.535
1022.000	590.573	80.000	19.997	103.175	19.886	16.382	0.492
1022.500	590.802	79.997	19.996	103.175	19.881	16.754	0.489
1023.000	591.081	79.998	19.996	103.180	19.880	16.837	0.504
1023.500	591.342	79.998	19.996	103.176	19.875	17.168	0.524
1024.000	591.571	79.997	19.996	103.174	19.875	17.163	0.515
1024.500	591.833	79.998	19.997	103.172	19.873	17.301	0.490
1025.000	592.095	79.999	19.997	103.169	19.870	17.497	0.507
1025.500	592.333	79.997	19.998	103.163	19.867	17.670	0.512
1026.000	592.593	79.997	19.996	103.161	19.867	17.723	0.499
1026.501	592.860	79.997	19.996	103.160	19.864	17.893	0.513
1027.001	593.139	79.998	19.997	103.160	19.860	18.179	0.536
1027.500	593.403	79.997	19.996	103.160	19.862	18.069	0.544
1028.000	593.655	79.998	19.996	103.160	19.857	18.375	0.530
1028.500	593.915	79.997	19.996	103.160	19.852	18.722	0.514
1029.000	594.196	79.997	19.997	103.160	19.851	18.766	0.526
1029.500	594.425	79.997	19.997	103.160	19.847	19.071	0.525
1030.000	594.695	79.997	19.996	103.160	19.849	18.910	0.505
1030.500	594.907	79.997	19.997	103.159	19.844	19.282	0.491
1031.000	595.169	79.997	19.996	103.160	19.840	19.549	0.478
1031.501	595.442	79.997	19.997	103.159	19.838	19.670	0.504
1032.001	595.717	79.998	19.996	103.160	19.837	19.716	0.541
1032.501	595.950	79.997	19.996	103.160	19.835	19.862	0.529
1033.001	596.218	79.998	19.998	103.160	19.833	20.011	0.505
1033.500	596.478	79.998	19.997	103.161	19.832	20.105	0.514
1034.000	596.707	79.997	19.996	103.161	19.828	20.357	0.508
1034.500	597.000	79.998	19.998	103.161	19.825	20.533	0.506
1035.000	597.271	79.998	19.996	103.161	19.821	20.793	0.543
1035.500	597.508	79.998	19.997	103.160	19.822	20.789	0.536
1036.000	597.755	79.998	19.997	103.159	19.820	20.927	0.496
1036.500	597.987	79.997	19.997	103.158	19.822	20.772	0.482
1037.000	598.268	79.998	19.997	103.158	19.816	21.165	0.496
1037.500	598.534	79.998	19.996	103.158	19.815	21.257	0.530
1038.000	598.763	79.998	19.997	103.159	19.813	21.399	0.521
1038.500	599.016	79.998	19.997	103.160	19.811	21.496	0.488
1039.000	599.289	79.999	19.996	103.161	19.811	21.516	0.504
1039.500	599.524	79.999	19.997	103.168	19.809	21.641	0.517
1040.000	599.819	80.000	19.997	103.171	19.807	21.744	0.519
1040.500	600.040	79.998	19.998	103.177	19.805	21.915	0.523
1041.000	600.319	79.999	19.997	103.182	19.804	21.957	0.508
1041.500	600.566	79.998	19.997	103.181	19.802	22.080	0.513
1042.000	600.823	80.000	19.998	103.176	19.803	22.079	0.515
1042.500	601.103	79.999	19.997	103.173	19.798	22.383	0.521
1043.000	601.371	80.000	19.997	103.168	19.796	22.514	0.543
1043.500	601.605	79.998	19.997	103.169	19.795	22.606	0.525
1044.000	601.863	79.998	19.997	103.173	19.792	22.768	0.496
1044.501	602.107	79.999	19.997	103.177	19.795	22.572	0.497
1045.001	602.357	80.000	19.998	103.180	19.793	22.710	0.498
1045.500	602.574	79.998	19.997	103.179	19.790	22.951	0.481
1046.000	602.855	80.000	19.996	103.175	19.791	22.876	0.483
1046.500	603.102	79.997	19.998	103.170	19.790	22.902	0.513
1047.000	603.391	79.997	19.996	103.170	19.791	22.896	0.532
1047.500	603.608	79.999	19.997	103.170	19.792	22.786	0.521
1048.000	603.906	79.998	19.996	103.177	19.788	23.039	0.511
1048.500	604.156	79.998	19.998	103.182	19.787	23.159	0.532
1049.000	604.395	79.999	19.996	103.184	19.786	23.173	0.519
1049.500	604.665	80.001	19.996	103.183	19.781	23.513	0.499
1050.000	604.923	79.999	19.996	103.180	19.784	23.328	0.518
1050.500	605.147	79.998	19.997	103.172	19.786	23.238	0.506
1051.000	605.416	79.999	19.997	103.167	19.783	23.379	0.488
1051.500	605.700	79.999	19.996	103.166	19.782	23.505	0.522
1052.000	605.933	79.999	19.996	103.163	19.784	23.361	0.535
1052.500	606.175	80.000	19.995	103.162	19.785	23.281	0.496
1053.000	606.466	79.999	19.996	103.162	19.783	23.387	0.504
1053.501	606.713	79.997	19.995	103.162	19.785	23.253	0.535
1054.001	606.953	79.998	19.995	103.163	19.782	23.441	0.513
1054.500	607.198	79.998	19.996	103.168	19.782	23.448	0.486
1055.000	607.473	80.000	19.995	103.172	19.783	23.406	0.502
1055.500	607.723	79.997	19.996	103.176	19.784	23.350	0.523
1056.000	607.976	79.999	19.995	103.176	19.785	23.242	0.514
1056.500	608.242	79.999	19.996	103.178	19.787	23.166	0.510
1057.001	608.440	79.998	19.996	103.181	19.789	23.018	0.491
1057.502	608.706	79.998	19.995	103.179	19.788	23.100	0.464
1058.001	608.986	79.999	19.995	103.177	19.789	22.991	0.505
1058.500	609.252	80.000	19.995	103.177	19.792	22.821	0.546
1059.000	609.489	80.000	19.995	103.173	19.796	22.548	0.524
1059.500	609.754	79.999	19.996	103.168	19.796	22.549	0.503
1060.001	609.992	80.000	19.995	103.172	19.794	22.637	0.503
1060.501	610.279	80.000	19.995	103.177	19.799	22.289	0.514
1061.002	610.513	80.001	19.996	103.178	19.804	21.989	0.522
1061.501	610.776	80.000	19.995	103.181	19.802	22.112	0.509
1062.000	611.024	80.000	19.995	103.184	19.804	21.976	0.504
1062.500	611.247	80.002	19.995	103.184	19.808	21.734	0.491
1063.000	611.522	80.001	19.996	103.184	19.811	21.496	0.484
1063.500	611.775	80.001	19.995	103.187	19.817	21.098	0.513
1064.000	612.007	80.001	19.996	103.187	19.817	21.066	0.507
1064.500	612.283	80.001	19.996	103.181	19.819	20.925	0.496
1065.000	612.537	80.001	19.996	103.176	19.823	20.671	0.519
1065.500	612.790	80.001	19.996	103.172	19.827	20.380	0.518
1066.000	613.074	80.000	19.996	103.172	19.828	20.343	0.522
1066.500	613.348	80.000	19.995	103.177	19.833	20.009	0.548
1067.000	613.610	80.000	19.996	103.181	19.837	19.703	0.547
1067.500	613.867	80.002	19.996	103.183	19.844	19.284	0.527
1068.000	614.131	80.000	19.995	103.181	19.847	19.065	0.520
1068.500	614.335	80.000	19.995	103.176	19.849	18.900	0.495
1069.000	614.625	80.001	19.996	103.168	19.854	18.582	0.481
1069.500	614.851	80.000	19.995	103.164	19.859	18.228	0.505
1070.000	615.128	80.001	19.996	103.163	19.862	18.025	0.510
1070.500	615.412	79.999	19.995	103.167	19.867	17.682	0.532
1071.000	615.691	80.000	19.995	103.171	19.872	17.383	0.562
1071.500	615.906	79.999	19.994	103.171	19.876	17.091	0.528
1072.000	616.196	79.999	19.995	103.171	19.884	16.550	0.499
1072.500	616.429	79.998	19.996	103.169	19.890	16.137	0.514
1073.000	616.672	79.998	19.995	103.164	19.894	15.851	0.499
1073.500	616.980	79.998	19.995	103.152	19.899	15.530	0.513
1074.000	617.210	79.999	19.995	103.148	19.907	15.005	0.545
1074.500	617.451	79.998	19.996	103.144	19.910	14.807	0.505
1075.001	617.765	79.997	19.995	103.139	19.918	14.202	0.513
1075.501	617.941	79.997	19.995	103.132	19.926	13.696	0.523
1076.000	618.268	79.998	19.994	103.114	19.932	13.257	0.496
1076.500	618.477	79.997	19.995	103.094	19.940	12.761	0.519
1077.000	618.757	79.997	19.996	103.081	19.947	12.238	0.512
1077.500	619.013	79.998	19.995	103.075	19.954	11.818	0.513
1078.000	619.260	79.998	19.995	103.078	19.963	11.148	0.520
1078.500	619.532	79.998	19.995	103.121	19.968	10.859	0.511
1079.000	619.772	79.997	19.995	103.167	19.975	10.388	0.515
1079.500	620.025	79.998	19.996	103.190	19.984	9.723	0.502
1080.000	620.312	79.998	19.995	103.200	19.995	9.021	0.516
1080.500	620.578	79.998	19.995	103.200	20.002	8.532	0.547
1081.000	620.837	79.999	19.996	103.176	20.007	8.191	0.539
1081.500	621.067	79.999	19.995	103.154	20.016	7.611	0.507
1082.000	621.322	79.999	19.995	103.143	20.019	7.376	0.487
1082.500	621.608	79.999	19.995	103.139	20.030	6.653	0.513
1083.000	621.836	79.999	19.995	103.141	20.034	6.363	0.527
1083.500	622.053	79.998	19.995	103.140	20.039	6.031	0.480
1084.000	622.363	79.998	19.995	103.138	20.045	5.592	0.486
1084.500	622.603	79.999	19.995	103.143	20.050	5.296	0.539
1085.000	622.858	79.998	19.997	103.144	20.056	4.880	0.522
1085.500	623.093	79.999	19.996	103.145	20.058	4.719	0.492
1086.000	623.368	79.999	19.995	103.150	20.065	4.236	0.500
1086.500	623.606	79.999	19.996	103.152	20.069	3.975	0.512
1087.000	623.866	79.999	19.995	103.153	20.072	3.744	0.505
1087.500	624.094	79.998	19.996	103.148	20.077	3.439	0.493
1088.000	624.366	79.998	19.995	103.144	20.078	3.391	0.494
1088.500	624.621	79.998	19.995	103.137	20.083	3.062	0.513
1089.000	624.874	79.999	19.995	103.131	20.086	2.805	0.517
1089.500	625.119	79.999	19.995	103.125	20.090	2.581	0.503
1090.000	625.374	79.998	19.996	103.125	20.087	2.768	0.499
1090.500	625.665	79.999	19.994	103.124	20.093	2.321	0.523
1091.000	625.863	79.999	19.996	103.120	20.092	2.406	0.517
1091.500	626.133	79.998	19.995	103.114	20.096	2.160	0.479
1092.000	626.386	79.999	19.994	103.108	20.093	2.324	0.496
1092.500	626.625	79.999	19.995	103.101	20.095	2.199	0.508
1093.000	626.889	79.999	19.995	103.094	20.100	1.847	0.498
1093.500	627.121	80.000	19.995	103.092	20.103	1.699	0.499
1094.001	627.409	79.999	19.995	103.090	20.100	1.884	0.508
1094.501	627.659	79.999	19.995	103.094	20.101	1.803	0.529
1095.001	627.884	79.999	19.995	103.093	20.100	1.909	0.506
1095.501	628.127	80.000	19.995	103.092	20.101	1.815	0.472
1096.000	628.373	79.999	19.995	103.090	20.102	1.743	0.478
1096.500	628.631	79.999	19.996	103.089	20.103	1.652	0.496
1097.000	628.931	79.998	19.995	103.083	20.102	1.734	0.531
1097.500	629.159	79.999	19.996	103.084	20.104	1.632	0.543
1098.000	629.396	79.998	19.995	103.071	20.106	1.499	0.496
1098.500	629.663	79.999	19.995	103.053	20.106	1.442	0.484
1099.000	629.925	79.998	19.995	103.049	20.106	1.471	0.516
1099.500	630.208	79.998	19.996	103.050	20.109	1.266	0.537
1100.000	630.454	79.997	19.996	103.056	20.109	1.295	0.537
1100.500	630.703	79.999	19.996	103.095	20.107	1.416	0.512
1101.001	630.966	79.997	19.995	103.137	20.112	1.079	0.503
1101.501	631.216	79.999	19.996	103.149	20.109	1.268	0.512
1102.000	631.495	79.998	19.997	103.153	20.109	1.253	0.521
1102.500	631.743	79.999	19.997	103.148	20.111	1.128	0.528
1103.000	632.025	79.998	19.996	103.122	20.109	1.258	0.528
1103.500	632.280	79.997	19.996	103.098	20.109	1.238	0.533
1104.000	632.530	79.996	19.996	103.091	20.111	1.120	0.521
1104.500	632.778	79.998	19.997	103.085	20.112	1.090	0.502
1105.000	633.076	79.998	19.997	103.083	20.112	1.066	0.522
1105.500	633.324	79.998	19.996	103.083	20.113	1.001	0.546
1106.000	633.574	79.999	19.996	103.087	20.112	1.060	0.522
1106.500	633.869	79.998	19.997	103.094	20.115	0.882	0.522
1107.000	634.145	79.997	19.996	103.102	20.111	1.116	0.558
1107.500	634.410	79.997	19.997	103.110	20.115	0.863	0.556
1108.000	634.674	79.997	19.996	103.117	20.111	1.124	0.535
1108.500	634.914	79.998	19.996	103.121	20.114	0.916	0.517
1109.000	635.236	79.996	19.996	103.128	20.110	1.196	0.533
1109.500	635.489	79.998	19.995	103.126	20.115	0.891	0.568
1110.000	635.737	79.997	19.996	103.124	20.113	1.016	0.538
1110.500	636.031	79.998	19.996	103.124	20.113	0.992	0.522
1111.000	636.244	80.000	19.995	103.123	20.113	0.982	0.525
1111.500	636.515	79.997	19.996	103.115	20.117	0.753	0.495
1112.000	636.802	79.998	19.997	103.109	20.114	0.935	0.521
1112.501	637.061	79.999	19.996	103.103	20.114	0.946	0.552
1113.001	637.333	79.997	19.996	103.096	20.111	1.136	0.538
1113.500	637.563	79.999	19.996	103.096	20.113	0.999	0.516
1114.000	637.857	79.998	19.997	103.099	20.113	1.009	0.513
1114.500	638.130	79.997	19.996	103.106	20.114	0.899	0.545
1115.000	638.367	79.998	19.996	103.114	20.114	0.941	0.538
1115.501	638.624	79.998	19.996	103.117	20.116	0.763	0.502
1116.001	638.885	79.998	19.997	103.113	20.113	0.992	0.506
1116.501	639.178	79.998	19.997	103.107	20.113	0.967	0.536
1117.001	639.437	79.998	19.996	103.105	20.114	0.922	0.553
1117.501	639.643	79.998	19.995	103.100	20.113	1.020	0.509
1118.000	639.939	79.998	19.996	103.098	20.115	0.838	0.484
1118.500	640.190	79.999	19.996	103.099	20.114	0.927	0.524
1119.000	640.440	80.000	19.995	103.101	20.113	1.026	0.524
1119.500	640.675	80.000	19.995	103.103	20.112	1.035	0.493
1120.000	640.927	79.998	19.995	103.108	20.113	0.988	0.486
1120.500	641.206	79.998	19.996	103.114	20.115	0.869	0.509
1121.000	641.446	79.999	19.996	103.114	20.112	1.043	0.525
1121.500	641.727	80.000	19.997	103.113	20.111	1.155	0.520
1122.000	641.929	79.999	19.996	103.110	20.109	1.234	0.502
1122.500	642.208	80.000	19.996	103.109	20.111	1.134	0.482
1123.000	642.454	80.000	19.995	103.107	20.111	1.119	0.503
1123.500	642.720	79.999	19.996	103.110	20.112	1.077	0.518
1124.000	642.984	79.998	19.997	103.116	20.111	1.113	0.521
1124.500	643.239	80.000	19.996	103.117	20.115	0.869	0.524
1125.000	643.514	79.999	19.996	103.111	20.114	0.933	0.524
1125.500	643.750	79.999	19.997	103.106	20.114	0.918	0.521
1126.000	643.984	79.999	19.996	103.101	20.115	0.867	0.490
1126.500	644.257	79.998	19.996	103.098	20.113	0.999	0.489
1127.000	644.472	79.999	19.996	103.100	20.113	0.961	0.498
1127.500	644.720	79.998	19.996	103.107	20.110	1.172	0.476
1128.001	644.956	79.998	19.997	103.113	20.113	0.971	0.473
1128.501	645.200	79.998	19.997	103.117	20.111	1.147	0.482
1129.000	645.477	79.998	19.996	103.120	20.115	0.886	0.501
1129.500	645.744	79.997	19.997	103.119	20.111	1.149	0.533
1130.000	645.966	79.998	19.996	103.120	20.113	1.017	0.516
1130.500	646.245	79.998	19.996	103.121	20.112	1.047	0.495
1131.000	646.498	79.997	19.996	103.123	20.111	1.104	0.516
1131.500	646.735	79.997	19.996	103.123	20.113	1.026	0.511
1132.000	646.980	79.999	19.997	103.123	20.110	1.176	0.486
1132.500	647.227	79.999	19.997	103.123	20.113	0.999	0.487
1133.001	647.482	80.000	19.998	103.123	20.113	1.005	0.497
1133.501	647.708	79.999	19.996	103.122	20.117	0.719	0.491
1134.000	647.961	79.999	19.996	103.126	20.111	1.145	0.480
1134.500	648.186	79.998	19.997	103.134	20.116	0.761	0.479
1135.000	648.432	79.998	19.996	103.142	20.112	1.035	0.475
1135.500	648.727	79.998	19.997	103.150	20.113	1.001	0.506
1136.000	648.965	79.998	19.997	103.154	20.114	0.909	0.537
1136.501	649.185	79.999	19.997	103.151	20.112	1.051	0.495
1137.001	649.472	79.997	19.997	103.140	20.111	1.157	0.483
1137.500	649.715	79.998	19.996	103.127	20.116	0.818	0.518
1138.000	649.946	79.998	19.996	103.118	20.113	0.988	0.502
1138.500	650.234	79.998	19.996	103.114	20.109	1.236	0.497
1139.000	650.455	79.998	19.997	103.113	20.112	1.088	0.514
1139.500	650.734	79.998	19.997	103.117	20.113	1.005	0.505
1140.000	650.964	79.999	19.996	103.130	20.115	0.827	0.504
1140.500	651.189	79.999	19.996	103.139	20.114	0.909	0.482
1141.000	651.484	79.999	19.996	103.147	20.113	0.963	0.488
1141.500	651.684	79.998	19.996	103.152	20.111	1.164	0.508
1142.000	651.918	79.999	19.996	103.155	20.114	0.960	0.464
1142.500	652.220	79.999	19.996	103.148	20.116	0.797	0.485
1143.000	652.447	80.001	19.995	103.141	20.110	1.198	0.533
1143.500	652.723	80.000	19.996	103.133	20.112	1.062	0.516
1144.000	652.947	79.998	19.995	103.128	20.112	1.092	0.502
1144.500	653.160	80.000	19.995	103.123	20.112	1.081	0.469
1145.000	653.428	80.001	19.994	103.122	20.113	1.018	0.458
1145.500	653.665	80.000	19.996	103.121	20.109	1.238	0.493
1146.000	653.920	80.001	19.994	103.121	20.111	1.158	0.499
1146.500	654.170	80.001	19.995	103.121	20.112	1.062	0.498
1147.000	654.479	80.001	19.995	103.127	20.111	1.098	0.532
1147.500	654.711	80.001	19.994	103.135	20.112	1.037	0.551
1148.001	654.973	80.000	19.995	103.142	20.113	0.982	0.517
1148.501	655.216	80.001	19.995	103.144	20.111	1.122	0.499
1149.001	655.454	80.001	19.995	103.144	20.110	1.198	0.493
1149.500	655.714	80.001	19.995	103.139	20.109	1.287	0.490
1150.000	655.963	80.001	19.996	103.136	20.109	1.261	0.504
1150.500	656.178	80.001	19.995	103.128	20.110	1.232	0.486
1151.000	656.435	80.001	19.995	103.126	20.109	1.257	0.468
1151.500	656.664	80.001	19.995	103.126	20.110	1.231	0.479
1152.000	656.912	80.001	19.995	103.126	20.110	1.225	0.482
1152.500	657.190	80.000	19.995	103.122	20.111	1.136	0.501
1153.000	657.396	80.000	19.995	103.123	20.112	1.058	0.505
1153.500	657.658	80.000	19.995	103.122	20.110	1.179	0.476
1154.000	657.899	80.001	19.995	103.123	20.109	1.263	0.485
1154.500	658.169	79.999	19.995	103.122	20.108	1.304	0.507
1155.000	658.423	79.998	19.995	103.121	20.109	1.255	0.518
1155.500	658.667	79.999	19.995	103.121	20.109	1.257	0.511
1156.000	658.904	79.998	19.996	103.121	20.108	1.310	0.489
1156.500	659.163	79.998	19.995	103.120	20.109	1.295	0.489
1157.000	659.383	79.999	19.995	103.120	20.107	1.386	0.487
1157.500	659.615	79.998	19.997	103.120	20.104	1.598	0.466
1158.000	659.874	79.999	19.996	103.120	20.107	1.414	0.472
1158.500	660.155	79.997	19.996	103.120	20.106	1.488	0.515
1159.000	660.429	79.998	19.996	103.120	20.106	1.502	0.547
1159.500	660.648	79.998	19.996	103.121	20.105	1.549	0.524
1160.000	660.887	79.997	19.997	103.121	20.105	1.561	0.476
1160.500	661.185	79.998	19.996	103.126	20.105	1.544	0.497
1161.000	661.384	79.999	19.996	103.130	20.103	1.691	0.517
1161.500	661.654	79.998	19.996	103.136	20.101	1.834	0.483
1162.000	661.882	79.997	19.996	103.141	20.104	1.576	0.484
1162.500	662.176	79.997	19.995	103.149	20.104	1.608	0.510
1163.001	662.398	79.997	19.995	103.151	20.100	1.866	0.519
1163.501	662.680	79.998	19.995	103.150	20.103	1.682	0.510
1164.000	662.905	79.997	19.996	103.146	20.104	1.585	0.505
1164.500	663.197	79.998	19.996	103.146	20.103	1.666	0.512
1165.000	663.403	79.997	19.996	103.142	20.106	1.496	0.508
1165.500	663.684	79.997	19.996	103.134	20.104	1.609	0.493
1166.000	663.921	79.997	19.996	103.134	20.105	1.551	0.503
1166.500	664.157	79.998	19.995	103.139	20.105	1.524	0.495
1167.001	664.435	79.997	19.997	103.141	20.103	1.681	0.494
1167.501	664.662	79.998	19.996	103.144	20.105	1.526	0.510
1168.001	664.934	79.998	19.995	103.150	20.104	1.640	0.502
1168.501	665.222	79.998	19.996	103.156	20.103	1.653	0.529
1169.001	665.448	79.997	19.995	103.158	20.103	1.660	0.537
1169.501	665.689	79.998	19.995	103.159	20.100	1.846	0.490
1170.002	665.992	79.999	19.995	103.166	20.103	1.689	0.506
1170.502	666.248	79.998	19.996	103.174	20.103	1.668	0.552
1171.002	666.450	79.999	19.996	103.182	20.105	1.534	0.508
1171.501	666.740	79.999	19.995	103.190	20.101	1.835	0.475
1172.000	666.973	79.998	19.996	103.198	20.108	1.324	0.508
1172.501	667.244	79.999	19.996	103.198	20.106	1.498	0.514
1173.001	667.467	79.999	19.995	103.199	20.107	1.417	0.499
1173.501	667.729	79.998	19.996	103.196	20.107	1.407	0.489
1174.001	667.987	79.998	19.995	103.189	20.104	1.623	0.502
1174.500	668.249	79.998	19.995	103.180	20.101	1.793	0.520
1175.000	668.503	79.999	19.996	103.173	20.104	1.589	0.518
1175.500	668.743	79.999	19.995	103.165	20.104	1.587	0.505
1176.000	668.997	79.999	19.996	103.156	20.104	1.634	0.494
1176.500	669.252	79.998	19.996	103.150	20.100	1.871	0.501
1177.000	669.489	80.000	19.995	103.148	20.100	1.884	0.501
1177.500	669.778	80.000	19.996	103.146	20.104	1.581	0.509
1178.000	669.994	79.998	19.995	103.147	20.103	1.657	0.516
1178.500	670.267	79.998	19.995	103.147	20.103	1.642	0.497
1179.000	670.563	79.998	19.996	103.147	20.103	1.693	0.529
1179.500	670.778	79.998	19.996	103.148	20.101	1.809	0.540
1180.000	671.077	79.998	19.995	103.150	20.100	1.888	0.512
1180.500	671.294	79.997	19.996	103.150	20.098	2.032	0.515
1181.001	671.561	79.997	19.995	103.153	20.100	1.898	0.500
1181.501	671.798	79.999	19.995	103.160	20.099	1.960	0.494
1182.000	672.043	79.998	19.996	103.169	20.101	1.839	0.493
1182.500	672.302	79.998	19.995	103.177	20.103	1.695	0.493
1183.000	672.539	79.999	19.995	103.184	20.101	1.792	0.500
1183.500	672.792	79.997	19.994	103.191	20.097	2.062	0.493
1184.000	673.042	79.998	19.996	103.191	20.099	1.922	0.496
1184.500	673.339	79.997	19.996	103.187	20.099	1.970	0.525
1185.000	673.563	79.997	19.994	103.181	20.097	2.068	0.534
1185.500	673.804	79.998	19.995	103.175	20.097	2.053	0.493
1186.000	674.103	79.998	19.996	103.168	20.097	2.091	0.503
1186.500	674.346	79.997	19.996	103.169	20.097	2.112	0.541
1187.000	674.570	79.996	19.996	103.170	20.100	1.875	0.504
1187.500	674.874	79.996	19.995	103.175	20.098	2.025	0.498
1188.000	675.112	79.996	19.996	103.178	20.097	2.051	0.535
1188.500	675.338	79.997	19.996	103.178	20.097	2.110	0.503
1189.000	675.623	79.997	19.995	103.177	20.098	2.025	0.487
1189.500	675.861	79.997	19.996	103.177	20.098	1.993	0.517
1190.000	676.102	79.997	19.997	103.178	20.097	2.059	0.501
1190.500	676.361	79.997	19.996	103.182	20.097	2.086	0.490
1191.001	676.624	79.997	19.995	103.184	20.096	2.171	0.511
1191.501	676.925	79.997	19.996	103.187	20.096	2.182	0.543
1192.000	677.062	79.997	19.995	103.188	20.098	2.025	0.501
1192.500	677.380	79.998	19.997	103.188	20.096	2.137	0.446
1193.000	677.596	79.996	19.997	103.182	20.097	2.053	0.495
1193.500	677.894	79.997	19.997	103.183	20.097	2.103	0.524
1194.001	678.098	79.998	19.997	103.182	20.095	2.226	0.508
1194.501	678.351	79.997	19.997	103.178	20.096	2.150	0.480
1195.001	678.597	79.998	19.997	103.178	20.090	2.529	0.478
1195.501	678.883	79.997	19.996	103.185	20.094	2.309	0.515
1196.000	679.097	79.998	19.997	103.189	20.091	2.480	0.516
1196.500	679.361	79.997	19.997	103.191	20.093	2.342	0.489
1197.000	679.610	79.999	19.996	103.194	20.090	2.567	0.495
1197.501	679.851	79.997	19.996	103.191	20.092	2.427	0.502
1198.001	680.115	79.999	19.996	103.189	20.090	2.544	0.497
1198.500	680.345	79.998	19.997	103.189	20.093	2.341	0.499
1199.000	680.628	79.998	19.997	103.191	20.090	2.567	0.504
1199.500	680.869	79.998	19.996	103.194	20.093	2.387	0.519
1200.000	681.121	79.999	19.996	103.198	20.090	2.584	0.508
1200.500	681.367	79.999	19.996	103.200	20.091	2.461	0.495
1201.000	681.646	79.999	19.997	103.200	20.093	2.351	0.511
1201.501	681.878	80.000	19.995	103.203	20.093	2.323	0.518
1202.001	682.186	79.999	19.995	103.205	20.094	2.320	0.526
1202.500	682.394	79.999	19.996	103.206	20.091	2.462	0.528
1203.000	682.671	80.000	19.996	103.207	20.094	2.268	0.501
1203.500	682.930	80.000	19.996	103.207	20.096	2.158	0.511
1204.000	683.183	80.000	19.995	103.205	20.088	2.721	0.524
1204.500	683.438	79.999	19.995	103.205	20.091	2.496	0.510
1205.001	683.687	79.999	19.995	103.206	20.094	2.257	0.506
1205.501	684.000	79.998	19.996	103.209	20.089	2.658	0.533
1206.000	684.219	80.000	19.996	103.215	20.092	2.454	0.547
1206.500	684.460	79.999	19.995	103.218	20.092	2.450	0.496
1207.000	684.758	80.000	19.996	103.220	20.091	2.516	0.500
1207.500	685.015	80.000	19.995	103.217	20.089	2.643	0.547
1208.000	685.252	80.000	19.995	103.215	20.091	2.482	0.524
1208.500	685.520	79.999	19.997	103.210	20.088	2.674	0.499
1209.000	685.753	80.000	19.995	103.208	20.091	2.473	0.503
1209.500	686.044	79.999	19.995	103.204	20.089	2.641	0.513
1210.000	686.317	80.000	19.995	103.205	20.089	2.657	0.544
1210.500	686.567	79.999	19.995	103.211	20.089	2.613	0.543
1211.000	686.811	79.999	19.994	103.218	20.088	2.710	0.508
1211.500	687.080	80.001	19.995	103.225	20.088	2.710	0.504
1212.001	687.359	79.998	19.996	103.233	20.085	2.886	0.531
1212.501	687.599	79.999	19.998	103.242	20.088	2.723	0.534
1213.000	687.897	79.999	19.998	103.248	20.089	2.615	0.528
1213.501	688.170	79.999	19.996	103.248	20.087	2.789	0.555
1214.001	688.434	79.999	19.996	103.248	20.087	2.759	0.554
1214.500	688.700	80.000	19.997	103.247	20.087	2.751	0.533
1215.000	688.948	79.999	19.996	103.243	20.086	2.801	0.522
1215.500	689.211	79.998	19.997	103.238	20.086	2.810	0.512
1216.000	689.503	79.999	19.996	103.236	20.084	2.943	0.533
1216.500	689.772	79.999	19.997	103.234	20.085	2.881	0.558
1217.000	690.075	79.999	19.996	103.234	20.084	2.981	0.566
1217.500	690.300	79.998	19.997	103.234	20.081	3.150	0.550
1218.000	690.578	79.998	19.996	103.234	20.086	2.833	0.516
1218.501	690.838	79.999	19.997	103.234	20.083	3.046	0.521
1219.001	691.075	79.999	19.996	103.236	20.085	2.915	0.518
1219.500	691.357	79.999	19.996	103.234	20.082	3.129	0.508
1220.000	691.638	79.998	19.996	103.234	20.081	3.204	0.540
1220.500	691.898	79.999	19.997	103.234	20.079	3.307	0.552
1221.000	692.150	80.000	19.996	103.234	20.079	3.289	0.526
1221.500	692.427	79.999	19.996	103.231	20.081	3.191	0.521
1222.000	692.712	79.999	19.996	103.231	20.081	3.204	0.546
1222.501	692.970	79.998	19.996	103.232	20.082	3.070	0.553
1223.001	693.224	79.999	19.996	103.235	20.078	3.350	0.527
1223.501	693.459	80.000	19.997	103.238	20.077	3.462	0.500
1224.000	693.744	80.001	19.997	103.242	20.079	3.275	0.504
1224.500	694.005	79.999	19.997	103.243	20.083	3.042	0.533
1225.000	694.277	80.000	19.997	103.243	20.075	3.555	0.540
1225.500	694.511	80.001	19.995	103.241	20.076	3.519	0.519
1226.000	694.844	80.001	19.996	103.244	20.080	3.226	0.536
1226.500	695.100	80.000	19.996	103.250	20.079	3.328	0.578
1227.000	695.371	79.999	19.996	103.253	20.080	3.224	0.558
1227.500	695.624	80.002	19.996	103.259	20.080	3.268	0.525
1228.000	695.908	80.001	19.995	103.262	20.079	3.290	0.531
1228.500	696.156	80.001	19.997	103.258	20.080	3.254	0.534
1229.000	696.432	80.000	19.997	103.255	20.079	3.296	0.528
1229.500	696.689	80.000	19.996	103.253	20.079	3.315	0.529
1230.000	696.930	80.000	19.996	103.246	20.080	3.209	0.516
1230.500	697.199	80.000	19.996	103.242	20.078	3.353	0.504
1231.000	697.514	80.000	19.996	103.239	20.077	3.435	0.547
1231.500	697.772	80.000	19.995	103.237	20.076	3.501	0.578
1232.000	697.982	80.000	19.996	103.235	20.077	3.442	0.521
1232.500	698.285	80.001	19.996	103.235	20.076	3.527	0.491
1233.000	698.528	80.001	19.996	103.235	20.075	3.583	0.529
1233.500	698.785	80.000	19.996	103.236	20.079	3.323	0.523
1234.000	699.019	80.001	19.995	103.237	20.073	3.713	0.496
1234.500	699.302	80.000	19.994	103.238	20.077	3.452	0.504
1235.000	699.555	80.000	19.996	103.242	20.077	3.452	0.526
1235.500	699.844	79.999	19.995	103.244	20.079	3.315	0.539
1236.001	700.078	80.000	19.996	103.250	20.076	3.541	0.532
1236.501	700.374	79.999	19.996	103.256	20.079	3.329	0.526
1237.000	700.641	79.998	19.995	103.263	20.075	3.592	0.546
1237.500	700.896	79.999	19.996	103.266	20.075	3.558	0.543
1238.000	701.167	79.999	19.995	103.268	20.077	3.435	0.524
1238.500	701.424	80.000	19.996	103.268	20.075	3.605	0.527
1239.000	701.653	79.997	19.997	103.265	20.074	3.623	0.507
1239.500	701.931	79.999	19.997	103.265	20.075	3.562	0.496
1240.000	702.199	79.999	19.995	103.266	20.073	3.712	0.526
1240.500	702.475	79.999	19.996	103.269	20.070	3.937	0.545
1241.000	702.727	79.999	19.996	103.268	20.075	3.609	0.536
1241.500	703.008	79.999	19.995	103.269	20.074	3.678	0.531
1242.000	703.281	79.997	19.996	103.270	20.071	3.848	0.544
1242.500	703.502	79.999	19.995	103.271	20.073	3.720	0.524
1243.000	703.756	79.999	19.995	103.266	20.073	3.725	0.484
1243.500	704.054	79.998	19.996	103.269	20.072	3.790	0.514
1244.000	704.309	79.999	19.996	103.271	20.074	3.653	0.552
1244.500	704.560	79.998	19.995	103.271	20.069	4.008	0.530
1245.000	704.844	79.999	19.996	103.269	20.071	3.845	0.521
1245.500	705.089	79.997	19.996	103.272	20.070	3.904	0.532
1246.000	705.332	79.998	19.995	103.273	20.070	3.896	0.508
1246.500	705.618	79.998	19.995	103.272	20.069	4.014	0.508
1247.000	705.870	79.999	19.996	103.273	20.069	4.004	0.534
1247.500	706.122	79.997	19.995	103.275	20.069	3.957	0.521
1248.000	706.375	79.998	19.995	103.276	20.070	3.908	0.504
1248.500	706.663	79.998	19.995	103.276	20.068	4.033	0.524
1249.000	706.893	79.999	19.996	103.277	20.068	4.086	0.530
1249.500	707.187	79.998	19.995	103.277	20.074	3.663	0.521
1250.000	707.455	79.998	19.995	103.278	20.070	3.947	0.543
1250.500	707.697	80.000	19.995	103.278	20.069	3.995	0.536
1251.000	707.977	79.999	19.995	103.279	20.072	3.762	0.516
1251.500	708.207	79.998	19.995	103.280	20.070	3.902	0.516
1252.000	708.451	79.999	19.997	103.283	20.068	4.067	0.492
1252.500	708.705	79.999	19.996	103.284	20.071	3.851	0.486
1253.000	709.005	79.998	19.995	103.285	20.068	4.029	0.527
1253.500	709.232	79.998	19.996	103.287	20.068	4.024	0.541
1254.000	709.482	79.998	19.995	103.288	20.070	3.912	0.502
1254.500	709.747	79.998	19.996	103.286	20.072	3.762	0.496
1255.000	709.997	80.000	19.995	103.292	20.069	3.963	0.515
1255.500	710.297	79.999	19.995	103.295	20.064	4.321	0.533
1256.000	710.548	79.999	19.996	103.294	20.068	4.036	0.550
1256.500	710.802	79.999	19.996	103.294	20.067	4.110	0.528
1257.001	711.008	79.999	19.995	103.294	20.068	4.084	0.483
1257.501	711.297	79.998	19.996	103.292	20.066	4.163	0.477
1258.001	711.517	79.999	19.997	103.293	20.067	4.116	0.502
1258.501	711.792	79.999	19.995	103.294	20.065	4.254	0.502
1259.000	712.061	80.000	19.996	103.295	20.067	4.118	0.519
1259.500	712.339	79.999	19.996	103.296	20.068	4.084	0.545
1260.000	712.555	79.998	19.996	103.292	20.066	4.177	0.520
1260.500	712.803	79.998	19.996	103.289	20.067	4.158	0.479
1261.000	713.076	80.000	19.996	103.291	20.067	4.145	0.493
1261.500	713.335	79.998	19.996	103.292	20.066	4.166	0.527
1262.000	713.566	79.999	19.996	103.294	20.067	4.103	0.511
1262.500	713.838	79.999	19.996	103.295	20.066	4.221	0.496
1263.000	714.106	79.999	19.995	103.299	20.064	4.302	0.521
1263.500	714.345	79.999	19.995	103.303	20.064	4.363	0.524
1264.000	714.564	79.998	19.996	103.307	20.065	4.247	0.483
1264.500	714.863	79.998	19.997	103.309	20.067	4.154	0.488
1265.000	715.108	80.000	19.997	103.311	20.063	4.367	0.531
1265.500	715.398	79.998	19.996	103.307	20.064	4.317	0.540
1266.000	715.602	79.999	19.994	103.299	20.065	4.232	0.515
1266.500	715.867	79.999	19.995	103.294	20.065	4.247	0.482
1267.000	716.161	79.999	19.997	103.290	20.064	4.317	0.514
1267.500	716.396	79.998	19.996	103.286	20.065	4.235	0.544
1268.000	716.649	79.999	19.995	103.286	20.064	4.342	0.508
1268.500	716.912	79.998	19.996	103.288	20.062	4.486	0.502
1269.000	717.175	79.998	19.996	103.290	20.061	4.509	0.521
1269.500	717.342	79.998	19.996	103.290	20.062	4.492	0.478
1270.000	717.651	79.999	19.996	103.289	20.060	4.618	0.453
1270.500	717.894	79.997	19.995	103.289	20.062	4.478	0.514
1271.000	718.138	79.997	19.996	103.290	20.064	4.332	0.520
1271.500	718.389	79.998	19.995	103.293	20.061	4.526	0.491
1272.000	718.628	79.998	19.995	103.298	20.063	4.395	0.492
1272.500	718.903	79.997	19.996	103.305	20.062	4.467	0.502
1273.000	719.109	79.998	19.995	103.310	20.061	4.518	0.498
1273.500	719.398	79.997	19.995	103.312	20.066	4.226	0.488
1274.000	719.614	79.998	19.996	103.308	20.062	4.478	0.501
1274.500	719.898	79.997	19.996	103.306	20.059	4.699	0.503
1275.000	720.122	79.998	19.995	103.304	20.060	4.582	0.504
1275.500	720.369	79.998	19.996	103.304	20.061	4.554	0.489
1276.000	720.633	79.998	19.995	103.304	20.059	4.679	0.491
1276.500	720.879	79.998	19.996	103.302	20.060	4.607	0.511
1277.000	721.120	79.998	19.996	103.298	20.061	4.514	0.498
1277.500	721.356	79.998	19.995	103.295	20.060	4.582	0.482
1278.000	721.589	79.998	19.995	103.291	20.059	4.698	0.473
1278.500	721.852	79.999	19.995	103.292	20.062	4.478	0.482
1279.000	722.092	79.999	19.995	103.291	20.058	4.727	0.499
1279.500	722.343	79.998	19.997	103.293	20.058	4.722	0.497
1280.000	722.573	80.000	19.995	103.294	20.058	4.705	0.486
1280.500	722.792	79.998	19.996	103.296	20.060	4.618	0.465
1281.000	723.054	79.999	19.995	103.292	20.058	4.748	0.465
1281.500	723.356	80.000	19.995	103.290	20.059	4.653	0.522
1282.000	723.567	79.999	19.995	103.290	20.056	4.840	0.539
1282.500	723.766	79.999	19.996	103.292	20.059	4.641	0.462
1283.000	724.032	80.000	19.997	103.290	20.059	4.677	0.437
1283.501	724.282	80.001	19.996	103.289	20.057	4.777	0.490
1284.001	724.503	80.000	19.995	103.288	20.059	4.660	0.494
1284.500	724.776	79.999	19.996	103.287	20.061	4.544	0.483
1285.000	725.021	80.000	19.996	103.281	20.062	4.468	0.506
1285.500	725.276	80.000	19.996	103.280	20.061	4.517	0.509
1286.000	725.497	79.999	19.997	103.284	20.061	4.540	0.488
1286.501	725.757	79.998	19.996	103.285	20.058	4.769	0.478
1287.001	726.017	79.999	19.996	103.284	20.060	4.627	0.501
1287.501	726.266	80.000	19.996	103.284	20.060	4.595	0.515
1288.001	726.504	79.999	19.997	103.284	20.059	4.667	0.498
1288.501	726.747	80.000	19.997	103.286	20.061	4.506	0.484
1289.001	726.994	80.000	19.996	103.292	20.062	4.477	0.485
1289.501	727.204	80.000	19.996	103.299	20.062	4.460	0.473
1290.002	727.453	79.999	19.996	103.310	20.062	4.452	0.458
1290.502	727.692	79.999	19.996	103.317	20.063	4.423	0.473
1291.001	727.936	80.000	19.997	103.318	20.064	4.332	0.486
1291.501	728.191	80.000	19.996	103.318	20.064	4.328	0.491
1292.001	728.424	79.999	19.996	103.312	20.063	4.383	0.493
1292.501	728.700	80.000	19.996	103.300	20.063	4.404	0.499
1293.001	728.936	79.999	19.997	103.296	20.061	4.533	0.510
1293.500	729.123	79.998	19.996	103.294	20.059	4.675	0.468
1294.000	729.402	79.998	19.996	103.289	20.062	4.489	0.444
1294.500	729.632	79.999	19.995	103.287	20.060	4.580	0.487
1295.000	729.863	79.998	19.997	103.287	20.059	4.682	0.485
1295.500	730.116	79.998	19.995	103.283	20.061	4.525	0.473
1296.000	730.347	79.999	19.996	103.278	20.061	4.551	0.484
1296.500	730.574	79.999	19.996	103.276	20.060	4.583	0.471
1297.001	730.805	80.000	19.995	103.277	20.058	4.714	0.459
1297.501	731.057	79.999	19.996	103.277	20.061	4.518	0.471
1298.000	731.299	79.998	19.996	103.277	20.061	4.526	0.488
1298.500	731.539	79.999	19.997	103.277	20.062	4.446	0.488
1299.000	731.771	79.999	19.995	103.274	20.060	4.618	0.477
1299.500	732.045	80.000	19.996	103.271	20.063	4.374	0.489
1300.000	732.269	79.999	19.996	103.264	20.063	4.374	0.502
1300.500	732.502	80.000	19.996	103.260	20.065	4.269	0.477
1301.000	732.727	79.999	19.996	103.254	20.067	4.150	0.457
1301.500	732.980	79.999	19.997	103.250	20.064	4.297	0.468
1302.000	733.235	80.000	19.995	103.246	20.066	4.166	0.493
1302.500	733.439	79.999	19.996	103.245	20.068	4.071	0.483
1303.000	733.655	80.001	19.997	103.240	20.069	3.963	0.440
1303.500	733.921	80.000	19.997	103.238	20.070	3.936	0.451
1304.000	734.152	79.999	19.996	103.236	20.067	4.142	0.490
1304.500	734.377	80.001	19.995	103.235	20.070	3.932	0.477
1305.000	734.625	80.000	19.996	103.236	20.069	4.000	0.464
1305.500	734.860	80.000	19.996	103.235	20.071	3.856	0.478
1306.000	735.078	80.001	19.995	103.235	20.071	3.839	0.468
1306.501	735.318	80.000	19.997	103.235	20.072	3.755	0.456
1307.001	735.575	80.001	19.996	103.234	20.076	3.473	0.478
1307.500	735.827	80.001	19.996	103.227	20.075	3.568	0.503
1308.000	736.045	80.001	19.996	103.221	20.074	3.638	0.489
1308.500	736.263	80.001	19.996	103.214	20.080	3.242	0.453
1309.000	736.542	80.000	19.996	103.207	20.076	3.526	0.467
1309.500	736.755	80.001	19.996	103.202	20.080	3.252	0.494
1310.001	736.991	80.001	19.997	103.201	20.080	3.255	0.470
1310.501	737.254	80.001	19.996	103.201	20.084	2.979	0.474
1311.001	737.481	80.002	19.995	103.199	20.083	3.028	0.495
1311.501	737.717	80.000	19.995	103.196	20.085	2.926	0.477
1312.000	737.972	80.001	19.996	103.190	20.088	2.659	0.477
1312.500	738.224	80.001	19.997	103.187	20.087	2.792	0.499
1313.000	738.472	80.000	19.997	103.180	20.089	2.625	0.504
1313.500	738.740	80.002	19.996	103.172	20.091	2.464	0.508
1314.000	738.977	80.001	19.997	103.165	20.093	2.354	0.510
1314.500	739.216	80.000	19.995	103.158	20.095	2.205	0.490
1315.000	739.458	80.001	19.996	103.145	20.096	2.129	0.478
1315.500	739.706	80.000	19.997	103.138	20.101	1.782	0.486
1316.000	739.980	80.000	19.997	103.132	20.100	1.873	0.506
1316.500	740.208	79.998	19.997	103.130	20.099	1.934	0.512
1317.001	740.439	80.000	19.996	103.126	20.100	1.896	0.481
1317.501	740.692	80.000	19.997	103.125	20.101	1.803	0.471
1318.000	740.966	79.998	19.996	103.125	20.102	1.748	0.505
1318.500	741.201	79.998	19.997	103.123	20.104	1.633	0.518
1319.000	741.476	79.997	19.998	103.119	20.106	1.442	0.509
1319.500	741.723	79.998	19.997	103.118	20.105	1.570	0.516
1320.000	741.977	79.999	19.998	103.117	20.106	1.468	0.512
1320.501	742.246	79.998	19.997	103.115	20.108	1.362	0.512
1321.001	742.542	79.997	19.998	103.116	20.108	1.307	0.544
1321.500	742.772	79.996	19.996	103.117	20.108	1.324	0.546
1322.000	742.998	79.997	19.997	103.118	20.108	1.317	0.491
1322.500	743.239	79.998	19.996	103.119	20.110	1.198	0.462
