Sample ID:	C:\MCC\MCC Cal\Test\Coffee_Machine_MCC_30K_min_220203_R3.txt
Sample Weight (mg):	4.64
Heating Rate (C/s):	0.5
Combustor Temp (C):	900
N2 Flow Rate (cc/min):	80
O2 Flow Rate (cc/min):	20
Calibration File:	C:\MCC\MCC Cal\Coeff1 JN10440_30_210304.txt.txt
T Correction Coefficients:	0	1.024463	0
Time Shift (s):	14
*
Time (s)	Temperature (C)	N2 flow rate (cc/min)	O2 flow rate (cc/min)	Flow Rate (cc/min)	Oxygen (%)	HRR (W/g)	Heating rate (C/s)
0.000	110.732	80.008	19.994	103.830	20.086	0.094	0.001
0.500	110.703	80.009	19.995	103.831	20.087	0.081	-0.019
1.000	110.749	80.010	19.995	103.830	20.089	-0.065	-0.008
1.500	110.720	80.005	19.995	103.829	20.088	-0.027	0.017
2.000	110.736	80.009	19.994	103.829	20.088	-0.012	0.002
2.500	110.746	80.008	19.995	103.828	20.090	-0.127	0.006
3.000	110.726	80.007	19.994	103.828	20.087	0.029	0.008
3.500	110.728	80.007	19.995	103.828	20.088	-0.023	-0.014
4.000	110.732	80.008	19.994	103.826	20.084	0.281	-0.006
4.500	110.738	80.007	19.995	103.826	20.087	0.042	0.008
5.000	110.732	80.009	19.994	103.827	20.086	0.123	0.005
5.500	110.715	80.009	19.994	103.827	20.087	0.085	-0.011
6.000	110.703	80.007	19.994	103.828	20.087	0.025	-0.026
6.500	110.722	80.009	19.995	103.829	20.088	0.008	-0.012
7.000	110.711	80.008	19.995	103.827	20.087	0.071	0.007
7.500	110.696	80.008	19.994	103.827	20.084	0.232	-0.009
8.000	110.750	80.009	19.994	103.827	20.085	0.186	0.006
8.500	110.719	80.009	19.995	103.827	20.087	0.040	0.031
9.000	110.732	80.009	19.994	103.829	20.088	-0.013	0.002
9.500	110.745	80.007	19.994	103.832	20.087	0.025	0.004
10.000	110.740	80.009	19.994	103.829	20.088	0.002	0.017
10.500	110.703	80.007	19.994	103.827	20.087	0.021	-0.017
11.000	110.751	80.009	19.994	103.826	20.088	0.000	-0.015
11.500	110.759	80.003	19.995	103.826	20.087	0.046	0.034
12.000	110.721	80.009	19.995	103.826	20.085	0.160	0.013
12.500	110.724	80.009	19.994	103.829	20.085	0.204	-0.032
13.000	110.728	80.009	19.994	103.832	20.084	0.271	-0.014
13.501	110.745	80.008	19.993	103.832	20.085	0.213	0.014
14.001	110.752	80.008	19.994	103.832	20.083	0.315	0.023
14.501	110.716	80.009	19.995	103.835	20.086	0.156	-0.003
15.000	110.753	80.008	19.994	103.835	20.083	0.309	-0.015
15.500	110.761	80.008	19.994	103.835	20.088	-0.015	0.023
16.000	110.771	80.008	19.993	103.835	20.086	0.142	0.032
16.500	110.716	80.009	19.993	103.835	20.085	0.165	-0.014
17.000	110.768	80.008	19.994	103.833	20.087	0.062	-0.024
17.500	110.739	80.007	19.993	103.834	20.083	0.342	0.010
18.000	110.737	80.007	19.993	103.834	20.085	0.208	-0.003
18.500	110.739	80.007	19.993	103.835	20.083	0.315	-0.016
19.000	110.748	80.008	19.994	103.835	20.084	0.236	0.005
19.500	110.760	80.007	19.994	103.834	20.084	0.296	0.016
20.000	110.765	80.009	19.994	103.837	20.082	0.406	0.019
20.500	110.730	80.007	19.993	103.845	20.083	0.309	-0.007
21.000	110.742	80.008	19.993	103.849	20.083	0.308	-0.027
21.500	110.761	80.008	19.993	103.850	20.086	0.096	0.004
22.000	110.801	80.007	19.993	103.854	20.083	0.304	0.045
22.500	110.749	80.009	19.993	103.857	20.083	0.348	0.024
23.000	110.796	80.009	19.993	103.857	20.084	0.260	-0.009
23.500	110.790	80.009	19.994	103.860	20.085	0.187	0.018
24.000	110.796	80.009	19.995	103.866	20.082	0.396	0.021
24.500	110.799	80.007	19.993	103.867	20.082	0.385	0.005
25.000	110.805	80.011	19.994	103.863	20.081	0.456	0.009
25.500	110.840	80.008	19.993	103.863	20.080	0.529	0.025
26.000	110.837	80.009	19.994	103.863	20.080	0.569	0.036
26.500	110.833	80.007	19.996	103.865	20.079	0.588	0.012
27.000	110.827	80.010	19.995	103.875	20.079	0.606	-0.009
27.500	110.856	80.007	19.995	103.882	20.079	0.592	0.007
28.000	110.874	80.008	19.995	103.882	20.075	0.919	0.035
28.500	110.887	80.009	19.995	103.883	20.079	0.577	0.039
29.000	110.911	80.009	19.994	103.884	20.080	0.510	0.034
29.500	110.938	80.008	19.995	103.877	20.076	0.808	0.044
30.000	110.931	80.009	19.994	103.878	20.074	0.973	0.036
30.501	110.920	80.008	19.996	103.877	20.078	0.658	0.001
31.000	111.001	80.008	19.995	103.876	20.077	0.725	0.026
31.500	110.943	80.007	19.995	103.877	20.076	0.823	0.046
32.000	110.985	80.009	19.995	103.883	20.073	1.027	0.003
32.500	110.987	80.007	19.994	103.888	20.074	0.960	0.014
33.000	111.020	80.009	19.994	103.896	20.076	0.804	0.040
33.500	111.018	80.008	19.995	103.902	20.074	0.952	0.033
34.000	111.076	80.008	19.995	103.907	20.074	0.962	0.043
34.500	111.074	80.006	19.995	103.910	20.072	1.095	0.056
35.000	111.108	80.007	19.994	103.910	20.075	0.868	0.044
35.500	111.145	80.006	19.995	103.910	20.071	1.139	0.051
36.000	111.159	80.008	19.996	103.913	20.072	1.099	0.060
36.501	111.200	80.008	19.994	103.914	20.071	1.189	0.053
37.001	111.237	80.007	19.994	103.912	20.070	1.249	0.067
37.500	111.283	80.008	19.994	103.912	20.072	1.122	0.080
38.000	111.312	80.006	19.995	103.916	20.070	1.216	0.079
38.500	111.341	80.006	19.994	103.919	20.070	1.209	0.067
39.001	111.327	80.006	19.994	103.920	20.072	1.099	0.037
39.501	111.406	80.006	19.995	103.926	20.069	1.309	0.040
40.000	111.381	80.005	19.993	103.934	20.068	1.384	0.059
40.500	111.405	80.009	19.994	103.941	20.066	1.500	0.027
41.000	111.456	80.007	19.995	103.948	20.069	1.328	0.037
41.500	111.487	80.009	19.995	103.957	20.066	1.505	0.079
42.000	111.534	80.008	19.995	103.959	20.064	1.673	0.080
42.500	111.572	80.009	19.995	103.961	20.066	1.530	0.081
43.000	111.631	80.008	19.995	103.962	20.067	1.461	0.091
43.500	111.626	80.008	19.995	103.957	20.068	1.378	0.076
44.000	111.726	80.010	19.995	103.954	20.063	1.706	0.075
44.500	111.771	80.008	19.994	103.955	20.063	1.711	0.120
45.000	111.797	80.008	19.994	103.956	20.062	1.821	0.108
45.500	111.858	80.009	19.994	103.959	20.061	1.888	0.079
46.000	111.891	80.006	19.995	103.966	20.061	1.906	0.090
46.500	111.937	80.009	19.994	103.973	20.060	1.941	0.086
47.000	112.018	80.008	19.995	103.980	20.059	2.021	0.103
47.500	112.039	80.009	19.994	103.985	20.058	2.048	0.115
48.000	112.114	80.008	19.995	103.991	20.060	1.933	0.099
48.500	112.164	80.009	19.994	103.998	20.058	2.085	0.110
49.000	112.172	80.009	19.994	104.005	20.058	2.106	0.092
49.500	112.284	80.009	19.996	104.013	20.058	2.047	0.090
50.000	112.322	80.009	19.994	104.020	20.055	2.290	0.135
50.500	112.372	80.010	19.995	104.022	20.055	2.313	0.119
51.000	112.474	80.010	19.995	104.023	20.055	2.265	0.120
51.500	112.503	80.010	19.994	104.023	20.054	2.386	0.141
52.000	112.609	80.008	19.994	104.024	20.051	2.550	0.133
52.500	112.644	80.013	19.994	104.027	20.051	2.538	0.138
53.000	112.749	80.012	19.994	104.028	20.049	2.742	0.140
53.500	112.813	80.009	19.994	104.029	20.051	2.598	0.154
54.000	112.889	80.010	19.995	104.029	20.051	2.561	0.154
54.500	112.980	80.010	19.995	104.029	20.049	2.713	0.154
55.001	113.016	80.008	19.995	104.026	20.049	2.717	0.147
55.501	113.129	80.008	19.994	104.025	20.050	2.671	0.138
56.001	113.207	80.008	19.995	104.025	20.046	2.916	0.170
56.500	113.299	80.008	19.995	104.027	20.049	2.690	0.181
57.000	113.386	80.010	19.994	104.029	20.047	2.858	0.175
57.500	113.458	80.008	19.995	104.036	20.048	2.785	0.169
58.000	113.540	80.008	19.995	104.039	20.045	3.008	0.157
58.500	113.623	80.008	19.995	104.041	20.045	3.014	0.160
59.000	113.709	80.012	19.995	104.046	20.047	2.864	0.167
59.500	113.817	80.010	19.995	104.051	20.049	2.711	0.181
60.000	113.893	80.010	19.994	104.052	20.047	2.850	0.189
60.501	114.012	80.008	19.996	104.057	20.048	2.762	0.189
61.001	114.099	80.009	19.994	104.063	20.042	3.195	0.200
61.500	114.216	80.009	19.995	104.064	20.042	3.201	0.205
62.000	114.344	80.009	19.995	104.066	20.041	3.245	0.225
62.500	114.425	80.007	19.996	104.068	20.041	3.289	0.227
63.000	114.533	80.006	19.996	104.068	20.041	3.260	0.199
63.500	114.666	80.008	19.996	104.068	20.043	3.129	0.214
64.000	114.756	80.007	19.995	104.068	20.045	3.008	0.232
64.500	114.887	80.009	19.995	104.066	20.041	3.295	0.222
65.000	114.982	80.010	19.995	104.065	20.044	3.072	0.223
65.500	115.144	80.008	19.996	104.065	20.044	3.093	0.241
66.000	115.202	80.008	19.995	104.065	20.042	3.170	0.239
66.500	115.280	80.006	19.996	104.065	20.041	3.301	0.178
67.000	115.412	80.007	19.995	104.066	20.040	3.328	0.173
67.500	115.533	80.008	19.995	104.066	20.040	3.347	0.232
68.000	115.658	80.009	19.994	104.066	20.041	3.303	0.249
68.500	115.799	80.009	19.995	104.066	20.042	3.231	0.256
69.000	115.907	80.010	19.996	104.066	20.041	3.270	0.257
69.500	116.070	80.009	19.995	104.066	20.041	3.251	0.260
70.000	116.190	80.009	19.995	104.066	20.042	3.232	0.277
70.501	116.312	80.009	19.995	104.067	20.042	3.203	0.263
71.001	116.455	80.008	19.994	104.067	20.042	3.236	0.253
71.501	116.586	80.006	19.995	104.067	20.044	3.085	0.270
72.001	116.756	80.008	19.994	104.067	20.040	3.309	0.288
72.501	116.850	80.010	19.995	104.067	20.043	3.135	0.283
73.000	116.988	80.010	19.994	104.067	20.042	3.211	0.248
73.500	117.127	80.009	19.994	104.068	20.043	3.159	0.254
74.000	117.275	80.011	19.994	104.068	20.042	3.215	0.282
74.500	117.397	80.010	19.995	104.068	20.041	3.274	0.278
75.000	117.521	80.011	19.993	104.066	20.042	3.196	0.258
75.500	117.688	80.012	19.994	104.066	20.040	3.375	0.269
76.000	117.827	80.011	19.992	104.066	20.041	3.276	0.298
76.500	117.945	80.011	19.993	104.066	20.040	3.369	0.281
77.001	118.132	80.012	19.994	104.066	20.039	3.394	0.281
77.501	118.312	80.009	19.993	104.065	20.037	3.555	0.336
78.000	118.363	80.011	19.993	104.065	20.041	3.240	0.299
78.500	118.562	80.010	19.994	104.064	20.042	3.205	0.241
79.001	118.733	80.012	19.993	104.064	20.041	3.282	0.310
79.501	118.904	80.011	19.994	104.066	20.041	3.282	0.356
80.001	118.989	80.010	19.994	104.068	20.039	3.386	0.299
80.500	119.136	80.011	19.993	104.068	20.039	3.398	0.244
81.000	119.351	80.011	19.993	104.070	20.040	3.311	0.297
81.501	119.490	80.011	19.993	104.074	20.042	3.180	0.358
82.002	119.658	80.010	19.993	104.078	20.039	3.400	0.331
82.501	119.811	80.011	19.993	104.079	20.041	3.270	0.314
83.000	119.959	80.011	19.993	104.081	20.041	3.243	0.311
83.500	120.087	80.010	19.994	104.079	20.041	3.270	0.288
84.000	120.281	80.012	19.993	104.079	20.041	3.305	0.299
84.500	120.455	80.010	19.993	104.078	20.041	3.298	0.345
85.000	120.639	80.008	19.994	104.082	20.039	3.404	0.363
85.500	120.795	80.009	19.993	104.086	20.041	3.286	0.349
86.000	120.933	80.008	19.994	104.092	20.039	3.403	0.317
86.500	121.123	80.008	19.994	104.093	20.040	3.315	0.311
87.000	121.272	80.009	19.994	104.091	20.043	3.157	0.334
87.500	121.457	80.007	19.993	104.086	20.039	3.420	0.337
88.000	121.672	80.007	19.994	104.083	20.038	3.511	0.367
88.500	121.804	80.011	19.993	104.081	20.037	3.582	0.374
89.000	121.968	80.008	19.995	104.083	20.041	3.249	0.322
89.500	122.157	80.008	19.994	104.085	20.041	3.241	0.325
90.000	122.307	80.009	19.994	104.091	20.039	3.399	0.346
90.500	122.526	80.010	19.993	104.094	20.041	3.278	0.353
91.000	122.676	80.008	19.994	104.097	20.042	3.188	0.369
91.500	122.917	80.009	19.994	104.098	20.037	3.552	0.380
92.000	123.062	80.008	19.994	104.097	20.039	3.409	0.388
92.501	123.234	80.009	19.994	104.090	20.038	3.478	0.351
93.001	123.380	80.008	19.994	104.084	20.037	3.532	0.318
93.500	123.601	80.009	19.995	104.080	20.039	3.384	0.343
94.000	123.776	80.007	19.995	104.079	20.043	3.116	0.382
94.500	123.936	80.008	19.995	104.080	20.043	3.124	0.365
95.000	124.149	80.007	19.994	104.083	20.041	3.265	0.354
95.501	124.319	80.007	19.995	104.089	20.041	3.255	0.378
96.001	124.512	80.009	19.994	104.094	20.043	3.132	0.373
96.500	124.676	80.008	19.995	104.090	20.039	3.425	0.360
97.000	124.878	80.009	19.994	104.086	20.040	3.357	0.362
97.500	125.071	80.007	19.994	104.083	20.039	3.400	0.381
98.000	125.184	80.007	19.993	104.077	20.037	3.527	0.351
98.500	125.429	80.010	19.995	104.072	20.040	3.374	0.332
99.000	125.599	80.008	19.995	104.071	20.039	3.407	0.386
99.500	125.773	80.008	19.995	104.074	20.037	3.525	0.379
100.000	125.985	80.008	19.993	104.074	20.037	3.552	0.365
100.500	126.175	80.010	19.996	104.074	20.037	3.562	0.394
101.000	126.389	80.008	19.995	104.075	20.036	3.590	0.403
101.500	126.584	80.009	19.996	104.080	20.037	3.519	0.406
102.000	126.748	80.008	19.995	104.080	20.040	3.359	0.384
102.500	126.963	80.008	19.994	104.081	20.038	3.488	0.369
103.000	127.143	80.009	19.995	104.083	20.039	3.394	0.387
103.501	127.329	80.006	19.996	104.084	20.040	3.328	0.381
104.001	127.544	80.007	19.994	104.084	20.037	3.567	0.384
104.500	127.738	80.009	19.994	104.083	20.036	3.592	0.405
105.000	127.968	80.009	19.995	104.085	20.039	3.430	0.416
105.500	128.117	80.008	19.994	104.084	20.038	3.505	0.401
106.000	128.347	80.008	19.994	104.087	20.037	3.526	0.379
106.500	128.489	80.007	19.994	104.089	20.038	3.482	0.376
107.000	128.718	80.007	19.994	104.090	20.040	3.320	0.372
107.501	128.924	80.008	19.994	104.091	20.038	3.465	0.403
108.001	129.097	80.008	19.995	104.093	20.040	3.369	0.407
108.500	129.301	80.009	19.995	104.092	20.040	3.313	0.378
109.000	129.525	80.009	19.995	104.089	20.042	3.211	0.402
109.500	129.730	80.008	19.994	104.085	20.041	3.272	0.428
110.000	129.935	80.009	19.995	104.087	20.040	3.350	0.420
110.500	130.120	80.008	19.994	104.089	20.040	3.348	0.400
111.000	130.316	80.008	19.994	104.089	20.040	3.334	0.385
111.500	130.520	80.008	19.994	104.091	20.041	3.282	0.390
112.001	130.733	80.009	19.994	104.093	20.037	3.525	0.408
112.501	130.918	80.007	19.994	104.088	20.039	3.436	0.407
113.000	131.101	80.010	19.995	104.084	20.041	3.272	0.383
113.500	131.320	80.009	19.994	104.083	20.041	3.258	0.385
114.000	131.543	80.009	19.994	104.083	20.041	3.299	0.422
114.500	131.697	80.007	19.994	104.088	20.036	3.601	0.410
115.000	131.920	80.008	19.994	104.088	20.040	3.359	0.377
115.500	132.120	80.008	19.994	104.087	20.039	3.434	0.400
116.000	132.351	80.006	19.995	104.084	20.041	3.267	0.427
116.500	132.524	80.008	19.994	104.079	20.040	3.355	0.417
117.001	132.745	80.006	19.994	104.074	20.040	3.321	0.398
117.501	132.956	80.007	19.994	104.074	20.042	3.221	0.413
118.000	133.213	80.009	19.994	104.079	20.042	3.194	0.451
118.500	133.379	80.009	19.994	104.078	20.043	3.163	0.446
119.000	133.576	80.008	19.994	104.078	20.039	3.428	0.393
119.500	133.832	80.009	19.994	104.079	20.042	3.207	0.408
120.000	134.023	80.007	19.995	104.083	20.043	3.118	0.450
120.500	134.247	80.008	19.994	104.086	20.041	3.255	0.431
121.000	134.494	80.007	19.994	104.092	20.042	3.195	0.443
121.500	134.722	80.006	19.994	104.096	20.040	3.351	0.472
122.001	134.894	80.009	19.993	104.096	20.041	3.284	0.437
122.501	135.091	80.007	19.995	104.090	20.040	3.336	0.385
123.000	135.337	80.007	19.995	104.082	20.038	3.513	0.406
123.500	135.556	80.007	19.994	104.075	20.040	3.336	0.454
124.001	135.754	80.007	19.994	104.071	20.037	3.526	0.441
124.501	136.009	80.008	19.994	104.068	20.039	3.445	0.435
125.001	136.213	80.006	19.994	104.073	20.040	3.345	0.456
125.500	136.444	80.008	19.994	104.075	20.042	3.220	0.447
126.000	136.624	80.008	19.995	104.078	20.041	3.274	0.424
126.500	136.859	80.009	19.994	104.080	20.041	3.255	0.413
127.000	137.118	80.008	19.995	104.084	20.038	3.494	0.454
127.500	137.302	80.008	19.994	104.083	20.042	3.234	0.469
128.000	137.583	80.006	19.995	104.086	20.037	3.530	0.454
128.500	137.704	80.005	19.995	104.089	20.040	3.330	0.433
129.000	137.962	80.009	19.995	104.091	20.039	3.436	0.390
129.500	138.198	80.006	19.995	104.089	20.040	3.374	0.437
130.000	138.425	80.008	19.995	104.086	20.040	3.355	0.479
130.500	138.630	80.007	19.995	104.085	20.038	3.482	0.447
131.000	138.881	80.009	19.995	104.085	20.041	3.238	0.444
131.500	139.073	80.008	19.995	104.083	20.040	3.355	0.450
132.000	139.344	80.007	19.995	104.082	20.041	3.253	0.453
132.500	139.525	80.010	19.995	104.085	20.038	3.490	0.457
133.000	139.795	80.008	19.995	104.086	20.039	3.398	0.451
133.500	139.976	80.008	19.994	104.082	20.040	3.357	0.452
134.000	140.259	80.008	19.994	104.081	20.038	3.452	0.458
134.500	140.440	80.009	19.994	104.082	20.040	3.324	0.464
135.000	140.686	80.008	19.995	104.077	20.039	3.399	0.446
135.500	140.908	80.009	19.994	104.076	20.041	3.263	0.447
136.000	141.145	80.010	19.994	104.076	20.041	3.278	0.463
136.500	141.355	80.008	19.994	104.075	20.041	3.291	0.453
137.000	141.593	80.008	19.994	104.077	20.041	3.247	0.448
137.500	141.793	80.009	19.995	104.084	20.041	3.288	0.444
138.000	142.049	80.008	19.994	104.084	20.040	3.363	0.447
138.500	142.246	80.009	19.995	104.082	20.040	3.359	0.454
139.000	142.472	80.011	19.994	104.079	20.042	3.172	0.438
139.500	142.753	80.008	19.995	104.075	20.038	3.502	0.465
140.000	142.981	80.009	19.995	104.074	20.039	3.382	0.508
140.500	143.236	80.009	19.995	104.076	20.037	3.559	0.496
141.000	143.461	80.009	19.993	104.077	20.039	3.429	0.481
141.500	143.724	80.009	19.994	104.078	20.039	3.419	0.484
142.000	143.935	80.010	19.994	104.078	20.038	3.475	0.481
142.500	144.208	80.008	19.994	104.075	20.042	3.234	0.479
143.000	144.404	80.008	19.993	104.075	20.039	3.405	0.477
143.500	144.613	80.008	19.995	104.080	20.040	3.330	0.438
144.000	144.863	80.008	19.994	104.084	20.040	3.351	0.432
144.500	145.116	80.008	19.994	104.086	20.041	3.295	0.481
145.000	145.372	80.007	19.994	104.086	20.040	3.318	0.505
145.500	145.594	80.008	19.994	104.085	20.041	3.270	0.494
146.000	145.850	80.007	19.994	104.079	20.037	3.519	0.479
146.500	146.085	80.007	19.994	104.078	20.040	3.369	0.484
147.000	146.332	80.005	19.994	104.078	20.039	3.386	0.486
147.500	146.564	80.008	19.995	104.078	20.040	3.353	0.480
148.000	146.767	80.007	19.993	104.076	20.042	3.178	0.457
148.500	147.040	80.006	19.995	104.081	20.040	3.330	0.456
149.000	147.292	80.007	19.995	104.083	20.041	3.297	0.500
149.500	147.560	80.008	19.994	104.083	20.042	3.228	0.522
150.000	147.793	80.008	19.995	104.085	20.040	3.337	0.510
150.500	148.074	80.009	19.994	104.086	20.039	3.417	0.507
151.000	148.242	80.008	19.994	104.087	20.040	3.359	0.482
151.500	148.580	80.007	19.993	104.087	20.040	3.369	0.477
152.000	148.777	80.007	19.994	104.089	20.039	3.415	0.520
152.500	148.997	80.008	19.994	104.089	20.039	3.430	0.476
153.000	149.286	80.007	19.995	104.090	20.041	3.299	0.463
153.500	149.548	80.008	19.995	104.085	20.037	3.534	0.530
154.000	149.753	80.008	19.994	104.082	20.038	3.501	0.509
154.500	150.002	80.008	19.995	104.077	20.038	3.513	0.460
155.000	150.236	80.010	19.994	104.073	20.037	3.524	0.469
155.500	150.465	80.010	19.994	104.074	20.038	3.455	0.473
156.001	150.749	80.008	19.995	104.075	20.040	3.331	0.488
156.501	150.976	80.009	19.995	104.076	20.037	3.563	0.512
157.000	151.224	80.008	19.995	104.079	20.037	3.580	0.494
157.500	151.495	80.009	19.995	104.085	20.036	3.609	0.497
158.000	151.713	80.008	19.995	104.086	20.037	3.520	0.504
158.500	151.987	80.006	19.995	104.087	20.039	3.413	0.491
159.000	152.210	80.008	19.994	104.084	20.038	3.495	0.495
159.500	152.448	80.011	19.995	104.080	20.039	3.424	0.479
160.000	152.699	80.008	19.994	104.074	20.036	3.615	0.475
160.500	152.958	80.009	19.998	104.070	20.035	3.703	0.499
161.000	153.213	80.009	19.996	104.070	20.038	3.480	0.512
161.500	153.470	80.008	19.997	104.075	20.036	3.617	0.513
162.000	153.685	80.008	19.995	104.081	20.039	3.422	0.493
162.500	153.938	80.009	19.996	104.082	20.038	3.472	0.470
163.000	154.181	80.011	19.995	104.081	20.038	3.478	0.482
163.500	154.442	80.009	19.994	104.076	20.038	3.503	0.500
164.000	154.689	80.010	19.995	104.073	20.040	3.355	0.506
164.500	154.908	80.010	19.994	104.072	20.040	3.314	0.487
165.000	155.138	80.009	19.994	104.070	20.039	3.445	0.457
165.500	155.373	80.009	19.995	104.070	20.040	3.337	0.457
166.000	155.630	80.012	19.995	104.070	20.042	3.172	0.478
166.500	155.831	80.010	19.995	104.069	20.039	3.445	0.475
167.000	156.138	80.011	19.996	104.064	20.040	3.326	0.484
167.500	156.326	80.007	19.995	104.066	20.041	3.289	0.502
168.000	156.577	80.012	19.995	104.067	20.038	3.451	0.467
168.500	156.865	80.009	19.994	104.068	20.042	3.185	0.489
169.000	157.096	80.010	19.996	104.070	20.042	3.172	0.529
169.500	157.337	80.007	19.995	104.072	20.041	3.301	0.496
170.000	157.558	80.009	19.994	104.070	20.039	3.389	0.467
170.500	157.818	80.008	19.994	104.071	20.042	3.175	0.472
171.000	158.044	80.006	19.995	104.068	20.040	3.374	0.483
171.500	158.304	80.007	19.994	104.067	20.039	3.378	0.486
172.000	158.550	80.007	19.994	104.066	20.041	3.283	0.496
172.500	158.816	80.008	19.994	104.066	20.043	3.112	0.508
173.000	159.049	80.008	19.994	104.065	20.044	3.083	0.505
173.500	159.277	80.008	19.994	104.065	20.041	3.239	0.480
174.000	159.527	80.008	19.994	104.064	20.043	3.098	0.470
174.500	159.807	80.009	19.993	104.065	20.042	3.191	0.504
175.000	160.070	80.010	19.995	104.067	20.043	3.152	0.536
175.500	160.298	80.007	19.995	104.069	20.043	3.116	0.517
176.000	160.559	80.007	19.995	104.069	20.041	3.305	0.490
176.500	160.829	80.010	19.994	104.069	20.041	3.256	0.510
177.000	161.089	80.007	19.994	104.068	20.043	3.104	0.531
177.500	161.354	80.009	19.994	104.067	20.043	3.135	0.528
178.000	161.600	80.006	19.995	104.065	20.043	3.114	0.518
178.500	161.813	80.006	19.994	104.064	20.041	3.254	0.485
179.000	162.078	80.006	19.995	104.064	20.048	2.786	0.468
179.500	162.341	80.007	19.994	104.065	20.043	3.131	0.502
180.000	162.589	80.007	19.994	104.064	20.045	3.008	0.520
180.500	162.800	80.007	19.994	104.064	20.041	3.243	0.485
181.000	163.052	80.009	19.994	104.064	20.045	2.958	0.461
181.500	163.304	80.005	19.994	104.064	20.044	3.073	0.483
182.001	163.574	80.007	19.994	104.064	20.044	3.037	0.513
182.500	163.859	80.008	19.995	104.064	20.043	3.150	0.539
183.000	164.063	80.007	19.994	104.063	20.042	3.173	0.522
183.500	164.318	80.009	19.994	104.063	20.040	3.329	0.474
184.000	164.564	80.006	19.994	104.063	20.042	3.181	0.480
184.500	164.854	80.008	19.994	104.062	20.043	3.156	0.519
185.000	165.050	80.006	19.994	104.062	20.044	3.072	0.511
185.500	165.338	80.007	19.994	104.063	20.044	3.091	0.485
186.000	165.560	80.007	19.995	104.064	20.049	2.729	0.497
186.500	165.840	80.009	19.994	104.065	20.044	3.089	0.506
187.000	166.079	80.008	19.993	104.065	20.047	2.833	0.510
187.500	166.339	80.007	19.994	104.065	20.046	2.917	0.509
188.000	166.574	80.006	19.995	104.064	20.044	3.054	0.497
188.500	166.823	80.012	19.994	104.064	20.043	3.108	0.490
189.000	167.072	80.008	19.994	104.062	20.041	3.262	0.491
189.500	167.318	80.009	19.994	104.062	20.045	3.008	0.496
190.000	167.562	80.007	19.993	104.063	20.044	3.067	0.493
190.500	167.836	80.008	19.994	104.068	20.044	3.060	0.504
191.000	168.070	80.008	19.994	104.068	20.043	3.124	0.513
191.500	168.294	80.007	19.994	104.068	20.040	3.349	0.483
192.000	168.562	80.008	19.994	104.068	20.041	3.281	0.475
192.500	168.838	80.008	19.995	104.064	20.042	3.212	0.518
193.000	169.088	80.008	19.994	104.059	20.040	3.373	0.536
193.500	169.283	80.006	19.993	104.060	20.044	3.096	0.486
194.000	169.531	80.008	19.994	104.060	20.042	3.189	0.443
194.500	169.806	80.007	19.994	104.062	20.042	3.208	0.483
195.000	170.087	80.008	19.994	104.065	20.043	3.162	0.540
195.500	170.295	80.005	19.994	104.065	20.045	2.973	0.522
196.000	170.549	80.006	19.994	104.065	20.046	2.954	0.476
196.500	170.817	80.004	19.994	104.064	20.044	3.039	0.492
197.000	171.038	80.006	19.994	104.064	20.047	2.881	0.505
197.500	171.325	80.007	19.994	104.063	20.044	3.033	0.499
198.000	171.504	80.007	19.995	104.062	20.043	3.133	0.487
198.500	171.766	80.007	19.995	104.061	20.043	3.114	0.453
199.000	172.046	80.005	19.994	104.056	20.044	3.073	0.491
199.500	172.304	80.005	19.994	104.056	20.045	2.981	0.540
200.000	172.543	80.005	19.995	104.056	20.044	3.087	0.518
200.500	172.818	80.007	19.994	104.057	20.044	3.075	0.505
201.000	173.033	80.006	19.994	104.059	20.044	3.031	0.501
201.500	173.302	80.006	19.994	104.064	20.047	2.861	0.487
202.000	173.502	80.006	19.994	104.065	20.046	2.894	0.477
202.500	173.745	80.007	19.995	104.065	20.046	2.888	0.456
203.000	174.040	80.005	19.995	104.062	20.043	3.110	0.491
203.500	174.243	80.006	19.995	104.057	20.047	2.878	0.518
204.000	174.514	80.007	19.994	104.053	20.047	2.876	0.486
204.500	174.737	80.007	19.995	104.053	20.048	2.780	0.484
205.000	174.996	80.006	19.995	104.053	20.047	2.818	0.488
205.500	175.267	80.006	19.994	104.056	20.046	2.930	0.506
206.000	175.466	80.007	19.995	104.061	20.048	2.790	0.499
206.500	175.710	80.009	19.994	104.061	20.043	3.115	0.457
207.000	175.968	80.006	19.994	104.060	20.047	2.886	0.473
207.500	176.209	80.007	19.994	104.058	20.047	2.821	0.500
208.000	176.445	80.003	19.993	104.056	20.046	2.934	0.488
208.500	176.712	80.004	19.993	104.056	20.047	2.886	0.490
209.000	176.957	80.005	19.994	104.060	20.045	2.971	0.507
209.500	177.176	80.006	19.993	104.059	20.048	2.811	0.488
210.000	177.467	80.007	19.994	104.057	20.047	2.860	0.487
210.500	177.698	80.007	19.995	104.057	20.050	2.671	0.516
211.000	177.951	80.008	19.994	104.056	20.048	2.798	0.503
211.500	178.182	80.009	19.994	104.055	20.049	2.733	0.484
212.000	178.451	80.006	19.993	104.057	20.050	2.609	0.492
212.500	178.710	80.006	19.994	104.060	20.050	2.617	0.514
213.000	178.964	80.007	19.995	104.062	20.050	2.644	0.521
213.500	179.215	80.007	19.994	104.060	20.051	2.569	0.509
214.000	179.441	80.007	19.993	104.054	20.051	2.547	0.491
214.500	179.655	80.008	19.993	104.049	20.050	2.661	0.459
215.000	179.959	80.007	19.993	104.042	20.048	2.784	0.479
215.500	180.196	80.008	19.993	104.035	20.050	2.649	0.530
216.000	180.462	80.008	19.994	104.034	20.046	2.897	0.521
216.500	180.738	80.009	19.994	104.035	20.047	2.859	0.522
217.000	180.911	80.009	19.993	104.040	20.048	2.813	0.496
217.500	181.181	80.008	19.994	104.043	20.049	2.699	0.447
218.000	181.471	80.008	19.993	104.047	20.049	2.707	0.502
218.500	181.658	80.009	19.994	104.047	20.049	2.686	0.518
219.000	181.921	80.011	19.994	104.049	20.048	2.780	0.464
219.500	182.168	80.010	19.994	104.051	20.048	2.765	0.480
220.000	182.386	80.008	19.992	104.055	20.050	2.636	0.487
220.500	182.642	80.008	19.994	104.055	20.046	2.929	0.469
221.000	182.886	80.008	19.995	104.062	20.045	3.017	0.487
221.500	183.135	80.008	19.995	104.064	20.049	2.738	0.497
222.000	183.419	80.008	19.994	104.063	20.047	2.863	0.513
222.500	183.622	80.008	19.994	104.064	20.047	2.819	0.510
223.000	183.881	80.008	19.995	104.065	20.048	2.771	0.475
223.500	184.136	80.008	19.995	104.064	20.048	2.771	0.488
224.000	184.416	80.008	19.994	104.063	20.047	2.865	0.524
224.500	184.603	80.009	19.994	104.059	20.046	2.936	0.501
225.000	184.871	80.010	19.994	104.055	20.050	2.621	0.461
225.500	185.129	80.008	19.994	104.049	20.047	2.840	0.491
226.000	185.368	80.009	19.995	104.045	20.046	2.896	0.512
226.500	185.629	80.007	19.995	104.037	20.046	2.894	0.499
227.000	185.895	80.005	19.995	104.037	20.049	2.726	0.514
227.500	186.130	80.007	19.995	104.039	20.049	2.711	0.514
228.000	186.405	80.007	19.995	104.043	20.048	2.774	0.505
228.500	186.641	80.007	19.994	104.042	20.047	2.817	0.511
229.000	186.900	80.007	19.994	104.047	20.050	2.640	0.503
229.500	187.127	80.007	19.995	104.051	20.046	2.942	0.491
230.000	187.388	80.008	19.994	104.051	20.051	2.584	0.488
230.500	187.644	80.008	19.994	104.052	20.045	2.958	0.502
231.000	187.879	80.006	19.994	104.054	20.048	2.794	0.503
231.501	188.107	80.009	19.994	104.052	20.049	2.740	0.477
232.000	188.359	80.007	19.995	104.053	20.045	2.961	0.472
232.500	188.580	80.008	19.995	104.052	20.047	2.825	0.477
233.000	188.860	80.009	19.994	104.051	20.047	2.830	0.487
233.500	189.089	80.008	19.995	104.051	20.048	2.794	0.505
234.000	189.345	80.009	19.994	104.054	20.049	2.744	0.497
234.500	189.611	80.008	19.995	104.054	20.049	2.715	0.503
235.000	189.851	80.006	19.995	104.053	20.047	2.861	0.514
235.500	190.116	80.008	19.995	104.050	20.047	2.821	0.506
236.000	190.349	80.007	19.995	104.052	20.047	2.863	0.502
236.500	190.583	80.008	19.995	104.054	20.049	2.700	0.483
237.000	190.850	80.009	19.995	104.055	20.049	2.688	0.484
237.500	191.083	80.009	19.995	104.052	20.048	2.763	0.500
238.000	191.369	80.010	19.995	104.052	20.047	2.831	0.509
238.500	191.590	80.008	19.995	104.048	20.048	2.752	0.513
239.000	191.852	80.006	19.994	104.043	20.046	2.936	0.495
239.500	192.124	80.010	19.994	104.040	20.046	2.904	0.509
240.000	192.371	80.010	19.995	104.044	20.049	2.678	0.527
240.500	192.583	80.012	19.995	104.051	20.048	2.765	0.489
241.000	192.848	80.010	19.994	104.053	20.047	2.819	0.468
241.500	193.107	80.010	19.993	104.052	20.048	2.794	0.500
242.000	193.350	80.011	19.994	104.054	20.046	2.888	0.513
242.500	193.599	80.010	19.995	104.052	20.046	2.938	0.497
243.000	193.859	80.010	19.994	104.047	20.047	2.846	0.501
243.500	194.113	80.008	19.993	104.049	20.047	2.850	0.511
244.000	194.353	80.007	19.994	104.054	20.046	2.903	0.504
244.500	194.631	80.009	19.994	104.055	20.046	2.955	0.506
245.000	194.852	80.011	19.993	104.057	20.047	2.865	0.508
245.500	195.105	80.011	19.995	104.061	20.047	2.880	0.487
246.000	195.393	80.011	19.994	104.061	20.050	2.612	0.508
246.500	195.615	80.013	19.994	104.060	20.052	2.526	0.526
247.000	195.811	80.010	19.994	104.060	20.048	2.790	0.464
247.500	196.117	80.010	19.993	104.059	20.047	2.867	0.460
248.000	196.398	80.010	19.994	104.060	20.049	2.701	0.544
248.500	196.586	80.010	19.994	104.059	20.054	2.328	0.528
249.000	196.876	80.009	19.994	104.059	20.046	2.906	0.474
249.500	197.091	80.009	19.994	104.059	20.050	2.631	0.492
250.000	197.370	80.009	19.995	104.057	20.049	2.704	0.500
250.500	197.636	80.009	19.995	104.055	20.052	2.529	0.519
251.000	197.886	80.008	19.995	104.056	20.049	2.694	0.530
251.500	198.151	80.008	19.995	104.055	20.048	2.781	0.516
252.000	198.440	80.009	19.996	104.053	20.050	2.675	0.535
252.500	198.662	80.009	19.995	104.053	20.048	2.772	0.532
253.000	198.906	80.007	19.995	104.047	20.045	2.989	0.488
253.500	199.167	80.007	19.996	104.043	20.047	2.859	0.486
254.000	199.454	80.007	19.996	104.043	20.048	2.809	0.527
254.500	199.662	80.007	19.996	104.046	20.047	2.874	0.522
255.000	199.922	80.008	19.996	104.043	20.049	2.732	0.482
255.500	200.230	80.005	19.995	104.044	20.051	2.585	0.518
256.000	200.436	80.007	19.996	104.042	20.048	2.760	0.541
256.500	200.721	80.008	19.995	104.038	20.050	2.670	0.503
257.000	200.958	80.006	19.996	104.032	20.050	2.612	0.507
257.500	201.208	80.005	19.996	104.030	20.051	2.548	0.504
258.000	201.525	80.010	19.994	104.034	20.051	2.599	0.527
258.500	201.722	80.027	20.002	104.039	20.052	2.527	0.541
259.000	201.973	80.024	20.001	104.047	20.053	2.406	0.481
259.500	202.227	80.025	20.003	104.055	20.053	2.440	0.476
260.001	202.495	80.027	20.000	104.062	20.049	2.687	0.513
260.500	202.714	80.024	19.999	104.066	20.053	2.452	0.504
261.000	203.022	80.023	20.002	104.068	20.055	2.323	0.507
261.501	203.293	80.027	20.005	104.068	20.054	2.353	0.553
262.001	203.547	80.039	20.007	104.073	20.055	2.323	0.552
262.501	203.765	80.041	20.009	104.076	20.056	2.247	0.498
263.000	204.048	80.042	20.009	104.081	20.056	2.192	0.487
263.500	204.315	80.048	20.009	104.087	20.056	2.240	0.526
264.000	204.541	80.042	20.010	104.092	20.057	2.149	0.522
264.500	204.772	80.045	20.009	104.093	20.059	2.037	0.475
265.000	205.037	80.043	20.009	104.097	20.057	2.178	0.477
265.500	205.277	80.043	20.010	104.098	20.056	2.243	0.500
266.000	205.504	80.045	20.010	104.099	20.057	2.154	0.485
266.500	205.818	80.042	20.010	104.095	20.058	2.058	0.504
267.000	206.045	80.042	20.009	104.092	20.061	1.892	0.541
267.500	206.362	80.043	20.008	104.092	20.059	2.045	0.543
268.000	206.542	80.043	20.010	104.094	20.062	1.783	0.521
268.500	206.784	80.045	20.009	104.094	20.060	1.954	0.460
269.001	207.097	80.046	20.012	104.094	20.058	2.091	0.488
269.500	207.369	80.046	20.009	104.095	20.062	1.835	0.570
270.000	207.584	80.045	20.010	104.090	20.058	2.110	0.536
270.500	207.896	80.030	20.008	104.082	20.060	1.944	0.507
271.000	208.165	80.024	20.004	104.076	20.058	2.068	0.554
271.500	208.381	80.027	20.006	104.072	20.058	2.052	0.533
272.000	208.678	80.027	20.005	104.069	20.058	2.081	0.499
272.500	208.915	80.026	20.004	104.070	20.057	2.177	0.524
273.000	209.181	80.025	20.002	104.072	20.054	2.335	0.519
273.501	209.414	80.027	20.002	104.073	20.058	2.056	0.501
274.001	209.657	80.025	20.002	104.072	20.055	2.326	0.488
274.501	209.922	80.027	20.003	104.066	20.057	2.156	0.492
275.000	210.195	80.028	20.003	104.064	20.058	2.112	0.523
275.500	210.445	80.028	20.003	104.062	20.056	2.248	0.531
276.000	210.706	80.027	20.002	104.056	20.057	2.150	0.517
276.500	210.959	80.029	20.002	104.050	20.056	2.245	0.512
277.000	211.226	80.026	20.002	104.046	20.053	2.447	0.517
277.500	211.455	80.026	20.000	104.039	20.054	2.364	0.508
278.000	211.729	80.028	20.000	104.036	20.057	2.173	0.500
278.501	211.944	80.029	19.998	104.038	20.052	2.470	0.496
279.000	212.225	80.027	19.998	104.040	20.054	2.393	0.492
279.500	212.511	80.021	19.997	104.041	20.053	2.445	0.531
280.000	212.754	80.017	19.996	104.041	20.055	2.298	0.548
280.500	213.014	80.026	19.999	104.037	20.054	2.381	0.516
281.000	213.252	80.026	19.999	104.032	20.053	2.433	0.501
281.500	213.525	80.021	19.997	104.029	20.054	2.339	0.504
282.000	213.758	80.012	19.996	104.030	20.052	2.483	0.508
282.500	214.026	80.003	19.994	104.032	20.053	2.422	0.503
283.000	214.302	80.007	19.996	104.035	20.053	2.427	0.522
283.500	214.536	80.007	19.995	104.036	20.052	2.493	0.527
284.000	214.813	80.007	19.994	104.036	20.054	2.341	0.510
284.500	215.045	80.007	19.994	104.035	20.053	2.427	0.510
285.000	215.292	80.007	19.995	104.033	20.050	2.637	0.494
285.500	215.544	80.008	19.996	104.030	20.052	2.529	0.489
286.000	215.821	80.009	19.995	104.030	20.053	2.445	0.514
286.500	216.035	80.008	19.995	104.030	20.055	2.302	0.510
287.000	216.299	80.007	19.994	104.029	20.055	2.306	0.485
287.500	216.600	80.007	19.995	104.029	20.056	2.214	0.522
288.000	216.839	80.008	19.994	104.028	20.054	2.354	0.552
288.500	217.063	80.007	19.995	104.030	20.056	2.206	0.502
289.000	217.357	80.010	19.995	104.029	20.054	2.348	0.491
289.500	217.556	80.005	19.995	104.029	20.056	2.210	0.505
290.000	217.814	80.007	19.995	104.029	20.052	2.489	0.475
290.500	218.089	80.005	19.995	104.029	20.050	2.664	0.495
291.000	218.339	80.007	19.995	104.028	20.050	2.626	0.529
291.500	218.609	80.007	19.995	104.027	20.051	2.601	0.522
292.000	218.880	80.007	19.995	104.027	20.050	2.608	0.530
292.500	219.105	80.007	19.994	104.026	20.052	2.504	0.519
293.000	219.355	80.009	19.995	104.026	20.052	2.487	0.486
293.500	219.557	80.008	19.995	104.026	20.051	2.578	0.463
294.000	219.876	80.008	19.996	104.026	20.052	2.524	0.486
294.500	220.117	80.008	19.995	104.025	20.052	2.506	0.541
295.000	220.347	80.008	19.995	104.025	20.052	2.520	0.516
295.500	220.630	80.008	19.995	104.025	20.054	2.375	0.492
296.000	220.886	80.009	19.994	104.025	20.054	2.329	0.526
296.500	221.111	80.009	19.995	104.025	20.054	2.340	0.510
297.000	221.368	80.009	19.995	104.025	20.054	2.352	0.482
297.500	221.628	80.008	19.994	104.025	20.056	2.219	0.499
298.000	221.884	80.009	19.993	104.025	20.051	2.541	0.516
298.500	222.116	80.010	19.995	104.025	20.055	2.264	0.502
299.000	222.393	80.010	19.995	104.024	20.052	2.518	0.499
299.500	222.626	80.008	19.994	104.023	20.056	2.225	0.510
300.000	222.872	80.008	19.994	104.023	20.054	2.393	0.495
300.500	223.130	80.011	19.994	104.023	20.054	2.333	0.492
301.000	223.386	80.012	19.994	104.023	20.055	2.256	0.508
301.500	223.647	80.009	19.995	104.024	20.053	2.416	0.515
302.000	223.898	80.007	19.994	104.024	20.055	2.285	0.515
302.500	224.166	80.009	19.994	104.024	20.053	2.460	0.515
303.000	224.415	80.010	19.994	104.024	20.054	2.394	0.518
303.500	224.638	80.010	19.994	104.024	20.054	2.346	0.494
304.000	224.881	80.010	19.993	104.024	20.054	2.377	0.469
304.500	225.149	80.008	19.994	104.024	20.057	2.123	0.489
305.000	225.374	80.008	19.994	104.023	20.057	2.160	0.502
305.500	225.641	80.010	19.993	104.023	20.056	2.225	0.492
306.000	225.894	80.010	19.994	104.017	20.054	2.350	0.506
306.500	226.115	80.010	19.994	104.013	20.055	2.304	0.497
307.000	226.394	80.010	19.993	104.010	20.054	2.344	0.487
307.500	226.627	80.009	19.992	104.011	20.057	2.140	0.506
308.000	226.892	80.011	19.993	104.011	20.053	2.438	0.505
308.500	227.167	80.010	19.993	104.018	20.052	2.506	0.519
309.000	227.416	80.011	19.994	104.020	20.054	2.384	0.532
309.500	227.653	80.010	19.994	104.021	20.052	2.527	0.505
310.000	227.920	80.009	19.993	104.022	20.055	2.319	0.495
310.500	228.178	80.011	19.994	104.020	20.052	2.488	0.515
311.000	228.432	80.009	19.993	104.019	20.054	2.342	0.519
311.500	228.686	80.009	19.994	104.017	20.055	2.288	0.510
312.000	228.934	80.009	19.994	104.017	20.054	2.381	0.505
312.500	229.173	80.009	19.994	104.010	20.056	2.240	0.494
313.000	229.449	80.010	19.994	104.011	20.055	2.271	0.501
313.500	229.713	80.011	19.994	104.011	20.057	2.154	0.528
314.000	229.968	80.010	19.994	104.014	20.056	2.188	0.530
314.500	230.227	80.010	19.994	104.013	20.054	2.367	0.516
315.000	230.466	80.007	19.994	104.015	20.057	2.165	0.506
315.500	230.690	80.009	19.995	104.016	20.058	2.069	0.481
316.000	230.951	80.008	19.994	104.013	20.057	2.127	0.474
316.500	231.203	80.009	19.994	104.010	20.055	2.269	0.498
317.000	231.463	80.011	19.994	104.009	20.055	2.258	0.513
317.500	231.736	80.009	19.995	104.007	20.055	2.323	0.523
318.000	231.955	80.010	19.993	104.001	20.054	2.350	0.512
318.500	232.173	80.008	19.994	103.997	20.056	2.211	0.464
319.000	232.406	80.010	19.994	103.995	20.057	2.167	0.444
319.500	232.684	80.010	19.995	103.996	20.058	2.086	0.481
320.000	232.896	80.011	19.995	103.996	20.058	2.111	0.500
320.500	233.162	80.010	19.996	104.000	20.057	2.150	0.484
321.000	233.437	80.010	19.995	104.000	20.057	2.165	0.509
321.500	233.678	80.009	19.995	103.998	20.057	2.152	0.529
322.000	233.891	80.011	19.995	103.999	20.054	2.383	0.486
322.500	234.150	80.011	19.994	104.004	20.060	1.944	0.463
323.000	234.393	80.011	19.996	104.004	20.057	2.142	0.486
323.500	234.626	80.010	19.994	104.009	20.059	2.038	0.489
324.000	234.931	80.011	19.995	104.011	20.059	2.004	0.507
324.500	235.134	80.009	19.994	104.009	20.060	1.967	0.523
325.000	235.385	80.011	19.994	104.004	20.058	2.050	0.481
325.500	235.610	80.011	19.995	104.002	20.056	2.217	0.465
326.000	235.873	80.011	19.995	104.001	20.059	1.992	0.482
326.500	236.149	80.011	19.994	104.006	20.058	2.100	0.513
327.000	236.338	80.011	19.995	104.010	20.058	2.075	0.502
327.500	236.583	80.009	19.994	104.014	20.057	2.183	0.450
328.001	236.814	80.011	19.995	104.012	20.059	2.021	0.455
328.500	237.101	80.009	19.994	104.010	20.060	1.934	0.497
329.000	237.361	80.011	19.995	104.005	20.060	1.975	0.533
329.500	237.594	80.012	19.995	104.002	20.059	2.029	0.520
330.000	237.855	80.010	19.995	104.000	20.059	2.013	0.493
330.500	238.068	80.011	19.995	104.006	20.060	1.952	0.484
331.000	238.336	80.010	19.993	104.005	20.056	2.248	0.477
331.500	238.557	80.010	19.995	104.006	20.058	2.063	0.485
332.000	238.775	80.009	19.994	104.008	20.059	1.979	0.464
332.500	239.017	80.010	19.994	104.008	20.058	2.048	0.450
333.000	239.286	80.009	19.994	104.006	20.059	2.042	0.486
333.500	239.503	80.011	19.995	104.009	20.061	1.840	0.499
334.000	239.778	80.010	19.995	104.006	20.058	2.096	0.489
334.500	240.004	80.009	19.994	104.006	20.060	1.971	0.496
335.000	240.236	80.009	19.994	104.009	20.060	1.950	0.479
335.500	240.492	80.010	19.995	104.010	20.062	1.815	0.473
336.000	240.708	80.007	19.994	104.009	20.059	1.986	0.480
336.500	240.981	80.008	19.994	104.014	20.058	2.075	0.481
337.000	241.221	80.008	19.995	104.014	20.057	2.150	0.502
337.500	241.488	80.007	19.995	104.013	20.059	1.976	0.510
338.000	241.673	80.007	19.994	104.013	20.060	1.930	0.479
338.500	241.946	80.008	19.996	104.017	20.059	2.038	0.455
339.001	242.179	80.008	19.995	104.017	20.060	1.923	0.482
339.501	242.447	80.007	19.994	104.018	20.060	1.959	0.503
340.000	242.705	80.009	19.993	104.013	20.059	1.992	0.514
340.500	242.926	80.007	19.995	104.011	20.059	2.019	0.503
341.000	243.195	80.006	19.996	104.011	20.060	1.919	0.484
341.500	243.466	80.007	19.996	104.013	20.061	1.861	0.515
342.000	243.680	80.006	19.996	104.014	20.063	1.744	0.513
342.500	243.903	80.006	19.995	104.020	20.060	1.921	0.461
343.000	244.179	80.007	19.995	104.024	20.057	2.185	0.468
343.500	244.416	80.009	19.995	104.022	20.057	2.119	0.507
344.000	244.638	80.008	19.995	104.018	20.059	2.034	0.486
344.500	244.895	80.007	19.995	104.016	20.059	2.042	0.469
345.001	245.184	80.007	19.995	104.014	20.060	1.954	0.512
345.501	245.378	80.008	19.995	104.013	20.061	1.873	0.515
346.000	245.654	80.006	19.995	104.015	20.062	1.825	0.476
346.500	245.902	80.008	19.994	104.014	20.060	1.946	0.497
347.000	246.126	80.007	19.995	104.009	20.060	1.950	0.498
347.500	246.360	80.009	19.994	104.006	20.059	2.007	0.465
348.000	246.643	80.008	19.994	104.000	20.060	1.936	0.488
348.500	246.888	80.008	19.995	103.995	20.058	2.046	0.522
349.000	247.150	80.007	19.995	103.993	20.058	2.105	0.517
349.500	247.373	80.007	19.995	103.994	20.062	1.834	0.496
350.000	247.612	80.006	19.994	103.999	20.062	1.784	0.474
350.500	247.869	80.005	19.995	104.006	20.061	1.901	0.479
351.000	248.129	80.007	19.996	104.011	20.061	1.900	0.506
351.500	248.372	80.007	19.994	104.017	20.058	2.055	0.510
352.000	248.608	80.008	19.996	104.023	20.061	1.884	0.491
352.500	248.876	80.004	19.995	104.023	20.056	2.225	0.492
353.001	249.088	80.007	19.995	104.019	20.061	1.874	0.492
353.501	249.388	80.006	19.995	104.017	20.058	2.057	0.496
354.000	249.616	80.007	19.995	104.014	20.058	2.090	0.520
354.500	249.889	80.008	19.995	104.014	20.058	2.083	0.514
355.000	250.136	80.007	19.995	104.013	20.060	1.944	0.511
355.500	250.405	80.007	19.995	104.012	20.062	1.773	0.518
356.000	250.602	80.009	19.996	104.014	20.060	1.932	0.491
356.500	250.856	80.004	19.995	104.011	20.061	1.861	0.459
357.000	251.093	80.007	19.996	104.004	20.062	1.826	0.471
357.500	251.351	80.009	19.996	104.000	20.059	1.976	0.493
358.000	251.579	80.007	19.994	104.000	20.062	1.809	0.491
358.500	251.852	80.007	19.995	103.996	20.062	1.805	0.494
359.000	252.125	80.008	19.995	103.994	20.061	1.865	0.524
359.500	252.391	80.010	19.996	103.996	20.062	1.784	0.542
360.000	252.588	80.008	19.996	104.002	20.061	1.878	0.501
360.500	252.832	80.009	19.994	104.001	20.060	1.959	0.452
361.000	253.065	80.007	19.995	104.002	20.063	1.751	0.459
361.500	253.308	80.007	19.996	104.004	20.063	1.701	0.476
362.000	253.575	80.009	19.995	104.003	20.059	2.009	0.494
362.500	253.837	80.008	19.994	103.998	20.058	2.115	0.520
363.000	254.060	80.009	19.995	103.995	20.059	2.034	0.506
363.500	254.323	80.007	19.995	103.997	20.059	2.044	0.486
364.000	254.569	80.006	19.994	104.001	20.054	2.329	0.498
364.500	254.816	80.007	19.995	104.006	20.059	1.980	0.501
365.000	255.049	80.007	19.995	104.009	20.059	2.044	0.486
365.500	255.298	80.006	19.994	104.011	20.063	1.759	0.481
366.000	255.541	80.006	19.994	104.009	20.061	1.886	0.487
366.500	255.798	80.008	19.994	104.003	20.060	1.953	0.496
367.000	256.058	80.009	19.993	103.995	20.058	2.082	0.509
367.500	256.323	80.009	19.994	103.991	20.064	1.647	0.521
368.000	256.550	80.008	19.994	103.988	20.060	1.961	0.508
368.500	256.757	80.006	19.995	103.987	20.060	1.955	0.463
369.000	257.049	80.007	19.995	103.989	20.061	1.844	0.466
369.500	257.314	80.006	19.994	103.994	20.058	2.069	0.528
370.000	257.519	80.009	19.994	103.998	20.055	2.267	0.514
370.500	257.765	80.009	19.995	103.999	20.057	2.151	0.461
371.000	258.053	80.009	19.995	104.002	20.058	2.057	0.493
371.500	258.294	80.009	19.995	104.006	20.059	2.001	0.532
372.000	258.523	80.006	19.994	104.006	20.060	1.970	0.500
372.500	258.734	80.008	19.994	104.003	20.059	2.007	0.455
373.000	259.073	80.007	19.995	104.003	20.060	1.911	0.494
373.500	259.288	80.006	19.994	104.003	20.064	1.670	0.552
374.000	259.536	80.009	19.994	104.001	20.060	1.928	0.508
374.500	259.758	80.009	19.994	104.001	20.059	2.038	0.467
375.000	260.025	80.007	19.995	104.002	20.059	2.028	0.480
375.500	260.256	80.009	19.995	104.006	20.060	1.959	0.493
376.000	260.500	80.008	19.994	104.003	20.060	1.959	0.487
376.500	260.726	80.009	19.994	103.998	20.062	1.834	0.473
377.000	260.957	80.009	19.994	103.996	20.059	1.986	0.464
377.500	261.204	80.008	19.994	103.998	20.064	1.674	0.467
378.000	261.478	80.009	19.994	103.997	20.060	1.917	0.499
378.500	261.711	80.009	19.994	104.000	20.061	1.847	0.514
379.000	261.946	80.006	19.995	104.000	20.060	1.963	0.488
379.500	262.207	80.010	19.996	103.999	20.059	2.040	0.482
380.001	262.430	80.010	19.995	103.995	20.062	1.803	0.490
380.501	262.706	80.008	19.996	103.991	20.062	1.795	0.491
381.001	262.926	80.010	19.995	103.987	20.063	1.728	0.497
381.500	263.227	80.007	19.995	103.987	20.060	1.917	0.508
382.000	263.429	80.011	19.996	103.986	20.058	2.055	0.512
382.500	263.717	80.009	19.996	103.987	20.059	2.030	0.497
383.000	263.916	80.010	19.994	103.989	20.061	1.884	0.489
383.500	264.217	80.009	19.995	103.988	20.063	1.755	0.494
384.000	264.418	80.011	19.995	103.988	20.058	2.053	0.501
384.500	264.661	80.009	19.993	103.988	20.059	1.982	0.472
385.000	264.912	80.010	19.994	103.987	20.059	2.007	0.469
385.500	265.148	80.011	19.994	103.986	20.061	1.897	0.491
386.000	265.391	80.010	19.995	103.986	20.059	1.990	0.484
386.500	265.674	80.011	19.993	103.987	20.061	1.867	0.503
387.000	265.919	80.010	19.995	103.987	20.055	2.321	0.527
387.500	266.155	80.009	19.995	103.988	20.057	2.125	0.504
388.000	266.391	80.011	19.994	103.987	20.060	1.967	0.477
388.500	266.640	80.008	19.995	103.988	20.058	2.057	0.479
389.000	266.895	80.012	19.994	103.990	20.058	2.109	0.494
389.500	267.150	80.007	19.994	103.992	20.060	1.913	0.507
390.000	267.390	80.010	19.995	103.993	20.059	1.990	0.503
390.500	267.636	80.009	19.994	103.997	20.057	2.163	0.490
391.000	267.854	80.008	19.994	103.996	20.060	1.947	0.475
391.500	268.156	80.009	19.994	103.994	20.057	2.126	0.492
392.000	268.401	80.008	19.994	103.994	20.055	2.288	0.533
392.500	268.580	80.006	19.994	103.992	20.057	2.159	0.485
393.000	268.829	80.010	19.994	103.989	20.057	2.123	0.426
393.500	269.091	80.010	19.993	103.990	20.058	2.076	0.470
394.000	269.314	80.011	19.994	103.994	20.056	2.250	0.498
394.501	269.572	80.009	19.995	103.992	20.057	2.163	0.483
395.001	269.816	80.010	19.995	103.993	20.056	2.200	0.491
395.501	270.051	80.011	19.995	103.993	20.055	2.321	0.490
396.000	270.331	80.007	19.995	103.992	20.055	2.267	0.497
396.500	270.576	80.009	19.993	103.989	20.058	2.100	0.520
397.000	270.830	80.011	19.994	103.991	20.059	2.009	0.512
397.500	271.082	80.009	19.994	103.997	20.058	2.105	0.502
398.000	271.355	80.008	19.995	103.997	20.057	2.178	0.515
398.500	271.599	80.009	19.995	103.998	20.055	2.280	0.521
399.000	271.821	80.007	19.994	104.000	20.058	2.078	0.492
399.500	272.107	80.009	19.994	104.002	20.055	2.267	0.487
400.000	272.352	80.008	19.993	103.995	20.061	1.880	0.520
400.500	272.594	80.009	19.995	103.995	20.058	2.063	0.509
401.000	272.799	80.008	19.995	103.996	20.058	2.063	0.467
401.500	273.060	80.010	19.994	103.994	20.057	2.180	0.456
402.000	273.318	80.008	19.994	103.991	20.057	2.130	0.492
402.500	273.565	80.011	19.995	103.992	20.058	2.057	0.512
403.000	273.809	80.010	19.993	103.992	20.059	2.034	0.498
403.500	274.087	80.006	19.993	103.990	20.057	2.152	0.507
404.000	274.303	80.009	19.994	103.990	20.058	2.098	0.508
404.500	274.541	80.010	19.994	103.990	20.060	1.957	0.474
405.000	274.808	80.010	19.994	103.989	20.057	2.125	0.479
405.500	275.051	80.011	19.994	103.990	20.058	2.051	0.507
406.000	275.281	80.011	19.994	103.992	20.053	2.423	0.491
406.500	275.572	80.011	19.994	103.993	20.057	2.146	0.497
407.000	275.810	80.011	19.993	103.993	20.059	2.038	0.525
407.500	276.045	80.009	19.994	103.995	20.058	2.072	0.501
408.000	276.282	80.011	19.994	103.995	20.061	1.882	0.473
408.500	276.544	80.010	19.994	103.996	20.062	1.803	0.486
409.000	276.761	80.012	19.993	103.995	20.059	1.996	0.489
409.500	277.016	80.010	19.994	103.995	20.058	2.109	0.475
410.000	277.265	80.011	19.993	103.993	20.057	2.157	0.488
410.500	277.511	80.011	19.993	103.992	20.060	1.930	0.499
411.000	277.770	80.011	19.994	103.992	20.062	1.805	0.500
411.500	278.054	80.011	19.994	103.992	20.059	1.990	0.524
412.000	278.266	80.009	19.993	103.994	20.059	2.009	0.520
412.500	278.547	80.010	19.994	103.995	20.061	1.884	0.494
413.000	278.783	80.010	19.994	103.995	20.058	2.063	0.505
413.500	279.034	80.011	19.994	103.993	20.059	2.036	0.502
414.000	279.310	80.010	19.994	103.993	20.058	2.109	0.507
414.500	279.551	80.009	19.994	103.995	20.060	1.913	0.522
415.000	279.773	80.008	19.995	103.995	20.062	1.770	0.490
415.500	280.045	80.010	19.994	103.995	20.061	1.895	0.479
416.000	280.296	80.010	19.995	103.994	20.057	2.121	0.508
416.500	280.531	80.010	19.994	103.994	20.061	1.861	0.504
417.000	280.820	80.008	19.994	103.990	20.059	1.990	0.505
417.500	281.017	80.007	19.994	103.989	20.061	1.836	0.505
418.000	281.283	80.010	19.994	103.989	20.060	1.973	0.474
418.500	281.566	80.008	19.994	103.989	20.059	1.982	0.506
419.000	281.771	80.009	19.994	103.991	20.061	1.899	0.518
419.500	282.030	80.008	19.994	103.990	20.059	2.026	0.476
420.000	282.268	80.009	19.994	103.990	20.059	2.015	0.481
420.500	282.528	80.007	19.994	103.990	20.057	2.124	0.498
421.000	282.815	80.008	19.994	103.993	20.060	1.945	0.523
421.500	283.076	80.007	19.994	103.994	20.058	2.078	0.547
422.000	283.300	80.010	19.995	103.994	20.059	1.982	0.516
422.500	283.582	80.007	19.996	103.994	20.056	2.188	0.496
423.000	283.809	80.007	19.994	103.994	20.058	2.051	0.508
423.500	284.061	80.005	19.995	103.991	20.056	2.201	0.494
424.000	284.303	80.007	19.995	103.987	20.056	2.190	0.487
424.500	284.573	80.007	19.995	103.987	20.057	2.117	0.503
425.000	284.833	80.008	19.995	103.987	20.058	2.099	0.521
425.500	285.050	80.007	19.994	103.986	20.058	2.111	0.503
426.000	285.312	80.007	19.995	103.986	20.058	2.080	0.478
426.500	285.558	80.008	19.995	103.985	20.058	2.107	0.493
427.000	285.807	80.008	19.994	103.985	20.060	1.926	0.501
427.500	286.083	80.010	19.994	103.987	20.055	2.257	0.510
428.000	286.336	80.008	19.995	103.993	20.058	2.065	0.527
428.500	286.579	80.010	19.994	103.994	20.060	1.907	0.513
429.000	286.840	80.005	19.994	103.995	20.057	2.128	0.500
429.500	287.086	80.008	19.994	103.995	20.059	2.005	0.506
430.000	287.346	80.007	19.993	103.993	20.059	2.003	0.506
430.500	287.603	80.007	19.994	103.988	20.057	2.121	0.511
431.000	287.849	80.007	19.995	103.987	20.059	2.030	0.510
431.500	288.134	80.009	19.994	103.988	20.059	2.019	0.517
432.000	288.381	80.008	19.994	103.988	20.058	2.092	0.531
432.500	288.602	80.006	19.996	103.987	20.057	2.178	0.500
433.000	288.871	80.007	19.994	103.990	20.058	2.107	0.479
433.501	289.134	80.007	19.995	103.991	20.055	2.278	0.511
434.000	289.385	80.009	19.994	103.993	20.058	2.047	0.523
434.500	289.590	80.008	19.994	103.993	20.058	2.067	0.485
435.000	289.894	80.009	19.996	103.993	20.059	2.019	0.483
435.500	290.136	80.007	19.994	103.990	20.059	2.020	0.528
436.000	290.392	80.009	19.995	103.990	20.056	2.219	0.522
436.500	290.630	80.007	19.995	103.987	20.059	1.988	0.496
437.000	290.889	80.009	19.994	103.987	20.060	1.928	0.495
437.500	291.160	80.008	19.995	103.988	20.058	2.067	0.513
438.000	291.386	80.007	19.994	103.988	20.060	1.917	0.514
438.500	291.647	80.009	19.995	103.989	20.059	2.022	0.492
439.000	291.894	80.008	19.995	103.989	20.062	1.793	0.497
439.500	292.152	80.008	19.994	103.990	20.061	1.859	0.506
440.000	292.421	80.009	19.995	103.991	20.058	2.084	0.516
440.500	292.684	80.009	19.995	103.990	20.057	2.153	0.529
441.000	292.915	80.009	19.995	103.989	20.060	1.909	0.514
441.500	293.166	80.009	19.995	103.989	20.059	1.995	0.489
442.000	293.476	80.011	19.995	103.988	20.058	2.107	0.521
442.500	293.702	80.009	19.995	103.986	20.058	2.109	0.548
443.000	293.932	80.007	19.994	103.986	20.056	2.249	0.496
443.500	294.170	80.008	19.995	103.985	20.056	2.236	0.462
444.000	294.415	80.007	19.996	103.985	20.056	2.192	0.476
444.500	294.666	80.009	19.996	103.985	20.059	2.030	0.490
445.000	294.951	80.008	19.996	103.985	20.056	2.219	0.516
445.500	295.176	80.008	19.996	103.985	20.057	2.180	0.522
446.000	295.434	80.008	19.995	103.986	20.056	2.223	0.496
446.500	295.701	80.008	19.996	103.985	20.057	2.130	0.504
447.000	295.968	80.008	19.995	103.985	20.057	2.159	0.530
447.500	296.207	80.008	19.996	103.985	20.055	2.257	0.520
448.000	296.467	80.008	19.995	103.985	20.055	2.257	0.502
448.500	296.705	80.009	19.995	103.985	20.056	2.232	0.498
449.000	296.976	80.009	19.996	103.985	20.058	2.084	0.503
449.500	297.221	80.010	19.994	103.985	20.060	1.961	0.513
450.000	297.457	80.008	19.994	103.985	20.059	2.019	0.499
450.500	297.733	80.008	19.996	103.984	20.057	2.157	0.497
451.000	297.978	80.007	19.995	103.984	20.060	1.972	0.516
451.500	298.227	80.007	19.996	103.985	20.056	2.221	0.507
452.000	298.473	80.010	19.996	103.987	20.057	2.184	0.495
452.501	298.744	80.007	19.996	103.987	20.054	2.336	0.506
453.000	298.998	80.009	19.995	103.988	20.055	2.298	0.520
453.500	299.242	80.007	19.996	103.988	20.056	2.217	0.511
454.000	299.493	80.008	19.994	103.987	20.056	2.246	0.497
454.500	299.755	80.006	19.995	103.986	20.055	2.292	0.504
455.000	300.008	80.004	19.995	103.986	20.054	2.340	0.514
455.500	300.228	80.008	19.996	103.986	20.058	2.076	0.494
456.000	300.489	80.007	19.995	103.986	20.058	2.101	0.477
456.500	300.716	80.008	19.996	103.987	20.057	2.130	0.484
457.000	300.979	80.007	19.996	103.987	20.059	2.030	0.489
457.500	301.242	80.007	19.995	103.987	20.058	2.111	0.508
458.000	301.477	80.007	19.995	103.987	20.057	2.120	0.512
458.500	301.744	80.008	19.995	103.987	20.058	2.074	0.500
459.000	301.988	80.008	19.995	103.988	20.058	2.090	0.507
459.500	302.227	80.007	19.995	103.988	20.058	2.111	0.497
460.000	302.482	80.005	19.994	103.989	20.058	2.059	0.488
460.500	302.746	80.009	19.996	103.989	20.057	2.119	0.506
461.000	302.961	80.009	19.996	103.990	20.061	1.890	0.499
461.500	303.224	80.008	19.995	103.991	20.058	2.059	0.479
462.000	303.465	80.007	19.995	103.991	20.059	2.028	0.491
462.500	303.721	80.010	19.995	103.991	20.057	2.178	0.500
463.000	303.993	80.009	19.995	103.991	20.057	2.145	0.512
463.500	304.227	80.010	19.994	103.991	20.055	2.313	0.517
464.000	304.471	80.008	19.994	103.989	20.055	2.299	0.493
464.500	304.739	80.010	19.994	103.988	20.057	2.172	0.495
465.000	304.977	80.010	19.994	103.989	20.058	2.080	0.509
465.500	305.216	80.010	19.993	103.989	20.057	2.182	0.491
466.001	305.420	80.008	19.994	103.987	20.054	2.338	0.460
466.501	305.742	80.009	19.993	103.987	20.058	2.111	0.484
467.000	305.933	80.007	19.994	103.988	20.058	2.090	0.520
467.500	306.239	80.009	19.993	103.987	20.058	2.049	0.505
468.000	306.472	80.009	19.993	103.988	20.059	2.036	0.518
468.500	306.727	80.010	19.994	103.987	20.057	2.155	0.514
469.000	306.987	80.009	19.993	103.984	20.055	2.255	0.502
469.500	307.226	80.010	19.993	103.983	20.054	2.394	0.507
470.000	307.497	80.010	19.993	103.984	20.055	2.271	0.504
470.500	307.710	80.010	19.994	103.983	20.057	2.165	0.497
471.000	307.985	80.009	19.994	103.984	20.057	2.140	0.486
471.500	308.220	80.009	19.994	103.986	20.057	2.176	0.499
472.000	308.478	80.008	19.994	103.983	20.059	2.044	0.501
472.500	308.720	80.009	19.994	103.982	20.056	2.188	0.497
473.000	308.974	80.009	19.993	103.981	20.057	2.163	0.498
473.500	309.207	80.008	19.993	103.980	20.056	2.220	0.492
474.000	309.463	80.008	19.993	103.978	20.058	2.070	0.488
474.500	309.724	80.006	19.994	103.979	20.053	2.440	0.503
475.000	309.984	80.009	19.994	103.981	20.059	1.993	0.519
475.500	310.234	80.009	19.995	103.982	20.056	2.213	0.515
476.000	310.476	80.010	19.994	103.982	20.059	2.036	0.501
476.500	310.727	80.008	19.994	103.983	20.059	2.013	0.492
477.000	310.992	80.009	19.995	103.986	20.060	1.951	0.504
477.500	311.229	80.009	19.993	103.986	20.056	2.205	0.509
478.000	311.510	80.010	19.993	103.986	20.055	2.286	0.511
478.500	311.763	80.009	19.993	103.987	20.053	2.396	0.526
479.000	311.982	80.009	19.993	103.985	20.059	1.995	0.503
479.501	312.246	80.007	19.993	103.983	20.056	2.226	0.477
480.000	312.492	80.008	19.993	103.982	20.055	2.324	0.497
480.500	312.737	80.009	19.993	103.983	20.057	2.159	0.501
481.000	312.997	80.009	19.993	103.983	20.053	2.418	0.498
481.500	313.253	80.009	19.994	103.986	20.055	2.288	0.511
482.000	313.553	80.011	19.994	103.989	20.052	2.466	0.536
482.500	313.748	80.010	19.995	103.990	20.056	2.216	0.525
483.000	313.988	80.009	19.993	103.990	20.053	2.428	0.465
483.500	314.215	80.008	19.994	103.986	20.054	2.345	0.451
484.000	314.485	80.007	19.993	103.981	20.052	2.507	0.482
484.500	314.750	80.006	19.994	103.980	20.053	2.447	0.516
485.000	315.002	80.011	19.993	103.981	20.057	2.136	0.526
485.500	315.247	80.009	19.994	103.981	20.057	2.132	0.508
486.000	315.512	80.011	19.993	103.984	20.052	2.474	0.504
486.500	315.729	80.009	19.994	103.988	20.059	2.043	0.496
487.000	316.008	80.011	19.994	103.988	20.057	2.122	0.489
487.500	316.257	80.009	19.993	103.987	20.056	2.220	0.512
488.000	316.489	80.011	19.994	103.988	20.056	2.199	0.504
488.500	316.740	80.010	19.994	103.988	20.057	2.151	0.482
489.000	316.983	80.010	19.994	103.987	20.055	2.293	0.489
489.500	317.235	80.010	19.993	103.981	20.052	2.526	0.495
490.000	317.459	80.011	19.994	103.977	20.056	2.251	0.486
490.500	317.725	80.011	19.994	103.973	20.056	2.232	0.483
491.000	317.959	80.010	19.995	103.971	20.054	2.366	0.495
491.500	318.208	80.012	19.994	103.965	20.055	2.320	0.491
492.000	318.428	80.013	19.994	103.967	20.051	2.536	0.476
492.500	318.727	80.010	19.993	103.971	20.055	2.261	0.494
493.000	318.930	80.013	19.993	103.969	20.054	2.340	0.511
493.500	319.211	80.014	19.993	103.968	20.055	2.288	0.493
494.000	319.447	80.011	19.994	103.974	20.054	2.372	0.500
494.500	319.669	80.011	19.994	103.976	20.052	2.467	0.487
495.000	319.922	80.013	19.993	103.972	20.052	2.474	0.467
495.500	320.153	80.011	19.993	103.974	20.053	2.422	0.479
496.000	320.428	80.011	19.993	103.974	20.053	2.465	0.495
496.500	320.662	80.012	19.994	103.972	20.056	2.242	0.508
497.000	320.921	80.011	19.994	103.970	20.052	2.503	0.501
497.500	321.138	80.012	19.993	103.973	20.055	2.276	0.484
498.000	321.400	80.011	19.993	103.971	20.049	2.707	0.477
498.500	321.634	80.010	19.994	103.970	20.054	2.336	0.488
499.000	321.865	80.012	19.994	103.969	20.051	2.576	0.481
499.500	322.105	80.010	19.993	103.970	20.051	2.547	0.468
500.000	322.363	80.012	19.993	103.971	20.052	2.534	0.485
500.500	322.607	80.011	19.994	103.973	20.053	2.440	0.500
501.000	322.874	80.011	19.993	103.972	20.057	2.151	0.506
501.500	323.099	80.009	19.993	103.972	20.055	2.299	0.501
502.000	323.335	80.011	19.994	103.968	20.051	2.574	0.477
502.501	323.590	80.009	19.993	103.969	20.053	2.455	0.477
503.000	323.823	80.009	19.993	103.971	20.052	2.511	0.489
503.500	324.078	80.008	19.993	103.974	20.054	2.332	0.487
504.000	324.300	80.010	19.995	103.978	20.055	2.263	0.482
504.500	324.546	80.009	19.993	103.982	20.051	2.578	0.473
505.000	324.806	80.008	19.994	103.978	20.053	2.457	0.487
505.500	325.043	80.009	19.994	103.977	20.052	2.480	0.501
506.000	325.322	80.006	19.993	103.977	20.052	2.518	0.507
506.500	325.519	80.008	19.995	103.978	20.054	2.326	0.496
507.000	325.768	80.006	19.994	103.979	20.052	2.532	0.461
507.500	326.009	80.008	19.994	103.982	20.051	2.592	0.468
508.000	326.239	80.008	19.994	103.981	20.052	2.492	0.481
508.500	326.523	80.007	19.995	103.975	20.053	2.407	0.493
509.000	326.728	80.007	19.994	103.971	20.051	2.555	0.502
509.500	326.985	80.010	19.994	103.971	20.051	2.586	0.476
510.000	327.237	80.007	19.995	103.972	20.054	2.393	0.485
510.500	327.476	80.009	19.994	103.970	20.050	2.626	0.499
511.000	327.727	80.005	19.994	103.973	20.054	2.382	0.490
511.500	327.949	80.010	19.995	103.976	20.055	2.321	0.482
512.000	328.223	80.009	19.993	103.974	20.054	2.363	0.485
512.500	328.424	80.007	19.995	103.974	20.051	2.567	0.485
513.000	328.704	80.006	19.995	103.978	20.052	2.519	0.478
513.500	328.948	80.008	19.994	103.982	20.052	2.505	0.503
514.000	329.185	80.006	19.995	103.983	20.050	2.607	0.503
514.500	329.444	80.008	19.994	103.985	20.053	2.405	0.489
515.000	329.704	80.008	19.995	103.981	20.053	2.436	0.507
515.500	329.947	80.009	19.995	103.977	20.049	2.684	0.511
516.000	330.175	80.009	19.995	103.973	20.049	2.736	0.487
516.500	330.388	80.007	19.996	103.970	20.051	2.599	0.456
517.000	330.688	80.007	19.995	103.969	20.050	2.630	0.478
517.500	330.906	80.008	19.995	103.974	20.049	2.720	0.516
518.000	331.147	80.008	19.996	103.977	20.045	2.961	0.489
518.500	331.401	80.008	19.995	103.981	20.049	2.740	0.477
519.000	331.649	80.009	19.995	103.978	20.044	3.034	0.499
519.500	331.871	80.007	19.996	103.973	20.046	2.892	0.486
520.000	332.163	80.008	19.993	103.969	20.049	2.730	0.491
520.500	332.349	80.009	19.997	103.970	20.049	2.744	0.496
521.000	332.613	80.010	19.997	103.971	20.051	2.595	0.464
521.500	332.903	80.007	19.995	103.977	20.052	2.530	0.502
522.000	333.146	80.010	19.995	103.984	20.051	2.601	0.544
522.500	333.356	80.007	19.995	103.986	20.048	2.801	0.493
523.000	333.617	80.009	19.995	103.986	20.051	2.561	0.462
523.500	333.890	80.008	19.995	103.986	20.049	2.738	0.502
524.000	334.118	80.010	19.994	103.985	20.050	2.665	0.518
524.500	334.362	80.009	19.996	103.982	20.050	2.636	0.487
525.000	334.614	80.008	19.995	103.980	20.053	2.465	0.484
525.500	334.818	80.007	19.995	103.980	20.047	2.848	0.476
526.000	335.124	80.009	19.994	103.975	20.045	2.971	0.483
526.500	335.329	80.010	19.994	103.970	20.050	2.653	0.510
527.000	335.610	80.011	19.994	103.965	20.049	2.698	0.498
527.500	335.821	80.009	19.994	103.959	20.046	2.923	0.489
528.000	336.062	80.008	19.994	103.954	20.045	2.957	0.472
528.500	336.317	80.009	19.994	103.955	20.046	2.909	0.474
529.000	336.571	80.008	19.994	103.963	20.044	3.061	0.502
529.500	336.810	80.009	19.994	103.971	20.046	2.917	0.501
530.000	337.041	80.010	19.995	103.978	20.048	2.776	0.481
530.501	337.296	80.008	19.995	103.981	20.043	3.129	0.478
531.001	337.503	80.007	19.995	103.979	20.044	3.055	0.474
531.500	337.737	80.009	19.994	103.972	20.045	3.019	0.451
532.000	338.004	80.009	19.994	103.968	20.045	2.980	0.471
532.500	338.250	80.011	19.995	103.966	20.043	3.121	0.507
533.000	338.492	80.008	19.993	103.970	20.041	3.242	0.501
533.500	338.731	80.007	19.994	103.974	20.041	3.252	0.484
534.000	338.992	80.008	19.995	103.976	20.044	3.052	0.490
534.500	339.216	80.007	19.993	103.974	20.043	3.156	0.492
535.000	339.434	80.008	19.996	103.973	20.042	3.200	0.464
535.500	339.715	80.008	19.995	103.969	20.043	3.152	0.470
536.000	339.975	80.007	19.995	103.970	20.040	3.373	0.520
536.500	340.202	80.006	19.995	103.974	20.043	3.123	0.514
537.000	340.454	80.007	19.994	103.976	20.042	3.186	0.483
537.500	340.649	80.008	19.994	103.976	20.039	3.440	0.463
538.000	340.931	80.006	19.993	103.978	20.039	3.436	0.462
538.500	341.209	80.007	19.995	103.980	20.041	3.298	0.519
539.000	341.427	80.006	19.995	103.980	20.041	3.300	0.528
539.500	341.673	80.007	19.995	103.982	20.037	3.535	0.480
540.000	341.896	80.007	19.996	103.983	20.038	3.461	0.466
540.500	342.166	80.008	19.995	103.981	20.037	3.536	0.481
541.000	342.406	80.005	19.995	103.978	20.041	3.273	0.501
541.500	342.636	80.006	19.995	103.976	20.037	3.554	0.490
542.000	342.912	80.007	19.995	103.976	20.037	3.561	0.488
542.500	343.142	80.007	19.995	103.978	20.036	3.642	0.506
543.000	343.385	80.007	19.995	103.978	20.043	3.138	0.490
543.500	343.596	80.007	19.995	103.982	20.040	3.340	0.463
544.000	343.880	80.006	19.994	103.980	20.041	3.284	0.474
544.500	344.082	80.007	19.995	103.978	20.038	3.475	0.491
545.000	344.358	80.007	19.995	103.977	20.038	3.473	0.482
545.500	344.584	80.007	19.996	103.979	20.038	3.492	0.490
546.000	344.862	80.007	19.995	103.979	20.036	3.638	0.503
546.500	345.095	80.008	19.995	103.982	20.038	3.488	0.507
547.000	345.330	80.009	19.996	103.981	20.035	3.703	0.489
547.500	345.580	80.007	19.995	103.979	20.037	3.551	0.477
548.000	345.851	80.008	19.995	103.979	20.037	3.582	0.503
548.500	346.107	80.008	19.996	103.978	20.035	3.669	0.524
549.000	346.334	80.009	19.995	103.976	20.036	3.634	0.505
549.500	346.595	80.009	19.995	103.978	20.038	3.467	0.485
550.000	346.834	80.008	19.995	103.979	20.038	3.488	0.494
550.500	347.074	80.007	19.995	103.976	20.035	3.706	0.490
551.000	347.378	80.009	19.995	103.977	20.036	3.634	0.511
551.500	347.591	80.007	19.994	103.975	20.034	3.746	0.530
552.000	347.869	80.009	19.994	103.974	20.036	3.632	0.504
552.500	348.104	80.008	19.996	103.972	20.031	3.988	0.502
553.000	348.368	80.008	19.994	103.974	20.033	3.823	0.506
553.500	348.561	80.010	19.996	103.973	20.035	3.696	0.478
554.000	348.877	80.008	19.995	103.975	20.036	3.613	0.483
554.500	349.127	80.010	19.995	103.974	20.034	3.731	0.538
555.000	349.408	80.009	19.995	103.978	20.037	3.532	0.549
555.500	349.605	80.009	19.995	103.972	20.033	3.803	0.505
556.000	349.856	80.007	19.995	103.970	20.033	3.817	0.463
556.501	350.176	80.011	19.994	103.965	20.037	3.582	0.509
557.001	350.426	80.008	19.996	103.962	20.033	3.811	0.571
557.500	350.660	80.008	19.994	103.957	20.035	3.680	0.527
558.000	350.896	80.009	19.996	103.961	20.033	3.796	0.477
558.500	351.192	80.009	19.995	103.964	20.033	3.848	0.500
559.000	351.398	80.009	19.995	103.968	20.034	3.790	0.517
559.500	351.629	80.009	19.994	103.970	20.034	3.748	0.470
560.000	351.891	80.008	19.994	103.972	20.034	3.769	0.465
560.500	352.166	80.009	19.996	103.972	20.036	3.609	0.515
561.000	352.398	80.010	19.994	103.972	20.035	3.686	0.522
561.500	352.640	80.010	19.994	103.972	20.027	4.278	0.490
562.000	352.985	80.009	19.993	103.972	20.027	4.224	0.530
562.500	353.160	80.007	19.994	103.971	20.027	4.275	0.553
563.000	353.487	80.009	19.994	103.966	20.026	4.334	0.511
563.500	353.659	80.010	19.994	103.965	20.025	4.410	0.500
564.000	354.021	80.010	19.994	103.966	20.027	4.260	0.517
564.500	354.229	80.008	19.993	103.962	20.022	4.589	0.552
565.000	354.432	80.009	19.994	103.965	20.026	4.342	0.490
565.500	354.742	80.009	19.995	103.970	20.031	3.940	0.462
566.000	354.970	80.009	19.994	103.965	20.023	4.492	0.526
566.500	355.253	80.008	19.994	103.961	20.027	4.238	0.525
567.000	355.489	80.008	19.995	103.965	20.027	4.238	0.515
567.500	355.666	80.009	19.994	103.963	20.027	4.226	0.466
568.000	356.035	80.010	19.993	103.960	20.028	4.203	0.479
568.500	356.146	80.009	19.993	103.959	20.027	4.242	0.513
569.000	356.582	80.010	19.994	103.963	20.028	4.207	0.513
569.500	356.732	80.010	19.994	103.966	20.026	4.306	0.567
570.000	357.086	80.010	19.993	103.969	20.026	4.306	0.545
570.500	357.274	80.009	19.993	103.972	20.026	4.319	0.523
571.001	357.559	80.009	19.995	103.972	20.029	4.141	0.507
571.501	357.874	80.010	19.993	103.969	20.028	4.185	0.536
572.000	358.088	80.010	19.994	103.964	20.026	4.283	0.564
572.500	358.270	80.009	19.993	103.961	20.026	4.312	0.463
573.000	358.621	80.010	19.995	103.956	20.026	4.350	0.465
573.500	358.871	80.010	19.993	103.961	20.024	4.445	0.567
574.000	359.210	80.010	19.994	103.965	20.028	4.190	0.594
574.500	359.209	80.011	19.994	103.968	20.023	4.492	0.463
575.000	359.598	80.011	19.995	103.968	20.024	4.438	0.363
575.501	359.873	80.011	19.993	103.968	20.023	4.494	0.526
576.000	360.248	80.010	19.994	103.966	20.022	4.581	0.657
576.500	360.508	80.012	19.993	103.958	20.021	4.683	0.643
577.000	360.708	80.012	19.993	103.952	20.023	4.530	0.548
577.500	360.660	80.012	19.994	103.950	20.019	4.775	0.306
578.000	361.210	80.010	19.993	103.949	20.021	4.632	0.327
578.500	361.143	80.011	19.995	103.947	20.021	4.684	0.492
579.000	361.350	80.010	19.994	103.952	20.018	4.882	0.311
579.501	362.096	80.011	19.994	103.954	20.020	4.728	0.546
580.001	362.007	80.009	19.992	103.960	20.017	4.921	0.805
580.500	362.658	80.010	19.996	103.965	20.018	4.869	0.609
581.001	362.524	80.011	19.994	103.971	20.020	4.765	0.540
581.500	362.926	80.010	19.994	103.974	20.018	4.876	0.393
582.000	363.171	80.010	19.995	103.978	20.020	4.761	0.457
582.500	363.487	80.010	19.995	103.980	20.018	4.842	0.604
583.000	363.753	80.010	19.994	103.981	20.019	4.776	0.572
583.500	363.916	80.009	19.995	103.981	20.021	4.653	0.506
584.000	364.144	80.010	19.994	103.978	20.017	4.971	0.410
584.500	364.495	80.009	19.995	103.977	20.015	5.092	0.485
585.000	364.728	80.009	19.994	103.971	20.016	5.032	0.581
585.500	365.042	80.008	19.994	103.968	20.013	5.194	0.565
586.000	365.247	80.009	19.995	103.962	20.016	5.007	0.533
586.500	365.514	80.007	19.994	103.962	20.017	4.959	0.495
587.000	365.752	80.009	19.994	103.962	20.012	5.315	0.489
587.500	366.031	80.008	19.994	103.961	20.016	5.028	0.511
588.000	366.326	80.007	19.995	103.960	20.016	5.030	0.546
588.500	366.545	80.007	19.994	103.964	20.012	5.315	0.544
589.000	366.815	80.008	19.995	103.960	20.013	5.223	0.501
589.500	367.043	80.008	19.995	103.957	20.010	5.419	0.493
590.000	367.378	80.007	19.993	103.957	20.010	5.411	0.530
590.500	367.554	80.005	19.994	103.954	20.012	5.326	0.537
591.000	367.860	80.007	19.995	103.950	20.010	5.436	0.497
591.500	368.090	80.007	19.993	103.950	20.009	5.503	0.509
592.000	368.341	80.007	19.993	103.951	20.007	5.628	0.509
592.500	368.601	80.005	19.994	103.954	20.008	5.594	0.496
593.000	368.846	80.006	19.993	103.954	20.009	5.536	0.508
593.500	369.115	80.008	19.993	103.954	20.008	5.600	0.509
594.000	369.373	80.007	19.994	103.954	20.004	5.825	0.520
594.500	369.612	80.006	19.994	103.953	20.008	5.575	0.512
595.000	369.921	80.006	19.994	103.950	20.007	5.630	0.523
595.500	370.152	80.008	19.994	103.950	20.010	5.434	0.544
596.000	370.432	80.007	19.994	103.949	20.003	5.938	0.525
596.500	370.629	80.008	19.994	103.949	20.004	5.863	0.494
597.000	370.919	80.009	19.994	103.950	20.005	5.763	0.482
597.500	371.163	80.007	19.994	103.951	20.002	6.002	0.511
598.000	371.378	80.008	19.994	103.951	19.999	6.227	0.497
598.500	371.669	80.006	19.994	103.953	19.996	6.385	0.482
599.000	371.928	80.007	19.993	103.952	19.996	6.404	0.528
599.500	372.220	80.008	19.994	103.951	20.000	6.136	0.551
600.000	372.453	80.008	19.995	103.951	19.998	6.275	0.538
600.500	372.696	80.007	19.994	103.951	19.993	6.619	0.501
601.000	372.923	80.007	19.993	103.951	19.995	6.488	0.473
601.500	373.230	80.007	19.994	103.951	19.992	6.719	0.502
602.000	373.490	80.007	19.994	103.951	19.992	6.660	0.551
602.500	373.696	80.007	19.994	103.951	19.993	6.588	0.517
603.000	374.019	80.007	19.994	103.950	19.989	6.885	0.497
603.500	374.248	80.007	19.993	103.950	19.990	6.835	0.540
604.000	374.506	80.007	19.994	103.950	19.990	6.825	0.519
604.500	374.772	80.007	19.994	103.950	19.988	6.998	0.505
605.000	375.012	80.008	19.994	103.950	19.986	7.096	0.515
605.500	375.280	80.008	19.993	103.951	19.987	7.038	0.507
606.000	375.498	80.007	19.994	103.951	19.989	6.894	0.497
606.500	375.769	80.009	19.993	103.950	19.986	7.139	0.487
607.000	376.043	80.007	19.994	103.950	19.983	7.291	0.518
607.500	376.228	80.008	19.994	103.952	19.988	7.006	0.503
608.000	376.556	80.006	19.994	103.954	19.985	7.216	0.486
608.500	376.804	80.007	19.994	103.953	19.988	6.998	0.544
609.000	377.067	80.008	19.994	103.953	19.981	7.459	0.544
609.500	377.350	80.007	19.995	103.954	19.982	7.365	0.529
610.000	377.577	80.007	19.994	103.952	19.980	7.534	0.527
610.500	377.818	80.007	19.993	103.950	19.981	7.486	0.489
611.000	378.063	80.008	19.994	103.951	19.978	7.681	0.478
611.500	378.326	80.005	19.995	103.951	19.979	7.615	0.497
612.000	378.567	80.007	19.994	103.951	19.974	7.969	0.506
612.500	378.811	80.009	19.994	103.951	19.970	8.212	0.494
613.000	379.103	80.008	19.995	103.951	19.973	8.044	0.510
613.500	379.308	80.005	19.995	103.952	19.971	8.158	0.516
614.000	379.609	80.007	19.994	103.952	19.970	8.208	0.501
614.500	379.902	80.007	19.994	103.953	19.971	8.150	0.550
615.000	380.063	80.006	19.995	103.953	19.967	8.425	0.524
615.500	380.355	80.006	19.995	103.953	19.966	8.541	0.454
616.000	380.598	80.006	19.994	103.952	19.964	8.639	0.494
616.500	380.848	80.007	19.994	103.951	19.964	8.635	0.514
617.000	381.066	80.007	19.994	103.952	19.964	8.648	0.481
617.500	381.381	80.007	19.994	103.957	19.963	8.735	0.500
618.000	381.564	80.006	19.995	103.958	19.963	8.694	0.515
618.500	381.865	80.007	19.994	103.958	19.961	8.833	0.491
619.000	382.125	80.006	19.994	103.955	19.958	9.039	0.523
619.500	382.327	80.008	19.995	103.948	19.956	9.185	0.512
620.000	382.629	80.008	19.995	103.942	19.956	9.229	0.483
620.500	382.879	80.008	19.994	103.941	19.955	9.248	0.528
621.000	383.118	80.007	19.996	103.940	19.951	9.537	0.521
621.500	383.399	80.007	19.995	103.942	19.952	9.500	0.505
622.000	383.663	80.008	19.995	103.947	19.951	9.554	0.532
622.500	383.876	80.008	19.995	103.947	19.952	9.510	0.511
623.000	384.199	80.007	19.995	103.948	19.944	10.073	0.506
623.500	384.423	80.008	19.995	103.949	19.947	9.856	0.541
624.000	384.681	80.007	19.995	103.949	19.943	10.114	0.514
624.500	384.945	80.008	19.994	103.948	19.942	10.187	0.502
625.000	385.202	80.008	19.994	103.949	19.935	10.652	0.522
625.500	385.427	80.008	19.995	103.948	19.936	10.602	0.501
626.000	385.735	80.007	19.995	103.948	19.937	10.572	0.508
626.500	385.970	80.007	19.994	103.948	19.934	10.779	0.539
627.000	386.239	80.007	19.994	103.948	19.929	11.072	0.524
627.500	386.442	80.008	19.996	103.947	19.930	11.050	0.488
628.000	386.735	80.009	19.994	103.947	19.928	11.150	0.484
628.500	386.909	80.008	19.994	103.947	19.921	11.647	0.481
629.000	387.232	80.007	19.995	103.947	19.922	11.560	0.482
629.500	387.496	80.008	19.995	103.948	19.918	11.872	0.542
630.000	387.726	80.009	19.994	103.949	19.919	11.777	0.541
630.500	388.030	80.008	19.995	103.949	19.915	12.089	0.514
631.000	388.269	80.009	19.995	103.948	19.913	12.180	0.539
631.500	388.577	80.009	19.994	103.948	19.909	12.499	0.545
632.000	388.809	80.009	19.994	103.948	19.907	12.618	0.543
632.500	389.083	80.009	19.993	103.947	19.905	12.789	0.523
633.000	389.305	80.009	19.994	103.946	19.904	12.860	0.501
633.500	389.579	80.008	19.994	103.946	19.899	13.184	0.496
634.000	389.887	80.009	19.995	103.945	19.900	13.091	0.539
634.500	390.119	80.009	19.995	103.945	19.896	13.370	0.561
635.000	390.334	80.008	19.994	103.946	19.890	13.853	0.494
635.500	390.642	80.010	19.995	103.946	19.893	13.603	0.485
636.000	390.882	80.009	19.995	103.946	19.887	13.999	0.535
636.500	391.154	80.008	19.994	103.946	19.881	14.416	0.529
637.000	391.422	80.008	19.994	103.946	19.886	14.098	0.526
637.500	391.684	80.009	19.995	103.945	19.883	14.302	0.535
638.000	391.936	80.008	19.995	103.945	19.879	14.596	0.522
638.500	392.169	80.009	19.994	103.944	19.877	14.696	0.499
639.000	392.453	80.009	19.994	103.944	19.876	14.823	0.501
639.500	392.719	80.008	19.995	103.944	19.873	14.986	0.533
640.000	392.966	80.009	19.994	103.944	19.869	15.287	0.531
640.500	393.222	80.009	19.996	103.944	19.866	15.513	0.508
641.000	393.495	80.008	19.996	103.944	19.864	15.636	0.516
641.500	393.768	80.010	19.996	103.943	19.863	15.704	0.537
642.000	394.036	80.008	19.995	103.945	19.859	15.981	0.544
642.500	394.277	80.009	19.995	103.945	19.855	16.289	0.526
643.000	394.543	80.009	19.995	103.944	19.850	16.637	0.508
643.500	394.820	80.010	19.995	103.944	19.844	17.025	0.525
644.000	395.061	80.009	19.995	103.944	19.847	16.857	0.530
644.501	395.376	80.008	19.996	103.944	19.841	17.271	0.537
645.000	395.619	80.009	19.996	103.942	19.836	17.626	0.557
645.500	395.873	80.009	19.995	103.943	19.831	17.915	0.528
646.000	396.145	80.009	19.995	103.943	19.827	18.189	0.511
646.500	396.401	80.008	19.996	103.942	19.822	18.556	0.527
647.000	396.684	80.009	19.995	103.941	19.822	18.553	0.534
647.500	396.948	80.007	19.996	103.942	19.816	18.991	0.543
648.000	397.193	80.009	19.997	103.938	19.815	19.068	0.528
648.500	397.460	80.008	19.995	103.936	19.813	19.218	0.510
649.000	397.723	80.009	19.996	103.935	19.810	19.436	0.521
649.500	397.972	80.009	19.995	103.933	19.807	19.644	0.521
650.000	398.226	80.008	19.997	103.933	19.806	19.684	0.508
650.500	398.480	80.008	19.995	103.932	19.797	20.323	0.505
651.000	398.739	80.010	19.996	103.927	19.796	20.393	0.511
651.500	399.028	80.010	19.995	103.922	19.795	20.473	0.531
652.000	399.299	80.008	19.995	103.919	19.790	20.834	0.554
652.500	399.572	80.008	19.995	103.914	19.790	20.804	0.552
653.000	399.797	80.010	19.995	103.911	19.780	21.523	0.521
653.500	400.017	80.010	19.995	103.912	19.779	21.552	0.472
654.000	400.340	80.010	19.995	103.911	19.772	22.073	0.494
654.500	400.585	80.010	19.994	103.912	19.771	22.104	0.555
655.000	400.850	80.008	19.994	103.917	19.769	22.245	0.539
655.500	401.125	80.009	19.994	103.922	19.766	22.479	0.525
656.000	401.346	80.009	19.994	103.926	19.762	22.760	0.518
656.500	401.635	80.011	19.995	103.930	19.760	22.928	0.503
657.000	401.879	80.009	19.995	103.927	19.755	23.238	0.521
657.500	402.115	80.011	19.994	103.923	19.747	23.780	0.506
658.000	402.380	80.010	19.995	103.919	19.746	23.870	0.491
658.500	402.634	80.010	19.993	103.918	19.740	24.275	0.510
659.001	402.909	80.010	19.995	103.918	19.738	24.408	0.524
659.500	403.154	80.011	19.994	103.926	19.731	24.896	0.525
660.000	403.434	80.012	19.994	103.930	19.729	25.037	0.523
660.500	403.677	80.010	19.992	103.932	19.726	25.291	0.524
661.000	403.975	80.011	19.995	103.932	19.719	25.741	0.532
661.500	404.225	80.009	19.993	103.931	19.716	25.953	0.545
662.000	404.453	80.011	19.994	103.925	19.708	26.537	0.513
662.500	404.756	80.011	19.994	103.922	19.705	26.749	0.504
663.000	405.003	80.012	19.994	103.919	19.702	26.949	0.540
663.500	405.228	80.010	19.992	103.916	19.698	27.205	0.511
664.000	405.490	80.011	19.994	103.914	19.693	27.589	0.480
664.500	405.771	80.010	19.993	103.912	19.686	28.070	0.515
665.000	406.031	80.009	19.994	103.914	19.686	28.080	0.542
665.501	406.287	80.010	19.994	103.914	19.681	28.424	0.529
666.000	406.545	80.010	19.993	103.915	19.679	28.591	0.515
666.500	406.802	80.011	19.993	103.914	19.672	29.049	0.514
667.000	407.099	80.007	19.994	103.915	19.664	29.612	0.534
667.500	407.313	80.010	19.994	103.912	19.659	29.964	0.532
668.000	407.608	80.008	19.993	103.910	19.655	30.256	0.510
668.500	407.852	80.009	19.994	103.910	19.650	30.565	0.524
669.000	408.124	80.007	19.994	103.910	19.645	30.960	0.527
669.500	408.383	80.008	19.995	103.906	19.644	30.992	0.523
670.000	408.643	80.008	19.995	103.906	19.640	31.300	0.525
670.500	408.880	80.008	19.994	103.907	19.636	31.564	0.508
671.000	409.149	80.009	19.994	103.907	19.631	31.939	0.502
671.500	409.431	80.008	19.994	103.907	19.625	32.326	0.529
672.000	409.664	80.008	19.993	103.910	19.618	32.820	0.533
672.500	409.916	80.007	19.995	103.910	19.611	33.273	0.500
673.000	410.186	80.006	19.993	103.910	19.606	33.629	0.504
673.500	410.464	80.007	19.995	103.910	19.600	34.081	0.535
674.000	410.720	80.007	19.994	103.911	19.596	34.356	0.541
674.500	410.972	80.007	19.994	103.911	19.591	34.684	0.521
675.000	411.244	80.007	19.995	103.912	19.580	35.490	0.516
675.500	411.512	80.008	19.994	103.912	19.580	35.489	0.532
676.000	411.796	80.008	19.994	103.912	19.572	36.012	0.546
676.500	411.992	80.007	19.993	103.912	19.566	36.435	0.516
677.000	412.254	80.008	19.995	103.909	19.565	36.483	0.469
677.500	412.546	80.009	19.994	103.907	19.557	37.069	0.506
678.000	412.802	80.007	19.994	103.902	19.549	37.630	0.551
678.500	413.052	80.007	19.994	103.898	19.544	37.991	0.527
679.000	413.323	80.008	19.995	103.891	19.543	38.032	0.514
679.500	413.556	80.008	19.995	103.890	19.537	38.481	0.513
680.000	413.824	80.009	19.995	103.886	19.530	38.974	0.503
680.500	414.081	80.008	19.994	103.884	19.529	39.044	0.513
681.000	414.321	80.007	19.994	103.885	19.523	39.447	0.511
681.500	414.619	80.006	19.993	103.888	19.518	39.778	0.518
682.001	414.816	80.008	19.993	103.886	19.512	40.206	0.517
682.500	415.126	80.008	19.994	103.889	19.507	40.561	0.501
683.000	415.372	80.008	19.994	103.894	19.501	40.974	0.532
683.500	415.632	80.008	19.994	103.892	19.491	41.684	0.531
684.000	415.933	80.008	19.995	103.892	19.490	41.761	0.533
684.500	416.202	80.007	19.994	103.894	19.481	42.351	0.565
685.000	416.420	80.009	19.993	103.893	19.477	42.671	0.529
685.500	416.706	80.009	19.994	103.887	19.474	42.831	0.496
686.000	416.953	80.010	19.993	103.886	19.463	43.621	0.518
686.500	417.217	80.008	19.993	103.883	19.461	43.757	0.522
687.000	417.457	80.009	19.994	103.880	19.454	44.241	0.508
687.500	417.735	80.011	19.995	103.875	19.449	44.632	0.511
688.000	417.994	80.012	19.994	103.874	19.441	45.207	0.528
688.500	418.261	80.011	19.994	103.874	19.439	45.294	0.531
689.000	418.528	80.007	19.993	103.874	19.438	45.409	0.530
689.500	418.821	80.009	19.995	103.873	19.428	46.086	0.547
690.001	419.086	80.008	19.993	103.872	19.426	46.262	0.559
690.500	419.333	80.007	19.992	103.871	19.432	45.846	0.535
691.000	419.594	80.009	19.995	103.868	19.428	46.105	0.510
691.500	419.849	80.009	19.993	103.865	19.424	46.408	0.512
692.000	420.114	80.010	19.993	103.865	19.421	46.596	0.518
692.500	420.382	80.008	19.993	103.861	19.421	46.598	0.526
693.000	420.630	80.009	19.994	103.854	19.417	46.854	0.524
693.500	420.880	80.008	19.993	103.848	19.415	46.981	0.508
694.000	421.142	80.008	19.995	103.842	19.410	47.326	0.505
694.500	421.363	80.008	19.994	103.834	19.410	47.328	0.497
695.000	421.647	80.009	19.993	103.831	19.403	47.853	0.494
695.500	421.980	80.009	19.994	103.836	19.399	48.139	0.561
696.000	422.225	80.008	19.994	103.843	19.399	48.102	0.598
696.500	422.454	80.009	19.993	103.852	19.389	48.809	0.527
697.000	422.741	80.010	19.994	103.863	19.391	48.676	0.495
697.500	423.005	80.009	19.993	103.871	19.379	49.507	0.533
698.000	423.217	80.008	19.995	103.874	19.375	49.746	0.513
698.500	423.498	80.008	19.994	103.880	19.366	50.400	0.484
699.000	423.752	80.007	19.993	103.886	19.360	50.808	0.514
699.500	424.000	80.007	19.996	103.891	19.350	51.495	0.519
700.000	424.299	80.005	19.992	103.898	19.343	52.015	0.525
700.500	424.527	80.007	19.995	103.904	19.329	52.976	0.537
701.000	424.815	80.008	19.996	103.907	19.313	54.066	0.522
701.500	425.031	80.008	19.995	103.908	19.308	54.446	0.510
702.000	425.263	80.008	19.995	103.908	19.295	55.371	0.475
702.500	425.539	80.008	19.995	103.907	19.281	56.360	0.478
703.000	425.810	80.009	19.996	103.905	19.269	57.193	0.528
703.500	426.086	80.008	19.995	103.900	19.256	58.104	0.547
704.000	426.372	80.007	19.995	103.892	19.240	59.165	0.554
704.500	426.572	80.008	19.995	103.889	19.229	59.946	0.524
705.000	426.841	80.009	19.994	103.886	19.217	60.781	0.477
705.500	427.097	80.007	19.995	103.882	19.202	61.840	0.497
706.000	427.332	80.008	19.994	103.879	19.184	63.080	0.508
706.500	427.607	80.008	19.995	103.874	19.171	64.002	0.500
707.000	427.844	80.008	19.996	103.864	19.156	65.084	0.511
707.500	428.092	80.009	19.994	103.855	19.142	66.023	0.498
708.000	428.360	80.005	19.996	103.854	19.124	67.270	0.500
708.500	428.610	80.008	19.996	103.852	19.107	68.503	0.517
709.000	428.840	80.007	19.994	103.849	19.098	69.133	0.499
709.500	429.114	80.009	19.995	103.847	19.076	70.651	0.492
710.000	429.393	80.008	19.995	103.848	19.058	71.861	0.528
710.500	429.652	80.006	19.995	103.846	19.046	72.732	0.545
711.000	429.856	80.009	19.995	103.842	19.031	73.764	0.500
711.500	430.144	80.007	19.996	103.842	19.012	75.119	0.478
712.000	430.327	80.010	19.995	103.842	18.997	76.166	0.481
712.500	430.600	80.008	19.994	103.838	18.979	77.385	0.463
713.000	430.848	80.007	19.995	103.831	18.964	78.401	0.489
713.500	431.097	80.006	19.995	103.830	18.945	79.795	0.509
714.000	431.352	80.008	19.994	103.830	18.926	81.060	0.500
714.500	431.619	80.010	19.995	103.829	18.911	82.157	0.513
715.000	431.888	80.007	19.994	103.830	18.890	83.586	0.529
715.500	432.132	80.010	19.995	103.831	18.872	84.847	0.525
716.000	432.354	80.008	19.994	103.831	18.848	86.527	0.489
716.500	432.647	80.008	19.995	103.832	18.832	87.638	0.490
717.000	432.875	80.010	19.995	103.833	18.811	89.128	0.518
717.500	433.129	80.009	19.994	103.833	18.786	90.822	0.502
718.000	433.375	80.008	19.995	103.832	18.766	92.196	0.491
718.500	433.605	80.010	19.994	103.832	18.743	93.803	0.489
719.000	433.905	80.010	19.994	103.829	18.718	95.554	0.503
719.500	434.139	80.009	19.994	103.829	18.699	96.903	0.531
720.000	434.417	80.010	19.994	103.828	18.677	98.388	0.523
720.500	434.631	80.009	19.995	103.829	18.651	100.220	0.502
721.000	434.899	80.008	19.994	103.828	18.628	101.842	0.487
721.500	435.148	80.007	19.995	103.823	18.604	103.517	0.499
722.000	435.414	80.010	19.995	103.817	18.585	104.828	0.516
722.500	435.655	80.008	19.994	103.813	18.559	106.643	0.511
723.000	435.917	80.011	19.995	103.808	18.532	108.524	0.505
723.500	436.179	80.009	19.994	103.801	18.506	110.288	0.513
724.000	436.436	80.009	19.995	103.801	18.482	111.984	0.521
724.500	436.694	80.009	19.994	103.800	18.454	113.930	0.517
725.000	436.887	80.009	19.995	103.797	18.427	115.863	0.483
725.500	437.169	80.009	19.994	103.795	18.405	117.327	0.463
726.000	437.422	80.009	19.994	103.795	18.371	119.740	0.506
726.500	437.638	80.009	19.995	103.795	18.344	121.621	0.502
727.000	437.903	80.010	19.994	103.793	18.316	123.552	0.475
727.500	438.141	80.010	19.995	103.790	18.289	125.430	0.492
728.000	438.394	80.010	19.994	103.787	18.261	127.353	0.497
728.500	438.654	80.009	19.994	103.779	18.229	129.573	0.502
729.000	438.917	80.008	19.994	103.770	18.203	131.400	0.518
729.500	439.137	80.008	19.995	103.762	18.168	133.809	0.503
730.000	439.368	80.009	19.995	103.760	18.139	135.833	0.467
730.500	439.631	80.010	19.994	103.755	18.108	138.045	0.473
731.000	439.871	80.009	19.996	103.750	18.079	140.054	0.498
731.500	440.125	80.007	19.994	103.744	18.048	142.189	0.499
732.000	440.355	80.009	19.995	103.738	18.010	144.800	0.489
732.500	440.604	80.008	19.995	103.731	17.978	147.046	0.481
733.000	440.836	80.007	19.994	103.726	17.946	149.317	0.480
733.500	441.108	80.008	19.995	103.725	17.912	151.621	0.493
734.000	441.342	80.008	19.995	103.727	17.879	153.964	0.505
734.500	441.623	80.009	19.994	103.725	17.840	156.626	0.511
735.000	441.820	80.009	19.995	103.727	17.811	158.670	0.497
735.500	442.085	80.009	19.995	103.726	17.770	161.528	0.470
736.000	442.337	80.009	19.995	103.724	17.732	164.142	0.489
736.500	442.563	80.008	19.994	103.722	17.699	166.404	0.497
737.000	442.848	80.008	19.994	103.721	17.662	168.977	0.495
737.500	443.069	80.009	19.996	103.714	17.621	171.769	0.508
738.000	443.278	80.008	19.994	103.708	17.584	174.392	0.468
738.500	443.589	80.009	19.995	103.702	17.538	177.570	0.475
739.000	443.824	80.010	19.995	103.698	17.501	180.090	0.533
739.500	444.087	80.010	19.996	103.693	17.457	183.194	0.522
740.000	444.340	80.009	19.994	103.687	17.414	186.177	0.507
740.500	444.567	80.011	19.995	103.685	17.378	188.647	0.498
741.000	444.784	80.009	19.993	103.683	17.332	191.864	0.463
741.500	445.032	80.007	19.994	103.679	17.283	195.269	0.454
742.000	445.315	80.009	19.995	103.676	17.243	198.045	0.498
742.500	445.561	80.008	19.994	103.670	17.196	201.294	0.530
743.000	445.779	80.010	19.994	103.666	17.146	204.722	0.496
743.500	446.016	80.008	19.995	103.664	17.100	207.919	0.459
744.000	446.276	80.010	19.995	103.662	17.050	211.400	0.476
744.500	446.512	80.008	19.995	103.657	17.002	214.715	0.497
745.000	446.752	80.011	19.994	103.651	16.954	217.984	0.486
745.500	446.994	80.009	19.995	103.642	16.908	221.184	0.479
746.000	447.275	80.009	19.993	103.633	16.857	224.667	0.503
746.500	447.494	80.009	19.994	103.624	16.801	228.548	0.512
747.000	447.728	80.010	19.995	103.611	16.753	231.829	0.477
747.500	447.967	80.009	19.995	103.602	16.705	235.211	0.463
748.000	448.244	80.010	19.994	103.593	16.650	239.002	0.494
748.500	448.520	80.007	19.995	103.579	16.597	242.665	0.534
749.000	448.737	80.011	19.995	103.566	16.539	246.620	0.523
749.500	449.009	80.007	19.994	103.561	16.488	250.199	0.491
750.000	449.248	80.008	19.994	103.558	16.429	254.265	0.500
750.500	449.498	80.010	19.994	103.551	16.372	258.177	0.500
751.000	449.727	80.009	19.994	103.548	16.314	262.191	0.484
751.500	450.008	80.007	19.994	103.543	16.255	266.280	0.495
752.000	450.241	80.008	19.994	103.536	16.200	270.055	0.512
752.500	450.461	80.008	19.994	103.526	16.136	274.433	0.483
753.000	450.691	80.007	19.993	103.517	16.077	278.513	0.452
753.500	450.974	80.007	19.994	103.513	16.017	282.634	0.482
754.000	451.241	80.008	19.993	103.509	15.956	286.808	0.531
754.500	451.467	80.009	19.994	103.493	15.898	290.806	0.521
755.000	451.737	80.008	19.994	103.487	15.835	295.125	0.495
755.500	451.993	80.008	19.994	103.482	15.772	299.445	0.512
756.000	452.202	80.010	19.995	103.458	15.705	304.067	0.496
756.500	452.470	80.009	19.993	103.446	15.643	308.357	0.471
757.000	452.710	80.007	19.994	103.433	15.575	313.068	0.492
757.500	452.989	80.009	19.994	103.424	15.514	317.225	0.513
758.000	453.220	80.007	19.994	103.403	15.448	321.737	0.514
758.500	453.472	80.008	19.995	103.407	15.382	326.300	0.497
759.000	453.732	80.008	19.995	103.383	15.311	331.216	0.498
759.500	453.954	80.008	19.996	103.381	15.253	335.162	0.497
760.000	454.194	80.007	19.994	103.363	15.184	339.900	0.472
760.500	454.468	80.008	19.994	103.353	15.123	344.089	0.488
761.000	454.695	80.008	19.994	103.344	15.060	348.438	0.508
761.500	454.984	80.009	19.996	103.345	14.992	353.141	0.508
762.000	455.232	80.008	19.995	103.326	14.926	357.768	0.526
762.500	455.452	80.010	19.995	103.313	14.864	362.117	0.502
763.000	455.725	80.008	19.995	103.310	14.797	366.711	0.480
763.500	455.983	80.008	19.995	103.288	14.724	371.699	0.512
764.000	456.227	80.009	19.994	103.267	14.659	376.097	0.517
764.500	456.448	80.008	19.995	103.253	14.592	380.554	0.484
765.000	456.689	80.009	19.995	103.237	14.521	385.279	0.463
765.500	456.965	80.006	19.995	103.214	14.454	389.847	0.489
766.001	457.189	80.010	19.994	103.199	14.383	394.798	0.509
766.500	457.439	80.007	19.995	103.190	14.308	399.928	0.487
767.000	457.684	80.007	19.995	103.181	14.239	404.705	0.485
767.500	457.925	80.006	19.995	103.173	14.170	409.476	0.490
768.000	458.165	80.008	19.995	103.164	14.098	414.421	0.483
768.500	458.446	80.009	19.995	103.153	14.024	419.469	0.501
769.000	458.659	80.009	19.995	103.136	13.954	424.246	0.508
769.500	458.933	80.008	19.994	103.126	13.879	429.322	0.491
770.000	459.174	80.007	19.994	103.113	13.809	434.125	0.501
770.500	459.442	80.009	19.995	103.101	13.739	438.904	0.512
771.000	459.688	80.009	19.994	103.092	13.669	443.621	0.512
771.500	459.899	80.009	19.994	103.078	13.597	448.563	0.485
772.000	460.154	80.010	19.995	103.057	13.532	453.052	0.461
772.500	460.446	80.009	19.994	103.058	13.460	458.008	0.507
773.000	460.658	80.008	19.994	103.084	13.390	462.877	0.525
773.500	460.917	80.009	19.995	103.084	13.320	467.707	0.487
774.000	461.148	80.009	19.993	103.077	13.251	472.460	0.480
774.500	461.402	80.008	19.994	103.063	13.185	477.066	0.488
775.000	461.666	80.008	19.994	103.030	13.110	482.228	0.502
775.500	461.882	80.009	19.994	102.971	13.044	486.779	0.498
776.000	462.130	80.010	19.995	102.935	12.970	491.905	0.472
776.500	462.424	80.009	19.995	102.917	12.908	496.129	0.503
777.000	462.625	80.008	19.994	102.916	12.843	500.562	0.519
777.501	462.882	80.009	19.995	102.912	12.783	504.694	0.477
778.000	463.105	80.010	19.994	102.907	12.722	508.888	0.469
778.500	463.370	80.008	19.994	102.903	12.663	512.879	0.484
779.000	463.641	80.008	19.994	102.892	12.602	517.024	0.512
779.500	463.843	80.009	19.994	102.876	12.544	520.983	0.504
780.000	464.084	80.009	19.995	102.860	12.489	524.659	0.458
780.500	464.319	80.008	19.993	102.843	12.432	528.518	0.460
781.000	464.545	80.008	19.995	102.823	12.379	532.135	0.469
781.500	464.773	80.008	19.994	102.807	12.325	535.778	0.458
782.000	465.050	80.008	19.994	102.792	12.274	539.350	0.479
782.500	465.293	80.007	19.994	102.782	12.220	543.030	0.513
783.000	465.525	80.007	19.994	102.775	12.170	546.520	0.498
783.500	465.773	80.008	19.994	102.775	12.124	549.703	0.478
784.000	466.019	80.009	19.994	102.776	12.076	553.062	0.487
784.500	466.305	80.007	19.994	102.775	12.028	556.412	0.513
785.000	466.505	80.007	19.994	102.775	11.987	559.245	0.509
785.500	466.790	80.006	19.993	102.776	11.946	562.101	0.486
786.000	467.019	80.008	19.994	102.773	11.901	565.189	0.500
786.500	467.240	80.006	19.994	102.773	11.870	567.368	0.482
787.000	467.508	80.005	19.993	102.774	11.834	569.818	0.470
787.500	467.755	80.008	19.994	102.766	11.803	571.958	0.502
788.000	468.011	80.007	19.994	102.758	11.773	574.027	0.509
788.500	468.252	80.007	19.993	102.754	11.743	576.049	0.500
789.000	468.502	80.008	19.994	102.740	11.723	577.456	0.494
789.500	468.735	80.008	19.995	102.725	11.705	578.774	0.487
790.000	468.974	80.007	19.993	102.716	11.685	580.244	0.478
790.500	469.238	80.008	19.993	102.701	11.670	581.319	0.487
791.000	469.509	80.008	19.993	102.685	11.658	582.256	0.519
791.500	469.735	80.008	19.994	102.674	11.650	582.981	0.516
792.000	470.045	80.008	19.994	102.660	11.642	583.667	0.517
792.500	470.246	80.009	19.994	102.648	11.638	584.017	0.524
793.000	470.504	80.009	19.994	102.648	11.639	584.110	0.485
793.500	470.747	80.008	19.994	102.647	11.643	583.889	0.480
794.000	471.013	80.006	19.993	102.649	11.652	583.388	0.505
794.500	471.247	80.008	19.994	102.656	11.658	582.972	0.504
795.000	471.514	80.008	19.994	102.664	11.678	581.701	0.501
795.500	471.787	80.008	19.994	102.665	11.698	580.316	0.520
796.000	472.032	80.009	19.995	102.672	11.724	578.598	0.529
796.500	472.268	80.009	19.994	102.675	11.759	576.175	0.500
797.000	472.513	80.009	19.993	102.674	11.790	574.079	0.481
797.500	472.749	80.009	19.994	102.672	11.825	571.715	0.481
798.000	473.056	80.008	19.994	102.671	11.868	568.788	0.512
798.500	473.336	80.008	19.993	102.669	11.911	565.687	0.565
799.000	473.540	80.009	19.995	102.667	11.956	562.567	0.536
799.500	473.825	80.010	19.995	102.668	12.007	559.112	0.487
800.000	474.103	80.008	19.992	102.671	12.062	555.441	0.526
800.500	474.370	80.010	19.994	102.681	12.119	551.663	0.554
801.000	474.640	80.007	19.994	102.691	12.174	548.150	0.541
801.500	474.822	80.008	19.995	102.706	12.235	544.178	0.494
802.000	475.135	80.009	19.995	102.726	12.302	539.678	0.473
802.500	475.366	80.007	19.994	102.749	12.373	534.868	0.519
803.000	475.652	80.009	19.995	102.771	12.447	529.913	0.531
803.500	475.893	80.009	19.994	102.790	12.525	524.560	0.523
804.000	476.173	80.010	19.993	102.813	12.603	519.271	0.524
804.500	476.352	80.008	19.994	102.831	12.688	513.490	0.490
805.000	476.611	80.009	19.995	102.844	12.771	507.844	0.448
805.500	476.876	80.009	19.995	102.853	12.861	501.674	0.480
806.000	477.153	80.008	19.994	102.863	12.957	495.084	0.533
806.500	477.422	80.008	19.994	102.872	13.053	488.519	0.544
807.000	477.614	80.009	19.995	102.878	13.156	481.428	0.504
807.500	477.902	80.008	19.994	102.884	13.251	474.949	0.471
808.000	478.108	80.009	19.996	102.894	13.360	467.495	0.487
808.500	478.389	80.008	19.995	102.905	13.470	459.933	0.490
809.000	478.619	80.009	19.995	102.914	13.578	452.558	0.499
809.500	478.880	80.008	19.994	102.891	13.691	444.799	0.501
810.000	479.142	80.006	19.993	102.891	13.808	436.688	0.507
810.500	479.444	80.008	19.995	102.903	13.917	429.203	0.544
811.000	479.689	80.006	19.994	102.925	14.042	420.605	0.555
811.500	479.960	80.007	19.994	102.950	14.159	412.552	0.531
812.000	480.185	80.007	19.995	103.012	14.275	404.603	0.506
812.500	480.442	80.008	19.995	103.057	14.403	395.803	0.489
813.000	480.656	80.007	19.994	103.088	14.525	387.385	0.477
813.500	480.923	80.008	19.995	103.110	14.651	378.719	0.476
814.000	481.172	80.008	19.995	103.137	14.783	369.660	0.499
814.500	481.453	80.008	19.995	103.159	14.907	361.097	0.523
815.000	481.709	80.008	19.994	103.181	15.042	351.772	0.533
815.500	481.987	80.007	19.994	103.203	15.172	342.779	0.535
816.000	482.224	80.007	19.995	103.217	15.303	333.694	0.525
816.500	482.471	80.010	19.994	103.235	15.438	324.350	0.499
817.000	482.738	80.009	19.995	103.256	15.570	315.242	0.499
817.500	483.008	80.008	19.994	103.273	15.702	306.029	0.525
818.000	483.233	80.010	19.995	103.292	15.832	296.982	0.516
818.500	483.455	80.009	19.995	103.322	15.963	287.925	0.471
819.000	483.742	80.009	19.994	103.339	16.096	278.664	0.478
819.500	483.971	80.009	19.994	103.360	16.229	269.466	0.512
820.000	484.211	80.009	19.993	103.383	16.356	260.608	0.492
820.500	484.484	80.009	19.995	103.404	16.486	251.558	0.491
821.000	484.711	80.010	19.996	103.423	16.613	242.691	0.507
821.500	484.965	80.008	19.995	103.444	16.741	233.805	0.491
822.000	485.226	80.011	19.996	103.467	16.867	225.037	0.498
822.501	485.505	80.009	19.995	103.491	16.990	216.465	0.528
823.001	485.740	80.010	19.996	103.519	17.106	208.350	0.527
823.500	486.021	80.010	19.994	103.545	17.227	199.915	0.515
824.000	486.262	80.010	19.995	103.573	17.340	192.021	0.519
824.500	486.538	80.011	19.993	103.602	17.452	184.217	0.520
825.000	486.799	80.011	19.995	103.627	17.559	176.779	0.527
825.500	487.082	80.011	19.994	103.652	17.666	169.281	0.540
826.000	487.322	80.010	19.993	103.679	17.773	161.825	0.533
826.500	487.569	80.010	19.994	103.703	17.870	155.021	0.505
827.000	487.851	80.010	19.994	103.723	17.973	147.835	0.508
827.500	488.105	80.010	19.994	103.745	18.069	141.162	0.532
828.000	488.382	80.010	19.996	103.763	18.161	134.684	0.533
828.500	488.600	80.011	19.994	103.777	18.250	128.507	0.513
829.000	488.863	80.010	19.995	103.793	18.340	122.231	0.488
829.500	489.135	80.011	19.995	103.812	18.422	116.490	0.508
830.000	489.407	80.008	19.995	103.829	18.504	110.759	0.539
830.500	489.664	80.009	19.995	103.845	18.576	105.688	0.536
831.000	489.931	80.008	19.995	103.858	18.657	100.052	0.527
831.500	490.161	80.011	19.995	103.873	18.728	95.058	0.511
832.000	490.424	80.009	19.995	103.882	18.801	89.941	0.494
832.500	490.683	80.007	19.994	103.892	18.869	85.195	0.507
833.000	490.959	80.007	19.995	103.901	18.932	80.776	0.529
833.500	491.226	80.008	19.996	103.913	18.994	76.451	0.539
834.000	491.496	80.009	19.994	103.922	19.051	72.451	0.540
834.500	491.766	80.006	19.995	103.930	19.108	68.462	0.539
835.000	491.989	80.007	19.995	103.942	19.164	64.556	0.517
835.500	492.287	80.006	19.996	103.952	19.216	60.906	0.507
836.000	492.558	80.007	19.995	103.955	19.264	57.590	0.545
836.500	492.813	80.006	19.996	103.958	19.313	54.187	0.548
837.000	493.043	80.008	19.995	103.963	19.349	51.641	0.506
837.500	493.319	80.008	19.995	103.965	19.396	48.336	0.495
838.000	493.525	80.008	19.996	103.966	19.434	45.712	0.494
838.500	493.821	80.007	19.995	103.974	19.475	42.828	0.492
839.000	494.069	80.006	19.996	103.978	19.504	40.822	0.523
839.500	494.308	80.007	19.995	103.981	19.543	38.089	0.515
840.000	494.613	80.008	19.997	103.981	19.571	36.109	0.516
840.500	494.838	80.008	19.996	103.984	19.603	33.891	0.537
841.001	495.147	80.009	19.995	103.983	19.629	32.028	0.532
841.501	495.399	80.007	19.996	103.982	19.656	30.170	0.547
842.000	495.631	80.007	19.995	103.982	19.683	28.256	0.522
842.500	495.899	80.008	19.996	103.982	19.705	26.759	0.492
843.000	496.129	80.008	19.996	103.981	19.731	24.961	0.499
843.500	496.402	80.007	19.995	103.977	19.752	23.428	0.501
844.000	496.673	80.006	19.995	103.973	19.772	22.052	0.524
844.500	496.896	80.006	19.993	103.970	19.792	20.676	0.519
845.000	497.162	80.007	19.994	103.968	19.806	19.705	0.491
845.500	497.433	80.008	19.995	103.964	19.828	18.135	0.513
846.000	497.674	80.008	19.995	103.960	19.841	17.272	0.525
846.500	497.936	80.008	19.995	103.958	19.859	16.014	0.508
847.000	498.177	80.007	19.996	103.954	19.872	15.093	0.503
847.500	498.457	80.007	19.995	103.949	19.886	14.068	0.512
848.000	498.714	80.010	19.994	103.947	19.901	13.021	0.529
848.500	498.973	80.008	19.994	103.941	19.915	12.095	0.527
849.000	499.226	80.008	19.995	103.938	19.921	11.648	0.514
849.500	499.510	80.008	19.994	103.931	19.929	11.067	0.524
850.000	499.743	80.007	19.994	103.926	19.945	9.994	0.527
850.500	500.025	80.008	19.995	103.919	19.954	9.312	0.516
851.000	500.282	80.007	19.995	103.916	19.960	8.900	0.527
851.500	500.497	80.007	19.993	103.912	19.969	8.272	0.506
852.000	500.803	80.008	19.994	103.912	19.977	7.744	0.496
852.500	501.030	80.008	19.994	103.911	19.984	7.247	0.527
853.000	501.310	80.007	19.993	103.910	19.991	6.716	0.520
853.500	501.547	80.007	19.993	103.911	19.999	6.204	0.512
854.000	501.790	80.007	19.994	103.912	20.004	5.869	0.498
854.500	502.066	80.008	19.995	103.912	20.011	5.362	0.499
855.000	502.299	80.008	19.995	103.912	20.013	5.179	0.514
855.500	502.578	80.008	19.994	103.916	20.022	4.575	0.511
856.000	502.828	80.008	19.995	103.916	20.024	4.431	0.520
856.500	503.101	80.008	19.993	103.914	20.028	4.168	0.526
857.000	503.311	80.009	19.994	103.907	20.031	3.973	0.503
857.500	503.560	80.007	19.994	103.899	20.036	3.609	0.471
858.000	503.873	80.009	19.993	103.890	20.038	3.492	0.511
858.500	504.100	80.010	19.995	103.883	20.042	3.180	0.551
859.000	504.381	80.006	19.995	103.877	20.047	2.841	0.524
859.500	504.620	80.007	19.994	103.875	20.044	3.052	0.514
860.000	504.886	80.009	19.995	103.874	20.047	2.822	0.513
860.500	505.142	80.007	19.994	103.868	20.051	2.538	0.514
861.000	505.391	80.009	19.994	103.857	20.050	2.617	0.513
861.500	505.692	80.009	19.993	103.842	20.056	2.233	0.527
862.000	505.952	80.009	19.995	103.827	20.060	1.918	0.555
862.500	506.196	80.009	19.994	103.807	20.059	1.995	0.532
863.000	506.461	80.008	19.994	103.786	20.059	2.032	0.507
863.500	506.662	80.008	19.993	103.770	20.062	1.787	0.488
864.000	506.968	80.006	19.994	103.754	20.059	1.980	0.487
864.500	507.220	80.008	19.994	103.736	20.065	1.588	0.533
865.000	507.498	80.008	19.994	103.722	20.063	1.759	0.544
865.500	507.714	80.008	19.994	103.708	20.062	1.778	0.512
866.000	508.016	80.007	19.994	103.700	20.064	1.684	0.506
866.500	508.286	80.008	19.994	103.699	20.062	1.811	0.545
867.000	508.547	80.007	19.994	103.701	20.063	1.703	0.552
867.500	508.821	80.007	19.994	103.708	20.066	1.521	0.533
868.000	509.075	80.007	19.994	103.726	20.066	1.540	0.531
868.500	509.373	80.008	19.995	103.738	20.065	1.594	0.540
869.000	509.612	80.006	19.994	103.754	20.065	1.573	0.545
869.500	509.884	80.009	19.994	103.770	20.069	1.298	0.524
870.000	510.158	80.007	19.994	103.789	20.068	1.369	0.528
870.500	510.421	80.007	19.995	103.802	20.071	1.158	0.541
871.000	510.688	80.007	19.995	103.816	20.067	1.423	0.534
871.500	510.974	80.007	19.995	103.826	20.069	1.304	0.542
872.001	511.230	80.004	19.995	103.838	20.067	1.421	0.548
872.500	511.520	80.006	19.995	103.841	20.069	1.325	0.544
873.000	511.789	80.006	19.994	103.848	20.068	1.410	0.552
873.500	512.036	80.006	19.995	103.857	20.068	1.398	0.537
874.000	512.359	80.009	19.995	103.863	20.069	1.292	0.543
874.500	512.596	80.007	19.995	103.866	20.068	1.352	0.565
875.000	512.827	80.008	19.994	103.873	20.070	1.223	0.514
875.500	513.118	80.009	19.995	103.875	20.070	1.217	0.495
876.000	513.408	80.008	19.994	103.874	20.066	1.492	0.552
876.500	513.709	80.008	19.995	103.877	20.073	1.044	0.586
877.000	513.920	80.009	19.995	103.880	20.073	1.054	0.551
877.500	514.224	80.008	19.994	103.882	20.067	1.479	0.513
878.000	514.481	80.008	19.994	103.887	20.074	0.954	0.538
878.500	514.789	80.007	19.995	103.893	20.070	1.254	0.563
879.000	515.035	80.008	19.993	103.899	20.072	1.117	0.560
879.501	515.329	80.009	19.995	103.904	20.072	1.114	0.547
880.001	515.585	80.007	19.993	103.909	20.070	1.218	0.545
880.501	515.863	80.009	19.996	103.912	20.073	1.041	0.542
881.001	516.124	80.008	19.996	103.912	20.072	1.085	0.537
881.500	516.398	80.009	19.995	103.911	20.075	0.862	0.537
882.000	516.679	80.008	19.996	103.912	20.071	1.152	0.545
882.500	516.889	80.010	19.995	103.912	20.073	1.066	0.523
883.000	517.200	80.010	19.995	103.915	20.071	1.181	0.506
883.500	517.453	80.009	19.995	103.922	20.075	0.879	0.542
884.000	517.759	80.009	19.995	103.925	20.073	1.042	0.561
884.500	518.013	80.010	19.994	103.926	20.075	0.887	0.559
885.000	518.297	80.010	19.994	103.930	20.073	1.065	0.549
885.500	518.574	80.010	19.994	103.927	20.074	0.927	0.550
886.000	518.826	80.010	19.994	103.922	20.080	0.554	0.545
886.500	519.093	80.010	19.994	103.925	20.079	0.644	0.524
887.000	519.361	80.010	19.994	103.928	20.078	0.713	0.527
887.500	519.632	80.011	19.995	103.929	20.076	0.850	0.537
888.000	519.921	80.010	19.994	103.931	20.075	0.858	0.549
888.500	520.197	80.010	19.995	103.934	20.078	0.681	0.563
889.000	520.473	80.011	19.994	103.935	20.081	0.483	0.559
889.500	520.703	80.009	19.994	103.937	20.077	0.740	0.529
890.000	520.991	80.008	19.994	103.937	20.080	0.508	0.512
890.500	521.272	80.011	19.994	103.942	20.077	0.769	0.544
891.000	521.567	80.009	19.995	103.941	20.077	0.746	0.573
891.500	521.792	80.010	19.994	103.935	20.078	0.708	0.548
892.000	522.073	80.009	19.994	103.934	20.076	0.831	0.513
892.500	522.331	80.009	19.993	103.935	20.079	0.608	0.522
893.000	522.609	80.009	19.993	103.934	20.073	1.023	0.538
893.500	522.886	80.008	19.993	103.935	20.074	0.989	0.546
894.000	523.163	80.010	19.994	103.935	20.075	0.867	0.554
894.500	523.444	80.009	19.993	103.934	20.074	0.942	0.556
895.000	523.726	80.008	19.994	103.929	20.078	0.650	0.561
895.500	524.019	80.009	19.995	103.923	20.079	0.631	0.569
896.000	524.281	80.009	19.993	103.918	20.075	0.911	0.565
896.500	524.546	80.010	19.994	103.918	20.076	0.844	0.541
897.000	524.818	80.009	19.993	103.914	20.076	0.846	0.532
897.500	525.087	80.009	19.994	103.918	20.080	0.567	0.539
898.000	525.352	80.010	19.994	103.924	20.077	0.777	0.537
898.500	525.636	80.009	19.995	103.931	20.081	0.471	0.541
899.000	525.908	80.008	19.994	103.936	20.081	0.506	0.553
899.500	526.205	80.009	19.995	103.942	20.077	0.775	0.563
900.000	526.500	80.009	19.995	103.941	20.081	0.465	0.580
900.500	526.771	80.009	19.995	103.936	20.079	0.642	0.579
901.000	527.011	80.009	19.995	103.929	20.083	0.340	0.538
901.500	527.256	80.010	19.995	103.923	20.076	0.806	0.498
902.000	527.579	80.008	19.994	103.917	20.082	0.400	0.527
902.500	527.822	80.009	19.994	103.917	20.080	0.517	0.567
903.000	528.137	80.010	19.994	103.923	20.082	0.392	0.562
903.500	528.374	80.010	19.994	103.928	20.081	0.490	0.555
904.000	528.679	80.013	19.995	103.932	20.080	0.527	0.547
904.500	528.905	80.010	19.994	103.937	20.081	0.452	0.536
905.000	529.173	80.010	19.995	103.936	20.080	0.515	0.513
905.500	529.463	80.010	19.994	103.932	20.080	0.536	0.526
906.000	529.730	80.010	19.993	103.930	20.079	0.615	0.558
906.500	530.007	80.010	19.995	103.924	20.080	0.540	0.550
907.000	530.253	80.010	19.994	103.918	20.078	0.686	0.533
907.500	530.540	80.010	19.993	103.913	20.081	0.481	0.528
908.000	530.842	80.010	19.994	103.909	20.078	0.652	0.561
908.500	531.106	80.011	19.995	103.907	20.083	0.298	0.578
909.000	531.349	80.011	19.994	103.907	20.080	0.573	0.537
909.500	531.662	80.011	19.994	103.907	20.081	0.494	0.531
910.000	531.923	80.011	19.994	103.906	20.083	0.310	0.564
910.500	532.157	80.010	19.994	103.906	20.081	0.498	0.534
911.000	532.434	80.012	19.994	103.905	20.081	0.473	0.503
911.500	532.704	80.011	19.994	103.904	20.086	0.156	0.529
912.000	532.994	80.011	19.994	103.904	20.088	0.000	0.554
912.500	533.248	80.011	19.994	103.904	20.083	0.356	0.552
913.000	533.544	80.011	19.994	103.905	20.083	0.331	0.547
913.500	533.797	80.011	19.995	103.905	20.080	0.519	0.549
914.000	534.066	80.011	19.994	103.905	20.080	0.531	0.536
914.500	534.370	80.011	19.994	103.906	20.078	0.692	0.547
915.000	534.641	80.011	19.994	103.906	20.084	0.265	0.574
915.500	534.909	80.009	19.994	103.906	20.083	0.321	0.557
916.000	535.164	80.009	19.995	103.906	20.082	0.402	0.531
916.500	535.474	80.010	19.994	103.906	20.078	0.711	0.544
917.000	535.745	80.008	19.995	103.906	20.082	0.398	0.573
917.500	535.999	80.008	19.994	103.906	20.083	0.354	0.553
918.000	536.261	80.008	19.994	103.904	20.085	0.185	0.521
918.500	536.511	80.008	19.995	103.903	20.082	0.410	0.513
919.000	536.808	80.007	19.994	103.900	20.082	0.406	0.529
919.500	537.048	80.008	19.994	103.900	20.083	0.360	0.542
920.000	537.315	80.007	19.994	103.900	20.085	0.227	0.522
920.500	537.616	80.007	19.994	103.902	20.081	0.490	0.537
921.000	537.876	80.007	19.994	103.901	20.085	0.210	0.564
921.500	538.120	80.008	19.995	103.899	20.082	0.400	0.532
922.000	538.432	80.007	19.995	103.899	20.084	0.262	0.530
922.500	538.683	80.009	19.995	103.900	20.083	0.352	0.559
923.000	538.895	80.006	19.994	103.901	20.082	0.392	0.513
923.500	539.220	80.006	19.994	103.903	20.081	0.454	0.500
924.000	539.499	80.006	19.995	103.908	20.083	0.302	0.570
924.500	539.749	80.008	19.993	103.908	20.086	0.142	0.566
925.000	540.027	80.006	19.995	103.908	20.079	0.579	0.529
925.500	540.326	80.006	19.994	103.907	20.085	0.217	0.553
926.000	540.560	80.006	19.995	103.907	20.081	0.485	0.555
926.500	540.837	80.007	19.995	103.908	20.085	0.219	0.522
927.000	541.086	80.007	19.995	103.912	20.077	0.731	0.519
927.500	541.382	80.005	19.994	103.916	20.084	0.262	0.536
928.000	541.608	80.006	19.994	103.916	20.082	0.369	0.533
928.500	541.904	80.007	19.995	103.916	20.082	0.375	0.522
929.000	542.134	80.008	19.995	103.915	20.083	0.321	0.524
929.500	542.435	80.006	19.995	103.913	20.084	0.258	0.528
930.000	542.658	80.006	19.995	103.911	20.082	0.388	0.527
930.500	542.965	80.007	19.995	103.912	20.087	0.069	0.527
931.000	543.214	80.006	19.995	103.915	20.080	0.540	0.543
931.500	543.462	80.007	19.994	103.916	20.081	0.446	0.527
932.000	543.761	80.009	19.997	103.918	20.086	0.129	0.522
932.500	544.018	80.007	19.996	103.917	20.085	0.215	0.552
933.000	544.247	80.008	19.995	103.917	20.083	0.362	0.521
933.500	544.548	80.007	19.996	103.914	20.084	0.296	0.508
934.000	544.796	80.007	19.996	103.915	20.084	0.292	0.540
934.501	545.073	80.008	19.995	103.915	20.083	0.312	0.537
935.000	545.315	80.005	19.995	103.916	20.084	0.256	0.522
935.500	545.596	80.008	19.996	103.916	20.080	0.519	0.521
936.000	545.879	80.009	19.996	103.916	20.086	0.092	0.543
936.500	546.132	80.005	19.995	103.915	20.086	0.100	0.549
937.000	546.390	80.010	19.995	103.914	20.087	0.019	0.523
937.500	546.668	80.007	19.995	103.915	20.085	0.183	0.524
938.000	546.936	80.006	19.995	103.916	20.085	0.169	0.541
938.500	547.229	80.009	19.995	103.922	20.087	0.062	0.554
939.000	547.467	80.005	19.995	103.924	20.086	0.125	0.546
939.500	547.761	80.007	19.994	103.923	20.084	0.275	0.532
940.000	547.970	80.006	19.993	103.922	20.085	0.188	0.517
940.500	548.281	80.008	19.995	103.926	20.079	0.587	0.512
941.000	548.544	80.007	19.995	103.928	20.082	0.392	0.547
941.500	548.776	80.007	19.996	103.927	20.079	0.642	0.534
942.000	549.059	80.008	19.995	103.930	20.085	0.169	0.505
942.500	549.302	80.007	19.995	103.929	20.085	0.227	0.521
943.000	549.572	80.007	19.995	103.925	20.086	0.156	0.520
943.500	549.824	80.008	19.995	103.918	20.084	0.229	0.518
944.000	550.145	80.007	19.994	103.920	20.085	0.215	0.547
944.500	550.419	80.007	19.996	103.924	20.093	-0.352	0.584
945.000	550.707	80.008	19.994	103.931	20.086	0.090	0.578
945.500	550.903	80.005	19.995	103.938	20.084	0.260	0.523
946.000	551.178	80.010	19.994	103.945	20.081	0.502	0.478
946.500	551.425	80.007	19.994	103.945	20.085	0.181	0.497
947.000	551.695	80.007	19.994	103.939	20.081	0.471	0.520
947.500	551.965	80.008	19.995	103.934	20.080	0.508	0.528
948.000	552.262	80.007	19.994	103.934	20.086	0.108	0.553
948.500	552.529	80.008	19.994	103.935	20.085	0.158	0.566
949.000	552.807	80.009	19.995	103.933	20.081	0.463	0.554
949.500	553.028	80.007	19.995	103.933	20.083	0.356	0.522
950.000	553.322	80.007	19.995	103.933	20.083	0.340	0.507
950.500	553.615	80.007	19.995	103.928	20.081	0.465	0.551
951.000	553.850	80.008	19.995	103.925	20.083	0.342	0.557
951.500	554.127	80.008	19.994	103.924	20.085	0.227	0.520
952.000	554.371	80.007	19.994	103.925	20.083	0.313	0.517
952.500	554.641	80.006	19.994	103.925	20.085	0.165	0.518
953.000	554.946	80.008	19.995	103.924	20.083	0.325	0.545
953.500	555.187	80.008	19.995	103.921	20.081	0.448	0.560
954.000	555.431	80.008	19.994	103.919	20.087	0.042	0.515
954.500	555.707	80.007	19.994	103.917	20.084	0.294	0.503
955.000	555.928	80.007	19.994	103.914	20.088	-0.029	0.509
955.500	556.195	80.007	19.994	103.913	20.082	0.388	0.493
956.000	556.523	80.008	19.994	103.914	20.084	0.275	0.542
956.500	556.756	80.008	19.995	103.915	20.086	0.142	0.578
957.000	557.030	80.010	19.993	103.916	20.085	0.175	0.534
957.500	557.296	80.008	19.994	103.918	20.081	0.446	0.523
958.000	557.577	80.007	19.994	103.915	20.085	0.217	0.543
958.500	557.823	80.008	19.994	103.914	20.089	-0.060	0.537
959.000	558.084	80.007	19.994	103.914	20.087	0.033	0.517
959.500	558.359	80.008	19.994	103.913	20.086	0.108	0.522
960.000	558.612	80.008	19.995	103.911	20.083	0.315	0.532
960.500	558.840	80.009	19.995	103.911	20.089	-0.069	0.504
961.000	559.166	80.009	19.995	103.911	20.084	0.231	0.517
961.500	559.407	80.009	19.994	103.910	20.084	0.229	0.560
962.000	559.624	80.007	19.994	103.912	20.082	0.396	0.513
962.500	559.905	80.008	19.995	103.913	20.087	0.063	0.478
963.000	560.151	80.008	19.993	103.913	20.084	0.246	0.513
963.500	560.391	80.008	19.994	103.911	20.083	0.317	0.506
964.000	560.665	80.008	19.993	103.911	20.087	0.083	0.500
964.500	560.927	80.008	19.995	103.908	20.086	0.142	0.525
965.000	561.208	80.009	19.994	103.914	20.086	0.119	0.539
965.500	561.470	80.009	19.994	103.915	20.088	-0.021	0.543
966.000	561.731	80.010	19.994	103.917	20.085	0.202	0.533
966.500	562.017	80.009	19.995	103.917	20.090	-0.181	0.535
967.000	562.223	80.009	19.995	103.918	20.084	0.250	0.519
967.500	562.499	80.010	19.996	103.914	20.088	0.008	0.487
968.000	562.788	80.009	19.995	103.914	20.087	0.050	0.523
968.500	563.044	80.009	19.994	103.915	20.088	-0.015	0.555
969.000	563.299	80.008	19.993	103.920	20.086	0.096	0.529
969.500	563.559	80.007	19.995	103.920	20.089	-0.063	0.513
970.000	563.753	80.010	19.996	103.920	20.087	0.025	0.485
970.500	564.026	80.010	19.996	103.924	20.090	-0.160	0.461
971.000	564.327	80.009	19.993	103.926	20.083	0.365	0.520
971.500	564.573	80.010	19.994	103.921	20.085	0.187	0.560
972.000	564.837	80.009	19.995	103.921	20.088	0.017	0.529
972.500	565.089	80.009	19.995	103.918	20.085	0.177	0.513
973.000	565.386	80.009	19.994	103.916	20.086	0.119	0.532
973.500	565.633	80.008	19.993	103.915	20.085	0.206	0.546
974.000	565.883	80.009	19.995	103.916	20.086	0.092	0.520
974.500	566.105	80.009	19.994	103.919	20.087	0.075	0.485
975.000	566.377	80.010	19.993	103.919	20.091	-0.250	0.483
975.500	566.603	80.009	19.993	103.915	20.085	0.200	0.496
976.000	566.863	80.009	19.994	103.912	20.083	0.306	0.492
976.500	567.152	80.009	19.995	103.910	20.089	-0.069	0.517
977.000	567.426	80.009	19.993	103.908	20.086	0.152	0.556
977.500	567.662	80.009	19.994	103.909	20.084	0.288	0.537
978.000	567.919	80.010	19.995	103.909	20.085	0.208	0.502
978.500	568.186	80.008	19.994	103.909	20.089	-0.092	0.509
979.000	568.436	80.009	19.994	103.909	20.087	0.033	0.521
979.500	568.689	80.010	19.994	103.909	20.087	0.029	0.510
980.000	568.961	80.009	19.993	103.910	20.086	0.088	0.514
980.500	569.214	80.009	19.995	103.912	20.088	-0.033	0.525
981.000	569.462	80.009	19.993	103.919	20.084	0.281	0.513
981.500	569.767	80.010	19.995	103.921	20.087	0.046	0.527
982.000	570.013	80.008	19.993	103.922	20.082	0.398	0.552
982.500	570.240	80.009	19.993	103.920	20.087	0.083	0.512
983.000	570.482	80.006	19.994	103.921	20.091	-0.208	0.471
983.500	570.718	80.008	19.994	103.914	20.088	-0.002	0.473
984.000	571.038	80.009	19.994	103.913	20.086	0.092	0.516
984.500	571.236	80.009	19.993	103.912	20.090	-0.140	0.537
985.000	571.503	80.009	19.994	103.915	20.090	-0.127	0.492
985.500	571.727	80.009	19.994	103.915	20.089	-0.104	0.478
986.000	572.008	80.009	19.994	103.917	20.085	0.188	0.498
986.500	572.272	80.009	19.993	103.916	20.082	0.410	0.525
987.000	572.516	80.010	19.993	103.916	20.093	-0.398	0.526
987.500	572.761	80.009	19.995	103.913	20.091	-0.237	0.499
988.000	573.033	80.011	19.994	103.913	20.089	-0.088	0.503
988.500	573.264	80.010	19.993	103.911	20.093	-0.338	0.510
989.000	573.539	80.010	19.994	103.912	20.086	0.113	0.504
989.500	573.829	80.010	19.994	103.912	20.088	-0.006	0.536
990.000	574.055	80.010	19.993	103.912	20.086	0.142	0.541
990.500	574.351	80.010	19.994	103.912	20.086	0.133	0.519
991.000	574.600	80.010	19.994	103.911	20.091	-0.194	0.533
991.500	574.848	80.010	19.993	103.910	20.090	-0.148	0.521
992.000	575.088	80.011	19.994	103.910	20.089	-0.102	0.492
992.500	575.367	80.010	19.994	103.910	20.089	-0.065	0.503
993.000	575.653	80.008	19.993	103.911	20.093	-0.344	0.542
993.500	575.853	80.008	19.993	103.910	20.085	0.173	0.526
994.000	576.132	80.010	19.993	103.908	20.092	-0.306	0.482
994.500	576.406	80.010	19.995	103.906	20.087	0.075	0.516
995.000	576.620	80.010	19.994	103.905	20.089	-0.069	0.521
995.500	576.841	80.011	19.996	103.904	20.093	-0.369	0.462
996.000	577.104	80.010	19.993	103.904	20.088	-0.035	0.459
996.500	577.378	80.008	19.992	103.906	20.088	0.015	0.510
997.000	577.613	80.009	19.994	103.909	20.088	0.000	0.523
997.500	577.848	80.009	19.994	103.910	20.088	0.002	0.489
998.000	578.137	80.008	19.995	103.910	20.089	-0.054	0.497
998.500	578.369	80.008	19.995	103.910	20.095	-0.477	0.522
999.000	578.621	80.007	19.995	103.910	20.085	0.158	0.503
999.500	578.918	80.009	19.995	103.906	20.088	-0.040	0.517
1000.000	579.149	80.006	19.992	103.905	20.090	-0.177	0.539
1000.500	579.386	80.007	19.995	103.906	20.087	0.023	0.498
1001.000	579.635	80.008	19.995	103.908	20.088	0.008	0.477
1001.500	579.875	80.008	19.998	103.915	20.089	-0.092	0.487
1002.000	580.154	80.008	19.998	103.918	20.089	-0.081	0.504
1002.500	580.397	80.007	19.996	103.921	20.089	-0.073	0.520
1003.000	580.682	80.007	19.995	103.920	20.091	-0.223	0.525
1003.500	580.916	80.006	19.996	103.919	20.088	-0.013	0.524
1004.000	581.178	80.006	19.995	103.912	20.087	0.058	0.508
1004.500	581.432	80.007	19.995	103.912	20.090	-0.131	0.506
1005.000	581.675	80.006	19.995	103.911	20.087	0.062	0.506
1005.500	581.967	80.007	19.994	103.910	20.084	0.283	0.516
1006.000	582.200	80.007	19.994	103.911	20.087	0.042	0.530
1006.500	582.478	80.008	19.995	103.911	20.086	0.108	0.518
1007.000	582.702	80.007	19.996	103.911	20.086	0.119	0.507
1007.500	582.970	80.007	19.994	103.911	20.085	0.198	0.497
1008.000	583.231	80.007	19.995	103.912	20.089	-0.094	0.510
1008.500	583.496	80.007	19.995	103.912	20.086	0.108	0.527
1009.000	583.751	80.007	19.994	103.912	20.081	0.456	0.523
1009.500	584.004	80.007	19.994	103.912	20.085	0.213	0.514
1010.000	584.294	80.006	19.993	103.912	20.086	0.156	0.525
1010.500	584.506	80.008	19.995	103.911	20.083	0.300	0.522
1011.000	584.782	80.008	19.994	103.911	20.085	0.188	0.495
1011.500	585.052	80.007	19.994	103.913	20.089	-0.083	0.517
1012.000	585.316	80.009	19.994	103.913	20.087	0.037	0.540
1012.500	585.591	80.008	19.996	103.917	20.087	0.052	0.537
1013.000	585.839	80.008	19.993	103.921	20.089	-0.110	0.531
1013.500	586.093	80.006	19.994	103.923	20.089	-0.081	0.512
1014.000	586.338	80.008	19.995	103.921	20.090	-0.131	0.500
1014.500	586.615	80.008	19.996	103.921	20.088	0.008	0.510
1015.000	586.909	80.008	19.994	103.917	20.089	-0.060	0.547
1015.500	587.150	80.008	19.994	103.912	20.087	0.073	0.553
1016.000	587.439	80.008	19.994	103.910	20.089	-0.056	0.532
1016.500	587.690	80.008	19.995	103.911	20.094	-0.446	0.535
1017.000	587.945	80.009	19.995	103.913	20.087	0.023	0.523
1017.500	588.212	80.009	19.996	103.913	20.089	-0.106	0.514
1018.000	588.487	80.009	19.995	103.913	20.093	-0.360	0.532
1018.500	588.712	80.009	19.995	103.912	20.091	-0.252	0.521
1019.000	588.988	80.008	19.994	103.910	20.097	-0.640	0.501
1019.500	589.292	80.008	19.995	103.907	20.089	-0.121	0.541
1020.000	589.546	80.008	19.993	103.905	20.086	0.123	0.569
1020.500	589.827	80.008	19.994	103.904	20.087	0.042	0.546
1021.000	590.090	80.009	19.995	103.904	20.091	-0.198	0.539
1021.500	590.341	80.008	19.994	103.905	20.089	-0.081	0.529
1022.000	590.615	80.008	19.994	103.905	20.095	-0.485	0.520
1022.500	590.890	80.008	19.994	103.906	20.086	0.100	0.537
1023.000	591.142	80.009	19.994	103.907	20.088	-0.019	0.538
1023.500	591.427	80.008	19.995	103.906	20.086	0.113	0.532
1024.000	591.675	80.007	19.994	103.905	20.089	-0.079	0.535
1024.500	591.941	80.006	19.995	103.905	20.094	-0.402	0.524
1025.000	592.180	80.007	19.994	103.906	20.091	-0.254	0.509
1025.500	592.473	80.008	19.996	103.909	20.087	0.046	0.519
1026.000	592.748	80.008	19.996	103.910	20.093	-0.379	0.550
1026.500	593.023	80.007	19.994	103.911	20.088	-0.048	0.559
1027.000	593.304	80.007	19.996	103.911	20.090	-0.140	0.553
1027.500	593.538	80.008	19.995	103.910	20.085	0.217	0.536
1028.000	593.843	80.006	19.994	103.909	20.093	-0.352	0.527
1028.500	594.096	80.007	19.995	103.908	20.091	-0.244	0.548
1029.001	594.344	80.007	19.997	103.907	20.090	-0.137	0.529
1029.501	594.654	80.007	19.995	103.908	20.090	-0.152	0.529
1030.001	594.929	80.008	19.996	103.907	20.093	-0.346	0.572
1030.501	595.202	80.007	19.996	103.906	20.087	0.031	0.566
1031.000	595.463	80.006	19.995	103.904	20.087	0.083	0.541
1031.500	595.714	80.006	19.996	103.903	20.084	0.250	0.524
1032.000	595.976	80.008	19.997	103.903	20.092	-0.286	0.513
1032.500	596.277	80.008	19.997	103.903	20.089	-0.117	0.537
1033.000	596.538	80.007	19.996	103.904	20.091	-0.223	0.562
1033.500	596.815	80.006	19.995	103.906	20.088	-0.040	0.550
1034.000	597.079	80.006	19.994	103.907	20.090	-0.173	0.540
1034.501	597.367	80.007	19.995	103.907	20.091	-0.217	0.547
1035.001	597.592	80.007	19.995	103.903	20.093	-0.383	0.532
1035.500	597.894	80.007	19.995	103.898	20.091	-0.213	0.520
1036.000	598.163	80.006	19.995	103.896	20.088	-0.008	0.549
1036.500	598.418	80.005	19.994	103.896	20.090	-0.190	0.547
1037.000	598.703	80.008	19.995	103.896	20.092	-0.304	0.532
1037.500	598.942	80.006	19.995	103.899	20.092	-0.277	0.532
1038.000	599.213	80.006	19.995	103.905	20.091	-0.208	0.517
1038.500	599.481	80.008	19.996	103.906	20.088	-0.044	0.524
1039.000	599.752	80.008	19.995	103.906	20.090	-0.177	0.539
1039.500	599.972	80.008	19.994	103.907	20.092	-0.315	0.515
1040.000	600.285	80.008	19.995	103.907	20.089	-0.069	0.512
1040.500	600.517	80.007	19.994	103.906	20.090	-0.148	0.539
1041.000	600.786	80.009	19.996	103.905	20.092	-0.329	0.523
1041.500	601.063	80.007	19.993	103.902	20.089	-0.119	0.523
1042.000	601.330	80.008	19.996	103.900	20.094	-0.452	0.545
1042.500	601.601	80.008	19.995	103.900	20.089	-0.077	0.541
1043.000	601.887	80.006	19.993	103.898	20.095	-0.473	0.548
1043.500	602.112	80.008	19.994	103.899	20.087	0.069	0.535
1044.000	602.409	80.007	19.993	103.902	20.099	-0.802	0.517
1044.500	602.627	80.010	19.993	103.903	20.091	-0.225	0.518
1045.000	602.932	80.007	19.993	103.901	20.093	-0.360	0.519
1045.500	603.114	80.009	19.993	103.900	20.091	-0.210	0.505
1046.000	603.412	80.009	19.994	103.900	20.090	-0.146	0.484
1046.500	603.633	80.009	19.994	103.901	20.095	-0.485	0.500
1047.000	603.950	80.009	19.994	103.901	20.092	-0.298	0.528
1047.500	604.186	80.010	19.994	103.904	20.089	-0.121	0.546
1048.000	604.442	80.010	19.994	103.907	20.094	-0.438	0.522
1048.500	604.727	80.009	19.994	103.907	20.088	0.013	0.516
1049.000	604.983	80.010	19.993	103.907	20.089	-0.110	0.541
1049.500	605.242	80.009	19.994	103.906	20.093	-0.348	0.528
1050.000	605.522	80.010	19.994	103.907	20.092	-0.300	0.527
1050.500	605.799	80.008	19.994	103.907	20.090	-0.177	0.548
1051.000	606.060	80.009	19.994	103.906	20.095	-0.504	0.547
1051.500	606.358	80.008	19.993	103.907	20.098	-0.687	0.549
1052.000	606.573	80.009	19.994	103.907	20.090	-0.144	0.536
1052.500	606.832	80.007	19.994	103.907	20.090	-0.188	0.493
1053.000	607.131	80.009	19.993	103.908	20.091	-0.242	0.515
1053.500	607.360	80.011	19.995	103.909	20.100	-0.827	0.543
1054.000	607.633	80.009	19.994	103.908	20.095	-0.481	0.515
1054.500	607.851	80.010	19.994	103.909	20.094	-0.440	0.497
1055.000	608.153	80.011	19.995	103.909	20.091	-0.202	0.506
1055.500	608.422	80.008	19.993	103.910	20.093	-0.369	0.546
1056.000	608.684	80.010	19.994	103.910	20.091	-0.246	0.551
1056.500	608.928	80.010	19.994	103.910	20.097	-0.627	0.519
1057.000	609.206	80.009	19.995	103.909	20.097	-0.631	0.514
1057.500	609.484	80.010	19.994	103.910	20.090	-0.173	0.539
1058.000	609.763	80.009	19.995	103.909	20.098	-0.702	0.557
1058.500	609.996	80.010	19.993	103.913	20.100	-0.852	0.535
1059.000	610.245	80.008	19.994	103.921	20.099	-0.786	0.496
1059.500	610.512	80.009	19.993	103.924	20.096	-0.544	0.499
1060.000	610.782	80.008	19.994	103.923	20.092	-0.329	0.527
1060.500	611.030	80.008	19.996	103.926	20.088	0.008	0.527
1061.000	611.288	80.007	19.994	103.931	20.094	-0.471	0.512
1061.500	611.582	80.007	19.994	103.926	20.094	-0.431	0.529
1062.000	611.885	80.007	19.995	103.922	20.087	0.027	0.574
1062.500	612.114	80.007	19.994	103.921	20.098	-0.731	0.564
1063.000	612.364	80.008	19.995	103.918	20.094	-0.467	0.506
1063.500	612.660	80.008	19.993	103.910	20.096	-0.606	0.513
1064.000	612.890	80.007	19.994	103.908	20.102	-1.002	0.537
1064.500	613.177	80.008	19.993	103.910	20.099	-0.783	0.521
1065.000	613.407	80.009	19.994	103.910	20.091	-0.202	0.517
1065.500	613.641	80.011	19.995	103.911	20.091	-0.223	0.491
1066.000	613.909	80.009	19.994	103.911	20.097	-0.627	0.483
1066.500	614.197	80.008	19.994	103.910	20.100	-0.887	0.529
1067.000	614.480	80.008	19.994	103.910	20.103	-1.061	0.564
1067.500	614.750	80.010	19.994	103.911	20.094	-0.412	0.562
1068.000	615.007	80.008	19.993	103.911	20.093	-0.371	0.540
1068.500	615.279	80.008	19.993	103.911	20.097	-0.663	0.528
1069.000	615.555	80.009	19.993	103.911	20.094	-0.463	0.538
1069.500	615.801	80.009	19.994	103.911	20.098	-0.683	0.535
1070.000	616.086	80.009	19.994	103.911	20.094	-0.465	0.526
1070.500	616.318	80.010	19.994	103.911	20.091	-0.252	0.524
1071.000	616.562	80.010	19.994	103.911	20.095	-0.533	0.497
1071.500	616.793	80.009	19.993	103.912	20.093	-0.337	0.476
1072.000	617.122	80.011	19.995	103.912	20.091	-0.225	0.518
1072.500	617.372	80.010	19.994	103.912	20.090	-0.187	0.570
1073.000	617.630	80.011	19.994	103.912	20.091	-0.244	0.544
1073.500	617.909	80.009	19.994	103.912	20.091	-0.254	0.522
1074.000	618.158	80.007	19.993	103.910	20.099	-0.779	0.532
1074.500	618.382	80.008	19.991	103.910	20.093	-0.373	0.501
1075.000	618.687	80.010	19.993	103.911	20.098	-0.686	0.501
1075.500	618.948	80.010	19.993	103.914	20.089	-0.060	0.547
1076.000	619.176	80.010	19.993	103.919	20.095	-0.523	0.527
1076.500	619.454	80.009	19.994	103.920	20.098	-0.725	0.497
1077.000	619.714	80.010	19.994	103.921	20.098	-0.735	0.522
1077.500	619.966	80.009	19.993	103.921	20.092	-0.294	0.525
1078.000	620.238	80.008	19.993	103.919	20.097	-0.669	0.518
1078.500	620.493	80.008	19.994	103.915	20.092	-0.331	0.525
1079.000	620.714	80.011	19.994	103.915	20.088	-0.017	0.502
1079.500	620.995	80.009	19.992	103.914	20.090	-0.138	0.490
1080.000	621.204	80.009	19.994	103.913	20.097	-0.619	0.496
1080.500	621.459	80.011	19.995	103.912	20.088	-0.023	0.477
1081.000	621.712	80.010	19.995	103.911	20.091	-0.210	0.485
1081.500	621.965	80.009	19.993	103.911	20.084	0.250	0.507
1082.000	622.184	80.009	19.994	103.911	20.092	-0.290	0.489
1082.500	622.479	80.009	19.995	103.911	20.092	-0.311	0.493
1083.000	622.701	80.008	19.994	103.911	20.098	-0.711	0.515
1083.500	622.970	80.008	19.994	103.911	20.099	-0.752	0.504
1084.000	623.170	80.010	19.995	103.910	20.096	-0.571	0.480
1084.500	623.420	80.006	19.995	103.910	20.096	-0.571	0.459
1085.000	623.690	80.010	19.995	103.911	20.094	-0.435	0.485
1085.500	623.913	80.007	19.993	103.911	20.090	-0.185	0.507
1086.000	624.175	80.007	19.995	103.910	20.092	-0.310	0.489
1086.501	624.402	80.007	19.993	103.910	20.091	-0.244	0.487
1087.000	624.660	80.006	19.993	103.909	20.087	0.063	0.486
1087.500	624.893	80.008	19.994	103.908	20.090	-0.129	0.488
1088.000	625.131	80.008	19.995	103.908	20.094	-0.421	0.481
1088.500	625.352	80.008	19.994	103.909	20.094	-0.404	0.465
1089.000	625.616	80.008	19.995	103.909	20.090	-0.135	0.472
1089.500	625.849	80.007	19.994	103.909	20.095	-0.519	0.491
1090.000	626.091	80.008	19.994	103.909	20.095	-0.481	0.486
1090.500	626.352	80.007	19.994	103.908	20.100	-0.863	0.489
1091.000	626.531	80.008	19.995	103.908	20.099	-0.804	0.472
1091.500	626.796	80.007	19.994	103.908	20.089	-0.092	0.442
1092.000	627.018	80.006	19.995	103.908	20.094	-0.469	0.466
1092.500	627.249	80.007	19.995	103.908	20.092	-0.288	0.470
1093.000	627.498	80.008	19.993	103.910	20.099	-0.792	0.466
1093.501	627.711	80.007	19.994	103.909	20.093	-0.400	0.471
1094.000	627.981	80.009	19.995	103.908	20.098	-0.702	0.472
1094.500	628.208	80.006	19.993	103.908	20.096	-0.610	0.490
1095.000	628.439	80.008	19.996	103.907	20.095	-0.525	0.477
1095.500	628.686	80.007	19.994	103.907	20.091	-0.242	0.468
1096.000	628.937	80.007	19.995	103.907	20.089	-0.054	0.488
1096.501	629.152	80.007	19.995	103.909	20.094	-0.463	0.482
1097.001	629.424	80.008	19.995	103.910	20.095	-0.500	0.477
1097.500	629.641	80.008	19.995	103.910	20.100	-0.838	0.488
1098.001	629.859	80.007	19.996	103.910	20.099	-0.775	0.462
1098.500	630.079	80.008	19.995	103.910	20.093	-0.333	0.437
1099.000	630.298	80.008	19.995	103.909	20.100	-0.833	0.438
1099.500	630.524	80.007	19.994	103.908	20.096	-0.573	0.442
1100.000	630.774	80.009	19.997	103.908	20.099	-0.771	0.460
1100.500	630.991	80.009	19.997	103.909	20.101	-0.958	0.471
1101.000	631.238	80.007	19.997	103.909	20.099	-0.792	0.465
1101.500	631.455	80.009	19.997	103.912	20.100	-0.885	0.464
1102.000	631.719	80.008	19.995	103.915	20.099	-0.808	0.473
1102.500	631.948	80.008	19.996	103.918	20.100	-0.858	0.487
1103.000	632.186	80.009	19.995	103.917	20.099	-0.754	0.480
1103.500	632.400	80.009	19.995	103.916	20.099	-0.817	0.460
1104.000	632.626	80.009	19.995	103.915	20.097	-0.633	0.446
1104.500	632.857	80.008	19.996	103.913	20.094	-0.448	0.448
1105.000	633.073	80.009	19.994	103.911	20.096	-0.569	0.452
1105.500	633.305	80.008	19.995	103.912	20.101	-0.940	0.448
1106.000	633.536	80.010	19.996	103.913	20.095	-0.488	0.456
1106.500	633.788	80.009	19.995	103.911	20.105	-1.186	0.473
1107.000	634.021	80.008	19.995	103.910	20.097	-0.679	0.484
1107.500	634.269	80.009	19.995	103.910	20.098	-0.690	0.483
1108.000	634.506	80.007	19.994	103.910	20.094	-0.448	0.483
1108.501	634.716	80.008	19.994	103.909	20.096	-0.586	0.466
1109.000	634.989	80.008	19.994	103.909	20.102	-0.979	0.465
1109.500	635.207	80.008	19.995	103.910	20.101	-0.948	0.487
1110.000	635.436	80.008	19.993	103.910	20.098	-0.717	0.469
1110.500	635.698	80.009	19.993	103.910	20.100	-0.860	0.469
1111.000	635.876	80.009	19.995	103.913	20.094	-0.438	0.466
1111.500	636.142	80.009	19.996	103.913	20.098	-0.744	0.442
1112.000	636.398	80.009	19.996	103.913	20.098	-0.717	0.483
1112.500	636.625	80.007	19.994	103.912	20.105	-1.173	0.502
1113.000	636.856	80.009	19.996	103.913	20.098	-0.717	0.470
1113.500	637.088	80.007	19.996	103.910	20.104	-1.136	0.460
1114.000	637.317	80.008	19.995	103.911	20.097	-0.671	0.463
1114.500	637.584	80.009	19.995	103.911	20.099	-0.813	0.479
1115.000	637.775	80.007	19.995	103.911	20.100	-0.877	0.477
1115.500	638.044	80.006	19.994	103.911	20.100	-0.867	0.458
1116.000	638.254	80.008	19.996	103.911	20.099	-0.761	0.469
1116.500	638.525	80.006	19.996	103.910	20.095	-0.490	0.480
1117.000	638.702	80.008	19.996	103.911	20.101	-0.923	0.465
1117.500	638.975	80.007	19.994	103.911	20.100	-0.850	0.449
1118.000	639.190	80.006	19.994	103.911	20.099	-0.758	0.468
1118.500	639.425	80.006	19.995	103.912	20.102	-0.998	0.469
1119.000	639.624	80.007	19.995	103.912	20.096	-0.571	0.442
1119.500	639.888	80.007	19.995	103.913	20.104	-1.142	0.449
1120.000	640.102	80.006	19.993	103.912	20.099	-0.754	0.471
1120.500	640.330	80.007	19.997	103.911	20.096	-0.606	0.460
1121.000	640.580	80.007	19.995	103.912	20.097	-0.640	0.460
1121.500	640.827	80.007	19.997	103.920	20.101	-0.960	0.487
1122.000	641.042	80.007	19.997	103.923	20.101	-0.948	0.479
1122.500	641.300	80.007	19.995	103.927	20.099	-0.792	0.468
1123.000	641.514	80.007	19.996	103.930	20.100	-0.833	0.472
1123.500	641.733	80.008	19.996	103.929	20.101	-0.911	0.452
1124.000	641.975	80.006	19.994	103.922	20.103	-1.098	0.447
1124.500	642.217	80.008	19.996	103.917	20.100	-0.850	0.472
1125.000	642.428	80.007	19.995	103.914	20.101	-0.923	0.468
1125.500	642.692	80.008	19.995	103.910	20.101	-0.910	0.464
1126.001	642.931	80.007	19.995	103.911	20.094	-0.411	0.489
1126.501	643.153	80.007	19.996	103.910	20.097	-0.613	0.482
1127.000	643.404	80.006	19.995	103.910	20.096	-0.598	0.467
1127.500	643.599	80.008	19.996	103.910	20.097	-0.646	0.459
1128.000	643.853	80.007	19.996	103.911	20.101	-0.902	0.447
1128.500	644.042	80.007	19.996	103.912	20.099	-0.767	0.446
1129.000	644.293	80.008	19.995	103.912	20.102	-1.019	0.442
1129.500	644.536	80.007	19.996	103.911	20.104	-1.110	0.467
1130.000	644.725	80.007	19.995	103.910	20.097	-0.654	0.463
1130.500	645.015	80.009	19.995	103.912	20.093	-0.337	0.455
1131.000	645.209	80.009	19.997	103.914	20.100	-0.886	0.482
1131.500	645.472	80.007	19.994	103.915	20.094	-0.442	0.471
1132.000	645.710	80.009	19.996	103.916	20.099	-0.786	0.479
1132.500	645.947	80.008	19.994	103.918	20.092	-0.271	0.488
1133.000	646.192	80.008	19.995	103.916	20.093	-0.337	0.479
1133.500	646.447	80.008	19.996	103.914	20.096	-0.544	0.491
1134.000	646.669	80.009	19.995	103.913	20.093	-0.373	0.488
1134.500	646.878	80.008	19.995	103.912	20.099	-0.775	0.454
1135.000	647.106	80.009	19.994	103.911	20.097	-0.629	0.434
1135.500	647.344	80.010	19.995	103.910	20.095	-0.506	0.451
1136.000	647.604	80.009	19.994	103.910	20.099	-0.771	0.482
1136.500	647.814	80.009	19.994	103.910	20.100	-0.885	0.484
1137.000	648.050	80.008	19.995	103.911	20.096	-0.577	0.458
1137.500	648.334	80.010	19.995	103.911	20.095	-0.488	0.483
1138.000	648.578	80.010	19.994	103.912	20.102	-1.017	0.524
1138.500	648.805	80.007	19.994	103.913	20.099	-0.781	0.500
1139.000	649.033	80.008	19.994	103.915	20.098	-0.708	0.463
1139.500	649.305	80.008	19.993	103.914	20.094	-0.408	0.478
1140.000	649.575	80.008	19.993	103.916	20.097	-0.675	0.521
1140.500	649.754	80.008	19.993	103.915	20.097	-0.663	0.495
1141.000	650.012	80.008	19.994	103.914	20.095	-0.492	0.443
1141.500	650.227	80.009	19.994	103.914	20.096	-0.569	0.455
1142.000	650.519	80.009	19.994	103.915	20.097	-0.661	0.490
1142.500	650.767	80.008	19.994	103.915	20.097	-0.669	0.523
1143.000	651.001	80.008	19.994	103.915	20.101	-0.925	0.511
1143.500	651.235	80.009	19.994	103.915	20.096	-0.550	0.475
1144.000	651.504	80.009	19.993	103.914	20.098	-0.713	0.486
1144.500	651.742	80.008	19.994	103.913	20.094	-0.406	0.505
1145.000	651.997	80.008	19.993	103.913	20.100	-0.842	0.500
1145.500	652.221	80.008	19.994	103.913	20.097	-0.627	0.486
1146.000	652.456	80.008	19.993	103.915	20.099	-0.777	0.469
1146.500	652.707	80.009	19.993	103.918	20.097	-0.671	0.473
1147.000	652.953	80.009	19.994	103.919	20.100	-0.890	0.492
1147.500	653.190	80.009	19.993	103.919	20.103	-1.098	0.490
1148.000	653.469	80.009	19.994	103.919	20.099	-0.786	0.499
1148.500	653.683	80.008	19.994	103.917	20.100	-0.836	0.504
1149.000	653.923	80.009	19.995	103.913	20.095	-0.500	0.473
1149.500	654.205	80.009	19.994	103.913	20.092	-0.300	0.488
1150.000	654.464	80.009	19.996	103.915	20.102	-0.984	0.531
1150.501	654.681	80.009	19.994	103.916	20.099	-0.811	0.508
1151.000	654.964	80.009	19.995	103.916	20.097	-0.611	0.488
1151.500	655.212	80.008	19.993	103.916	20.107	-1.344	0.516
1152.000	655.478	80.010	19.994	103.915	20.096	-0.583	0.522
1152.501	655.728	80.010	19.994	103.914	20.098	-0.735	0.515
1153.001	655.962	80.009	19.994	103.915	20.097	-0.648	0.500
1153.500	656.231	80.010	19.994	103.915	20.094	-0.458	0.494
1154.000	656.480	80.010	19.994	103.914	20.098	-0.708	0.510
1154.500	656.712	80.009	19.994	103.914	20.097	-0.638	0.499
1155.000	657.017	80.011	19.994	103.911	20.098	-0.746	0.509
1155.500	657.173	80.011	19.994	103.908	20.098	-0.698	0.499
1156.000	657.495	80.010	19.994	103.909	20.098	-0.690	0.470
1156.500	657.695	80.010	19.994	103.912	20.103	-1.081	0.500
1157.000	657.968	80.010	19.995	103.917	20.095	-0.487	0.498
1157.500	658.216	80.010	19.994	103.919	20.095	-0.487	0.497
1158.000	658.460	80.010	19.993	103.920	20.099	-0.769	0.506
1158.500	658.695	80.008	19.994	103.919	20.099	-0.760	0.485
1159.000	658.960	80.011	19.993	103.915	20.095	-0.519	0.490
1159.500	659.217	80.010	19.995	103.910	20.100	-0.848	0.512
1160.000	659.474	80.011	19.995	103.908	20.101	-0.902	0.518
1160.500	659.746	80.010	19.994	103.907	20.095	-0.535	0.521
1161.000	659.977	80.010	19.994	103.910	20.097	-0.629	0.516
1161.500	660.237	80.009	19.994	103.910	20.098	-0.738	0.497
1162.001	660.473	80.010	19.994	103.911	20.101	-0.892	0.493
1162.501	660.700	80.010	19.995	103.913	20.102	-0.963	0.479
1163.000	660.963	80.010	19.994	103.914	20.100	-0.836	0.476
1163.500	661.246	80.009	19.993	103.911	20.095	-0.496	0.518
1164.000	661.458	80.010	19.994	103.911	20.095	-0.540	0.521
1164.500	661.737	80.008	19.993	103.910	20.101	-0.933	0.493
1165.000	661.979	80.010	19.996	103.910	20.099	-0.792	0.506
1165.500	662.219	80.009	19.995	103.915	20.096	-0.569	0.501
1166.001	662.468	80.009	19.994	103.919	20.101	-0.915	0.486
1166.500	662.737	80.008	19.994	103.920	20.096	-0.586	0.503
1167.000	662.975	80.008	19.995	103.922	20.098	-0.686	0.513
1167.500	663.203	80.007	19.993	103.922	20.099	-0.752	0.487
1168.000	663.499	80.008	19.995	103.917	20.101	-0.896	0.495
1168.500	663.730	80.009	19.994	103.916	20.102	-0.992	0.526
1169.000	663.976	80.010	19.994	103.917	20.099	-0.761	0.502
1169.500	664.241	80.009	19.994	103.915	20.101	-0.921	0.494
1170.001	664.504	80.008	19.992	103.914	20.097	-0.656	0.520
1170.500	664.697	80.010	19.996	103.913	20.098	-0.740	0.492
1171.000	664.969	80.008	19.994	103.911	20.098	-0.746	0.460
1171.500	665.248	80.008	19.994	103.909	20.101	-0.938	0.508
1172.000	665.494	80.008	19.995	103.908	20.101	-0.921	0.538
1172.500	665.718	80.008	19.994	103.908	20.103	-1.100	0.497
1173.000	665.989	80.008	19.994	103.909	20.100	-0.890	0.482
1173.500	666.229	80.009	19.995	103.908	20.099	-0.813	0.503
1174.000	666.502	80.009	19.995	103.909	20.097	-0.644	0.512
1174.500	666.753	80.010	19.993	103.912	20.100	-0.869	0.519
1175.000	666.952	80.009	19.994	103.912	20.098	-0.725	0.487
1175.500	667.243	80.009	19.994	103.913	20.099	-0.758	0.470
1176.000	667.471	80.009	19.995	103.914	20.098	-0.742	0.504
1176.500	667.726	80.009	19.994	103.915	20.103	-1.079	0.501
1177.000	667.940	80.010	19.995	103.913	20.095	-0.523	0.476
1177.501	668.261	80.009	19.993	103.913	20.100	-0.836	0.502
1178.000	668.472	80.010	19.993	103.911	20.098	-0.729	0.533
1178.500	668.738	80.008	19.994	103.910	20.102	-0.988	0.504
1179.000	668.995	80.010	19.994	103.909	20.099	-0.773	0.500
1179.500	669.251	80.009	19.994	103.909	20.101	-0.921	0.518
1180.000	669.495	80.008	19.994	103.909	20.095	-0.535	0.506
1180.500	669.746	80.008	19.994	103.914	20.098	-0.723	0.498
1181.000	669.985	80.008	19.995	103.915	20.097	-0.640	0.492
1181.500	670.244	80.010	19.995	103.914	20.101	-0.960	0.494
1182.000	670.443	80.007	19.993	103.915	20.099	-0.792	0.478
1182.500	670.731	80.009	19.995	103.914	20.100	-0.846	0.473
1183.000	670.986	80.009	19.994	103.911	20.100	-0.825	0.515
1183.500	671.244	80.009	19.995	103.911	20.098	-0.737	0.528
1184.000	671.471	80.008	19.994	103.911	20.100	-0.867	0.499
1184.500	671.730	80.008	19.995	103.912	20.098	-0.733	0.486
1185.000	672.010	80.009	19.994	103.915	20.099	-0.771	0.512
1185.500	672.247	80.008	19.995	103.914	20.101	-0.942	0.528
1186.000	672.505	80.007	19.993	103.915	20.098	-0.731	0.506
1186.500	672.720	80.009	19.994	103.915	20.102	-0.963	0.484
1187.000	672.955	80.009	19.994	103.914	20.101	-0.939	0.462
1187.500	673.200	80.008	19.994	103.911	20.100	-0.860	0.465
1188.000	673.460	80.009	19.995	103.912	20.099	-0.819	0.493
1188.500	673.720	80.007	19.995	103.912	20.102	-0.973	0.513
1189.000	673.956	80.009	19.994	103.912	20.099	-0.800	0.508
1189.500	674.197	80.007	19.994	103.913	20.097	-0.654	0.486
1190.000	674.490	80.007	19.994	103.913	20.105	-1.200	0.505
1190.500	674.709	80.008	19.994	103.913	20.099	-0.796	0.523
1191.000	674.942	80.008	19.994	103.913	20.101	-0.956	0.482
1191.500	675.201	80.009	19.995	103.912	20.100	-0.848	0.471
1192.000	675.478	80.009	19.994	103.913	20.102	-0.965	0.514
1192.500	675.759	80.009	19.995	103.912	20.098	-0.683	0.548
1193.000	675.992	80.008	19.994	103.915	20.096	-0.592	0.536
1193.500	676.261	80.008	19.995	103.917	20.102	-0.963	0.508
1194.000	676.506	80.008	19.994	103.919	20.097	-0.677	0.508
1194.500	676.770	80.009	19.994	103.919	20.101	-0.954	0.512
1195.000	677.026	80.009	19.995	103.923	20.100	-0.871	0.514
1195.500	677.279	80.009	19.995	103.921	20.101	-0.944	0.514
1196.000	677.514	80.007	19.995	103.924	20.105	-1.239	0.499
1196.500	677.794	80.009	19.995	103.922	20.104	-1.110	0.501
1197.000	678.053	80.008	19.995	103.923	20.103	-1.037	0.527
1197.500	678.319	80.008	19.995	103.925	20.102	-1.017	0.532
1198.000	678.594	80.010	19.996	103.930	20.099	-0.810	0.533
1198.500	678.820	80.008	19.994	103.925	20.100	-0.825	0.521
1199.000	679.085	80.006	19.995	103.925	20.099	-0.813	0.496
1199.500	679.351	80.009	19.996	103.925	20.100	-0.879	0.511
1200.000	679.631	80.008	19.994	103.919	20.096	-0.563	0.538
1200.500	679.935	80.008	19.994	103.915	20.098	-0.717	0.565
1201.000	680.140	80.007	19.995	103.915	20.096	-0.590	0.546
1201.500	680.434	80.007	19.996	103.917	20.099	-0.773	0.504
1202.000	680.680	80.008	19.994	103.920	20.099	-0.763	0.520
1202.500	680.953	80.007	19.995	103.919	20.094	-0.460	0.530
1203.000	681.188	80.007	19.994	103.918	20.099	-0.815	0.513
1203.500	681.489	80.007	19.994	103.920	20.101	-0.913	0.522
1204.000	681.732	80.008	19.995	103.922	20.097	-0.642	0.540
1204.500	681.920	80.006	19.995	103.926	20.100	-0.869	0.487
1205.000	682.282	80.006	19.995	103.929	20.097	-0.612	0.491
1205.500	682.517	80.008	19.995	103.930	20.099	-0.812	0.574
1206.000	682.793	80.007	19.994	103.931	20.099	-0.775	0.554
1206.500	683.051	80.007	19.995	103.930	20.100	-0.879	0.523
1207.000	683.310	80.007	19.994	103.927	20.100	-0.838	0.525
1207.500	683.601	80.008	19.994	103.928	20.099	-0.752	0.533
1208.000	683.879	80.008	19.995	103.927	20.100	-0.879	0.560
1208.500	684.132	80.008	19.995	103.926	20.105	-1.196	0.550
1209.001	684.402	80.008	19.994	103.923	20.100	-0.862	0.527
1209.500	684.673	80.008	19.995	103.925	20.098	-0.725	0.532
1210.000	684.973	80.008	19.995	103.922	20.099	-0.781	0.556
1210.500	685.234	80.008	19.996	103.922	20.100	-0.863	0.566
1211.000	685.489	80.009	19.995	103.921	20.102	-1.004	0.539
1211.500	685.787	80.009	19.995	103.927	20.100	-0.890	0.535
1212.000	685.998	80.009	19.994	103.926	20.099	-0.806	0.531
1212.500	686.256	80.009	19.994	103.925	20.100	-0.834	0.489
1213.000	686.561	80.009	19.996	103.925	20.101	-0.958	0.516
1213.500	686.810	80.010	19.994	103.925	20.106	-1.258	0.559
1214.000	687.069	80.010	19.996	103.920	20.101	-0.894	0.531
1214.501	687.358	80.009	19.995	103.919	20.103	-1.098	0.528
1215.001	687.618	80.009	19.995	103.921	20.101	-0.933	0.548
1215.500	687.908	80.010	19.995	103.923	20.097	-0.646	0.550
1216.000	688.170	80.009	19.995	103.925	20.102	-0.987	0.551
1216.500	688.443	80.009	19.994	103.929	20.104	-1.116	0.543
1217.000	688.707	80.009	19.995	103.927	20.100	-0.821	0.536
1217.500	688.993	80.010	19.996	103.925	20.101	-0.950	0.543
1218.000	689.234	80.009	19.995	103.924	20.099	-0.762	0.539
1218.500	689.527	80.009	19.996	103.924	20.103	-1.079	0.531
1219.000	689.775	80.008	19.996	103.922	20.102	-1.006	0.537
1219.500	690.098	80.007	19.994	103.924	20.099	-0.771	0.556
1220.000	690.329	80.008	19.995	103.923	20.102	-0.973	0.563
1220.500	690.625	80.009	19.995	103.927	20.100	-0.825	0.540
1221.000	690.885	80.009	19.996	103.930	20.103	-1.046	0.541
1221.500	691.154	80.009	19.995	103.926	20.102	-1.000	0.543
1222.000	691.437	80.008	19.995	103.921	20.099	-0.796	0.541
1222.501	691.723	80.008	19.997	103.920	20.099	-0.767	0.561
1223.001	691.986	80.009	19.995	103.913	20.098	-0.748	0.559
1223.500	692.258	80.008	19.995	103.907	20.101	-0.923	0.542
1224.000	692.517	80.007	19.996	103.908	20.101	-0.929	0.533
1224.500	692.805	80.008	19.994	103.907	20.102	-0.988	0.539
1225.000	693.069	80.011	19.995	103.908	20.104	-1.158	0.550
1225.500	693.354	80.025	19.999	103.910	20.102	-1.010	0.550
1226.000	693.627	80.025	20.002	103.918	20.100	-0.890	0.553
1226.500	693.899	80.028	20.002	103.925	20.100	-0.854	0.552
1227.000	694.157	80.026	20.000	103.933	20.103	-1.075	0.537
1227.500	694.441	80.028	19.999	103.937	20.107	-1.313	0.536
1228.000	694.707	80.021	19.998	103.940	20.101	-0.896	0.546
1228.500	694.986	80.016	19.997	103.938	20.103	-1.050	0.548
1229.000	695.229	80.011	19.996	103.930	20.097	-0.662	0.533
1229.500	695.511	80.010	19.996	103.922	20.106	-1.287	0.523
1230.000	695.795	80.009	19.996	103.919	20.106	-1.242	0.545
1230.500	696.070	80.009	19.995	103.920	20.104	-1.108	0.562
1231.000	696.320	80.009	19.996	103.922	20.102	-1.025	0.542
1231.500	696.589	80.009	19.996	103.926	20.107	-1.371	0.522
1232.000	696.844	80.011	19.996	103.933	20.106	-1.298	0.521
1232.500	697.158	80.009	19.995	103.937	20.106	-1.258	0.546
1233.000	697.452	80.009	19.995	103.933	20.103	-1.073	0.589
1233.500	697.699	80.009	19.995	103.927	20.100	-0.829	0.574
1234.000	697.943	80.010	19.994	103.925	20.101	-0.927	0.516
1234.500	698.189	80.010	19.993	103.927	20.102	-0.965	0.491
1235.000	698.482	80.011	19.995	103.927	20.101	-0.952	0.515
1235.500	698.754	80.010	19.994	103.926	20.103	-1.048	0.552
1236.000	699.007	80.010	19.993	103.924	20.101	-0.892	0.545
1236.500	699.294	80.009	19.993	103.921	20.103	-1.071	0.532
1237.000	699.546	80.011	19.994	103.913	20.100	-0.863	0.539
1237.500	699.830	80.011	19.995	103.908	20.100	-0.875	0.538
1238.000	700.116	80.010	19.993	103.910	20.101	-0.912	0.553
1238.500	700.348	80.010	19.995	103.914	20.102	-1.004	0.544
1239.000	700.654	80.010	19.994	103.917	20.106	-1.294	0.528
1239.500	700.935	80.010	19.994	103.920	20.104	-1.135	0.562
1240.000	701.177	80.009	19.992	103.920	20.101	-0.940	0.555
1240.500	701.414	80.010	19.994	103.922	20.103	-1.069	0.501
1241.000	701.731	80.011	19.994	103.925	20.104	-1.163	0.516
1241.500	701.987	80.011	19.997	103.924	20.103	-1.083	0.563
1242.000	702.299	80.010	19.995	103.926	20.104	-1.125	0.570
1242.500	702.547	80.009	19.996	103.933	20.106	-1.260	0.564
1243.000	702.798	80.011	19.994	103.931	20.101	-0.921	0.530
1243.500	703.036	80.009	19.995	103.931	20.105	-1.183	0.494
1244.000	703.346	80.010	19.994	103.931	20.103	-1.052	0.518
1244.500	703.597	80.010	19.995	103.930	20.100	-0.835	0.554
1245.000	703.865	80.010	19.994	103.927	20.103	-1.075	0.540
1245.500	704.115	80.008	19.994	103.924	20.100	-0.856	0.519
1246.000	704.378	80.010	19.994	103.920	20.103	-1.085	0.516
1246.500	704.685	80.009	19.995	103.919	20.104	-1.119	0.542
1247.000	704.944	80.009	19.994	103.916	20.106	-1.292	0.568
1247.500	705.171	80.008	19.993	103.912	20.103	-1.073	0.526
1248.000	705.449	80.007	19.995	103.914	20.101	-0.950	0.496
1248.500	705.718	80.007	19.994	103.918	20.102	-0.985	0.526
1249.000	705.990	80.008	19.994	103.925	20.099	-0.794	0.544
1249.500	706.224	80.008	19.994	103.929	20.102	-1.023	0.523
1250.000	706.495	80.007	19.995	103.930	20.105	-1.200	0.506
1250.500	706.783	80.008	19.995	103.928	20.101	-0.954	0.532
1251.000	707.033	80.007	19.994	103.926	20.105	-1.236	0.548
1251.500	707.291	80.007	19.994	103.919	20.103	-1.056	0.523
1252.000	707.546	80.008	19.994	103.916	20.107	-1.340	0.510
1252.500	707.829	80.008	19.995	103.915	20.104	-1.104	0.525
1253.000	708.045	80.007	19.995	103.916	20.104	-1.102	0.519
1253.500	708.329	80.006	19.994	103.914	20.104	-1.152	0.500
1254.000	708.622	80.007	19.995	103.914	20.102	-0.985	0.538
1254.500	708.846	80.007	19.994	103.913	20.103	-1.056	0.547
1255.000	709.169	80.009	19.995	103.913	20.104	-1.104	0.533
1255.500	709.390	80.007	19.994	103.912	20.107	-1.379	0.545
1256.000	709.653	80.007	19.995	103.910	20.105	-1.194	0.513
1256.500	709.922	80.007	19.994	103.911	20.106	-1.240	0.508
1257.000	710.178	80.008	19.993	103.914	20.107	-1.342	0.529
1257.501	710.445	80.008	19.995	103.916	20.106	-1.242	0.524
1258.000	710.714	80.009	19.994	103.917	20.104	-1.154	0.529
1258.500	710.974	80.008	19.994	103.919	20.102	-1.019	0.532
1259.000	711.232	80.008	19.994	103.919	20.103	-1.046	0.523
1259.500	711.508	80.008	19.994	103.915	20.104	-1.111	0.526
1260.000	711.747	80.009	19.994	103.912	20.103	-1.063	0.525
1260.500	712.019	80.009	19.995	103.912	20.102	-0.988	0.513
1261.000	712.283	80.008	19.994	103.911	20.102	-0.983	0.523
1261.500	712.523	80.009	19.994	103.911	20.104	-1.104	0.520
1262.000	712.816	80.007	19.994	103.913	20.103	-1.086	0.519
1262.500	713.044	80.009	19.995	103.916	20.101	-0.931	0.528
1263.000	713.336	80.007	19.994	103.917	20.103	-1.085	0.520
1263.500	713.566	80.009	19.993	103.918	20.103	-1.096	0.520
1264.000	713.825	80.007	19.994	103.918	20.103	-1.071	0.505
1264.500	714.092	80.008	19.994	103.916	20.105	-1.235	0.508
1265.000	714.380	80.007	19.995	103.913	20.100	-0.885	0.541
1265.500	714.623	80.007	19.993	103.911	20.102	-0.973	0.543
1266.000	714.898	80.008	19.995	103.910	20.101	-0.900	0.524
1266.500	715.168	80.008	19.994	103.911	20.104	-1.131	0.532
1267.000	715.471	80.007	19.994	103.911	20.106	-1.286	0.559
1267.500	715.730	80.007	19.994	103.914	20.102	-1.011	0.568
1268.000	715.958	80.009	19.994	103.915	20.101	-0.944	0.525
1268.500	716.249	80.008	19.994	103.914	20.102	-0.969	0.503
1269.000	716.505	80.007	19.994	103.915	20.103	-1.092	0.533
1269.500	716.756	80.007	19.994	103.915	20.103	-1.098	0.527
1270.000	717.040	80.008	19.994	103.914	20.103	-1.059	0.521
1270.500	717.263	80.008	19.994	103.914	20.101	-0.921	0.521
1271.000	717.525	80.008	19.993	103.915	20.105	-1.221	0.496
1271.500	717.778	80.007	19.994	103.914	20.105	-1.206	0.500
1272.001	718.095	80.008	19.994	103.915	20.103	-1.075	0.542
1272.500	718.286	80.008	19.994	103.916	20.101	-0.931	0.539
1273.000	718.559	80.008	19.994	103.916	20.106	-1.281	0.486
1273.500	718.796	80.008	19.995	103.916	20.101	-0.954	0.487
1274.000	719.072	80.009	19.994	103.915	20.107	-1.363	0.511
1274.500	719.349	80.008	19.994	103.914	20.103	-1.092	0.533
1275.000	719.508	80.005	19.994	103.912	20.102	-1.015	0.494
1275.500	719.835	80.006	19.993	103.914	20.103	-1.073	0.461
1276.000	720.098	80.008	19.993	103.914	20.103	-1.079	0.538
1276.500	720.314	80.006	19.993	103.917	20.103	-1.050	0.535
1277.000	720.533	80.007	19.994	103.917	20.102	-1.012	0.457
1277.500	720.813	80.007	19.994	103.918	20.104	-1.154	0.467
1278.000	721.088	80.008	19.994	103.916	20.105	-1.183	0.527
1278.500	721.353	80.007	19.994	103.916	20.106	-1.244	0.547
1279.000	721.586	80.006	19.994	103.913	20.108	-1.381	0.519
1279.500	721.837	80.007	19.995	103.912	20.100	-0.836	0.492
1280.000	722.095	80.007	19.994	103.911	20.103	-1.100	0.497
1280.500	722.357	80.008	19.994	103.911	20.102	-1.021	0.514
1281.000	722.612	80.007	19.994	103.911	20.104	-1.156	0.518
1281.500	722.859	80.007	19.995	103.912	20.102	-1.006	0.510
1282.000	723.095	80.005	19.995	103.912	20.106	-1.304	0.493
1282.500	723.373	80.006	19.994	103.914	20.105	-1.208	0.499
1283.000	723.619	80.006	19.994	103.913	20.104	-1.102	0.519
1283.500	723.882	80.007	19.994	103.913	20.106	-1.259	0.516
1284.000	724.135	80.007	19.995	103.911	20.106	-1.261	0.512
1284.500	724.366	80.006	19.995	103.910	20.107	-1.344	0.500
1285.000	724.605	80.007	19.995	103.908	20.099	-0.790	0.477
1285.500	724.851	80.006	19.993	103.908	20.103	-1.088	0.478
1286.000	725.122	80.006	19.995	103.909	20.104	-1.167	0.502
1286.500	725.365	80.007	19.995	103.913	20.103	-1.067	0.515
1287.000	725.620	80.006	19.994	103.919	20.103	-1.073	0.505
1287.500	725.891	80.006	19.995	103.924	20.105	-1.192	0.512
1288.000	726.172	80.006	19.995	103.925	20.106	-1.298	0.539
1288.500	726.385	80.007	19.996	103.925	20.103	-1.034	0.523
1289.000	726.634	80.006	19.995	103.921	20.103	-1.092	0.478
1289.500	726.870	80.007	19.994	103.916	20.106	-1.284	0.473
1290.000	727.164	80.008	19.995	103.911	20.104	-1.134	0.507
1290.500	727.388	80.006	19.995	103.911	20.110	-1.523	0.524
1291.000	727.594	80.007	19.995	103.916	20.108	-1.381	0.474
1291.500	727.908	80.008	19.995	103.916	20.105	-1.227	0.475
1292.000	728.143	80.008	19.995	103.915	20.103	-1.067	0.534
1292.500	728.409	80.009	19.995	103.915	20.106	-1.271	0.525
1293.000	728.640	80.008	19.995	103.914	20.106	-1.246	0.499
1293.500	728.830	80.009	19.994	103.911	20.104	-1.140	0.459
1294.000	729.172	80.009	19.995	103.911	20.106	-1.265	0.477
1294.500	729.379	80.008	19.995	103.911	20.105	-1.229	0.541
1295.000	729.642	80.009	19.995	103.911	20.105	-1.213	0.509
1295.500	729.846	80.009	19.994	103.909	20.100	-0.850	0.468
1296.000	730.125	80.008	19.995	103.907	20.107	-1.319	0.475
1296.500	730.371	80.008	19.995	103.907	20.103	-1.048	0.504
1297.000	730.589	80.008	19.994	103.907	20.106	-1.302	0.494
1297.500	730.888	80.008	19.996	103.907	20.106	-1.279	0.491
1298.000	731.110	80.009	19.995	103.908	20.104	-1.161	0.519
1298.500	731.328	80.008	19.995	103.908	20.109	-1.458	0.480
1299.000	731.622	80.010	19.996	103.908	20.104	-1.169	0.476
1299.500	731.812	80.009	19.995	103.908	20.103	-1.036	0.498
1300.000	732.083	80.007	19.993	103.908	20.103	-1.084	0.473
1300.500	732.297	80.008	19.995	103.908	20.107	-1.323	0.473
1301.000	732.576	80.009	19.996	103.908	20.104	-1.156	0.489
1301.500	732.811	80.008	19.995	103.908	20.103	-1.044	0.504
1302.000	733.090	80.008	19.995	103.911	20.106	-1.296	0.514
1302.500	733.332	80.009	19.995	103.912	20.108	-1.406	0.517
1303.000	733.554	80.011	19.995	103.914	20.102	-0.967	0.492
1303.500	733.811	80.008	19.995	103.914	20.108	-1.417	0.471
1304.000	734.037	80.008	19.995	103.914	20.109	-1.517	0.481
1304.500	734.301	80.009	19.996	103.911	20.105	-1.175	0.487
1305.000	734.539	80.008	19.994	103.910	20.104	-1.163	0.496
1305.500	734.736	80.008	19.995	103.907	20.102	-1.017	0.469
1306.000	735.011	80.007	19.995	103.907	20.104	-1.125	0.453
1306.500	735.275	80.008	19.995	103.907	20.103	-1.034	0.505
1307.000	735.516	80.008	19.995	103.908	20.107	-1.340	0.522
1307.500	735.768	80.007	19.995	103.908	20.102	-0.998	0.499
1308.000	735.956	80.008	19.995	103.908	20.101	-0.900	0.467
1308.500	736.213	80.007	19.995	103.909	20.102	-1.008	0.443
1309.000	736.455	80.008	19.995	103.909	20.103	-1.088	0.472
1309.500	736.695	80.007	19.995	103.909	20.103	-1.081	0.491
1310.000	736.918	80.007	19.995	103.909	20.107	-1.356	0.473
1310.500	737.163	80.007	19.995	103.909	20.106	-1.302	0.465
1311.000	737.378	80.009	19.996	103.908	20.107	-1.365	0.464
1311.500	737.621	80.007	19.995	103.908	20.102	-0.967	0.459
1312.000	737.878	80.008	19.995	103.907	20.105	-1.200	0.479
1312.500	738.101	80.009	19.995	103.908	20.098	-0.729	0.490
1313.000	738.329	80.008	19.995	103.907	20.102	-1.000	0.465
1313.500	738.579	80.008	19.995	103.908	20.103	-1.063	0.465
1314.000	738.830	80.008	19.995	103.907	20.101	-0.954	0.489
1314.500	739.076	80.008	19.996	103.905	20.103	-1.038	0.499
1315.000	739.307	80.008	19.996	103.905	20.103	-1.081	0.487
1315.500	739.529	80.008	19.995	103.905	20.104	-1.133	0.465
1316.000	739.784	80.007	19.996	103.906	20.101	-0.927	0.465
1316.500	740.037	80.008	19.995	103.907	20.100	-0.844	0.493
1317.000	740.269	80.009	19.997	103.908	20.106	-1.292	0.497
1317.500	740.517	80.008	19.995	103.908	20.101	-0.954	0.483
1318.000	740.747	80.008	19.995	103.908	20.105	-1.186	0.479
1318.500	740.968	80.009	19.995	103.908	20.101	-0.954	0.464
1319.000	741.245	80.009	19.995	103.908	20.106	-1.277	0.475
1319.500	741.469	80.009	19.995	103.908	20.103	-1.059	0.500
1320.000	741.717	80.009	19.994	103.909	20.101	-0.906	0.487
1320.500	741.963	80.009	19.995	103.910	20.106	-1.286	0.483
1321.000	742.173	80.009	19.995	103.909	20.105	-1.202	0.475
1321.500	742.425	80.008	19.994	103.910	20.104	-1.144	0.460
1322.000	742.627	80.009	19.995	103.910	20.104	-1.134	0.458
1322.500	742.885	80.009	19.995	103.910	20.110	-1.531	0.456
1323.000	743.100	80.009	19.995	103.909	20.105	-1.221	0.466
1323.500	743.347	80.008	19.995	103.910	20.106	-1.259	0.467
1324.000	743.578	80.010	19.995	103.915	20.105	-1.194	0.470
1324.500	743.847	80.010	19.994	103.917	20.103	-1.079	0.489
