Sample ID:	C:\MCC\MCC Cal\Test\Polyester_Fabric_30_1.txt
Sample Weight (mg):	3.05
Heating Rate (C/s):	0.5
Combustor Temp (C):	900
N2 Flow Rate (cc/min):	80
O2 Flow Rate (cc/min):	20
Calibration File:	C:\MCC\MCC Cal\Coeff1 JN10440_30_210304.txt.txt
T Correction Coefficients:	0	1.024463	0
Time Shift (s):	14
*
Time (s)	Temperature (C)	N2 flow rate (cc/min)	O2 flow rate (cc/min)	Flow Rate (cc/min)	Oxygen (%)	HRR (W/g)	Heating rate (C/s)
0.000	107.357	79.993	19.991	99.583	20.291	-0.025	-0.025
0.500	107.330	79.992	19.991	99.585	20.288	0.232	-0.012
1.000	107.346	79.992	19.992	99.590	20.295	-0.402	-0.007
1.500	107.328	79.993	19.992	99.595	20.287	0.382	-0.006
2.000	107.365	79.992	19.992	99.597	20.295	-0.463	0.009
2.500	107.365	79.992	19.992	99.596	20.289	0.148	0.028
3.000	107.373	79.991	19.992	99.597	20.290	0.017	0.022
3.500	107.337	79.992	19.990	99.599	20.295	-0.455	-0.010
4.000	107.392	79.991	19.991	99.599	20.292	-0.170	-0.005
4.500	107.349	79.990	19.991	99.600	20.294	-0.301	0.016
5.000	107.342	79.991	19.991	99.601	20.292	-0.112	-0.018
5.500	107.328	79.992	19.992	99.603	20.293	-0.218	-0.035
6.000	107.338	79.992	19.992	99.604	20.294	-0.312	-0.013
6.500	107.306	79.992	19.992	99.604	20.293	-0.234	-0.013
7.000	107.338	79.993	19.991	99.604	20.295	-0.430	-0.011
7.500	107.338	79.992	19.992	99.604	20.295	-0.469	0.016
8.000	107.325	79.992	19.993	99.604	20.295	-0.458	0.010
8.500	107.311	79.992	19.993	99.604	20.292	-0.153	-0.020
9.000	107.342	79.991	19.990	99.606	20.298	-0.711	-0.006
9.500	107.299	79.992	19.992	99.606	20.296	-0.508	0.002
10.000	107.299	79.993	19.991	99.605	20.293	-0.243	-0.027
10.500	107.313	79.992	19.991	99.603	20.293	-0.246	-0.014
11.000	107.348	79.991	19.992	99.596	20.294	-0.321	0.031
11.500	107.307	79.993	19.993	99.592	20.293	-0.215	0.021
12.000	107.287	79.994	19.992	99.588	20.295	-0.449	-0.033
12.500	107.255	79.994	19.991	99.587	20.293	-0.223	-0.056
13.000	107.320	79.993	19.992	99.588	20.294	-0.321	-0.010
13.500	107.306	79.995	19.991	99.591	20.293	-0.204	0.042
14.000	107.332	79.993	19.991	99.592	20.294	-0.315	0.032
14.500	107.306	79.995	19.993	99.596	20.294	-0.310	0.006
15.000	107.271	79.993	19.992	99.596	20.293	-0.271	-0.030
15.500	107.292	79.996	19.992	99.596	20.287	0.352	-0.038
16.000	107.280	79.995	19.990	99.596	20.292	-0.165	-0.003
16.500	107.309	79.994	19.991	99.594	20.290	0.059	0.013
17.000	107.316	79.995	19.992	99.594	20.290	0.017	0.027
17.500	107.286	79.993	19.991	99.594	20.291	-0.050	0.007
18.000	107.304	79.995	19.990	99.595	20.290	0.114	-0.017
18.500	107.270	79.995	19.991	99.596	20.290	0.017	-0.014
19.000	107.319	79.994	19.990	99.599	20.289	0.209	-0.000
19.500	107.304	79.994	19.992	99.601	20.289	0.201	0.025
20.000	107.290	79.995	19.992	99.602	20.289	0.162	0.002
20.500	107.321	79.995	19.992	99.603	20.289	0.165	-0.006
21.000	107.313	79.994	19.992	99.604	20.288	0.302	0.020
21.500	107.327	79.995	19.992	99.603	20.285	0.612	0.015
22.000	107.310	79.994	19.992	99.601	20.283	0.732	0.001
22.500	107.310	79.994	19.991	99.602	20.286	0.464	-0.010
23.001	107.296	79.994	19.992	99.599	20.282	0.860	-0.015
23.500	107.321	79.994	19.990	99.599	20.284	0.682	-0.002
24.000	107.333	79.993	19.991	99.599	20.287	0.346	0.024
24.500	107.339	79.993	19.992	99.599	20.284	0.701	0.027
25.000	107.346	79.994	19.992	99.604	20.283	0.763	0.015
25.500	107.347	79.994	19.992	99.613	20.285	0.601	0.011
26.000	107.331	79.993	19.992	99.621	20.285	0.609	-0.003
26.500	107.340	79.993	19.991	99.629	20.282	0.869	-0.011
27.000	107.336	79.993	19.992	99.637	20.284	0.729	-0.001
27.500	107.365	79.994	19.991	99.638	20.281	0.981	0.015
28.000	107.352	79.994	19.990	99.637	20.280	1.042	0.021
28.500	107.326	79.994	19.991	99.643	20.280	1.084	-0.011
29.000	107.348	79.992	19.992	99.651	20.282	0.900	-0.022
29.500	107.362	79.993	19.991	99.660	20.281	0.964	0.016
30.000	107.336	79.993	19.992	99.673	20.282	0.897	0.012
30.500	107.419	79.992	19.993	99.686	20.275	1.557	0.023
31.000	107.381	79.993	19.992	99.688	20.279	1.191	0.051
31.500	107.425	79.993	19.992	99.694	20.275	1.619	0.026
32.001	107.390	79.991	19.993	99.700	20.275	1.647	0.008
32.500	107.422	79.992	19.992	99.703	20.273	1.825	0.003
33.000	107.445	79.993	19.992	99.709	20.271	1.985	0.026
33.501	107.452	79.993	19.992	99.721	20.269	2.200	0.043
34.001	107.475	79.993	19.991	99.728	20.268	2.281	0.030
34.501	107.511	79.993	19.992	99.736	20.264	2.672	0.044
35.000	107.523	79.994	19.991	99.745	20.267	2.390	0.054
35.500	107.546	79.994	19.991	99.756	20.268	2.303	0.042
36.000	107.571	79.993	19.992	99.766	20.262	2.876	0.042
36.500	107.627	79.994	19.992	99.776	20.262	2.946	0.064
37.000	107.640	79.995	19.992	99.783	20.264	2.675	0.074
37.501	107.645	79.995	19.991	99.781	20.265	2.655	0.043
38.001	107.718	79.995	19.992	99.774	20.261	3.002	0.048
38.501	107.769	79.996	19.991	99.773	20.261	3.022	0.101
39.001	107.807	79.994	19.993	99.770	20.261	2.977	0.106
39.500	107.838	79.995	19.991	99.772	20.263	2.812	0.079
40.000	107.885	79.996	19.992	99.780	20.258	3.343	0.074
40.500	107.928	79.996	19.992	99.795	20.260	3.120	0.084
41.000	107.991	79.996	19.992	99.805	20.262	2.876	0.098
41.500	108.012	79.997	19.991	99.815	20.259	3.215	0.095
42.000	108.098	79.996	19.991	99.817	20.261	3.066	0.096
42.500	108.152	79.996	19.991	99.816	20.257	3.416	0.124
43.000	108.231	79.999	19.991	99.813	20.258	3.293	0.137
43.500	108.318	79.995	19.991	99.808	20.260	3.126	0.149
44.000	108.334	79.995	19.990	99.805	20.257	3.430	0.134
44.500	108.427	79.996	19.990	99.803	20.257	3.397	0.106
45.000	108.517	79.996	19.990	99.803	20.258	3.285	0.146
45.500	108.548	79.996	19.991	99.799	20.258	3.360	0.152
46.000	108.633	79.996	19.990	99.797	20.256	3.573	0.119
46.500	108.661	79.996	19.990	99.791	20.255	3.614	0.115
47.000	108.752	79.996	19.991	99.791	20.252	3.941	0.116
47.500	108.816	79.996	19.991	99.791	20.254	3.790	0.137
48.000	108.906	79.995	19.989	99.791	20.252	3.947	0.154
48.500	108.965	79.995	19.989	99.791	20.253	3.835	0.152
49.000	109.036	79.995	19.991	99.793	20.251	4.000	0.139
49.500	109.164	79.993	19.991	99.796	20.254	3.715	0.164
50.000	109.200	79.995	19.990	99.800	20.253	3.894	0.182
50.500	109.282	79.993	19.991	99.802	20.254	3.741	0.141
51.000	109.376	79.994	19.990	99.802	20.251	3.998	0.147
51.500	109.464	79.993	19.991	99.803	20.251	4.082	0.179
52.000	109.559	79.991	19.990	99.803	20.249	4.287	0.183
52.500	109.591	79.993	19.991	99.799	20.252	3.971	0.155
53.000	109.722	79.992	19.992	99.799	20.251	4.097	0.145
53.501	109.813	79.993	19.991	99.807	20.251	3.999	0.193
54.001	109.893	79.993	19.991	99.814	20.254	3.779	0.197
54.501	110.009	79.993	19.991	99.816	20.251	4.045	0.183
55.001	110.107	79.993	19.991	99.818	20.252	3.959	0.205
55.500	110.223	79.992	19.991	99.818	20.249	4.294	0.214
56.001	110.316	79.992	19.991	99.812	20.251	4.062	0.212
56.501	110.381	79.992	19.991	99.804	20.248	4.381	0.184
57.001	110.455	79.993	19.990	99.802	20.252	3.992	0.149
57.500	110.607	79.993	19.991	99.801	20.250	4.193	0.182
58.000	110.724	79.992	19.992	99.798	20.253	3.869	0.247
58.500	110.817	79.993	19.991	99.797	20.249	4.230	0.239
59.000	110.914	79.993	19.991	99.797	20.247	4.468	0.200
59.500	111.042	79.994	19.990	99.798	20.247	4.449	0.208
60.000	111.127	79.993	19.991	99.800	20.243	4.875	0.219
60.500	111.235	79.993	19.991	99.806	20.247	4.416	0.203
61.000	111.324	79.993	19.991	99.813	20.245	4.634	0.195
61.500	111.408	79.992	19.990	99.820	20.248	4.351	0.185
62.000	111.536	79.994	19.991	99.826	20.248	4.365	0.192
62.500	111.700	79.993	19.992	99.831	20.246	4.583	0.252
63.000	111.834	79.993	19.992	99.833	20.246	4.532	0.295
63.500	111.934	79.992	19.991	99.834	20.245	4.714	0.266
64.000	112.008	79.994	19.992	99.839	20.242	4.921	0.204
64.500	112.155	79.994	19.991	99.847	20.243	4.842	0.198
65.000	112.315	79.994	19.992	99.857	20.245	4.686	0.264
65.500	112.361	79.992	19.992	99.869	20.244	4.742	0.257
66.000	112.485	79.993	19.990	99.880	20.240	5.217	0.188
66.500	112.647	79.993	19.992	99.884	20.244	4.814	0.228
67.000	112.833	79.992	19.991	99.880	20.243	4.882	0.317
67.500	112.931	79.993	19.992	99.875	20.242	4.932	0.316
68.000	113.065	79.995	19.992	99.872	20.240	5.144	0.258
68.500	113.156	79.993	19.991	99.868	20.241	5.077	0.229
69.000	113.330	79.993	19.992	99.872	20.242	4.976	0.245
69.500	113.478	79.993	19.991	99.883	20.242	4.974	0.293
70.000	113.607	79.994	19.992	99.895	20.244	4.806	0.299
70.500	113.761	79.994	19.991	99.901	20.243	4.915	0.280
71.000	113.934	79.994	19.992	99.905	20.243	4.834	0.305
71.500	114.093	79.993	19.990	99.907	20.238	5.405	0.330
72.000	114.195	79.993	19.992	99.902	20.240	5.161	0.296
72.500	114.380	79.994	19.991	99.894	20.245	4.669	0.273
73.000	114.464	79.993	19.991	99.887	20.240	5.130	0.278
73.501	114.611	79.991	19.991	99.884	20.242	4.974	0.250
74.001	114.767	79.991	19.989	99.878	20.244	4.778	0.267
74.500	114.909	79.995	19.991	99.876	20.238	5.335	0.300
75.000	115.049	79.993	19.992	99.875	20.236	5.555	0.290
75.500	115.181	79.994	19.992	99.874	20.242	4.932	0.277
76.000	115.357	79.995	19.991	99.874	20.240	5.217	0.290
76.500	115.548	79.995	19.991	99.874	20.238	5.374	0.337
77.000	115.715	79.995	19.993	99.873	20.237	5.472	0.362
77.500	115.837	79.996	19.993	99.873	20.233	5.919	0.324
78.000	116.000	79.994	19.992	99.876	20.234	5.755	0.288
78.500	116.149	79.993	19.993	99.876	20.236	5.607	0.298
79.000	116.326	79.994	19.992	99.874	20.236	5.604	0.319
79.500	116.515	79.994	19.991	99.872	20.235	5.658	0.346
80.000	116.644	79.994	19.990	99.871	20.235	5.661	0.342
80.501	116.809	79.994	19.991	99.870	20.237	5.513	0.306
81.001	116.976	79.996	19.992	99.870	20.241	5.104	0.313
81.500	117.163	79.993	19.991	99.871	20.238	5.412	0.343
82.000	117.363	79.994	19.991	99.873	20.238	5.338	0.370
82.500	117.496	79.994	19.992	99.873	20.238	5.405	0.360
83.000	117.703	79.994	19.991	99.871	20.240	5.184	0.337
83.500	117.853	79.993	19.991	99.870	20.239	5.260	0.349
84.000	118.033	79.993	19.991	99.869	20.243	4.857	0.344
84.500	118.245	79.993	19.992	99.869	20.241	5.106	0.361
85.000	118.406	79.992	19.991	99.870	20.241	5.051	0.382
85.500	118.574	79.992	19.992	99.872	20.239	5.323	0.351
86.000	118.769	79.993	19.991	99.871	20.237	5.510	0.346
86.500	118.928	79.994	19.993	99.872	20.237	5.449	0.359
87.000	119.114	79.994	19.993	99.872	20.236	5.535	0.349
87.500	119.278	79.994	19.993	99.871	20.240	5.200	0.347
88.000	119.481	79.993	19.993	99.871	20.238	5.409	0.358
88.500	119.651	79.995	19.992	99.875	20.234	5.773	0.370
89.000	119.867	79.994	19.992	99.880	20.235	5.728	0.380
89.500	120.034	79.994	19.993	99.883	20.236	5.573	0.384
90.000	120.221	79.993	19.993	99.891	20.234	5.822	0.368
90.500	120.371	79.995	19.993	99.899	20.235	5.727	0.346
91.000	120.586	79.994	19.993	99.904	20.238	5.380	0.351
91.500	120.754	79.993	19.992	99.906	20.235	5.670	0.374
92.000	120.965	79.993	19.993	99.907	20.236	5.603	0.381
92.500	121.160	79.993	19.993	99.901	20.236	5.570	0.392
93.000	121.320	79.994	19.993	99.893	20.239	5.326	0.381
93.500	121.518	79.995	19.992	99.887	20.238	5.413	0.357
94.000	121.709	79.994	19.992	99.883	20.237	5.467	0.373
94.500	121.913	79.995	19.993	99.885	20.238	5.330	0.392
95.000	122.105	79.995	19.993	99.891	20.235	5.711	0.396
95.500	122.365	79.994	19.993	99.898	20.234	5.787	0.424
96.000	122.570	79.995	19.992	99.905	20.237	5.498	0.458
96.500	122.777	79.995	19.991	99.910	20.236	5.590	0.438
97.000	122.939	79.995	19.993	99.910	20.239	5.260	0.391
97.500	123.160	79.997	19.992	99.910	20.242	4.960	0.377
98.000	123.351	79.994	19.993	99.911	20.238	5.352	0.398
98.500	123.571	79.996	19.992	99.911	20.237	5.477	0.411
99.000	123.776	79.995	19.993	99.911	20.239	5.226	0.418
99.500	123.974	79.994	19.991	99.905	20.237	5.450	0.414
100.000	124.184	79.996	19.993	99.899	20.235	5.705	0.406
100.500	124.373	79.996	19.991	99.891	20.238	5.414	0.404
101.000	124.599	79.996	19.993	99.887	20.237	5.470	0.407
101.500	124.782	79.996	19.992	99.880	20.238	5.401	0.412
102.000	124.975	79.996	19.993	99.878	20.235	5.641	0.392
102.500	125.184	79.995	19.991	99.876	20.235	5.714	0.389
103.001	125.406	79.995	19.992	99.876	20.234	5.817	0.416
103.501	125.573	79.997	19.991	99.875	20.237	5.440	0.410
104.001	125.807	79.995	19.992	99.874	20.235	5.694	0.395
104.502	126.011	79.995	19.992	99.878	20.232	5.948	0.420
105.001	126.206	79.995	19.992	99.885	20.235	5.674	0.418
105.500	126.434	79.996	19.992	99.893	20.233	5.867	0.411
106.000	126.668	79.995	19.991	99.897	20.232	5.988	0.443
106.500	126.903	79.994	19.991	99.903	20.235	5.731	0.466
107.000	127.065	79.995	19.992	99.903	20.234	5.821	0.433
107.500	127.300	79.995	19.992	99.895	20.233	5.933	0.397
108.000	127.495	79.995	19.991	99.888	20.230	6.238	0.413
108.500	127.745	79.995	19.992	99.884	20.232	5.980	0.437
109.000	127.927	79.994	19.993	99.878	20.236	5.560	0.438
109.500	128.170	79.994	19.992	99.875	20.235	5.658	0.429
110.000	128.380	79.995	19.993	99.876	20.233	5.877	0.439
110.500	128.567	79.994	19.991	99.883	20.237	5.482	0.425
111.000	128.800	79.995	19.993	99.888	20.238	5.415	0.408
111.500	129.044	79.995	19.991	99.894	20.238	5.404	0.448
112.000	129.208	79.995	19.993	99.897	20.238	5.432	0.442
112.500	129.495	79.994	19.993	99.903	20.234	5.748	0.430
113.000	129.722	79.994	19.992	99.903	20.233	5.874	0.483
113.500	129.903	79.994	19.992	99.904	20.237	5.485	0.461
114.000	130.140	79.993	19.992	99.903	20.234	5.762	0.413
114.500	130.355	79.996	19.992	99.902	20.235	5.672	0.435
115.000	130.594	79.993	19.993	99.896	20.236	5.613	0.453
115.500	130.810	79.994	19.993	99.891	20.238	5.387	0.455
116.000	131.024	79.994	19.993	99.891	20.237	5.529	0.443
116.500	131.239	79.994	19.993	99.894	20.240	5.224	0.429
117.000	131.468	79.994	19.991	99.899	20.243	4.860	0.436
117.500	131.681	79.994	19.992	99.907	20.240	5.187	0.443
118.000	131.951	79.994	19.992	99.911	20.234	5.780	0.463
118.500	132.161	79.993	19.992	99.910	20.241	5.084	0.481
119.001	132.375	79.995	19.992	99.909	20.235	5.660	0.452
119.501	132.617	79.995	19.993	99.909	20.239	5.277	0.439
120.000	132.817	79.994	19.992	99.909	20.240	5.180	0.449
120.500	133.056	79.996	19.992	99.910	20.241	5.074	0.441
121.000	133.242	79.995	19.991	99.912	20.235	5.656	0.432
121.500	133.489	79.997	19.993	99.913	20.234	5.818	0.429
122.000	133.752	79.995	19.992	99.913	20.239	5.289	0.472
122.500	134.000	79.995	19.992	99.913	20.234	5.771	0.510
123.000	134.269	79.995	19.992	99.913	20.238	5.401	0.514
123.500	134.493	79.995	19.992	99.912	20.239	5.278	0.505
124.000	134.686	79.996	19.993	99.910	20.238	5.362	0.455
124.500	134.911	79.994	19.992	99.908	20.233	5.871	0.418
125.000	135.150	79.996	19.993	99.907	20.236	5.571	0.441
125.500	135.393	79.995	19.993	99.906	20.233	5.916	0.473
126.001	135.616	79.996	19.993	99.906	20.233	5.848	0.474
126.501	135.904	79.995	19.992	99.905	20.244	4.816	0.489
127.000	136.113	79.996	19.991	99.904	20.243	4.832	0.504
127.500	136.368	79.995	19.992	99.899	20.234	5.750	0.480
128.000	136.590	79.995	19.992	99.894	20.242	4.942	0.470
128.500	136.841	79.995	19.992	99.888	20.243	4.911	0.475
129.000	137.113	79.995	19.992	99.887	20.237	5.454	0.498
129.500	137.342	79.994	19.992	99.890	20.238	5.375	0.512
130.000	137.595	79.993	19.992	99.897	20.241	5.048	0.492
130.500	137.834	79.995	19.992	99.903	20.239	5.300	0.487
131.000	138.090	79.994	19.992	99.909	20.240	5.132	0.494
131.500	138.286	79.993	19.991	99.911	20.237	5.479	0.474
132.000	138.541	79.994	19.991	99.911	20.240	5.149	0.451
132.500	138.761	79.994	19.991	99.912	20.241	5.032	0.463
133.000	139.018	79.991	19.990	99.914	20.237	5.502	0.476
133.500	139.254	79.993	19.991	99.914	20.236	5.575	0.485
134.000	139.487	79.994	19.991	99.915	20.238	5.351	0.481
134.500	139.725	79.993	19.991	99.916	20.240	5.146	0.470
135.000	139.956	79.993	19.990	99.913	20.238	5.348	0.470
135.500	140.223	79.991	19.991	99.908	20.236	5.628	0.484
136.000	140.431	79.993	19.992	99.907	20.237	5.454	0.487
136.500	140.715	79.992	19.991	99.906	20.237	5.499	0.484
137.000	140.947	79.993	19.991	99.902	20.236	5.616	0.504
137.500	141.187	79.992	19.991	99.899	20.238	5.370	0.494
138.000	141.405	79.992	19.991	99.901	20.237	5.507	0.465
138.500	141.656	79.994	19.990	99.900	20.237	5.434	0.463
139.000	141.899	79.993	19.992	99.901	20.239	5.250	0.481
139.500	142.132	79.994	19.990	99.904	20.237	5.476	0.485
140.000	142.408	79.992	19.990	99.906	20.235	5.683	0.493
140.500	142.656	79.994	19.992	99.900	20.236	5.583	0.516
141.000	142.939	79.993	19.991	99.901	20.236	5.558	0.527
141.500	143.149	79.992	19.992	99.900	20.231	6.059	0.512
142.000	143.409	79.993	19.991	99.902	20.236	5.594	0.482
142.500	143.652	79.994	19.992	99.906	20.231	6.104	0.487
143.000	143.932	79.994	19.990	99.913	20.235	5.712	0.513
143.500	144.153	79.994	19.991	99.913	20.236	5.552	0.511
144.000	144.410	79.994	19.992	99.913	20.235	5.703	0.489
144.500	144.661	79.992	19.991	99.911	20.235	5.692	0.493
145.000	144.908	79.994	19.992	99.910	20.235	5.644	0.504
145.500	145.157	79.992	19.990	99.909	20.234	5.740	0.497
146.000	145.411	79.995	19.992	99.909	20.235	5.650	0.499
146.500	145.634	79.995	19.991	99.909	20.238	5.395	0.490
147.000	145.842	79.993	19.991	99.909	20.237	5.476	0.454
147.500	146.118	79.993	19.991	99.910	20.238	5.370	0.457
148.000	146.368	79.992	19.992	99.910	20.236	5.541	0.505
148.500	146.615	79.994	19.991	99.910	20.238	5.429	0.512
149.000	146.851	79.994	19.993	99.908	20.235	5.692	0.490
149.500	147.110	79.993	19.991	99.908	20.234	5.784	0.489
150.000	147.340	79.994	19.992	99.906	20.237	5.477	0.492
150.500	147.622	79.995	19.992	99.906	20.235	5.689	0.501
151.000	147.857	79.994	19.992	99.907	20.234	5.841	0.514
151.500	148.112	79.995	19.992	99.911	20.234	5.768	0.504
152.000	148.408	79.994	19.992	99.916	20.236	5.564	0.520
152.500	148.625	79.994	19.991	99.918	20.236	5.617	0.532
153.000	148.852	79.994	19.992	99.917	20.234	5.740	0.479
153.500	149.108	79.994	19.992	99.916	20.236	5.591	0.464
154.000	149.352	79.994	19.992	99.915	20.235	5.698	0.492
154.500	149.625	79.993	19.992	99.910	20.234	5.740	0.508
155.000	149.870	79.995	19.992	99.910	20.230	6.187	0.517
155.500	150.125	79.995	19.991	99.911	20.236	5.591	0.509
156.000	150.383	79.994	19.991	99.911	20.235	5.677	0.507
156.500	150.598	79.995	19.991	99.911	20.235	5.699	0.494
157.000	150.844	79.994	19.992	99.911	20.232	5.968	0.467
157.500	151.111	79.994	19.992	99.911	20.234	5.749	0.487
158.000	151.367	79.993	19.991	99.909	20.234	5.761	0.518
158.500	151.610	79.994	19.993	99.904	20.235	5.708	0.511
159.000	151.893	79.994	19.992	99.904	20.231	6.145	0.513
159.500	152.112	79.995	19.991	99.904	20.233	5.849	0.514
160.000	152.374	79.995	19.992	99.904	20.234	5.804	0.491
160.500	152.630	79.993	19.991	99.905	20.233	5.921	0.499
161.000	152.873	79.993	19.991	99.913	20.236	5.538	0.508
161.500	153.112	79.994	19.992	99.915	20.240	5.160	0.491
162.000	153.362	79.994	19.992	99.915	20.237	5.459	0.486
162.500	153.614	79.993	19.992	99.915	20.236	5.549	0.496
163.000	153.875	79.994	19.992	99.916	20.238	5.425	0.508
163.500	154.112	79.992	19.992	99.913	20.236	5.563	0.505
164.000	154.378	79.994	19.992	99.913	20.239	5.230	0.500
164.500	154.590	79.993	19.992	99.912	20.238	5.378	0.490
165.000	154.862	79.994	19.991	99.912	20.237	5.487	0.481
165.500	155.081	79.994	19.992	99.912	20.237	5.462	0.487
166.000	155.373	79.992	19.992	99.912	20.240	5.129	0.501
166.500	155.577	79.995	19.992	99.903	20.236	5.613	0.504
167.000	155.844	79.993	19.992	99.896	20.240	5.199	0.484
167.500	156.072	79.993	19.992	99.889	20.233	5.857	0.483
168.000	156.340	79.993	19.992	99.888	20.230	6.184	0.495
168.500	156.590	79.993	19.991	99.887	20.238	5.387	0.507
169.000	156.857	79.991	19.990	99.895	20.238	5.334	0.518
169.500	157.088	79.994	19.992	99.902	20.238	5.418	0.508
170.000	157.335	79.993	19.991	99.907	20.235	5.664	0.488
170.500	157.578	79.993	19.992	99.907	20.236	5.592	0.484
171.000	157.846	79.992	19.990	99.906	20.236	5.628	0.501
171.500	158.111	79.993	19.992	99.906	20.235	5.695	0.522
172.000	158.335	79.993	19.991	99.902	20.232	6.022	0.511
172.500	158.590	79.994	19.991	99.897	20.239	5.264	0.484
173.000	158.826	79.993	19.990	99.897	20.238	5.345	0.485
173.500	159.091	79.993	19.991	99.898	20.233	5.851	0.496
174.000	159.352	79.994	19.991	99.895	20.237	5.523	0.513
174.500	159.604	79.994	19.991	99.899	20.238	5.381	0.519
175.000	159.890	79.994	19.991	99.905	20.236	5.635	0.525
175.500	160.110	79.995	19.992	99.902	20.237	5.434	0.522
176.000	160.419	79.994	19.992	99.900	20.235	5.666	0.518
176.500	160.620	79.995	19.991	99.903	20.233	5.899	0.520
177.000	160.866	79.995	19.993	99.904	20.233	5.887	0.479
177.500	161.125	79.993	19.992	99.905	20.236	5.534	0.476
178.000	161.420	79.995	19.991	99.909	20.238	5.375	0.529
178.500	161.647	79.994	19.990	99.907	20.237	5.506	0.538
179.000	161.860	79.993	19.991	99.907	20.241	5.114	0.481
179.500	162.152	79.995	19.992	99.907	20.238	5.399	0.472
180.000	162.409	79.995	19.994	99.907	20.239	5.307	0.527
180.500	162.635	79.995	19.992	99.909	20.240	5.212	0.516
181.000	162.895	79.995	19.993	99.915	20.237	5.456	0.484
181.500	163.132	79.995	19.992	99.915	20.240	5.221	0.492
182.000	163.393	79.993	19.991	99.915	20.235	5.680	0.498
182.500	163.618	79.996	19.993	99.915	20.240	5.204	0.492
183.000	163.900	79.995	19.993	99.914	20.234	5.750	0.496
183.500	164.174	79.995	19.991	99.912	20.238	5.364	0.531
184.000	164.402	79.995	19.991	99.910	20.238	5.372	0.529
184.500	164.624	79.995	19.993	99.901	20.237	5.531	0.476
185.000	164.945	79.994	19.993	99.899	20.234	5.766	0.497
185.500	165.200	79.994	19.993	99.898	20.237	5.517	0.559
186.000	165.428	79.993	19.992	99.894	20.241	5.081	0.529
186.500	165.681	79.994	19.992	99.895	20.239	5.274	0.482
187.000	165.944	79.995	19.993	99.902	20.238	5.330	0.499
187.500	166.173	79.995	19.991	99.902	20.234	5.786	0.504
188.000	166.414	79.995	19.992	99.896	20.237	5.475	0.481
188.500	166.670	79.995	19.992	99.894	20.237	5.501	0.483
189.000	166.954	79.992	19.992	99.887	20.239	5.310	0.518
189.500	167.143	79.995	19.991	99.881	20.238	5.400	0.507
190.000	167.385	79.995	19.991	99.877	20.239	5.249	0.452
190.500	167.640	79.994	19.991	99.879	20.235	5.649	0.464
191.000	167.937	79.993	19.990	99.880	20.237	5.503	0.524
191.500	168.203	79.994	19.992	99.881	20.236	5.540	0.557
192.000	168.429	79.994	19.992	99.887	20.239	5.294	0.528
192.500	168.665	79.994	19.991	99.891	20.239	5.294	0.477
193.001	168.954	79.994	19.991	99.895	20.238	5.342	0.494
193.500	169.195	79.993	19.992	99.896	20.239	5.247	0.528
194.000	169.446	79.995	19.993	99.895	20.240	5.157	0.511
194.500	169.677	79.993	19.992	99.891	20.239	5.311	0.487
195.000	169.955	79.992	19.990	99.885	20.239	5.305	0.496
195.500	170.183	79.994	19.992	99.880	20.235	5.737	0.508
196.000	170.448	79.994	19.992	99.882	20.239	5.289	0.500
196.500	170.698	79.993	19.993	99.884	20.237	5.527	0.504
197.000	170.886	79.994	19.992	99.883	20.238	5.362	0.476
197.500	171.179	79.994	19.992	99.883	20.239	5.317	0.459
198.000	171.413	79.995	19.991	99.887	20.239	5.244	0.504
198.500	171.655	79.994	19.992	99.887	20.235	5.736	0.502
199.000	171.921	79.995	19.991	99.887	20.235	5.683	0.492
199.500	172.235	79.993	19.991	99.892	20.234	5.803	0.544
200.000	172.437	79.993	19.992	99.891	20.235	5.716	0.548
200.500	172.701	79.994	19.992	99.887	20.232	6.023	0.491
201.000	172.891	79.995	19.991	99.885	20.236	5.561	0.460
201.500	173.165	79.995	19.992	99.887	20.236	5.542	0.459
202.000	173.433	79.994	19.992	99.886	20.232	5.945	0.503
202.500	173.703	79.996	19.991	99.891	20.237	5.479	0.540
203.000	173.972	79.995	19.992	99.896	20.237	5.465	0.538
203.500	174.227	79.997	19.990	99.901	20.236	5.555	0.532
204.000	174.461	79.995	19.991	99.900	20.238	5.342	0.507
204.500	174.684	79.994	19.990	99.903	20.237	5.510	0.473
205.000	174.955	79.994	19.992	99.904	20.241	5.029	0.476
205.500	175.224	79.996	19.992	99.904	20.240	5.191	0.517
206.000	175.472	79.996	19.992	99.904	20.238	5.429	0.529
206.500	175.714	79.996	19.992	99.906	20.238	5.362	0.504
207.000	175.952	79.997	19.993	99.907	20.242	4.978	0.485
207.500	176.207	79.995	19.992	99.909	20.240	5.132	0.486
208.000	176.442	79.996	19.992	99.909	20.239	5.328	0.491
208.500	176.724	79.996	19.991	99.906	20.241	5.115	0.504
209.000	176.911	79.997	19.993	99.903	20.242	4.970	0.493
209.500	177.166	79.995	19.993	99.900	20.237	5.496	0.455
210.000	177.421	79.994	19.992	99.894	20.241	5.107	0.476
210.500	177.688	79.995	19.992	99.887	20.245	4.676	0.516
211.000	177.973	79.996	19.992	99.883	20.242	4.976	0.537
211.500	178.190	79.994	19.994	99.880	20.241	5.082	0.527
212.000	178.443	79.995	19.992	99.878	20.242	4.995	0.486
212.500	178.699	79.995	19.991	99.884	20.241	5.035	0.489
213.000	178.933	79.993	19.992	99.891	20.240	5.165	0.499
213.500	179.146	79.993	19.992	99.898	20.238	5.328	0.468
214.000	179.424	79.993	19.992	99.904	20.240	5.174	0.469
214.500	179.639	79.993	19.992	99.908	20.244	4.740	0.492
215.000	179.875	79.993	19.994	99.908	20.241	5.058	0.472
215.500	180.151	79.994	19.992	99.907	20.238	5.417	0.481
216.000	180.406	79.992	19.993	99.907	20.241	5.064	0.521
216.500	180.662	79.992	19.994	99.907	20.237	5.456	0.521
217.000	180.960	79.992	19.992	99.906	20.241	5.110	0.532
217.500	181.164	79.991	19.991	99.905	20.240	5.189	0.528
218.000	181.402	79.993	19.992	99.905	20.243	4.898	0.472
218.500	181.666	79.993	19.991	99.905	20.241	5.093	0.472
219.000	181.919	79.993	19.993	99.906	20.238	5.377	0.510
219.500	182.180	79.992	19.993	99.907	20.240	5.199	0.516
220.000	182.436	79.992	19.992	99.909	20.241	5.034	0.516
220.500	182.671	79.991	19.992	99.910	20.240	5.169	0.504
221.000	182.907	79.993	19.992	99.911	20.240	5.188	0.481
221.500	183.171	79.993	19.992	99.910	20.239	5.303	0.485
222.000	183.421	79.993	19.991	99.910	20.240	5.180	0.507
222.500	183.640	79.992	19.991	99.911	20.241	5.085	0.491
223.000	183.951	79.994	19.991	99.911	20.241	5.104	0.499
223.500	184.164	79.993	19.991	99.915	20.240	5.172	0.527
224.000	184.452	79.992	19.992	99.890	20.241	5.090	0.513
224.501	184.706	79.993	19.991	99.863	20.243	4.908	0.521
225.001	184.947	79.992	19.991	99.846	20.241	5.068	0.518
225.500	185.229	79.994	19.991	99.836	20.241	5.059	0.509
226.000	185.426	79.993	19.990	99.825	20.243	4.857	0.501
226.500	185.710	79.993	19.990	99.847	20.246	4.583	0.480
227.000	185.967	79.994	19.991	99.885	20.243	4.837	0.511
227.500	186.248	79.992	19.991	99.938	20.239	5.263	0.539
228.000	186.486	79.993	19.991	99.963	20.239	5.261	0.529
228.500	186.766	79.992	19.991	99.974	20.237	5.493	0.519
229.000	187.010	79.992	19.990	99.978	20.241	5.079	0.521
229.500	187.256	79.992	19.991	99.965	20.237	5.468	0.507
230.000	187.488	79.994	19.993	99.928	20.240	5.177	0.484
230.500	187.697	79.995	19.991	99.911	20.239	5.317	0.460
231.000	187.950	79.994	19.992	99.907	20.238	5.429	0.452
231.500	188.215	79.994	19.991	99.907	20.238	5.429	0.490
232.000	188.460	79.994	19.991	99.906	20.238	5.362	0.514
232.500	188.689	79.994	19.991	99.908	20.236	5.605	0.492
233.000	188.923	79.993	19.992	99.910	20.238	5.423	0.468
233.500	189.180	79.994	19.990	99.910	20.239	5.256	0.477
234.000	189.444	79.994	19.992	99.910	20.239	5.283	0.506
234.500	189.708	79.992	19.991	99.911	20.241	5.116	0.524
235.000	189.941	79.992	19.991	99.910	20.236	5.566	0.513
235.500	190.169	79.992	19.991	99.909	20.239	5.305	0.479
236.000	190.417	79.993	19.991	99.902	20.240	5.224	0.468
236.500	190.719	79.993	19.993	99.895	20.244	4.807	0.513
237.000	190.942	79.994	19.992	99.889	20.240	5.196	0.538
237.500	191.253	79.992	19.992	99.888	20.242	4.964	0.529
238.000	191.469	79.993	19.991	99.888	20.243	4.894	0.530
238.500	191.690	79.993	19.992	99.892	20.242	4.931	0.482
239.000	191.934	79.994	19.992	99.901	20.243	4.866	0.451
239.500	192.182	79.994	19.992	99.906	20.236	5.574	0.479
240.001	192.459	79.994	19.991	99.908	20.238	5.345	0.509
240.500	192.705	79.995	19.991	99.910	20.240	5.160	0.524
241.000	192.943	79.993	19.992	99.912	20.239	5.236	0.504
241.500	193.192	79.993	19.991	99.911	20.236	5.550	0.485
242.000	193.413	79.992	19.991	99.912	20.238	5.433	0.478
242.500	193.663	79.993	19.991	99.912	20.239	5.290	0.471
243.000	193.902	79.993	19.990	99.911	20.242	4.943	0.480
243.500	194.112	79.996	19.994	99.911	20.239	5.284	0.469
244.000	194.344	79.996	19.992	99.912	20.238	5.362	0.446
244.500	194.618	79.995	19.991	99.912	20.237	5.466	0.474
245.000	194.864	79.995	19.992	99.911	20.235	5.698	0.512
245.500	195.111	79.993	19.992	99.910	20.239	5.286	0.506
246.000	195.365	79.992	19.991	99.905	20.237	5.527	0.497
246.500	195.563	79.992	19.992	99.902	20.237	5.504	0.477
247.000	195.821	79.993	19.992	99.899	20.242	5.003	0.454
247.500	196.054	79.993	19.991	99.900	20.237	5.490	0.473
248.000	196.306	79.993	19.992	99.902	20.238	5.350	0.488
248.500	196.602	79.992	19.991	99.907	20.239	5.319	0.517
249.000	196.825	79.992	19.992	99.910	20.239	5.238	0.534
249.500	197.076	79.992	19.992	99.912	20.237	5.456	0.497
250.000	197.332	79.992	19.992	99.908	20.239	5.285	0.490
250.500	197.598	79.992	19.993	99.907	20.240	5.213	0.515
251.000	197.880	79.993	19.991	99.906	20.239	5.283	0.536
251.500	198.086	79.993	19.991	99.908	20.238	5.409	0.518
252.000	198.341	79.992	19.991	99.914	20.239	5.289	0.474
252.500	198.579	79.993	19.992	99.926	20.240	5.152	0.477
253.000	198.833	79.993	19.991	99.932	20.236	5.574	0.493
253.500	199.063	79.993	19.991	99.934	20.240	5.213	0.488
254.000	199.309	79.994	19.991	99.933	20.238	5.383	0.480
254.500	199.575	79.994	19.992	99.929	20.235	5.719	0.494
255.000	199.815	79.994	19.991	99.921	20.241	5.118	0.509
255.500	200.032	79.993	19.990	99.915	20.237	5.451	0.481
256.000	200.333	79.994	19.991	99.913	20.240	5.194	0.488
256.500	200.560	79.993	19.991	99.912	20.238	5.430	0.523
257.001	200.797	79.994	19.991	99.910	20.237	5.444	0.496
257.500	201.051	79.994	19.992	99.910	20.235	5.739	0.478
258.000	201.317	79.994	19.991	99.908	20.236	5.624	0.505
258.500	201.537	79.995	19.990	99.906	20.236	5.562	0.503
259.000	201.779	79.994	19.992	99.900	20.233	5.923	0.474
259.500	202.066	79.996	19.993	99.897	20.239	5.265	0.496
260.000	202.288	79.995	19.990	99.894	20.240	5.189	0.519
260.501	202.554	79.995	19.991	99.891	20.239	5.272	0.498
261.000	202.795	79.995	19.992	99.891	20.236	5.535	0.498
261.500	202.989	79.996	19.991	99.899	20.236	5.546	0.471
262.000	203.287	79.994	19.990	99.904	20.237	5.440	0.463
262.500	203.491	79.995	19.991	99.908	20.240	5.132	0.498
263.000	203.749	79.995	19.991	99.909	20.237	5.524	0.482
263.500	204.014	79.995	19.991	99.911	20.235	5.672	0.492
264.000	204.252	79.996	19.993	99.908	20.236	5.546	0.513
264.500	204.487	79.994	19.991	99.900	20.238	5.375	0.488
265.000	204.751	79.995	19.991	99.894	20.237	5.490	0.486
265.500	204.993	79.994	19.991	99.895	20.238	5.406	0.503
266.000	205.241	79.995	19.991	99.896	20.236	5.535	0.498
266.500	205.512	79.995	19.991	99.903	20.236	5.540	0.505
267.000	205.767	79.994	19.991	99.917	20.237	5.520	0.522
267.500	206.000	79.994	19.991	99.929	20.236	5.573	0.506
268.000	206.270	79.995	19.993	99.933	20.235	5.665	0.495
268.500	206.505	79.995	19.991	99.941	20.235	5.721	0.504
269.000	206.759	79.994	19.991	99.938	20.239	5.310	0.497
269.500	207.007	79.994	19.991	99.933	20.238	5.385	0.495
270.000	207.273	79.994	19.992	99.928	20.235	5.657	0.508
270.500	207.503	79.994	19.991	99.925	20.236	5.579	0.505
271.000	207.798	79.995	19.993	99.916	20.232	5.976	0.510
271.500	208.036	79.994	19.991	99.914	20.235	5.655	0.528
272.000	208.303	79.992	19.991	99.912	20.237	5.512	0.519
272.500	208.532	79.995	19.991	99.910	20.236	5.624	0.501
273.000	208.751	79.993	19.990	99.910	20.234	5.809	0.472
273.500	208.985	79.994	19.992	99.907	20.237	5.520	0.451
274.000	209.282	79.994	19.992	99.906	20.239	5.321	0.492
274.500	209.519	79.994	19.993	99.905	20.233	5.853	0.532
275.000	209.734	79.994	19.993	99.905	20.239	5.238	0.493
275.501	210.024	79.994	19.993	99.902	20.236	5.627	0.479
276.000	210.248	79.995	19.993	99.902	20.234	5.767	0.509
276.500	210.519	79.995	19.994	99.900	20.235	5.700	0.504
277.000	210.744	79.995	19.992	99.896	20.236	5.602	0.496
277.500	210.976	79.994	19.991	99.891	20.236	5.538	0.477
278.000	211.234	79.994	19.993	99.887	20.235	5.644	0.473
278.500	211.471	79.994	19.994	99.882	20.236	5.546	0.492
279.000	211.746	79.995	19.992	99.877	20.237	5.445	0.503
279.500	211.959	79.994	19.991	99.876	20.239	5.280	0.500
280.000	212.182	79.995	19.992	99.877	20.239	5.328	0.462
280.501	212.463	79.995	19.991	99.880	20.235	5.653	0.470
281.000	212.734	79.995	19.991	99.881	20.237	5.477	0.528
281.500	212.933	79.995	19.993	99.884	20.235	5.707	0.511
282.000	213.209	79.995	19.992	99.890	20.236	5.629	0.472
282.500	213.472	79.996	19.991	99.894	20.233	5.848	0.508
283.000	213.737	79.995	19.991	99.894	20.235	5.739	0.534
283.501	213.968	79.996	19.991	99.895	20.236	5.610	0.512
284.001	214.197	79.997	19.990	99.896	20.233	5.911	0.478
284.500	214.419	79.995	19.991	99.891	20.234	5.813	0.455
285.000	214.675	79.996	19.991	99.887	20.230	6.207	0.465
285.501	214.931	79.998	19.990	99.885	20.233	5.904	0.495
286.000	215.171	79.997	19.991	99.888	20.235	5.708	0.504
286.500	215.437	79.997	19.991	99.892	20.236	5.537	0.501
287.000	215.687	79.997	19.991	99.897	20.230	6.192	0.511
287.500	215.958	79.997	19.992	99.901	20.234	5.753	0.518
288.000	216.197	79.995	19.991	99.905	20.233	5.921	0.516
288.500	216.435	79.997	19.992	99.904	20.235	5.737	0.494
289.000	216.717	79.996	19.992	99.900	20.239	5.320	0.498
289.500	216.948	79.996	19.991	99.899	20.234	5.787	0.517
290.000	217.167	79.996	19.992	99.900	20.234	5.829	0.482
290.500	217.451	79.997	19.990	99.900	20.237	5.510	0.477
291.000	217.691	79.995	19.992	99.904	20.237	5.530	0.513
291.500	217.926	79.996	19.990	99.911	20.237	5.454	0.499
292.000	218.176	79.995	19.993	99.920	20.236	5.541	0.480
292.500	218.431	79.996	19.991	99.928	20.242	4.981	0.495
293.000	218.726	79.994	19.989	99.935	20.236	5.566	0.527
293.500	218.970	79.994	19.992	99.940	20.236	5.574	0.544
294.000	219.214	79.994	19.991	99.941	20.239	5.308	0.514
294.500	219.448	79.994	19.992	99.938	20.240	5.163	0.484
295.000	219.717	79.994	19.992	99.930	20.237	5.474	0.491
295.500	219.924	79.994	19.991	99.922	20.235	5.712	0.489
296.000	220.196	79.993	19.991	99.912	20.237	5.516	0.477
296.500	220.461	79.993	19.991	99.902	20.237	5.452	0.508
297.000	220.673	79.992	19.991	99.894	20.241	5.079	0.507
297.500	220.896	79.992	19.993	99.892	20.237	5.510	0.456
298.000	221.159	79.992	19.992	99.894	20.237	5.485	0.461
298.500	221.383	79.993	19.993	99.899	20.238	5.423	0.487
299.000	221.673	79.993	19.993	99.905	20.239	5.252	0.501
299.500	221.901	79.993	19.992	99.909	20.237	5.450	0.516
300.000	222.193	79.994	19.992	99.911	20.238	5.363	0.519
300.500	222.431	79.992	19.993	99.911	20.239	5.313	0.524
301.000	222.668	79.993	19.991	99.911	20.237	5.528	0.502
301.500	222.895	79.993	19.992	99.910	20.239	5.293	0.470
302.000	223.172	79.992	19.992	99.911	20.236	5.540	0.484
302.500	223.451	79.992	19.993	99.911	20.238	5.420	0.530
303.000	223.719	79.993	19.993	99.910	20.240	5.137	0.552
303.500	223.944	79.992	19.992	99.908	20.234	5.814	0.520
304.000	224.181	79.991	19.992	99.908	20.232	5.999	0.477
304.500	224.425	79.993	19.993	99.907	20.240	5.191	0.472
305.000	224.716	79.992	19.992	99.907	20.236	5.605	0.508
305.500	224.974	79.992	19.991	99.906	20.235	5.737	0.543
306.000	225.196	79.992	19.992	99.908	20.234	5.826	0.515
306.500	225.432	79.992	19.992	99.910	20.234	5.756	0.469
307.000	225.703	79.993	19.991	99.913	20.239	5.286	0.482
307.500	225.964	79.992	19.992	99.915	20.237	5.491	0.520
308.000	226.226	79.993	19.992	99.916	20.236	5.555	0.528
308.500	226.463	79.994	19.991	99.913	20.233	5.922	0.511
309.000	226.729	79.994	19.992	99.905	20.238	5.370	0.501
309.500	226.929	79.992	19.990	99.898	20.238	5.359	0.484
310.000	227.261	79.992	19.990	99.894	20.238	5.336	0.499
310.500	227.430	79.994	19.991	99.887	20.237	5.501	0.517
311.000	227.721	79.993	19.991	99.885	20.235	5.657	0.481
311.500	228.022	79.993	19.990	99.886	20.238	5.380	0.526
312.000	228.261	79.992	19.990	99.888	20.237	5.492	0.566
312.500	228.539	79.992	19.989	99.886	20.240	5.161	0.528
313.000	228.735	79.993	19.990	99.892	20.238	5.411	0.496
313.500	229.038	79.995	19.991	99.891	20.236	5.596	0.486
314.000	229.270	79.992	19.991	99.893	20.237	5.531	0.516
314.500	229.531	79.993	19.990	99.895	20.235	5.713	0.514
315.000	229.766	79.993	19.990	99.901	20.234	5.775	0.495
315.500	229.999	79.995	19.991	99.903	20.234	5.783	0.482
316.000	230.257	79.993	19.991	99.909	20.232	5.950	0.480
316.500	230.498	79.994	19.991	99.911	20.234	5.833	0.495
317.000	230.793	79.995	19.991	99.911	20.235	5.649	0.517
317.500	231.032	79.993	19.991	99.911	20.234	5.756	0.535
318.000	231.282	79.993	19.991	99.911	20.236	5.577	0.512
318.500	231.520	79.994	19.991	99.911	20.237	5.502	0.488
319.000	231.706	79.992	19.990	99.913	20.235	5.709	0.456
319.500	232.001	79.994	19.990	99.914	20.234	5.765	0.453
320.000	232.231	79.993	19.991	99.914	20.235	5.661	0.503
320.500	232.474	79.993	19.989	99.908	20.234	5.815	0.499
321.000	232.777	79.992	19.990	99.902	20.237	5.450	0.510
321.500	233.048	79.994	19.990	99.897	20.240	5.224	0.560
322.000	233.260	79.994	19.991	99.889	20.231	6.049	0.529
322.500	233.529	79.993	19.990	99.881	20.229	6.298	0.482
323.000	233.773	79.994	19.990	99.880	20.232	6.014	0.496
323.500	234.036	79.994	19.990	99.879	20.236	5.606	0.509
324.000	234.272	79.993	19.991	99.884	20.235	5.704	0.503
324.500	234.553	79.991	19.989	99.888	20.230	6.199	0.509
325.000	234.771	79.991	19.991	99.888	20.231	6.090	0.508
325.500	235.023	79.992	19.991	99.889	20.231	6.132	0.484
326.000	235.267	79.992	19.992	99.888	20.231	6.117	0.483
326.500	235.513	79.991	19.991	99.880	20.230	6.200	0.493
327.000	235.760	79.990	19.991	99.879	20.232	6.021	0.492
327.500	235.992	79.991	19.990	99.886	20.230	6.181	0.486
328.000	236.237	79.991	19.991	99.894	20.229	6.329	0.478
328.500	236.497	79.991	19.991	99.901	20.233	5.913	0.492
329.000	236.757	79.992	19.992	99.908	20.232	5.975	0.513
329.500	236.974	79.991	19.990	99.911	20.235	5.726	0.498
330.000	237.257	79.991	19.992	99.907	20.235	5.650	0.488
330.500	237.526	79.991	19.990	99.907	20.232	5.975	0.526
331.000	237.778	79.993	19.991	99.907	20.233	5.938	0.537
331.500	237.980	79.992	19.990	99.901	20.229	6.339	0.488
332.000	238.286	79.993	19.991	99.894	20.230	6.198	0.481
332.500	238.492	79.992	19.990	99.894	20.229	6.305	0.510
333.000	238.765	79.993	19.992	99.894	20.230	6.237	0.495
333.500	238.954	79.993	19.992	99.897	20.232	5.988	0.471
334.000	239.222	79.994	19.991	99.911	20.232	5.994	0.460
334.500	239.495	79.994	19.991	99.923	20.231	6.140	0.499
335.000	239.756	79.994	19.992	99.927	20.231	6.126	0.537
335.500	239.987	79.993	19.993	99.926	20.230	6.154	0.513
336.000	240.244	79.994	19.989	99.919	20.231	6.076	0.490
336.500	240.463	79.993	19.991	99.913	20.230	6.216	0.482
337.000	240.704	79.993	19.990	99.902	20.231	6.095	0.468
337.500	240.942	79.994	19.992	99.897	20.229	6.313	0.470
338.000	241.231	79.994	19.992	99.898	20.231	6.123	0.503
338.500	241.468	79.994	19.991	99.901	20.232	6.039	0.527
339.000	241.758	79.993	19.992	99.901	20.229	6.299	0.527
339.500	241.987	79.994	19.990	99.908	20.229	6.280	0.523
340.000	242.227	79.995	19.991	99.912	20.230	6.210	0.494
340.500	242.496	79.993	19.993	99.912	20.232	5.995	0.489
341.000	242.718	79.994	19.991	99.913	20.236	5.628	0.500
341.500	243.018	79.994	19.991	99.913	20.234	5.777	0.506
342.000	243.214	79.995	19.991	99.912	20.233	5.928	0.508
342.500	243.490	79.996	19.992	99.912	20.231	6.053	0.484
343.000	243.777	79.994	19.991	99.908	20.230	6.193	0.518
343.500	243.978	79.996	19.991	99.906	20.231	6.123	0.526
344.000	244.252	79.997	19.993	99.903	20.232	5.947	0.481
344.500	244.482	79.995	19.991	99.904	20.233	5.916	0.490
345.000	244.749	79.996	19.992	99.906	20.227	6.498	0.501
345.500	244.989	79.995	19.990	99.913	20.232	5.958	0.502
346.000	245.195	79.995	19.991	99.914	20.234	5.824	0.476
346.500	245.462	79.996	19.993	99.916	20.228	6.372	0.459
347.000	245.676	79.995	19.992	99.916	20.232	5.977	0.477
347.500	245.969	79.994	19.990	99.914	20.229	6.344	0.494
348.000	246.230	79.995	19.990	99.910	20.232	6.044	0.530
348.500	246.521	79.994	19.989	99.908	20.234	5.770	0.553
349.000	246.743	79.994	19.991	99.909	20.229	6.280	0.532
349.500	246.967	79.995	19.990	99.909	20.231	6.047	0.479
350.000	247.230	79.994	19.992	99.909	20.235	5.672	0.467
350.500	247.454	79.994	19.991	99.910	20.232	6.003	0.487
351.000	247.700	79.995	19.990	99.917	20.236	5.605	0.479
351.500	247.980	79.996	19.992	99.921	20.234	5.841	0.498
352.000	248.230	79.994	19.990	99.922	20.234	5.796	0.528
352.500	248.472	79.994	19.992	99.922	20.233	5.902	0.511
353.000	248.770	79.994	19.991	99.922	20.234	5.818	0.516
353.500	249.037	79.995	19.989	99.915	20.230	6.195	0.553
354.000	249.287	79.994	19.992	99.911	20.234	5.795	0.541
354.500	249.540	79.994	19.992	99.910	20.236	5.579	0.510
355.000	249.793	79.995	19.991	99.910	20.232	6.015	0.504
355.500	250.069	79.995	19.992	99.913	20.234	5.769	0.517
356.000	250.296	79.994	19.992	99.915	20.237	5.495	0.516
356.500	250.536	79.994	19.991	99.915	20.235	5.663	0.485
357.000	250.817	79.996	19.989	99.915	20.231	6.099	0.494
357.500	251.060	79.994	19.993	99.913	20.237	5.515	0.522
358.000	251.299	79.994	19.992	99.909	20.236	5.560	0.503
358.500	251.542	79.995	19.993	99.908	20.238	5.423	0.482
359.000	251.818	79.995	19.992	99.909	20.233	5.919	0.501
359.500	252.072	79.994	19.991	99.910	20.233	5.896	0.524
360.000	252.316	79.996	19.993	99.911	20.234	5.784	0.514
360.500	252.567	79.995	19.994	99.912	20.234	5.807	0.496
361.000	252.812	79.995	19.990	99.912	20.234	5.826	0.495
361.500	253.065	79.994	19.992	99.915	20.234	5.754	0.497
362.000	253.317	79.995	19.992	99.915	20.236	5.614	0.501
362.500	253.565	79.994	19.992	99.915	20.233	5.922	0.503
363.000	253.794	79.994	19.992	99.915	20.234	5.838	0.489
363.500	254.079	79.995	19.992	99.914	20.235	5.715	0.495
364.000	254.325	79.995	19.993	99.910	20.234	5.793	0.523
364.500	254.579	79.995	19.991	99.906	20.230	6.151	0.516
365.000	254.783	79.996	19.992	99.902	20.233	5.936	0.479
365.500	255.080	79.996	19.990	99.897	20.232	6.029	0.480
366.000	255.342	79.996	19.990	99.891	20.233	5.892	0.530
366.500	255.532	79.997	19.991	99.885	20.234	5.800	0.505
367.000	255.775	79.996	19.992	99.883	20.231	6.120	0.442
367.500	256.049	79.995	19.990	99.887	20.232	6.038	0.475
368.000	256.298	79.996	19.992	99.892	20.233	5.898	0.521
368.500	256.538	79.997	19.992	99.898	20.230	6.161	0.506
369.000	256.821	79.997	19.991	99.904	20.230	6.152	0.506
369.500	257.066	79.995	19.992	99.909	20.231	6.126	0.526
370.000	257.299	79.997	19.992	99.909	20.232	6.023	0.503
370.500	257.551	79.996	19.991	99.910	20.231	6.106	0.481
371.000	257.807	79.996	19.991	99.910	20.230	6.193	0.496
371.500	258.072	79.996	19.990	99.911	20.233	5.897	0.515
372.000	258.305	79.994	19.991	99.912	20.233	5.883	0.510
372.500	258.538	79.995	19.991	99.913	20.227	6.490	0.482
373.000	258.801	79.996	19.991	99.913	20.233	5.925	0.481
373.500	259.048	79.996	19.991	99.913	20.232	5.958	0.504
374.000	259.324	79.994	19.991	99.914	20.236	5.608	0.517
374.500	259.522	79.994	19.992	99.914	20.234	5.779	0.498
375.000	259.795	79.995	19.992	99.915	20.235	5.642	0.472
375.500	260.065	79.994	19.992	99.915	20.237	5.507	0.507
376.000	260.265	79.994	19.993	99.921	20.233	5.910	0.507
376.500	260.482	79.994	19.992	99.925	20.231	6.115	0.444
377.000	260.795	79.993	19.991	99.933	20.237	5.488	0.473
377.500	261.011	79.993	19.992	99.941	20.231	6.123	0.529
378.000	261.217	79.993	19.992	99.949	20.236	5.577	0.476
378.500	261.479	79.993	19.992	99.946	20.237	5.502	0.445
379.000	261.777	79.993	19.993	99.943	20.235	5.675	0.514
379.500	261.995	79.993	19.992	99.937	20.232	5.944	0.538
380.000	262.271	79.991	19.991	99.928	20.232	5.961	0.505
380.500	262.486	79.993	19.992	99.920	20.234	5.838	0.493
381.000	262.774	79.991	19.992	99.917	20.233	5.910	0.497
381.500	263.014	79.993	19.991	99.915	20.230	6.190	0.515
382.000	263.319	79.992	19.992	99.915	20.233	5.902	0.536
382.500	263.524	79.992	19.992	99.916	20.232	5.983	0.528
383.000	263.771	79.990	19.993	99.917	20.232	6.008	0.481
383.500	263.992	79.991	19.992	99.918	20.231	6.115	0.460
384.000	264.252	79.992	19.992	99.918	20.235	5.664	0.474
384.500	264.497	79.991	19.992	99.918	20.226	6.627	0.492
385.001	264.762	79.991	19.992	99.915	20.230	6.215	0.507
385.500	264.989	79.992	19.992	99.913	20.228	6.426	0.501
386.000	265.248	79.992	19.992	99.912	20.230	6.154	0.489
386.500	265.544	79.992	19.993	99.911	20.230	6.219	0.520
387.000	265.740	79.991	19.992	99.910	20.231	6.123	0.524
387.500	266.026	79.992	19.992	99.911	20.232	5.978	0.487
388.000	266.283	79.991	19.992	99.912	20.230	6.168	0.512
388.500	266.567	79.991	19.992	99.912	20.236	5.628	0.542
389.000	266.802	79.992	19.993	99.912	20.236	5.580	0.530
389.500	267.055	79.992	19.994	99.913	20.231	6.142	0.504
390.000	267.287	79.992	19.993	99.912	20.237	5.485	0.487
390.500	267.514	79.991	19.992	99.912	20.233	5.924	0.472
391.000	267.819	79.990	19.994	99.912	20.235	5.639	0.495
391.500	268.042	79.992	19.994	99.913	20.231	6.092	0.530
392.000	268.293	79.993	19.993	99.912	20.232	5.963	0.501
392.500	268.532	79.993	19.992	99.914	20.234	5.756	0.481
393.000	268.756	79.992	19.994	99.914	20.234	5.750	0.476
393.500	269.008	79.992	19.992	99.914	20.232	5.946	0.470
394.000	269.285	79.991	19.993	99.914	20.237	5.457	0.503
394.500	269.536	79.991	19.993	99.915	20.233	5.888	0.529
395.000	269.765	79.993	19.991	99.913	20.235	5.686	0.504
395.500	270.016	79.993	19.992	99.912	20.238	5.392	0.480
396.000	270.280	79.992	19.991	99.912	20.233	5.867	0.497
396.500	270.565	79.992	19.991	99.916	20.234	5.797	0.532
397.000	270.803	79.992	19.992	99.917	20.231	6.060	0.536
397.500	271.013	79.994	19.995	99.919	20.233	5.867	0.486
398.000	271.322	79.993	19.992	99.919	20.230	6.225	0.484
398.500	271.570	79.994	19.991	99.917	20.230	6.231	0.538
399.000	271.801	79.995	19.990	99.911	20.228	6.394	0.518
399.500	272.039	79.992	19.990	99.910	20.230	6.151	0.474
400.000	272.329	79.992	19.990	99.909	20.229	6.263	0.499
400.500	272.566	79.993	19.990	99.908	20.229	6.263	0.527
401.000	272.836	79.993	19.989	99.908	20.232	5.997	0.517
401.500	273.072	79.993	19.993	99.910	20.228	6.361	0.507
402.000	273.318	79.993	19.993	99.908	20.228	6.423	0.494
402.500	273.587	79.993	19.992	99.904	20.232	6.031	0.498
403.000	273.811	79.993	19.991	99.902	20.227	6.485	0.504
403.500	274.068	79.991	19.992	99.904	20.233	5.855	0.487
404.000	274.344	79.992	19.991	99.904	20.231	6.146	0.507
404.500	274.543	79.992	19.990	99.906	20.237	5.530	0.504
405.000	274.793	79.993	19.992	99.908	20.234	5.793	0.462
405.500	275.073	79.991	19.991	99.908	20.232	6.025	0.490
406.000	275.319	79.991	19.991	99.902	20.233	5.922	0.528
406.500	275.553	79.993	19.993	99.895	20.228	6.448	0.503
407.000	275.814	79.993	19.991	99.887	20.226	6.563	0.488
407.500	276.063	79.992	19.992	99.884	20.226	6.588	0.502
408.000	276.320	79.992	19.992	99.883	20.230	6.171	0.508
408.500	276.573	79.993	19.992	99.887	20.227	6.487	0.508
409.000	276.832	79.992	19.992	99.892	20.228	6.423	0.511
409.500	277.086	79.991	19.990	99.899	20.230	6.196	0.512
410.000	277.314	79.992	19.992	99.905	20.225	6.730	0.497
410.500	277.530	79.990	19.992	99.909	20.228	6.406	0.463
411.000	277.818	79.992	19.991	99.910	20.227	6.493	0.474
411.500	278.063	79.993	19.992	99.912	20.225	6.708	0.518
412.000	278.326	79.992	19.992	99.913	20.228	6.367	0.520
412.500	278.547	79.992	19.991	99.918	20.229	6.280	0.496
413.000	278.795	79.993	19.991	99.917	20.228	6.364	0.477
413.500	279.047	79.993	19.991	99.922	20.228	6.423	0.485
414.000	279.292	79.992	19.991	99.923	20.228	6.423	0.499
414.500	279.529	79.992	19.992	99.922	20.230	6.224	0.489
415.000	279.820	79.991	19.991	99.918	20.226	6.633	0.505
415.500	280.041	79.992	19.991	99.917	20.227	6.460	0.520
416.000	280.290	79.992	19.992	99.912	20.226	6.603	0.491
416.500	280.581	79.992	19.993	99.912	20.223	6.897	0.505
417.000	280.801	79.994	19.992	99.914	20.227	6.488	0.525
417.500	281.081	79.994	19.992	99.917	20.227	6.460	0.505
418.000	281.325	79.992	19.992	99.918	20.225	6.725	0.512
418.500	281.572	79.995	19.993	99.918	20.227	6.523	0.508
419.000	281.841	79.994	19.993	99.918	20.225	6.719	0.504
419.500	282.063	79.992	19.992	99.916	20.230	6.218	0.503
420.000	282.326	79.994	19.991	99.914	20.228	6.391	0.488
420.500	282.596	79.994	19.991	99.914	20.225	6.719	0.509
421.000	282.785	79.994	19.992	99.914	20.225	6.730	0.496
421.500	283.080	79.994	19.991	99.916	20.225	6.719	0.472
422.000	283.328	79.995	19.992	99.916	20.224	6.769	0.513
422.500	283.572	79.993	19.990	99.916	20.224	6.834	0.517
423.000	283.815	79.993	19.991	99.916	20.225	6.741	0.489
423.500	284.112	79.994	19.991	99.922	20.227	6.529	0.513
424.000	284.308	79.994	19.991	99.922	20.227	6.509	0.516
424.500	284.568	79.995	19.991	99.922	20.228	6.445	0.475
425.000	284.811	79.994	19.991	99.922	20.225	6.700	0.480
425.500	285.075	79.994	19.991	99.921	20.228	6.448	0.505
426.000	285.316	79.993	19.991	99.920	20.225	6.672	0.506
426.500	285.579	79.995	19.991	99.925	20.234	5.816	0.504
427.000	285.779	79.996	19.992	99.928	20.225	6.686	0.483
427.500	286.064	79.995	19.991	99.931	20.229	6.300	0.474
428.000	286.352	79.995	19.990	99.931	20.223	6.882	0.529
428.500	286.603	79.996	19.991	99.926	20.226	6.658	0.555
429.000	286.855	79.995	19.991	99.919	20.225	6.731	0.521
429.500	287.106	79.996	19.991	99.916	20.225	6.717	0.504
430.000	287.351	79.995	19.991	99.912	20.223	6.927	0.500
430.500	287.595	79.994	19.990	99.908	20.222	6.988	0.492
431.000	287.855	79.994	19.990	99.907	20.223	6.944	0.496
431.500	288.099	79.994	19.991	99.907	20.224	6.860	0.504
432.000	288.317	79.994	19.989	99.905	20.221	7.115	0.483
432.500	288.570	79.994	19.991	99.904	20.222	6.966	0.466
433.000	288.832	79.994	19.991	99.907	20.221	7.075	0.492
433.500	289.123	79.994	19.992	99.909	20.223	6.882	0.534
434.000	289.309	79.994	19.992	99.909	20.222	6.974	0.516
434.500	289.598	79.994	19.991	99.912	20.227	6.532	0.476
435.000	289.843	79.994	19.991	99.913	20.227	6.554	0.505
435.500	290.070	79.995	19.991	99.914	20.226	6.655	0.503
436.000	290.343	79.994	19.991	99.916	20.227	6.501	0.486
436.500	290.621	79.994	19.989	99.920	20.223	6.898	0.526
437.000	290.880	79.993	19.989	99.920	20.226	6.652	0.545
437.500	291.116	79.994	19.989	99.921	20.223	6.890	0.516
438.000	291.374	79.994	19.990	99.921	20.224	6.848	0.494
438.500	291.673	79.993	19.990	99.920	20.227	6.468	0.526
439.000	291.911	79.993	19.991	99.916	20.223	6.957	0.547
439.500	292.194	79.994	19.992	99.915	20.227	6.476	0.529
440.000	292.423	79.995	19.990	99.915	20.224	6.817	0.517
440.500	292.642	79.994	19.992	99.915	20.222	6.994	0.480
441.000	292.922	79.993	19.990	99.919	20.224	6.761	0.474
441.500	293.165	79.995	19.992	99.921	20.223	6.879	0.511
442.000	293.388	79.994	19.990	99.924	20.221	7.151	0.494
442.500	293.663	79.994	19.992	99.926	20.220	7.196	0.482
443.000	293.925	79.993	19.990	99.927	20.219	7.305	0.517
443.500	294.151	79.993	19.989	99.924	20.221	7.092	0.512
444.000	294.418	79.995	19.991	99.922	20.225	6.704	0.490
444.500	294.666	79.995	19.991	99.919	20.220	7.196	0.504
445.000	294.910	79.995	19.992	99.916	20.223	6.897	0.504
445.500	295.171	79.996	19.992	99.915	20.222	7.045	0.498
446.000	295.450	79.995	19.991	99.915	20.222	7.004	0.523
446.500	295.658	79.994	19.992	99.915	20.219	7.294	0.514
447.000	295.963	79.995	19.989	99.914	20.222	7.028	0.500
447.500	296.199	79.995	19.992	99.914	20.218	7.414	0.527
448.000	296.460	79.996	19.992	99.913	20.218	7.412	0.519
448.500	296.718	79.995	19.992	99.913	20.218	7.462	0.508
449.000	296.974	79.994	19.992	99.915	20.219	7.327	0.517
449.500	297.221	79.994	19.991	99.916	20.222	7.053	0.508
450.000	297.495	79.995	19.992	99.917	20.218	7.406	0.512
450.500	297.747	79.996	19.992	99.917	20.216	7.590	0.524
451.000	297.980	79.996	19.991	99.917	20.218	7.392	0.506
451.500	298.276	79.996	19.991	99.916	20.220	7.238	0.507
452.000	298.514	79.995	19.991	99.914	20.222	7.014	0.531
452.500	298.755	79.996	19.991	99.916	20.218	7.391	0.507
453.000	299.037	79.995	19.990	99.919	20.213	7.895	0.502
453.500	299.275	79.994	19.991	99.923	20.219	7.355	0.522
454.000	299.538	79.995	19.992	99.927	20.219	7.361	0.510
454.500	299.774	79.994	19.991	99.928	20.217	7.490	0.499
455.000	300.030	79.995	19.991	99.930	20.213	7.937	0.495
455.500	300.260	79.996	19.990	99.932	20.217	7.573	0.489
456.000	300.507	79.995	19.991	99.934	20.219	7.366	0.482
456.500	300.765	79.995	19.991	99.935	20.221	7.159	0.491
457.000	301.024	79.993	19.991	99.937	20.218	7.411	0.511
457.500	301.250	79.995	19.991	99.934	20.221	7.153	0.501
458.000	301.503	79.995	19.991	99.931	20.218	7.431	0.482
458.500	301.799	79.994	19.990	99.929	20.218	7.408	0.514
459.000	302.041	79.993	19.991	99.928	20.217	7.481	0.544
459.500	302.274	79.994	19.994	99.926	20.217	7.518	0.506
460.000	302.513	79.994	19.992	99.926	20.217	7.515	0.473
460.500	302.802	79.993	19.991	99.925	20.216	7.627	0.500
461.000	303.045	79.992	19.989	99.924	20.219	7.308	0.530
461.500	303.281	79.994	19.991	99.924	20.219	7.313	0.505
462.000	303.539	79.994	19.990	99.923	20.220	7.201	0.487
462.500	303.812	79.994	19.991	99.923	20.215	7.688	0.512
463.000	304.053	79.995	19.993	99.923	20.218	7.470	0.522
463.500	304.303	79.993	19.990	99.921	20.212	8.080	0.503
464.000	304.541	79.993	19.990	99.919	20.218	7.408	0.490
464.500	304.802	79.994	19.990	99.924	20.214	7.836	0.494
465.000	305.027	79.993	19.992	99.925	20.216	7.603	0.492
465.500	305.348	79.992	19.991	99.925	20.218	7.464	0.515
466.000	305.585	79.993	19.994	99.924	20.218	7.416	0.552
466.500	305.858	79.993	19.991	99.922	20.215	7.738	0.534
467.000	306.057	79.992	19.991	99.916	20.215	7.780	0.491
467.500	306.334	79.993	19.990	99.915	20.214	7.875	0.474
468.000	306.613	79.993	19.992	99.915	20.217	7.570	0.516
468.500	306.870	79.992	19.992	99.919	20.215	7.727	0.546
469.000	307.084	79.992	19.990	99.920	20.215	7.761	0.503
469.500	307.362	79.993	19.991	99.922	20.215	7.741	0.481
470.000	307.601	79.993	19.989	99.923	20.212	8.057	0.505
470.500	307.859	79.994	19.991	99.924	20.215	7.713	0.507
471.000	308.144	79.992	19.990	99.922	20.219	7.282	0.520
471.500	308.370	79.993	19.994	99.921	20.214	7.873	0.526
472.000	308.658	79.993	19.991	99.922	20.216	7.629	0.512
472.500	308.917	79.993	19.992	99.924	20.213	7.942	0.531
473.001	309.111	79.992	19.991	99.923	20.215	7.713	0.500
473.501	309.410	79.994	19.993	99.922	20.218	7.433	0.474
474.000	309.657	79.993	19.992	99.921	20.222	7.033	0.520
474.500	309.907	79.994	19.993	99.918	20.217	7.512	0.522
475.000	310.175	79.993	19.992	99.914	20.214	7.800	0.507
475.500	310.456	79.992	19.992	99.914	20.217	7.512	0.533
476.000	310.680	79.992	19.992	99.912	20.212	8.007	0.527
476.500	310.957	79.993	19.993	99.913	20.214	7.831	0.503
477.000	311.185	79.993	19.993	99.912	20.210	8.276	0.503
477.500	311.466	79.993	19.992	99.913	20.210	8.290	0.507
478.000	311.719	79.994	19.992	99.912	20.215	7.773	0.521
478.500	311.971	79.993	19.992	99.916	20.215	7.751	0.519
479.000	312.252	79.993	19.993	99.916	20.211	8.148	0.519
479.500	312.490	79.993	19.992	99.917	20.216	7.678	0.526
480.000	312.743	79.992	19.992	99.920	20.215	7.725	0.506
480.500	312.994	79.992	19.992	99.921	20.211	8.097	0.498
481.000	313.234	79.994	19.992	99.920	20.215	7.747	0.498
481.500	313.484	79.993	19.992	99.919	20.216	7.665	0.490
482.000	313.776	79.993	19.993	99.919	20.215	7.682	0.516
482.501	314.013	79.992	19.991	99.918	20.217	7.573	0.536
483.000	314.293	79.993	19.992	99.916	20.216	7.643	0.523
483.500	314.503	79.993	19.992	99.914	20.215	7.688	0.503
484.000	314.729	79.993	19.992	99.913	20.213	7.974	0.463
484.500	315.061	79.993	19.992	99.916	20.215	7.711	0.497
485.000	315.269	79.994	19.991	99.917	20.214	7.834	0.549
485.500	315.548	79.993	19.991	99.918	20.215	7.781	0.513
486.000	315.812	79.993	19.991	99.917	20.215	7.730	0.515
486.500	316.037	79.993	19.990	99.917	20.216	7.629	0.516
487.000	316.320	79.993	19.993	99.918	20.215	7.746	0.498
487.500	316.558	79.993	19.992	99.917	20.216	7.595	0.514
488.001	316.834	79.994	19.991	99.921	20.215	7.713	0.518
488.500	317.079	79.992	19.991	99.926	20.214	7.822	0.518
489.000	317.309	79.994	19.992	99.932	20.211	8.119	0.498
489.500	317.574	79.993	19.992	99.935	20.218	7.458	0.485
490.000	317.824	79.992	19.992	99.938	20.217	7.489	0.505
490.500	318.079	79.992	19.992	99.937	20.215	7.727	0.510
491.000	318.322	79.994	19.991	99.933	20.215	7.752	0.501
491.500	318.584	79.993	19.990	99.927	20.216	7.621	0.501
492.000	318.837	79.992	19.991	99.921	20.217	7.576	0.510
492.500	319.103	79.993	19.992	99.915	20.216	7.624	0.517
493.000	319.354	79.993	19.992	99.914	20.214	7.805	0.518
493.500	319.601	79.992	19.992	99.916	20.217	7.537	0.507
494.000	319.848	79.993	19.991	99.917	20.220	7.184	0.496
494.500	320.086	79.993	19.992	99.919	20.215	7.716	0.489
495.000	320.329	79.994	19.991	99.924	20.210	8.245	0.483
495.500	320.624	79.994	19.992	99.924	20.215	7.710	0.510
496.000	320.879	79.995	19.993	99.921	20.214	7.872	0.544
496.500	321.169	79.993	19.991	99.922	20.209	8.306	0.548
497.000	321.411	79.993	19.992	99.920	20.218	7.433	0.538
497.500	321.637	79.995	19.992	99.916	20.212	8.009	0.500
498.000	321.939	79.993	19.992	99.914	20.218	7.383	0.498
498.500	322.185	79.993	19.991	99.914	20.219	7.341	0.538
499.000	322.439	79.994	19.990	99.913	20.218	7.436	0.523
499.500	322.674	79.994	19.991	99.913	20.213	7.979	0.494
500.000	322.905	79.993	19.993	99.914	20.217	7.576	0.478
500.500	323.183	79.994	19.991	99.916	20.217	7.495	0.487
501.000	323.448	79.994	19.991	99.917	20.216	7.613	0.526
501.500	323.684	79.994	19.991	99.918	20.214	7.825	0.522
502.000	323.924	79.995	19.991	99.918	20.212	8.080	0.488
502.500	324.187	79.994	19.990	99.918	20.215	7.719	0.490
503.000	324.437	79.995	19.990	99.919	20.213	7.895	0.508
503.500	324.676	79.995	19.992	99.920	20.214	7.878	0.501
504.000	324.942	79.993	19.992	99.919	20.216	7.680	0.496
504.500	325.219	79.995	19.990	99.921	20.212	7.996	0.524
505.000	325.461	79.993	19.990	99.921	20.214	7.837	0.531
505.500	325.722	79.993	19.991	99.920	20.217	7.515	0.511
506.000	326.004	79.993	19.990	99.918	20.214	7.873	0.523
506.500	326.247	79.994	19.991	99.918	20.215	7.714	0.534
507.000	326.504	79.994	19.991	99.916	20.215	7.769	0.512
507.500	326.752	79.994	19.991	99.915	20.214	7.828	0.502
508.000	326.980	79.994	19.993	99.914	20.209	8.298	0.490
508.500	327.267	79.994	19.991	99.914	20.216	7.621	0.496
509.000	327.529	79.994	19.992	99.914	20.213	7.954	0.532
509.500	327.768	79.995	19.992	99.915	20.211	8.155	0.525
510.000	328.029	79.993	19.992	99.916	20.210	8.217	0.500
510.500	328.281	79.993	19.990	99.917	20.213	7.971	0.506
511.000	328.519	79.995	19.990	99.919	20.219	7.360	0.502
511.500	328.778	79.994	19.991	99.922	20.213	7.906	0.493
512.000	329.033	79.994	19.991	99.922	20.214	7.881	0.505
512.500	329.307	79.994	19.992	99.921	20.213	7.976	0.522
513.000	329.522	79.994	19.992	99.921	20.212	8.085	0.509
513.500	329.777	79.994	19.992	99.921	20.212	8.032	0.479
514.000	330.065	79.994	19.992	99.919	20.210	8.217	0.506
514.500	330.315	79.993	19.991	99.919	20.212	8.007	0.540
515.000	330.558	79.994	19.991	99.920	20.210	8.206	0.516
515.500	330.793	79.994	19.991	99.923	20.215	7.766	0.485
516.000	331.054	79.992	19.990	99.925	20.213	7.889	0.487
516.500	331.327	79.994	19.989	99.925	20.214	7.802	0.515
517.000	331.543	79.994	19.990	99.925	20.210	8.233	0.511
517.500	331.813	79.994	19.990	99.925	20.219	7.330	0.487
518.000	332.089	79.994	19.991	99.920	20.209	8.306	0.516
518.500	332.287	79.993	19.992	99.917	20.218	7.461	0.510
519.000	332.581	79.995	19.990	99.917	20.214	7.834	0.483
519.500	332.801	79.995	19.990	99.918	20.208	8.433	0.503
520.000	333.096	79.993	19.990	99.918	20.208	8.416	0.515
520.500	333.346	79.995	19.992	99.919	20.210	8.263	0.530
521.000	333.583	79.995	19.991	99.919	20.205	8.761	0.516
521.500	333.854	79.993	19.989	99.919	20.208	8.442	0.497
522.000	334.109	79.993	19.990	99.918	20.207	8.588	0.517
522.500	334.366	79.995	19.990	99.918	20.210	8.198	0.519
523.000	334.606	79.994	19.991	99.917	20.209	8.371	0.504
523.500	334.845	79.995	19.991	99.918	20.210	8.292	0.488
524.000	335.099	79.994	19.990	99.918	20.214	7.794	0.486
524.500	335.387	79.994	19.991	99.919	20.209	8.363	0.517
525.000	335.597	79.993	19.989	99.918	20.210	8.195	0.520
525.500	335.851	79.996	19.991	99.918	20.207	8.520	0.481
526.000	336.087	79.996	19.989	99.917	20.208	8.411	0.477
526.500	336.341	79.995	19.990	99.917	20.211	8.123	0.490
527.000	336.610	79.995	19.991	99.915	20.209	8.339	0.507
527.500	336.862	79.995	19.990	99.915	20.208	8.411	0.522
528.000	337.094	79.996	19.990	99.916	20.206	8.655	0.503
528.500	337.390	79.996	19.990	99.918	20.210	8.257	0.506
529.000	337.647	79.996	19.991	99.919	20.206	8.652	0.540
529.500	337.916	79.997	19.991	99.921	20.208	8.478	0.540
530.000	338.160	79.994	19.987	99.923	20.211	8.114	0.520
530.500	338.409	79.997	19.991	99.923	20.205	8.732	0.503
531.000	338.658	79.997	19.989	99.928	20.206	8.626	0.496
531.500	338.911	79.997	19.989	99.933	20.202	9.040	0.500
532.000	339.158	79.996	19.989	99.933	20.199	9.326	0.501
532.500	339.384	79.997	19.991	99.933	20.204	8.869	0.486
533.000	339.659	79.996	19.991	99.935	20.201	9.112	0.487
533.500	339.881	79.996	19.989	99.928	20.204	8.900	0.499
534.000	340.096	79.995	19.988	99.921	20.202	9.065	0.467
534.500	340.383	79.996	19.991	99.918	20.199	9.331	0.470
535.000	340.637	79.995	19.991	99.921	20.205	8.765	0.521
535.500	340.895	79.995	19.991	99.923	20.204	8.878	0.527
536.000	341.175	79.995	19.991	99.929	20.202	9.082	0.525
536.500	341.460	79.995	19.990	99.932	20.207	8.561	0.552
537.000	341.688	79.995	19.991	99.936	20.204	8.858	0.538
537.500	341.923	79.995	19.991	99.936	20.199	9.339	0.488
538.000	342.195	79.995	19.993	99.936	20.198	9.490	0.485
538.500	342.453	79.994	19.990	99.936	20.200	9.247	0.518
539.000	342.682	79.995	19.992	99.936	20.200	9.269	0.509
539.500	342.945	79.992	19.991	99.934	20.197	9.619	0.489
540.000	343.161	79.993	19.992	99.930	20.201	9.141	0.485
540.500	343.438	79.993	19.990	99.925	20.194	9.893	0.486
541.000	343.697	79.994	19.991	99.921	20.198	9.462	0.515
541.500	343.958	79.992	19.991	99.923	20.197	9.611	0.528
542.000	344.193	79.994	19.991	99.924	20.196	9.669	0.508
542.500	344.421	79.995	19.991	99.924	20.195	9.739	0.479
543.000	344.713	79.994	19.993	99.924	20.196	9.650	0.492
543.500	344.961	79.993	19.991	99.922	20.191	10.137	0.530
544.000	345.206	79.994	19.992	99.917	20.194	9.905	0.516
544.500	345.452	79.993	19.991	99.917	20.193	9.992	0.492
545.000	345.712	79.993	19.992	99.916	20.194	9.911	0.499
545.500	345.957	79.995	19.991	99.917	20.194	9.897	0.506
546.000	346.178	79.995	19.993	99.920	20.193	9.933	0.485
546.500	346.438	79.994	19.990	99.924	20.195	9.815	0.473
547.000	346.686	79.993	19.991	99.923	20.194	9.880	0.494
547.500	346.939	79.994	19.992	99.923	20.189	10.421	0.505
548.000	347.214	79.995	19.992	99.923	20.185	10.805	0.514
548.500	347.466	79.996	19.993	99.921	20.191	10.164	0.527
549.000	347.731	79.993	19.992	99.917	20.184	10.945	0.522
549.500	347.978	79.993	19.991	99.916	20.190	10.304	0.515
550.000	348.270	79.994	19.992	99.917	20.184	10.874	0.525
550.500	348.514	79.994	19.992	99.919	20.182	11.070	0.538
551.000	348.775	79.994	19.993	99.920	20.180	11.343	0.521
551.500	349.019	79.992	19.991	99.919	20.184	10.942	0.505
552.000	349.304	79.995	19.992	99.920	20.187	10.604	0.517
552.500	349.527	79.995	19.992	99.920	20.181	11.198	0.518
553.000	349.784	79.993	19.991	99.918	20.180	11.265	0.494
553.500	350.028	79.994	19.992	99.916	20.185	10.796	0.490
554.000	350.271	79.994	19.991	99.916	20.180	11.283	0.494
554.500	350.491	79.993	19.991	99.923	20.176	11.717	0.475
555.000	350.770	79.993	19.993	99.924	20.185	10.763	0.481
555.500	351.028	79.994	19.992	99.926	20.181	11.217	0.518
556.000	351.260	79.994	19.993	99.927	20.181	11.178	0.513
556.500	351.500	79.994	19.991	99.927	20.182	11.100	0.481
557.000	351.777	79.994	19.992	99.920	20.181	11.198	0.495
557.500	352.004	79.994	19.993	99.922	20.181	11.176	0.511
558.000	352.317	79.994	19.992	99.928	20.181	11.196	0.522
558.500	352.607	79.994	19.993	99.933	20.173	12.016	0.572
559.000	352.841	79.994	19.991	99.937	20.176	11.700	0.564
559.500	353.092	79.994	19.992	99.944	20.176	11.697	0.505
560.000	353.367	79.994	19.991	99.941	20.172	12.086	0.505
560.500	353.563	79.994	19.992	99.935	20.177	11.652	0.498
561.000	353.845	79.994	19.992	99.930	20.177	11.610	0.475
561.500	354.111	79.993	19.992	99.926	20.179	11.438	0.513
562.000	354.322	79.995	19.991	99.919	20.176	11.673	0.512
562.500	354.552	79.993	19.992	99.916	20.177	11.622	0.459
563.000	354.821	79.994	19.990	99.921	20.172	12.150	0.470
563.500	355.060	79.992	19.991	99.922	20.169	12.422	0.504
564.000	355.334	79.994	19.991	99.924	20.173	12.075	0.510
564.500	355.593	79.992	19.990	99.929	20.167	12.613	0.523
565.000	355.850	79.992	19.991	99.933	20.165	12.888	0.525
565.500	356.091	79.992	19.992	99.935	20.168	12.505	0.507
566.000	356.349	79.994	19.992	99.939	20.164	12.961	0.499
566.500	356.596	79.993	19.992	99.945	20.166	12.788	0.502
567.000	356.847	79.992	19.992	99.947	20.162	13.183	0.501
567.500	357.103	79.992	19.992	99.950	20.167	12.690	0.503
568.000	357.352	79.993	19.991	99.951	20.157	13.631	0.506
568.500	357.627	79.993	19.992	99.953	20.161	13.205	0.515
569.000	357.910	79.994	19.994	99.953	20.168	12.570	0.541
569.500	358.126	79.994	19.992	99.953	20.161	13.225	0.529
570.000	358.400	79.992	19.993	99.953	20.158	13.525	0.495
570.500	358.687	79.994	19.994	99.952	20.158	13.533	0.525
571.000	358.930	79.994	19.993	99.951	20.161	13.275	0.545
571.500	359.173	79.993	19.992	99.951	20.164	12.909	0.508
572.000	359.408	79.992	19.993	99.950	20.159	13.469	0.482
572.500	359.695	79.991	19.991	99.945	20.161	13.304	0.500
573.000	359.901	79.993	19.991	99.939	20.155	13.856	0.508
573.500	360.182	79.992	19.993	99.934	20.162	13.181	0.490
574.000	360.451	79.990	19.991	99.928	20.152	14.135	0.518
574.500	360.730	79.994	19.991	99.927	20.159	13.468	0.549
575.000	360.968	79.991	19.991	99.931	20.153	14.035	0.533
575.500	361.232	79.994	19.992	99.934	20.153	14.028	0.510
576.000	361.504	79.994	19.991	99.939	20.149	14.503	0.519
576.500	361.738	79.993	19.994	99.942	20.156	13.786	0.521
577.000	361.962	79.994	19.993	99.944	20.153	14.041	0.482
577.500	362.184	79.993	19.991	99.945	20.151	14.319	0.452
578.000	362.442	79.992	19.991	99.946	20.153	14.026	0.463
578.500	362.708	79.993	19.993	99.947	20.154	13.946	0.502
579.000	362.934	79.992	19.989	99.949	20.154	13.952	0.508
579.500	363.218	79.994	19.993	99.950	20.154	13.975	0.501
580.000	363.431	79.994	19.991	99.950	20.152	14.195	0.503
580.500	363.715	79.993	19.992	99.950	20.151	14.298	0.497
581.000	363.958	79.994	19.990	99.952	20.146	14.836	0.512
581.500	364.252	79.994	19.991	99.950	20.149	14.514	0.532
582.000	364.476	79.993	19.990	99.950	20.154	13.943	0.527
582.500	364.740	79.994	19.992	99.951	20.149	14.466	0.503
583.000	364.993	79.994	19.991	99.953	20.151	14.239	0.503
583.500	365.257	79.994	19.992	99.953	20.145	14.858	0.517
584.000	365.489	79.995	19.990	99.954	20.148	14.606	0.506
584.500	365.763	79.994	19.990	99.954	20.148	14.634	0.501
585.000	366.004	79.994	19.990	99.952	20.147	14.734	0.511
585.500	366.271	79.994	19.993	99.944	20.151	14.267	0.512
586.001	366.521	79.994	19.991	99.937	20.143	15.064	0.513
586.501	366.766	79.994	19.991	99.930	20.143	15.059	0.506
587.001	367.039	79.996	19.993	99.923	20.141	15.342	0.507
587.501	367.290	79.995	19.993	99.919	20.141	15.317	0.521
588.001	367.557	79.995	19.991	99.920	20.139	15.484	0.520
588.500	367.822	79.994	19.990	99.925	20.142	15.179	0.525
589.000	368.099	79.996	19.990	99.932	20.137	15.716	0.537
589.500	368.345	79.994	19.991	99.938	20.138	15.593	0.533
590.000	368.587	79.994	19.989	99.944	20.137	15.679	0.505
590.500	368.830	79.997	19.992	99.945	20.135	15.950	0.486
591.000	369.047	79.995	19.992	99.939	20.138	15.583	0.472
591.500	369.346	79.995	19.994	99.937	20.133	16.084	0.488
592.000	369.620	79.994	19.991	99.936	20.135	15.956	0.545
592.500	369.857	79.993	19.991	99.936	20.134	16.048	0.542
593.000	370.097	79.995	19.991	99.942	20.141	15.348	0.494
593.500	370.393	79.995	19.990	99.953	20.132	16.233	0.506
594.000	370.587	79.995	19.992	99.954	20.133	16.164	0.513
594.500	370.866	79.995	19.991	99.955	20.133	16.105	0.482
595.000	371.139	79.994	19.990	99.954	20.132	16.196	0.512
595.500	371.385	79.994	19.991	99.954	20.129	16.554	0.535
596.000	371.658	79.993	19.991	99.950	20.128	16.644	0.519
596.500	371.938	79.994	19.992	99.951	20.136	15.848	0.536
597.000	372.181	79.995	19.992	99.951	20.132	16.237	0.538
597.500	372.439	79.995	19.991	99.951	20.131	16.276	0.512
598.000	372.735	79.995	19.991	99.952	20.122	17.192	0.527
598.500	372.937	79.994	19.991	99.952	20.126	16.842	0.526
599.000	373.253	79.993	19.992	99.950	20.126	16.817	0.508
599.500	373.491	79.994	19.990	99.950	20.120	17.424	0.536
600.000	373.736	79.996	19.992	99.949	20.124	17.010	0.519
600.500	373.969	79.993	19.991	99.944	20.120	17.407	0.480
601.000	374.233	79.995	19.991	99.940	20.123	17.108	0.487
601.501	374.491	79.994	19.989	99.941	20.128	16.607	0.510
602.000	374.738	79.993	19.991	99.938	20.124	17.061	0.514
602.500	374.997	79.994	19.991	99.938	20.122	17.250	0.506
603.000	375.290	79.995	19.991	99.940	20.125	16.919	0.529
603.501	375.518	79.994	19.992	99.940	20.121	17.347	0.537
604.001	375.799	79.995	19.992	99.939	20.115	17.972	0.515
604.500	376.053	79.996	19.990	99.943	20.114	18.033	0.522
605.000	376.264	79.996	19.992	99.945	20.113	18.163	0.500
605.500	376.548	79.995	19.991	99.947	20.119	17.553	0.480
606.000	376.788	79.996	19.990	99.952	20.120	17.466	0.509
606.500	377.034	79.996	19.992	99.954	20.110	18.485	0.505
607.000	377.292	79.995	19.991	99.952	20.110	18.424	0.495
607.500	377.576	79.996	19.990	99.949	20.111	18.396	0.523
608.000	377.830	79.995	19.991	99.948	20.110	18.494	0.540
608.500	378.074	79.997	19.992	99.949	20.109	18.561	0.518
609.000	378.332	79.996	19.993	99.948	20.113	18.128	0.500
609.500	378.591	79.997	19.991	99.948	20.107	18.775	0.510
610.000	378.830	79.997	19.990	99.950	20.095	19.970	0.507
610.500	379.068	79.996	19.991	99.950	20.102	19.321	0.487
611.000	379.358	79.995	19.990	99.947	20.111	18.367	0.503
611.501	379.607	79.997	19.989	99.948	20.105	18.978	0.534
612.000	379.865	79.997	19.990	99.948	20.103	19.138	0.523
612.500	380.149	79.999	19.991	99.949	20.105	18.990	0.524
613.000	380.394	79.998	19.993	99.952	20.104	19.121	0.535
613.500	380.668	79.995	19.991	99.960	20.103	19.145	0.524
614.000	380.904	79.996	19.994	99.959	20.099	19.588	0.514
614.500	381.187	79.996	19.990	99.959	20.101	19.395	0.514
615.000	381.416	79.995	19.990	99.958	20.106	18.894	0.515
615.500	381.674	79.997	19.989	99.955	20.105	19.003	0.499
616.000	381.919	79.997	19.991	99.950	20.102	19.300	0.495
616.500	382.183	79.998	19.990	99.950	20.099	19.606	0.506
617.000	382.426	79.998	19.989	99.950	20.101	19.345	0.508
617.501	382.687	79.998	19.993	99.950	20.104	19.044	0.506
618.000	382.991	79.996	19.990	99.951	20.103	19.142	0.535
618.500	383.191	79.997	19.992	99.951	20.105	18.980	0.535
619.000	383.447	79.996	19.993	99.951	20.101	19.425	0.480
619.500	383.701	79.995	19.994	99.952	20.101	19.426	0.483
620.000	383.961	79.996	19.992	99.956	20.098	19.677	0.512
620.500	384.201	79.995	19.994	99.955	20.097	19.780	0.507
621.000	384.488	79.994	19.993	99.956	20.093	20.167	0.514
621.500	384.729	79.995	19.991	99.958	20.093	20.247	0.528
622.000	385.021	79.993	19.991	99.961	20.096	19.931	0.530
622.500	385.260	79.994	19.992	99.965	20.097	19.775	0.532
623.000	385.505	79.994	19.994	99.967	20.097	19.845	0.507
623.500	385.760	79.993	19.992	99.967	20.094	20.066	0.492
624.000	386.017	79.993	19.988	99.965	20.094	20.095	0.506
624.500	386.273	79.994	19.992	99.959	20.090	20.467	0.513
625.000	386.520	79.994	19.995	99.949	20.095	19.968	0.507
625.500	386.794	79.993	19.992	99.947	20.095	20.033	0.512
626.000	387.053	79.993	19.992	99.947	20.097	19.775	0.527
626.500	387.274	79.992	19.992	99.947	20.100	19.478	0.506
627.000	387.543	79.992	19.991	99.949	20.097	19.769	0.485
627.500	387.797	79.993	19.993	99.953	20.094	20.127	0.507
628.000	388.045	79.993	19.992	99.953	20.096	19.925	0.513
628.500	388.316	79.994	19.993	99.957	20.095	19.962	0.510
629.000	388.554	79.993	19.992	99.957	20.099	19.558	0.513
629.500	388.846	79.994	19.993	99.958	20.093	20.169	0.519
630.000	389.070	79.994	19.992	99.961	20.089	20.601	0.523
630.500	389.352	79.992	19.991	99.962	20.098	19.728	0.511
631.000	389.626	79.994	19.991	99.958	20.092	20.335	0.531
631.500	389.870	79.993	19.992	99.958	20.087	20.857	0.538
632.000	390.162	79.994	19.993	99.958	20.087	20.832	0.527
632.500	390.401	79.991	19.991	99.956	20.092	20.296	0.533
633.000	390.690	79.993	19.990	99.957	20.088	20.710	0.529
633.500	390.894	79.992	19.993	99.959	20.087	20.837	0.510
634.000	391.148	79.994	19.991	99.959	20.089	20.626	0.476
634.500	391.416	79.993	19.991	99.961	20.088	20.671	0.490
635.000	391.700	79.993	19.990	99.962	20.086	20.912	0.537
635.500	391.947	79.993	19.990	99.961	20.087	20.820	0.542
636.000	392.194	79.993	19.991	99.961	20.085	21.029	0.513
636.500	392.458	79.993	19.992	99.960	20.084	21.165	0.502
637.000	392.738	79.995	19.990	99.958	20.084	21.099	0.527
637.500	393.018	79.994	19.992	99.957	20.083	21.220	0.552
638.000	393.250	79.993	19.994	99.955	20.084	21.104	0.536
638.500	393.515	79.993	19.991	99.953	20.081	21.406	0.504
639.000	393.765	79.994	19.991	99.954	20.079	21.596	0.506
639.500	394.037	79.993	19.990	99.955	20.082	21.321	0.518
640.000	394.343	79.994	19.991	99.954	20.081	21.465	0.550
640.500	394.522	79.994	19.991	99.954	20.077	21.889	0.532
641.000	394.825	79.994	19.991	99.958	20.080	21.492	0.484
641.500	395.085	79.992	19.993	99.964	20.077	21.815	0.523
642.000	395.311	79.993	19.991	99.971	20.080	21.579	0.525
642.500	395.543	79.990	19.992	99.979	20.077	21.816	0.473
643.000	395.791	79.993	19.991	99.979	20.073	22.301	0.469
643.500	396.054	79.993	19.992	99.976	20.069	22.701	0.495
644.000	396.322	79.992	19.991	99.970	20.066	22.969	0.521
644.500	396.550	79.994	19.992	99.966	20.067	22.841	0.514
645.000	396.822	79.994	19.991	99.959	20.064	23.218	0.498
645.500	397.046	79.993	19.989	99.960	20.064	23.204	0.498
646.000	397.308	79.993	19.990	99.963	20.054	24.199	0.491
646.500	397.569	79.993	19.994	99.962	20.053	24.298	0.505
647.000	397.810	79.993	19.995	99.960	20.051	24.490	0.512
647.500	398.074	79.992	19.990	99.964	20.050	24.564	0.504
648.000	398.346	79.993	19.991	99.969	20.046	25.048	0.521
648.500	398.573	79.991	19.990	99.974	20.042	25.424	0.517
649.000	398.854	79.992	19.991	99.980	20.034	26.239	0.504
649.500	399.130	79.992	19.990	99.981	20.031	26.548	0.533
650.000	399.382	79.994	19.992	99.979	20.034	26.292	0.542
650.500	399.568	79.991	19.992	99.973	20.031	26.599	0.483
651.000	399.831	79.991	19.993	99.965	20.028	26.906	0.444
651.500	400.123	79.992	19.993	99.959	20.022	27.453	0.502
652.000	400.335	79.991	19.994	99.965	20.023	27.404	0.530
652.500	400.604	79.992	19.991	99.970	20.020	27.706	0.493
653.000	400.883	79.992	19.992	99.976	20.015	28.170	0.515
653.500	401.085	79.993	19.991	99.984	20.017	27.981	0.514
654.000	401.372	79.992	19.991	99.989	20.010	28.742	0.485
654.500	401.636	79.992	19.992	99.986	20.010	28.757	0.520
655.000	401.864	79.994	19.992	99.980	20.005	29.218	0.521
655.500	402.169	79.992	19.991	99.973	20.003	29.451	0.513
656.000	402.413	79.993	19.993	99.969	19.996	30.172	0.541
656.500	402.659	79.991	19.992	99.969	19.991	30.695	0.520
657.000	402.913	79.992	19.992	99.973	19.982	31.540	0.496
657.500	403.173	79.992	19.993	99.978	19.982	31.606	0.507
658.000	403.421	79.993	19.994	99.983	19.978	32.015	0.511
658.500	403.640	79.993	19.993	99.988	19.972	32.640	0.488
659.000	403.924	79.992	19.992	99.996	19.967	33.093	0.485
659.500	404.145	79.994	19.992	99.999	19.961	33.757	0.504
660.000	404.406	79.992	19.992	100.000	19.965	33.309	0.493
660.500	404.632	79.993	19.992	100.002	19.957	34.090	0.484
661.000	404.884	79.993	19.992	100.000	19.955	34.390	0.482
661.500	405.180	79.994	19.994	99.993	19.950	34.878	0.513
662.000	405.420	79.993	19.993	99.990	19.947	35.194	0.542
662.500	405.671	79.995	19.992	99.994	19.943	35.571	0.513
663.000	405.882	79.993	19.992	100.000	19.942	35.706	0.477
663.500	406.181	79.993	19.991	100.007	19.939	36.026	0.486
664.000	406.397	79.994	19.993	100.014	19.935	36.404	0.512
664.500	406.691	79.994	19.992	100.020	19.930	36.876	0.513
665.000	406.937	79.994	19.991	100.016	19.927	37.171	0.526
665.500	407.205	79.993	19.991	100.009	19.922	37.692	0.527
666.000	407.457	79.995	19.992	100.005	19.921	37.826	0.517
666.500	407.719	79.994	19.991	99.997	19.913	38.610	0.517
667.000	407.942	79.994	19.993	99.991	19.914	38.580	0.500
667.500	408.206	79.995	19.992	99.990	19.904	39.601	0.486
668.000	408.477	79.995	19.991	99.996	19.900	40.025	0.511
668.500	408.717	79.995	19.991	100.001	19.896	40.354	0.523
669.000	408.934	79.996	19.992	100.010	19.891	40.862	0.484
669.500	409.233	79.996	19.990	100.018	19.888	41.179	0.487
670.000	409.462	79.994	19.991	100.026	19.883	41.729	0.522
670.500	409.746	79.994	19.991	100.026	19.875	42.528	0.521
671.000	410.020	79.994	19.990	100.026	19.876	42.478	0.535
671.500	410.241	79.993	19.991	100.025	19.867	43.353	0.526
672.000	410.478	79.995	19.992	100.025	19.861	44.026	0.476
672.500	410.736	79.996	19.991	100.027	19.857	44.381	0.476
673.000	410.997	79.996	19.991	100.032	19.853	44.805	0.507
673.500	411.205	79.995	19.994	100.036	19.844	45.704	0.494
674.000	411.462	79.996	19.991	100.039	19.839	46.276	0.467
674.500	411.706	79.995	19.992	100.040	19.832	46.976	0.483
675.000	411.971	79.995	19.992	100.039	19.827	47.512	0.506
675.500	412.193	79.995	19.987	100.041	19.817	48.490	0.498
676.000	412.480	79.995	19.990	100.044	19.810	49.200	0.498
676.500	412.723	79.995	19.993	100.045	19.803	49.943	0.520
677.000	412.953	79.995	19.990	100.049	19.797	50.529	0.501
677.500	413.225	79.995	19.993	100.055	19.792	51.093	0.487
678.000	413.421	79.996	19.991	100.058	19.779	52.412	0.485
678.500	413.695	79.994	19.989	100.059	19.772	53.144	0.470
679.000	413.962	79.995	19.990	100.063	19.761	54.220	0.506
679.500	414.180	79.993	19.990	100.065	19.758	54.598	0.513
680.000	414.431	79.993	19.992	100.073	19.749	55.436	0.477
680.500	414.720	79.993	19.990	100.081	19.743	56.077	0.504
681.000	414.913	79.995	19.991	100.089	19.736	56.797	0.511
681.500	415.209	79.993	19.990	100.094	19.726	57.822	0.486
682.000	415.432	79.994	19.990	100.098	19.722	58.246	0.504
682.500	415.682	79.993	19.989	100.098	19.709	59.564	0.496
683.000	415.925	79.995	19.992	100.091	19.701	60.363	0.483
683.500	416.138	79.995	19.991	100.083	19.697	60.853	0.474
684.000	416.413	79.996	19.991	100.078	19.685	62.062	0.472
684.500	416.677	79.994	19.991	100.075	19.681	62.479	0.514
685.000	416.926	79.994	19.990	100.069	19.674	63.222	0.526
685.500	417.199	79.995	19.992	100.075	19.667	63.887	0.518
686.000	417.428	79.993	19.993	100.083	19.659	64.714	0.512
686.500	417.704	79.996	19.991	100.088	19.654	65.242	0.503
687.000	417.951	79.995	19.993	100.089	19.643	66.349	0.514
687.500	418.164	79.995	19.992	100.090	19.640	66.697	0.491
688.000	418.451	79.995	19.992	100.089	19.630	67.727	0.480
688.500	418.695	79.994	19.991	100.089	19.623	68.438	0.516
689.000	418.960	79.994	19.989	100.092	19.616	69.182	0.520
689.500	419.195	79.994	19.990	100.099	19.605	70.270	0.504
690.000	419.442	79.996	19.990	100.112	19.596	71.194	0.491
690.500	419.682	79.995	19.993	100.122	19.582	72.642	0.485
691.000	419.932	79.995	19.992	100.131	19.574	73.506	0.489
691.500	420.224	79.995	19.990	100.139	19.564	74.526	0.516
692.000	420.448	79.998	19.989	100.147	19.558	75.169	0.528
692.500	420.661	79.996	19.990	100.149	19.549	76.087	0.476
693.000	420.934	79.996	19.990	100.150	19.539	77.035	0.462
693.500	421.177	79.995	19.991	100.149	19.529	78.060	0.501
694.000	421.408	79.996	19.990	100.154	19.525	78.515	0.495
694.500	421.689	79.995	19.990	100.156	19.516	79.401	0.493
695.000	421.942	79.996	19.991	100.161	19.507	80.350	0.523
695.500	422.210	79.995	19.990	100.169	19.499	81.118	0.528
696.000	422.439	79.996	19.990	100.176	19.490	82.119	0.508
696.500	422.693	79.997	19.991	100.177	19.478	83.330	0.490
697.000	422.953	79.996	19.990	100.176	19.466	84.557	0.499
697.500	423.193	79.995	19.990	100.176	19.455	85.660	0.507
698.000	423.428	79.995	19.990	100.170	19.448	86.426	0.487
698.500	423.672	79.996	19.990	100.165	19.429	88.300	0.477
699.000	423.931	79.997	19.990	100.166	19.415	89.748	0.491
699.500	424.158	79.995	19.991	100.171	19.392	92.172	0.495
700.000	424.467	79.997	19.991	100.173	19.376	93.857	0.510
700.500	424.704	79.996	19.992	100.184	19.360	95.477	0.541
701.000	424.955	79.995	19.988	100.201	19.350	96.556	0.518
701.500	425.200	79.996	19.991	100.220	19.331	98.466	0.492
702.000	425.467	79.994	19.991	100.230	19.321	99.540	0.504
702.500	425.690	79.996	19.991	100.236	19.310	100.709	0.500
703.000	425.988	79.995	19.990	100.239	19.290	102.721	0.506
703.500	426.196	79.995	19.989	100.236	19.281	103.647	0.514
704.000	426.452	79.994	19.989	100.231	19.272	104.560	0.485
704.500	426.657	79.993	19.992	100.232	19.257	106.188	0.462
705.000	426.932	79.993	19.992	100.231	19.246	107.295	0.471
705.500	427.158	79.995	19.993	100.226	19.236	108.380	0.491
706.000	427.429	79.993	19.990	100.219	19.226	109.427	0.499
706.500	427.712	79.994	19.991	100.207	19.207	111.331	0.526
707.000	427.945	79.993	19.990	100.207	19.197	112.389	0.535
707.500	428.218	79.993	19.990	100.215	19.187	113.342	0.511
708.000	428.456	79.994	19.992	100.215	19.173	114.791	0.508
708.500	428.699	79.992	19.992	100.215	19.161	115.966	0.496
709.000	428.962	79.993	19.992	100.225	19.150	117.040	0.494
709.500	429.216	79.992	19.990	100.232	19.135	118.555	0.512
710.000	429.476	79.993	19.990	100.241	19.120	120.064	0.516
710.500	429.713	79.993	19.990	100.267	19.105	121.590	0.505
711.000	429.920	79.993	19.992	100.297	19.090	123.190	0.470
711.500	430.207	79.994	19.993	100.320	19.071	125.104	0.469
712.000	430.431	79.993	19.990	100.339	19.055	126.690	0.502
712.500	430.693	79.993	19.991	100.356	19.029	129.440	0.499
713.000	430.940	79.993	19.993	100.365	19.003	132.099	0.498
713.500	431.125	79.993	19.989	100.373	18.979	134.606	0.470
714.000	431.410	79.992	19.991	100.380	18.949	137.654	0.450
714.500	431.712	79.993	19.991	100.383	18.927	139.986	0.528
715.000	431.904	79.993	19.992	100.386	18.903	142.533	0.541
715.500	432.189	79.993	19.993	100.396	18.877	145.186	0.486
716.000	432.384	79.993	19.992	100.411	18.860	146.978	0.479
716.500	432.660	79.993	19.991	100.424	18.840	148.983	0.476
717.000	432.911	79.993	19.992	100.432	18.830	150.054	0.499
717.500	433.162	79.992	19.991	100.431	18.815	151.612	0.514
718.000	433.425	79.994	19.991	100.420	18.801	152.999	0.508
718.500	433.703	79.993	19.990	100.397	18.794	153.742	0.528
719.000	433.953	79.992	19.992	100.375	18.786	154.527	0.535
719.500	434.190	79.995	19.991	100.350	18.778	155.414	0.508
720.000	434.471	79.994	19.991	100.327	18.770	156.243	0.502
720.500	434.707	79.994	19.992	100.306	18.768	156.420	0.517
721.000	434.964	79.993	19.990	100.289	18.759	157.387	0.505
721.500	435.222	79.994	19.992	100.274	18.756	157.654	0.504
722.000	435.470	79.995	19.991	100.266	18.749	158.342	0.511
722.500	435.730	79.994	19.992	100.263	18.747	158.589	0.507
723.000	435.971	79.994	19.990	100.263	18.741	159.222	0.504
723.500	436.192	79.994	19.990	100.267	18.740	159.289	0.482
724.000	436.476	79.994	19.995	100.278	18.733	160.099	0.484
724.500	436.739	79.996	19.992	100.297	18.733	160.096	0.526
725.000	436.996	79.994	19.992	100.328	18.734	159.915	0.533
725.500	437.255	79.993	19.992	100.358	18.722	161.159	0.518
726.000	437.457	79.995	19.993	100.386	18.729	160.493	0.489
726.500	437.746	79.991	19.992	100.411	18.722	161.124	0.476
727.000	438.004	79.993	19.991	100.424	18.724	160.968	0.519
727.500	438.241	79.993	19.991	100.429	18.714	161.924	0.521
728.000	438.507	79.993	19.990	100.435	18.716	161.750	0.499
728.500	438.762	79.994	19.991	100.434	18.719	161.458	0.512
729.000	438.974	79.992	19.991	100.431	18.714	162.006	0.494
729.500	439.230	79.994	19.990	100.429	18.710	162.358	0.467
730.000	439.506	79.993	19.992	100.426	18.709	162.517	0.500
730.500	439.772	79.993	19.991	100.421	18.706	162.858	0.537
731.000	440.074	79.993	19.992	100.420	18.705	162.966	0.555
731.500	440.311	79.996	19.992	100.420	18.704	162.990	0.554
732.000	440.596	79.992	19.991	100.421	18.701	163.385	0.531
732.500	440.805	79.995	19.991	100.423	18.693	164.232	0.509
733.000	441.069	79.992	19.990	100.430	18.689	164.620	0.483
733.500	441.339	79.994	19.992	100.438	18.688	164.666	0.503
734.000	441.555	79.994	19.992	100.441	18.682	165.349	0.510
734.500	441.831	79.993	19.993	100.446	18.679	165.596	0.489
735.000	442.103	79.993	19.992	100.452	18.677	165.818	0.520
735.500	442.327	79.992	19.991	100.453	18.676	165.902	0.522
736.000	442.607	79.993	19.991	100.451	18.672	166.343	0.500
736.500	442.861	79.993	19.992	100.450	18.665	166.950	0.519
737.000	443.142	79.994	19.991	100.443	18.663	167.237	0.535
737.500	443.372	79.994	19.992	100.437	18.659	167.631	0.523
738.000	443.662	79.994	19.991	100.429	18.654	168.163	0.515
738.500	443.886	79.993	19.993	100.423	18.659	167.570	0.517
739.000	444.143	79.993	19.992	100.422	18.646	168.909	0.498
739.500	444.392	79.994	19.993	100.422	18.644	169.134	0.494
740.000	444.682	79.993	19.993	100.423	18.642	169.347	0.523
740.500	444.913	79.993	19.992	100.425	18.643	169.298	0.530
741.000	445.167	79.993	19.994	100.430	18.640	169.549	0.503
741.500	445.387	79.994	19.993	100.437	18.639	169.712	0.479
742.000	445.675	79.993	19.992	100.445	18.636	169.997	0.491
742.500	445.936	79.993	19.991	100.451	18.636	170.004	0.529
743.000	446.212	79.993	19.989	100.457	18.632	170.396	0.543
743.500	446.456	79.992	19.993	100.460	18.632	170.426	0.528
744.000	446.729	79.995	19.992	100.463	18.639	169.703	0.518
744.500	446.930	79.993	19.991	100.466	18.634	170.211	0.496
745.000	447.211	79.992	19.994	100.467	18.632	170.374	0.478
745.500	447.509	79.993	19.992	100.462	18.637	169.863	0.530
746.000	447.744	79.995	19.992	100.453	18.639	169.630	0.556
746.500	447.996	79.995	19.993	100.442	18.643	169.269	0.510
747.000	448.272	79.994	19.992	100.432	18.640	169.529	0.507
747.500	448.503	79.994	19.993	100.423	18.645	168.993	0.517
748.000	448.779	79.994	19.992	100.419	18.648	168.635	0.507
748.500	449.026	79.995	19.993	100.420	18.649	168.547	0.515
749.000	449.290	79.996	19.994	100.420	18.658	167.616	0.517
749.500	449.575	79.994	19.992	100.422	18.660	167.416	0.530
750.000	449.815	79.996	19.994	100.425	18.666	166.867	0.537
750.500	450.061	79.995	19.990	100.426	18.672	166.154	0.505
751.000	450.326	79.996	19.992	100.429	18.674	165.969	0.498
751.500	450.610	79.996	19.991	100.429	18.682	165.117	0.530
752.000	450.854	79.995	19.991	100.432	18.693	164.035	0.538
752.500	451.123	79.997	19.991	100.429	18.703	163.008	0.520
753.000	451.372	79.995	19.992	100.430	18.709	162.394	0.516
753.500	451.609	79.996	19.992	100.427	18.713	161.943	0.503
754.000	451.854	79.993	19.991	100.426	18.723	160.882	0.484
754.500	452.090	79.995	19.991	100.423	18.734	159.825	0.481
755.000	452.346	79.997	19.990	100.422	18.743	158.877	0.486
755.500	452.610	79.996	19.990	100.420	18.746	158.489	0.506
756.000	452.882	79.995	19.990	100.420	18.759	157.175	0.528
756.500	453.125	79.993	19.991	100.420	18.767	156.295	0.525
757.000	453.402	79.995	19.991	100.416	18.780	154.880	0.518
757.500	453.633	79.995	19.991	100.408	18.793	153.533	0.514
758.000	453.885	79.994	19.989	100.403	18.804	152.397	0.496
758.500	454.150	79.995	19.990	100.395	18.815	151.300	0.500
759.000	454.393	79.996	19.990	100.388	18.828	149.983	0.512
759.500	454.672	79.994	19.990	100.384	18.838	149.002	0.515
760.000	454.920	79.994	19.991	100.382	18.855	147.278	0.525
760.500	455.179	79.995	19.991	100.382	18.869	145.832	0.517
761.000	455.421	79.994	19.990	100.378	18.881	144.611	0.504
761.500	455.672	79.995	19.991	100.372	18.895	143.152	0.497
762.000	455.949	79.994	19.990	100.367	18.907	141.936	0.510
762.500	456.142	79.996	19.990	100.361	18.917	140.887	0.499
763.000	456.410	79.995	19.991	100.353	18.936	138.911	0.465
763.500	456.677	79.994	19.989	100.353	18.953	137.206	0.498
764.000	456.958	79.996	19.991	100.354	18.965	135.944	0.542
764.500	457.214	79.992	19.991	100.352	18.975	134.879	0.542
765.000	457.443	79.996	19.990	100.351	18.995	132.759	0.511
765.500	457.695	79.994	19.991	100.343	19.012	131.004	0.483
766.000	457.952	79.995	19.990	100.332	19.025	129.734	0.495
766.500	458.240	79.993	19.989	100.322	19.040	128.194	0.527
767.000	458.502	79.993	19.991	100.313	19.051	127.035	0.548
767.500	458.722	79.995	19.992	100.279	19.073	124.756	0.516
768.000	459.028	79.994	19.992	100.248	19.090	122.998	0.503
768.500	459.269	79.994	19.991	100.232	19.104	121.581	0.537
769.000	459.508	79.995	19.991	100.224	19.121	119.829	0.514
769.500	459.735	79.995	19.991	100.216	19.143	117.541	0.473
770.000	460.016	79.995	19.991	100.235	19.158	116.026	0.487
770.500	460.241	79.997	19.991	100.256	19.180	113.735	0.507
771.000	460.501	79.996	19.992	100.265	19.201	111.647	0.496
771.500	460.767	79.994	19.992	100.266	19.222	109.526	0.505
772.000	461.033	79.996	19.991	100.286	19.235	108.121	0.529
772.500	461.229	79.996	19.989	100.303	19.257	105.902	0.497
773.000	461.508	79.995	19.990	100.300	19.276	103.986	0.469
773.500	461.795	79.998	19.992	100.291	19.299	101.623	0.520
774.000	462.013	79.994	19.991	100.280	19.317	99.706	0.535
774.500	462.268	79.996	19.990	100.245	19.341	97.252	0.489
775.000	462.534	79.996	19.991	100.213	19.356	95.728	0.497
775.500	462.766	79.997	19.991	100.201	19.377	93.603	0.509
776.000	463.007	79.995	19.992	100.195	19.403	90.906	0.485
776.500	463.251	79.995	19.991	100.189	19.420	89.212	0.479
777.000	463.533	79.998	19.992	100.188	19.442	86.897	0.506
777.500	463.783	79.995	19.991	100.189	19.462	84.869	0.529
778.000	464.033	79.996	19.990	100.189	19.483	82.723	0.516
778.500	464.280	79.995	19.991	100.188	19.499	81.038	0.498
779.000	464.531	79.996	19.990	100.183	19.520	78.881	0.498
779.500	464.786	79.996	19.991	100.176	19.535	77.409	0.503
780.000	465.071	79.996	19.990	100.168	19.556	75.184	0.523
780.500	465.291	79.995	19.989	100.162	19.577	73.078	0.522
781.000	465.551	79.995	19.990	100.155	19.590	71.721	0.492
781.500	465.798	79.996	19.991	100.151	19.604	70.305	0.494
782.000	466.082	79.995	19.991	100.150	19.622	68.415	0.519
782.500	466.325	79.994	19.990	100.149	19.637	66.919	0.529
783.000	466.583	79.995	19.989	100.147	19.653	65.290	0.514
783.500	466.840	79.995	19.991	100.144	19.672	63.331	0.508
784.000	467.040	79.995	19.990	100.139	19.678	62.670	0.486
784.500	467.311	79.994	19.991	100.132	19.702	60.184	0.464
785.000	467.626	79.995	19.991	100.128	19.715	58.925	0.529
785.500	467.869	79.995	19.990	100.127	19.730	57.333	0.571
786.000	468.112	79.995	19.990	100.129	19.741	56.219	0.522
786.500	468.364	79.995	19.991	100.133	19.750	55.345	0.491
787.000	468.626	79.996	19.990	100.131	19.769	53.384	0.505
787.500	468.892	79.995	19.992	100.131	19.781	52.142	0.521
788.000	469.136	79.992	19.992	100.126	19.790	51.226	0.519
788.500	469.416	79.995	19.992	100.120	19.800	50.209	0.517
789.000	469.650	79.994	19.990	100.115	19.816	48.599	0.519
789.500	469.904	79.995	19.991	100.116	19.825	47.607	0.501
790.000	470.181	79.995	19.990	100.107	19.835	46.646	0.510
790.500	470.369	79.994	19.991	100.097	19.843	45.771	0.498
791.000	470.650	79.995	19.992	100.088	19.852	44.908	0.467
791.500	470.906	79.994	19.991	100.079	19.869	43.185	0.503
792.000	471.159	79.995	19.991	100.070	19.871	42.923	0.523
792.500	471.410	79.993	19.990	100.062	19.882	41.761	0.506
793.001	471.654	79.996	19.991	100.052	19.892	40.739	0.500
793.500	471.878	79.993	19.991	100.037	19.898	40.125	0.482
794.000	472.176	79.994	19.991	100.021	19.913	38.654	0.494
794.500	472.442	79.995	19.992	100.007	19.922	37.699	0.543
795.000	472.688	79.995	19.989	99.998	19.922	37.706	0.538
795.500	472.917	79.994	19.990	99.996	19.929	36.940	0.494
796.000	473.163	79.996	19.992	100.003	19.942	35.700	0.475
796.500	473.458	79.996	19.990	100.010	19.944	35.415	0.508
797.000	473.702	79.997	19.993	100.017	19.953	34.503	0.540
797.500	473.978	79.995	19.993	100.022	19.964	33.408	0.529
798.000	474.217	79.994	19.990	100.022	19.966	33.184	0.518
798.500	474.487	79.994	19.989	100.021	19.976	32.155	0.512
799.000	474.757	79.995	19.993	100.016	19.980	31.804	0.524
799.500	475.010	79.995	19.992	100.016	19.987	31.028	0.531
800.000	475.226	79.994	19.992	100.018	19.994	30.353	0.496
800.500	475.501	79.994	19.990	100.022	19.995	30.252	0.480
801.000	475.771	79.992	19.990	100.022	20.006	29.076	0.518
801.500	475.992	79.994	19.991	100.020	20.006	29.107	0.518
802.000	476.285	79.995	19.992	100.013	20.020	27.647	0.502
802.500	476.550	79.994	19.991	100.006	20.022	27.440	0.536
803.000	476.813	79.991	19.992	100.004	20.028	26.848	0.543
803.500	477.062	79.995	19.992	100.003	20.031	26.522	0.520
804.000	477.336	79.994	19.990	100.004	20.036	26.043	0.517
804.500	477.520	79.993	19.992	100.004	20.046	24.985	0.491
805.000	477.806	79.994	19.992	100.003	20.044	25.161	0.464
805.500	478.087	79.994	19.991	99.996	20.052	24.404	0.519
806.000	478.358	79.995	19.991	99.991	20.055	24.070	0.559
806.500	478.577	79.995	19.993	99.982	20.058	23.761	0.521
807.000	478.872	79.992	19.991	99.976	20.064	23.222	0.502
807.500	479.103	79.994	19.994	99.970	20.072	22.321	0.520
808.000	479.349	79.993	19.992	99.970	20.067	22.834	0.501
808.500	479.586	79.994	19.991	99.970	20.069	22.629	0.480
809.000	479.869	79.995	19.991	99.977	20.078	21.720	0.501
809.500	480.091	79.994	19.991	99.983	20.083	21.263	0.513
810.000	480.351	79.994	19.992	99.989	20.088	20.673	0.494
810.500	480.616	79.993	19.991	99.989	20.091	20.430	0.504
811.000	480.882	79.993	19.992	99.989	20.096	19.923	0.528
811.500	481.166	79.993	19.991	99.988	20.097	19.825	0.541
812.000	481.402	79.993	19.992	99.989	20.103	19.159	0.535
812.500	481.718	79.994	19.990	99.989	20.110	18.489	0.536
813.000	481.917	79.995	19.993	99.985	20.115	17.909	0.533
813.500	482.184	79.994	19.991	99.977	20.113	18.200	0.490
814.000	482.446	79.994	19.991	99.963	20.119	17.534	0.498
814.500	482.704	79.994	19.992	99.948	20.118	17.673	0.525
815.000	482.962	79.994	19.991	99.933	20.121	17.345	0.518
815.500	483.209	79.993	19.991	99.923	20.126	16.799	0.510
816.000	483.455	79.992	19.991	99.922	20.124	17.087	0.499
816.500	483.677	79.992	19.991	99.928	20.140	15.432	0.480
817.000	483.971	79.993	19.990	99.936	20.129	16.568	0.492
817.500	484.189	79.994	19.992	99.944	20.135	15.870	0.514
818.000	484.456	79.992	19.991	99.951	20.138	15.615	0.498
818.500	484.730	79.991	19.992	99.952	20.142	15.184	0.513
819.000	484.975	79.992	19.992	99.953	20.150	14.408	0.530
819.500	485.262	79.993	19.993	99.953	20.142	15.183	0.526
820.000	485.474	79.993	19.991	99.953	20.147	14.710	0.516
820.500	485.703	79.995	19.991	99.953	20.157	13.685	0.470
821.000	485.991	79.993	19.990	99.956	20.151	14.281	0.479
821.500	486.231	79.991	19.991	99.958	20.155	13.844	0.523
822.000	486.478	79.993	19.990	99.958	20.158	13.539	0.507
822.500	486.752	79.991	19.991	99.958	20.161	13.246	0.504
823.000	487.004	79.993	19.992	99.959	20.160	13.352	0.524
823.500	487.268	79.994	19.991	99.956	20.164	12.994	0.521
824.000	487.535	79.993	19.990	99.954	20.167	12.666	0.524
824.500	487.747	79.991	19.991	99.953	20.166	12.703	0.505
825.000	488.046	79.993	19.991	99.952	20.170	12.319	0.495
825.500	488.294	79.993	19.991	99.950	20.171	12.235	0.529
826.000	488.533	79.992	19.991	99.945	20.175	11.824	0.517
826.500	488.819	79.993	19.991	99.942	20.169	12.383	0.506
827.000	489.085	79.992	19.993	99.940	20.177	11.566	0.539
827.500	489.338	79.993	19.991	99.939	20.177	11.566	0.535
828.000	489.596	79.994	19.990	99.933	20.177	11.565	0.515
828.500	489.886	79.993	19.992	99.932	20.177	11.587	0.530
829.000	490.120	79.993	19.992	99.928	20.180	11.263	0.536
829.500	490.358	79.994	19.994	99.925	20.185	10.787	0.498
830.000	490.596	79.994	19.991	99.920	20.183	10.997	0.474
830.500	490.883	79.992	19.991	99.920	20.190	10.324	0.500
831.000	491.032	79.994	19.991	99.918	20.187	10.564	0.481
831.500	491.371	79.994	19.993	99.916	20.186	10.690	0.462
832.000	491.616	79.994	19.992	99.914	20.188	10.455	0.535
832.500	491.883	79.993	19.992	99.913	20.194	9.870	0.548
833.000	492.170	79.993	19.993	99.914	20.192	10.111	0.533
833.500	492.398	79.993	19.992	99.915	20.191	10.169	0.534
834.000	492.645	79.993	19.993	99.915	20.193	9.975	0.495
834.500	492.918	79.994	19.993	99.916	20.196	9.689	0.498
835.000	493.139	79.995	19.991	99.917	20.193	9.987	0.507
835.500	493.421	79.994	19.992	99.916	20.197	9.587	0.498
836.000	493.647	79.994	19.992	99.914	20.198	9.465	0.505
836.501	493.965	79.993	19.992	99.914	20.194	9.907	0.527
837.000	494.163	79.993	19.993	99.913	20.197	9.519	0.531
837.500	494.448	79.997	19.992	99.911	20.195	9.797	0.500
838.000	494.738	79.991	19.991	99.912	20.196	9.718	0.529
838.500	494.946	79.993	19.991	99.909	20.202	9.083	0.536
839.000	495.226	79.994	19.992	99.904	20.201	9.198	0.493
839.500	495.462	79.994	19.992	99.903	20.206	8.647	0.502
840.000	495.722	79.995	19.992	99.904	20.201	9.150	0.506
840.500	496.019	79.994	19.991	99.904	20.204	8.879	0.526
841.000	496.244	79.994	19.991	99.907	20.206	8.655	0.540
841.500	496.483	79.992	19.990	99.912	20.209	8.347	0.493
842.000	496.778	79.993	19.991	99.912	20.209	8.319	0.499
842.500	496.999	79.995	19.991	99.913	20.209	8.395	0.524
843.000	497.214	79.993	19.992	99.912	20.207	8.549	0.476
843.500	497.582	79.994	19.992	99.913	20.208	8.468	0.510
844.000	497.740	79.994	19.992	99.910	20.206	8.655	0.554
844.500	498.013	79.994	19.992	99.903	20.208	8.443	0.478
845.000	498.321	79.995	19.992	99.895	20.207	8.499	0.506
845.500	498.535	79.996	19.990	99.887	20.212	8.079	0.552
846.000	498.777	79.994	19.991	99.880	20.217	7.567	0.489
846.500	499.002	79.994	19.991	99.881	20.199	9.380	0.461
847.000	499.305	79.995	19.991	99.887	20.202	9.073	0.497
847.500	499.528	79.995	19.993	99.891	20.212	8.009	0.527
848.000	499.790	79.994	19.991	99.898	20.222	7.022	0.506
848.500	500.034	79.994	19.991	99.904	20.224	6.843	0.496
849.000	500.307	79.996	19.991	99.903	20.211	8.178	0.512
849.500	500.578	79.995	19.991	99.903	20.215	7.752	0.531
850.000	500.801	79.995	19.992	99.906	20.205	8.729	0.519
850.500	501.087	79.995	19.991	99.906	20.215	7.696	0.501
851.000	501.320	79.995	19.991	99.904	20.221	7.108	0.514
851.500	501.596	79.996	19.990	99.907	20.212	8.037	0.514
852.000	501.758	79.997	19.991	99.908	20.210	8.264	0.474
852.500	502.146	79.995	19.991	99.907	20.218	7.432	0.494
853.000	502.270	79.995	19.990	99.906	20.224	6.839	0.531
853.500	502.631	79.997	19.992	99.909	20.212	8.050	0.499
854.000	502.806	79.998	19.991	99.908	20.220	7.199	0.511
854.500	503.090	79.998	19.991	99.906	20.219	7.353	0.497
855.000	503.467	79.997	19.991	99.907	20.218	7.401	0.559
855.500	503.552	79.997	19.990	99.908	20.215	7.722	0.561
856.000	503.976	79.997	19.991	99.907	20.223	6.939	0.485
856.500	504.108	79.997	19.990	99.906	20.214	7.829	0.532
857.000	504.413	79.998	19.991	99.908	20.217	7.553	0.496
857.500	504.660	79.997	19.990	99.910	20.222	7.042	0.495
858.000	504.782	79.997	19.991	99.911	20.216	7.611	0.461
858.500	505.368	79.999	19.990	99.912	20.212	8.090	0.539
859.000	505.158	79.997	19.991	99.917	20.221	7.141	0.542
859.500	505.975	79.997	19.991	99.922	20.216	7.637	0.492
860.000	505.931	79.995	19.990	99.920	20.215	7.684	0.690
860.500	505.939	79.998	19.990	99.920	20.216	7.664	0.369
861.000	506.680	79.995	19.991	99.919	20.217	7.544	0.356
861.500	507.150	79.995	19.991	99.915	20.215	7.747	0.980
862.000	507.298	79.997	19.990	99.911	20.215	7.771	0.915
862.500	507.415	79.996	19.991	99.909	20.222	6.995	0.441
863.000	507.328	79.996	19.989	99.909	20.217	7.570	0.147
863.500	507.772	79.994	19.993	99.906	20.214	7.816	0.193
864.000	507.966	79.995	19.990	99.904	20.223	6.944	0.497
864.500	508.733	79.996	19.991	99.900	20.219	7.322	0.799
865.000	508.580	79.995	19.991	99.896	20.217	7.482	0.788
865.500	508.467	79.995	19.991	99.891	20.222	7.004	0.174
866.000	508.989	79.997	19.991	99.892	20.217	7.488	0.071
866.500	509.019	79.993	19.991	99.894	20.216	7.639	0.481
867.000	509.794	79.995	19.992	99.899	20.218	7.409	0.678
867.500	509.820	79.995	19.991	99.904	20.220	7.238	0.803
868.000	509.937	79.992	19.991	99.915	20.217	7.517	0.473
868.500	510.357	79.992	19.990	99.926	20.219	7.288	0.340
869.000	510.654	79.995	19.992	99.933	20.220	7.266	0.626
869.500	510.838	79.994	19.990	99.940	20.220	7.199	0.599
870.000	511.099	79.993	19.991	99.945	20.220	7.210	0.463
870.500	511.382	79.994	19.992	99.946	20.218	7.460	0.495
871.000	511.542	79.995	19.990	99.946	20.218	7.373	0.493
871.500	511.842	79.993	19.991	99.941	20.224	6.828	0.452
872.000	512.189	79.994	19.992	99.934	20.220	7.172	0.554
872.500	512.336	79.994	19.991	99.923	20.219	7.284	0.571
873.000	512.724	79.994	19.991	99.907	20.218	7.373	0.515
873.500	512.961	79.993	19.992	99.892	20.217	7.518	0.580
874.000	513.159	79.993	19.992	99.881	20.221	7.112	0.530
874.500	513.452	79.995	19.991	99.875	20.224	6.849	0.463
875.000	513.665	79.995	19.991	99.879	20.218	7.428	0.499
875.500	514.048	79.995	19.992	99.888	20.218	7.459	0.551
876.000	514.216	79.995	19.991	99.898	20.221	7.137	0.573
876.500	514.560	79.993	19.990	99.906	20.217	7.546	0.531
877.000	514.795	79.994	19.991	99.907	20.216	7.580	0.545
877.500	515.127	79.993	19.992	99.902	20.219	7.289	0.573
878.000	515.280	79.993	19.992	99.897	20.217	7.490	0.526
878.500	515.565	79.994	19.992	99.887	20.223	6.931	0.462
879.000	515.821	79.994	19.990	99.881	20.220	7.171	0.490
879.500	516.177	79.995	19.991	99.883	20.222	7.042	0.576
880.000	516.355	79.995	19.990	99.883	20.222	7.020	0.573
880.500	516.650	79.994	19.991	99.885	20.222	7.014	0.503
881.000	516.847	79.993	19.991	99.891	20.223	6.863	0.483
881.500	517.199	79.992	19.989	99.896	20.221	7.132	0.521
882.000	517.426	79.993	19.992	99.901	20.220	7.171	0.564
882.500	517.727	79.994	19.989	99.908	20.223	6.950	0.553
883.000	517.973	79.994	19.991	99.912	20.223	6.914	0.537
883.500	518.278	79.993	19.990	99.909	20.224	6.832	0.549
884.000	518.497	79.994	19.992	99.902	20.224	6.798	0.537
884.501	518.717	79.994	19.990	99.894	20.226	6.573	0.482
885.000	519.047	79.996	19.990	99.893	20.221	7.077	0.495
885.501	519.333	79.996	19.991	99.888	20.221	7.077	0.583
886.001	519.612	79.994	19.990	99.885	20.222	7.060	0.590
886.500	519.848	79.993	19.991	99.885	20.225	6.714	0.540
887.000	520.149	79.994	19.990	99.887	20.221	7.069	0.526
887.500	520.375	79.995	19.990	99.889	20.218	7.388	0.532
888.000	520.667	79.996	19.992	99.892	20.225	6.661	0.523
888.500	520.927	79.994	19.992	99.894	20.222	6.988	0.535
889.000	521.166	79.994	19.991	99.895	20.226	6.656	0.526
889.500	521.402	79.995	19.993	99.895	20.223	6.936	0.487
890.000	521.710	79.994	19.993	99.890	20.222	7.028	0.509
890.500	521.955	79.995	19.991	99.888	20.219	7.274	0.548
891.000	522.200	79.994	19.992	99.888	20.218	7.372	0.521
891.500	522.491	79.994	19.991	99.889	20.222	7.006	0.513
892.000	522.731	79.994	19.991	99.895	20.227	6.545	0.534
892.500	523.018	79.994	19.992	99.896	20.223	6.951	0.529
893.000	523.297	79.996	19.989	99.898	20.220	7.268	0.547
893.500	523.550	79.996	19.990	99.896	20.218	7.450	0.549
894.000	523.821	79.994	19.992	99.893	20.221	7.153	0.528
894.500	524.049	79.993	19.992	99.884	20.224	6.770	0.511
895.000	524.388	79.994	19.990	99.876	20.218	7.439	0.533
895.500	524.614	79.995	19.992	99.866	20.222	6.966	0.566
896.000	524.869	79.992	19.991	99.864	20.220	7.170	0.523
896.500	525.157	79.994	19.993	99.865	20.220	7.206	0.512
897.000	525.405	79.992	19.992	99.867	20.220	7.186	0.540
897.500	525.691	79.992	19.991	99.870	20.219	7.336	0.535
898.000	525.911	79.993	19.992	99.874	20.219	7.313	0.520
898.500	526.197	79.993	19.991	99.875	20.223	6.957	0.506
899.000	526.426	79.993	19.992	99.876	20.220	7.214	0.511
899.500	526.691	79.994	19.992	99.879	20.217	7.553	0.505
900.000	526.963	79.993	19.992	99.883	20.218	7.408	0.515
900.500	527.218	79.992	19.991	99.887	20.221	7.123	0.532
901.000	527.535	79.994	19.993	99.887	20.220	7.258	0.550
901.501	527.755	79.992	19.992	99.886	20.218	7.373	0.554
902.000	528.039	79.993	19.993	99.887	20.225	6.724	0.521
902.500	528.309	79.993	19.991	99.891	20.224	6.764	0.529
903.000	528.606	79.994	19.993	99.895	20.224	6.831	0.560
903.500	528.843	79.991	19.991	99.904	20.226	6.615	0.551
904.000	529.104	79.991	19.992	99.912	20.226	6.562	0.516
904.500	529.342	79.992	19.990	99.915	20.227	6.456	0.499
905.000	529.621	79.992	19.992	99.915	20.223	6.914	0.509
905.500	529.838	79.991	19.991	99.915	20.226	6.609	0.507
906.000	530.131	79.993	19.993	99.914	20.225	6.737	0.503
906.500	530.404	79.993	19.991	99.915	20.224	6.764	0.538
907.000	530.666	79.992	19.991	99.916	20.221	7.114	0.551
907.500	530.919	79.993	19.992	99.913	20.226	6.599	0.525
908.000	531.223	79.996	19.992	99.903	20.225	6.660	0.536
908.500	531.455	79.992	19.991	99.894	20.227	6.459	0.546
909.000	531.746	79.993	19.991	99.886	20.223	6.910	0.529
909.500	532.005	79.995	19.992	99.878	20.223	6.916	0.536
910.000	532.294	79.994	19.992	99.873	20.225	6.673	0.549
910.500	532.534	79.995	19.991	99.875	20.223	6.944	0.539
911.000	532.812	79.996	19.991	99.879	20.222	7.034	0.524
911.500	533.057	79.995	19.992	99.886	20.222	7.003	0.521
912.000	533.304	79.998	19.991	99.894	20.220	7.212	0.507
912.500	533.552	79.993	19.992	99.900	20.222	6.977	0.493
913.000	533.865	79.996	19.992	99.907	20.222	6.977	0.528
913.500	534.127	79.996	19.992	99.911	20.221	7.091	0.568
914.000	534.358	79.995	19.992	99.910	20.224	6.766	0.534
914.501	534.642	79.997	19.993	99.910	20.226	6.612	0.504
915.000	534.921	79.997	19.992	99.910	20.225	6.743	0.539
915.500	535.180	79.994	19.992	99.905	20.227	6.503	0.550
916.000	535.441	79.996	19.993	99.899	20.224	6.819	0.529
916.500	535.720	79.995	19.991	99.891	20.222	7.052	0.531
917.000	535.936	79.995	19.992	99.883	20.226	6.599	0.518
917.501	536.192	79.995	19.991	99.878	20.227	6.549	0.483
918.001	536.471	79.994	19.991	99.874	20.224	6.773	0.503
918.500	536.752	79.994	19.992	99.872	20.229	6.278	0.548
919.000	537.021	79.993	19.992	99.872	20.225	6.745	0.555
919.500	537.235	79.995	19.993	99.872	20.228	6.365	0.517
920.000	537.545	79.995	19.992	99.876	20.230	6.164	0.503
920.500	537.795	79.994	19.992	99.884	20.227	6.509	0.542
921.000	538.025	79.994	19.994	99.887	20.228	6.397	0.520
921.500	538.329	79.993	19.992	99.887	20.225	6.668	0.507
922.000	538.579	79.994	19.992	99.891	20.227	6.508	0.544
922.500	538.869	79.993	19.992	99.891	20.227	6.458	0.547
923.000	539.099	79.993	19.993	99.883	20.228	6.416	0.530
923.500	539.369	79.994	19.993	99.880	20.228	6.360	0.510
924.000	539.617	79.994	19.992	99.876	20.230	6.215	0.509
924.500	539.845	79.992	19.992	99.866	20.230	6.246	0.497
925.000	540.090	79.993	19.993	99.857	20.226	6.565	0.475
925.500	540.329	79.994	19.993	99.854	20.225	6.752	0.479
926.000	540.581	79.993	19.994	99.854	20.231	6.100	0.487
926.500	540.872	79.994	19.994	99.859	20.228	6.413	0.517
927.000	541.114	79.995	19.993	99.865	20.231	6.075	0.538
927.500	541.406	79.995	19.992	99.870	20.230	6.203	0.534
928.000	541.687	79.993	19.992	99.873	20.228	6.388	0.554
928.500	541.895	79.994	19.993	99.881	20.227	6.522	0.531
929.000	542.184	79.993	19.991	99.881	20.228	6.452	0.493
929.500	542.462	79.992	19.992	99.881	20.227	6.471	0.532
930.000	542.737	79.995	19.991	99.883	20.226	6.628	0.560
930.500	542.998	79.997	19.992	99.891	20.223	6.900	0.545
931.001	543.255	79.995	19.992	99.896	20.231	6.088	0.527
931.500	543.513	79.994	19.991	99.902	20.228	6.410	0.517
932.000	543.735	79.997	19.992	99.908	20.229	6.253	0.498
932.500	544.000	79.996	19.991	99.907	20.228	6.443	0.484
933.000	544.253	79.997	19.991	99.900	20.222	6.974	0.502
933.500	544.551	79.995	19.990	99.895	20.227	6.552	0.534
934.000	544.827	79.996	19.991	99.895	20.228	6.351	0.562
934.500	545.080	79.998	19.991	99.898	20.227	6.522	0.551
935.000	545.340	79.996	19.992	99.905	20.226	6.567	0.521
935.500	545.628	79.997	19.990	99.912	20.225	6.659	0.531
936.000	545.855	79.996	19.990	99.910	20.224	6.810	0.532
936.500	546.124	79.996	19.991	99.908	20.223	6.922	0.506
937.000	546.381	79.996	19.991	99.906	20.224	6.815	0.511
937.500	546.637	80.000	19.991	99.902	20.226	6.566	0.519
938.000	546.900	79.996	19.991	99.901	20.225	6.658	0.516
938.500	547.215	79.998	19.990	99.899	20.222	6.978	0.549
939.000	547.452	79.998	19.991	99.893	20.220	7.218	0.565
939.500	547.662	79.998	19.991	99.888	20.224	6.790	0.499
940.000	547.941	79.996	19.991	99.887	20.223	6.958	0.468
940.500	548.246	79.997	19.991	99.887	20.221	7.093	0.537
941.000	548.486	79.997	19.991	99.889	20.222	6.972	0.565
941.500	548.750	79.997	19.991	99.894	20.223	6.914	0.525
942.000	549.040	79.998	19.991	99.893	20.220	7.214	0.529
942.500	549.250	79.997	19.991	99.889	20.217	7.556	0.527
943.000	549.519	79.995	19.990	99.886	20.221	7.156	0.489
943.500	549.738	79.996	19.990	99.886	20.222	7.053	0.483
944.000	549.995	79.996	19.990	99.882	20.219	7.310	0.482
944.500	550.284	79.998	19.990	99.882	20.225	6.716	0.511
945.000	550.528	79.996	19.990	99.884	20.224	6.848	0.539
945.500	550.791	79.995	19.992	99.888	20.225	6.696	0.520
946.000	551.052	79.996	19.990	99.889	20.224	6.813	0.516
946.500	551.310	79.996	19.991	99.894	20.224	6.787	0.522
947.000	551.570	79.994	19.991	99.894	20.225	6.658	0.519
947.500	551.833	79.995	19.992	99.893	20.221	7.111	0.520
948.000	552.094	79.992	19.991	99.888	20.223	6.932	0.524
948.500	552.340	79.994	19.992	99.884	20.224	6.817	0.516
949.000	552.563	79.993	19.991	99.882	20.221	7.117	0.488
949.500	552.811	79.993	19.990	99.885	20.223	6.956	0.470
950.000	553.056	79.993	19.991	99.887	20.223	6.934	0.482
950.500	553.337	79.993	19.990	99.887	20.221	7.111	0.509
951.000	553.581	79.993	19.991	99.887	20.224	6.778	0.525
951.500	553.883	79.995	19.991	99.890	20.222	7.035	0.535
952.000	554.149	79.993	19.991	99.892	20.222	6.966	0.557
952.500	554.406	79.994	19.991	99.898	20.221	7.083	0.546
953.000	554.649	79.994	19.989	99.904	20.221	7.133	0.512
953.500	554.950	79.999	19.992	99.910	20.220	7.212	0.522
954.000	555.213	80.001	19.992	99.918	20.225	6.741	0.554
954.500	555.421	80.001	19.992	99.920	20.224	6.844	0.517
955.000	555.690	80.001	19.992	99.919	20.221	7.118	0.474
955.500	555.930	80.001	19.992	99.912	20.220	7.224	0.493
956.000	556.209	79.997	19.991	99.909	20.218	7.425	0.514
956.500	556.427	79.994	19.991	99.898	20.221	7.098	0.508
957.000	556.694	79.994	19.992	99.889	20.222	7.009	0.491
957.500	556.966	79.995	19.991	99.883	20.220	7.267	0.512
958.000	557.211	79.992	19.990	99.880	20.218	7.407	0.528
958.500	557.495	79.994	19.992	99.874	20.221	7.161	0.523
959.000	557.739	79.993	19.991	99.873	20.221	7.085	0.528
959.500	558.003	79.994	19.991	99.877	20.222	6.998	0.518
960.000	558.264	79.992	19.990	99.885	20.225	6.693	0.517
960.501	558.513	79.992	19.992	99.894	20.225	6.712	0.518
961.000	558.755	79.994	19.992	99.902	20.224	6.819	0.501
961.500	559.022	79.994	19.991	99.909	20.225	6.698	0.500
962.000	559.290	79.994	19.990	99.913	20.225	6.710	0.522
962.500	559.522	79.992	19.990	99.913	20.223	6.950	0.518
963.000	559.763	79.994	19.991	99.914	20.225	6.675	0.487
963.500	560.052	79.994	19.990	99.915	20.222	7.008	0.501
964.000	560.253	79.994	19.992	99.915	20.221	7.067	0.509
964.500	560.531	79.995	19.989	99.910	20.223	6.894	0.484
965.000	560.782	79.995	19.991	99.902	20.226	6.581	0.504
965.500	561.064	79.996	19.991	99.895	20.230	6.195	0.531
966.000	561.311	79.995	19.992	99.887	20.226	6.609	0.531
966.500	561.552	79.994	19.990	99.883	20.225	6.688	0.509
967.000	561.831	79.995	19.990	99.882	20.224	6.789	0.504
967.500	562.031	79.993	19.990	99.887	20.222	6.990	0.499
968.000	562.350	79.992	19.990	99.894	20.226	6.593	0.499
968.500	562.590	79.994	19.989	99.900	20.224	6.837	0.539
969.000	562.833	79.994	19.989	99.904	20.221	7.122	0.521
969.500	563.063	79.993	19.990	99.905	20.224	6.772	0.478
970.000	563.349	79.996	19.991	99.900	20.223	6.939	0.494
970.500	563.581	79.994	19.990	99.894	20.221	7.090	0.517
971.000	563.846	79.995	19.991	99.892	20.224	6.827	0.507
971.500	564.122	79.995	19.990	99.891	20.224	6.840	0.519
972.000	564.305	79.995	19.990	99.893	20.226	6.583	0.500
972.500	564.551	79.994	19.991	99.894	20.225	6.667	0.444
973.000	564.870	79.994	19.991	99.896	20.227	6.504	0.497
973.500	565.109	79.994	19.991	99.893	20.225	6.753	0.562
974.001	565.362	79.994	19.991	99.887	20.222	6.985	0.525
974.501	565.647	79.993	19.990	99.884	20.223	6.915	0.515
975.001	565.911	79.992	19.991	99.884	20.224	6.784	0.543
975.500	566.141	79.994	19.991	99.885	20.220	7.187	0.521
976.000	566.384	79.993	19.990	99.890	20.225	6.661	0.484
976.500	566.641	79.995	19.992	99.896	20.227	6.459	0.486
977.000	566.892	79.991	19.991	99.901	20.228	6.400	0.504
977.500	567.135	79.994	19.991	99.907	20.224	6.770	0.501
978.000	567.411	79.993	19.991	99.910	20.223	6.887	0.507
978.500	567.681	79.993	19.991	99.910	20.224	6.811	0.532
979.000	567.970	79.993	19.992	99.910	20.226	6.559	0.552
979.500	568.208	79.993	19.992	99.912	20.226	6.629	0.543
980.000	568.501	79.993	19.991	99.911	20.224	6.794	0.529
980.500	568.726	79.993	19.992	99.904	20.226	6.621	0.525
981.000	568.969	79.996	19.992	99.898	20.225	6.717	0.494
981.500	569.227	79.992	19.992	99.895	20.225	6.731	0.485
982.000	569.505	79.991	19.991	99.891	20.225	6.711	0.518
982.500	569.731	79.993	19.992	99.884	20.223	6.932	0.520
983.000	569.956	79.994	19.992	99.883	20.226	6.608	0.477
983.500	570.218	79.994	19.992	99.881	20.222	6.991	0.469
984.000	570.489	79.993	19.992	99.877	20.223	6.902	0.510
984.500	570.722	79.996	19.992	99.874	20.222	7.055	0.519
985.000	570.951	79.995	19.993	99.874	20.219	7.362	0.483
985.500	571.261	79.995	19.994	99.874	20.222	7.017	0.500
986.000	571.509	79.993	19.992	99.874	20.220	7.226	0.549
986.500	571.792	79.995	19.992	99.874	20.221	7.121	0.545
987.000	572.028	79.992	19.992	99.873	20.225	6.746	0.525
987.500	572.263	79.994	19.992	99.872	20.221	7.118	0.495
988.000	572.555	79.996	19.992	99.873	20.226	6.626	0.499
988.500	572.756	79.996	19.991	99.872	20.223	6.919	0.510
989.001	573.083	79.996	19.991	99.871	20.223	6.912	0.511
989.500	573.318	79.995	19.992	99.870	20.223	6.874	0.545
990.000	573.588	79.996	19.992	99.865	20.222	7.019	0.534
990.500	573.863	79.995	19.992	99.864	20.223	6.947	0.525
991.000	574.114	79.996	19.993	99.865	20.222	7.010	0.535
991.500	574.396	79.996	19.990	99.867	20.218	7.405	0.530
992.000	574.651	79.995	19.991	99.873	20.216	7.623	0.535
992.500	574.928	79.994	19.991	99.879	20.217	7.508	0.534
993.000	575.161	79.995	19.993	99.880	20.222	7.035	0.521
993.500	575.423	79.994	19.990	99.880	20.222	6.976	0.502
994.000	575.686	79.994	19.991	99.878	20.224	6.769	0.510
994.500	575.925	79.996	19.992	99.873	20.222	7.034	0.514
995.000	576.178	79.996	19.992	99.880	20.221	7.140	0.497
995.500	576.440	79.996	19.991	99.880	20.224	6.849	0.503
996.001	576.709	79.995	19.992	99.858	20.221	7.134	0.523
996.500	576.929	79.995	19.993	99.844	20.225	6.667	0.510
997.000	577.210	79.995	19.992	99.836	20.220	7.170	0.495
997.500	577.472	79.997	19.991	99.821	20.222	6.968	0.522
998.000	577.704	79.995	19.991	99.818	20.222	7.064	0.519
998.501	577.997	79.997	19.990	99.850	20.226	6.580	0.510
999.001	578.231	79.996	19.993	99.904	20.226	6.639	0.525
999.501	578.465	79.994	19.991	99.934	20.228	6.449	0.497
1000.001	578.745	79.994	19.991	99.951	20.223	6.955	0.492
1000.500	579.002	79.995	19.991	99.960	20.226	6.561	0.526
1001.000	579.263	79.995	19.992	99.958	20.223	6.924	0.527
1001.500	579.540	79.996	19.992	99.926	20.226	6.592	0.528
1002.000	579.764	79.995	19.991	99.911	20.224	6.779	0.519
1002.500	580.060	79.994	19.992	99.910	20.223	6.914	0.511
1003.000	580.296	79.994	19.992	99.911	20.226	6.597	0.526
1003.500	580.558	79.995	19.992	99.911	20.225	6.664	0.515
1004.000	580.779	79.994	19.992	99.905	20.223	6.925	0.490
1004.500	581.053	79.993	19.993	99.902	20.224	6.807	0.489
1005.000	581.313	79.993	19.993	99.901	20.227	6.461	0.515
1005.500	581.555	79.992	19.992	99.899	20.226	6.601	0.518
1006.000	581.822	79.995	19.992	99.893	20.224	6.777	0.506
1006.500	582.085	79.993	19.992	99.891	20.228	6.447	0.519
1007.000	582.309	79.994	19.992	99.885	20.228	6.410	0.509
1007.500	582.612	79.991	19.991	99.878	20.225	6.721	0.507
1008.000	582.838	79.992	19.992	99.873	20.220	7.197	0.528
1008.500	583.104	79.994	19.992	99.872	20.219	7.303	0.511
1009.000	583.368	79.994	19.993	99.877	20.224	6.827	0.511
1009.500	583.645	79.994	19.993	99.885	20.225	6.712	0.535
1010.000	583.876	79.994	19.992	99.886	20.225	6.731	0.524
1010.500	584.112	79.994	19.993	99.887	20.223	6.882	0.487
1011.000	584.379	79.995	19.992	99.887	20.222	7.002	0.485
1011.500	584.653	79.995	19.992	99.885	20.221	7.111	0.522
1012.000	584.912	79.996	19.993	99.886	20.224	6.834	0.538
1012.500	585.161	79.994	19.992	99.889	20.224	6.767	0.521
1013.000	585.428	79.996	19.993	99.891	20.224	6.818	0.512
1013.500	585.694	79.994	19.993	99.891	20.225	6.740	0.524
1014.000	585.902	79.995	19.992	99.889	20.221	7.137	0.503
1014.500	586.204	79.996	19.992	99.887	20.221	7.151	0.492
1015.000	586.440	79.995	19.992	99.888	20.219	7.369	0.524
1015.500	586.661	79.996	19.991	99.893	20.221	7.131	0.498
1016.000	586.948	79.995	19.992	99.899	20.220	7.195	0.482
1016.500	587.170	79.993	19.991	99.903	20.220	7.181	0.508
1017.000	587.478	79.997	19.992	99.900	20.221	7.125	0.520
1017.500	587.722	79.997	19.992	99.897	20.222	6.968	0.541
1018.000	587.942	79.995	19.992	99.898	20.219	7.279	0.507
1018.500	588.195	79.996	19.992	99.898	20.220	7.174	0.468
1019.000	588.508	79.997	19.991	99.901	20.223	6.872	0.519
1019.500	588.754	79.996	19.990	99.901	20.223	6.900	0.562
1020.000	589.033	79.997	19.992	99.898	20.226	6.652	0.542
1020.500	589.301	79.996	19.991	99.890	20.223	6.895	0.537
1021.000	589.554	79.998	19.990	99.884	20.220	7.203	0.534
1021.500	589.789	79.997	19.991	99.876	20.222	6.978	0.504
1022.000	589.984	79.999	19.990	99.874	20.227	6.527	0.459
1022.500	590.261	79.998	19.991	99.878	20.225	6.748	0.451
1023.000	590.552	79.997	19.991	99.877	20.220	7.252	0.520
1023.500	590.823	79.995	19.991	99.878	20.224	6.829	0.565
1024.000	591.038	79.995	19.990	99.882	20.224	6.818	0.524
1024.500	591.295	79.996	19.990	99.884	20.224	6.816	0.478
1025.000	591.550	79.997	19.991	99.880	20.222	6.972	0.492
1025.500	591.814	79.997	19.990	99.881	20.225	6.720	0.516
1026.000	592.083	79.999	19.991	99.879	20.224	6.815	0.527
1026.500	592.348	79.993	19.989	99.874	20.220	7.204	0.533
1027.000	592.594	79.996	19.991	99.872	20.224	6.849	0.522
1027.500	592.854	79.993	19.990	99.872	20.221	7.093	0.508
1028.000	593.121	79.995	19.991	99.874	20.222	7.065	0.516
1028.500	593.388	79.993	19.990	99.876	20.223	6.922	0.530
1029.000	593.650	79.993	19.990	99.882	20.221	7.113	0.531
1029.501	593.917	79.994	19.990	99.888	20.222	7.015	0.529
1030.001	594.199	79.995	19.991	99.895	20.220	7.248	0.539
1030.500	594.461	79.995	19.991	99.901	20.218	7.449	0.547
1031.000	594.676	79.993	19.991	99.908	20.222	6.990	0.510
1031.500	594.937	79.993	19.990	99.909	20.218	7.447	0.476
1032.000	595.212	79.992	19.991	99.902	20.221	7.078	0.506
1032.501	595.491	79.993	19.990	99.894	20.221	7.069	0.545
1033.001	595.760	79.993	19.990	99.886	20.222	6.971	0.551
1033.500	596.030	79.991	19.990	99.882	20.223	6.934	0.543
1034.000	596.292	79.994	19.991	99.884	20.220	7.269	0.535
1034.500	596.536	79.992	19.991	99.887	20.221	7.117	0.519
1035.000	596.804	79.993	19.991	99.891	20.225	6.683	0.509
1035.500	597.057	79.991	19.990	99.892	20.221	7.111	0.517
1036.000	597.291	79.993	19.991	99.889	20.222	7.046	0.504
1036.500	597.546	79.994	19.991	99.886	20.221	7.074	0.488
1037.000	597.818	79.994	19.991	99.888	20.220	7.206	0.508
1037.500	598.098	79.993	19.991	99.885	20.226	6.644	0.539
1038.000	598.367	79.994	19.991	99.887	20.220	7.237	0.551
1038.500	598.591	79.994	19.991	99.891	20.223	6.938	0.521
1039.000	598.871	79.992	19.992	99.894	20.226	6.613	0.499
1039.500	599.137	79.994	19.991	99.898	20.224	6.837	0.525
1040.000	599.323	79.994	19.991	99.904	20.224	6.768	0.499
1040.500	599.613	79.994	19.991	99.904	20.222	7.017	0.464
1041.000	599.882	79.993	19.991	99.905	20.224	6.816	0.518
1041.500	600.131	79.996	19.992	99.905	20.222	7.042	0.539
1042.000	600.366	79.993	19.991	99.909	20.222	7.020	0.501
1042.500	600.666	79.991	19.991	99.913	20.220	7.257	0.509
1043.001	600.901	79.993	19.992	99.919	20.219	7.341	0.535
1043.501	601.151	79.993	19.992	99.917	20.220	7.199	0.511
1044.000	601.452	79.993	19.991	99.910	20.223	6.914	0.518
1044.500	601.667	79.995	19.991	99.899	20.221	7.099	0.533
1045.000	601.973	79.995	19.992	99.886	20.219	7.306	0.518
1045.500	602.222	79.993	19.991	99.877	20.222	6.978	0.537
1046.000	602.445	79.995	19.991	99.870	20.220	7.243	0.513
1046.500	602.732	79.994	19.991	99.869	20.219	7.329	0.492
1047.000	602.994	79.993	19.992	99.867	20.219	7.310	0.530
1047.500	603.245	79.994	19.991	99.867	20.218	7.464	0.531
1048.000	603.493	79.993	19.991	99.868	20.220	7.255	0.505
1048.500	603.776	79.995	19.991	99.870	20.218	7.434	0.515
1049.000	604.033	79.994	19.991	99.872	20.216	7.624	0.536
1049.501	604.281	79.996	19.992	99.874	20.219	7.345	0.522
1050.001	604.546	79.994	19.991	99.875	20.221	7.154	0.508
1050.500	604.803	79.995	19.991	99.878	20.218	7.450	0.518
1051.000	605.064	79.994	19.991	99.884	20.219	7.302	0.520
1051.501	605.347	79.995	19.992	99.889	20.221	7.159	0.531
1052.001	605.557	79.994	19.992	99.890	20.219	7.352	0.518
1052.500	605.824	79.995	19.992	99.892	20.221	7.122	0.485
1053.000	606.116	79.994	19.991	99.891	20.217	7.480	0.518
1053.500	606.433	79.995	19.991	99.887	20.219	7.287	0.584
1054.000	606.605	79.994	19.991	99.888	20.218	7.436	0.549
1054.500	606.848	79.994	19.991	99.895	20.219	7.332	0.452
1055.000	607.127	79.995	19.992	99.898	20.220	7.187	0.468
1055.500	607.381	79.992	19.990	99.898	20.221	7.148	0.528
1056.000	607.689	79.995	19.991	99.897	20.221	7.137	0.548
1056.500	607.937	79.994	19.991	99.891	20.222	6.991	0.559
1057.000	608.153	79.994	19.991	99.882	20.224	6.851	0.510
1057.500	608.409	79.992	19.992	99.876	20.224	6.823	0.468
1058.000	608.687	79.995	19.992	99.875	20.221	7.081	0.503
1058.500	608.951	79.995	19.992	99.880	20.225	6.689	0.539
1059.000	609.204	79.994	19.992	99.886	20.219	7.304	0.530
1059.500	609.524	79.994	19.990	99.891	20.220	7.220	0.545
1060.000	609.729	79.994	19.991	99.894	20.220	7.198	0.549
1060.501	609.969	79.993	19.991	99.897	20.222	6.963	0.485
1061.001	610.234	79.993	19.991	99.893	20.222	7.019	0.475
1061.500	610.455	79.995	19.990	99.887	20.223	6.865	0.496
1062.000	610.696	79.993	19.991	99.884	20.221	7.142	0.474
1062.500	610.949	79.993	19.991	99.881	20.221	7.081	0.478
1063.000	611.227	79.992	19.992	99.876	20.223	6.935	0.512
1063.500	611.484	79.994	19.992	99.875	20.222	7.050	0.534
1064.000	611.768	79.992	19.991	99.875	20.223	6.877	0.539
1064.500	612.002	79.995	19.992	99.874	20.224	6.860	0.529
1065.000	612.301	79.994	19.992	99.877	20.218	7.458	0.525
1065.500	612.515	79.994	19.992	99.878	20.223	6.924	0.523
1066.000	612.787	79.994	19.993	99.878	20.224	6.779	0.499
1066.500	613.045	79.995	19.992	99.878	20.224	6.759	0.507
1067.000	613.335	79.996	19.992	99.880	20.225	6.720	0.539
1067.500	613.559	79.994	19.993	99.879	20.224	6.767	0.531
1068.000	613.825	79.993	19.991	99.881	20.224	6.784	0.502
1068.500	614.062	79.994	19.992	99.881	20.225	6.753	0.497
1069.000	614.357	79.993	19.992	99.884	20.225	6.708	0.517
1069.500	614.576	79.994	19.992	99.882	20.228	6.443	0.523
1070.000	614.842	79.993	19.992	99.878	20.227	6.546	0.500
1070.500	615.103	79.995	19.991	99.876	20.226	6.655	0.507
1071.000	615.358	79.995	19.993	99.875	20.225	6.699	0.522
1071.500	615.629	79.996	19.990	99.874	20.225	6.721	0.520
1072.000	615.913	79.996	19.992	99.874	20.227	6.520	0.540
1072.500	616.139	79.993	19.992	99.875	20.224	6.791	0.533
1073.000	616.375	79.995	19.992	99.879	20.228	6.389	0.486
1073.500	616.639	79.996	19.992	99.883	20.227	6.481	0.481
1074.000	616.912	79.995	19.992	99.884	20.225	6.731	0.518
1074.500	617.129	79.995	19.992	99.885	20.225	6.725	0.513
1075.000	617.450	79.995	19.991	99.884	20.226	6.594	0.514
1075.500	617.672	79.996	19.991	99.882	20.226	6.591	0.541
1076.000	617.909	79.995	19.992	99.882	20.224	6.773	0.502
1076.500	618.208	79.994	19.991	99.885	20.224	6.790	0.498
1077.000	618.470	79.996	19.991	99.885	20.228	6.443	0.549
1077.500	618.728	79.996	19.992	99.885	20.226	6.644	0.540
1078.000	618.963	79.994	19.992	99.885	20.226	6.588	0.506
1078.500	619.222	79.995	19.991	99.882	20.230	6.210	0.493
1079.000	619.502	79.995	19.991	99.878	20.225	6.709	0.517
1079.500	619.738	79.994	19.992	99.877	20.226	6.574	0.528
1080.000	619.994	79.994	19.990	99.877	20.228	6.401	0.504
1080.500	620.240	79.995	19.990	99.877	20.230	6.236	0.497
1081.000	620.504	79.994	19.992	99.875	20.226	6.602	0.507
1081.500	620.770	79.994	19.991	99.871	20.228	6.448	0.520
1082.000	621.010	79.994	19.991	99.865	20.229	6.328	0.518
1082.500	621.282	79.993	19.991	99.859	20.221	7.100	0.509
1083.000	621.528	79.993	19.990	99.858	20.225	6.669	0.515
1083.500	621.806	79.993	19.991	99.861	20.225	6.750	0.521
1084.000	622.064	79.994	19.990	99.863	20.225	6.711	0.530
1084.500	622.292	79.994	19.991	99.869	20.221	7.159	0.511
1085.000	622.547	79.993	19.992	99.875	20.220	7.195	0.484
1085.500	622.825	79.994	19.991	99.876	20.225	6.728	0.508
1086.000	623.042	79.994	19.991	99.876	20.223	6.907	0.514
1086.500	623.332	79.994	19.991	99.877	20.223	6.954	0.501
1087.000	623.608	79.995	19.991	99.877	20.221	7.097	0.537
1087.500	623.802	79.993	19.990	99.877	20.223	6.882	0.518
1088.000	624.060	79.994	19.991	99.878	20.225	6.711	0.461
1088.500	624.295	79.993	19.992	99.877	20.222	6.988	0.472
1089.000	624.547	79.994	19.991	99.877	20.219	7.360	0.490
1089.501	624.797	79.992	19.991	99.877	20.224	6.822	0.494
1090.001	625.042	79.993	19.991	99.881	20.223	6.917	0.498
1090.500	625.306	79.994	19.991	99.883	20.224	6.769	0.503
1091.000	625.582	79.994	19.991	99.883	20.224	6.772	0.525
1091.500	625.826	79.993	19.991	99.882	20.227	6.467	0.530
1092.001	626.119	79.993	19.991	99.882	20.223	6.867	0.528
1092.501	626.365	79.993	19.991	99.878	20.224	6.764	0.538
1093.001	626.624	79.994	19.992	99.875	20.224	6.826	0.522
1093.501	626.867	79.993	19.991	99.875	20.224	6.770	0.504
1094.001	627.085	79.994	19.990	99.874	20.225	6.725	0.482
1094.501	627.377	79.995	19.992	99.877	20.222	6.971	0.485
1095.000	627.621	79.993	19.992	99.877	20.226	6.644	0.523
1095.500	627.883	79.994	19.992	99.878	20.225	6.733	0.521
1096.000	628.128	79.994	19.992	99.877	20.224	6.786	0.506
1096.500	628.344	79.993	19.991	99.877	20.226	6.596	0.484
1097.000	628.622	79.995	19.993	99.875	20.228	6.451	0.477
1097.500	628.838	79.994	19.992	99.874	20.227	6.529	0.494
1098.000	629.085	79.994	19.991	99.873	20.226	6.655	0.479
1098.500	629.349	79.994	19.992	99.873	20.224	6.778	0.487
1099.000	629.632	79.996	19.991	99.874	20.227	6.551	0.529
1099.500	629.828	79.994	19.991	99.874	20.225	6.694	0.513
1100.000	630.129	79.995	19.993	99.872	20.227	6.537	0.488
1100.500	630.357	79.995	19.991	99.866	20.225	6.716	0.514
1101.000	630.637	79.995	19.989	99.862	20.228	6.370	0.519
1101.500	630.883	79.994	19.992	99.862	20.225	6.725	0.517
1102.000	631.118	79.996	19.992	99.861	20.224	6.837	0.503
1102.500	631.368	79.997	19.993	99.861	20.221	7.080	0.483
1103.000	631.595	79.994	19.992	99.867	20.225	6.677	0.481
1103.501	631.890	79.995	19.991	99.873	20.221	7.128	0.499
1104.001	632.134	79.995	19.992	99.872	20.226	6.621	0.531
1104.501	632.392	79.996	19.992	99.872	20.226	6.604	0.521
1105.001	632.645	79.995	19.991	99.871	20.226	6.554	0.507
1105.501	632.947	79.995	19.992	99.872	20.227	6.481	0.533
1106.000	633.157	79.996	19.991	99.870	20.231	6.098	0.533
1106.500	633.430	79.994	19.990	99.870	20.229	6.314	0.498
1107.000	633.704	79.995	19.991	99.871	20.227	6.470	0.515
1107.500	633.927	79.997	19.991	99.871	20.228	6.372	0.522
1108.000	634.195	79.996	19.990	99.871	20.228	6.417	0.494
1108.500	634.450	79.995	19.992	99.870	20.226	6.615	0.507
1109.000	634.708	79.995	19.992	99.870	20.227	6.529	0.518
1109.500	634.953	79.994	19.991	99.866	20.227	6.478	0.508
1110.000	635.226	79.994	19.992	99.865	20.231	6.092	0.510
1110.501	635.485	79.994	19.991	99.865	20.228	6.413	0.525
1111.001	635.744	79.995	19.990	99.865	20.226	6.578	0.525
1111.501	635.988	79.993	19.991	99.867	20.229	6.317	0.511
1112.000	636.299	79.993	19.991	99.872	20.228	6.411	0.529
1112.500	636.490	79.993	19.991	99.873	20.223	6.908	0.528
1113.000	636.739	79.993	19.990	99.874	20.227	6.485	0.471
1113.500	636.977	79.992	19.990	99.874	20.227	6.496	0.464
1114.000	637.229	79.994	19.989	99.874	20.226	6.651	0.488
1114.500	637.509	79.993	19.990	99.873	20.225	6.661	0.511
1115.000	637.762	79.993	19.991	99.872	20.225	6.743	0.532
1115.500	637.981	79.992	19.989	99.870	20.222	7.057	0.502
1116.000	638.218	79.992	19.991	99.870	20.224	6.789	0.464
1116.500	638.485	79.993	19.991	99.871	20.224	6.823	0.480
1117.000	638.723	79.993	19.992	99.871	20.223	6.887	0.505
1117.500	638.959	79.994	19.991	99.871	20.222	7.003	0.490
1118.000	639.229	79.993	19.992	99.872	20.220	7.203	0.490
1118.500	639.477	79.993	19.991	99.873	20.217	7.496	0.512
1119.000	639.755	79.993	19.991	99.872	20.220	7.208	0.522
1119.500	640.020	79.994	19.991	99.868	20.219	7.325	0.535
1120.000	640.284	79.992	19.991	99.864	20.220	7.238	0.536
1120.500	640.516	79.995	19.991	99.863	20.215	7.714	0.513
1121.000	640.770	79.994	19.991	99.857	20.219	7.274	0.491
1121.500	641.029	79.993	19.991	99.853	20.217	7.556	0.499
1122.000	641.271	79.993	19.991	99.853	20.221	7.095	0.507
1122.500	641.524	79.995	19.991	99.843	20.218	7.392	0.498
1123.000	641.741	79.996	19.992	99.817	20.222	6.978	0.483
1123.500	642.022	79.994	19.992	99.806	20.218	7.381	0.484
1124.000	642.239	79.993	19.991	99.802	20.218	7.417	0.498
1124.500	642.455	79.994	19.991	99.802	20.224	6.832	0.466
1125.000	642.772	79.994	19.991	99.815	20.221	7.070	0.483
1125.500	642.996	79.994	19.992	99.842	20.220	7.253	0.537
1126.000	643.253	79.995	19.991	99.855	20.224	6.808	0.511
1126.500	643.495	79.994	19.992	99.863	20.221	7.073	0.489
1127.001	643.749	79.993	19.991	99.867	20.218	7.465	0.498
1127.501	644.001	79.993	19.990	99.870	20.220	7.200	0.501
1128.000	644.208	79.994	19.992	99.878	20.224	6.830	0.482
1128.500	644.436	79.994	19.990	99.888	20.227	6.535	0.447
1129.000	644.735	79.995	19.991	99.912	20.226	6.605	0.481
1129.500	644.982	79.994	19.991	99.931	20.227	6.491	0.537
1130.000	645.166	79.994	19.992	99.936	20.228	6.359	0.489
1130.500	645.470	79.995	19.992	99.932	20.229	6.314	0.459
1131.000	645.711	79.994	19.991	99.924	20.228	6.353	0.517
1131.500	645.991	79.993	19.991	99.900	20.228	6.356	0.533
1132.000	646.230	79.995	19.991	99.881	20.226	6.580	0.520
1132.500	646.432	79.995	19.991	99.880	20.226	6.635	0.479
1133.000	646.691	79.996	19.992	99.886	20.229	6.272	0.451
1133.500	646.947	79.995	19.992	99.893	20.225	6.683	0.488
1134.000	647.205	79.995	19.991	99.893	20.224	6.840	0.514
1134.500	647.442	79.995	19.992	99.893	20.226	6.630	0.505
1135.000	647.703	79.995	19.991	99.888	20.226	6.610	0.497
1135.500	648.024	79.995	19.992	99.880	20.226	6.557	0.540
1136.000	648.223	79.996	19.991	99.854	20.222	7.002	0.551
1136.500	648.459	79.995	19.992	99.832	20.222	6.966	0.478
1137.000	648.747	79.994	19.991	99.818	20.226	6.613	0.479
1137.500	649.002	79.995	19.991	99.813	20.231	6.116	0.534
1138.000	649.249	79.993	19.991	99.813	20.227	6.549	0.523
1138.500	649.502	79.995	19.991	99.834	20.227	6.471	0.501
1139.000	649.780	79.992	19.991	99.860	20.230	6.207	0.516
1139.500	650.031	79.996	19.991	99.883	20.225	6.666	0.530
1140.000	650.291	79.993	19.992	99.915	20.227	6.486	0.520
1140.500	650.521	79.993	19.991	99.925	20.225	6.735	0.501
1141.000	650.801	79.993	19.991	99.926	20.231	6.142	0.500
1141.500	651.071	79.995	19.991	99.922	20.229	6.251	0.530
1142.000	651.361	79.994	19.992	99.912	20.228	6.400	0.554
1142.500	651.620	79.993	19.992	99.885	20.228	6.417	0.554
1143.000	651.879	79.993	19.991	99.875	20.223	6.906	0.534
1143.500	652.112	79.993	19.991	99.874	20.225	6.736	0.505
1144.000	652.342	79.992	19.991	99.874	20.230	6.213	0.477
1144.500	652.605	79.993	19.991	99.873	20.228	6.390	0.478
1145.001	652.886	79.992	19.991	99.873	20.226	6.600	0.519
1145.501	653.131	79.993	19.993	99.874	20.228	6.440	0.535
1146.000	653.365	79.992	19.991	99.874	20.228	6.437	0.503
1146.500	653.672	79.992	19.991	99.874	20.230	6.205	0.510
1147.000	653.896	79.993	19.991	99.876	20.227	6.529	0.536
1147.500	654.145	79.995	19.992	99.879	20.227	6.467	0.502
1148.000	654.379	79.996	19.991	99.880	20.230	6.246	0.478
1148.500	654.673	79.993	19.991	99.884	20.226	6.568	0.505
1149.000	654.940	79.993	19.991	99.885	20.228	6.380	0.544
1149.500	655.160	79.995	19.992	99.881	20.232	6.036	0.524
1150.000	655.449	79.993	19.991	99.872	20.231	6.132	0.498
1150.500	655.697	79.992	19.990	99.864	20.234	5.821	0.523
1151.000	655.986	79.995	19.991	99.855	20.231	6.057	0.537
1151.500	656.225	79.992	19.991	99.852	20.231	6.093	0.533
1152.000	656.471	79.993	19.991	99.854	20.231	6.095	0.506
1152.500	656.722	79.994	19.991	99.859	20.234	5.810	0.491
1153.000	656.991	79.994	19.991	99.862	20.234	5.762	0.508
1153.500	657.265	79.995	19.992	99.866	20.228	6.377	0.531
1154.000	657.521	79.996	19.992	99.869	20.232	6.005	0.536
1154.500	657.756	79.995	19.991	99.871	20.232	6.024	0.511
1155.000	658.029	79.995	19.992	99.874	20.230	6.231	0.500
1155.500	658.290	79.994	19.993	99.878	20.233	5.845	0.521
1156.000	658.542	79.994	19.992	99.883	20.232	6.016	0.523
1156.500	658.811	79.994	19.992	99.881	20.235	5.734	0.518
1157.000	659.029	79.994	19.993	99.879	20.233	5.851	0.504
1157.500	659.309	79.996	19.993	99.877	20.233	5.933	0.492
1158.000	659.593	79.996	19.992	99.875	20.233	5.896	0.531
1158.500	659.791	79.994	19.994	99.871	20.229	6.285	0.523
1159.000	660.088	79.997	19.992	99.870	20.228	6.433	0.489
1159.500	660.352	79.995	19.991	99.864	20.230	6.231	0.528
1160.000	660.611	79.995	19.992	99.866	20.229	6.287	0.542
1160.500	660.863	79.995	19.992	99.869	20.234	5.736	0.517
1161.000	661.099	79.995	19.992	99.870	20.230	6.212	0.499
1161.500	661.385	79.994	19.992	99.872	20.232	5.966	0.505
1162.000	661.610	79.995	19.992	99.876	20.231	6.137	0.516
1162.500	661.872	79.996	19.992	99.875	20.231	6.070	0.499
1163.001	662.153	79.996	19.992	99.870	20.229	6.249	0.515
1163.501	662.412	79.994	19.991	99.870	20.228	6.423	0.542
1164.001	662.673	79.995	19.992	99.866	20.230	6.188	0.530
1164.501	662.941	79.995	19.991	99.861	20.231	6.056	0.524
1165.000	663.158	79.995	19.992	99.857	20.233	5.939	0.507
1165.500	663.400	79.995	19.991	99.855	20.232	5.941	0.472
1166.000	663.664	79.994	19.990	99.851	20.229	6.258	0.483
1166.500	663.917	79.995	19.992	99.852	20.233	5.849	0.512
1167.000	664.172	79.995	19.992	99.856	20.234	5.765	0.513
1167.500	664.424	79.995	19.992	99.858	20.231	6.121	0.508
1168.000	664.625	79.994	19.991	99.860	20.231	6.107	0.480
1168.500	664.926	79.994	19.991	99.863	20.230	6.154	0.477
1169.000	665.167	79.994	19.992	99.860	20.228	6.356	0.522
1169.500	665.426	79.993	19.992	99.855	20.229	6.260	0.521
1170.001	665.716	79.995	19.991	99.854	20.231	6.126	0.524
1170.501	665.953	79.996	19.992	99.849	20.232	6.026	0.538
1171.001	666.199	79.995	19.992	99.846	20.232	5.942	0.506
1171.501	666.463	79.996	19.992	99.850	20.229	6.266	0.496
1172.000	666.735	79.993	19.991	99.856	20.233	5.928	0.522
1172.500	666.944	79.995	19.992	99.861	20.231	6.093	0.509
1173.000	667.199	79.996	19.991	99.868	20.231	6.095	0.473
1173.500	667.409	79.995	19.992	99.872	20.232	6.034	0.464
1174.000	667.713	79.993	19.992	99.872	20.233	5.883	0.490
1174.500	667.955	79.995	19.990	99.872	20.227	6.498	0.530
1175.000	668.235	79.993	19.992	99.871	20.234	5.813	0.534
1175.500	668.458	79.995	19.991	99.871	20.229	6.283	0.512
1176.000	668.724	79.996	19.991	99.871	20.230	6.196	0.495
1176.500	668.966	79.997	19.992	99.870	20.232	6.028	0.498
1177.000	669.225	79.995	19.992	99.870	20.230	6.216	0.505
1177.500	669.464	79.995	19.992	99.871	20.233	5.871	0.500
1178.001	669.751	79.996	19.992	99.873	20.233	5.866	0.512
1178.501	670.023	79.995	19.992	99.875	20.232	5.969	0.543
1179.000	670.260	79.996	19.991	99.874	20.234	5.813	0.534
1179.500	670.513	79.995	19.993	99.875	20.233	5.911	0.500
1180.000	670.771	79.997	19.991	99.875	20.236	5.542	0.501
1180.500	671.026	79.994	19.991	99.872	20.231	6.143	0.512
1181.000	671.291	79.996	19.992	99.872	20.231	6.115	0.516
1181.500	671.556	79.996	19.993	99.873	20.236	5.567	0.525
1182.000	671.813	79.995	19.992	99.873	20.231	6.123	0.526
1182.500	672.048	79.995	19.992	99.873	20.231	6.045	0.507
1183.000	672.268	79.995	19.992	99.873	20.228	6.359	0.474
1183.500	672.548	79.997	19.991	99.873	20.234	5.757	0.477
1184.000	672.794	79.997	19.992	99.872	20.232	6.009	0.513
1184.500	673.024	79.997	19.990	99.871	20.233	5.926	0.501
1185.000	673.303	79.995	19.991	99.871	20.230	6.206	0.493
1185.500	673.572	79.995	19.992	99.871	20.229	6.301	0.528
1186.000	673.846	79.996	19.991	99.871	20.226	6.597	0.545
1186.500	674.117	79.994	19.992	99.871	20.228	6.379	0.544
1187.000	674.353	79.995	19.991	99.871	20.226	6.577	0.526
1187.500	674.640	79.995	19.992	99.870	20.230	6.179	0.515
1188.000	674.882	79.994	19.991	99.869	20.229	6.311	0.526
1188.500	675.125	79.996	19.992	99.868	20.230	6.196	0.507
1189.000	675.369	79.994	19.993	99.868	20.229	6.266	0.486
1189.500	675.623	79.995	19.992	99.868	20.228	6.420	0.493
1190.000	675.901	79.996	19.992	99.870	20.230	6.224	0.515
1190.500	676.098	79.994	19.992	99.870	20.229	6.283	0.503
1191.000	676.401	79.993	19.992	99.872	20.230	6.154	0.488
1191.500	676.664	79.994	19.992	99.871	20.228	6.400	0.533
1192.000	676.913	79.994	19.992	99.871	20.226	6.630	0.539
1192.500	677.174	79.995	19.993	99.870	20.232	5.983	0.511
1193.000	677.457	79.995	19.993	99.872	20.229	6.342	0.527
1193.500	677.684	79.994	19.993	99.873	20.232	5.984	0.527
1194.000	677.946	79.995	19.992	99.877	20.227	6.510	0.499
1194.501	678.191	79.994	19.991	99.881	20.233	5.930	0.498
1195.001	678.432	79.993	19.992	99.882	20.226	6.568	0.497
1195.500	678.730	79.994	19.992	99.886	20.231	6.098	0.513
1196.000	678.930	79.993	19.992	99.890	20.229	6.278	0.518
1196.500	679.204	79.993	19.992	99.887	20.227	6.493	0.486
1197.000	679.447	79.994	19.991	99.884	20.229	6.317	0.496
1197.500	679.719	79.993	19.991	99.882	20.230	6.177	0.516
1198.000	679.945	79.993	19.991	99.877	20.231	6.141	0.507
1198.500	680.171	79.993	19.992	99.870	20.229	6.253	0.475
1199.000	680.417	79.992	19.992	99.869	20.229	6.264	0.462
1199.500	680.700	79.993	19.991	99.868	20.226	6.622	0.500
1200.000	680.966	79.994	19.991	99.868	20.232	5.992	0.539
1200.500	681.212	79.994	19.991	99.869	20.231	6.132	0.530
1201.000	681.440	79.993	19.991	99.870	20.225	6.661	0.493
1201.500	681.710	79.994	19.992	99.869	20.225	6.674	0.486
1202.000	681.968	79.995	19.991	99.870	20.226	6.602	0.513
1202.500	682.231	79.994	19.991	99.870	20.230	6.213	0.525
1203.001	682.440	79.996	19.991	99.870	20.229	6.258	0.497
1203.501	682.715	79.993	19.991	99.871	20.229	6.255	0.478
1204.000	682.973	79.994	19.990	99.872	20.227	6.521	0.508
1204.500	683.234	79.993	19.992	99.872	20.227	6.468	0.526
1205.000	683.469	79.994	19.991	99.873	20.227	6.473	0.508
1205.500	683.668	79.993	19.990	99.873	20.227	6.543	0.465
1206.000	683.876	79.994	19.990	99.875	20.225	6.731	0.420
1206.500	684.223	79.995	19.992	99.876	20.229	6.325	0.481
1207.000	684.508	79.994	19.991	99.878	20.227	6.457	0.593
1207.500	684.771	79.995	19.991	99.879	20.224	6.806	0.590
1208.000	685.016	79.994	19.990	99.880	20.229	6.269	0.528
1208.500	685.293	79.996	19.990	99.883	20.231	6.121	0.515
1209.000	685.495	79.994	19.991	99.883	20.230	6.151	0.501
1209.500	685.774	79.995	19.992	99.881	20.229	6.249	0.480
1210.000	686.039	79.995	19.991	99.879	20.231	6.045	0.513
1210.500	686.305	79.994	19.991	99.879	20.228	6.358	0.537
1211.000	686.463	79.994	19.991	99.875	20.228	6.436	0.477
1211.500	686.769	79.995	19.991	99.873	20.230	6.218	0.444
1212.000	687.058	79.995	19.991	99.873	20.230	6.235	0.530
1212.500	687.300	79.993	19.991	99.872	20.228	6.350	0.563
1213.000	687.550	79.994	19.991	99.870	20.232	6.031	0.511
1213.500	687.791	79.993	19.992	99.868	20.233	5.919	0.491
1214.000	688.047	79.994	19.992	99.870	20.232	5.981	0.494
1214.500	688.312	79.994	19.991	99.870	20.231	6.126	0.509
1215.000	688.517	79.994	19.992	99.871	20.230	6.146	0.496
1215.500	688.770	79.994	19.991	99.873	20.229	6.253	0.464
1216.000	689.045	79.994	19.991	99.875	20.231	6.051	0.493
1216.500	689.312	79.994	19.991	99.876	20.229	6.250	0.535
1217.000	689.561	79.994	19.992	99.876	20.230	6.161	0.529
1217.500	689.832	79.993	19.991	99.876	20.225	6.729	0.518
1218.000	690.093	79.992	19.990	99.877	20.229	6.255	0.527
1218.500	690.329	79.992	19.990	99.877	20.230	6.155	0.515
1219.000	690.580	79.994	19.992	99.876	20.229	6.261	0.492
1219.500	690.832	79.994	19.991	99.875	20.230	6.211	0.494
1220.000	691.104	79.992	19.991	99.872	20.228	6.438	0.513
1220.500	691.339	79.993	19.992	99.869	20.227	6.491	0.516
1221.000	691.625	79.992	19.991	99.869	20.230	6.158	0.514
1221.500	691.871	79.994	19.991	99.868	20.227	6.553	0.526
1222.000	692.134	79.992	19.991	99.867	20.227	6.519	0.521
1222.500	692.397	79.992	19.991	99.871	20.230	6.200	0.518
1223.000	692.651	79.993	19.991	99.873	20.230	6.216	0.522
1223.500	692.886	79.992	19.992	99.872	20.227	6.507	0.503
1224.000	693.156	79.993	19.991	99.873	20.227	6.490	0.497
1224.500	693.419	79.992	19.991	99.874	20.228	6.367	0.519
1225.000	693.675	79.992	19.991	99.874	20.230	6.163	0.526
1225.500	693.930	79.994	19.992	99.876	20.230	6.185	0.515
1226.000	694.182	79.993	19.991	99.877	20.231	6.063	0.509
1226.500	694.456	79.992	19.992	99.880	20.231	6.130	0.517
1227.000	694.729	79.994	19.991	99.883	20.228	6.415	0.536
1227.500	694.976	79.993	19.990	99.884	20.229	6.275	0.533
1228.000	695.220	79.993	19.991	99.885	20.229	6.333	0.505
1228.500	695.474	79.994	19.992	99.885	20.226	6.554	0.495
1229.000	695.723	79.993	19.991	99.881	20.230	6.219	0.501
1229.500	695.972	79.994	19.992	99.879	20.227	6.526	0.501
1230.000	696.255	79.993	19.991	99.881	20.228	6.398	0.515
1230.500	696.509	79.995	19.991	99.886	20.224	6.817	0.534
1231.000	696.755	79.994	19.991	99.890	20.225	6.675	0.519
1231.500	697.033	79.994	19.991	99.892	20.225	6.663	0.512
1232.000	697.270	79.995	19.992	99.894	20.225	6.680	0.519
1232.500	697.505	79.993	19.990	99.894	20.226	6.655	0.493
1233.000	697.782	79.994	19.991	99.888	20.227	6.496	0.492
1233.500	698.011	79.996	19.992	99.882	20.227	6.552	0.509
1234.000	698.266	79.994	19.990	99.881	20.225	6.677	0.495
1234.500	698.532	79.995	19.991	99.875	20.227	6.490	0.503
1235.000	698.750	79.994	19.991	99.872	20.226	6.633	0.503
1235.500	699.024	79.995	19.991	99.878	20.226	6.565	0.488
1236.000	699.311	79.996	19.990	99.880	20.226	6.605	0.526
1236.500	699.556	79.996	19.990	99.881	20.228	6.448	0.546
1237.000	699.799	79.996	19.991	99.883	20.227	6.473	0.510
1237.500	700.059	79.996	19.991	99.883	20.231	6.070	0.495
1238.000	700.289	79.997	19.991	99.876	20.229	6.266	0.497
1238.500	700.517	79.994	19.991	99.874	20.230	6.188	0.474
1239.000	700.826	79.995	19.991	99.873	20.229	6.276	0.497
1239.500	701.112	79.997	19.992	99.873	20.227	6.520	0.566
1240.000	701.357	79.995	19.990	99.872	20.230	6.159	0.563
1240.500	701.599	79.996	19.991	99.872	20.231	6.066	0.509
1241.000	701.874	79.995	19.990	99.873	20.233	5.859	0.502
1241.500	702.099	79.996	19.991	99.874	20.233	5.852	0.509
1242.000	702.327	79.995	19.991	99.874	20.231	6.075	0.476
1242.500	702.579	79.996	19.991	99.874	20.232	5.980	0.466
1243.000	702.855	79.995	19.991	99.875	20.232	6.018	0.504
1243.500	703.100	79.995	19.991	99.875	20.234	5.802	0.525
1244.000	703.351	79.995	19.991	99.874	20.234	5.819	0.509
1244.500	703.607	79.995	19.992	99.875	20.231	6.067	0.502
1245.000	703.876	79.995	19.991	99.874	20.231	6.079	0.515
1245.500	704.097	79.994	19.992	99.873	20.229	6.336	0.507
1246.000	704.343	79.994	19.991	99.873	20.233	5.841	0.479
1246.500	704.627	79.995	19.991	99.873	20.233	5.841	0.499
1247.000	704.877	79.994	19.991	99.873	20.230	6.207	0.532
1247.500	705.122	79.994	19.991	99.873	20.232	5.944	0.514
1248.000	705.365	79.995	19.992	99.873	20.231	6.142	0.492
1248.500	705.620	79.994	19.990	99.873	20.230	6.232	0.493
1249.001	705.875	79.994	19.992	99.873	20.230	6.232	0.504
1249.501	706.126	79.995	19.992	99.872	20.229	6.341	0.508
1250.000	706.402	79.993	19.993	99.850	20.227	6.464	0.517
1250.500	706.664	79.994	19.993	99.824	20.228	6.422	0.533
1251.000	706.881	79.995	19.992	99.809	20.230	6.196	0.508
1251.500	707.168	79.995	19.991	99.801	20.230	6.168	0.491
1252.000	707.420	79.993	19.991	99.800	20.232	5.972	0.522
1252.500	707.662	79.994	19.992	99.822	20.231	6.081	0.516
1253.000	707.915	79.995	19.993	99.858	20.233	5.863	0.494
1253.500	708.181	79.995	19.992	99.905	20.233	5.883	0.507
1254.000	708.461	79.994	19.993	99.925	20.236	5.583	0.532
1254.500	708.701	79.995	19.992	99.928	20.229	6.255	0.533
1255.000	708.998	79.995	19.992	99.927	20.232	6.014	0.528
1255.500	709.247	79.996	19.991	99.916	20.233	5.869	0.541
1256.000	709.490	79.995	19.991	99.884	20.233	5.908	0.519
1256.500	709.750	79.995	19.992	99.872	20.234	5.760	0.498
1257.000	710.022	79.995	19.991	99.870	20.233	5.930	0.518
1257.500	710.255	79.994	19.991	99.869	20.234	5.768	0.518
1258.000	710.551	79.995	19.991	99.867	20.233	5.866	0.517
1258.500	710.829	79.996	19.991	99.861	20.234	5.813	0.551
1259.000	711.002	79.996	19.992	99.861	20.233	5.867	0.512
1259.500	711.265	79.995	19.992	99.859	20.233	5.929	0.443
1260.000	711.571	79.995	19.992	99.857	20.233	5.903	0.502
1260.500	711.807	79.996	19.992	99.860	20.231	6.057	0.556
1261.000	712.086	79.996	19.992	99.865	20.231	6.071	0.529
1261.500	712.327	79.996	19.991	99.865	20.234	5.797	0.517
1262.000	712.532	79.996	19.991	99.867	20.234	5.780	0.483
1262.500	712.797	79.996	19.992	99.869	20.232	6.012	0.458
1263.000	713.074	79.996	19.991	99.866	20.228	6.401	0.506
1263.500	713.310	79.997	19.990	99.865	20.234	5.774	0.528
1264.000	713.570	79.996	19.991	99.866	20.231	6.121	0.505
1264.500	713.846	79.997	19.991	99.868	20.228	6.364	0.516
1265.000	714.108	79.997	19.991	99.869	20.232	5.970	0.537
1265.500	714.369	79.997	19.992	99.873	20.230	6.235	0.531
1266.000	714.661	79.997	19.991	99.873	20.230	6.151	0.538
1266.500	714.945	79.997	19.991	99.873	20.232	5.972	0.564
1267.000	715.125	79.996	19.991	99.871	20.231	6.048	0.520
1267.500	715.432	79.996	19.990	99.870	20.230	6.244	0.476
1268.000	715.674	79.995	19.992	99.870	20.229	6.258	0.518
1268.500	715.924	79.995	19.992	99.874	20.233	5.922	0.521
1269.000	716.197	79.995	19.991	99.876	20.232	6.008	0.508
1269.500	716.449	79.995	19.992	99.877	20.232	5.991	0.524
1270.000	716.734	79.996	19.990	99.882	20.233	5.921	0.531
1270.500	716.930	79.994	19.991	99.888	20.233	5.885	0.509
1271.000	717.190	79.995	19.992	99.886	20.231	6.113	0.469
1271.501	717.443	79.995	19.992	99.888	20.231	6.133	0.485
1272.001	717.729	79.995	19.991	99.891	20.229	6.287	0.526
1272.500	717.943	79.994	19.992	99.888	20.231	6.114	0.520
1273.000	718.248	79.993	19.993	99.882	20.231	6.067	0.510
1273.500	718.526	79.994	19.992	99.880	20.228	6.395	0.551
1274.000	718.735	79.993	19.992	99.876	20.230	6.238	0.535
1274.500	718.982	79.993	19.991	99.873	20.228	6.426	0.472
1275.000	719.257	79.992	19.993	99.872	20.229	6.269	0.489
1275.500	719.507	79.992	19.992	99.872	20.225	6.734	0.523
1276.000	719.775	79.992	19.992	99.872	20.227	6.476	0.522
1276.501	720.008	79.992	19.991	99.873	20.228	6.443	0.510
1277.001	720.246	79.991	19.991	99.873	20.228	6.415	0.486
1277.500	720.519	79.993	19.991	99.873	20.227	6.482	0.491
1278.000	720.753	79.992	19.992	99.873	20.231	6.135	0.509
1278.500	721.026	79.993	19.993	99.872	20.226	6.572	0.506
1279.000	721.269	79.991	19.993	99.871	20.230	6.242	0.511
1279.500	721.497	79.993	19.991	99.871	20.229	6.251	0.493
1280.000	721.774	79.994	19.992	99.868	20.230	6.236	0.488
1280.500	722.039	79.994	19.992	99.865	20.227	6.457	0.524
1281.000	722.281	79.994	19.992	99.860	20.229	6.342	0.525
1281.500	722.518	79.992	19.992	99.854	20.228	6.389	0.493
1282.000	722.836	79.992	19.992	99.846	20.228	6.378	0.517
1282.500	723.071	79.992	19.992	99.843	20.228	6.451	0.554
1283.000	723.320	79.993	19.992	99.847	20.227	6.459	0.519
1283.500	723.573	79.992	19.992	99.854	20.227	6.468	0.493
1284.001	723.830	79.993	19.992	99.863	20.231	6.135	0.506
1284.501	724.116	79.992	19.991	99.872	20.225	6.672	0.527
1285.000	724.350	79.992	19.991	99.877	20.224	6.784	0.531
1285.500	724.581	79.992	19.991	99.879	20.228	6.373	0.492
1286.000	724.847	79.993	19.993	99.880	20.228	6.409	0.481
1286.500	725.093	79.993	19.993	99.878	20.225	6.706	0.505
1287.001	725.317	79.993	19.992	99.877	20.227	6.527	0.491
1287.501	725.628	79.994	19.990	99.878	20.225	6.722	0.502
1288.001	725.852	79.994	19.991	99.876	20.225	6.675	0.535
1288.501	726.061	79.994	19.991	99.879	20.227	6.549	0.484
1289.001	726.341	79.994	19.990	99.886	20.224	6.845	0.461
1289.501	726.622	79.993	19.991	99.892	20.230	6.156	0.525
1290.001	726.861	79.993	19.993	99.893	20.228	6.380	0.541
1290.501	727.112	79.994	19.991	99.893	20.226	6.598	0.505
1291.000	727.373	79.992	19.991	99.887	20.226	6.579	0.501
1291.500	727.643	79.995	19.991	99.881	20.225	6.733	0.521
1292.000	727.896	79.994	19.991	99.876	20.229	6.330	0.527
1292.500	728.140	79.992	19.992	99.875	20.227	6.501	0.510
1293.000	728.405	79.993	19.991	99.876	20.226	6.632	0.503
1293.500	728.642	79.994	19.990	99.877	20.230	6.240	0.505
1294.000	728.918	79.993	19.992	99.874	20.227	6.503	0.508
1294.500	729.203	79.992	19.991	99.873	20.230	6.220	0.537
1295.000	729.449	79.994	19.991	99.872	20.226	6.578	0.546
1295.500	729.690	79.994	19.991	99.872	20.230	6.196	0.509
1296.000	729.937	79.994	19.991	99.872	20.228	6.367	0.487
1296.500	730.192	79.993	19.990	99.874	20.227	6.465	0.495
1297.000	730.451	79.994	19.990	99.877	20.226	6.588	0.508
1297.500	730.721	79.994	19.991	99.878	20.227	6.552	0.522
1298.000	730.981	79.994	19.993	99.878	20.224	6.815	0.530
1298.500	731.208	79.993	19.991	99.878	20.226	6.644	0.508
1299.000	731.453	79.994	19.990	99.877	20.223	6.873	0.480
1299.500	731.731	79.994	19.992	99.874	20.223	6.943	0.498
1300.000	731.952	79.994	19.992	99.867	20.226	6.641	0.511
1300.500	732.242	79.994	19.990	99.864	20.224	6.795	0.505
1301.000	732.478	79.993	19.991	99.863	20.224	6.809	0.518
1301.500	732.747	79.993	19.991	99.863	20.225	6.756	0.515
1302.000	732.995	79.992	19.990	99.863	20.225	6.700	0.511
1302.500	733.219	79.992	19.992	99.869	20.224	6.800	0.495
1303.000	733.478	79.992	19.991	99.871	20.225	6.663	0.477
1303.500	733.772	79.995	19.990	99.870	20.225	6.711	0.518
1304.000	734.023	79.993	19.991	99.866	20.225	6.658	0.549
1304.500	734.274	79.992	19.991	99.859	20.224	6.812	0.524
1305.000	734.497	79.994	19.991	99.856	20.228	6.434	0.488
1305.500	734.838	79.992	19.991	99.856	20.222	6.999	0.519
1306.000	735.030	79.994	19.992	99.857	20.226	6.588	0.548
1306.500	735.285	79.993	19.991	99.864	20.228	6.415	0.490
1307.000	735.533	79.994	19.991	99.873	20.226	6.607	0.475
1307.500	735.778	79.993	19.992	99.876	20.226	6.554	0.498
1308.000	736.052	79.993	19.991	99.876	20.228	6.353	0.506
1308.500	736.307	79.993	19.991	99.876	20.229	6.294	0.524
1309.000	736.537	79.993	19.991	99.875	20.223	6.918	0.507
1309.500	736.799	79.993	19.991	99.873	20.223	6.887	0.488
1310.000	737.043	79.994	19.991	99.872	20.227	6.465	0.499
1310.501	737.300	79.993	19.992	99.873	20.227	6.551	0.503
1311.001	737.561	79.993	19.992	99.873	20.227	6.509	0.509
1311.500	737.795	79.995	19.991	99.873	20.222	6.996	0.507
1312.000	738.054	79.994	19.991	99.870	20.224	6.798	0.494
1312.500	738.338	79.995	19.993	99.870	20.223	6.862	0.517
1313.000	738.579	79.995	19.990	99.870	20.225	6.658	0.534
1313.500	738.840	79.994	19.991	99.870	20.226	6.635	0.514
1314.000	739.079	79.994	19.992	99.871	20.229	6.336	0.501
1314.500	739.333	79.995	19.992	99.873	20.225	6.756	0.496
1315.000	739.610	79.996	19.990	99.873	20.225	6.733	0.512
1315.500	739.857	79.995	19.991	99.875	20.226	6.616	0.527
1316.000	740.115	79.997	19.992	99.876	20.226	6.610	0.515
1316.500	740.364	79.995	19.992	99.875	20.225	6.717	0.506
1317.000	740.584	79.996	19.991	99.875	20.224	6.784	0.488
1317.500	740.876	79.996	19.991	99.875	20.227	6.551	0.490
1318.000	741.134	79.995	19.991	99.873	20.224	6.854	0.531
1318.500	741.444	79.995	19.991	99.872	20.224	6.820	0.559
1319.000	741.646	79.995	19.992	99.872	20.224	6.854	0.540
1319.501	741.946	79.996	19.991	99.871	20.220	7.214	0.507
1320.001	742.161	79.996	19.991	99.870	20.219	7.359	0.508
1320.500	742.390	79.995	19.991	99.870	20.221	7.082	0.480
1321.001	742.679	79.997	19.991	99.870	20.220	7.182	0.482
1321.501	742.945	79.995	19.992	99.870	20.223	6.922	0.537
1322.000	743.154	79.996	19.991	99.871	20.224	6.799	0.515
1322.501	743.441	79.995	19.992	99.872	20.226	6.590	0.485
