Sample ID:	C:\MCC\MCC Cal\Test\PLA_3D_Printer_Filament_MCC_30K_min_220216_R1.txt
Sample Weight (mg):	4.6
Heating Rate (C/s):	0.5
Combustor Temp (C):	900
N2 Flow Rate (cc/min):	80
O2 Flow Rate (cc/min):	20
Calibration File:	C:\MCC\MCC Cal\Coeff1 JN10440_30_210304.txt.txt
T Correction Coefficients:	0	1.024463	0
Time Shift (s):	14
*
Time (s)	Temperature (C)	N2 flow rate (cc/min)	O2 flow rate (cc/min)	Flow Rate (cc/min)	Oxygen (%)	HRR (W/g)	Heating rate (C/s)
-0.001	115.024	80.014	19.993	103.667	20.087	-0.450	-0.025
0.499	115.018	80.023	19.993	103.669	20.087	-0.456	-0.033
0.999	115.001	79.999	19.997	103.669	20.084	-0.239	-0.027
1.499	115.004	80.009	19.996	103.666	20.086	-0.399	-0.019
1.999	115.032	80.008	19.993	103.666	20.085	-0.294	0.008
2.499	115.016	80.008	19.995	103.671	20.086	-0.355	0.021
2.999	115.016	79.999	19.994	103.668	20.086	-0.353	-0.002
3.499	115.013	80.010	19.992	103.666	20.088	-0.492	-0.009
3.999	114.976	80.000	19.996	103.670	20.087	-0.412	-0.021
4.499	115.011	80.007	19.993	103.666	20.086	-0.349	-0.021
5.000	115.038	80.010	19.993	103.662	20.086	-0.346	0.030
5.499	115.010	80.002	19.996	103.664	20.085	-0.329	0.030
5.999	115.041	80.005	19.995	103.662	20.088	-0.517	0.001
6.500	115.059	80.018	19.992	103.659	20.086	-0.332	0.026
6.999	115.010	80.002	19.993	103.664	20.089	-0.545	0.009
7.498	114.991	80.003	19.994	103.664	20.087	-0.433	-0.050
7.999	115.018	80.010	19.993	103.664	20.084	-0.213	-0.030
8.499	114.988	80.005	19.994	103.667	20.084	-0.241	0.003
8.999	114.999	80.027	19.991	103.667	20.085	-0.293	-0.011
9.499	114.945	80.013	19.992	103.669	20.089	-0.543	-0.031
10.000	114.972	80.025	19.990	103.671	20.087	-0.407	-0.035
10.500	114.944	80.010	19.993	103.675	20.086	-0.382	-0.014
11.000	114.984	80.020	19.990	103.679	20.085	-0.315	0.006
11.500	114.978	80.012	19.992	103.689	20.083	-0.141	0.023
12.000	114.989	80.010	19.989	103.687	20.085	-0.325	0.020
12.499	114.938	79.995	19.995	103.687	20.087	-0.443	-0.018
12.999	115.011	80.014	19.990	103.682	20.087	-0.403	-0.009
13.499	114.953	79.998	19.995	103.681	20.086	-0.338	0.019
14.000	114.993	80.014	19.993	103.671	20.085	-0.312	-0.002
14.499	114.956	80.013	19.992	103.675	20.087	-0.407	-0.008
14.999	114.969	80.004	19.992	103.674	20.086	-0.350	-0.010
15.499	114.983	79.997	19.993	103.677	20.083	-0.173	0.002
15.998	114.981	80.006	19.994	103.673	20.085	-0.295	0.019
16.498	115.016	80.016	19.990	103.680	20.085	-0.302	0.022
16.999	114.983	80.002	19.994	103.683	20.087	-0.445	0.018
17.500	114.984	80.012	19.992	103.686	20.081	-0.010	-0.015
18.000	114.977	80.009	19.992	103.693	20.083	-0.126	-0.019
18.500	114.942	80.001	19.992	103.698	20.084	-0.259	-0.024
19.000	114.978	80.007	19.992	103.699	20.086	-0.390	-0.020
19.500	114.942	80.003	19.993	103.700	20.081	-0.019	0.000
20.000	114.998	80.004	19.992	103.699	20.085	-0.312	0.010
20.499	114.964	79.994	19.993	103.699	20.083	-0.164	0.021
20.999	114.996	79.999	19.992	103.702	20.081	-0.029	0.010
21.500	114.940	80.008	19.994	103.704	20.084	-0.190	-0.013
22.000	114.955	79.991	19.993	103.703	20.081	-0.048	-0.032
22.500	114.947	79.993	19.994	103.709	20.082	-0.074	-0.017
23.000	114.991	79.997	19.994	103.705	20.079	0.156	0.021
23.500	114.945	80.002	19.992	103.706	20.076	0.304	0.017
24.000	115.000	80.007	19.993	103.712	20.075	0.403	0.003
24.500	114.999	80.004	19.994	103.723	20.077	0.234	0.031
25.000	115.022	80.004	19.994	103.737	20.076	0.318	0.039
25.499	115.029	80.003	19.992	103.755	20.073	0.548	0.026
25.999	115.042	80.003	19.994	103.769	20.067	0.950	0.025
26.499	115.071	80.007	19.993	103.779	20.069	0.834	0.031
27.000	115.121	80.011	19.993	103.784	20.069	0.820	0.060
27.500	115.053	80.004	19.994	103.790	20.067	0.959	0.030
27.999	115.101	80.007	19.993	103.798	20.066	1.020	-0.019
28.499	115.126	80.010	19.994	103.806	20.066	1.041	0.027
28.999	115.153	80.007	19.993	103.822	20.064	1.165	0.062
29.498	115.188	80.009	19.992	103.836	20.062	1.351	0.056
29.998	115.184	80.001	19.992	103.843	20.061	1.370	0.046
30.498	115.229	80.009	19.993	103.850	20.064	1.212	0.036
30.998	115.259	80.000	19.994	103.855	20.061	1.428	0.058
31.499	115.312	79.995	19.995	103.851	20.060	1.502	0.079
32.000	115.343	80.006	19.993	103.852	20.060	1.498	0.084
32.499	115.382	80.014	19.993	103.855	20.058	1.629	0.077
32.999	115.418	79.991	19.999	103.858	20.057	1.675	0.073
33.500	115.423	80.008	19.994	103.852	20.051	2.098	0.058
34.000	115.494	80.002	19.992	103.856	20.053	1.936	0.058
34.500	115.546	80.021	19.989	103.860	20.054	1.866	0.100
35.000	115.629	80.001	19.994	103.868	20.056	1.767	0.130
35.499	115.655	80.014	19.992	103.867	20.050	2.144	0.122
35.998	115.689	79.997	19.995	103.882	20.053	1.980	0.084
36.498	115.726	80.015	19.991	103.884	20.048	2.289	0.066
36.998	115.809	80.008	19.991	103.889	20.051	2.132	0.095
37.499	115.886	79.999	19.994	103.889	20.048	2.338	0.140
37.999	115.946	80.012	19.994	103.894	20.046	2.466	0.149
38.499	115.990	80.007	19.992	103.894	20.047	2.359	0.121
38.999	116.077	80.011	19.994	103.899	20.046	2.441	0.118
39.498	116.089	80.003	19.994	103.899	20.043	2.635	0.115
39.999	116.213	80.004	19.993	103.897	20.045	2.540	0.118
40.499	116.261	80.008	19.994	103.898	20.045	2.535	0.154
40.999	116.373	80.006	19.994	103.896	20.045	2.529	0.166
41.499	116.443	80.019	19.992	103.896	20.046	2.422	0.171
41.998	116.541	80.006	19.993	103.898	20.043	2.645	0.175
42.498	116.610	80.005	19.997	103.901	20.045	2.544	0.168
42.998	116.684	80.008	19.989	103.901	20.045	2.538	0.155
43.498	116.786	80.000	19.990	103.906	20.044	2.580	0.159
43.999	116.872	80.010	19.994	103.907	20.043	2.666	0.182
44.498	116.981	80.009	19.994	103.907	20.041	2.801	0.192
44.998	117.061	80.007	19.994	103.909	20.042	2.716	0.192
45.499	117.148	80.000	19.994	103.914	20.041	2.816	0.178
45.998	117.267	79.991	20.000	103.913	20.040	2.895	0.186
46.499	117.374	80.009	19.989	103.913	20.042	2.757	0.216
47.000	117.472	80.015	19.993	103.919	20.041	2.839	0.216
47.499	117.545	80.003	19.998	103.925	20.040	2.904	0.188
47.999	117.647	80.012	19.995	103.927	20.039	2.978	0.173
48.499	117.777	80.001	20.002	103.931	20.040	2.864	0.203
48.998	117.839	80.023	19.992	103.931	20.041	2.809	0.212
49.499	117.974	80.007	19.994	103.931	20.039	2.948	0.195
49.999	118.099	80.001	19.997	103.929	20.038	2.984	0.229
50.498	118.258	80.002	19.992	103.930	20.037	3.100	0.273
50.999	118.347	79.998	19.998	103.935	20.036	3.169	0.266
51.499	118.463	80.009	19.993	103.939	20.038	3.015	0.226
51.999	118.595	80.001	19.994	103.940	20.038	3.021	0.227
52.500	118.737	80.009	19.989	103.940	20.040	2.890	0.261
52.999	118.854	80.003	19.988	103.940	20.035	3.235	0.266
53.498	118.965	80.008	19.993	103.942	20.037	3.090	0.243
53.998	119.110	80.011	19.993	103.943	20.036	3.166	0.242
54.498	119.260	80.000	19.992	103.946	20.036	3.170	0.275
54.999	119.361	80.004	20.000	103.951	20.033	3.383	0.273
55.499	119.482	80.011	19.991	103.949	20.036	3.175	0.236
55.999	119.620	80.013	19.996	103.945	20.036	3.164	0.241
56.499	119.798	80.012	19.996	103.942	20.039	2.981	0.287
56.999	119.920	80.010	19.995	103.943	20.036	3.131	0.308
57.499	120.079	80.016	19.992	103.939	20.035	3.263	0.291
57.999	120.171	80.000	19.996	103.945	20.034	3.272	0.266
58.499	120.354	80.002	19.996	103.944	20.034	3.280	0.263
58.999	120.543	80.003	19.993	103.947	20.034	3.285	0.324
59.499	120.693	80.016	19.993	103.947	20.031	3.546	0.355
59.999	120.824	80.010	19.992	103.949	20.034	3.289	0.310
60.499	120.980	80.000	19.994	103.948	20.035	3.213	0.285
61.000	121.156	80.016	19.994	103.947	20.031	3.508	0.309
61.499	121.304	80.018	19.993	103.953	20.036	3.179	0.328
61.998	121.455	80.021	19.992	103.960	20.029	3.657	0.312
62.499	121.619	80.007	19.994	103.969	20.032	3.436	0.307
62.999	121.802	80.022	19.991	103.973	20.031	3.512	0.331
63.500	121.951	80.024	19.991	103.984	20.030	3.602	0.339
63.999	122.149	80.011	19.992	103.987	20.027	3.766	0.340
64.499	122.289	80.013	19.993	103.988	20.032	3.463	0.343
64.999	122.414	80.007	19.996	103.987	20.030	3.581	0.301
65.499	122.623	80.003	19.992	103.984	20.030	3.608	0.299
65.998	122.786	80.023	19.991	103.980	20.029	3.652	0.353
66.499	123.017	80.002	19.995	103.977	20.030	3.562	0.383
67.000	123.162	80.002	19.994	103.971	20.029	3.625	0.385
67.499	123.333	80.003	19.997	103.967	20.032	3.414	0.346
67.999	123.513	80.011	19.993	103.967	20.032	3.427	0.334
68.499	123.703	80.006	19.990	103.965	20.031	3.530	0.361
68.998	123.885	80.012	19.994	103.962	20.031	3.543	0.371
69.498	124.049	80.012	19.995	103.959	20.031	3.496	0.359
69.999	124.225	80.012	19.990	103.959	20.029	3.663	0.343
70.500	124.417	80.000	19.995	103.961	20.031	3.516	0.354
71.000	124.616	80.011	19.995	103.958	20.031	3.497	0.380
71.500	124.803	79.996	19.997	103.957	20.028	3.714	0.389
72.000	124.994	80.015	19.990	103.960	20.030	3.606	0.382
72.500	125.186	80.000	19.997	103.965	20.030	3.602	0.380
73.000	125.409	80.004	19.998	103.960	20.030	3.583	0.399
73.499	125.563	80.015	19.993	103.964	20.030	3.583	0.396
73.999	125.738	80.004	19.996	103.968	20.029	3.634	0.353
74.499	125.925	80.003	19.995	103.967	20.030	3.568	0.346
74.999	126.131	80.002	19.993	103.967	20.031	3.530	0.377
75.498	126.344	80.013	19.992	103.971	20.030	3.560	0.406
75.998	126.525	80.011	19.992	103.974	20.032	3.465	0.407
76.499	126.701	80.019	19.992	103.974	20.033	3.391	0.375
77.000	126.903	80.001	19.994	103.977	20.031	3.484	0.367
77.499	127.102	80.006	19.992	103.973	20.030	3.589	0.389
77.999	127.297	80.021	19.993	103.976	20.031	3.507	0.397
78.499	127.506	80.008	19.993	103.975	20.028	3.712	0.399
78.999	127.751	79.991	19.992	103.975	20.031	3.518	0.429
79.499	127.941	80.024	19.990	103.976	20.029	3.667	0.445
79.999	128.119	80.001	19.994	103.985	20.030	3.610	0.402
80.498	128.351	79.994	19.996	103.980	20.029	3.629	0.389
80.999	128.628	80.006	19.993	103.976	20.032	3.455	0.460
81.500	128.789	79.996	19.993	103.975	20.031	3.545	0.473
82.000	129.041	80.004	19.995	103.974	20.025	3.905	0.425
82.500	129.229	80.013	19.993	103.966	20.029	3.629	0.426
83.000	129.444	80.009	19.993	103.969	20.030	3.554	0.422
83.500	129.663	80.000	19.993	103.972	20.033	3.398	0.419
83.999	129.840	80.005	19.994	103.970	20.029	3.672	0.415
84.499	130.075	80.012	19.994	103.972	20.031	3.494	0.404
84.999	130.296	80.005	19.993	103.973	20.032	3.475	0.434
85.499	130.529	79.997	19.993	103.972	20.031	3.534	0.455
85.998	130.742	80.017	19.993	103.973	20.031	3.537	0.451
86.498	130.996	80.017	19.995	103.976	20.031	3.480	0.457
86.999	131.201	80.006	19.993	103.975	20.034	3.276	0.462
87.499	131.431	80.010	19.996	103.975	20.033	3.379	0.447
87.999	131.660	79.994	19.995	103.974	20.031	3.488	0.447
88.499	131.880	80.005	19.993	103.970	20.033	3.396	0.454
88.999	132.123	80.000	19.992	103.969	20.034	3.287	0.456
89.499	132.343	79.990	19.995	103.970	20.030	3.564	0.463
89.999	132.606	80.014	19.994	103.970	20.032	3.409	0.473
90.499	132.761	80.009	19.994	103.970	20.030	3.556	0.450
90.999	133.001	79.998	19.994	103.973	20.036	3.183	0.407
91.499	133.259	80.009	19.999	103.969	20.033	3.341	0.446
91.999	133.490	80.006	19.994	103.968	20.034	3.284	0.494
92.499	133.721	80.008	19.994	103.969	20.030	3.559	0.476
92.998	133.973	80.002	19.996	103.971	20.033	3.404	0.473
93.499	134.221	80.004	19.995	103.969	20.031	3.547	0.491
93.999	134.417	80.008	19.995	103.972	20.033	3.394	0.471
94.499	134.641	80.006	19.995	103.972	20.031	3.503	0.432
95.000	134.926	80.023	19.990	103.972	20.033	3.354	0.465
95.500	135.133	80.007	19.993	103.977	20.032	3.474	0.500
95.999	135.363	80.003	19.995	103.978	20.032	3.419	0.465
96.499	135.659	80.004	19.993	103.979	20.032	3.438	0.482
96.999	135.891	80.011	19.993	103.978	20.031	3.514	0.527
97.498	136.103	80.004	19.995	103.982	20.029	3.636	0.486
97.998	136.360	80.010	19.994	103.975	20.034	3.293	0.456
98.499	136.544	79.991	19.997	103.974	20.030	3.560	0.455
98.999	136.830	80.002	19.995	103.971	20.033	3.396	0.456
99.499	137.075	79.989	19.995	103.969	20.031	3.510	0.500
99.999	137.324	80.010	19.992	103.965	20.033	3.382	0.512
100.499	137.584	80.006	19.994	103.967	20.032	3.456	0.501
101.000	137.846	80.000	19.993	103.968	20.032	3.445	0.516
101.500	138.113	80.008	19.994	103.973	20.033	3.401	0.526
102.000	138.302	80.010	19.990	103.975	20.029	3.679	0.493
102.500	138.557	80.010	19.996	103.978	20.032	3.411	0.450
103.000	138.842	80.018	19.991	103.976	20.033	3.380	0.492
103.500	139.064	80.004	19.993	103.982	20.033	3.352	0.523
103.999	139.302	80.001	19.994	103.980	20.034	3.304	0.484
104.499	139.575	80.006	19.995	103.975	20.034	3.314	0.486
104.999	139.815	80.002	19.994	103.972	20.033	3.390	0.512
105.499	140.070	80.013	19.992	103.966	20.032	3.424	0.504
105.999	140.320	80.006	19.995	103.962	20.032	3.460	0.500
106.498	140.597	80.016	19.992	103.956	20.034	3.296	0.516
106.998	140.836	79.989	19.999	103.961	20.031	3.542	0.522
107.499	141.070	80.011	19.994	103.962	20.035	3.230	0.495
107.998	141.341	80.018	19.994	103.967	20.032	3.428	0.489
108.499	141.612	80.019	19.989	103.969	20.033	3.378	0.524
109.000	141.871	80.011	19.992	103.974	20.035	3.249	0.536
109.500	142.069	79.996	19.996	103.966	20.034	3.306	0.493
109.999	142.368	80.007	19.993	103.959	20.037	3.100	0.477
110.499	142.630	80.001	19.995	103.955	20.033	3.403	0.529
110.999	142.880	80.010	19.993	103.948	20.035	3.251	0.536
111.499	143.157	80.010	19.992	103.944	20.035	3.207	0.520
112.000	143.397	80.020	19.990	103.951	20.035	3.205	0.522
112.500	143.673	80.002	19.994	103.957	20.036	3.131	0.516
113.000	143.908	80.014	19.992	103.953	20.035	3.209	0.514
113.500	144.213	80.009	19.991	103.952	20.036	3.161	0.525
113.999	144.452	80.027	19.990	103.950	20.035	3.211	0.542
114.499	144.725	80.002	19.993	103.949	20.032	3.410	0.528
114.999	144.998	80.008	19.992	103.946	20.034	3.269	0.529
115.498	145.229	80.011	19.993	103.948	20.035	3.237	0.525
115.998	145.504	80.001	19.994	103.949	20.036	3.142	0.505
116.498	145.758	80.025	19.989	103.948	20.036	3.192	0.518
116.999	146.022	80.008	19.992	103.947	20.035	3.224	0.524
117.499	146.285	79.999	19.993	103.948	20.035	3.256	0.523
117.998	146.558	80.009	19.993	103.949	20.034	3.300	0.531
118.498	146.781	80.005	19.993	103.950	20.038	3.047	0.515
118.999	147.073	80.005	19.995	103.949	20.035	3.262	0.505
119.500	147.343	80.013	19.993	103.942	20.039	2.946	0.539
119.999	147.606	80.013	19.992	103.941	20.036	3.157	0.548
120.498	147.839	80.010	19.991	103.941	20.037	3.083	0.514
120.998	148.151	80.007	19.995	103.941	20.036	3.134	0.520
121.499	148.392	80.009	19.994	103.944	20.038	3.053	0.549
121.999	148.637	80.002	19.996	103.946	20.040	2.887	0.519
122.499	148.913	80.004	19.996	103.945	20.038	2.992	0.503
122.999	149.218	80.012	19.985	103.945	20.035	3.199	0.551
123.499	149.479	79.998	19.994	103.945	20.035	3.247	0.574
123.999	149.753	79.997	19.994	103.942	20.034	3.281	0.551
124.499	149.984	80.005	19.994	103.940	20.037	3.083	0.520
124.999	150.275	80.006	19.995	103.940	20.034	3.312	0.513
125.499	150.521	80.016	19.992	103.937	20.031	3.483	0.530
125.998	150.805	79.994	19.995	103.937	20.039	2.959	0.534
126.498	151.089	80.010	19.992	103.936	20.036	3.178	0.549
126.998	151.371	80.015	19.992	103.939	20.039	2.921	0.567
127.498	151.600	80.011	19.991	103.942	20.036	3.142	0.538
127.999	151.851	80.000	19.996	103.948	20.036	3.170	0.495
128.500	152.089	80.005	19.996	103.943	20.038	3.010	0.485
128.999	152.352	80.005	19.994	103.944	20.038	3.048	0.495
129.499	152.657	80.009	19.991	103.943	20.039	2.978	0.535
129.999	152.883	80.005	19.993	103.941	20.039	2.934	0.550
130.499	153.186	80.003	19.997	103.937	20.041	2.782	0.529
131.000	153.473	80.011	19.990	103.940	20.041	2.829	0.559
131.499	153.713	80.006	19.991	103.943	20.042	2.708	0.559
131.999	153.979	80.010	19.992	103.943	20.043	2.677	0.517
132.499	154.215	80.006	19.995	103.944	20.044	2.574	0.504
132.999	154.480	80.006	19.988	103.944	20.045	2.538	0.501
133.499	154.782	80.015	19.992	103.947	20.044	2.622	0.534
133.999	154.998	80.012	19.991	103.947	20.046	2.467	0.542
134.499	155.214	79.999	19.994	103.945	20.042	2.766	0.475
134.999	155.517	80.014	19.993	103.942	20.044	2.595	0.476
135.499	155.784	80.009	19.991	103.944	20.044	2.591	0.544
135.999	156.020	80.007	19.990	103.942	20.042	2.709	0.536
136.499	156.290	80.001	19.995	103.941	20.043	2.690	0.505
136.999	156.580	80.007	19.992	103.942	20.040	2.875	0.533
137.499	156.766	80.007	19.994	103.947	20.044	2.616	0.518
137.999	157.061	80.009	19.994	103.944	20.040	2.869	0.479
138.499	157.297	80.013	19.995	103.942	20.041	2.816	0.506
138.999	157.607	80.002	19.995	103.935	20.040	2.886	0.538
139.499	157.825	79.999	19.995	103.931	20.042	2.759	0.537
139.999	158.105	80.004	19.995	103.925	20.045	2.522	0.513
140.500	158.360	80.006	19.992	103.925	20.043	2.633	0.517
141.000	158.618	80.018	19.993	103.924	20.042	2.745	0.525
141.499	158.916	80.006	19.994	103.925	20.046	2.423	0.535
141.998	159.136	80.018	19.992	103.926	20.045	2.532	0.537
142.499	159.421	80.011	19.993	103.929	20.045	2.500	0.511
143.000	159.685	80.015	19.991	103.931	20.044	2.610	0.527
143.500	159.975	79.987	19.995	103.929	20.043	2.635	0.552
144.000	160.246	80.013	19.994	103.925	20.047	2.404	0.557
144.500	160.471	80.016	19.995	103.927	20.047	2.414	0.528
145.000	160.750	80.001	20.002	103.924	20.042	2.703	0.500
145.499	160.990	80.006	19.993	103.915	20.046	2.463	0.512
145.998	161.294	80.005	19.993	103.912	20.046	2.463	0.531
146.499	161.570	80.014	19.992	103.914	20.048	2.347	0.562
147.000	161.811	80.018	19.992	103.916	20.047	2.357	0.549
147.499	162.037	80.000	19.997	103.919	20.050	2.170	0.492
147.999	162.326	80.010	19.991	103.925	20.044	2.564	0.491
148.499	162.578	80.011	19.988	103.929	20.050	2.199	0.528
148.999	162.834	80.016	19.990	103.933	20.049	2.258	0.524
149.499	163.076	80.012	19.992	103.929	20.045	2.509	0.503
150.000	163.305	80.009	19.993	103.922	20.046	2.465	0.485
150.500	163.574	80.017	19.993	103.916	20.047	2.358	0.485
150.999	163.808	80.011	19.993	103.912	20.048	2.318	0.501
151.499	164.084	80.015	19.989	103.908	20.045	2.516	0.506
151.999	164.336	80.002	19.991	103.909	20.047	2.397	0.519
152.499	164.637	80.000	19.994	103.909	20.047	2.366	0.541
152.999	164.870	79.996	19.994	103.911	20.046	2.465	0.544
153.500	165.150	80.008	19.994	103.910	20.047	2.370	0.524
154.000	165.407	80.011	19.992	103.911	20.046	2.488	0.525
154.499	165.666	79.998	19.992	103.906	20.047	2.377	0.527
154.999	165.929	80.002	19.994	103.904	20.044	2.621	0.519
155.500	166.163	80.004	19.994	103.904	20.048	2.286	0.509
155.999	166.432	79.998	19.994	103.905	20.052	2.037	0.500
156.499	166.682	80.003	19.993	103.903	20.049	2.252	0.511
156.999	166.974	80.007	19.988	103.901	20.048	2.303	0.530
157.499	167.190	80.007	19.992	103.903	20.048	2.332	0.525
158.000	167.483	80.012	19.995	103.906	20.048	2.284	0.509
158.500	167.698	80.013	19.994	103.907	20.047	2.412	0.509
158.999	167.920	80.004	19.997	103.907	20.049	2.223	0.473
159.499	168.196	80.008	19.994	103.907	20.050	2.176	0.467
159.999	168.485	80.001	19.993	103.906	20.052	2.019	0.532
160.499	168.721	80.014	19.992	103.903	20.053	1.981	0.545
160.999	168.984	80.008	19.995	103.901	20.049	2.225	0.512
161.499	169.244	80.000	19.995	103.901	20.049	2.231	0.511
161.999	169.502	80.006	19.994	103.900	20.049	2.217	0.520
162.499	169.746	80.030	19.991	103.901	20.050	2.158	0.510
162.999	169.996	80.005	19.997	103.901	20.049	2.236	0.498
163.499	170.266	80.001	19.993	103.900	20.049	2.208	0.507
164.000	170.473	80.002	19.995	103.899	20.049	2.213	0.498
164.500	170.730	80.006	19.994	103.898	20.048	2.339	0.471
165.000	170.994	80.002	19.996	103.895	20.050	2.170	0.493
165.499	171.268	80.007	19.993	103.892	20.047	2.375	0.529
165.999	171.483	80.010	19.992	103.892	20.049	2.210	0.513
166.499	171.781	80.010	19.992	103.892	20.052	2.019	0.501
166.999	171.983	80.007	19.994	103.895	20.049	2.246	0.506
167.499	172.257	80.015	19.991	103.896	20.050	2.177	0.488
168.000	172.480	80.003	19.993	103.900	20.052	2.027	0.487
168.500	172.708	80.001	19.994	103.901	20.048	2.315	0.474
169.000	173.022	80.016	19.991	103.899	20.049	2.214	0.496
169.500	173.250	80.006	19.993	103.900	20.051	2.136	0.542
169.999	173.490	80.003	19.996	103.899	20.052	1.998	0.505
170.499	173.745	80.005	19.994	103.892	20.051	2.105	0.482
170.999	174.021	80.011	19.993	103.888	20.053	1.989	0.513
171.498	174.226	80.011	19.991	103.889	20.052	2.023	0.506
171.999	174.502	80.003	19.996	103.889	20.052	2.063	0.481
172.500	174.736	80.007	19.992	103.887	20.053	1.936	0.495
173.000	174.998	80.003	19.992	103.892	20.057	1.686	0.503
173.500	175.221	80.006	19.992	103.891	20.057	1.713	0.490
174.000	175.507	80.013	19.991	103.888	20.055	1.795	0.497
174.499	175.745	80.004	19.994	103.886	20.056	1.772	0.517
174.999	175.973	79.995	19.994	103.886	20.053	1.951	0.494
175.500	176.237	80.004	19.992	103.884	20.055	1.821	0.479
176.000	176.439	80.001	19.996	103.888	20.053	1.955	0.480
176.500	176.710	80.006	19.995	103.892	20.055	1.820	0.470
177.000	176.985	80.009	19.994	103.892	20.055	1.797	0.509
177.500	177.186	80.004	19.991	103.893	20.050	2.202	0.511
178.000	177.474	80.006	19.993	103.893	20.051	2.113	0.482
178.500	177.703	80.005	19.992	103.891	20.052	2.040	0.503
179.000	177.967	80.010	19.991	103.892	20.055	1.802	0.505
179.499	178.150	79.998	19.995	103.894	20.058	1.578	0.470
179.999	178.453	79.999	19.994	103.890	20.056	1.715	0.466
180.499	178.713	79.997	19.991	103.891	20.054	1.884	0.525
180.999	178.965	80.009	19.993	103.890	20.057	1.646	0.537
181.499	179.171	80.007	19.995	103.892	20.056	1.719	0.485
181.999	179.437	80.015	19.991	103.893	20.056	1.772	0.466
182.499	179.683	80.010	19.994	103.899	20.058	1.587	0.492
182.999	179.900	80.009	19.994	103.901	20.058	1.637	0.487
183.499	180.150	80.002	19.996	103.903	20.058	1.605	0.465
183.999	180.390	79.993	19.999	103.900	20.057	1.646	0.478
184.499	180.604	80.008	19.996	103.894	20.057	1.644	0.472
184.999	180.846	80.008	19.994	103.893	20.059	1.521	0.455
185.499	181.137	79.994	19.995	103.892	20.057	1.679	0.495
185.999	181.353	80.006	19.995	103.889	20.059	1.564	0.520
186.499	181.620	80.004	19.997	103.888	20.056	1.781	0.495
186.999	181.912	80.026	19.993	103.890	20.054	1.924	0.521
187.499	182.131	80.006	19.994	103.889	20.056	1.766	0.535
187.999	182.401	80.006	19.996	103.890	20.060	1.492	0.500
188.500	182.629	80.002	19.997	103.892	20.057	1.702	0.494
188.999	182.868	79.989	19.995	103.892	20.058	1.610	0.483
189.499	183.061	80.008	19.995	103.893	20.060	1.464	0.449
190.000	183.310	80.007	19.993	103.893	20.057	1.713	0.437
190.500	183.559	79.985	19.998	103.892	20.057	1.658	0.470
190.999	183.854	80.015	19.995	103.889	20.056	1.762	0.521
191.499	184.092	79.997	19.996	103.889	20.059	1.503	0.538
192.000	184.314	80.007	19.994	103.889	20.056	1.781	0.497
192.500	184.567	80.017	19.993	103.888	20.057	1.701	0.467
193.000	184.823	80.016	19.993	103.890	20.056	1.768	0.492
193.500	185.093	80.020	19.991	103.891	20.056	1.770	0.518
194.000	185.314	80.020	19.993	103.896	20.056	1.772	0.509
194.499	185.532	79.992	19.995	103.895	20.057	1.669	0.465
194.998	185.768	80.017	19.993	103.890	20.056	1.721	0.446
195.499	186.028	80.015	19.994	103.882	20.055	1.801	0.475
196.000	186.271	79.997	19.995	103.882	20.059	1.553	0.499
196.499	186.518	80.014	19.992	103.876	20.055	1.840	0.496
196.999	186.764	80.013	19.992	103.878	20.055	1.808	0.491
197.499	187.022	80.001	19.993	103.886	20.056	1.751	0.499
197.999	187.264	80.005	19.994	103.887	20.059	1.528	0.502
198.499	187.511	80.008	19.994	103.888	20.058	1.635	0.495
198.999	187.799	80.020	19.991	103.891	20.056	1.719	0.512
199.499	188.000	80.004	19.994	103.891	20.056	1.728	0.512
199.999	188.252	79.999	19.993	103.885	20.055	1.831	0.471
200.498	188.495	80.005	19.992	103.886	20.056	1.720	0.474
200.999	188.741	80.001	19.993	103.881	20.060	1.460	0.493
201.499	188.976	80.010	19.993	103.876	20.055	1.785	0.485
201.999	189.201	80.015	19.992	103.871	20.054	1.873	0.470
202.500	189.468	80.006	19.993	103.875	20.056	1.736	0.476
203.000	189.708	80.014	19.992	103.875	20.058	1.580	0.500
203.499	189.946	80.006	19.993	103.883	20.058	1.585	0.493
203.999	190.200	80.013	19.990	103.887	20.055	1.836	0.485
204.500	190.439	80.015	19.993	103.896	20.055	1.791	0.493
205.000	190.677	80.010	19.992	103.897	20.056	1.719	0.485
205.500	190.946	80.006	19.995	103.898	20.054	1.896	0.491
206.000	191.176	80.013	19.992	103.893	20.055	1.810	0.503
206.500	191.391	80.000	19.994	103.891	20.054	1.878	0.473
206.999	191.632	80.000	19.994	103.883	20.055	1.797	0.451
207.498	191.891	80.014	19.991	103.877	20.054	1.882	0.478
207.998	192.147	80.002	19.994	103.875	20.054	1.894	0.508
208.498	192.379	80.002	19.994	103.873	20.055	1.833	0.501
208.998	192.639	80.005	19.994	103.875	20.057	1.663	0.490
209.498	192.843	80.007	19.993	103.878	20.058	1.599	0.478
209.998	193.063	80.018	19.990	103.879	20.058	1.621	0.444
210.499	193.325	79.999	19.995	103.879	20.061	1.391	0.453
210.998	193.579	80.013	19.995	103.877	20.056	1.764	0.499
211.498	193.825	80.003	19.994	103.877	20.058	1.608	0.508
211.998	194.080	80.022	19.988	103.877	20.057	1.686	0.501
212.498	194.321	80.005	19.994	103.883	20.059	1.549	0.499
212.999	194.533	80.010	19.994	103.885	20.055	1.795	0.475
213.499	194.796	80.009	19.993	103.885	20.054	1.861	0.464
213.999	195.005	80.001	19.993	103.887	20.059	1.570	0.473
214.499	195.289	80.011	19.993	103.882	20.059	1.530	0.483
214.999	195.478	80.008	19.994	103.878	20.062	1.296	0.483
215.499	195.738	80.014	19.993	103.876	20.058	1.616	0.461
215.999	196.025	80.001	19.990	103.880	20.057	1.656	0.498
216.500	196.249	80.007	19.992	103.879	20.058	1.593	0.529
217.000	196.460	80.007	19.995	103.886	20.058	1.616	0.473
217.500	196.705	80.019	19.992	103.885	20.058	1.625	0.446
218.000	196.923	80.000	19.991	103.885	20.055	1.812	0.460
218.500	197.209	80.007	19.984	103.881	20.057	1.655	0.484
219.000	197.448	80.010	19.991	103.879	20.058	1.614	0.514
219.500	197.677	80.010	19.992	103.877	20.059	1.534	0.496
219.999	197.894	80.000	19.997	103.879	20.054	1.888	0.457
220.498	198.133	80.007	19.988	103.878	20.059	1.549	0.451
220.999	198.400	80.008	19.994	103.877	20.063	1.265	0.481
221.500	198.611	80.010	19.990	103.878	20.059	1.549	0.492
222.000	198.905	80.012	19.993	103.877	20.057	1.688	0.492
222.499	199.174	80.020	19.991	103.876	20.062	1.361	0.535
222.998	199.409	80.006	19.994	103.881	20.058	1.597	0.534
223.499	199.612	80.007	19.992	103.883	20.055	1.791	0.471
224.000	199.887	80.006	19.990	103.882	20.058	1.640	0.458
224.500	200.137	80.015	19.993	103.887	20.061	1.412	0.502
224.999	200.360	80.013	19.991	103.887	20.058	1.640	0.499
225.499	200.569	80.018	19.991	103.886	20.058	1.583	0.453
226.000	200.867	80.013	19.992	103.888	20.056	1.775	0.470
226.500	201.102	80.012	19.991	103.886	20.054	1.890	0.519
226.999	201.302	79.998	19.993	103.884	20.058	1.610	0.483
227.499	201.557	79.994	19.990	103.883	20.058	1.640	0.445
228.000	201.826	80.012	19.994	103.873	20.060	1.475	0.490
228.499	202.068	80.003	19.989	103.867	20.060	1.462	0.517
228.999	202.298	80.021	19.993	103.866	20.059	1.515	0.492
229.499	202.562	80.021	19.990	103.865	20.057	1.705	0.483
229.999	202.769	80.006	19.993	103.866	20.057	1.680	0.483
230.499	203.055	80.007	19.994	103.868	20.056	1.715	0.482
230.998	203.252	80.008	19.992	103.867	20.058	1.625	0.488
231.499	203.511	80.012	19.991	103.870	20.059	1.518	0.469
232.000	203.753	79.994	19.993	103.866	20.061	1.418	0.478
232.500	204.027	80.018	19.990	103.864	20.059	1.509	0.509
232.999	204.260	80.015	19.993	103.867	20.061	1.372	0.512
233.498	204.513	80.011	19.991	103.873	20.061	1.364	0.497
233.998	204.704	80.005	19.993	103.872	20.057	1.682	0.465
234.498	204.990	80.004	19.995	103.873	20.060	1.500	0.460
234.999	205.238	80.017	19.991	103.872	20.060	1.437	0.506
235.499	205.485	80.008	19.993	103.874	20.060	1.480	0.514
235.999	205.718	79.999	19.994	103.875	20.059	1.503	0.487
236.499	205.985	80.016	19.993	103.870	20.060	1.488	0.490
236.999	206.226	80.013	19.992	103.870	20.058	1.587	0.504
237.499	206.496	80.006	19.991	103.870	20.058	1.623	0.510
237.999	206.709	79.993	19.995	103.869	20.056	1.743	0.497
238.500	206.992	80.013	19.993	103.863	20.060	1.478	0.489
238.999	207.190	80.014	19.993	103.873	20.062	1.349	0.488
239.499	207.466	80.013	19.990	103.876	20.059	1.522	0.478
240.000	207.636	79.994	19.995	103.880	20.062	1.321	0.460
240.499	207.907	79.982	19.994	103.875	20.058	1.585	0.443
240.999	208.172	80.006	19.994	103.875	20.060	1.454	0.488
241.500	208.394	79.988	19.995	103.869	20.058	1.637	0.511
242.000	208.674	80.020	19.992	103.865	20.064	1.201	0.495
242.500	208.961	80.007	19.992	103.863	20.061	1.376	0.535
242.999	209.195	80.004	19.994	103.866	20.060	1.446	0.544
243.498	209.404	80.020	19.991	103.869	20.062	1.330	0.482
243.999	209.710	80.008	19.993	103.868	20.062	1.340	0.480
244.500	209.883	80.009	19.993	103.877	20.060	1.496	0.497
244.999	210.150	80.007	19.992	103.877	20.059	1.511	0.459
245.499	210.365	80.000	19.996	103.875	20.061	1.381	0.461
245.999	210.630	80.011	19.993	103.869	20.060	1.437	0.481
246.499	210.930	80.019	19.992	103.868	20.062	1.343	0.522
246.999	211.141	80.024	19.992	103.865	20.063	1.281	0.538
247.499	211.421	80.012	19.993	103.864	20.060	1.456	0.501
248.000	211.645	80.005	19.993	103.863	20.060	1.498	0.498
248.500	211.929	80.006	19.994	103.867	20.060	1.462	0.506
248.999	212.164	80.008	19.994	103.866	20.062	1.361	0.514
249.499	212.374	80.001	19.993	103.859	20.064	1.165	0.482
249.999	212.651	80.010	19.993	103.859	20.064	1.161	0.466
250.499	212.871	80.018	19.992	103.860	20.062	1.359	0.492
250.999	213.132	80.013	19.993	103.862	20.062	1.353	0.489
251.498	213.374	80.011	19.994	103.868	20.060	1.438	0.492
251.998	213.618	79.994	19.995	103.874	20.061	1.404	0.494
252.499	213.880	80.001	19.995	103.870	20.058	1.617	0.496
253.000	214.140	80.016	19.991	103.867	20.059	1.511	0.514
253.499	214.355	80.012	19.993	103.866	20.060	1.473	0.499
253.998	214.614	80.016	19.992	103.862	20.061	1.370	0.474
254.499	214.835	80.008	19.994	103.859	20.064	1.193	0.477
254.999	215.082	80.009	19.995	103.861	20.066	1.064	0.474
255.499	215.344	79.999	19.995	103.863	20.063	1.250	0.488
255.999	215.607	80.009	19.996	103.859	20.062	1.300	0.517
256.498	215.854	80.009	19.993	103.856	20.062	1.319	0.518
256.998	216.097	80.014	19.993	103.857	20.061	1.410	0.500
257.498	216.332	80.008	19.996	103.863	20.063	1.223	0.484
257.998	216.610	80.003	19.996	103.867	20.063	1.222	0.496
258.498	216.825	80.004	19.995	103.872	20.064	1.204	0.503
258.998	217.064	80.008	19.994	103.877	20.062	1.292	0.473
259.499	217.350	80.019	19.994	103.876	20.060	1.446	0.490
260.000	217.603	79.998	19.994	103.883	20.062	1.330	0.532
260.500	217.839	80.005	19.994	103.878	20.062	1.311	0.514
260.999	218.109	79.993	19.995	103.874	20.063	1.226	0.498
261.499	218.326	80.008	19.993	103.868	20.062	1.321	0.497
261.999	218.593	79.998	19.993	103.867	20.065	1.127	0.486
262.499	218.846	80.019	19.990	103.857	20.063	1.279	0.502
262.999	219.080	80.022	19.991	103.863	20.062	1.343	0.503
263.500	219.322	80.009	19.994	103.867	20.062	1.298	0.482
264.000	219.526	80.002	19.996	103.879	20.065	1.115	0.461
264.499	219.797	80.021	19.997	103.881	20.062	1.315	0.460
264.998	220.079	80.013	19.993	103.883	20.065	1.119	0.514
265.499	220.266	80.015	19.997	103.883	20.061	1.427	0.511
265.999	220.538	80.019	19.993	103.880	20.062	1.296	0.464
266.498	220.768	79.983	20.000	103.870	20.063	1.258	0.481
266.998	221.043	80.003	19.992	103.867	20.064	1.212	0.504
267.498	221.347	80.006	19.990	103.865	20.062	1.338	0.542
267.999	221.576	80.012	19.988	103.860	20.063	1.250	0.556
268.499	221.774	80.009	19.992	103.862	20.065	1.149	0.480
268.999	222.061	80.014	19.996	103.863	20.062	1.321	0.455
269.500	222.288	80.020	19.992	103.864	20.062	1.343	0.499
270.000	222.581	80.018	19.993	103.867	20.064	1.189	0.518
270.499	222.822	80.004	19.990	103.870	20.064	1.212	0.527
270.998	223.023	79.999	19.996	103.872	20.061	1.406	0.487
271.499	223.308	80.008	19.994	103.872	20.064	1.157	0.464
271.999	223.554	80.007	19.993	103.872	20.063	1.263	0.508
272.499	223.839	80.012	19.994	103.869	20.062	1.319	0.531
272.999	224.043	80.002	19.996	103.868	20.065	1.117	0.510
273.499	224.277	79.997	19.995	103.865	20.066	1.069	0.464
273.998	224.557	79.997	19.995	103.865	20.063	1.256	0.476
274.498	224.823	80.007	19.992	103.863	20.064	1.180	0.530
274.998	225.039	79.996	19.994	103.864	20.061	1.389	0.514
275.499	225.338	80.005	19.991	103.863	20.064	1.185	0.499
276.000	225.537	80.016	19.991	103.869	20.065	1.145	0.507
276.499	225.793	80.011	19.992	103.872	20.063	1.290	0.476
276.999	226.049	79.996	19.993	103.873	20.065	1.104	0.483
277.499	226.297	80.003	19.992	103.871	20.065	1.115	0.508
277.999	226.576	80.010	19.992	103.872	20.062	1.309	0.516
278.499	226.810	80.000	19.991	103.867	20.063	1.250	0.521
278.999	227.057	80.014	19.995	103.865	20.060	1.433	0.497
279.499	227.271	80.000	19.994	103.866	20.059	1.518	0.471
280.000	227.554	80.009	19.993	103.864	20.061	1.406	0.479
280.500	227.777	80.002	19.992	103.865	20.063	1.254	0.502
280.999	228.064	79.996	19.994	103.865	20.057	1.644	0.508
281.499	228.335	80.000	19.995	103.864	20.061	1.383	0.534
281.999	228.563	80.012	19.994	103.864	20.062	1.351	0.529
282.499	228.874	80.001	19.994	103.866	20.061	1.385	0.519
283.000	229.114	79.999	19.995	103.862	20.064	1.195	0.545
283.500	229.370	80.005	19.993	103.861	20.064	1.199	0.524
283.999	229.595	80.008	19.993	103.862	20.064	1.199	0.489
284.499	229.848	80.003	19.995	103.863	20.060	1.475	0.480
285.000	230.116	80.007	19.995	103.859	20.066	1.022	0.500
285.500	230.360	80.018	19.994	103.861	20.060	1.452	0.516
286.000	230.625	80.002	19.994	103.863	20.060	1.484	0.511
286.499	230.873	79.998	19.994	103.862	20.064	1.206	0.511
286.998	231.144	80.011	19.993	103.861	20.065	1.149	0.516
287.499	231.386	80.007	19.994	103.864	20.061	1.364	0.516
288.000	231.628	80.010	19.992	103.864	20.062	1.328	0.498
288.499	231.826	80.004	19.996	103.862	20.061	1.401	0.462
288.998	232.093	80.008	19.992	103.863	20.059	1.545	0.453
289.498	232.325	80.007	19.993	103.863	20.062	1.324	0.482
289.998	232.577	80.005	19.993	103.865	20.062	1.334	0.491
290.499	232.841	80.003	19.993	103.866	20.065	1.136	0.500
290.999	233.073	80.002	19.994	103.865	20.059	1.556	0.506
291.499	233.320	80.005	19.993	103.862	20.061	1.391	0.488
292.000	233.546	80.009	19.993	103.862	20.066	1.064	0.476
292.499	233.856	80.014	19.992	103.860	20.062	1.326	0.504
292.999	234.082	79.999	19.993	103.862	20.063	1.254	0.536
293.499	234.338	80.009	19.994	103.862	20.063	1.290	0.510
293.999	234.595	80.011	19.993	103.864	20.061	1.414	0.498
294.498	234.812	80.006	19.992	103.865	20.066	1.067	0.493
294.998	235.062	80.015	19.991	103.867	20.066	1.058	0.470
295.498	235.303	80.007	19.994	103.867	20.062	1.299	0.479
295.998	235.548	80.013	19.993	103.867	20.063	1.282	0.489
296.499	235.818	80.002	19.993	103.867	20.063	1.260	0.501
297.000	236.105	80.018	19.992	103.863	20.060	1.446	0.536
297.499	236.334	80.007	19.994	103.864	20.060	1.488	0.537
297.999	236.603	80.018	19.992	103.860	20.059	1.511	0.506
298.500	236.812	80.002	19.993	103.863	20.063	1.233	0.488
299.000	237.085	80.031	19.990	103.862	20.063	1.273	0.480
299.499	237.331	79.990	19.996	103.868	20.065	1.125	0.501
299.999	237.614	80.009	19.992	103.862	20.061	1.416	0.524
300.498	237.814	80.010	19.993	103.865	20.063	1.279	0.506
300.998	238.080	80.014	19.995	103.862	20.063	1.288	0.474
301.498	238.329	80.012	19.994	103.861	20.062	1.326	0.491
301.998	238.593	79.999	19.993	103.856	20.063	1.284	0.514
302.498	238.839	80.015	19.993	103.861	20.062	1.309	0.511
302.998	239.078	79.989	19.995	103.861	20.059	1.555	0.497
303.498	239.323	80.008	19.992	103.858	20.059	1.568	0.485
303.999	239.575	79.986	19.996	103.861	20.064	1.172	0.491
304.498	239.826	80.010	19.994	103.858	20.063	1.246	0.500
304.998	240.071	80.007	19.994	103.854	20.063	1.227	0.499
305.498	240.311	79.996	19.993	103.851	20.065	1.132	0.491
305.998	240.590	80.017	19.993	103.852	20.062	1.294	0.502
306.498	240.831	79.995	19.995	103.850	20.062	1.347	0.519
306.998	241.077	80.001	19.994	103.850	20.063	1.269	0.504
307.498	241.327	80.010	19.992	103.853	20.059	1.564	0.491
307.998	241.574	79.998	19.994	103.854	20.064	1.208	0.496
308.498	241.831	80.010	19.992	103.854	20.062	1.313	0.501
308.998	242.098	80.036	19.989	103.856	20.059	1.509	0.515
309.498	242.368	80.013	19.994	103.864	20.062	1.332	0.530
309.999	242.583	80.000	19.994	103.864	20.060	1.461	0.510
310.498	242.845	80.006	19.993	103.866	20.061	1.410	0.481
310.998	243.097	79.989	19.995	103.868	20.061	1.366	0.496
311.499	243.334	80.010	19.993	103.865	20.062	1.307	0.501
311.999	243.562	80.010	19.993	103.858	20.063	1.282	0.477
312.499	243.841	80.004	19.993	103.858	20.060	1.437	0.487
312.998	244.113	80.005	19.994	103.857	20.062	1.317	0.529
313.498	244.358	80.012	19.993	103.856	20.061	1.374	0.534
313.999	244.604	80.002	19.994	103.856	20.058	1.577	0.504
314.499	244.867	80.025	19.992	103.858	20.061	1.370	0.500
314.999	245.138	80.007	19.993	103.860	20.061	1.389	0.521
315.499	245.365	80.016	19.992	103.861	20.061	1.366	0.516
315.999	245.587	79.996	19.995	103.865	20.061	1.377	0.474
316.499	245.837	80.020	19.993	103.860	20.065	1.119	0.460
316.999	246.097	79.994	19.994	103.861	20.065	1.142	0.491
317.499	246.340	80.004	19.995	103.859	20.064	1.178	0.507
317.999	246.611	80.015	19.991	103.855	20.063	1.231	0.509
318.499	246.832	80.006	19.994	103.853	20.064	1.195	0.503
318.999	247.103	80.014	19.993	103.854	20.062	1.296	0.492
319.500	247.341	80.024	19.992	103.851	20.065	1.117	0.501
319.999	247.575	80.013	19.995	103.853	20.065	1.140	0.490
320.499	247.851	80.008	19.996	103.854	20.062	1.298	0.491
320.999	248.099	80.008	19.994	103.852	20.065	1.086	0.517
321.499	248.356	80.001	19.994	103.856	20.067	0.974	0.514
321.998	248.590	80.005	20.001	103.858	20.061	1.408	0.498
322.498	248.896	79.999	19.994	103.855	20.066	1.060	0.515
322.999	249.147	80.004	19.993	103.855	20.060	1.477	0.548
323.499	249.384	80.014	19.995	103.856	20.063	1.241	0.523
323.999	249.630	80.010	19.993	103.856	20.063	1.290	0.486
324.499	249.885	80.016	19.994	103.856	20.061	1.362	0.492
324.999	250.164	80.011	19.988	103.856	20.063	1.241	0.517
325.499	250.417	80.003	19.996	103.855	20.060	1.490	0.533
325.999	250.656	80.011	19.991	103.854	20.063	1.243	0.512
326.499	250.882	80.008	19.992	103.855	20.065	1.134	0.479
326.999	251.172	80.011	19.992	103.852	20.064	1.182	0.491
327.499	251.431	80.007	19.992	103.854	20.063	1.290	0.532
327.999	251.669	80.011	19.995	103.855	20.063	1.225	0.523
328.499	251.950	80.016	19.992	103.856	20.062	1.345	0.508
328.999	252.182	80.019	19.992	103.856	20.063	1.227	0.516
329.500	252.459	80.010	19.993	103.859	20.060	1.488	0.511
329.999	252.697	80.009	19.993	103.859	20.064	1.185	0.512
330.499	252.972	80.007	19.992	103.859	20.061	1.389	0.514
330.999	253.225	80.012	19.992	103.857	20.064	1.218	0.521
331.499	253.434	80.017	19.992	103.858	20.060	1.486	0.495
332.000	253.709	80.011	19.992	103.855	20.060	1.484	0.472
332.499	253.966	80.015	19.992	103.855	20.063	1.265	0.508
332.999	254.211	80.013	19.992	103.857	20.058	1.627	0.517
333.500	254.461	80.008	19.993	103.861	20.061	1.395	0.499
333.999	254.743	80.015	19.991	103.859	20.060	1.467	0.513
334.498	254.982	80.009	19.991	103.862	20.061	1.368	0.527
334.999	255.232	80.011	19.992	103.861	20.059	1.513	0.505
335.499	255.498	80.009	19.993	103.860	20.059	1.541	0.502
335.998	255.744	80.012	19.993	103.859	20.062	1.358	0.514
336.499	256.008	80.011	19.994	103.860	20.060	1.486	0.511
337.000	256.200	80.007	19.992	103.860	20.062	1.355	0.483
337.500	256.494	80.003	19.995	103.861	20.062	1.345	0.471
337.999	256.761	80.025	19.992	103.860	20.059	1.514	0.524
338.499	256.993	79.997	19.994	103.861	20.061	1.362	0.530
338.999	257.220	80.003	19.994	103.860	20.060	1.467	0.479
339.499	257.490	80.010	19.986	103.857	20.059	1.516	0.478
340.000	257.715	80.011	19.997	103.857	20.060	1.473	0.496
340.499	257.992	80.008	19.992	103.858	20.062	1.301	0.499
340.999	258.236	80.012	19.995	103.857	20.061	1.427	0.511
341.499	258.515	80.006	19.993	103.858	20.062	1.307	0.522
341.999	258.690	80.001	19.994	103.857	20.063	1.265	0.489
342.498	258.970	80.012	19.994	103.857	20.060	1.457	0.455
342.998	259.256	80.000	19.997	103.857	20.062	1.309	0.511
343.499	259.493	80.005	19.992	103.856	20.060	1.446	0.544
343.998	259.748	80.020	19.993	103.856	20.060	1.493	0.507
344.498	260.014	80.012	19.991	103.860	20.056	1.735	0.507
344.998	260.259	80.000	19.994	103.860	20.059	1.531	0.516
345.499	260.480	80.004	19.992	103.859	20.061	1.374	0.488
346.000	260.721	80.007	19.995	103.855	20.056	1.756	0.464
346.500	261.001	80.005	19.997	103.850	20.060	1.492	0.492
346.999	261.200	79.994	19.996	103.847	20.062	1.320	0.500
347.499	261.476	80.002	19.998	103.848	20.057	1.661	0.477
347.999	261.736	80.005	19.995	103.847	20.056	1.754	0.505
348.498	261.918	80.018	19.994	103.849	20.057	1.682	0.488
348.999	262.213	80.004	19.992	103.851	20.060	1.497	0.459
349.499	262.442	79.997	19.997	103.853	20.063	1.252	0.501
349.999	262.714	80.020	19.994	103.847	20.061	1.404	0.513
350.499	262.991	80.013	19.993	103.848	20.059	1.553	0.525
350.999	263.251	80.021	19.992	103.851	20.058	1.608	0.543
351.499	263.478	80.003	19.991	103.854	20.059	1.503	0.512
352.000	263.722	80.008	19.996	103.853	20.059	1.515	0.479
352.500	263.993	80.012	19.993	103.855	20.059	1.549	0.493
352.999	264.253	80.015	19.992	103.853	20.060	1.438	0.523
353.499	264.459	79.989	19.995	103.849	20.059	1.572	0.499
353.998	264.722	79.995	19.994	103.841	20.056	1.762	0.468
354.499	264.964	80.016	19.993	103.839	20.062	1.343	0.487
355.000	265.243	80.000	19.993	103.842	20.059	1.503	0.513
355.499	265.480	80.011	19.994	103.841	20.057	1.674	0.518
355.999	265.754	80.017	19.993	103.841	20.059	1.512	0.513
356.499	265.973	80.013	19.992	103.850	20.054	1.868	0.502
356.999	266.204	79.992	19.995	103.850	20.057	1.644	0.472
357.499	266.450	80.014	19.995	103.842	20.059	1.503	0.463
358.000	266.704	80.003	19.994	103.841	20.057	1.674	0.489
358.500	266.988	80.009	19.992	103.837	20.055	1.808	0.519
358.999	267.198	80.007	19.989	103.835	20.058	1.579	0.516
359.498	267.471	80.011	19.993	103.839	20.059	1.524	0.488
359.999	267.726	80.001	19.995	103.848	20.056	1.741	0.506
360.500	267.975	80.008	19.993	103.847	20.060	1.456	0.516
361.000	268.220	80.005	19.996	103.853	20.061	1.366	0.499
361.499	268.468	80.006	19.996	103.852	20.058	1.615	0.494
361.999	268.698	80.011	19.993	103.851	20.056	1.716	0.486
362.499	268.954	80.006	19.995	103.853	20.056	1.728	0.482
362.998	269.206	80.007	19.994	103.856	20.057	1.707	0.497
363.499	269.469	80.008	19.993	103.857	20.054	1.893	0.512
363.999	269.715	80.007	19.993	103.857	20.056	1.733	0.512
364.499	269.951	80.006	19.992	103.855	20.057	1.655	0.495
364.999	270.221	79.999	19.996	103.852	20.058	1.600	0.494
365.499	270.448	80.005	19.995	103.847	20.057	1.655	0.502
365.999	270.714	80.006	19.995	103.844	20.057	1.672	0.495
366.498	270.992	80.008	19.995	103.844	20.056	1.775	0.519
366.998	271.229	80.006	19.997	103.844	20.058	1.594	0.530
367.499	271.488	80.011	19.993	103.842	20.059	1.520	0.506
368.000	271.739	80.002	19.995	103.850	20.055	1.844	0.502
368.500	272.023	80.007	19.997	103.853	20.053	1.988	0.522
369.000	272.255	80.003	19.994	103.855	20.058	1.589	0.526
369.499	272.525	80.010	19.995	103.856	20.053	1.960	0.510
369.998	272.745	80.007	19.996	103.859	20.053	1.981	0.496
370.498	272.982	80.009	19.995	103.857	20.054	1.910	0.473
370.999	273.237	80.004	19.994	103.857	20.054	1.891	0.474
371.500	273.489	80.004	19.995	103.855	20.053	1.931	0.500
371.999	273.717	80.002	19.997	103.854	20.057	1.701	0.494
372.498	273.982	80.007	19.991	103.850	20.054	1.912	0.486
372.998	274.229	80.006	19.995	103.850	20.058	1.625	0.503
373.499	274.480	80.004	19.997	103.848	20.057	1.649	0.505
374.000	274.755	80.009	19.993	103.847	20.057	1.695	0.512
374.500	274.944	80.010	19.993	103.850	20.057	1.687	0.496
375.000	275.249	80.005	19.995	103.852	20.053	1.950	0.479
375.499	275.501	80.008	19.994	103.851	20.056	1.748	0.525
375.999	275.726	80.003	19.995	103.854	20.057	1.659	0.517
376.499	275.968	80.004	19.995	103.856	20.052	1.998	0.472
376.999	276.232	80.005	19.993	103.855	20.046	2.420	0.487
377.500	276.461	80.000	19.996	103.853	20.052	2.032	0.500
377.999	276.726	80.007	19.995	103.854	20.050	2.154	0.493
378.499	276.971	80.006	19.995	103.852	20.050	2.161	0.502
379.000	277.212	80.005	19.993	103.852	20.049	2.222	0.498
379.500	277.473	80.010	19.993	103.852	20.051	2.102	0.494
379.999	277.732	80.007	19.995	103.853	20.051	2.102	0.511
380.499	278.014	80.011	19.992	103.853	20.051	2.112	0.531
381.000	278.235	80.005	19.995	103.852	20.049	2.247	0.522
381.499	278.459	80.008	19.991	103.847	20.053	1.990	0.474
381.999	278.753	80.005	19.997	103.840	20.050	2.169	0.481
382.499	278.939	79.999	19.995	103.837	20.050	2.173	0.499
382.999	279.218	80.009	19.991	103.831	20.049	2.239	0.473
383.499	279.506	80.003	19.993	103.829	20.048	2.294	0.516
383.998	279.728	79.998	19.992	103.832	20.048	2.308	0.539
384.498	279.932	80.010	19.992	103.835	20.048	2.304	0.469
384.999	280.215	79.996	19.994	103.834	20.048	2.298	0.457
385.499	280.521	80.007	19.993	103.839	20.046	2.469	0.537
386.000	280.728	80.010	19.988	103.842	20.048	2.314	0.551
386.499	280.950	80.010	19.992	103.845	20.046	2.426	0.472
386.999	281.203	80.010	19.992	103.848	20.045	2.508	0.452
387.498	281.504	80.022	19.990	103.848	20.047	2.382	0.514
387.998	281.728	80.007	19.994	103.855	20.047	2.409	0.540
388.499	281.973	80.005	19.995	103.854	20.044	2.566	0.498
389.000	282.182	80.007	19.994	103.852	20.046	2.485	0.462
389.499	282.473	80.009	19.994	103.848	20.045	2.488	0.476
389.999	282.698	80.011	19.994	103.853	20.045	2.521	0.508
390.499	282.959	80.022	19.991	103.845	20.044	2.582	0.501
390.999	283.212	80.005	19.995	103.850	20.046	2.431	0.500
391.499	283.444	80.007	19.994	103.849	20.044	2.620	0.500
391.999	283.723	80.007	19.993	103.852	20.043	2.696	0.498
392.499	283.947	80.011	19.993	103.851	20.045	2.534	0.507
393.000	284.208	80.009	19.993	103.849	20.039	2.953	0.494
393.499	284.453	80.006	19.993	103.845	20.040	2.879	0.496
393.998	284.664	80.008	19.994	103.845	20.044	2.601	0.481
394.498	284.973	80.010	19.992	103.839	20.043	2.662	0.488
394.999	285.218	80.007	19.992	103.838	20.042	2.749	0.537
395.500	285.397	80.006	19.994	103.841	20.044	2.559	0.489
396.000	285.688	80.010	19.991	103.842	20.044	2.627	0.447
396.499	285.972	80.009	19.994	103.845	20.044	2.570	0.522
396.999	286.203	80.018	19.990	103.851	20.042	2.720	0.545
397.499	286.440	80.009	19.994	103.858	20.042	2.749	0.491
397.999	286.696	80.018	19.991	103.856	20.040	2.840	0.480
398.499	286.934	80.004	19.995	103.853	20.042	2.730	0.494
399.000	287.208	80.014	19.990	103.851	20.039	2.974	0.503
399.500	287.495	80.013	19.991	103.846	20.040	2.843	0.536
400.000	287.720	80.003	19.993	103.842	20.043	2.677	0.537
400.500	287.948	80.011	19.993	103.845	20.044	2.614	0.483
400.999	288.211	80.008	19.992	103.842	20.045	2.515	0.472
401.499	288.437	80.003	19.995	103.844	20.037	3.069	0.490
401.999	288.692	80.002	19.992	103.848	20.041	2.831	0.485
402.499	288.936	80.013	19.994	103.847	20.039	2.976	0.490
402.998	289.208	80.006	19.993	103.844	20.041	2.839	0.507
403.498	289.466	80.011	19.994	103.848	20.038	3.012	0.523
403.999	289.694	80.010	19.994	103.848	20.039	2.928	0.508
404.498	289.953	80.008	19.993	103.847	20.038	3.020	0.486
404.998	290.233	80.019	19.990	103.841	20.038	3.004	0.513
405.499	290.426	80.003	19.993	103.843	20.040	2.901	0.506
406.000	290.706	80.006	19.992	103.843	20.038	3.050	0.473
406.499	290.965	80.010	19.993	103.841	20.036	3.156	0.506
406.999	291.205	80.004	19.996	103.837	20.034	3.280	0.519
407.500	291.491	80.003	19.993	103.838	20.036	3.155	0.512
408.000	291.770	80.015	19.991	103.834	20.035	3.237	0.546
408.499	291.995	80.009	19.993	103.837	20.034	3.271	0.535
408.999	292.258	80.009	19.994	103.841	20.032	3.438	0.496
409.500	292.513	80.006	19.993	103.847	20.033	3.377	0.503
410.000	292.750	80.007	19.991	103.853	20.033	3.393	0.505
410.499	293.004	80.013	19.993	103.859	20.029	3.659	0.492
410.999	293.269	80.012	19.992	103.859	20.029	3.625	0.505
411.499	293.529	80.014	19.991	103.860	20.029	3.638	0.522
412.000	293.778	80.010	19.992	103.858	20.025	3.903	0.517
412.500	294.028	80.006	19.991	103.858	20.029	3.659	0.504
413.000	294.223	80.008	19.993	103.854	20.028	3.697	0.472
413.500	294.552	80.015	19.987	103.851	20.026	3.864	0.484
413.999	294.781	80.011	19.992	103.851	20.026	3.893	0.541
414.499	295.038	80.011	19.993	103.853	20.022	4.125	0.522
415.000	295.285	80.009	19.992	103.852	20.026	3.885	0.495
415.499	295.528	80.006	19.992	103.854	20.028	3.735	0.497
415.998	295.780	80.013	19.992	103.855	20.024	4.005	0.493
416.498	296.026	80.006	19.994	103.852	20.027	3.781	0.497
416.999	296.259	80.008	19.994	103.852	20.025	3.939	0.489
417.500	296.541	80.008	19.992	103.854	20.023	4.078	0.497
418.000	296.794	80.011	19.994	103.855	20.024	4.032	0.525
418.499	297.022	80.018	19.991	103.854	20.023	4.057	0.508
418.998	297.272	80.005	19.994	103.857	20.019	4.333	0.480
419.498	297.523	80.008	19.994	103.856	20.019	4.335	0.489
419.998	297.792	80.009	19.993	103.855	20.020	4.257	0.511
420.498	298.030	80.006	19.992	103.856	20.016	4.555	0.514
420.998	298.268	80.007	19.994	103.857	20.015	4.670	0.491
421.498	298.512	80.009	19.991	103.858	20.015	4.630	0.479
421.998	298.792	80.011	19.992	103.859	20.014	4.708	0.503
422.498	298.988	80.008	19.995	103.861	20.010	4.964	0.500
422.999	299.257	80.009	19.993	103.860	20.011	4.909	0.470
423.499	299.511	80.005	19.996	103.859	20.011	4.943	0.494
423.998	299.756	80.008	19.992	103.858	20.009	5.044	0.511
424.498	299.991	80.006	19.994	103.858	20.011	4.898	0.490
424.999	300.257	80.007	19.995	103.857	20.005	5.362	0.491
425.499	300.506	80.013	19.989	103.858	20.007	5.181	0.508
425.999	300.762	80.008	19.993	103.860	20.008	5.160	0.510
426.499	300.986	80.010	19.993	103.862	20.005	5.352	0.492
427.000	301.254	80.003	19.998	103.862	20.003	5.487	0.486
427.499	301.509	80.005	19.993	103.861	20.003	5.495	0.508
427.999	301.774	80.006	19.993	103.861	20.000	5.689	0.522
428.498	302.016	80.007	19.993	103.860	20.001	5.630	0.514
428.998	302.287	80.005	19.994	103.860	19.998	5.851	0.510
429.499	302.531	80.009	19.992	103.860	19.997	5.885	0.514
429.998	302.773	80.006	19.992	103.862	19.996	5.977	0.500
430.498	303.012	80.007	19.990	103.862	19.996	5.952	0.484
430.998	303.269	80.007	19.996	103.863	19.991	6.295	0.489
431.498	303.523	80.008	19.990	103.863	19.990	6.405	0.504
431.998	303.750	80.005	19.994	103.864	19.990	6.369	0.496
432.499	304.002	80.002	19.994	103.863	19.989	6.436	0.480
432.998	304.248	80.009	19.997	103.862	19.987	6.598	0.488
433.498	304.495	80.003	19.995	103.861	19.988	6.562	0.495
433.998	304.795	80.009	19.992	103.861	19.986	6.705	0.520
434.499	304.970	79.989	19.995	103.861	19.983	6.920	0.512
434.998	305.223	80.008	19.994	103.861	19.981	7.007	0.451
435.498	305.516	80.004	19.994	103.862	19.976	7.359	0.486
435.999	305.736	80.001	19.994	103.862	19.977	7.330	0.530
436.499	305.969	80.004	19.992	103.860	19.975	7.448	0.483
436.999	306.281	80.005	19.994	103.857	19.975	7.436	0.499
437.498	306.534	80.004	19.996	103.858	19.973	7.605	0.555
437.999	306.781	80.008	19.989	103.858	19.972	7.661	0.533
438.499	307.007	80.008	19.993	103.859	19.966	8.083	0.487
438.998	307.296	80.008	19.994	103.862	19.965	8.175	0.494
439.498	307.554	80.005	19.996	103.864	19.969	7.873	0.531
439.999	307.754	80.007	19.993	103.864	19.963	8.305	0.503
440.500	308.017	80.008	19.995	103.864	19.961	8.461	0.461
440.999	308.303	80.007	19.992	103.863	19.958	8.648	0.505
441.498	308.539	80.006	19.993	103.863	19.955	8.877	0.535
441.999	308.790	80.009	19.994	103.863	19.955	8.872	0.505
442.500	309.018	80.007	19.994	103.869	19.953	9.038	0.483
442.999	309.250	80.009	19.993	103.874	19.950	9.189	0.469
443.499	309.521	80.008	19.993	103.879	19.945	9.539	0.481
443.999	309.778	80.003	19.994	103.885	19.946	9.508	0.515
444.499	310.028	80.007	19.993	103.887	19.946	9.483	0.518
444.999	310.300	80.006	19.994	103.883	19.942	9.747	0.514
445.498	310.546	80.008	19.993	103.879	19.940	9.918	0.519
445.998	310.804	80.009	19.993	103.874	19.942	9.757	0.511
446.499	311.063	80.007	19.994	103.868	19.938	10.071	0.511
446.999	311.307	80.006	19.993	103.865	19.940	9.900	0.510
447.498	311.549	80.007	19.994	103.864	19.940	9.893	0.494
447.999	311.835	80.005	19.994	103.862	19.936	10.223	0.508
448.499	312.076	80.009	19.994	103.862	19.936	10.231	0.528
448.999	312.341	80.008	19.992	103.863	19.933	10.452	0.516
449.499	312.570	80.006	19.994	103.866	19.930	10.629	0.499
449.998	312.851	80.003	19.995	103.873	19.928	10.742	0.502
450.499	313.109	80.007	19.995	103.875	19.925	10.976	0.525
450.999	313.366	80.006	19.993	103.878	19.925	11.001	0.527
451.499	313.626	80.010	19.991	103.879	19.925	10.986	0.516
452.000	313.894	80.009	19.994	103.877	19.925	10.959	0.523
452.499	314.152	80.006	19.994	103.871	19.923	11.136	0.527
452.999	314.360	80.001	19.995	103.871	19.919	11.370	0.496
453.499	314.650	80.008	19.993	103.876	19.921	11.252	0.481
453.999	314.878	80.010	19.994	103.883	19.915	11.718	0.508
454.499	315.103	80.006	19.995	103.890	19.917	11.579	0.486
454.998	315.336	80.004	19.993	103.896	19.913	11.792	0.455
455.499	315.618	80.006	19.994	103.897	19.914	11.781	0.486
456.000	315.876	80.006	19.994	103.891	19.913	11.802	0.528
456.500	316.131	80.006	19.993	103.884	19.913	11.856	0.527
456.999	316.381	80.001	19.994	103.878	19.910	12.015	0.509
457.499	316.634	80.004	19.994	103.877	19.908	12.198	0.504
457.999	316.893	80.007	19.993	103.881	19.909	12.136	0.508
458.498	317.133	80.006	19.993	103.886	19.901	12.681	0.506
458.998	317.379	80.005	19.994	103.893	19.902	12.633	0.492
459.499	317.624	80.006	19.993	103.899	19.895	13.107	0.489
459.999	317.872	80.010	19.993	103.901	19.897	12.960	0.492
460.499	318.156	80.009	19.994	103.901	19.893	13.226	0.512
460.999	318.388	80.007	19.994	103.903	19.891	13.369	0.524
461.499	318.657	80.008	19.994	103.906	19.885	13.795	0.509
461.999	318.925	80.009	19.994	103.907	19.884	13.852	0.519
462.499	319.149	80.009	19.994	103.907	19.879	14.208	0.514
462.999	319.387	80.007	19.994	103.906	19.881	14.093	0.477
463.499	319.616	80.008	19.994	103.906	19.873	14.636	0.465
463.999	319.915	80.009	19.993	103.903	19.872	14.746	0.497
464.498	320.127	80.010	19.994	103.902	19.870	14.830	0.519
464.999	320.402	80.009	19.993	103.902	19.868	14.968	0.499
465.499	320.653	80.008	19.995	103.901	19.865	15.188	0.507
465.999	320.903	80.007	19.996	103.902	19.859	15.660	0.514
466.499	321.147	80.007	19.994	103.902	19.856	15.840	0.498
466.999	321.421	80.009	19.994	103.905	19.851	16.218	0.506
467.499	321.628	80.010	19.994	103.908	19.847	16.490	0.499
467.999	321.890	80.009	19.993	103.915	19.842	16.830	0.475
468.498	322.176	80.008	19.993	103.918	19.838	17.116	0.508
468.998	322.405	80.007	19.994	103.924	19.836	17.289	0.531
469.499	322.700	80.008	19.992	103.928	19.832	17.518	0.519
469.999	322.922	80.008	19.994	103.928	19.831	17.639	0.520
470.499	323.167	80.007	19.993	103.923	19.829	17.766	0.492
470.999	323.401	80.009	19.994	103.921	19.822	18.272	0.473
471.499	323.673	80.008	19.995	103.921	19.817	18.624	0.493
471.999	323.919	80.000	19.994	103.920	19.820	18.420	0.512
472.500	324.161	80.003	19.994	103.916	19.814	18.815	0.503
472.999	324.422	80.009	19.994	103.916	19.809	19.141	0.495
473.498	324.674	80.007	19.995	103.915	19.804	19.517	0.508
473.998	324.898	80.009	19.995	103.910	19.800	19.795	0.494
474.499	325.219	80.007	19.994	103.910	19.798	19.918	0.510
475.000	325.440	80.011	19.993	103.911	19.794	20.229	0.543
475.499	325.675	80.007	19.993	103.913	19.790	20.495	0.499
475.999	325.947	80.009	19.993	103.918	19.786	20.804	0.482
476.500	326.212	80.006	19.993	103.924	19.779	21.313	0.522
476.999	326.473	80.007	19.994	103.926	19.773	21.698	0.531
477.499	326.711	80.006	19.993	103.933	19.770	21.922	0.513
477.999	326.977	80.004	19.993	103.939	19.764	22.375	0.502
478.499	327.235	80.010	19.992	103.948	19.757	22.847	0.514
479.000	327.473	80.008	19.992	103.954	19.753	23.089	0.510
479.499	327.714	80.008	19.993	103.956	19.753	23.093	0.487
479.999	327.966	80.006	19.993	103.957	19.748	23.457	0.486
480.500	328.228	80.007	19.992	103.956	19.746	23.583	0.504
480.999	328.509	80.007	19.994	103.951	19.740	24.006	0.529
481.499	328.776	80.009	19.994	103.948	19.736	24.327	0.546
482.000	329.014	80.006	19.994	103.947	19.733	24.515	0.527
482.500	329.301	80.007	19.993	103.945	19.730	24.774	0.515
482.999	329.566	80.008	19.994	103.944	19.725	25.131	0.538
483.499	329.789	80.014	19.994	103.948	19.720	25.460	0.520
483.999	330.080	80.008	19.994	103.951	19.713	25.961	0.501
484.499	330.303	80.008	19.994	103.956	19.708	26.311	0.514
484.999	330.560	80.008	19.993	103.961	19.701	26.789	0.497
485.499	330.855	80.013	19.992	103.968	19.698	27.024	0.516
486.000	331.088	80.009	19.993	103.972	19.690	27.547	0.540
486.500	331.371	80.009	19.992	103.976	19.687	27.807	0.522
487.000	331.603	80.010	19.993	103.978	19.678	28.414	0.516
487.499	331.854	80.009	19.993	103.981	19.674	28.715	0.499
487.999	332.143	80.011	19.992	103.982	19.671	28.934	0.511
488.500	332.381	80.011	19.994	103.981	19.663	29.498	0.534
489.000	332.604	80.013	19.994	103.978	19.660	29.722	0.494
489.499	332.874	80.011	19.994	103.977	19.650	30.420	0.476
489.999	333.136	80.011	19.993	103.976	19.641	31.056	0.512
490.500	333.429	80.011	19.992	103.977	19.636	31.370	0.544
491.000	333.642	80.006	19.994	103.985	19.631	31.747	0.531
491.499	333.911	80.011	19.993	103.987	19.624	32.267	0.494
491.998	334.144	80.005	19.993	103.988	19.615	32.858	0.492
492.498	334.379	79.996	19.997	103.990	19.610	33.237	0.485
492.999	334.666	80.009	19.993	103.988	19.601	33.856	0.495
493.500	334.957	80.009	19.992	103.987	19.596	34.249	0.550
494.000	335.199	80.007	19.992	103.991	19.589	34.747	0.556
494.499	335.442	80.009	19.994	103.997	19.580	35.342	0.509
494.999	335.706	80.012	19.992	104.004	19.569	36.119	0.496
495.499	335.994	80.009	19.992	104.017	19.560	36.798	0.529
495.999	336.237	80.011	19.994	104.024	19.552	37.374	0.542
496.498	336.471	80.006	19.992	104.026	19.544	37.926	0.504
496.998	336.763	80.006	19.994	104.033	19.533	38.723	0.502
497.499	337.002	80.005	19.993	104.038	19.527	39.082	0.529
498.000	337.260	80.004	19.992	104.034	19.517	39.841	0.514
498.499	337.515	80.009	19.993	104.028	19.509	40.401	0.505
498.999	337.756	80.005	19.994	104.026	19.507	40.537	0.505
499.499	338.050	80.010	19.994	104.021	19.494	41.467	0.516
499.998	338.290	80.008	19.993	104.018	19.489	41.825	0.534
500.499	338.540	80.008	19.994	104.019	19.481	42.364	0.512
500.999	338.787	80.004	19.994	104.022	19.473	42.903	0.493
501.498	339.035	80.008	19.993	104.027	19.467	43.385	0.496
501.999	339.305	80.007	19.992	104.031	19.455	44.191	0.506
502.499	339.571	80.006	19.994	104.031	19.450	44.562	0.527
502.999	339.786	80.008	19.993	104.033	19.444	45.011	0.509
503.499	340.048	80.009	19.993	104.038	19.437	45.478	0.479
503.998	340.323	80.007	19.992	104.043	19.424	46.408	0.507
504.499	340.581	80.005	19.993	104.049	19.412	47.250	0.535
505.000	340.802	80.005	19.994	104.062	19.401	48.028	0.506
505.499	341.109	80.009	19.992	104.074	19.391	48.773	0.504
505.999	341.310	80.009	19.993	104.087	19.380	49.525	0.519
506.498	341.597	80.010	19.993	104.100	19.367	50.445	0.498
506.999	341.809	80.001	19.993	104.115	19.360	50.984	0.493
507.500	342.125	80.007	19.992	104.127	19.348	51.810	0.514
507.999	342.357	80.008	19.993	104.130	19.340	52.344	0.538
508.498	342.623	80.009	19.994	104.126	19.326	53.366	0.523
508.998	342.870	80.009	19.990	104.121	19.315	54.167	0.506
509.499	343.108	80.009	19.994	104.114	19.303	54.961	0.500
509.999	343.348	80.007	19.994	104.110	19.291	55.837	0.482
510.500	343.578	80.018	19.993	104.113	19.278	56.744	0.474
511.000	343.824	80.005	19.995	104.122	19.266	57.622	0.473
511.500	344.110	80.014	19.993	104.128	19.256	58.308	0.504
512.000	344.351	80.007	19.995	104.140	19.243	59.253	0.529
512.499	344.619	80.006	19.990	104.140	19.230	60.145	0.518
512.999	344.826	80.010	19.993	104.142	19.220	60.900	0.492
513.499	345.127	80.005	19.992	104.143	19.206	61.871	0.491
514.000	345.347	80.006	19.993	104.149	19.190	63.050	0.514
514.500	345.621	80.006	19.993	104.149	19.174	64.148	0.508
515.000	345.897	80.006	19.993	104.161	19.161	65.064	0.523
515.499	346.115	80.009	19.993	104.176	19.146	66.141	0.522
515.999	346.357	80.008	19.993	104.196	19.130	67.311	0.477
516.499	346.623	80.010	19.992	104.213	19.113	68.472	0.484
516.999	346.890	80.008	19.993	104.223	19.099	69.469	0.520
517.500	347.124	80.004	19.993	104.227	19.085	70.517	0.517
518.000	347.402	80.005	19.995	104.228	19.068	71.719	0.507
518.500	347.622	80.011	19.992	104.223	19.051	72.887	0.505
518.999	347.877	80.006	19.993	104.221	19.039	73.756	0.486
519.499	348.105	80.004	19.994	104.219	19.020	75.131	0.479
519.999	348.416	80.010	19.995	104.220	19.003	76.323	0.511
520.498	348.647	80.002	19.997	104.227	18.985	77.613	0.541
520.999	348.905	80.011	19.991	104.234	18.966	78.938	0.515
521.500	349.160	80.006	19.994	104.244	18.945	80.463	0.501
521.999	349.427	80.015	19.993	104.253	18.933	81.335	0.517
522.498	349.634	79.991	19.996	104.265	18.914	82.694	0.498
522.998	349.873	80.004	19.993	104.270	18.896	83.939	0.460
523.498	350.123	80.003	19.998	104.276	18.876	85.365	0.468
523.998	350.417	80.012	19.990	104.278	18.859	86.576	0.516
524.499	350.656	80.002	19.991	104.294	18.839	87.999	0.538
524.999	350.889	80.006	19.992	104.310	18.821	89.317	0.502
525.499	351.149	80.010	19.993	104.328	18.798	90.956	0.483
526.000	351.374	80.005	19.994	104.335	18.778	92.338	0.489
526.500	351.617	80.005	19.992	104.342	18.759	93.719	0.477
526.999	351.854	80.003	19.994	104.347	18.739	95.099	0.474
527.499	352.172	80.007	19.992	104.351	18.713	97.000	0.517
527.999	352.378	80.009	19.993	104.357	18.694	98.356	0.540
528.499	352.627	80.007	19.993	104.368	18.673	99.829	0.490
528.999	352.872	80.005	19.993	104.384	18.647	101.689	0.474
529.498	353.138	80.003	19.998	104.389	18.626	103.212	0.502
529.999	353.377	80.006	19.993	104.389	18.603	104.831	0.508
530.499	353.611	80.004	19.994	104.398	18.582	106.313	0.489
530.999	353.905	80.006	19.994	104.409	18.556	108.147	0.501
531.499	354.143	80.007	19.994	104.409	18.533	109.820	0.530
531.999	354.376	80.005	19.994	104.419	18.511	111.341	0.502
532.499	354.592	80.005	19.994	104.441	18.482	113.440	0.460
532.998	354.881	80.017	19.991	104.448	18.459	115.096	0.477
533.498	355.094	80.011	19.996	104.453	18.433	116.966	0.504
533.998	355.357	80.006	19.994	104.467	18.402	119.136	0.489
534.499	355.545	80.007	19.993	104.484	18.378	120.904	0.463
534.999	355.830	80.013	19.993	104.490	18.350	122.857	0.462
535.498	356.071	80.005	19.993	104.488	18.329	124.401	0.499
535.998	356.342	80.004	19.993	104.494	18.300	126.444	0.519
536.499	356.572	79.997	19.993	104.501	18.278	128.035	0.506
536.999	356.788	80.011	19.994	104.501	18.250	129.986	0.473
537.499	357.078	80.010	19.993	104.501	18.223	131.955	0.476
537.999	357.298	80.011	19.992	104.514	18.197	133.791	0.508
538.499	357.567	80.006	19.996	104.525	18.171	135.652	0.499
538.998	357.820	80.005	19.996	104.540	18.146	137.470	0.506
539.499	358.042	80.008	19.994	104.546	18.122	139.175	0.499
540.000	358.304	80.005	19.993	104.556	18.098	140.866	0.480
540.499	358.508	80.007	19.994	104.570	18.070	142.872	0.475
540.998	358.754	80.006	19.996	104.578	18.046	144.517	0.457
541.498	359.031	80.006	19.995	104.580	18.019	146.489	0.486
541.999	359.183	80.003	19.994	104.591	17.990	148.566	0.476
542.499	359.478	80.011	19.994	104.596	17.964	150.431	0.438
542.998	359.727	80.004	19.997	104.597	17.941	152.106	0.496
543.498	359.943	80.012	19.996	104.603	17.913	154.084	0.504
543.999	360.210	80.006	19.996	104.616	17.884	156.145	0.474
544.499	360.470	80.016	19.992	104.624	17.857	158.043	0.506
544.999	360.718	80.009	19.990	104.641	17.832	159.827	0.517
545.499	360.953	80.007	19.995	104.661	17.804	161.842	0.495
546.000	361.205	80.021	19.990	104.675	17.776	163.893	0.485
546.500	361.443	80.014	19.992	104.678	17.750	165.666	0.489
547.000	361.680	80.011	19.993	104.683	17.726	167.386	0.482
547.500	361.927	80.011	19.994	104.686	17.693	169.776	0.479
547.999	362.174	80.007	19.993	104.687	17.665	171.724	0.489
548.499	362.392	80.009	19.994	104.694	17.638	173.678	0.480
548.999	362.630	79.996	19.995	104.712	17.615	175.284	0.461
549.499	362.860	80.004	19.998	104.740	17.587	177.318	0.462
549.999	363.107	80.019	19.992	104.740	17.561	179.113	0.473
550.499	363.348	80.012	19.994	104.742	17.534	181.060	0.483
551.000	363.559	80.009	19.993	104.749	17.511	182.706	0.470
551.500	363.772	80.006	19.994	104.747	17.482	184.750	0.437
551.999	364.044	80.009	19.993	104.736	17.460	186.349	0.454
552.499	364.314	80.013	19.993	104.741	17.437	187.934	0.514
552.999	364.521	80.006	19.995	104.755	17.409	189.905	0.510
553.499	364.760	80.010	19.993	104.765	17.384	191.699	0.461
553.999	365.012	80.009	19.995	104.780	17.360	193.368	0.468
554.499	365.277	80.011	19.994	104.787	17.333	195.323	0.504
554.999	365.504	80.011	19.994	104.801	17.303	197.484	0.505
555.499	365.782	80.011	19.995	104.799	17.281	199.084	0.499
555.999	365.955	80.005	19.994	104.801	17.256	200.891	0.478
556.499	366.202	80.004	19.994	104.822	17.230	202.750	0.436
557.000	366.448	80.003	19.993	104.819	17.205	204.560	0.457
557.500	366.738	80.011	19.995	104.812	17.184	205.995	0.514
558.000	366.970	80.009	19.994	104.823	17.161	207.657	0.528
558.500	367.203	80.006	19.996	104.827	17.141	209.023	0.494
558.999	367.429	80.005	19.992	104.805	17.125	210.184	0.462
559.498	367.712	80.008	19.993	104.810	17.104	211.670	0.484
559.998	367.895	80.007	19.993	104.821	17.087	212.843	0.488
560.498	368.149	80.007	19.995	104.815	17.069	214.076	0.451
560.998	368.411	80.021	19.997	104.811	17.055	215.083	0.476
561.498	368.645	80.006	19.994	104.814	17.036	216.346	0.506
561.998	368.900	80.010	19.994	104.819	17.019	217.533	0.493
562.499	369.157	80.007	19.994	104.816	17.004	218.593	0.501
562.999	369.403	80.009	19.992	104.816	16.988	219.774	0.507
563.498	369.649	80.008	19.994	104.809	16.972	220.848	0.497
563.998	369.881	80.003	19.995	104.801	16.963	221.503	0.485
564.498	370.155	80.010	19.991	104.797	16.950	222.387	0.492
564.998	370.388	80.006	19.995	104.798	16.937	223.307	0.507
565.498	370.629	80.011	19.992	104.802	16.924	224.231	0.491
565.998	370.882	80.018	19.989	104.816	16.915	224.875	0.484
566.498	371.109	80.021	19.990	104.832	16.905	225.557	0.487
566.999	371.362	79.999	19.996	104.844	16.895	226.292	0.479
567.499	371.626	80.011	19.998	104.850	16.891	226.572	0.498
567.999	371.904	80.018	19.993	104.857	16.880	227.343	0.530
568.499	372.172	80.012	19.994	104.855	16.875	227.684	0.544
568.999	372.412	79.999	19.992	104.844	16.870	228.026	0.527
569.499	372.641	80.013	19.994	104.834	16.864	228.391	0.489
569.999	372.861	80.010	19.992	104.830	16.866	228.257	0.459
570.499	373.115	80.014	19.995	104.822	16.863	228.440	0.461
570.998	373.392	80.005	19.991	104.808	16.861	228.538	0.503
571.498	373.654	80.012	19.992	104.796	16.863	228.376	0.535
571.999	373.874	80.008	19.994	104.785	16.860	228.615	0.511
572.499	374.153	80.009	19.993	104.771	16.864	228.250	0.490
572.999	374.408	80.012	19.992	104.764	16.869	227.883	0.516
573.499	374.678	80.006	19.992	104.759	16.874	227.549	0.529
573.999	374.906	80.010	19.992	104.757	16.879	227.168	0.512
574.499	375.162	80.006	19.994	104.754	16.880	227.046	0.491
574.999	375.459	80.009	19.992	104.750	16.890	226.268	0.518
575.500	375.707	80.008	19.992	104.742	16.898	225.705	0.549
576.000	375.937	80.009	19.993	104.738	16.912	224.701	0.512
576.500	376.215	80.009	19.992	104.732	16.920	224.081	0.493
576.999	376.466	80.007	19.993	104.726	16.932	223.165	0.519
577.498	376.748	80.006	19.992	104.724	16.948	222.044	0.531
577.999	376.982	80.008	19.992	104.724	16.962	220.982	0.524
578.499	377.220	80.006	19.994	104.720	16.979	219.766	0.494
578.999	377.538	80.007	19.993	104.713	16.994	218.672	0.514
579.499	377.744	80.007	19.993	104.705	17.012	217.416	0.540
579.999	378.027	80.008	19.993	104.697	17.033	215.885	0.506
580.500	378.263	80.006	19.993	104.685	17.052	214.492	0.504
580.999	378.513	80.004	19.993	104.671	17.073	212.952	0.503
581.499	378.809	80.010	19.994	104.662	17.097	211.223	0.516
581.999	379.074	79.994	19.995	104.654	17.123	209.407	0.554
582.500	379.356	80.018	19.992	104.646	17.150	207.418	0.554
583.000	379.572	79.993	19.994	104.640	17.178	205.422	0.523
583.500	379.845	79.988	19.995	104.630	17.204	203.547	0.494
584.000	380.138	80.014	19.993	104.617	17.231	201.617	0.527
584.500	380.396	80.007	19.993	104.605	17.265	199.119	0.559
585.000	380.669	80.003	19.993	104.590	17.296	196.900	0.541
585.499	380.958	80.012	19.992	104.574	17.332	194.308	0.546
585.999	381.170	80.002	19.994	104.561	17.363	192.087	0.531
586.498	381.453	80.005	19.993	104.547	17.397	189.647	0.498
586.998	381.688	80.009	19.992	104.531	17.435	186.964	0.507
587.499	381.944	79.992	19.994	104.519	17.470	184.434	0.504
587.999	382.240	80.004	19.994	104.504	17.507	181.741	0.521
588.499	382.454	79.994	19.995	104.490	17.545	179.027	0.531
589.000	382.739	80.022	19.991	104.479	17.584	176.236	0.505
589.500	383.021	80.009	19.993	104.468	17.626	173.247	0.534
589.999	383.259	80.004	19.992	104.452	17.665	170.460	0.544
590.499	383.571	80.013	19.992	104.438	17.706	167.544	0.535
590.999	383.816	80.006	19.992	104.427	17.753	164.215	0.553
591.499	384.133	80.009	19.991	104.411	17.795	161.183	0.559
591.999	384.388	80.003	19.993	104.396	17.843	157.799	0.567
592.499	384.646	80.016	19.991	104.383	17.886	154.780	0.542
592.999	384.933	79.995	19.993	104.369	17.932	151.515	0.529
593.499	385.171	80.004	19.993	104.351	17.982	148.006	0.535
594.000	385.435	80.004	19.996	104.335	18.031	144.496	0.513
594.499	385.685	79.997	19.995	104.315	18.081	141.012	0.508
594.999	386.001	80.008	19.995	104.292	18.132	137.402	0.540
595.499	386.279	80.007	19.991	104.270	18.181	133.981	0.580
595.998	386.540	80.009	19.993	104.248	18.232	130.352	0.566
596.499	386.849	80.006	19.994	104.225	18.286	126.544	0.554
596.999	387.114	80.012	19.991	104.205	18.341	122.677	0.572
597.499	387.373	80.007	19.994	104.187	18.396	118.831	0.549
597.999	387.649	80.004	19.993	104.166	18.455	114.639	0.530
598.499	387.912	80.007	19.993	104.144	18.508	110.936	0.537
599.000	388.237	80.012	19.993	104.122	18.565	106.893	0.564
599.499	388.474	80.018	19.993	104.098	18.624	102.738	0.575
599.999	388.790	80.005	19.993	104.073	18.682	98.653	0.557
600.500	389.065	80.005	19.993	104.051	18.740	94.537	0.572
601.000	389.337	80.007	19.995	104.030	18.794	90.757	0.569
601.499	389.620	80.008	19.994	104.013	18.852	86.646	0.551
601.999	389.918	80.011	19.993	103.997	18.908	82.706	0.568
602.499	390.169	80.007	19.993	103.983	18.965	78.691	0.565
602.999	390.446	80.008	19.993	103.970	19.011	75.415	0.539
603.500	390.717	80.006	19.995	103.959	19.064	71.668	0.538
603.999	391.011	80.004	19.993	103.950	19.116	67.967	0.556
604.499	391.285	80.008	19.994	103.947	19.165	64.550	0.566
604.999	391.596	80.012	19.992	103.944	19.205	61.673	0.576
605.499	391.880	80.010	19.993	103.947	19.252	58.375	0.590
606.000	392.111	80.007	19.993	103.952	19.290	55.684	0.556
606.499	392.425	80.008	19.993	103.958	19.333	52.672	0.530
606.999	392.698	80.007	19.994	103.965	19.368	50.205	0.566
607.499	392.984	80.008	19.994	103.973	19.402	47.845	0.573
607.998	393.271	80.009	19.993	103.976	19.439	45.215	0.566
608.499	393.546	80.008	19.993	103.980	19.470	43.047	0.568
609.000	393.854	80.007	19.994	103.982	19.497	41.085	0.572
609.499	394.139	80.006	19.993	103.982	19.530	38.798	0.588
609.998	394.418	80.005	19.994	103.980	19.552	37.227	0.579
610.499	394.705	80.015	19.993	103.978	19.582	35.123	0.565
610.999	394.975	80.005	19.993	103.971	19.603	33.626	0.561
611.499	395.282	80.006	19.993	103.963	19.625	32.093	0.567
611.999	395.553	80.006	19.993	103.955	19.647	30.551	0.578
612.499	395.851	80.006	19.989	103.947	19.665	29.275	0.574
613.000	396.079	80.013	19.994	103.939	19.688	27.679	0.548
613.500	396.378	80.009	19.994	103.931	19.703	26.575	0.527
614.000	396.662	80.006	19.993	103.921	19.719	25.474	0.555
614.499	396.898	80.007	19.992	103.911	19.735	24.343	0.552
614.999	397.201	80.007	19.992	103.898	19.748	23.415	0.530
615.499	397.464	80.002	19.995	103.885	19.762	22.453	0.552
615.999	397.753	80.009	19.994	103.874	19.776	21.456	0.559
616.498	398.019	80.023	19.992	103.866	19.790	20.482	0.553
616.998	398.315	80.008	19.992	103.863	19.800	19.742	0.558
617.498	398.606	80.008	19.993	103.860	19.811	18.966	0.575
617.998	398.824	80.001	19.996	103.854	19.822	18.194	0.548
618.499	399.117	80.005	19.993	103.848	19.829	17.747	0.510
619.000	399.375	80.005	19.996	103.841	19.837	17.163	0.531
619.500	399.662	80.011	19.993	103.830	19.845	16.570	0.548
620.000	399.961	80.009	19.995	103.824	19.853	16.023	0.565
620.499	400.221	79.999	19.993	103.821	19.862	15.435	0.572
620.999	400.485	80.003	19.992	103.821	19.867	15.070	0.542
621.499	400.769	80.010	19.994	103.820	19.877	14.355	0.537
621.998	401.033	80.010	19.990	103.821	19.882	13.963	0.548
622.498	401.306	80.009	19.994	103.820	19.887	13.661	0.543
622.999	401.570	80.007	19.990	103.815	19.895	13.097	0.537
623.499	401.835	80.007	19.996	103.809	19.896	13.001	0.533
623.998	402.132	80.009	19.989	103.808	19.905	12.389	0.545
624.498	402.404	80.009	19.995	103.803	19.907	12.231	0.565
624.999	402.693	80.007	19.992	103.799	19.912	11.862	0.565
625.499	402.923	80.008	19.991	103.799	19.917	11.497	0.540
626.000	403.198	80.001	19.998	103.798	19.920	11.339	0.511
626.499	403.454	80.009	19.994	103.792	19.923	11.135	0.518
626.998	403.730	80.020	19.991	103.789	19.928	10.752	0.532
627.498	403.961	80.009	19.993	103.788	19.932	10.468	0.520
627.999	404.246	79.998	19.997	103.785	19.936	10.178	0.511
628.499	404.540	80.006	19.992	103.782	19.935	10.282	0.547
628.999	404.788	80.005	19.993	103.782	19.941	9.864	0.560
629.499	405.036	80.006	19.995	103.781	19.941	9.817	0.519
629.999	405.306	80.015	19.995	103.779	19.946	9.498	0.507
630.499	405.580	80.012	19.985	103.780	19.949	9.301	0.531
630.999	405.872	80.005	19.992	103.783	19.948	9.373	0.555
631.499	406.114	80.006	19.998	103.783	19.950	9.230	0.550
631.998	406.362	80.013	20.000	103.783	19.953	8.970	0.512
632.498	406.627	80.008	19.993	103.782	19.957	8.698	0.502
632.998	406.879	80.003	19.996	103.781	19.958	8.647	0.515
633.498	407.121	79.998	19.997	103.778	19.959	8.545	0.505
633.998	407.447	80.006	19.991	103.775	19.964	8.220	0.531
634.498	407.673	80.009	19.996	103.776	19.966	8.079	0.560
634.999	407.950	80.010	19.992	103.778	19.963	8.319	0.528
635.499	408.206	80.007	20.000	103.778	19.966	8.115	0.518
635.999	408.462	80.004	19.991	103.779	19.966	8.073	0.523
636.498	408.722	80.003	19.996	103.778	19.968	7.936	0.514
636.998	408.975	80.014	19.993	103.773	19.970	7.809	0.514
637.499	409.240	80.004	19.997	103.772	19.972	7.674	0.515
638.000	409.520	80.011	19.992	103.765	19.973	7.611	0.532
638.500	409.766	80.007	19.995	103.760	19.974	7.487	0.536
638.999	410.004	80.007	19.993	103.760	19.972	7.653	0.505
639.499	410.283	80.007	19.993	103.763	19.973	7.562	0.501
639.999	410.530	80.009	19.992	103.765	19.975	7.484	0.522
640.499	410.787	80.004	19.994	103.770	19.976	7.356	0.515
641.000	411.070	80.009	19.992	103.774	19.976	7.404	0.522
641.499	411.257	79.997	19.996	103.778	19.981	7.007	0.505
641.999	411.570	80.011	19.992	103.774	19.981	7.054	0.485
642.499	411.801	80.001	19.996	103.774	19.979	7.159	0.522
642.998	412.040	80.011	19.993	103.775	19.981	7.003	0.507
643.498	412.306	80.007	19.991	103.777	19.984	6.836	0.487
643.998	412.556	80.010	19.993	103.778	19.982	6.978	0.510
644.499	412.797	80.007	19.995	103.784	19.981	7.022	0.503
644.999	413.061	80.008	19.992	103.783	19.982	6.923	0.498
645.498	413.279	80.012	19.994	103.784	19.986	6.655	0.494
645.998	413.545	80.008	19.995	103.784	19.981	7.018	0.483
646.498	413.803	80.008	19.993	103.784	19.984	6.845	0.504
646.999	414.020	80.007	19.994	103.784	19.984	6.790	0.499
647.499	414.321	80.009	19.994	103.785	19.982	6.925	0.496
647.999	414.560	80.011	19.994	103.785	19.983	6.868	0.529
648.500	414.781	80.010	19.995	103.784	19.985	6.727	0.500
649.000	415.052	80.007	19.993	103.783	19.986	6.691	0.476
649.499	415.284	80.006	19.996	103.783	19.985	6.737	0.497
649.999	415.550	80.012	19.993	103.780	19.987	6.581	0.501
650.499	415.780	80.005	19.995	103.781	19.986	6.642	0.498
650.999	416.024	80.003	19.995	103.781	19.986	6.667	0.485
651.498	416.296	80.008	19.995	103.782	19.986	6.680	0.494
651.999	416.566	80.023	19.990	103.781	19.987	6.614	0.528
652.499	416.794	80.014	19.994	103.785	19.985	6.726	0.520
652.998	417.033	80.014	19.995	103.784	19.984	6.835	0.483
653.499	417.308	80.006	19.994	103.786	19.986	6.681	0.491
654.000	417.565	80.007	19.994	103.784	19.988	6.539	0.524
654.500	417.818	80.003	19.995	103.788	19.987	6.573	0.521
655.000	418.036	80.012	19.995	103.786	19.987	6.579	0.490
655.499	418.296	80.007	19.995	103.787	19.987	6.619	0.474
655.998	418.577	80.013	19.993	103.786	19.986	6.674	0.509
656.498	418.831	80.013	19.995	103.788	19.989	6.432	0.538
656.998	419.031	80.005	19.995	103.784	19.989	6.474	0.495
657.498	419.291	80.010	19.992	103.784	19.987	6.588	0.457
657.999	419.560	80.012	19.994	103.783	19.987	6.579	0.494
658.500	419.796	80.008	19.994	103.786	19.991	6.290	0.517
659.000	420.070	80.004	19.993	103.785	19.988	6.526	0.508
659.500	420.321	80.006	19.995	103.787	19.988	6.503	0.518
660.000	420.535	79.999	19.992	103.786	19.988	6.514	0.495
660.500	420.828	80.005	19.992	103.786	19.987	6.575	0.486
660.999	421.091	80.011	19.993	103.784	19.986	6.666	0.532
661.498	421.298	80.015	19.995	103.795	19.987	6.638	0.513
661.999	421.543	80.017	19.994	103.795	19.984	6.815	0.461
662.500	421.757	80.004	19.992	103.796	19.984	6.781	0.455
663.000	422.012	80.001	19.995	103.795	19.987	6.636	0.464
663.499	422.289	80.006	19.994	103.792	19.986	6.661	0.501
663.998	422.533	80.001	19.994	103.783	19.981	7.047	0.526
664.499	422.752	80.009	19.992	103.784	19.985	6.769	0.492
664.998	422.990	80.003	19.993	103.783	19.987	6.615	0.460
665.498	423.261	80.005	19.995	103.785	19.983	6.885	0.483
665.999	423.503	80.006	19.991	103.787	19.985	6.753	0.511
666.499	423.743	80.004	19.993	103.788	19.982	6.959	0.497
666.999	424.001	80.006	19.994	103.787	19.984	6.814	0.490
667.499	424.221	80.005	19.993	103.786	19.984	6.822	0.488
668.000	424.472	80.006	19.994	103.786	19.980	7.062	0.475
668.500	424.747	80.010	19.992	103.785	19.984	6.849	0.499
668.999	425.011	80.008	19.993	103.788	19.985	6.758	0.533
669.499	425.243	79.997	19.996	103.788	19.983	6.856	0.517
670.000	425.543	80.009	19.993	103.786	19.985	6.760	0.514
670.499	425.738	80.003	19.994	103.787	19.985	6.763	0.513
670.999	425.983	80.002	19.994	103.786	19.986	6.647	0.467
671.499	426.245	80.008	19.993	103.783	19.985	6.765	0.474
671.999	426.469	80.006	19.994	103.781	19.981	7.042	0.497
672.499	426.773	80.024	19.992	103.783	19.985	6.733	0.507
672.999	426.979	80.004	19.993	103.787	19.984	6.845	0.519
673.500	427.234	80.008	19.992	103.791	19.980	7.094	0.486
674.000	427.472	80.005	19.994	103.792	19.979	7.137	0.477
674.500	427.732	80.007	19.993	103.791	19.979	7.134	0.495
675.000	427.988	80.009	19.992	103.791	19.980	7.088	0.506
675.500	428.202	80.006	19.994	103.786	19.981	7.044	0.493
676.000	428.480	80.003	19.994	103.782	19.981	7.054	0.482
676.499	428.694	79.996	19.994	103.782	19.981	7.003	0.492
676.999	428.947	80.002	19.994	103.781	19.980	7.125	0.480
677.500	429.197	80.008	19.992	103.781	19.980	7.062	0.485
677.999	429.432	80.008	19.993	103.780	19.980	7.131	0.494
678.498	429.716	80.020	19.992	103.781	19.977	7.336	0.502
678.999	429.922	80.009	19.993	103.783	19.980	7.075	0.504
679.500	430.166	80.008	19.994	103.787	19.979	7.198	0.470
679.999	430.436	80.006	19.993	103.786	19.977	7.322	0.482
680.498	430.641	80.012	19.993	103.786	19.976	7.356	0.495
680.998	430.932	80.006	19.995	103.787	19.976	7.364	0.485
681.499	431.188	80.012	19.993	103.782	19.977	7.328	0.522
682.000	431.443	79.987	19.995	103.782	19.979	7.136	0.529
682.499	431.676	79.999	19.995	103.782	19.978	7.241	0.500
682.999	431.966	80.008	19.993	103.780	19.978	7.250	0.506
683.499	432.227	80.005	19.991	103.780	19.977	7.286	0.537
683.999	432.450	80.003	19.994	103.781	19.977	7.332	0.517
684.498	432.715	80.017	19.994	103.779	19.977	7.343	0.486
684.999	432.972	80.001	19.995	103.779	19.977	7.297	0.505
685.498	433.213	80.011	19.994	103.779	19.975	7.421	0.510
685.999	433.469	80.002	19.993	103.778	19.978	7.260	0.497
686.499	433.720	80.016	19.994	103.779	19.978	7.254	0.502
686.998	433.973	80.008	19.992	103.782	19.975	7.427	0.506
687.498	434.236	80.011	19.993	103.784	19.976	7.407	0.510
687.999	434.462	80.003	19.993	103.788	19.975	7.458	0.502
688.498	434.752	80.000	19.992	103.788	19.978	7.247	0.503
688.999	434.967	80.002	19.995	103.790	19.971	7.752	0.511
689.500	435.191	80.006	19.994	103.787	19.972	7.682	0.472
689.999	435.430	80.012	19.994	103.784	19.972	7.651	0.451
690.498	435.767	80.019	19.991	103.779	19.971	7.717	0.519
690.998	435.963	80.007	19.993	103.782	19.970	7.812	0.554
691.498	436.243	80.010	19.992	103.780	19.973	7.622	0.504
691.999	436.496	80.011	19.993	103.784	19.974	7.489	0.505
692.499	436.743	80.005	19.992	103.788	19.971	7.717	0.517
692.998	436.978	80.009	19.993	103.791	19.972	7.636	0.491
693.498	437.228	80.010	19.994	103.790	19.969	7.890	0.483
693.999	437.472	80.009	19.993	103.789	19.967	7.995	0.490
694.500	437.705	80.007	19.994	103.786	19.970	7.782	0.486
694.999	438.002	80.004	19.993	103.784	19.971	7.718	0.503
695.499	438.221	80.011	19.994	103.784	19.969	7.887	0.523
695.999	438.483	79.993	19.998	103.784	19.968	7.934	0.499
696.499	438.732	80.007	19.996	103.784	19.969	7.883	0.496
696.999	438.976	80.007	19.998	103.789	19.968	7.917	0.502
697.499	439.275	80.005	19.997	103.789	19.969	7.885	0.517
697.999	439.514	80.011	19.998	103.790	19.970	7.805	0.540
698.500	439.768	80.009	19.998	103.793	19.967	7.988	0.515
698.999	439.975	80.006	19.996	103.793	19.967	7.997	0.477
699.498	440.232	80.000	19.997	103.791	19.967	8.043	0.463
699.999	440.525	80.007	19.994	103.788	19.966	8.056	0.507
700.500	440.737	80.006	19.998	103.789	19.966	8.069	0.527
700.999	441.011	80.009	19.995	103.782	19.964	8.244	0.496
701.499	441.230	80.005	19.995	103.780	19.968	7.952	0.489
701.999	441.491	80.000	19.994	103.778	19.966	8.113	0.486
702.499	441.762	80.004	19.996	103.780	19.968	7.970	0.506
703.000	441.992	80.000	19.993	103.776	19.965	8.174	0.516
703.500	442.256	80.004	19.996	103.778	19.964	8.212	0.498
704.000	442.490	80.009	19.996	103.779	19.962	8.345	0.496
704.499	442.747	80.007	19.994	103.779	19.962	8.355	0.494
704.999	443.005	80.011	19.992	103.779	19.966	8.085	0.503
705.498	443.279	80.019	19.991	103.781	19.962	8.338	0.524
705.998	443.523	80.010	19.993	103.782	19.966	8.100	0.525
706.499	443.717	80.014	19.995	103.783	19.961	8.412	0.478
706.999	444.010	80.022	19.995	103.783	19.960	8.510	0.463
707.499	444.264	80.007	19.994	103.785	19.959	8.553	0.517
708.000	444.503	80.003	19.994	103.783	19.960	8.536	0.520
708.500	444.774	80.012	19.992	103.783	19.961	8.469	0.502
709.000	445.043	80.006	19.995	103.782	19.959	8.553	0.525
709.499	445.280	80.009	19.993	103.783	19.956	8.769	0.523
709.999	445.568	80.011	19.994	103.783	19.959	8.581	0.515
710.500	445.770	79.997	19.996	103.785	19.956	8.781	0.508
711.000	446.019	80.004	19.994	103.784	19.953	8.967	0.471
711.500	446.269	79.996	19.996	103.783	19.954	8.910	0.475
711.999	446.577	80.021	19.991	103.782	19.956	8.809	0.528
712.498	446.769	79.995	19.996	103.785	19.952	9.090	0.529
712.998	447.055	80.003	19.995	103.783	19.954	8.931	0.489
713.499	447.285	80.008	19.996	103.783	19.954	8.912	0.497
713.999	447.556	80.007	19.994	103.782	19.956	8.794	0.508
714.499	447.802	80.009	19.994	103.784	19.951	9.155	0.509
715.000	448.074	80.006	19.996	103.781	19.954	8.956	0.518
715.499	448.280	80.010	19.995	103.784	19.949	9.305	0.498
715.998	448.567	80.012	19.994	103.784	19.951	9.113	0.485
716.499	448.841	80.012	19.993	103.788	19.954	8.938	0.527
717.000	449.089	80.021	19.992	103.791	19.948	9.323	0.541
717.499	449.316	80.016	19.992	103.793	19.950	9.195	0.499
717.999	449.584	80.003	19.995	103.795	19.951	9.163	0.485
718.499	449.799	80.014	19.994	103.795	19.949	9.260	0.489
718.999	450.111	80.013	19.994	103.793	19.948	9.321	0.505
719.498	450.360	80.001	19.996	103.791	19.953	9.017	0.544
719.999	450.580	80.031	19.992	103.787	19.950	9.226	0.515
720.499	450.844	80.003	19.994	103.787	19.949	9.313	0.476
720.999	451.074	79.998	19.998	103.787	19.950	9.182	0.489
721.499	451.337	80.004	19.996	103.786	19.947	9.393	0.494
721.999	451.619	80.017	19.995	103.784	19.949	9.281	0.519
722.499	451.852	80.011	19.996	103.784	19.946	9.461	0.530
722.999	452.094	80.007	19.995	103.782	19.946	9.460	0.495
723.499	452.369	80.006	19.994	103.782	19.948	9.361	0.497
723.998	452.578	80.010	19.994	103.783	19.948	9.353	0.501
724.499	452.850	80.007	19.995	103.784	19.944	9.661	0.482
724.999	453.108	80.007	19.994	103.784	19.945	9.592	0.505
725.498	453.354	80.008	19.994	103.784	19.947	9.436	0.517
725.999	453.612	80.010	19.994	103.785	19.944	9.607	0.504
726.500	453.881	80.009	19.994	103.786	19.941	9.820	0.515
727.000	454.106	80.007	19.995	103.785	19.944	9.624	0.510
727.500	454.369	80.014	19.993	103.786	19.941	9.814	0.491
727.999	454.662	80.010	19.994	103.786	19.943	9.681	0.522
728.499	454.896	80.008	19.993	103.786	19.942	9.789	0.542
728.999	455.116	80.010	19.993	103.786	19.942	9.784	0.490
729.499	455.395	80.009	19.994	103.786	19.941	9.834	0.476
729.998	455.650	80.007	19.994	103.787	19.940	9.946	0.517
730.498	455.910	80.011	19.993	103.787	19.940	9.893	0.524
730.999	456.154	79.994	19.996	103.788	19.939	9.999	0.510
731.499	456.445	80.011	19.993	103.785	19.942	9.803	0.520
731.999	456.673	80.012	19.994	103.786	19.942	9.763	0.527
732.499	456.901	80.004	19.994	103.787	19.939	10.010	0.488
732.999	457.174	80.005	19.994	103.786	19.939	9.988	0.478
733.499	457.419	80.011	19.994	103.784	19.934	10.321	0.509
733.998	457.684	80.018	19.992	103.787	19.938	10.052	0.514
734.498	457.933	80.003	19.994	103.789	19.937	10.121	0.512
734.998	458.169	80.006	19.994	103.786	19.937	10.117	0.500
735.498	458.459	80.008	19.994	103.785	19.936	10.221	0.506
735.998	458.736	80.012	19.994	103.784	19.938	10.020	0.547
736.498	458.932	80.011	19.994	103.782	19.935	10.261	0.520
736.998	459.210	80.002	19.995	103.778	19.935	10.280	0.473
737.498	459.443	80.004	19.995	103.778	19.932	10.469	0.493
737.999	459.693	80.018	19.992	103.773	19.933	10.433	0.497
738.498	459.954	80.005	19.996	103.776	19.934	10.307	0.497
738.999	460.229	80.015	19.994	103.775	19.929	10.659	0.523
739.499	460.482	80.008	19.995	103.775	19.932	10.490	0.532
739.999	460.716	80.007	19.996	103.777	19.929	10.712	0.508
740.499	460.978	80.001	19.995	103.781	19.932	10.503	0.492
740.999	461.235	79.987	19.996	103.781	19.933	10.404	0.508
741.499	461.448	80.011	19.997	103.781	19.931	10.524	0.495
741.999	461.730	80.015	19.994	103.781	19.930	10.600	0.483
742.499	461.978	80.006	19.996	103.781	19.933	10.440	0.512
742.998	462.237	80.008	19.994	103.782	19.935	10.286	0.518
743.498	462.456	80.020	19.993	103.779	19.933	10.423	0.493
743.998	462.754	79.999	19.994	103.780	19.933	10.374	0.498
744.499	462.967	80.005	19.995	103.783	19.931	10.562	0.514
744.999	463.220	80.007	19.995	103.781	19.928	10.754	0.488
745.498	463.487	80.005	19.998	103.781	19.928	10.750	0.493
745.998	463.747	80.015	19.994	103.782	19.929	10.693	0.524
746.498	463.989	79.998	19.995	103.781	19.924	11.037	0.514
746.998	464.212	80.005	19.996	103.779	19.928	10.742	0.484
747.498	464.456	80.009	19.994	103.780	19.926	10.894	0.466
747.999	464.700	80.009	19.994	103.781	19.923	11.094	0.477
748.500	464.948	80.003	19.997	103.783	19.927	10.837	0.489
748.999	465.216	80.006	19.994	103.783	19.928	10.748	0.504
749.498	465.502	80.009	19.994	103.781	19.924	11.067	0.535
749.999	465.721	80.017	19.993	103.781	19.923	11.130	0.530
750.500	465.966	80.009	19.994	103.782	19.926	10.907	0.485
750.999	466.236	80.011	19.995	103.778	19.926	10.875	0.489
751.499	466.495	80.010	19.992	103.779	19.923	11.116	0.522
752.000	466.738	80.013	19.996	103.782	19.924	11.038	0.516
752.500	467.001	80.008	19.995	103.784	19.924	11.017	0.504
753.000	467.255	80.005	19.996	103.783	19.923	11.108	0.512
753.500	467.488	80.010	19.995	103.784	19.923	11.104	0.502
754.000	467.788	80.006	19.995	103.783	19.923	11.121	0.510
754.499	468.029	80.006	19.995	103.783	19.923	11.134	0.537
754.999	468.279	80.005	19.994	103.783	19.921	11.262	0.516
755.500	468.561	80.009	19.993	103.783	19.922	11.209	0.512
756.000	468.787	80.006	19.995	103.784	19.918	11.456	0.520
756.500	469.032	80.012	19.993	103.782	19.923	11.102	0.490
757.000	469.321	80.008	19.994	103.779	19.925	10.946	0.503
757.500	469.570	80.007	19.992	103.778	19.923	11.076	0.536
758.000	469.841	80.006	19.995	103.777	19.923	11.074	0.529
758.500	470.061	80.007	19.993	103.776	19.924	11.023	0.505
759.000	470.289	80.005	19.994	103.776	19.923	11.077	0.469
759.499	470.566	80.004	19.995	103.775	19.923	11.125	0.477
759.998	470.803	80.009	19.993	103.776	19.922	11.199	0.510
760.499	471.040	79.999	19.994	103.776	19.925	10.987	0.494
760.999	471.305	80.000	19.997	103.776	19.924	11.029	0.488
761.499	471.564	80.014	19.992	103.774	19.923	11.096	0.513
761.998	471.788	79.995	19.996	103.778	19.923	11.081	0.504
762.499	472.102	80.014	19.994	103.775	19.925	10.990	0.510
762.999	472.319	80.016	19.993	103.773	19.924	11.005	0.534
763.499	472.582	80.006	19.994	103.771	19.926	10.863	0.506
763.999	472.818	80.013	19.993	103.770	19.926	10.901	0.490
764.499	473.090	80.009	19.993	103.768	19.925	10.939	0.504
764.999	473.387	80.008	19.994	103.768	19.929	10.710	0.538
765.499	473.602	80.003	19.993	103.766	19.929	10.705	0.540
765.999	473.883	80.006	19.995	103.767	19.928	10.724	0.504
766.498	474.129	80.008	19.994	103.770	19.928	10.725	0.511
766.998	474.395	80.007	19.993	103.768	19.926	10.904	0.519
767.498	474.673	80.012	19.993	103.767	19.930	10.600	0.528
767.999	474.895	80.008	19.995	103.767	19.928	10.757	0.523
768.499	475.186	80.016	19.993	103.767	19.933	10.411	0.506
768.999	475.403	80.007	19.994	103.770	19.935	10.288	0.510
769.499	475.678	80.005	19.993	103.774	19.932	10.472	0.500
769.999	475.937	79.999	19.996	103.779	19.932	10.445	0.513
770.499	476.169	80.011	19.995	103.781	19.932	10.457	0.512
770.999	476.433	80.007	19.994	103.782	19.933	10.386	0.494
771.499	476.675	80.008	19.993	103.778	19.937	10.139	0.501
771.999	476.981	80.008	19.994	103.777	19.936	10.219	0.527
772.499	477.217	80.013	19.993	103.779	19.938	10.055	0.545
773.000	477.462	80.004	19.994	103.782	19.939	9.953	0.512
773.499	477.711	80.007	19.994	103.782	19.938	10.067	0.487
773.999	477.964	80.005	19.993	103.781	19.938	10.064	0.498
774.500	478.235	80.007	19.995	103.775	19.939	9.954	0.513
775.000	478.467	80.006	19.994	103.771	19.943	9.700	0.513
775.499	478.759	80.009	19.995	103.767	19.941	9.812	0.514
775.999	478.984	80.004	19.995	103.766	19.944	9.655	0.521
776.500	479.217	80.007	19.993	103.767	19.944	9.604	0.487
776.999	479.526	80.009	19.993	103.772	19.947	9.431	0.500
777.499	479.761	80.008	19.994	103.775	19.947	9.395	0.543
777.999	480.029	80.005	19.994	103.779	19.948	9.353	0.524
778.498	480.292	80.008	19.993	103.780	19.948	9.357	0.517
778.999	480.533	80.011	19.994	103.780	19.948	9.332	0.518
779.500	480.822	80.011	19.992	103.778	19.949	9.267	0.517
780.000	481.024	80.008	19.994	103.778	19.949	9.248	0.511
780.499	481.300	80.009	19.991	103.777	19.953	9.024	0.484
780.998	481.558	80.006	19.994	103.775	19.954	8.942	0.505
781.499	481.795	80.010	19.995	103.775	19.952	9.052	0.515
781.999	482.069	80.008	19.995	103.777	19.955	8.823	0.503
782.499	482.341	80.013	19.993	103.774	19.961	8.441	0.528
783.000	482.630	80.014	19.995	103.771	19.960	8.519	0.553
783.499	482.815	80.018	19.991	103.773	19.962	8.338	0.517
783.998	483.073	80.007	19.993	103.779	19.964	8.200	0.459
784.498	483.352	79.995	19.994	103.780	19.963	8.280	0.490
784.999	483.609	80.006	19.992	103.782	19.965	8.174	0.537
785.500	483.880	80.006	19.995	103.784	19.968	7.942	0.532
785.999	484.099	80.011	19.992	103.779	19.969	7.843	0.509
786.499	484.391	80.006	19.993	103.770	19.967	7.982	0.501
786.999	484.657	80.005	19.992	103.767	19.974	7.541	0.535
787.500	484.889	80.008	19.993	103.766	19.976	7.352	0.528
787.999	485.106	80.009	19.994	103.762	19.973	7.562	0.474
788.499	485.381	80.005	19.994	103.765	19.974	7.487	0.471
789.000	485.640	80.009	19.994	103.764	19.975	7.415	0.513
789.499	485.872	80.010	19.994	103.763	19.979	7.185	0.513
789.999	486.163	80.013	19.993	103.763	19.981	7.039	0.507
790.499	486.384	80.005	19.994	103.764	19.982	6.929	0.517
790.998	486.642	80.012	19.993	103.761	19.985	6.731	0.496
791.499	486.895	80.008	19.992	103.763	19.984	6.792	0.495
791.999	487.151	80.002	19.994	103.765	19.986	6.653	0.510
792.499	487.433	80.008	19.992	103.763	19.986	6.641	0.523
792.999	487.664	80.010	19.993	103.764	19.990	6.390	0.526
793.499	487.896	80.008	19.993	103.768	19.993	6.151	0.488
793.999	488.159	80.009	19.991	103.768	19.993	6.149	0.479
794.499	488.416	80.006	19.993	103.769	19.997	5.871	0.507
794.999	488.685	80.006	19.993	103.774	19.999	5.793	0.523
795.499	488.949	80.006	19.993	103.774	20.001	5.633	0.529
795.998	489.188	80.006	19.995	103.778	20.002	5.574	0.518
796.499	489.454	80.008	19.993	103.779	20.003	5.459	0.504
797.000	489.701	80.007	19.994	103.782	20.005	5.371	0.509
797.500	489.950	80.009	19.994	103.782	20.006	5.255	0.504
797.999	490.226	80.005	19.994	103.784	20.006	5.284	0.511
798.498	490.465	80.015	19.991	103.781	20.007	5.175	0.520
798.999	490.727	80.009	19.993	103.783	20.011	4.938	0.508
799.499	490.971	80.009	19.994	103.781	20.010	4.983	0.504
799.999	491.220	80.007	19.993	103.781	20.014	4.692	0.499
800.498	491.485	80.011	19.993	103.780	20.014	4.683	0.504
800.999	491.753	80.013	19.992	103.783	20.020	4.297	0.524
801.500	492.005	80.011	19.993	103.784	20.021	4.246	0.527
801.999	492.205	80.008	19.994	103.785	20.019	4.324	0.486
802.499	492.497	80.008	19.993	103.786	20.021	4.234	0.472
802.999	492.754	79.999	19.994	103.786	20.021	4.221	0.520
803.498	493.032	80.013	19.993	103.784	20.023	4.061	0.542
803.999	493.288	80.005	19.994	103.782	20.023	4.050	0.534
804.499	493.535	80.010	19.993	103.779	20.026	3.867	0.518
804.998	493.795	80.007	19.995	103.777	20.027	3.763	0.505
805.499	494.059	80.009	19.994	103.773	20.029	3.622	0.515
806.000	494.339	80.010	19.993	103.775	20.031	3.498	0.534
806.499	494.591	80.006	19.993	103.774	20.031	3.478	0.538
806.999	494.836	80.008	19.993	103.776	20.032	3.459	0.515
807.499	495.108	80.010	19.995	103.778	20.033	3.343	0.507
807.999	495.375	80.009	19.993	103.781	20.035	3.223	0.528
808.499	495.629	80.010	19.993	103.781	20.037	3.059	0.530
808.999	495.886	80.011	19.994	103.781	20.035	3.190	0.516
809.499	496.153	80.013	19.993	103.781	20.034	3.293	0.518
809.999	496.374	80.019	19.993	103.781	20.037	3.088	0.506
810.499	496.653	80.009	19.994	103.780	20.040	2.892	0.494
811.000	496.913	80.010	19.994	103.780	20.037	3.118	0.519
811.499	497.175	80.009	19.994	103.780	20.040	2.850	0.530
811.999	497.429	80.010	19.995	103.780	20.039	2.934	0.519
812.499	497.714	80.010	19.994	103.779	20.044	2.580	0.528
812.999	497.960	80.009	19.994	103.780	20.043	2.637	0.535
813.499	498.200	80.010	19.994	103.777	20.046	2.466	0.508
813.998	498.454	80.011	19.994	103.777	20.043	2.641	0.490
814.498	498.676	80.005	19.997	103.775	20.049	2.272	0.485
814.999	499.016	80.014	19.993	103.774	20.046	2.432	0.519
815.499	499.270	80.014	19.993	103.775	20.047	2.365	0.578
815.998	499.497	80.011	19.993	103.779	20.047	2.369	0.538
816.499	499.760	80.009	19.994	103.779	20.050	2.173	0.486
816.999	499.984	80.012	19.993	103.781	20.049	2.232	0.488
817.498	500.235	80.009	19.993	103.782	20.051	2.088	0.481
817.999	500.515	80.009	19.994	103.784	20.051	2.078	0.503
818.500	500.779	80.005	19.993	103.782	20.056	1.751	0.538
819.000	501.025	80.014	19.993	103.782	20.055	1.791	0.527
819.500	501.292	80.010	19.993	103.781	20.055	1.804	0.512
819.999	501.534	80.011	19.993	103.782	20.056	1.747	0.511
820.498	501.772	80.005	19.995	103.780	20.056	1.738	0.494
820.999	502.051	80.006	19.995	103.779	20.057	1.700	0.498
821.500	502.317	80.010	19.993	103.778	20.061	1.388	0.531
822.000	502.575	80.007	19.993	103.779	20.058	1.601	0.534
822.500	502.787	80.008	19.994	103.778	20.062	1.346	0.498
823.000	503.046	80.004	19.996	103.777	20.061	1.394	0.471
823.500	503.325	80.012	19.994	103.776	20.059	1.550	0.504
824.000	503.564	80.010	19.993	103.777	20.060	1.445	0.528
824.499	503.831	80.012	19.994	103.777	20.063	1.251	0.513
824.999	504.072	80.008	19.994	103.778	20.062	1.321	0.507
825.499	504.295	80.005	19.995	103.779	20.063	1.257	0.486
825.999	504.597	80.004	19.993	103.779	20.061	1.403	0.494
826.499	504.845	80.006	19.994	103.778	20.063	1.228	0.537
826.999	505.139	80.007	19.994	103.775	20.065	1.120	0.546
827.500	505.362	80.009	19.993	103.773	20.061	1.413	0.530
828.000	505.628	80.004	19.995	103.774	20.062	1.316	0.503
828.499	505.918	80.004	19.996	103.776	20.061	1.363	0.523
828.999	506.138	80.007	19.995	103.777	20.064	1.162	0.533
829.500	506.437	80.007	19.994	103.779	20.063	1.253	0.515
830.000	506.660	80.007	19.995	103.782	20.063	1.280	0.520
830.499	506.898	79.999	19.996	103.782	20.061	1.369	0.491
830.998	507.176	80.005	19.995	103.782	20.064	1.204	0.488
831.499	507.443	80.005	19.995	103.782	20.064	1.160	0.531
831.999	507.666	80.005	19.994	103.782	20.066	1.044	0.518
832.499	507.907	80.008	19.995	103.782	20.064	1.181	0.477
832.998	508.219	80.007	19.994	103.782	20.062	1.299	0.508
833.498	508.510	80.010	19.994	103.783	20.062	1.304	0.578
833.999	508.752	80.008	19.994	103.783	20.064	1.186	0.568
834.499	508.988	80.007	19.994	103.784	20.066	1.061	0.506
834.999	509.243	80.010	19.995	103.784	20.066	1.027	0.485
835.499	509.492	80.007	19.993	103.784	20.070	0.759	0.497
835.999	509.776	80.010	19.993	103.784	20.068	0.877	0.518
836.500	509.985	80.004	19.995	103.784	20.069	0.806	0.513
837.000	510.311	80.005	19.994	103.783	20.065	1.105	0.514
837.500	510.525	80.006	19.996	103.783	20.070	0.764	0.537
837.999	510.812	80.006	19.995	103.783	20.069	0.840	0.521
838.498	511.050	80.008	19.995	103.784	20.069	0.850	0.513
838.999	511.341	80.006	19.994	103.783	20.069	0.840	0.527
839.499	511.550	80.008	19.995	103.785	20.072	0.587	0.515
839.999	511.833	80.006	19.996	103.785	20.069	0.808	0.496
840.500	512.062	80.007	19.994	103.785	20.071	0.707	0.502
841.000	512.346	80.004	19.996	103.785	20.070	0.736	0.512
841.499	512.563	80.006	19.996	103.785	20.070	0.753	0.507
841.999	512.809	80.006	19.995	103.784	20.071	0.679	0.482
842.499	513.082	80.009	19.995	103.784	20.073	0.574	0.491
842.999	513.325	80.006	19.995	103.785	20.072	0.605	0.518
843.498	513.582	80.010	19.994	103.782	20.069	0.825	0.509
843.999	513.840	80.002	19.995	103.783	20.072	0.641	0.508
844.499	514.123	80.006	19.996	103.781	20.073	0.542	0.527
844.999	514.360	80.008	19.994	103.779	20.071	0.683	0.530
845.499	514.637	80.007	19.994	103.778	20.074	0.506	0.517
845.999	514.921	80.008	19.995	103.780	20.074	0.445	0.538
846.500	515.149	80.006	19.992	103.779	20.074	0.510	0.537
847.000	515.395	80.003	19.992	103.781	20.070	0.770	0.493
847.500	515.666	80.005	19.995	103.783	20.073	0.563	0.495
848.000	515.928	80.008	19.993	103.784	20.071	0.681	0.525
848.499	516.193	80.010	19.993	103.785	20.074	0.481	0.530
848.998	516.451	80.006	19.993	103.785	20.073	0.582	0.525
849.499	516.678	80.007	19.994	103.786	20.072	0.641	0.504
849.999	516.959	80.003	19.992	103.783	20.072	0.620	0.496
850.499	517.225	80.008	19.992	103.777	20.073	0.551	0.527
850.999	517.511	80.007	19.993	103.776	20.072	0.601	0.550
851.500	517.714	80.005	19.993	103.777	20.074	0.492	0.521
851.999	518.006	80.008	19.993	103.777	20.073	0.559	0.492
852.499	518.260	80.006	19.994	103.780	20.073	0.548	0.520
852.999	518.539	80.007	19.993	103.785	20.073	0.527	0.540
853.500	518.779	80.005	19.994	103.784	20.073	0.565	0.526
853.999	519.053	80.004	19.992	103.784	20.075	0.435	0.516
854.499	519.267	80.008	19.993	103.784	20.075	0.426	0.501
854.999	519.544	80.005	19.993	103.785	20.074	0.489	0.490
855.499	519.811	80.007	19.994	103.785	20.073	0.584	0.517
855.999	520.080	80.006	19.993	103.784	20.070	0.766	0.540
856.499	520.329	80.008	19.994	103.784	20.076	0.337	0.527
857.000	520.581	80.005	19.992	103.784	20.072	0.610	0.509
857.499	520.806	80.006	19.992	103.783	20.073	0.555	0.489
857.999	521.114	80.007	19.990	103.784	20.072	0.635	0.505
858.500	521.380	80.005	19.992	103.785	20.072	0.599	0.554
858.999	521.605	80.005	19.995	103.785	20.072	0.635	0.533
859.498	521.830	80.007	19.993	103.785	20.072	0.595	0.470
859.999	522.154	80.008	19.994	103.787	20.072	0.620	0.499
860.499	522.361	80.002	19.993	103.787	20.073	0.517	0.540
860.998	522.631	80.006	19.994	103.788	20.070	0.772	0.504
861.499	522.885	80.006	19.993	103.787	20.071	0.694	0.500
861.999	523.157	80.005	19.994	103.787	20.069	0.842	0.525
862.499	523.401	80.006	19.994	103.787	20.071	0.717	0.521
862.999	523.647	80.010	19.994	103.786	20.069	0.818	0.503
863.498	523.871	80.009	19.992	103.786	20.071	0.705	0.480
863.998	524.153	80.010	19.994	103.786	20.071	0.665	0.488
864.499	524.393	80.010	19.994	103.785	20.072	0.586	0.513
864.999	524.673	80.008	19.994	103.784	20.071	0.664	0.521
865.499	524.937	80.007	19.994	103.783	20.073	0.529	0.532
865.998	525.186	80.016	19.995	103.783	20.070	0.751	0.529
866.498	525.437	80.009	19.994	103.784	20.071	0.707	0.507
866.998	525.722	80.007	19.994	103.783	20.072	0.633	0.518
867.498	525.959	80.011	19.993	103.783	20.073	0.515	0.529
867.999	526.234	80.009	19.993	103.784	20.073	0.515	0.517
868.499	526.466	80.009	19.992	103.784	20.073	0.580	0.509
868.999	526.720	80.009	19.993	103.782	20.073	0.572	0.497
869.499	526.985	80.008	19.994	103.781	20.073	0.574	0.502
869.999	527.231	80.009	19.993	103.780	20.074	0.492	0.515
870.498	527.513	80.009	19.993	103.780	20.074	0.464	0.520
870.999	527.748	80.016	19.992	103.778	20.070	0.726	0.523
871.500	528.028	80.008	19.992	103.778	20.075	0.441	0.516
872.000	528.267	80.009	19.993	103.779	20.074	0.504	0.517
872.499	528.537	80.008	19.994	103.780	20.072	0.607	0.514
872.998	528.798	80.010	19.993	103.780	20.076	0.365	0.520
873.499	529.036	80.007	19.993	103.781	20.072	0.643	0.514
873.999	529.241	80.009	19.993	103.780	20.075	0.416	0.470
874.498	529.559	80.007	19.993	103.779	20.073	0.544	0.483
874.999	529.750	80.008	19.994	103.779	20.073	0.570	0.516
875.499	530.032	80.013	19.995	103.778	20.074	0.453	0.491
875.999	530.245	80.009	19.994	103.777	20.073	0.559	0.484
876.499	530.534	80.009	19.994	103.776	20.076	0.369	0.499
876.999	530.815	80.007	19.994	103.774	20.076	0.346	0.536
877.499	531.038	80.008	19.993	103.774	20.077	0.268	0.537
878.000	531.318	80.009	19.993	103.775	20.070	0.741	0.504
878.499	531.577	80.010	19.991	103.776	20.077	0.283	0.521
878.998	531.854	80.009	19.993	103.777	20.076	0.331	0.537
879.499	532.105	80.008	19.994	103.781	20.074	0.481	0.532
879.999	532.369	80.007	19.993	103.779	20.074	0.449	0.522
880.498	532.585	80.007	19.994	103.778	20.075	0.409	0.498
880.998	532.856	80.008	19.994	103.778	20.075	0.375	0.483
881.499	533.136	80.009	19.994	103.777	20.074	0.466	0.519
881.999	533.406	80.007	19.994	103.777	20.075	0.420	0.551
882.499	533.658	80.011	19.993	103.779	20.072	0.618	0.536
882.999	533.924	80.014	19.991	103.780	20.071	0.658	0.520
883.498	534.178	80.009	19.994	103.784	20.073	0.515	0.519
883.998	534.446	80.004	19.995	103.784	20.072	0.591	0.521
884.498	534.674	80.010	19.991	103.784	20.071	0.656	0.509
884.999	534.982	80.008	19.994	103.784	20.069	0.816	0.516
885.500	535.221	80.010	19.993	103.785	20.073	0.557	0.541
885.999	535.461	80.009	19.994	103.782	20.072	0.641	0.512
886.498	535.752	80.009	19.992	103.780	20.068	0.873	0.505
886.998	535.997	80.007	19.994	103.776	20.073	0.546	0.533
887.498	536.245	80.006	19.993	103.770	20.074	0.489	0.515
887.999	536.493	80.010	19.995	103.765	20.076	0.367	0.495
888.500	536.748	80.009	19.993	103.759	20.074	0.510	0.499
888.999	537.020	80.009	19.993	103.755	20.074	0.445	0.515
889.498	537.275	80.011	19.994	103.759	20.074	0.458	0.527
889.999	537.525	80.001	19.995	103.763	20.073	0.551	0.516
890.499	537.797	80.013	19.993	103.767	20.071	0.662	0.514
890.999	538.054	80.010	19.994	103.772	20.074	0.481	0.526
891.498	538.313	80.009	19.994	103.775	20.073	0.576	0.522
891.999	538.542	80.010	19.995	103.772	20.077	0.297	0.502
892.499	538.861	80.008	19.995	103.768	20.072	0.608	0.518
892.999	539.087	80.010	19.995	103.767	20.074	0.458	0.546
893.499	539.346	80.009	19.994	103.767	20.072	0.616	0.515
894.000	539.604	80.008	19.994	103.767	20.074	0.513	0.501
894.500	539.857	80.006	19.993	103.766	20.075	0.434	0.514
895.000	540.129	80.008	19.995	103.766	20.071	0.656	0.518
895.499	540.357	80.010	19.995	103.765	20.072	0.626	0.512
895.999	540.637	80.013	19.993	103.764	20.073	0.555	0.504
896.499	540.875	80.009	19.995	103.768	20.070	0.747	0.513
896.999	541.136	80.010	19.996	103.772	20.072	0.637	0.509
897.500	541.373	80.013	19.991	103.775	20.073	0.515	0.498
898.000	541.624	80.015	19.991	103.780	20.072	0.646	0.493
898.500	541.884	80.006	19.994	103.782	20.071	0.675	0.499
898.999	542.170	80.000	19.996	103.780	20.073	0.555	0.528
899.499	542.423	80.007	19.986	103.780	20.072	0.612	0.543
900.000	542.674	80.003	19.993	103.783	20.071	0.683	0.522
900.499	542.942	80.001	19.989	103.781	20.071	0.722	0.511
900.999	543.186	80.005	19.992	103.782	20.070	0.774	0.515
901.500	543.469	80.008	19.996	103.785	20.071	0.664	0.519
902.000	543.711	80.009	19.997	103.786	20.072	0.589	0.526
902.499	543.953	80.005	19.996	103.784	20.072	0.646	0.504
902.999	544.217	80.008	19.998	103.785	20.071	0.669	0.495
903.499	544.487	80.004	19.994	103.785	20.070	0.779	0.520
903.999	544.712	80.004	19.992	103.783	20.069	0.836	0.514
904.500	544.989	80.005	20.000	103.783	20.071	0.690	0.499
904.999	545.264	80.012	19.993	103.782	20.069	0.867	0.527
905.498	545.497	80.007	19.994	103.783	20.069	0.821	0.530
905.999	545.757	80.010	19.994	103.783	20.069	0.842	0.501
906.500	546.019	80.007	19.996	103.783	20.070	0.764	0.508
907.000	546.272	80.012	19.999	103.781	20.071	0.724	0.518
907.500	546.557	80.012	19.984	103.775	20.071	0.682	0.526
908.000	546.799	80.001	19.996	103.775	20.072	0.646	0.532
908.499	547.074	80.014	19.994	103.773	20.074	0.500	0.522
908.999	547.326	80.006	19.994	103.775	20.070	0.732	0.522
909.499	547.601	80.009	19.993	103.777	20.072	0.616	0.527
909.999	547.861	80.013	19.992	103.785	20.071	0.673	0.531
910.499	548.127	80.006	19.996	103.784	20.072	0.593	0.530
910.999	548.386	80.006	19.992	103.784	20.072	0.603	0.526
911.500	548.610	80.003	19.994	103.781	20.071	0.665	0.504
912.000	548.844	80.007	19.994	103.778	20.068	0.937	0.471
912.500	549.118	80.005	19.994	103.775	20.073	0.565	0.483
912.999	549.393	80.001	19.995	103.773	20.072	0.608	0.529
913.498	549.650	80.005	19.994	103.769	20.071	0.692	0.541
913.998	549.888	80.004	19.998	103.770	20.069	0.799	0.513
914.499	550.174	80.004	19.996	103.772	20.071	0.711	0.510
915.000	550.459	80.009	19.993	103.771	20.073	0.534	0.547
915.499	550.691	80.004	19.998	103.772	20.076	0.346	0.544
915.999	550.977	80.005	19.992	103.775	20.074	0.472	0.518
916.499	551.229	80.007	19.996	103.775	20.072	0.595	0.528
917.000	551.425	80.006	19.994	103.773	20.073	0.569	0.493
917.499	551.713	80.004	19.995	103.773	20.076	0.361	0.466
917.998	551.968	80.004	19.995	103.773	20.072	0.597	0.513
918.498	552.241	80.006	19.994	103.767	20.076	0.369	0.535
918.998	552.494	80.007	19.994	103.766	20.074	0.451	0.527
919.498	552.750	80.010	19.991	103.770	20.073	0.553	0.518
919.998	553.038	80.006	19.993	103.774	20.072	0.643	0.527
920.499	553.280	80.006	19.996	103.775	20.074	0.494	0.537
920.999	553.524	80.007	19.992	103.780	20.072	0.616	0.508
921.498	553.819	80.008	19.994	103.779	20.072	0.599	0.512
921.998	554.060	80.005	19.993	103.775	20.071	0.711	0.538
922.499	554.355	80.006	19.997	103.772	20.072	0.643	0.536
923.000	554.628	80.007	19.993	103.770	20.072	0.648	0.552
923.499	554.886	80.006	19.993	103.774	20.071	0.664	0.549
923.998	555.150	80.008	19.994	103.779	20.073	0.584	0.526
924.499	555.410	80.007	19.994	103.782	20.071	0.683	0.523
925.000	555.682	80.012	19.993	103.784	20.073	0.515	0.528
925.500	555.905	80.003	19.994	103.787	20.073	0.536	0.514
925.999	556.162	80.007	19.994	103.785	20.071	0.684	0.487
926.499	556.460	80.011	19.993	103.785	20.072	0.620	0.518
927.000	556.700	80.013	19.991	103.787	20.070	0.747	0.547
927.499	556.980	80.002	19.994	103.788	20.075	0.376	0.529
927.999	557.194	80.006	19.995	103.786	20.071	0.724	0.507
928.499	557.484	80.007	19.993	103.786	20.073	0.582	0.499
928.999	557.750	80.008	19.995	103.785	20.074	0.468	0.530
929.499	558.081	80.006	19.996	103.780	20.070	0.768	0.576
929.999	558.296	80.005	19.995	103.773	20.071	0.721	0.572
930.499	558.548	80.005	19.995	103.768	20.071	0.664	0.507
931.000	558.830	80.002	19.995	103.768	20.072	0.612	0.500
931.500	559.058	80.005	19.996	103.764	20.068	0.922	0.521
932.000	559.339	80.007	19.994	103.764	20.070	0.726	0.509
932.500	559.612	80.015	19.994	103.768	20.073	0.549	0.532
932.999	559.862	80.006	19.996	103.774	20.072	0.620	0.539
933.498	560.142	80.006	19.995	103.775	20.072	0.639	0.527
933.999	560.387	80.003	19.996	103.778	20.072	0.626	0.527
934.500	560.647	80.006	19.994	103.778	20.071	0.721	0.515
935.000	560.902	80.007	19.994	103.777	20.071	0.700	0.510
935.499	561.194	80.009	19.994	103.774	20.070	0.740	0.531
935.998	561.437	80.008	19.993	103.774	20.069	0.804	0.541
936.499	561.671	80.005	19.994	103.775	20.070	0.793	0.506
936.999	561.931	80.007	19.993	103.779	20.069	0.816	0.486
937.498	562.219	80.004	19.993	103.780	20.068	0.918	0.521
937.999	562.489	80.008	19.993	103.782	20.068	0.890	0.553
938.500	562.763	80.007	19.993	103.783	20.070	0.726	0.551
939.000	563.009	80.012	19.992	103.780	20.069	0.837	0.532
939.500	563.249	80.003	19.995	103.780	20.071	0.692	0.503
939.999	563.511	80.007	19.992	103.778	20.069	0.810	0.495
940.499	563.788	80.009	19.995	103.778	20.070	0.762	0.521
940.999	564.056	80.007	19.992	103.776	20.070	0.778	0.542
941.498	564.316	80.008	19.994	103.779	20.070	0.738	0.536
941.998	564.574	80.008	19.992	103.778	20.069	0.846	0.523
942.499	564.819	80.008	19.991	103.780	20.070	0.740	0.510
942.999	565.062	80.010	19.994	103.780	20.068	0.935	0.496
943.499	565.362	80.008	19.992	103.782	20.070	0.776	0.516
943.998	565.624	80.011	19.996	103.782	20.069	0.859	0.552
944.499	565.858	80.008	19.994	103.780	20.070	0.774	0.529
945.000	566.110	80.010	19.992	103.779	20.070	0.738	0.491
945.500	566.405	80.007	19.993	103.780	20.070	0.728	0.516
945.999	566.665	80.007	19.993	103.778	20.070	0.770	0.551
946.499	566.963	80.009	19.992	103.777	20.069	0.819	0.556
947.000	567.208	80.007	19.992	103.780	20.070	0.772	0.551
947.499	567.485	80.008	19.992	103.781	20.067	0.960	0.532
947.999	567.748	80.010	19.993	103.780	20.067	0.945	0.531
948.499	567.962	80.009	19.994	103.778	20.069	0.854	0.508
948.999	568.281	80.010	19.993	103.779	20.069	0.833	0.505
949.500	568.538	80.008	19.993	103.779	20.068	0.934	0.555
950.000	568.753	80.010	19.992	103.779	20.071	0.690	0.524
950.500	569.031	80.009	19.988	103.777	20.074	0.500	0.482
951.000	569.288	80.008	19.994	103.782	20.071	0.719	0.514
951.500	569.538	80.012	19.994	103.781	20.074	0.492	0.521
952.000	569.787	79.999	19.993	103.782	20.071	0.683	0.503
952.499	570.065	80.010	19.992	103.780	20.070	0.768	0.513
952.998	570.365	80.009	19.994	103.779	20.069	0.840	0.552
953.499	570.615	80.007	19.993	103.777	20.073	0.536	0.564
953.999	570.876	80.011	19.992	103.777	20.071	0.664	0.531
954.499	571.141	80.010	19.992	103.777	20.071	0.688	0.519
955.000	571.410	80.004	19.992	103.780	20.071	0.671	0.530
955.499	571.655	80.011	19.992	103.782	20.070	0.774	0.523
955.998	571.907	80.008	19.994	103.783	20.071	0.713	0.505
956.499	572.202	80.009	19.992	103.782	20.068	0.903	0.523
956.999	572.450	80.010	19.993	103.779	20.070	0.766	0.545
957.499	572.708	80.009	19.993	103.775	20.067	0.945	0.524
957.998	572.975	80.007	19.993	103.774	20.068	0.888	0.516
958.499	573.278	80.008	19.994	103.772	20.070	0.778	0.548
959.000	573.521	80.010	19.993	103.771	20.070	0.793	0.558
959.500	573.767	80.010	19.993	103.773	20.070	0.774	0.518
960.000	574.014	80.009	19.994	103.775	20.070	0.776	0.491
960.500	574.339	80.007	19.992	103.777	20.068	0.882	0.532
961.000	574.571	80.007	19.995	103.779	20.071	0.722	0.564
961.500	574.873	80.007	19.993	103.782	20.069	0.831	0.545
962.000	575.122	80.008	19.994	103.782	20.070	0.770	0.542
962.499	575.403	80.011	19.993	103.783	20.073	0.561	0.540
962.999	575.694	80.007	19.994	103.784	20.071	0.707	0.552
963.500	575.909	80.008	19.993	103.783	20.071	0.665	0.539
964.000	576.188	80.008	19.994	103.780	20.071	0.694	0.499
964.499	576.459	80.006	19.993	103.777	20.073	0.551	0.522
964.999	576.736	80.008	19.992	103.776	20.067	0.951	0.549
965.499	576.998	80.006	19.993	103.772	20.070	0.770	0.544
965.999	577.259	80.009	19.992	103.771	20.073	0.582	0.531
966.498	577.537	80.008	19.993	103.768	20.069	0.812	0.531
966.999	577.779	80.011	19.993	103.763	20.071	0.662	0.530
967.499	578.047	80.009	19.994	103.761	20.072	0.641	0.515
967.998	578.295	80.007	19.992	103.761	20.074	0.449	0.514
968.498	578.563	80.010	19.992	103.759	20.072	0.591	0.516
968.998	578.819	80.012	19.992	103.761	20.074	0.508	0.520
969.499	579.075	80.011	19.992	103.765	20.072	0.601	0.518
969.999	579.357	80.009	19.994	103.766	20.071	0.705	0.525
970.499	579.595	80.010	19.993	103.769	20.070	0.770	0.529
970.999	579.872	80.009	19.994	103.768	20.071	0.658	0.518
971.499	580.116	80.014	19.993	103.771	20.070	0.768	0.518
971.999	580.358	80.008	19.993	103.769	20.072	0.644	0.503
972.499	580.641	80.011	19.993	103.767	20.071	0.703	0.505
972.999	580.914	80.012	19.992	103.768	20.073	0.563	0.540
973.499	581.135	80.012	19.993	103.766	20.072	0.624	0.525
973.999	581.412	80.006	19.992	103.761	20.070	0.772	0.496
974.499	581.693	80.002	19.994	103.763	20.072	0.627	0.528
974.999	581.930	80.008	19.992	103.764	20.070	0.797	0.538
975.499	582.200	80.013	19.991	103.764	20.072	0.639	0.513
976.000	582.422	80.001	19.992	103.772	20.070	0.743	0.499
976.500	582.693	80.009	19.992	103.779	20.071	0.686	0.492
976.999	582.947	80.013	19.992	103.782	20.070	0.745	0.509
977.499	583.240	80.011	19.991	103.784	20.072	0.650	0.536
978.000	583.469	80.009	19.992	103.786	20.071	0.705	0.535
978.499	583.715	80.011	19.992	103.785	20.071	0.701	0.499
978.999	583.971	80.007	19.991	103.781	20.071	0.717	0.489
979.499	584.219	80.006	19.991	103.780	20.071	0.675	0.503
979.999	584.472	80.012	19.991	103.777	20.072	0.612	0.502
980.500	584.734	79.999	19.993	103.776	20.069	0.821	0.508
980.999	584.998	80.009	19.992	103.771	20.071	0.707	0.521
981.499	585.244	80.007	19.992	103.770	20.067	0.960	0.518
981.999	585.505	80.007	19.993	103.768	20.070	0.751	0.508
982.498	585.779	80.008	19.993	103.765	20.069	0.819	0.521
982.999	586.029	80.007	19.994	103.762	20.073	0.574	0.530
983.500	586.274	80.008	19.991	103.769	20.068	0.876	0.509
984.000	586.540	80.009	19.991	103.770	20.071	0.686	0.503
984.500	586.803	80.008	19.992	103.769	20.068	0.932	0.521
984.999	587.056	80.008	19.993	103.771	20.069	0.840	0.523
985.499	587.344	80.009	19.992	103.770	20.071	0.663	0.528
985.999	587.571	80.010	19.992	103.763	20.068	0.871	0.528
986.500	587.826	80.006	19.995	103.761	20.070	0.732	0.499
986.999	588.088	80.008	19.993	103.757	20.072	0.587	0.500
987.499	588.339	80.007	19.992	103.757	20.069	0.818	0.515
987.999	588.572	80.008	19.992	103.757	20.068	0.922	0.498
988.499	588.829	80.009	19.993	103.760	20.072	0.652	0.487
988.999	589.094	80.006	19.993	103.761	20.069	0.831	0.506
989.499	589.316	80.010	19.992	103.764	20.069	0.833	0.505
989.998	589.586	80.010	19.992	103.763	20.068	0.886	0.489
990.498	589.862	80.012	19.992	103.760	20.069	0.812	0.519
990.999	590.081	80.008	19.994	103.757	20.069	0.863	0.521
991.498	590.319	80.007	19.993	103.755	20.066	1.023	0.476
991.999	590.610	80.009	19.994	103.757	20.066	1.011	0.493
992.499	590.832	80.010	19.994	103.762	20.069	0.823	0.521
992.999	591.070	80.009	19.993	103.767	20.067	0.989	0.487
993.499	591.350	80.006	19.993	103.770	20.068	0.907	0.489
993.999	591.596	80.005	19.994	103.773	20.071	0.721	0.522
994.500	591.836	80.005	19.994	103.773	20.067	0.949	0.506
994.999	592.074	80.006	19.994	103.772	20.069	0.850	0.482
995.499	592.367	80.007	19.994	103.769	20.068	0.928	0.504
995.999	592.640	80.008	19.996	103.769	20.069	0.804	0.548
996.499	592.865	80.012	19.992	103.769	20.068	0.926	0.533
996.999	593.112	80.008	19.995	103.771	20.068	0.922	0.486
997.499	593.350	80.002	19.998	103.772	20.069	0.800	0.478
998.000	593.640	80.008	19.995	103.775	20.071	0.679	0.506
998.500	593.868	80.009	19.993	103.777	20.071	0.724	0.523
999.000	594.144	80.007	19.997	103.774	20.067	0.943	0.512
999.499	594.413	80.007	19.993	103.767	20.067	0.964	0.525
999.999	594.658	80.005	19.999	103.766	20.069	0.802	0.529
1000.500	594.905	80.003	19.990	103.763	20.068	0.876	0.503
1001.000	595.164	80.006	19.994	103.762	20.069	0.800	0.499
1001.500	595.407	80.007	19.995	103.762	20.071	0.694	0.504
1002.000	595.685	80.006	19.992	103.768	20.070	0.745	0.511
1002.499	595.935	80.012	19.993	103.770	20.069	0.800	0.524
1002.998	596.169	80.010	19.989	103.774	20.070	0.774	0.506
1003.499	596.424	80.009	19.990	103.775	20.067	0.985	0.487
1003.999	596.659	80.013	19.993	103.780	20.072	0.643	0.490
1004.498	596.916	80.008	19.995	103.779	20.070	0.783	0.491
1004.998	597.162	80.007	19.992	103.775	20.072	0.639	0.498
1005.498	597.420	80.011	19.994	103.767	20.070	0.758	0.503
1005.999	597.670	80.009	19.994	103.762	20.071	0.665	0.506
1006.500	597.929	80.005	19.994	103.759	20.074	0.460	0.509
1007.000	598.158	80.010	19.989	103.760	20.070	0.749	0.499
1007.499	598.429	80.004	19.991	103.763	20.070	0.747	0.494
1007.998	598.681	80.008	20.000	103.770	20.071	0.719	0.512
1008.499	598.930	80.003	19.995	103.773	20.071	0.660	0.512
1008.998	599.172	80.005	19.992	103.774	20.070	0.732	0.496
1009.499	599.404	80.006	19.993	103.772	20.072	0.624	0.482
1009.999	599.660	80.006	19.997	103.772	20.071	0.663	0.481
1010.499	599.946	80.007	19.990	103.768	20.072	0.618	0.515
1011.000	600.192	80.007	19.994	103.766	20.069	0.804	0.537
1011.499	600.408	80.003	19.995	103.763	20.072	0.626	0.497
1011.999	600.656	80.009	19.993	103.764	20.070	0.732	0.463
1012.499	600.945	80.009	19.995	103.760	20.070	0.738	0.501
1012.999	601.193	79.991	19.994	103.757	20.069	0.804	0.537
1013.498	601.457	80.002	19.995	103.759	20.073	0.563	0.524
1013.998	601.678	80.003	19.994	103.764	20.071	0.696	0.499
1014.499	601.949	80.002	19.993	103.763	20.069	0.859	0.489
1015.000	602.178	79.998	19.994	103.766	20.071	0.715	0.496
1015.499	602.422	80.008	19.994	103.767	20.068	0.876	0.486
1015.999	602.694	80.010	19.995	103.765	20.071	0.694	0.494
1016.499	602.931	80.006	19.994	103.763	20.068	0.888	0.512
1016.999	603.188	80.004	19.995	103.764	20.068	0.918	0.502
1017.499	603.440	79.997	19.994	103.763	20.070	0.757	0.502
1017.999	603.704	80.014	19.994	103.765	20.072	0.616	0.513
1018.499	603.975	80.009	19.995	103.765	20.069	0.865	0.525
1018.999	604.247	80.008	19.995	103.763	20.067	0.958	0.539
1019.499	604.465	80.005	19.993	103.761	20.070	0.778	0.517
1019.999	604.712	80.007	19.994	103.761	20.071	0.660	0.477
1020.500	604.959	80.007	19.993	103.761	20.073	0.570	0.480
1020.999	605.202	80.005	19.993	103.768	20.070	0.736	0.492
1021.499	605.468	80.009	19.996	103.772	20.072	0.646	0.499
1021.999	605.705	80.007	19.995	103.777	20.069	0.840	0.506
1022.499	605.985	80.005	19.996	103.781	20.069	0.816	0.510
1022.999	606.245	80.004	19.995	103.781	20.069	0.823	0.528
1023.498	606.445	80.005	19.996	103.779	20.067	0.964	0.500
1023.999	606.705	80.013	19.995	103.778	20.070	0.759	0.460
1024.500	606.980	80.006	19.994	103.779	20.073	0.519	0.497
1025.000	607.220	80.009	19.995	103.776	20.071	0.711	0.524
1025.500	607.449	80.007	19.995	103.774	20.069	0.861	0.492
1026.000	607.723	80.008	19.994	103.773	20.071	0.675	0.486
1026.500	607.955	80.007	19.993	103.773	20.071	0.715	0.505
1026.999	608.211	80.006	19.993	103.769	20.071	0.696	0.498
1027.499	608.449	80.010	19.994	103.769	20.069	0.840	0.491
1027.998	608.730	80.008	19.994	103.769	20.069	0.854	0.507
1028.498	608.991	80.006	19.993	103.772	20.069	0.819	0.530
1028.998	609.211	80.008	19.994	103.775	20.067	0.996	0.511
1029.499	609.471	80.006	19.995	103.777	20.070	0.774	0.481
1030.000	609.745	80.011	19.993	103.779	20.067	0.964	0.508
1030.500	609.997	80.007	19.993	103.782	20.067	0.970	0.530
1030.999	610.303	80.009	19.994	103.779	20.066	1.023	0.542
1031.498	610.502	80.007	19.993	103.775	20.068	0.892	0.531
1031.998	610.783	80.007	19.992	103.774	20.070	0.743	0.492
1032.498	611.009	80.006	19.994	103.775	20.070	0.732	0.493
1032.999	611.299	80.009	19.993	103.774	20.070	0.732	0.511
1033.499	611.546	80.008	19.995	103.775	20.068	0.928	0.527
1033.999	611.850	80.007	19.994	103.777	20.070	0.793	0.544
1034.499	612.047	80.008	19.993	103.778	20.070	0.726	0.526
1034.999	612.326	80.007	19.993	103.777	20.070	0.791	0.488
1035.499	612.599	80.009	19.991	103.779	20.069	0.823	0.514
1035.999	612.825	80.008	19.992	103.780	20.067	0.998	0.525
1036.500	613.078	80.005	19.995	103.781	20.067	0.954	0.489
1036.999	613.329	80.006	19.997	103.778	20.068	0.897	0.492
1037.498	613.631	80.009	19.990	103.774	20.068	0.896	0.529
1037.998	613.875	80.009	19.992	103.774	20.067	0.939	0.550
1038.499	614.163	80.009	19.994	103.773	20.066	1.050	0.539
1038.999	614.439	80.013	19.990	103.771	20.066	1.034	0.548
1039.499	614.703	80.012	19.989	103.775	20.066	1.010	0.552
1040.000	614.970	80.007	19.992	103.779	20.067	0.981	0.536
1040.500	615.190	80.005	19.997	103.780	20.069	0.814	0.509
1041.000	615.512	80.011	19.988	103.781	20.067	0.949	0.514
1041.499	615.735	80.006	19.995	103.782	20.066	1.044	0.544
1041.999	616.044	80.010	19.990	103.780	20.066	1.057	0.539
1042.499	616.246	80.006	19.994	103.779	20.066	1.021	0.522
1042.999	616.537	80.003	19.995	103.774	20.068	0.914	0.502
1043.500	616.760	80.012	19.994	103.775	20.068	0.876	0.503
1044.000	617.057	80.008	19.993	103.776	20.064	1.158	0.516
1044.500	617.304	80.008	19.993	103.777	20.067	0.975	0.532
1044.999	617.561	79.999	19.994	103.775	20.067	0.968	0.524
1045.498	617.855	80.010	19.993	103.777	20.067	0.960	0.528
1045.998	618.140	80.013	19.992	103.777	20.065	1.086	0.566
1046.498	618.392	80.010	19.993	103.776	20.064	1.184	0.558
1046.999	618.636	80.009	19.993	103.775	20.066	1.049	0.516
1047.500	618.953	80.007	19.993	103.777	20.066	1.034	0.528
1047.999	619.158	80.011	19.991	103.781	20.066	1.051	0.541
1048.499	619.481	80.008	19.992	103.781	20.064	1.209	0.525
1048.999	619.744	80.010	19.991	103.780	20.067	0.972	0.557
1049.499	619.997	80.011	19.994	103.780	20.068	0.894	0.551
1049.999	620.218	80.008	19.993	103.780	20.066	1.030	0.496
1050.499	620.524	80.010	19.991	103.780	20.065	1.105	0.501
1050.998	620.746	80.011	19.992	103.780	20.065	1.141	0.527
1051.498	621.038	80.012	19.994	103.781	20.069	0.867	0.521
1051.999	621.322	80.011	19.992	103.780	20.064	1.188	0.545
1052.498	621.557	80.010	19.995	103.778	20.066	1.078	0.548
1052.998	621.831	80.008	19.995	103.773	20.066	1.044	0.514
1053.499	622.097	80.009	19.994	103.770	20.066	1.013	0.524
1053.999	622.331	80.010	19.993	103.768	20.066	1.021	0.520
1054.499	622.601	80.011	19.993	103.771	20.068	0.910	0.502
1054.999	622.879	80.007	19.993	103.770	20.067	0.988	0.526
1055.499	623.149	80.012	19.993	103.771	20.067	0.987	0.548
1055.999	623.396	80.008	19.993	103.774	20.066	1.061	0.533
1056.499	623.645	80.010	19.993	103.774	20.068	0.871	0.507
1056.999	623.917	80.011	19.991	103.773	20.064	1.217	0.508
1057.499	624.153	80.007	19.994	103.774	20.064	1.203	0.514
1057.999	624.425	80.012	19.992	103.778	20.066	1.074	0.508
1058.499	624.655	80.010	19.994	103.778	20.066	1.061	0.505
1058.998	624.970	80.012	19.994	103.780	20.068	0.901	0.524
1059.499	625.197	80.008	19.993	103.781	20.070	0.778	0.544
1059.999	625.486	80.008	19.993	103.781	20.067	0.989	0.529
1060.498	625.754	80.006	19.992	103.780	20.068	0.918	0.536
1060.999	625.978	80.011	19.991	103.776	20.067	0.954	0.525
1061.500	626.269	80.011	19.993	103.778	20.066	1.048	0.504
1062.000	626.517	80.007	19.993	103.778	20.066	1.030	0.527
1062.499	626.766	79.998	19.993	103.776	20.067	0.971	0.518
1062.999	627.062	80.004	19.994	103.772	20.067	1.000	0.521
1063.500	627.345	80.002	19.994	103.766	20.069	0.810	0.562
1063.999	627.578	80.024	19.989	103.755	20.066	1.027	0.548
1064.499	627.852	79.999	19.996	103.752	20.068	0.880	0.512
1064.999	628.090	80.012	19.994	103.746	20.070	0.779	0.510
1065.498	628.356	80.009	19.992	103.751	20.064	1.158	0.508
1065.998	628.631	80.008	19.992	103.758	20.068	0.897	0.522
1066.498	628.904	80.005	19.992	103.767	20.066	1.070	0.545
1066.999	629.119	80.009	19.995	103.768	20.066	1.066	0.518
1067.500	629.444	80.014	19.992	103.773	20.063	1.258	0.513
1067.999	629.643	80.003	19.991	103.771	20.065	1.114	0.532
1068.498	629.963	80.004	19.995	103.766	20.065	1.108	0.522
1068.998	630.212	80.005	19.992	103.763	20.063	1.274	0.544
1069.499	630.499	80.013	19.992	103.766	20.068	0.884	0.552
1069.999	630.694	80.006	19.993	103.772	20.063	1.262	0.509
1070.500	631.024	80.006	19.992	103.775	20.064	1.198	0.504
1071.000	631.255	80.010	19.991	103.781	20.066	1.066	0.543
1071.500	631.531	80.008	19.991	103.786	20.059	1.570	0.534
1071.999	631.748	80.000	19.994	103.785	20.064	1.192	0.500
1072.499	632.000	80.010	19.993	103.779	20.064	1.205	0.481
1072.999	632.324	80.008	19.992	103.774	20.064	1.173	0.523
1073.499	632.595	80.006	19.993	103.772	20.063	1.241	0.585
1074.000	632.832	80.006	19.994	103.769	20.063	1.260	0.551
1074.499	633.053	80.005	19.994	103.769	20.065	1.085	0.483
1074.999	633.373	80.009	19.993	103.772	20.064	1.201	0.500
1075.499	633.590	80.013	19.992	103.775	20.064	1.154	0.539
1075.999	633.873	80.008	19.993	103.776	20.065	1.080	0.519
1076.499	634.140	80.005	19.994	103.775	20.060	1.468	0.525
1076.998	634.366	80.005	19.994	103.772	20.061	1.374	0.521
1077.498	634.688	80.006	19.993	103.769	20.066	1.038	0.520
1077.999	634.937	80.011	19.992	103.766	20.066	1.055	0.559
1078.498	635.184	80.006	19.993	103.765	20.061	1.371	0.534
1078.998	635.495	80.010	19.993	103.761	20.061	1.369	0.527
1079.499	635.741	80.008	19.993	103.760	20.064	1.182	0.558
1080.000	636.022	80.006	19.992	103.758	20.061	1.416	0.542
1080.500	636.231	80.008	19.991	103.754	20.065	1.124	0.509
1081.000	636.529	80.009	19.993	103.751	20.062	1.308	0.498
1081.499	636.734	80.009	19.993	103.755	20.065	1.106	0.505
1081.999	637.050	80.008	19.995	103.756	20.063	1.245	0.512
1082.500	637.290	80.006	19.994	103.759	20.062	1.293	0.538
1083.000	637.483	80.006	19.995	103.761	20.064	1.217	0.495
1083.499	637.780	80.009	19.993	103.763	20.065	1.120	0.462
1083.999	638.107	80.009	19.993	103.762	20.064	1.217	0.557
1084.500	638.317	80.008	19.993	103.764	20.064	1.211	0.580
1084.999	638.641	80.005	19.993	103.763	20.066	1.067	0.536
1085.499	638.785	80.007	19.993	103.765	20.060	1.462	0.501
1085.999	639.121	80.004	19.995	103.769	20.060	1.460	0.474
1086.499	639.375	80.008	19.994	103.770	20.063	1.272	0.534
1086.999	639.624	80.005	19.993	103.770	20.063	1.239	0.546
1087.499	639.815	80.008	19.994	103.768	20.060	1.435	0.472
1088.000	640.164	80.009	19.993	103.766	20.069	0.853	0.490
1088.500	640.409	80.007	19.993	103.762	20.061	1.388	0.567
1089.000	640.689	80.008	19.994	103.762	20.065	1.080	0.559
1089.499	640.860	79.998	19.995	103.761	20.061	1.390	0.488
1089.999	641.223	80.006	19.995	103.763	20.064	1.207	0.492
1090.499	641.388	80.005	19.994	103.768	20.061	1.409	0.531
1090.999	641.732	80.006	19.994	103.770	20.063	1.222	0.519
1091.500	641.946	80.006	19.995	103.770	20.064	1.213	0.534
1092.000	642.249	80.007	19.993	103.770	20.067	0.985	0.537
1092.500	642.452	80.007	19.993	103.773	20.064	1.171	0.512
1092.999	642.638	80.006	19.994	103.772	20.064	1.198	0.448
1093.499	643.007	80.007	19.994	103.769	20.067	0.964	0.471
1094.000	643.241	80.007	19.994	103.769	20.064	1.196	0.579
1094.499	643.473	80.007	19.992	103.772	20.064	1.181	0.535
1094.999	643.786	80.005	19.994	103.770	20.064	1.160	0.506
1095.499	643.999	80.005	19.994	103.769	20.063	1.251	0.535
1095.998	644.319	80.007	19.992	103.772	20.066	1.036	0.529
1096.499	644.437	80.007	19.993	103.769	20.062	1.308	0.486
1097.000	644.713	80.008	19.992	103.767	20.063	1.253	0.416
1097.499	645.106	80.006	19.994	103.765	20.065	1.104	0.531
1097.998	645.259	80.008	19.995	103.763	20.064	1.194	0.607
1098.499	645.461	80.007	19.993	103.759	20.064	1.205	0.451
1098.999	645.940	80.007	19.992	103.758	20.068	0.918	0.518
1099.499	646.091	80.006	19.994	103.757	20.066	1.047	0.656
1100.000	646.194	80.004	19.993	103.758	20.066	1.068	0.442
1100.500	646.517	80.007	19.995	103.761	20.062	1.293	0.340
1101.000	646.800	80.007	19.993	103.765	20.064	1.165	0.516
1101.500	647.041	80.008	19.995	103.771	20.063	1.274	0.565
1102.000	647.466	80.007	19.994	103.774	20.065	1.120	0.595
1102.500	647.541	80.006	19.993	103.776	20.065	1.118	0.583
1103.000	648.003	80.008	19.994	103.774	20.062	1.346	0.519
1103.500	647.938	80.007	19.995	103.775	20.062	1.321	0.467
1103.999	648.414	80.009	19.993	103.774	20.062	1.333	0.404
1104.498	648.434	80.007	19.993	103.769	20.061	1.414	0.454
1104.999	648.866	80.007	19.993	103.768	20.064	1.218	0.474
1105.500	649.181	80.008	19.994	103.768	20.066	1.063	0.600
1105.999	649.524	80.009	19.994	103.765	20.064	1.161	0.703
1106.499	649.597	80.007	19.994	103.766	20.065	1.135	0.537
1107.000	649.900	80.008	19.994	103.767	20.062	1.294	0.396
1107.499	650.311	80.007	19.994	103.763	20.064	1.159	0.545
1107.998	650.342	80.009	19.994	103.761	20.065	1.114	0.578
1108.499	650.702	80.009	19.995	103.759	20.063	1.247	0.416
1109.000	650.970	80.007	19.994	103.753	20.066	1.030	0.509
1109.499	651.223	80.008	19.995	103.752	20.061	1.405	0.575
1110.000	651.447	80.010	19.992	103.753	20.063	1.274	0.499
1110.499	651.756	80.006	19.994	103.758	20.064	1.154	0.505
1110.998	651.949	80.009	19.995	103.761	20.062	1.355	0.518
1111.499	652.279	80.007	19.994	103.762	20.060	1.496	0.513
1111.999	652.432	80.008	19.994	103.763	20.063	1.241	0.503
1112.499	652.775	80.006	19.994	103.765	20.061	1.361	0.489
1112.999	652.965	80.008	19.993	103.764	20.061	1.401	0.515
1113.499	653.228	80.004	19.993	103.761	20.062	1.333	0.493
1113.999	653.554	80.009	19.994	103.762	20.061	1.386	0.521
1114.499	653.716	80.007	19.994	103.760	20.063	1.241	0.538
1114.999	654.009	80.007	19.994	103.756	20.064	1.184	0.471
1115.499	654.303	80.007	19.995	103.754	20.059	1.570	0.521
1116.000	654.544	80.007	19.994	103.752	20.059	1.538	0.561
1116.499	654.825	80.007	19.995	103.750	20.061	1.386	0.528
1117.000	655.005	80.007	19.995	103.748	20.060	1.485	0.491
1117.500	655.316	80.004	19.993	103.747	20.061	1.418	0.477
1118.000	655.551	80.004	19.995	103.746	20.060	1.462	0.519
1118.500	655.783	80.004	19.995	103.750	20.060	1.443	0.506
1118.999	656.049	80.002	19.996	103.754	20.062	1.333	0.482
1119.499	656.317	80.008	19.994	103.756	20.060	1.437	0.516
1120.000	656.573	80.005	19.994	103.758	20.061	1.363	0.530
1120.500	656.801	80.011	19.995	103.756	20.058	1.621	0.504
1121.000	657.038	80.006	19.995	103.755	20.060	1.483	0.474
1121.499	657.306	80.010	19.993	103.751	20.061	1.386	0.485
1121.999	657.567	80.008	19.995	103.750	20.060	1.437	0.517
1122.498	657.784	80.011	19.994	103.750	20.061	1.428	0.503
1122.998	658.066	80.009	19.993	103.754	20.058	1.574	0.489
1123.499	658.317	80.008	19.993	103.757	20.062	1.325	0.516
1124.000	658.574	80.013	19.993	103.761	20.061	1.403	0.520
1124.500	658.829	80.008	19.995	103.764	20.061	1.378	0.510
1125.000	659.056	80.012	19.993	103.768	20.061	1.372	0.497
1125.499	659.325	80.011	19.993	103.771	20.063	1.258	0.489
1125.998	659.535	80.008	19.992	103.774	20.061	1.370	0.488
1126.498	659.806	80.008	19.993	103.775	20.061	1.426	0.480
1126.998	660.022	80.010	19.994	103.779	20.062	1.329	0.483
1127.499	660.312	80.010	19.993	103.779	20.060	1.443	0.497
1127.999	660.572	80.009	19.993	103.775	20.061	1.395	0.528
1128.499	660.809	80.010	19.993	103.769	20.061	1.371	0.524
1129.000	661.054	80.009	19.994	103.766	20.063	1.279	0.489
1129.499	661.290	80.012	19.993	103.759	20.064	1.173	0.481
1129.999	661.521	80.009	19.994	103.756	20.062	1.306	0.474
1130.499	661.788	80.010	19.994	103.755	20.061	1.422	0.483
1130.999	662.022	80.011	19.993	103.756	20.059	1.553	0.500
1131.499	662.283	80.009	19.995	103.757	20.058	1.601	0.498
1131.998	662.514	80.010	19.993	103.763	20.062	1.299	0.493
1132.498	662.779	80.007	19.994	103.766	20.063	1.245	0.494
1132.999	663.025	80.011	19.992	103.771	20.064	1.213	0.504
1133.500	663.300	80.011	19.992	103.772	20.059	1.521	0.516
1134.000	663.545	80.011	19.991	103.771	20.061	1.416	0.520
1134.499	663.763	80.009	19.992	103.771	20.062	1.354	0.492
1134.998	664.036	80.007	19.993	103.766	20.060	1.470	0.477
1135.498	664.273	80.006	19.995	103.761	20.059	1.548	0.501
1135.999	664.503	80.009	19.994	103.758	20.059	1.508	0.488
1136.499	664.766	80.011	19.992	103.756	20.063	1.270	0.479
1136.999	665.041	80.010	19.994	103.750	20.062	1.344	0.515
1137.499	665.264	80.014	19.992	103.749	20.060	1.439	0.518
1137.999	665.544	80.012	19.992	103.750	20.057	1.642	0.501
1138.499	665.761	80.010	19.994	103.750	20.057	1.696	0.500
1138.999	666.024	80.012	19.994	103.754	20.059	1.555	0.489
1139.499	666.282	80.009	19.994	103.760	20.061	1.424	0.500
1139.999	666.552	80.011	19.992	103.765	20.061	1.374	0.524
1140.500	666.763	80.009	19.994	103.764	20.057	1.658	0.504
1141.000	667.032	80.007	19.994	103.768	20.062	1.340	0.481
1141.499	667.303	80.010	19.992	103.771	20.058	1.633	0.510
1141.999	667.573	80.008	19.994	103.773	20.059	1.538	0.541
1142.499	667.812	80.006	19.995	103.774	20.057	1.686	0.525
1142.999	668.052	80.006	19.995	103.776	20.059	1.563	0.494
1143.499	668.277	80.005	19.998	103.773	20.059	1.565	0.472
1143.999	668.527	80.008	19.994	103.769	20.059	1.538	0.470
1144.499	668.743	80.010	19.993	103.764	20.058	1.599	0.470
1145.000	669.024	80.008	19.990	103.764	20.057	1.650	0.481
1145.499	669.256	80.006	19.994	103.769	20.058	1.641	0.505
1145.999	669.529	80.008	19.994	103.773	20.059	1.563	0.509
1146.500	669.766	80.006	19.994	103.774	20.058	1.629	0.508
1147.000	670.013	80.011	19.994	103.773	20.060	1.462	0.497
1147.500	670.267	80.009	19.993	103.769	20.059	1.570	0.492
1147.999	670.494	80.011	19.992	103.766	20.056	1.759	0.491
1148.499	670.736	80.009	19.993	103.765	20.059	1.565	0.475
1148.999	670.981	80.007	19.993	103.765	20.060	1.433	0.478
1149.499	671.224	80.007	19.994	103.766	20.063	1.281	0.487
1149.999	671.496	80.011	19.996	103.764	20.061	1.394	0.501
1150.499	671.753	80.004	19.993	103.763	20.060	1.494	0.522
1151.000	672.013	80.009	19.995	103.762	20.061	1.367	0.523
1151.500	672.271	80.003	19.992	103.761	20.064	1.156	0.518
1151.999	672.476	80.009	19.990	103.762	20.060	1.487	0.491
1152.499	672.747	80.001	19.998	103.770	20.062	1.298	0.470
1153.000	672.956	80.003	19.997	103.765	20.059	1.544	0.478
1153.499	673.239	80.011	19.993	103.764	20.061	1.422	0.486
1153.998	673.428	80.014	19.989	103.765	20.064	1.207	0.482
1154.498	673.752	80.005	19.988	103.765	20.059	1.536	0.492
1154.999	673.946	80.009	19.994	103.758	20.061	1.416	0.515
1155.500	674.220	80.009	19.988	103.759	20.060	1.462	0.494
1156.000	674.478	80.008	19.993	103.761	20.059	1.521	0.500
1156.499	674.698	80.011	19.992	103.762	20.062	1.327	0.505
1156.999	674.966	80.008	19.992	103.765	20.060	1.477	0.483
1157.499	675.238	80.007	19.994	103.770	20.060	1.468	0.514
1158.000	675.500	80.009	19.992	103.772	20.058	1.605	0.537
1158.499	675.751	80.007	19.994	103.770	20.059	1.540	0.523
1158.999	675.998	80.005	19.995	103.769	20.059	1.542	0.505
1159.500	676.254	80.008	19.993	103.770	20.059	1.549	0.501
1160.000	676.495	80.010	19.991	103.770	20.059	1.555	0.500
1160.499	676.722	80.007	19.992	103.775	20.060	1.488	0.483
1160.999	676.990	80.008	19.994	103.779	20.060	1.490	0.482
1161.499	677.245	80.010	19.991	103.777	20.059	1.542	0.509
1161.998	677.491	80.012	19.993	103.773	20.058	1.633	0.512
1162.498	677.714	80.004	19.991	103.769	20.056	1.779	0.485
1162.999	678.016	80.010	19.993	103.767	20.055	1.795	0.497
1163.498	678.260	80.006	19.994	103.762	20.059	1.504	0.535
1163.998	678.477	80.007	19.992	103.760	20.061	1.365	0.503
1164.499	678.753	80.006	19.995	103.761	20.057	1.690	0.477
1164.999	679.012	80.009	19.993	103.762	20.060	1.498	0.514
1165.499	679.271	80.009	19.994	103.758	20.060	1.464	0.527
1165.999	679.530	80.007	19.992	103.761	20.060	1.433	0.518
1166.499	679.751	80.008	19.991	103.762	20.059	1.559	0.499
1166.998	679.974	80.006	19.993	103.760	20.058	1.593	0.462
1167.499	680.256	80.010	19.992	103.759	20.062	1.333	0.474
1167.999	680.501	80.007	19.994	103.764	20.059	1.513	0.516
1168.499	680.769	80.007	19.993	103.764	20.058	1.610	0.520
1169.000	680.997	80.008	19.993	103.769	20.058	1.572	0.505
1169.500	681.269	80.007	19.993	103.770	20.058	1.595	0.498
1169.999	681.502	80.004	19.995	103.769	20.059	1.536	0.502
1170.499	681.742	80.006	19.994	103.763	20.058	1.620	0.489
1170.999	681.984	80.007	19.992	103.762	20.058	1.637	0.477
1171.499	682.222	80.008	19.992	103.763	20.057	1.690	0.481
1171.999	682.502	80.008	19.992	103.763	20.063	1.279	0.499
1172.500	682.760	80.008	19.992	103.764	20.055	1.804	0.528
1173.000	683.017	80.005	19.994	103.768	20.057	1.648	0.526
1173.500	683.262	80.008	19.993	103.770	20.060	1.483	0.508
1173.999	683.449	80.006	19.992	103.768	20.056	1.734	0.467
1174.498	683.737	80.014	19.990	103.768	20.059	1.547	0.454
1174.999	683.994	80.005	19.995	103.772	20.058	1.603	0.510
1175.499	684.215	80.004	19.995	103.769	20.058	1.608	0.512
1175.998	684.436	80.006	19.994	103.763	20.058	1.621	0.460
1176.498	684.735	80.005	19.994	103.761	20.058	1.618	0.481
1176.998	684.979	80.006	19.994	103.759	20.058	1.621	0.531
1177.498	685.214	80.005	19.995	103.755	20.060	1.450	0.511
1177.999	685.476	80.006	19.994	103.757	20.056	1.722	0.488
1178.499	685.757	80.006	19.993	103.761	20.060	1.441	0.520
1179.000	685.968	80.005	19.995	103.761	20.059	1.562	0.517
1179.500	686.245	79.999	19.994	103.764	20.059	1.545	0.490
1180.000	686.521	80.004	19.994	103.767	20.056	1.733	0.520
1180.499	686.652	80.007	19.993	103.767	20.059	1.505	0.480
1180.998	687.022	79.997	19.995	103.765	20.059	1.519	0.454
1181.498	687.255	80.011	19.994	103.764	20.059	1.551	0.552
1181.999	687.495	80.009	19.993	103.765	20.056	1.766	0.538
1182.500	687.703	80.004	19.993	103.766	20.054	1.912	0.460
1183.000	687.973	80.007	19.994	103.767	20.055	1.806	0.463
1183.500	688.250	80.010	19.993	103.767	20.056	1.728	0.512
1184.000	688.501	80.007	19.992	103.768	20.056	1.754	0.538
1184.500	688.754	80.008	19.994	103.769	20.056	1.720	0.516
1185.000	689.073	80.007	19.993	103.764	20.056	1.734	0.538
1185.499	689.254	80.009	19.995	103.763	20.058	1.580	0.536
1185.999	689.690	80.009	19.995	103.764	20.058	1.591	0.559
1186.500	689.465	80.008	19.993	103.765	20.055	1.825	0.414
1187.000	690.226	80.010	19.994	103.760	20.059	1.538	0.374
1187.500	690.398	80.008	19.994	103.758	20.056	1.739	0.734
1187.999	690.570	80.008	19.994	103.756	20.054	1.874	0.638
1188.499	690.795	80.009	19.994	103.752	20.053	1.954	0.370
1188.999	691.076	80.009	19.994	103.749	20.054	1.899	0.452
1189.499	691.330	80.009	19.993	103.748	20.058	1.631	0.520
1189.999	691.579	80.010	19.994	103.747	20.056	1.741	0.519
1190.500	691.854	80.010	19.992	103.746	20.056	1.756	0.514
1190.999	692.160	80.008	19.995	103.747	20.058	1.637	0.553
1191.499	692.344	80.006	19.994	103.749	20.053	1.992	0.535
1191.999	692.648	80.008	19.994	103.748	20.057	1.671	0.489
1192.499	692.861	80.012	19.992	103.752	20.058	1.633	0.503
1193.000	693.145	80.000	19.994	103.752	20.055	1.785	0.508
1193.500	693.403	80.007	19.993	103.750	20.058	1.604	0.520
1194.000	693.680	80.008	19.994	103.748	20.055	1.819	0.538
1194.500	693.895	80.007	19.994	103.749	20.056	1.747	0.513
1194.999	694.151	80.009	19.993	103.750	20.056	1.720	0.481
1195.499	694.426	80.014	19.989	103.750	20.056	1.773	0.501
1196.000	694.714	80.005	19.992	103.754	20.055	1.792	0.547
1196.500	694.929	80.005	19.994	103.754	20.055	1.802	0.532
1197.000	695.254	80.005	19.995	103.758	20.054	1.922	0.521
1197.500	695.493	80.010	19.992	103.757	20.053	1.931	0.553
1198.000	695.732	80.006	19.995	103.761	20.056	1.735	0.521
1198.500	696.016	80.007	19.996	103.759	20.057	1.692	0.500
1198.999	696.250	80.011	19.994	103.757	20.056	1.766	0.520
1199.499	696.512	80.008	19.999	103.754	20.055	1.813	0.507
1199.999	696.781	80.010	19.994	103.750	20.054	1.899	0.514
1200.500	697.017	80.004	19.995	103.745	20.054	1.861	0.518
1201.000	697.351	80.007	19.995	103.749	20.053	1.933	0.538
1201.499	697.565	80.006	19.994	103.752	20.057	1.682	0.559
1201.999	697.817	80.007	19.995	103.756	20.052	2.028	0.507
1202.500	698.098	80.007	19.996	103.763	20.051	2.093	0.499
1202.999	698.323	80.007	19.995	103.766	20.055	1.798	0.519
1203.500	698.578	80.008	19.995	103.766	20.055	1.783	0.493
1204.000	698.860	80.008	19.996	103.763	20.057	1.688	0.509
1204.499	699.129	80.008	19.996	103.761	20.055	1.831	0.544
1204.999	699.427	80.009	19.994	103.758	20.056	1.777	0.559
1205.500	699.544	80.007	19.994	103.755	20.054	1.871	0.491
1206.000	699.900	80.006	19.995	103.754	20.054	1.914	0.444
1206.499	700.199	80.008	19.994	103.756	20.056	1.726	0.564
1206.999	700.437	80.008	19.995	103.753	20.055	1.819	0.596
1207.499	700.709	80.009	19.994	103.751	20.056	1.753	0.524
1208.000	700.981	80.006	19.994	103.749	20.054	1.911	0.526
1208.500	701.222	80.006	19.995	103.749	20.056	1.724	0.528
1209.000	701.494	80.009	19.994	103.747	20.052	2.053	0.513
1209.499	701.748	80.008	19.995	103.747	20.058	1.625	0.520
1209.999	702.002	80.008	19.995	103.746	20.057	1.696	0.517
1210.500	702.285	80.007	19.994	103.745	20.054	1.887	0.522
1211.000	702.522	80.009	19.996	103.744	20.057	1.695	0.528
1211.499	702.763	80.010	19.995	103.745	20.057	1.663	0.499
1212.000	703.026	80.009	19.994	103.744	20.054	1.861	0.491
1212.500	703.297	80.010	19.994	103.744	20.056	1.756	0.519
1212.999	703.521	80.011	19.994	103.746	20.056	1.781	0.514
1213.499	703.787	80.008	19.993	103.745	20.053	1.967	0.492
1214.000	704.072	80.010	19.994	103.743	20.055	1.829	0.521
1214.500	704.336	80.010	19.995	103.748	20.056	1.766	0.550
1215.000	704.575	80.015	19.993	103.751	20.056	1.764	0.526
1215.499	704.842	80.009	19.993	103.755	20.055	1.827	0.505
1215.999	705.097	80.011	19.996	103.763	20.051	2.081	0.514
1216.500	705.340	80.010	19.993	103.765	20.054	1.888	0.510
1216.999	705.604	80.010	19.993	103.769	20.056	1.714	0.502
1217.499	705.881	80.010	19.993	103.771	20.055	1.825	0.524
1217.999	706.144	80.011	19.991	103.772	20.054	1.865	0.541
1218.499	706.408	80.013	19.990	103.766	20.055	1.836	0.534
1218.999	706.616	80.010	19.990	103.766	20.053	1.935	0.499
1219.498	706.912	80.008	19.991	103.763	20.057	1.642	0.488
1219.999	707.160	80.007	19.992	103.760	20.057	1.658	0.524
1220.499	707.404	80.010	19.993	103.757	20.058	1.627	0.518
1220.999	707.675	80.008	19.993	103.755	20.056	1.751	0.503
1221.498	707.945	80.008	19.992	103.753	20.057	1.686	0.528
1221.999	708.189	80.007	19.993	103.751	20.056	1.756	0.527
1222.499	708.461	80.008	19.993	103.750	20.057	1.665	0.515
1223.000	708.696	80.007	19.993	103.752	20.057	1.650	0.512
1223.500	708.939	80.005	19.994	103.755	20.057	1.686	0.493
1224.000	709.218	80.007	19.993	103.757	20.058	1.605	0.500
1224.500	709.485	80.008	19.992	103.756	20.054	1.898	0.534
1224.999	709.722	80.007	19.991	103.758	20.055	1.787	0.525
1225.499	709.959	80.008	19.993	103.757	20.053	1.968	0.489
1225.999	710.281	80.008	19.993	103.755	20.057	1.673	0.516
1226.499	710.497	80.008	19.992	103.756	20.056	1.734	0.548
1226.999	710.741	80.008	19.994	103.757	20.055	1.833	0.499
1227.499	711.003	80.007	19.993	103.753	20.057	1.677	0.483
1227.999	711.290	80.008	19.993	103.751	20.055	1.783	0.527
1228.499	711.560	80.007	19.995	103.750	20.055	1.787	0.553
1228.999	711.789	80.007	19.994	103.749	20.055	1.833	0.529
1229.500	712.007	80.008	19.992	103.748	20.054	1.874	0.473
1230.000	712.293	80.004	19.993	103.749	20.057	1.696	0.475
1230.500	712.565	80.006	19.992	103.749	20.051	2.064	0.531
1230.999	712.822	80.007	19.992	103.754	20.054	1.914	0.544
1231.499	713.053	80.005	19.992	103.755	20.052	2.036	0.509
1231.999	713.324	80.007	19.993	103.757	20.056	1.720	0.495
1232.500	713.596	80.006	19.992	103.760	20.052	2.011	0.522
1233.000	713.834	80.008	19.993	103.762	20.056	1.760	0.526
1233.500	714.100	80.009	19.992	103.763	20.054	1.914	0.507
1234.000	714.365	80.002	19.995	103.769	20.052	2.002	0.518
1234.500	714.611	80.006	19.996	103.772	20.052	2.057	0.522
1235.000	714.894	80.009	19.993	103.776	20.053	1.990	0.520
1235.499	715.156	80.006	19.994	103.781	20.054	1.884	0.536
1235.998	715.414	80.006	19.994	103.779	20.053	1.954	0.532
1236.499	715.693	80.007	19.994	103.775	20.056	1.741	0.529
1237.000	715.943	80.006	19.994	103.771	20.055	1.813	0.533
1237.500	716.194	80.006	19.992	103.766	20.050	2.135	0.514
1237.999	716.449	80.007	19.994	103.761	20.055	1.849	0.504
1238.499	716.716	80.009	19.993	103.763	20.055	1.790	0.515
1239.000	716.982	80.008	19.994	103.764	20.054	1.893	0.527
1239.500	717.236	80.007	19.993	103.766	20.053	1.952	0.526
1240.000	717.479	80.006	19.993	103.768	20.053	1.942	0.509
1240.500	717.756	80.007	19.991	103.765	20.053	1.977	0.509
1241.000	718.002	80.005	19.993	103.761	20.055	1.827	0.522
1241.500	718.257	80.008	19.992	103.759	20.055	1.849	0.512
1242.000	718.520	80.006	19.994	103.759	20.054	1.855	0.509
1242.500	718.755	80.005	19.992	103.755	20.055	1.806	0.508
1242.999	719.040	80.003	19.997	103.756	20.053	1.929	0.509
1243.499	719.254	80.008	19.993	103.755	20.057	1.684	0.510
1244.000	719.552	80.010	19.993	103.753	20.054	1.889	0.505
1244.499	719.755	80.006	19.993	103.752	20.055	1.834	0.506
1244.999	720.018	80.009	19.994	103.754	20.055	1.813	0.484
1245.500	720.251	80.007	19.993	103.754	20.054	1.874	0.481
1246.000	720.528	80.007	19.993	103.756	20.055	1.829	0.503
1246.499	720.807	80.008	19.993	103.755	20.055	1.793	0.533
1246.999	721.056	80.007	19.995	103.756	20.057	1.703	0.542
1247.500	721.335	80.007	19.994	103.755	20.053	1.941	0.528
1247.999	721.544	80.002	19.993	103.755	20.052	2.021	0.508
1248.499	721.794	80.008	19.995	103.752	20.054	1.895	0.474
1248.999	722.064	80.008	19.992	103.751	20.053	1.962	0.490
1249.499	722.284	80.007	19.994	103.749	20.055	1.823	0.505
1249.999	722.535	80.009	19.995	103.747	20.052	2.053	0.480
1250.499	722.804	80.009	19.993	103.745	20.053	1.986	0.495
1250.999	723.096	80.009	19.991	103.745	20.052	2.026	0.541
1251.499	723.315	80.005	19.995	103.746	20.049	2.233	0.536
1252.000	723.527	80.006	19.993	103.749	20.050	2.163	0.470
1252.500	723.810	80.011	19.992	103.752	20.050	2.156	0.463
1253.000	724.074	80.007	19.992	103.752	20.050	2.140	0.522
1253.500	724.313	80.006	19.993	103.752	20.049	2.247	0.525
1254.000	724.574	80.008	19.995	103.750	20.048	2.296	0.502
1254.500	724.835	80.005	19.993	103.748	20.050	2.142	0.511
1255.000	725.075	80.008	19.993	103.746	20.052	2.038	0.511
1255.499	725.332	80.005	19.993	103.748	20.051	2.064	0.498
1255.999	725.612	80.009	19.991	103.751	20.050	2.173	0.517
1256.500	725.861	80.006	19.992	103.755	20.053	1.950	0.533
1257.000	726.086	80.006	19.993	103.756	20.050	2.139	0.502
1257.499	726.338	80.009	19.991	103.756	20.051	2.091	0.476
1258.000	726.576	80.007	19.993	103.755	20.055	1.836	0.483
1258.500	726.846	80.007	19.992	103.752	20.051	2.099	0.499
1258.999	727.096	80.006	19.993	103.751	20.050	2.159	0.514
1259.499	727.332	80.008	19.994	103.751	20.053	1.948	0.503
1260.000	727.582	80.005	19.995	103.749	20.049	2.268	0.486
1260.500	727.845	80.007	19.989	103.748	20.052	2.009	0.499
1260.999	728.088	80.006	19.994	103.749	20.052	1.996	0.509
1261.499	728.343	80.007	19.995	103.748	20.052	2.061	0.502
1261.999	728.594	80.006	19.994	103.748	20.052	2.025	0.502
1262.499	728.850	80.008	19.994	103.751	20.055	1.795	0.506
1263.000	729.072	80.007	19.993	103.752	20.052	2.000	0.492
1263.500	729.326	80.006	19.995	103.754	20.051	2.085	0.477
1264.000	729.564	80.007	19.994	103.753	20.052	2.030	0.484
1264.499	729.812	80.005	19.994	103.753	20.054	1.905	0.489
1265.000	730.021	80.007	19.993	103.751	20.053	1.925	0.472
1265.500	730.280	80.008	19.993	103.751	20.052	2.007	0.462
1266.000	730.542	80.007	19.993	103.751	20.052	2.036	0.494
1266.500	730.768	80.008	19.994	103.756	20.055	1.825	0.505
1267.000	731.030	80.010	19.993	103.760	20.051	2.112	0.488
1267.500	731.288	80.008	19.993	103.764	20.051	2.098	0.504
1267.999	731.508	80.011	19.994	103.764	20.051	2.091	0.499
1268.498	731.766	80.006	19.994	103.763	20.052	2.045	0.478
1268.999	732.050	80.008	19.992	103.757	20.052	2.028	0.510
1269.500	732.285	80.008	19.994	103.756	20.052	2.049	0.531
1270.000	732.522	80.007	19.995	103.754	20.052	2.009	0.495
1270.499	732.785	80.011	19.993	103.752	20.055	1.806	0.486
1270.999	733.049	80.008	19.993	103.752	20.049	2.215	0.513
1271.500	733.253	80.011	19.996	103.754	20.052	2.032	0.497
1271.999	733.560	80.010	19.993	103.756	20.049	2.239	0.490
1272.499	733.763	80.008	19.994	103.757	20.051	2.081	0.511
1273.000	734.011	80.008	19.993	103.762	20.051	2.078	0.480
1273.500	734.297	80.008	19.995	103.765	20.050	2.159	0.492
1274.000	734.539	80.010	19.992	103.763	20.048	2.289	0.532
1274.500	734.798	80.009	19.993	103.757	20.051	2.068	0.515
1275.000	735.070	80.009	19.993	103.755	20.049	2.205	0.516
1275.500	735.270	80.007	19.994	103.752	20.051	2.123	0.501
1276.000	735.548	80.008	19.993	103.746	20.049	2.207	0.475
1276.500	735.801	80.008	19.993	103.745	20.050	2.178	0.505
1277.000	736.056	80.008	19.993	103.745	20.050	2.161	0.519
1277.500	736.295	80.007	19.993	103.744	20.050	2.188	0.500
1278.000	736.554	80.009	19.992	103.745	20.051	2.129	0.496
1278.500	736.783	80.009	19.994	103.748	20.051	2.129	0.493
1279.000	737.021	80.009	19.994	103.750	20.051	2.085	0.478
1279.500	737.297	80.008	19.993	103.754	20.049	2.241	0.490
1279.999	737.543	80.009	19.994	103.755	20.050	2.138	0.518
1280.498	737.783	80.007	19.994	103.757	20.050	2.184	0.504
1280.998	738.084	80.009	19.992	103.757	20.051	2.118	0.513
1281.499	738.269	80.008	19.994	103.758	20.049	2.247	0.513
1281.999	738.510	80.006	19.994	103.757	20.048	2.315	0.456
1282.499	738.774	80.007	19.992	103.756	20.050	2.199	0.466
1282.999	739.023	80.009	19.992	103.754	20.050	2.195	0.509
1283.499	739.281	80.009	19.993	103.753	20.053	1.982	0.510
1284.000	739.512	80.008	19.993	103.753	20.049	2.231	0.498
1284.499	739.798	80.009	19.994	103.755	20.050	2.167	0.503
1284.998	740.038	80.008	19.994	103.757	20.047	2.389	0.521
1285.499	740.292	80.008	19.992	103.756	20.047	2.378	0.510
1285.999	740.537	80.008	19.994	103.756	20.050	2.150	0.497
1286.499	740.786	80.007	19.994	103.756	20.049	2.235	0.497
1287.000	741.062	80.008	19.992	103.754	20.050	2.163	0.509
1287.500	741.279	80.008	19.992	103.751	20.047	2.389	0.509
1287.999	741.514	80.008	19.992	103.752	20.049	2.241	0.472
1288.499	741.792	80.008	19.993	103.752	20.050	2.193	0.482
1289.000	742.019	80.010	19.993	103.750	20.050	2.182	0.509
1289.499	742.323	80.007	19.993	103.751	20.049	2.258	0.518
1289.998	742.550	80.006	19.993	103.752	20.050	2.176	0.531
1290.498	742.802	80.007	19.993	103.752	20.050	2.150	0.505
1290.999	743.066	80.009	19.992	103.753	20.051	2.131	0.497
1291.499	743.277	80.009	19.993	103.753	20.047	2.366	0.496
1291.999	743.552	80.009	19.993	103.754	20.047	2.395	0.480
