Sample ID:	C:\MCC\MCC Cal\Test\Rubber_Band_MCC_30K_min_220208_R2.txt
Sample Weight (mg):	4.48
Heating Rate (C/s):	0.5
Combustor Temp (C):	900
N2 Flow Rate (cc/min):	80
O2 Flow Rate (cc/min):	20
Calibration File:	C:\MCC\MCC Cal\Coeff1 JN10440_30_210304.txt.txt
T Correction Coefficients:	0	1.024463	0
Time Shift (s):	14
*
Time (s)	Temperature (C)	N2 flow rate (cc/min)	O2 flow rate (cc/min)	Flow Rate (cc/min)	Oxygen (%)	HRR (W/g)	Heating rate (C/s)
0.000	113.918	80.005	19.993	103.658	20.014	-0.016	-0.016
0.500	113.991	80.006	19.993	103.659	20.011	0.144	0.027
1.000	113.964	80.009	19.993	103.661	20.011	0.155	0.059
1.500	113.968	80.005	19.996	103.665	20.012	0.071	0.011
2.000	113.940	80.007	19.994	103.668	20.018	-0.326	-0.024
2.500	113.873	80.006	19.993	103.670	20.015	-0.151	-0.059
3.000	113.941	80.006	19.994	103.670	20.015	-0.118	-0.047
3.500	113.946	80.007	19.992	103.671	20.017	-0.248	0.037
4.000	113.951	80.008	19.993	103.669	20.014	-0.079	0.041
4.500	113.887	80.011	19.992	103.669	20.013	0.043	-0.025
5.000	113.879	80.001	19.995	103.669	20.014	-0.053	-0.066
5.500	113.949	80.011	19.996	103.666	20.012	0.065	-0.005
6.000	113.932	80.014	19.995	103.665	20.016	-0.201	0.058
6.500	113.913	80.013	19.996	103.666	20.011	0.148	0.009
7.000	113.869	80.006	19.993	103.667	20.017	-0.269	-0.050
7.500	113.939	80.019	19.991	103.666	20.014	-0.028	-0.018
8.000	113.933	80.011	19.992	103.671	20.011	0.149	0.045
8.500	113.930	80.009	19.993	103.672	20.013	-0.006	0.027
9.000	113.915	80.004	19.994	103.674	20.013	0.006	-0.014
9.500	113.924	80.004	19.993	103.674	20.014	-0.063	-0.012
10.000	113.905	80.006	19.994	103.676	20.010	0.242	-0.007
10.500	113.920	80.011	19.993	103.675	20.015	-0.114	-0.007
11.000	113.937	80.006	19.993	103.676	20.012	0.100	0.014
11.500	113.890	80.008	19.993	103.674	20.013	0.045	0.001
12.000	113.899	80.007	19.994	103.674	20.012	0.102	-0.034
12.500	113.883	80.005	19.996	103.674	20.010	0.270	-0.023
13.000	113.931	80.006	19.994	103.673	20.011	0.183	0.013
13.500	113.843	80.001	19.994	103.673	20.009	0.336	-0.004
14.000	113.845	80.007	19.993	103.674	20.015	-0.096	-0.064
14.500	113.893	80.007	19.995	103.674	20.010	0.268	-0.018
15.000	113.924	80.019	19.991	103.673	20.013	0.053	0.065
15.500	113.872	80.008	19.993	103.676	20.012	0.112	0.029
16.000	113.904	80.007	19.993	103.675	20.009	0.336	-0.021
16.500	113.941	80.007	19.994	103.675	20.013	0.012	0.025
17.000	113.929	80.005	19.996	103.676	20.016	-0.165	0.047
17.500	113.910	80.005	19.994	103.682	20.010	0.270	-0.003
18.000	113.903	80.008	19.994	103.684	20.009	0.277	-0.029
18.500	113.899	80.000	19.991	103.687	20.007	0.435	-0.018
19.000	113.932	80.000	19.993	103.692	20.009	0.295	0.009
19.500	113.924	80.014	19.993	103.699	20.011	0.193	0.027
20.000	113.939	80.012	19.993	103.702	20.011	0.138	0.016
20.500	113.895	80.008	19.992	103.706	20.007	0.476	-0.011
21.000	113.929	80.011	19.993	103.708	20.011	0.197	-0.019
21.500	113.954	80.001	19.996	103.711	20.008	0.352	0.025
22.000	113.955	80.006	19.990	103.710	20.007	0.465	0.042
22.500	113.940	80.004	19.993	103.711	20.008	0.376	0.006
23.000	113.946	80.004	19.993	103.709	20.009	0.315	-0.011
23.500	113.952	80.007	19.992	103.710	20.006	0.498	0.001
24.000	113.979	80.009	19.991	103.709	20.006	0.500	0.022
24.500	114.012	80.012	19.993	103.710	20.005	0.618	0.047
25.000	113.996	80.007	19.993	103.710	20.005	0.577	0.039
25.500	114.016	80.006	19.994	103.714	20.006	0.526	0.011
26.000	114.023	80.006	19.993	103.717	20.004	0.691	0.016
26.500	113.997	80.009	19.992	103.723	20.007	0.467	0.004
27.000	114.029	80.010	19.993	103.725	20.005	0.569	-0.007
27.500	114.048	80.008	19.993	103.728	20.004	0.648	0.029
28.000	114.026	80.004	19.997	103.725	20.005	0.604	0.024
28.500	114.045	80.005	19.996	103.723	20.008	0.417	-0.003
29.000	114.095	80.009	19.994	103.718	20.006	0.539	0.033
29.500	114.127	80.004	19.995	103.715	20.007	0.476	0.075
30.000	114.102	80.008	19.994	103.715	20.002	0.795	0.045
30.500	114.119	80.009	19.991	103.722	20.005	0.634	-0.000
31.000	114.121	80.006	19.996	103.730	20.002	0.847	0.005
31.500	114.171	80.007	19.993	103.737	20.000	0.930	0.035
32.000	114.189	80.003	19.993	103.750	20.002	0.833	0.060
32.500	114.203	80.008	19.987	103.763	19.999	1.002	0.051
33.000	114.229	80.007	19.995	103.769	20.001	0.878	0.036
33.499	114.247	80.007	19.992	103.777	19.999	1.044	0.042
33.999	114.301	80.005	19.992	103.786	19.996	1.276	0.058
34.500	114.294	80.006	19.992	103.789	19.997	1.180	0.060
35.000	114.304	80.008	19.994	103.790	19.997	1.148	0.025
35.499	114.376	80.008	19.990	103.792	19.996	1.262	0.042
35.999	114.414	80.008	19.992	103.793	19.995	1.355	0.096
36.499	114.412	80.009	19.990	103.793	19.993	1.491	0.073
36.999	114.468	80.008	19.993	103.794	19.995	1.351	0.045
37.499	114.492	80.002	19.993	103.795	19.993	1.479	0.067
37.999	114.514	80.010	19.991	103.796	19.995	1.330	0.063
38.499	114.533	79.996	19.994	103.797	19.992	1.568	0.043
38.999	114.568	80.002	20.000	103.797	19.993	1.499	0.048
39.499	114.637	80.005	19.994	103.793	19.994	1.432	0.080
39.999	114.681	80.006	19.990	103.793	19.988	1.826	0.109
40.499	114.717	80.009	19.991	103.793	19.994	1.423	0.097
40.999	114.748	80.011	19.990	103.796	19.992	1.513	0.073
41.499	114.816	80.007	19.994	103.800	19.990	1.718	0.083
41.999	114.878	80.006	19.993	103.808	19.987	1.885	0.115
42.499	114.902	80.007	19.997	103.816	19.989	1.734	0.108
42.999	114.961	80.009	19.991	103.821	19.989	1.759	0.084
43.499	114.995	80.002	19.996	103.825	19.988	1.834	0.088
43.999	115.012	80.006	19.997	103.827	19.990	1.696	0.072
44.499	115.089	80.003	19.995	103.826	19.989	1.726	0.072
44.999	115.150	80.008	19.994	103.825	19.987	1.878	0.116
45.499	115.183	80.004	19.999	103.826	19.990	1.685	0.116
45.999	115.240	80.012	19.989	103.824	19.989	1.732	0.092
46.500	115.292	80.008	19.995	103.829	19.984	2.116	0.100
47.001	115.365	80.004	19.994	103.832	19.984	2.148	0.117
47.500	115.437	80.007	19.998	103.836	19.983	2.193	0.135
47.999	115.506	80.006	19.996	103.839	19.982	2.280	0.143
48.499	115.544	80.007	19.991	103.846	19.981	2.311	0.124
48.999	115.622	80.009	19.996	103.850	19.981	2.370	0.112
49.499	115.715	80.009	19.991	103.856	19.980	2.433	0.144
49.999	115.771	80.005	19.994	103.862	19.982	2.279	0.161
50.499	115.839	80.006	19.994	103.866	19.982	2.285	0.136
50.999	115.919	80.003	19.993	103.868	19.978	2.547	0.136
51.499	115.996	80.008	19.993	103.865	19.979	2.469	0.152
51.999	116.048	80.009	19.993	103.860	19.983	2.220	0.143
52.499	116.117	80.004	19.996	103.856	19.978	2.549	0.126
52.999	116.222	79.998	19.994	103.855	19.976	2.726	0.147
53.499	116.272	80.015	19.991	103.853	19.978	2.553	0.164
53.999	116.363	80.012	19.991	103.853	19.979	2.508	0.148
54.499	116.456	80.012	19.991	103.857	19.977	2.600	0.163
54.999	116.530	80.016	19.991	103.857	19.979	2.463	0.175
55.500	116.601	80.015	19.994	103.859	19.979	2.508	0.156
56.000	116.708	80.000	19.997	103.860	19.977	2.593	0.162
56.499	116.811	80.004	19.996	103.863	19.978	2.528	0.194
56.999	116.914	80.009	19.992	103.863	19.981	2.346	0.208
57.500	117.029	80.010	19.992	103.865	19.973	2.902	0.212
58.000	117.073	80.009	19.991	103.865	19.978	2.551	0.188
58.499	117.183	80.011	19.995	103.866	19.976	2.715	0.157
58.999	117.280	80.006	19.994	103.865	19.978	2.539	0.181
59.499	117.382	80.007	19.999	103.866	19.977	2.636	0.203
59.999	117.491	80.010	19.996	103.864	19.977	2.661	0.205
60.499	117.586	80.004	19.991	103.861	19.977	2.655	0.207
60.999	117.662	80.004	19.995	103.860	19.977	2.648	0.187
61.499	117.765	80.008	19.992	103.858	19.977	2.610	0.175
61.999	117.874	80.012	19.991	103.859	19.977	2.647	0.196
62.500	117.988	80.008	19.994	103.860	19.979	2.516	0.218
63.000	118.072	80.004	19.998	103.861	19.978	2.523	0.210
63.500	118.168	80.010	19.992	103.858	19.974	2.829	0.189
64.000	118.303	80.007	19.994	103.853	19.972	2.959	0.206
64.499	118.399	80.008	19.994	103.851	19.978	2.561	0.231
64.999	118.503	80.007	19.995	103.851	19.973	2.904	0.215
65.499	118.658	80.007	19.994	103.852	19.975	2.746	0.229
65.999	118.735	80.008	19.994	103.855	19.975	2.789	0.245
66.499	118.819	80.011	19.993	103.860	19.974	2.817	0.197
66.999	118.969	80.009	19.994	103.862	19.974	2.823	0.198
67.499	119.041	80.008	19.994	103.860	19.972	2.970	0.228
67.999	119.167	80.010	19.994	103.859	19.976	2.703	0.210
68.499	119.281	80.011	19.994	103.861	19.972	2.961	0.219
68.999	119.397	80.008	19.994	103.859	19.975	2.750	0.235
69.499	119.516	80.008	19.995	103.854	19.973	2.943	0.232
69.999	119.637	80.011	19.994	103.852	19.974	2.821	0.237
70.499	119.774	80.010	19.994	103.850	19.970	3.131	0.249
70.999	119.932	80.012	19.993	103.847	19.973	2.944	0.277
71.499	119.975	80.010	19.994	103.846	19.972	3.001	0.248
72.000	120.111	80.009	19.994	103.847	19.971	3.044	0.190
72.500	120.219	80.006	19.994	103.845	19.973	2.928	0.211
72.999	120.376	80.010	19.995	103.844	19.977	2.644	0.254
73.499	120.459	80.008	19.994	103.845	19.974	2.871	0.252
73.999	120.619	80.009	19.994	103.846	19.976	2.729	0.242
74.499	120.683	80.008	19.997	103.845	19.975	2.762	0.234
74.999	120.874	80.009	19.994	103.845	19.976	2.701	0.240
75.500	120.961	80.008	19.995	103.846	19.975	2.764	0.267
76.000	121.088	80.009	19.995	103.845	19.975	2.796	0.246
76.499	121.232	80.008	19.995	103.842	19.971	3.030	0.243
76.999	121.340	80.008	19.994	103.842	19.972	2.975	0.261
77.499	121.465	80.006	19.995	103.842	19.971	3.097	0.242
77.999	121.577	80.008	19.997	103.842	19.976	2.735	0.234
78.499	121.726	80.011	19.993	103.843	19.973	2.952	0.249
78.999	121.863	80.005	19.995	103.849	19.971	3.042	0.274
79.499	121.954	80.007	19.994	103.854	19.972	2.964	0.257
79.999	122.080	80.006	19.996	103.859	19.972	2.995	0.222
80.499	122.235	80.008	19.992	103.862	19.972	3.021	0.249
80.999	122.366	80.004	19.997	103.865	19.970	3.109	0.284
81.499	122.476	80.007	19.994	103.865	19.974	2.820	0.263
81.999	122.608	80.003	19.998	103.866	19.970	3.139	0.241
82.499	122.770	80.004	19.998	103.865	19.975	2.741	0.268
82.999	122.897	80.008	19.994	103.865	19.970	3.118	0.292
83.500	123.029	80.006	19.994	103.865	19.970	3.120	0.274
84.000	123.161	80.007	19.995	103.866	19.970	3.165	0.262
84.499	123.280	80.006	19.995	103.865	19.970	3.100	0.257
84.999	123.418	80.004	19.994	103.867	19.971	3.075	0.254
85.499	123.596	80.004	19.996	103.867	19.970	3.146	0.287
85.999	123.697	80.007	19.996	103.866	19.970	3.120	0.298
86.499	123.861	80.007	19.993	103.865	19.969	3.187	0.272
86.999	124.010	80.007	19.993	103.866	19.969	3.232	0.289
87.499	124.161	80.006	19.994	103.867	19.974	2.850	0.306
87.999	124.298	80.003	19.993	103.867	19.967	3.333	0.294
88.499	124.439	80.009	19.993	103.870	19.970	3.140	0.283
88.999	124.558	80.003	19.995	103.874	19.966	3.414	0.269
89.499	124.737	80.002	19.997	103.875	19.967	3.345	0.280
89.999	124.855	80.007	19.990	103.874	19.969	3.185	0.298
90.499	125.014	80.006	19.992	103.875	19.966	3.400	0.287
90.999	125.137	80.006	19.992	103.875	19.968	3.286	0.280
91.499	125.286	80.003	19.995	103.873	19.964	3.601	0.277
91.999	125.458	80.005	19.995	103.873	19.961	3.779	0.296
92.499	125.641	80.010	19.989	103.880	19.967	3.378	0.338
92.999	125.772	80.010	19.990	103.887	19.965	3.510	0.335
93.499	125.884	80.012	19.992	103.893	19.965	3.477	0.278
93.999	126.049	80.006	19.992	103.898	19.962	3.729	0.260
94.499	126.218	80.011	19.986	103.902	19.967	3.375	0.306
94.999	126.367	80.008	19.997	103.904	19.966	3.418	0.326
95.499	126.545	80.010	19.992	103.902	19.960	3.852	0.323
95.999	126.698	80.003	19.994	103.902	19.962	3.689	0.329
96.499	126.854	80.009	19.989	103.903	19.962	3.690	0.320
96.999	127.011	80.006	19.997	103.906	19.961	3.783	0.312
97.500	127.157	80.003	19.995	103.906	19.962	3.751	0.308
98.000	127.317	80.006	19.993	103.906	19.958	3.986	0.304
98.499	127.494	80.011	19.993	103.907	19.959	3.897	0.321
98.999	127.683	80.010	19.992	103.906	19.959	3.913	0.351
99.499	127.850	80.012	19.991	103.907	19.959	3.959	0.361
99.999	127.999	80.006	19.992	103.909	19.960	3.872	0.336
100.499	128.168	80.009	19.994	103.909	19.959	3.905	0.317
100.999	128.298	80.006	19.996	103.910	19.958	4.031	0.309
101.500	128.505	80.004	19.994	103.910	19.959	3.925	0.318
102.000	128.690	80.009	19.991	103.909	19.963	3.655	0.364
102.499	128.861	80.008	19.994	103.909	19.959	3.907	0.373
102.999	129.005	80.006	19.992	103.909	19.958	4.026	0.336
103.500	129.156	80.008	19.993	103.908	19.953	4.333	0.305
104.001	129.337	80.006	19.997	103.909	19.957	4.095	0.314
104.500	129.514	80.007	19.993	103.909	19.957	4.071	0.346
104.999	129.660	80.006	19.993	103.913	19.956	4.164	0.341
105.499	129.825	80.011	19.993	103.919	19.954	4.302	0.317
105.999	130.009	80.005	19.993	103.923	19.955	4.215	0.329
106.499	130.203	80.010	19.992	103.927	19.954	4.294	0.364
106.999	130.380	80.007	19.994	103.929	19.956	4.136	0.375
107.499	130.550	80.006	19.994	103.927	19.958	4.017	0.359
107.999	130.715	80.005	19.993	103.923	19.954	4.323	0.340
108.499	130.937	80.006	19.991	103.922	19.955	4.218	0.360
109.000	131.098	80.007	19.993	103.923	19.955	4.213	0.385
109.500	131.286	80.007	19.993	103.927	19.955	4.187	0.366
109.999	131.458	80.008	19.993	103.928	19.956	4.179	0.355
110.499	131.605	80.009	19.994	103.929	19.957	4.067	0.340
110.999	131.802	80.005	19.995	103.928	19.955	4.245	0.332
111.500	132.006	80.007	19.996	103.925	19.953	4.361	0.373
112.000	132.187	80.004	19.995	103.921	19.953	4.365	0.393
112.499	132.364	80.002	19.994	103.924	19.952	4.456	0.372
112.999	132.557	80.006	20.000	103.928	19.951	4.481	0.364
113.499	132.751	80.005	19.995	103.928	19.953	4.349	0.378
113.999	132.959	80.007	19.998	103.932	19.951	4.503	0.394
114.499	133.156	80.009	19.998	103.934	19.951	4.518	0.404
114.999	133.327	80.008	19.992	103.934	19.951	4.485	0.386
115.499	133.532	80.005	19.993	103.934	19.953	4.361	0.372
115.999	133.743	80.008	19.995	103.937	19.951	4.542	0.396
116.499	133.903	80.011	19.991	103.937	19.951	4.523	0.394
116.999	134.108	80.006	19.995	103.933	19.950	4.613	0.368
117.500	134.299	80.004	19.992	103.928	19.946	4.903	0.380
118.000	134.469	80.004	19.995	103.923	19.950	4.580	0.378
118.499	134.666	80.009	19.994	103.920	19.950	4.588	0.364
119.000	134.843	80.006	19.993	103.917	19.950	4.555	0.370
119.500	135.068	80.008	19.990	103.918	19.950	4.565	0.388
119.999	135.284	80.008	19.991	103.921	19.950	4.557	0.422
120.499	135.493	80.006	19.993	103.926	19.950	4.573	0.433
120.999	135.701	80.008	19.993	103.928	19.949	4.663	0.421
121.499	135.890	80.012	19.994	103.932	19.948	4.703	0.407
121.999	136.131	80.007	19.991	103.935	19.950	4.551	0.414
122.499	136.328	80.007	19.991	103.938	19.951	4.525	0.434
122.999	136.523	80.010	19.990	103.936	19.953	4.389	0.415
123.499	136.735	80.009	19.993	103.932	19.949	4.657	0.399
123.999	136.957	80.008	19.993	103.927	19.950	4.572	0.420
124.499	137.164	80.007	19.995	103.925	19.947	4.789	0.432
124.999	137.391	80.008	19.991	103.926	19.949	4.679	0.432
125.499	137.584	80.007	19.991	103.926	19.947	4.811	0.427
125.999	137.724	80.010	19.991	103.929	19.949	4.655	0.377
126.499	137.977	80.008	19.997	103.935	19.947	4.823	0.363
126.999	138.178	80.007	19.990	103.935	19.948	4.720	0.423
127.499	138.409	80.009	19.994	103.934	19.944	4.984	0.442
127.999	138.644	80.008	19.992	103.933	19.944	5.006	0.449
128.500	138.835	80.006	19.992	103.935	19.948	4.761	0.447
129.000	139.067	80.008	19.988	103.934	19.945	4.939	0.425
129.500	139.292	80.012	19.988	103.938	19.946	4.902	0.439
130.000	139.509	80.005	19.996	103.940	19.946	4.910	0.449
130.500	139.704	80.017	19.987	103.943	19.948	4.730	0.428
131.000	139.894	80.010	19.991	103.945	19.945	4.931	0.399
131.500	140.113	80.009	19.993	103.946	19.946	4.860	0.397
132.000	140.361	80.008	19.997	103.945	19.946	4.880	0.438
132.500	140.597	80.010	19.995	103.944	19.948	4.736	0.476
133.000	140.826	80.008	19.995	103.942	19.946	4.838	0.474
133.500	141.022	80.009	19.991	103.938	19.942	5.148	0.445
134.000	141.247	80.008	19.995	103.939	19.942	5.191	0.423
134.500	141.434	80.010	19.993	103.937	19.944	4.984	0.417
135.000	141.643	80.012	19.997	103.938	19.942	5.156	0.404
135.500	141.954	80.012	19.987	103.938	19.941	5.223	0.458
136.000	142.183	80.006	19.996	103.940	19.943	5.071	0.531
136.500	142.339	80.011	19.994	103.940	19.942	5.138	0.463
137.000	142.597	80.007	19.994	103.942	19.942	5.130	0.399
137.500	142.848	80.006	19.993	103.939	19.942	5.166	0.461
138.000	143.066	80.009	19.994	103.940	19.940	5.337	0.489
138.500	143.282	80.002	19.993	103.938	19.944	5.022	0.451
139.000	143.522	80.007	19.995	103.937	19.941	5.209	0.445
139.500	143.737	80.001	19.993	103.938	19.938	5.446	0.456
140.000	143.989	80.008	19.992	103.940	19.938	5.473	0.462
140.500	144.223	80.009	19.991	103.942	19.940	5.335	0.477
141.000	144.460	80.007	19.994	103.944	19.938	5.422	0.478
141.500	144.674	80.007	19.995	103.945	19.939	5.381	0.461
142.000	144.885	80.007	19.997	103.945	19.941	5.207	0.438
142.500	145.137	80.007	19.996	103.946	19.940	5.298	0.444
143.000	145.352	80.006	19.994	103.941	19.939	5.406	0.465
143.500	145.604	80.008	19.994	103.940	19.938	5.442	0.467
144.000	145.834	80.007	19.996	103.940	19.939	5.410	0.474
144.500	146.071	80.008	19.994	103.940	19.940	5.290	0.474
145.000	146.288	80.008	19.994	103.940	19.940	5.278	0.461
145.500	146.532	80.008	19.993	103.943	19.940	5.343	0.458
146.000	146.766	80.007	19.997	103.941	19.940	5.306	0.470
146.500	146.983	80.006	19.995	103.941	19.942	5.176	0.464
147.000	147.248	80.005	19.997	103.940	19.937	5.554	0.466
147.500	147.469	80.008	19.994	103.940	19.940	5.304	0.484
148.000	147.716	80.005	19.991	103.941	19.939	5.353	0.477
148.500	147.927	80.013	19.993	103.943	19.941	5.227	0.464
149.000	148.176	80.000	20.003	103.943	19.940	5.302	0.459
149.500	148.448	80.004	19.996	103.940	19.938	5.428	0.490
150.000	148.642	80.006	19.992	103.939	19.940	5.278	0.493
150.500	148.888	80.012	19.991	103.939	19.939	5.368	0.453
151.000	149.156	80.015	19.990	103.938	19.940	5.282	0.477
151.500	149.365	80.007	19.995	103.940	19.941	5.226	0.496
152.000	149.631	80.010	19.995	103.943	19.940	5.299	0.476
152.500	149.863	80.006	19.999	103.944	19.938	5.487	0.487
153.000	150.120	80.007	19.995	103.943	19.940	5.335	0.494
153.500	150.384	80.008	19.995	103.941	19.937	5.497	0.505
154.000	150.607	80.006	19.995	103.937	19.937	5.546	0.504
154.500	150.878	80.008	19.993	103.937	19.938	5.467	0.490
155.000	151.132	80.009	19.993	103.937	19.937	5.503	0.509
155.500	151.339	80.012	19.992	103.936	19.936	5.564	0.493
156.000	151.585	80.010	19.994	103.938	19.938	5.483	0.458
156.500	151.853	80.007	19.995	103.941	19.937	5.522	0.484
157.000	152.103	80.009	19.992	103.942	19.939	5.357	0.516
157.500	152.343	80.010	19.993	103.942	19.935	5.649	0.504
158.000	152.581	80.007	19.993	103.943	19.937	5.552	0.484
158.500	152.861	80.008	19.993	103.942	19.935	5.655	0.498
159.000	153.118	80.009	19.992	103.943	19.934	5.773	0.528
159.500	153.324	80.011	19.993	103.943	19.934	5.743	0.500
160.000	153.613	80.011	19.993	103.945	19.932	5.893	0.479
160.500	153.801	80.009	19.994	103.941	19.935	5.675	0.486
161.000	154.066	80.006	19.994	103.936	19.934	5.761	0.465
161.500	154.308	80.007	19.994	103.931	19.932	5.919	0.480
162.000	154.601	80.009	19.993	103.929	19.935	5.670	0.521
162.500	154.821	80.004	19.994	103.931	19.934	5.749	0.524
163.000	155.044	80.005	19.994	103.930	19.932	5.857	0.478
163.500	155.316	80.008	19.993	103.935	19.931	5.985	0.469
164.000	155.570	80.008	19.992	103.940	19.937	5.547	0.510
164.500	155.845	80.006	19.995	103.941	19.932	5.878	0.528
165.000	156.077	80.008	19.993	103.938	19.934	5.742	0.519
165.500	156.335	80.010	19.994	103.940	19.931	5.980	0.499
166.000	156.561	80.003	19.993	103.942	19.929	6.116	0.487
166.500	156.830	80.009	19.991	103.936	19.930	6.049	0.489
167.000	157.076	80.006	19.995	103.934	19.930	6.008	0.505
167.500	157.335	80.007	19.992	103.936	19.928	6.146	0.510
168.000	157.579	80.003	19.996	103.938	19.930	6.016	0.505
168.500	157.833	80.005	19.993	103.936	19.931	5.990	0.501
169.000	158.086	80.006	19.997	103.940	19.929	6.086	0.502
169.500	158.323	80.002	19.996	103.941	19.931	5.927	0.498
170.000	158.583	80.007	19.996	103.940	19.932	5.881	0.493
170.500	158.847	80.006	19.993	103.940	19.929	6.084	0.511
171.000	159.104	80.011	19.989	103.942	19.929	6.094	0.523
171.500	159.345	80.003	19.993	103.943	19.926	6.315	0.509
172.000	159.569	80.001	20.000	103.941	19.928	6.175	0.482
172.500	159.852	80.006	19.995	103.938	19.925	6.370	0.486
173.000	160.069	80.010	19.993	103.935	19.928	6.141	0.503
173.500	160.343	80.002	19.997	103.932	19.927	6.232	0.495
174.000	160.587	80.009	19.989	103.926	19.927	6.256	0.504
174.500	160.853	80.002	19.993	103.925	19.926	6.323	0.514
175.000	161.109	80.004	19.994	103.922	19.926	6.354	0.516
175.500	161.359	80.006	19.998	103.918	19.923	6.555	0.514
176.000	161.651	80.010	19.995	103.915	19.927	6.250	0.524
176.500	161.884	80.006	19.997	103.912	19.922	6.632	0.534
177.000	162.173	80.003	19.999	103.910	19.922	6.630	0.524
177.500	162.396	80.001	19.999	103.911	19.926	6.295	0.517
178.000	162.670	80.008	19.993	103.910	19.924	6.451	0.505
178.500	162.933	80.004	19.996	103.912	19.922	6.599	0.517
179.000	163.155	80.005	19.997	103.911	19.920	6.760	0.511
179.500	163.409	80.000	19.999	103.909	19.920	6.733	0.481
180.000	163.640	80.008	19.994	103.905	19.920	6.727	0.480
180.500	163.912	80.009	19.991	103.905	19.919	6.853	0.494
181.000	164.196	80.002	19.999	103.903	19.921	6.686	0.530
181.500	164.436	80.005	20.000	103.902	19.918	6.918	0.540
182.000	164.730	80.008	19.997	103.902	19.921	6.707	0.529
182.500	164.984	80.012	19.995	103.903	19.921	6.703	0.541
183.000	165.241	80.006	19.992	103.904	19.919	6.822	0.530
183.500	165.481	80.001	19.998	103.904	19.915	7.137	0.504
184.000	165.772	80.007	19.994	103.903	19.913	7.241	0.514
184.500	166.017	80.009	19.994	103.905	19.914	7.206	0.533
185.000	166.272	80.010	19.992	103.905	19.914	7.178	0.518
185.500	166.474	80.002	19.995	103.905	19.915	7.086	0.479
186.000	166.757	80.007	19.993	103.903	19.911	7.373	0.471
186.500	167.031	80.008	19.992	103.904	19.913	7.228	0.521
187.000	167.305	80.008	19.994	103.905	19.913	7.269	0.552
187.500	167.564	80.009	19.993	103.904	19.914	7.164	0.540
188.000	167.852	80.007	19.993	103.904	19.913	7.245	0.540
188.500	168.088	80.009	19.994	103.906	19.912	7.326	0.536
189.000	168.328	80.004	19.999	103.905	19.913	7.255	0.500
189.500	168.589	80.007	19.993	103.901	19.912	7.314	0.489
190.000	168.785	80.006	19.995	103.901	19.912	7.367	0.479
190.500	169.082	80.007	19.993	103.902	19.913	7.277	0.475
191.000	169.342	80.009	19.993	103.901	19.911	7.422	0.525
191.500	169.564	80.007	19.993	103.903	19.910	7.445	0.519
192.000	169.833	80.006	19.994	103.906	19.908	7.625	0.487
192.500	170.106	80.007	19.993	103.906	19.907	7.729	0.517
193.000	170.344	80.005	19.995	103.906	19.907	7.678	0.527
193.500	170.652	80.007	19.988	103.905	19.906	7.771	0.528
194.000	170.879	80.011	19.989	103.905	19.905	7.806	0.540
194.500	171.151	80.005	19.998	103.906	19.905	7.858	0.517
195.000	171.385	80.005	19.994	103.904	19.904	7.877	0.503
195.500	171.636	80.008	19.992	103.905	19.904	7.930	0.495
196.000	171.928	80.010	19.993	103.906	19.904	7.896	0.514
196.500	172.164	80.004	19.992	103.905	19.900	8.219	0.536
197.000	172.394	80.007	19.990	103.905	19.901	8.099	0.497
197.500	172.653	80.004	19.994	103.908	19.901	8.135	0.477
198.000	172.890	80.007	19.997	103.906	19.902	8.034	0.493
198.500	173.118	80.008	19.995	103.903	19.903	7.997	0.481
199.000	173.406	80.008	19.993	103.902	19.901	8.141	0.491
199.500	173.657	80.012	19.993	103.901	19.899	8.295	0.528
200.000	173.913	80.005	19.995	103.900	19.901	8.111	0.523
200.500	174.173	80.006	19.993	103.900	19.898	8.352	0.511
201.000	174.446	80.007	19.993	103.900	19.897	8.442	0.524
201.500	174.672	80.007	19.995	103.899	19.899	8.296	0.516
202.000	174.935	80.003	19.999	103.896	19.897	8.452	0.494
202.500	175.205	80.007	19.993	103.892	19.895	8.580	0.511
203.000	175.474	80.007	19.994	103.889	19.895	8.584	0.536
203.500	175.720	80.009	19.995	103.891	19.896	8.505	0.527
204.000	175.925	80.006	19.994	103.892	19.892	8.751	0.484
204.500	176.200	80.007	19.993	103.893	19.894	8.662	0.466
205.000	176.478	80.016	19.992	103.896	19.894	8.655	0.516
205.500	176.744	80.011	19.993	103.897	19.892	8.749	0.549
206.000	176.997	80.009	19.993	103.890	19.891	8.846	0.532
206.500	177.242	80.009	19.995	103.886	19.887	9.141	0.508
207.000	177.509	80.009	19.992	103.883	19.889	8.959	0.505
207.500	177.746	80.010	19.996	103.880	19.889	9.017	0.508
208.000	177.991	80.007	19.991	103.881	19.890	8.900	0.493
208.500	178.210	80.010	19.993	103.884	19.892	8.792	0.473
209.000	178.487	80.007	19.996	103.886	19.889	9.024	0.480
209.500	178.748	80.009	19.993	103.890	19.888	9.046	0.517
210.000	179.002	80.007	19.994	103.893	19.888	9.048	0.526
210.500	179.237	80.005	19.994	103.894	19.886	9.200	0.502
211.000	179.510	80.008	19.995	103.890	19.884	9.359	0.499
211.500	179.786	80.009	19.993	103.891	19.884	9.343	0.529
212.000	179.974	80.007	19.995	103.889	19.882	9.523	0.507
212.500	180.292	80.008	19.993	103.886	19.882	9.473	0.485
213.000	180.552	80.010	19.991	103.886	19.883	9.420	0.541
213.500	180.786	80.010	19.992	103.888	19.879	9.726	0.536
214.000	181.034	80.009	19.992	103.884	19.880	9.674	0.488
214.500	181.294	80.009	19.994	103.883	19.879	9.751	0.495
215.000	181.560	80.006	19.994	103.883	19.880	9.651	0.517
215.500	181.800	80.009	19.993	103.881	19.878	9.818	0.516
216.000	182.059	80.008	19.993	103.880	19.876	9.945	0.503
216.500	182.300	80.007	19.993	103.881	19.877	9.896	0.500
217.000	182.563	80.010	19.992	103.880	19.877	9.842	0.502
217.500	182.827	80.006	19.992	103.877	19.877	9.840	0.515
218.000	183.060	80.006	19.992	103.875	19.875	10.005	0.511
218.500	183.332	80.007	19.994	103.874	19.871	10.321	0.501
219.000	183.525	80.009	19.993	103.874	19.873	10.139	0.485
219.500	183.803	80.011	19.992	103.872	19.869	10.423	0.468
220.000	184.069	80.009	19.992	103.871	19.869	10.474	0.508
220.500	184.303	80.006	19.993	103.874	19.866	10.638	0.522
221.000	184.555	80.009	19.992	103.873	19.869	10.415	0.493
221.500	184.817	80.009	19.993	103.873	19.868	10.478	0.500
222.000	185.078	80.008	19.992	103.873	19.865	10.734	0.519
222.500	185.337	80.008	19.994	103.872	19.865	10.762	0.522
223.000	185.577	80.007	19.992	103.871	19.864	10.817	0.509
223.500	185.881	80.010	19.994	103.871	19.863	10.868	0.521
224.000	186.124	80.009	19.993	103.871	19.862	10.959	0.546
224.500	186.359	80.006	19.994	103.871	19.860	11.097	0.512
225.000	186.625	80.008	19.994	103.871	19.860	11.103	0.489
225.500	186.875	80.008	19.993	103.870	19.858	11.215	0.509
226.000	187.083	80.008	19.993	103.872	19.858	11.213	0.487
226.500	187.386	80.008	19.994	103.874	19.856	11.374	0.484
227.000	187.631	80.009	19.991	103.874	19.854	11.516	0.529
227.500	187.871	80.010	19.996	103.876	19.855	11.441	0.516
228.000	188.106	80.009	19.993	103.876	19.853	11.629	0.480
228.500	188.396	80.007	19.992	103.873	19.852	11.656	0.500
229.000	188.645	80.008	19.997	103.872	19.849	11.879	0.532
229.500	188.873	80.009	19.994	103.871	19.849	11.908	0.508
230.000	189.109	80.009	19.992	103.869	19.849	11.875	0.471
230.500	189.367	80.009	19.996	103.870	19.848	11.960	0.479
231.000	189.667	80.010	19.993	103.870	19.846	12.080	0.526
231.500	189.881	80.011	19.994	103.870	19.845	12.176	0.536
232.000	190.161	80.007	19.994	103.870	19.846	12.133	0.504
232.500	190.377	80.009	19.994	103.870	19.843	12.298	0.495
233.000	190.642	80.007	20.000	103.869	19.843	12.351	0.488
233.500	190.899	80.010	19.989	103.870	19.843	12.312	0.502
234.000	191.109	80.008	19.995	103.870	19.837	12.751	0.495
234.500	191.401	80.008	19.991	103.870	19.840	12.544	0.484
235.000	191.624	80.010	19.995	103.870	19.840	12.507	0.508
235.500	191.900	80.010	19.993	103.870	19.839	12.639	0.507
236.000	192.147	80.008	19.994	103.870	19.837	12.736	0.511
236.500	192.374	80.008	19.994	103.869	19.833	13.078	0.498
237.000	192.602	80.009	19.992	103.869	19.837	12.769	0.464
237.500	192.855	80.006	19.991	103.868	19.837	12.735	0.468
238.000	193.077	80.007	19.994	103.868	19.833	13.068	0.478
238.500	193.365	80.005	19.993	103.868	19.830	13.279	0.493
239.000	193.617	80.011	19.994	103.868	19.832	13.092	0.525
239.500	193.828	80.009	19.992	103.868	19.830	13.279	0.502
240.000	194.075	80.011	19.993	103.868	19.829	13.323	0.461
240.500	194.309	80.008	19.995	103.867	19.827	13.480	0.469
241.000	194.577	80.006	19.993	103.867	19.828	13.397	0.491
241.500	194.812	80.007	19.993	103.867	19.826	13.579	0.502
242.000	195.090	80.007	19.994	103.867	19.825	13.594	0.508
242.500	195.366	80.007	19.993	103.866	19.823	13.799	0.533
243.000	195.569	80.007	19.994	103.866	19.824	13.701	0.516
243.500	195.843	80.007	19.994	103.865	19.823	13.799	0.478
244.000	196.037	80.006	19.994	103.865	19.822	13.837	0.473
244.500	196.281	80.006	19.993	103.864	19.820	13.989	0.453
245.000	196.530	80.007	19.994	103.864	19.819	14.044	0.465
245.500	196.807	80.006	19.996	103.865	19.817	14.172	0.510
246.000	197.046	80.005	19.992	103.865	19.815	14.359	0.521
246.500	197.289	80.005	19.994	103.865	19.816	14.264	0.499
247.000	197.503	80.006	19.996	103.865	19.815	14.313	0.470
247.500	197.786	80.006	19.994	103.864	19.812	14.549	0.476
248.000	198.005	80.007	19.994	103.864	19.810	14.711	0.499
248.500	198.295	80.005	19.995	103.864	19.809	14.762	0.506
249.000	198.537	80.006	19.994	103.864	19.809	14.767	0.521
249.500	198.766	80.007	19.994	103.864	19.806	14.982	0.501
250.000	199.016	80.009	19.994	103.864	19.805	15.078	0.475
250.500	199.306	80.006	19.994	103.864	19.809	14.795	0.510
251.000	199.526	80.006	19.994	103.864	19.805	15.037	0.525
251.500	199.788	80.007	19.994	103.864	19.804	15.175	0.496
252.000	200.025	80.003	19.993	103.864	19.800	15.459	0.490
252.500	200.268	80.007	19.990	103.864	19.797	15.662	0.490
253.000	200.494	80.010	19.991	103.864	19.797	15.617	0.474
253.500	200.738	80.008	19.993	103.865	19.798	15.570	0.470
254.000	200.985	80.010	19.996	103.865	19.797	15.625	0.481
254.500	201.240	80.009	19.991	103.864	19.795	15.799	0.496
255.000	201.492	80.006	19.995	103.865	19.799	15.513	0.505
255.500	201.732	80.009	19.995	103.865	19.796	15.703	0.500
256.000	201.999	80.006	19.993	103.864	19.794	15.900	0.499
256.500	202.220	80.005	19.996	103.864	19.794	15.898	0.498
257.000	202.503	80.005	19.995	103.863	19.793	15.932	0.496
257.500	202.726	80.005	19.995	103.859	19.793	15.916	0.505
258.000	202.998	80.005	19.996	103.858	19.791	16.062	0.500
258.500	203.234	80.007	19.996	103.858	19.790	16.126	0.501
259.000	203.533	80.010	19.992	103.857	19.788	16.295	0.522
259.500	203.749	80.005	19.990	103.859	19.784	16.611	0.525
260.000	204.010	80.008	19.988	103.863	19.785	16.477	0.496
260.500	204.229	80.002	19.997	103.865	19.786	16.416	0.479
261.000	204.465	80.008	19.993	103.861	19.785	16.519	0.467
261.500	204.720	80.004	19.995	103.858	19.785	16.511	0.473
262.000	204.938	80.008	19.993	103.854	19.782	16.747	0.482
262.500	205.233	80.008	19.996	103.850	19.781	16.812	0.493
263.000	205.474	80.007	19.995	103.844	19.777	17.107	0.525
263.500	205.696	80.007	19.995	103.844	19.776	17.185	0.500
264.000	205.938	80.007	19.995	103.844	19.779	16.953	0.463
264.500	206.232	80.007	19.993	103.846	19.776	17.144	0.500
265.000	206.474	80.007	19.994	103.847	19.774	17.286	0.536
265.500	206.688	80.007	19.995	103.852	19.772	17.435	0.496
266.000	206.974	80.006	19.996	103.850	19.770	17.592	0.478
266.500	207.225	80.007	19.996	103.853	19.771	17.531	0.519
267.000	207.457	80.007	19.996	103.854	19.772	17.476	0.510
267.500	207.676	80.008	19.995	103.855	19.772	17.476	0.467
268.000	207.987	80.007	19.994	103.856	19.769	17.644	0.490
268.500	208.227	80.006	19.994	103.857	19.769	17.642	0.540
269.000	208.435	80.007	19.994	103.855	19.764	18.003	0.500
269.500	208.747	80.006	19.995	103.852	19.765	17.936	0.484
270.000	208.984	80.008	19.994	103.847	19.762	18.176	0.535
270.500	209.214	80.007	19.994	103.843	19.762	18.172	0.508
271.000	209.481	80.006	19.995	103.842	19.762	18.158	0.482
271.500	209.724	80.007	19.995	103.843	19.762	18.207	0.504
272.000	209.992	80.006	19.996	103.843	19.760	18.344	0.511
272.500	210.235	80.008	19.995	103.843	19.759	18.404	0.511
273.000	210.461	80.008	19.994	103.843	19.759	18.420	0.489
273.500	210.699	80.008	19.994	103.840	19.759	18.374	0.466
274.000	210.945	80.006	19.996	103.836	19.756	18.602	0.474
274.500	211.255	80.009	19.990	103.833	19.758	18.458	0.521
275.000	211.487	80.006	19.995	103.833	19.754	18.785	0.549
275.500	211.732	80.005	19.994	103.834	19.753	18.800	0.509
276.000	211.954	80.007	19.995	103.838	19.751	18.937	0.472
276.500	212.177	80.008	19.992	103.842	19.753	18.860	0.456
277.000	212.449	80.006	19.994	103.843	19.753	18.831	0.470
277.500	212.712	80.007	19.993	103.843	19.751	18.942	0.515
278.000	212.910	80.007	19.994	103.845	19.750	19.055	0.498
278.500	213.202	80.008	19.994	103.844	19.746	19.300	0.476
279.000	213.428	80.005	19.995	103.843	19.747	19.227	0.504
279.500	213.683	80.004	19.994	103.845	19.746	19.357	0.499
280.000	213.904	80.006	19.996	103.847	19.747	19.228	0.479
280.500	214.178	80.005	19.995	103.846	19.746	19.366	0.486
281.000	214.450	80.005	19.993	103.847	19.745	19.377	0.521
281.500	214.689	80.005	19.994	103.847	19.744	19.468	0.529
282.000	214.916	80.007	19.994	103.844	19.741	19.684	0.489
282.500	215.168	80.007	19.993	103.841	19.742	19.597	0.473
283.000	215.401	80.007	19.994	103.841	19.741	19.692	0.482
283.500	215.655	80.009	19.993	103.844	19.740	19.781	0.486
284.000	215.904	80.007	19.994	103.847	19.741	19.698	0.495
284.500	216.116	80.008	19.993	103.850	19.737	19.994	0.482
285.000	216.369	80.008	19.993	103.850	19.737	20.008	0.462
285.500	216.608	80.006	19.994	103.847	19.739	19.815	0.478
286.000	216.892	80.007	19.994	103.840	19.734	20.228	0.508
286.500	217.117	80.007	19.995	103.834	19.736	20.087	0.516
287.000	217.377	80.008	19.994	103.830	19.737	19.994	0.497
287.500	217.651	80.009	19.994	103.829	19.734	20.196	0.509
288.000	217.893	80.005	19.993	103.832	19.732	20.354	0.525
288.500	218.118	80.007	19.992	103.832	19.732	20.355	0.491
289.000	218.406	80.008	19.995	103.835	19.731	20.400	0.490
289.500	218.630	80.009	19.995	103.840	19.729	20.584	0.513
290.000	218.868	80.009	19.994	103.841	19.730	20.479	0.488
290.500	219.143	80.009	19.995	103.842	19.733	20.293	0.488
291.000	219.381	80.009	19.992	103.845	19.727	20.671	0.513
291.500	219.654	80.008	19.995	103.846	19.732	20.369	0.512
292.000	219.892	80.010	19.994	103.842	19.729	20.580	0.511
292.500	220.150	80.008	19.992	103.843	19.726	20.751	0.503
293.000	220.331	80.007	19.993	103.841	19.727	20.682	0.467
293.500	220.588	80.008	19.992	103.837	19.726	20.789	0.439
294.000	220.817	80.007	19.993	103.834	19.722	21.068	0.463
294.500	221.070	80.009	19.994	103.834	19.725	20.869	0.484
295.000	221.348	80.008	19.993	103.834	19.727	20.700	0.506
295.500	221.592	80.009	19.993	103.834	19.726	20.755	0.526
296.000	221.832	80.007	19.994	103.834	19.723	20.978	0.503
296.500	222.065	80.007	19.994	103.835	19.725	20.879	0.479
297.000	222.310	80.008	19.993	103.835	19.722	21.058	0.476
297.500	222.532	80.008	19.994	103.835	19.725	20.864	0.472
298.000	222.816	80.007	19.996	103.837	19.721	21.124	0.486
298.500	223.066	80.006	19.992	103.841	19.723	21.019	0.520
299.000	223.281	80.008	19.994	103.844	19.726	20.791	0.500
299.500	223.562	80.008	19.993	103.845	19.724	20.907	0.481
300.000	223.785	80.006	19.993	103.844	19.719	21.277	0.500
300.500	224.070	80.008	19.992	103.841	19.723	21.003	0.506
301.000	224.281	80.006	19.994	103.836	19.724	20.904	0.501
301.500	224.539	80.007	19.993	103.832	19.724	20.930	0.482
302.000	224.769	80.008	19.993	103.830	19.723	20.962	0.479
302.500	224.995	80.008	19.994	103.831	19.724	20.899	0.472
303.000	225.286	80.007	19.995	103.831	19.721	21.136	0.487
303.500	225.534	80.006	19.994	103.830	19.724	20.931	0.528
304.000	225.769	80.006	19.993	103.830	19.722	21.045	0.511
304.500	226.025	80.008	19.993	103.830	19.723	20.964	0.487
305.000	226.242	80.008	19.995	103.829	19.724	20.915	0.482
305.500	226.537	80.009	19.993	103.829	19.722	21.049	0.493
306.000	226.770	80.008	19.993	103.829	19.725	20.869	0.520
306.500	226.983	80.007	19.993	103.829	19.721	21.131	0.487
307.000	227.237	80.008	19.995	103.829	19.724	20.895	0.456
307.500	227.508	80.009	19.993	103.829	19.719	21.275	0.496
308.000	227.748	80.009	19.993	103.828	19.725	20.857	0.518
308.500	227.977	80.009	19.993	103.830	19.720	21.245	0.490
309.000	228.239	80.008	19.993	103.830	19.722	21.040	0.480
309.500	228.482	80.009	19.993	103.829	19.724	20.900	0.498
310.000	228.753	80.010	19.992	103.829	19.722	21.058	0.509
310.500	229.009	80.010	19.993	103.829	19.723	21.003	0.520
311.000	229.232	80.008	19.993	103.827	19.723	20.983	0.503
311.500	229.499	80.009	19.994	103.827	19.723	20.993	0.485
312.000	229.746	80.010	19.994	103.828	19.725	20.828	0.502
312.500	230.027	80.010	19.994	103.828	19.724	20.901	0.521
313.000	230.258	80.008	19.994	103.831	19.722	21.037	0.520
313.500	230.493	80.010	19.994	103.831	19.724	20.916	0.489
314.000	230.758	80.010	19.991	103.831	19.723	20.989	0.483
314.500	231.039	80.012	19.995	103.832	19.725	20.853	0.523
315.000	231.266	80.011	19.994	103.832	19.726	20.749	0.527
315.500	231.527	80.012	19.993	103.829	19.725	20.878	0.498
316.000	231.768	80.010	19.993	103.830	19.722	21.040	0.495
316.500	232.048	80.011	19.994	103.830	19.722	21.054	0.512
317.000	232.279	80.007	19.992	103.828	19.726	20.780	0.516
317.500	232.469	80.009	19.993	103.829	19.725	20.882	0.466
318.000	232.767	80.011	19.993	103.830	19.726	20.776	0.454
318.500	233.010	80.008	19.994	103.828	19.725	20.841	0.515
319.000	233.235	80.012	19.995	103.827	19.726	20.786	0.505
319.500	233.480	80.011	19.993	103.827	19.726	20.804	0.469
320.000	233.718	80.010	19.995	103.826	19.725	20.833	0.476
320.500	233.999	80.008	19.993	103.825	19.726	20.810	0.501
321.000	234.230	80.010	19.994	103.826	19.729	20.583	0.516
321.500	234.483	80.009	19.993	103.826	19.727	20.686	0.498
322.000	234.712	80.008	19.994	103.827	19.729	20.536	0.483
322.500	234.997	80.008	19.994	103.826	19.726	20.780	0.498
323.000	235.244	80.009	19.993	103.827	19.731	20.422	0.523
323.500	235.497	80.008	19.993	103.829	19.729	20.595	0.516
324.000	235.700	80.006	19.994	103.829	19.730	20.483	0.478
324.500	236.012	80.006	19.995	103.828	19.734	20.199	0.486
325.000	236.199	80.007	19.994	103.828	19.732	20.354	0.507
325.500	236.506	80.007	19.993	103.827	19.733	20.301	0.496
326.000	236.740	80.007	19.994	103.826	19.730	20.496	0.518
326.500	236.979	80.008	19.994	103.825	19.733	20.258	0.507
327.000	237.205	80.007	19.995	103.826	19.733	20.266	0.469
327.500	237.463	80.007	19.994	103.826	19.734	20.219	0.475
328.000	237.741	80.007	19.995	103.826	19.733	20.243	0.510
328.500	237.982	80.007	19.995	103.826	19.732	20.312	0.527
329.000	238.209	80.006	19.997	103.826	19.734	20.233	0.494
329.500	238.461	80.007	19.995	103.826	19.738	19.943	0.474
330.000	238.705	80.007	19.995	103.825	19.737	20.012	0.487
330.500	238.994	80.007	19.994	103.825	19.738	19.888	0.514
331.000	239.199	80.006	19.993	103.825	19.738	19.910	0.514
331.500	239.417	80.007	19.995	103.826	19.738	19.906	0.459
332.000	239.687	80.008	19.995	103.826	19.740	19.758	0.456
332.500	239.917	80.006	19.995	103.826	19.740	19.770	0.494
333.000	240.187	80.007	19.995	103.826	19.742	19.656	0.500
333.500	240.424	80.008	19.995	103.827	19.739	19.821	0.503
334.000	240.677	80.007	19.993	103.826	19.745	19.430	0.498
334.500	240.931	80.007	19.994	103.827	19.745	19.386	0.498
335.000	241.182	80.007	19.995	103.826	19.746	19.359	0.506
335.500	241.406	80.006	19.994	103.826	19.742	19.632	0.490
336.000	241.647	80.007	19.995	103.825	19.745	19.398	0.470
336.500	241.929	80.006	19.995	103.825	19.747	19.229	0.494
337.000	242.172	80.006	19.994	103.825	19.750	19.046	0.524
337.500	242.391	80.006	19.993	103.826	19.751	18.993	0.494
338.000	242.652	80.007	19.994	103.826	19.751	18.987	0.471
338.500	242.932	80.010	19.993	103.826	19.749	19.095	0.510
339.000	243.183	80.007	19.994	103.827	19.753	18.837	0.536
339.500	243.432	80.007	19.993	103.827	19.753	18.845	0.515
340.000	243.636	80.006	19.994	103.827	19.753	18.847	0.476
340.500	243.890	80.008	19.994	103.828	19.752	18.866	0.456
341.000	244.185	80.007	19.994	103.828	19.753	18.817	0.503
341.500	244.417	80.007	19.995	103.828	19.758	18.478	0.538
342.000	244.670	80.008	19.993	103.829	19.757	18.537	0.506
342.500	244.897	80.005	19.994	103.829	19.759	18.415	0.483
343.000	245.169	80.005	19.994	103.829	19.756	18.618	0.489
343.500	245.373	80.007	19.993	103.829	19.761	18.222	0.487
344.000	245.617	80.007	19.994	103.829	19.761	18.221	0.462
344.500	245.910	80.007	19.993	103.829	19.762	18.209	0.492
345.000	246.141	80.006	19.994	103.829	19.762	18.147	0.530
345.500	246.427	80.005	19.994	103.829	19.764	18.013	0.520
346.000	246.635	80.007	19.994	103.829	19.766	17.885	0.506
346.500	246.907	80.008	19.994	103.829	19.769	17.673	0.487
347.000	247.171	80.008	19.994	103.829	19.770	17.578	0.508
347.500	247.381	80.007	19.994	103.832	19.768	17.704	0.505
348.000	247.689	80.006	19.995	103.832	19.770	17.566	0.497
348.500	247.879	80.005	19.993	103.832	19.768	17.704	0.508
349.000	248.140	80.007	19.995	103.832	19.769	17.643	0.475
349.500	248.391	80.007	19.996	103.832	19.773	17.411	0.482
350.000	248.651	80.006	19.995	103.829	19.772	17.419	0.511
350.500	248.883	80.005	19.995	103.829	19.774	17.297	0.501
351.000	249.153	80.007	19.995	103.829	19.778	17.043	0.497
351.500	249.448	80.007	19.994	103.828	19.776	17.133	0.534
352.000	249.682	80.006	19.995	103.829	19.778	17.031	0.547
352.500	249.959	80.006	19.995	103.829	19.778	17.011	0.520
353.000	250.229	80.006	19.995	103.830	19.781	16.824	0.529
353.500	250.426	80.007	19.995	103.830	19.779	16.966	0.507
354.000	250.668	80.006	19.995	103.831	19.782	16.743	0.453
354.500	250.921	80.007	19.995	103.830	19.784	16.556	0.467
355.000	251.165	80.005	19.995	103.830	19.785	16.535	0.496
355.500	251.449	80.009	19.995	103.829	19.783	16.645	0.512
356.000	251.736	80.005	19.994	103.829	19.784	16.578	0.550
356.500	251.958	80.005	19.996	103.829	19.786	16.407	0.540
357.000	252.208	80.005	19.995	103.829	19.786	16.436	0.490
357.500	252.493	80.006	19.994	103.829	19.788	16.298	0.503
358.000	252.692	80.007	19.995	103.829	19.788	16.290	0.510
358.500	252.905	80.007	19.995	103.829	19.791	16.075	0.448
359.000	253.200	80.003	19.997	103.829	19.792	16.020	0.460
359.500	253.451	80.005	19.996	103.829	19.794	15.853	0.526
360.000	253.709	80.004	19.995	103.829	19.793	15.914	0.528
360.500	253.984	80.006	19.995	103.829	19.794	15.845	0.521
361.000	254.240	80.008	19.992	103.830	19.795	15.752	0.532
361.500	254.450	80.006	19.995	103.830	19.799	15.484	0.498
362.000	254.750	80.003	19.994	103.830	19.799	15.516	0.488
362.500	254.970	80.004	19.995	103.830	19.800	15.405	0.515
363.000	255.204	80.005	19.995	103.830	19.802	15.270	0.487
363.500	255.447	80.003	19.995	103.830	19.805	15.061	0.466
364.000	255.708	80.005	19.995	103.829	19.803	15.175	0.491
364.500	255.950	80.005	19.993	103.829	19.804	15.130	0.503
365.000	256.240	80.006	19.993	103.829	19.806	14.966	0.517
365.500	256.483	80.008	19.994	103.829	19.807	14.917	0.533
366.000	256.740	80.007	19.994	103.830	19.810	14.683	0.516
366.500	256.941	80.006	19.993	103.831	19.813	14.480	0.479
367.000	257.217	80.006	19.994	103.831	19.814	14.409	0.468
367.500	257.490	80.007	19.993	103.831	19.812	14.545	0.513
368.000	257.684	80.007	19.994	103.830	19.811	14.618	0.508
368.500	257.951	80.009	19.993	103.829	19.813	14.501	0.463
369.000	258.228	80.009	19.995	103.829	19.815	14.340	0.502
369.500	258.493	80.007	19.995	103.828	19.816	14.293	0.543
370.000	258.740	80.009	19.994	103.828	19.813	14.486	0.527
370.500	259.002	80.008	19.993	103.829	19.816	14.248	0.511
371.000	259.238	80.007	19.994	103.828	19.819	14.025	0.503
371.500	259.483	80.009	19.994	103.827	19.819	14.070	0.489
372.000	259.718	80.008	19.993	103.828	19.821	13.873	0.481
372.500	259.973	80.009	19.995	103.828	19.822	13.840	0.486
373.000	260.220	80.009	19.993	103.827	19.821	13.907	0.496
373.500	260.485	80.008	19.993	103.826	19.823	13.755	0.506
374.000	260.706	80.007	19.993	103.826	19.824	13.670	0.499
374.500	260.939	80.009	19.993	103.826	19.827	13.471	0.470
375.000	261.213	80.009	19.993	103.827	19.829	13.298	0.481
375.500	261.452	80.008	19.994	103.828	19.829	13.334	0.510
376.000	261.750	80.008	19.994	103.828	19.833	13.020	0.525
376.500	261.961	80.008	19.993	103.827	19.834	12.936	0.523
377.000	262.181	80.007	19.994	103.828	19.837	12.780	0.469
377.500	262.464	80.008	19.993	103.827	19.835	12.914	0.467
378.000	262.695	80.007	19.992	103.827	19.836	12.835	0.509
378.500	262.969	80.008	19.994	103.827	19.841	12.475	0.510
379.000	263.200	80.009	19.993	103.827	19.841	12.489	0.505
379.500	263.473	80.009	19.994	103.827	19.843	12.339	0.505
380.000	263.746	80.008	19.992	103.827	19.840	12.516	0.525
380.500	264.010	80.006	19.994	103.828	19.842	12.369	0.541
381.000	264.248	80.009	19.993	103.828	19.842	12.361	0.519
381.500	264.507	80.008	19.994	103.828	19.847	12.012	0.500
382.000	264.763	80.007	19.993	103.828	19.848	11.980	0.506
382.500	264.998	80.010	19.993	103.827	19.847	11.992	0.502
383.000	265.204	80.006	19.994	103.826	19.848	11.957	0.466
383.500	265.444	80.006	19.995	103.827	19.848	11.929	0.444
384.000	265.730	80.007	19.993	103.826	19.853	11.628	0.486
384.500	265.970	80.006	19.993	103.827	19.852	11.648	0.525
385.000	266.224	80.008	19.991	103.826	19.853	11.577	0.510
385.500	266.461	80.009	19.993	103.827	19.853	11.624	0.493
386.000	266.749	80.008	19.993	103.826	19.855	11.437	0.508
386.500	266.956	80.008	19.993	103.827	19.855	11.458	0.510
387.000	267.301	80.008	19.994	103.826	19.857	11.287	0.523
387.500	267.520	80.009	19.994	103.827	19.856	11.384	0.558
388.000	267.774	80.006	19.994	103.827	19.853	11.583	0.519
388.500	268.005	80.010	19.994	103.826	19.856	11.392	0.479
389.000	268.269	80.009	19.994	103.827	19.860	11.102	0.490
389.500	268.501	80.006	19.994	103.827	19.857	11.285	0.496
390.000	268.794	80.009	19.991	103.827	19.861	11.017	0.511
390.500	269.025	80.009	19.994	103.827	19.859	11.171	0.524
391.000	269.344	80.009	19.994	103.828	19.860	11.094	0.536
391.500	269.545	80.007	19.994	103.827	19.862	10.909	0.535
392.000	269.810	80.009	19.992	103.827	19.861	11.019	0.494
392.500	270.094	80.011	19.992	103.826	19.864	10.793	0.508
393.000	270.350	80.011	19.993	103.827	19.864	10.805	0.544
393.500	270.600	80.012	19.993	103.826	19.863	10.876	0.523
394.000	270.868	80.009	19.993	103.826	19.867	10.574	0.512
394.500	271.088	80.009	19.993	103.827	19.867	10.582	0.503
395.000	271.335	80.009	19.993	103.827	19.870	10.340	0.478
395.500	271.612	80.009	19.993	103.826	19.867	10.567	0.495
396.000	271.886	80.010	19.993	103.825	19.871	10.326	0.538
396.500	272.122	80.009	19.991	103.825	19.868	10.488	0.531
397.000	272.379	80.010	19.993	103.825	19.870	10.348	0.501
397.500	272.632	80.009	19.993	103.825	19.869	10.445	0.501
398.000	272.890	80.011	19.994	103.825	19.868	10.476	0.510
398.500	273.152	80.010	19.992	103.826	19.872	10.193	0.516
399.000	273.382	80.012	19.992	103.826	19.872	10.216	0.507
399.500	273.608	80.009	19.994	103.827	19.875	10.004	0.474
400.000	273.899	80.008	19.993	103.826	19.878	9.799	0.486
400.500	274.146	80.011	19.993	103.826	19.874	10.084	0.527
401.000	274.396	80.009	19.991	103.827	19.877	9.870	0.518
401.500	274.647	80.009	19.993	103.827	19.877	9.846	0.499
402.000	274.854	80.010	19.992	103.827	19.877	9.842	0.480
402.500	275.127	80.008	19.993	103.827	19.877	9.876	0.469
403.000	275.386	80.010	19.993	103.827	19.876	9.927	0.506
403.500	275.655	80.007	19.993	103.827	19.877	9.876	0.530
404.000	275.949	80.010	19.992	103.827	19.877	9.844	0.546
404.500	276.148	80.008	19.988	103.828	19.878	9.820	0.528
405.000	276.400	80.006	19.992	103.828	19.882	9.515	0.472
405.500	276.636	80.009	19.992	103.829	19.882	9.527	0.470
406.000	276.918	80.007	19.994	103.830	19.882	9.533	0.504
406.500	277.147	80.003	19.993	103.830	19.879	9.685	0.515
407.000	277.384	80.007	19.994	103.830	19.879	9.687	0.488
407.500	277.662	80.008	19.993	103.829	19.884	9.326	0.490
408.000	277.902	80.008	19.992	103.830	19.883	9.393	0.516
408.500	278.160	80.004	19.992	103.829	19.884	9.360	0.508
409.000	278.428	80.010	19.993	103.830	19.882	9.525	0.512
409.500	278.630	80.006	19.995	103.831	19.887	9.161	0.498
410.000	278.913	80.007	19.995	103.833	19.884	9.322	0.477
410.500	279.155	80.006	19.994	103.833	19.887	9.129	0.505
411.000	279.417	80.007	19.993	103.833	19.888	9.096	0.514
411.500	279.674	80.007	19.993	103.833	19.888	9.033	0.511
412.000	279.888	80.005	19.996	103.832	19.885	9.257	0.495
412.500	280.170	80.009	19.993	103.831	19.889	8.964	0.484
413.000	280.421	80.006	19.993	103.831	19.887	9.125	0.515
413.500	280.690	80.006	19.993	103.831	19.888	9.082	0.526
414.000	280.951	80.007	19.993	103.831	19.887	9.153	0.524
414.500	281.171	80.007	19.993	103.831	19.889	9.019	0.505
415.000	281.418	80.006	19.993	103.831	19.886	9.200	0.474
415.500	281.718	80.006	19.995	103.831	19.888	9.097	0.507
416.000	281.961	80.007	19.993	103.832	19.887	9.109	0.545
416.500	282.187	80.005	19.993	103.833	19.887	9.117	0.506
417.000	282.433	80.007	19.993	103.833	19.888	9.040	0.471
417.500	282.667	80.007	19.992	103.833	19.888	9.048	0.476
418.000	282.935	80.008	19.993	103.833	19.888	9.070	0.490
418.500	283.178	80.009	19.992	103.833	19.891	8.816	0.506
419.000	283.436	80.008	19.994	103.832	19.890	8.896	0.507
419.500	283.701	80.007	19.993	103.832	19.890	8.885	0.512
420.000	283.920	80.007	19.993	103.832	19.889	8.989	0.503
420.500	284.204	80.006	19.994	103.831	19.891	8.823	0.494
421.000	284.425	80.008	19.992	103.832	19.891	8.841	0.504
421.500	284.691	80.005	19.994	103.831	19.891	8.845	0.496
422.000	284.970	80.006	19.993	103.832	19.891	8.879	0.516
422.500	285.187	80.010	19.991	103.832	19.891	8.861	0.520
423.000	285.469	80.006	19.992	103.833	19.893	8.715	0.498
423.500	285.731	80.006	19.995	103.833	19.894	8.636	0.522
424.000	285.968	80.006	19.993	103.832	19.889	8.989	0.521
424.500	286.244	80.007	19.996	103.832	19.890	8.934	0.506
425.000	286.453	80.004	19.995	103.832	19.891	8.879	0.499
425.500	286.743	80.007	19.995	103.831	19.891	8.851	0.492
426.000	286.995	80.006	19.994	103.830	19.889	8.997	0.520
426.500	287.247	80.007	19.994	103.830	19.891	8.863	0.523
427.000	287.464	80.006	19.994	103.829	19.891	8.823	0.486
427.500	287.723	80.005	19.995	103.830	19.889	8.995	0.473
428.000	287.978	80.006	19.992	103.830	19.889	9.011	0.495
428.500	288.245	80.003	19.995	103.830	19.889	9.017	0.518
429.000	288.487	80.004	19.993	103.830	19.890	8.932	0.516
429.500	288.708	80.005	19.995	103.830	19.887	9.149	0.486
430.000	289.011	80.008	19.994	103.829	19.889	8.973	0.494
430.500	289.242	80.006	19.994	103.830	19.888	9.048	0.529
431.000	289.518	80.008	19.993	103.829	19.886	9.233	0.520
431.500	289.735	80.004	19.995	103.828	19.888	9.038	0.500
432.000	289.984	80.006	19.994	103.828	19.888	9.058	0.480
432.500	290.263	80.007	19.994	103.828	19.888	9.056	0.497
433.000	290.543	80.006	19.994	103.827	19.887	9.142	0.544
433.500	290.734	80.009	19.994	103.828	19.887	9.158	0.515
434.000	290.998	80.008	19.994	103.829	19.889	8.973	0.463
434.500	291.264	80.009	19.994	103.829	19.887	9.131	0.493
435.000	291.517	80.007	19.996	103.829	19.887	9.139	0.525
435.500	291.817	80.008	19.995	103.829	19.887	9.140	0.536
436.000	292.032	80.007	19.994	103.828	19.887	9.164	0.534
436.500	292.289	80.007	19.994	103.828	19.887	9.148	0.493
437.000	292.528	80.006	19.994	103.827	19.887	9.103	0.484
437.500	292.817	80.008	19.994	103.827	19.887	9.107	0.512
438.000	293.048	80.006	19.994	103.828	19.886	9.211	0.524
438.500	293.299	80.003	19.994	103.828	19.885	9.270	0.501
439.000	293.507	80.007	19.995	103.828	19.884	9.357	0.471
439.500	293.794	80.007	19.994	103.830	19.887	9.152	0.477
440.000	294.037	80.006	19.995	103.831	19.885	9.271	0.512
440.500	294.303	80.004	19.996	103.830	19.884	9.359	0.520
441.000	294.536	80.006	19.995	103.830	19.885	9.278	0.504
441.500	294.805	80.006	19.995	103.830	19.885	9.270	0.500
442.000	295.064	80.008	19.994	103.828	19.886	9.174	0.515
442.500	295.284	80.005	19.996	103.827	19.885	9.247	0.504
443.000	295.550	80.005	19.999	103.827	19.885	9.310	0.482
443.500	295.844	80.008	19.990	103.826	19.886	9.233	0.523
444.000	296.056	80.006	19.995	103.827	19.883	9.424	0.533
444.500	296.314	80.008	19.996	103.827	19.881	9.538	0.488
445.000	296.550	80.008	19.994	103.826	19.883	9.412	0.482
445.500	296.810	80.008	19.995	103.826	19.880	9.648	0.495
446.000	297.035	80.007	19.995	103.827	19.881	9.568	0.490
446.500	297.299	80.007	19.996	103.825	19.881	9.540	0.487
447.000	297.576	80.007	19.995	103.825	19.880	9.639	0.515
447.500	297.830	80.009	19.995	103.825	19.878	9.765	0.536
448.000	298.128	80.006	19.994	103.824	19.880	9.650	0.541
448.500	298.357	80.010	19.994	103.823	19.879	9.731	0.540
449.000	298.607	80.006	19.995	103.825	19.881	9.591	0.503
449.500	298.844	80.009	19.994	103.825	19.879	9.739	0.483
450.000	299.077	80.008	19.995	103.826	19.878	9.768	0.478
450.500	299.329	80.009	19.994	103.826	19.881	9.599	0.477
451.000	299.596	80.009	19.994	103.827	19.878	9.786	0.502
451.500	299.850	80.008	19.994	103.825	19.877	9.865	0.520
452.000	300.093	80.007	19.995	103.825	19.878	9.805	0.509
452.500	300.352	80.006	19.995	103.823	19.875	9.994	0.500
453.000	300.579	80.008	19.994	103.823	19.878	9.780	0.494
453.500	300.835	80.007	19.995	103.823	19.879	9.687	0.485
454.000	301.110	80.008	19.995	103.825	19.878	9.780	0.507
454.500	301.378	80.008	19.993	103.825	19.875	10.003	0.537
455.000	301.617	80.007	19.995	103.825	19.875	9.969	0.525
455.500	301.874	80.008	19.993	103.825	19.872	10.212	0.501
456.000	302.147	80.006	19.994	103.825	19.869	10.424	0.513
456.500	302.370	80.008	19.994	103.825	19.872	10.215	0.514
457.000	302.619	80.008	19.994	103.825	19.870	10.387	0.485
457.500	302.868	80.007	19.994	103.825	19.869	10.416	0.485
458.000	303.120	80.006	19.995	103.824	19.873	10.115	0.499
458.500	303.364	80.007	19.996	103.824	19.869	10.464	0.498
459.000	303.600	80.006	19.995	103.823	19.870	10.378	0.488
459.500	303.862	80.007	19.994	103.822	19.866	10.636	0.489
460.000	304.144	80.006	19.994	103.822	19.867	10.573	0.521
460.500	304.370	80.006	19.994	103.821	19.865	10.728	0.526
461.000	304.637	80.008	19.994	103.821	19.862	10.931	0.500
461.500	304.901	80.008	19.994	103.819	19.864	10.827	0.512
462.000	305.133	80.009	19.993	103.821	19.862	10.973	0.513
462.500	305.380	80.007	19.993	103.820	19.861	11.051	0.487
463.000	305.637	80.009	19.995	103.817	19.862	10.945	0.492
463.500	305.902	80.007	19.993	103.816	19.863	10.903	0.514
464.000	306.126	80.007	19.994	103.818	19.862	10.937	0.506
464.500	306.435	80.007	19.992	103.818	19.860	11.057	0.511
465.000	306.682	80.007	19.992	103.818	19.857	11.299	0.544
465.500	306.939	80.007	19.994	103.822	19.858	11.244	0.530
466.000	307.173	80.007	19.993	103.824	19.858	11.230	0.498
466.500	307.447	80.006	19.994	103.825	19.854	11.512	0.500
467.000	307.649	80.006	19.994	103.823	19.853	11.587	0.492
467.500	307.935	80.008	19.993	103.823	19.854	11.536	0.482
468.000	308.179	80.006	19.994	103.823	19.852	11.666	0.509
468.500	308.428	80.006	19.993	103.824	19.851	11.703	0.512
469.000	308.721	80.008	19.994	103.825	19.850	11.835	0.518
469.500	308.941	80.007	19.993	103.827	19.846	12.101	0.528
470.000	309.223	80.006	19.994	103.829	19.845	12.164	0.508
470.500	309.457	80.007	19.994	103.829	19.844	12.250	0.509
471.000	309.696	80.008	19.994	103.830	19.842	12.394	0.494
471.500	309.956	80.007	19.993	103.829	19.844	12.278	0.486
472.000	310.187	80.007	19.996	103.829	19.841	12.435	0.495
472.500	310.450	80.008	19.994	103.830	19.842	12.370	0.492
473.000	310.702	80.007	19.995	103.831	19.843	12.325	0.504
473.500	310.947	80.007	19.994	103.830	19.841	12.431	0.506
474.000	311.217	80.010	19.994	103.829	19.841	12.463	0.506
474.500	311.439	80.008	19.995	103.829	19.841	12.490	0.504
475.000	311.716	80.007	19.994	103.828	19.842	12.389	0.496
475.500	311.960	80.009	19.994	103.828	19.837	12.730	0.510
476.000	312.224	80.008	19.994	103.828	19.838	12.671	0.515
476.500	312.455	80.010	19.994	103.829	19.837	12.749	0.501
477.000	312.792	80.007	19.993	103.829	19.834	12.994	0.531
477.500	313.011	80.008	19.995	103.829	19.834	12.971	0.562
478.000	313.263	80.008	19.993	103.828	19.831	13.192	0.514
478.500	313.515	80.009	19.994	103.828	19.829	13.304	0.488
479.000	313.738	80.009	19.993	103.828	19.823	13.732	0.490
479.500	313.990	80.009	19.993	103.828	19.826	13.533	0.475
480.000	314.283	80.008	19.993	103.827	19.829	13.320	0.510
480.500	314.495	80.008	19.992	103.827	19.825	13.651	0.525
481.000	314.741	80.008	19.994	103.826	19.824	13.694	0.482
481.500	315.045	80.009	19.993	103.826	19.821	13.895	0.504
482.000	315.234	80.009	19.994	103.825	19.818	14.117	0.521
482.500	315.477	80.005	19.994	103.826	19.819	14.062	0.463
483.000	315.747	80.006	19.992	103.825	19.815	14.333	0.473
483.500	315.967	80.005	19.993	103.825	19.814	14.394	0.501
484.000	316.206	80.008	19.994	103.823	19.812	14.579	0.474
484.500	316.435	80.007	19.993	103.819	19.812	14.526	0.463
485.000	316.726	80.007	19.991	103.814	19.810	14.692	0.494
485.500	316.987	80.007	19.994	103.808	19.809	14.795	0.536
486.000	317.224	80.007	19.992	103.805	19.805	15.100	0.525
486.500	317.461	80.005	19.993	103.803	19.805	15.078	0.486
487.000	317.769	80.006	19.993	103.807	19.802	15.286	0.509
487.500	318.000	80.005	19.993	103.812	19.799	15.515	0.542
488.000	318.260	80.005	19.994	103.818	19.800	15.410	0.515
488.500	318.479	80.007	19.994	103.822	19.801	15.339	0.485
489.000	318.751	80.006	19.993	103.827	19.798	15.566	0.485
489.500	319.012	80.007	19.992	103.828	19.798	15.570	0.512
490.000	319.275	80.006	19.993	103.828	19.794	15.839	0.529
490.500	319.550	80.006	19.992	103.827	19.793	15.961	0.531
491.000	319.742	80.005	19.994	103.828	19.791	16.108	0.502
491.500	320.017	80.006	19.993	103.827	19.787	16.365	0.468
492.000	320.256	80.006	19.995	103.828	19.787	16.331	0.491
492.500	320.488	80.008	19.994	103.827	19.784	16.595	0.492
493.000	320.767	80.005	19.993	103.826	19.785	16.476	0.491
493.500	321.016	80.008	19.995	103.823	19.782	16.749	0.520
494.000	321.255	80.004	19.996	103.820	19.782	16.694	0.508
494.500	321.526	80.007	19.992	103.817	19.779	16.918	0.499
495.000	321.780	80.006	19.993	103.818	19.776	17.165	0.518
495.500	322.008	80.005	19.994	103.820	19.778	16.990	0.503
496.000	322.276	80.006	19.994	103.821	19.776	17.188	0.488
496.500	322.510	80.007	19.995	103.826	19.772	17.446	0.499
497.000	322.741	80.003	19.995	103.828	19.768	17.756	0.484
497.500	322.996	80.008	19.994	103.823	19.767	17.792	0.476
498.000	323.277	80.007	19.993	103.815	19.763	18.082	0.511
498.500	323.484	80.008	19.993	103.811	19.762	18.156	0.511
499.000	323.765	80.008	19.994	103.805	19.760	18.298	0.488
499.500	324.024	80.007	19.992	103.802	19.759	18.383	0.514
500.000	324.235	80.008	19.993	103.804	19.757	18.554	0.505
500.500	324.508	80.005	19.994	103.810	19.752	18.874	0.477
501.000	324.757	80.007	19.993	103.812	19.752	18.856	0.503
501.500	325.002	80.006	19.996	103.812	19.747	19.271	0.509
502.000	325.259	80.010	19.994	103.809	19.745	19.373	0.498
502.500	325.548	80.008	19.993	103.807	19.743	19.536	0.524
503.000	325.772	80.006	19.993	103.803	19.739	19.798	0.529
503.500	326.066	80.006	19.994	103.799	19.736	20.020	0.515
504.000	326.321	80.008	19.992	103.799	19.736	20.016	0.533
504.500	326.534	80.007	19.991	103.802	19.732	20.353	0.508
505.000	326.782	80.007	19.995	103.803	19.733	20.286	0.465
505.500	327.063	80.006	19.993	103.804	19.725	20.834	0.496
506.000	327.283	80.006	19.993	103.806	19.725	20.841	0.515
506.500	327.545	80.006	19.993	103.807	19.721	21.124	0.491
507.000	327.820	80.007	19.994	103.805	19.720	21.228	0.509
507.500	328.082	80.008	19.993	103.803	19.717	21.390	0.537
508.000	328.316	80.009	19.994	103.799	19.714	21.624	0.516
508.500	328.572	80.008	19.994	103.802	19.709	21.974	0.493
509.000	328.841	80.007	19.994	103.802	19.707	22.130	0.507
509.500	329.077	80.010	19.994	103.801	19.703	22.447	0.515
510.000	329.337	80.006	19.994	103.802	19.701	22.561	0.501
510.500	329.592	80.008	19.994	103.802	19.697	22.837	0.505
511.000	329.847	80.005	19.993	103.801	19.692	23.251	0.512
511.500	330.085	80.005	19.996	103.797	19.689	23.453	0.501
512.000	330.367	80.009	19.993	103.795	19.686	23.636	0.507
512.500	330.586	80.008	19.993	103.792	19.681	24.031	0.511
513.000	330.873	80.006	19.994	103.792	19.679	24.167	0.504
513.500	331.083	80.007	19.995	103.789	19.673	24.586	0.502
514.000	331.366	80.009	19.994	103.789	19.676	24.375	0.495
514.500	331.608	80.007	19.994	103.794	19.669	24.897	0.509
515.000	331.863	80.008	19.996	103.797	19.666	25.086	0.511
515.500	332.082	80.007	19.994	103.796	19.660	25.539	0.486
516.000	332.362	80.008	19.995	103.797	19.661	25.495	0.487
516.500	332.623	80.007	19.995	103.798	19.652	26.096	0.520
517.000	332.852	80.007	19.995	103.794	19.654	25.974	0.515
517.500	333.141	80.005	19.995	103.792	19.649	26.332	0.504
518.000	333.412	80.006	19.995	103.792	19.645	26.647	0.539
518.500	333.670	80.008	19.994	103.793	19.640	26.986	0.544
519.000	333.911	80.007	19.994	103.792	19.636	27.311	0.514
519.500	334.148	80.007	19.994	103.792	19.630	27.712	0.489
520.000	334.425	80.007	19.995	103.792	19.627	27.960	0.496
520.500	334.681	80.006	19.994	103.792	19.622	28.269	0.523
521.000	334.928	80.005	19.995	103.794	19.617	28.616	0.518
521.500	335.184	80.007	19.994	103.793	19.612	28.979	0.503
522.000	335.470	80.008	19.993	103.794	19.608	29.284	0.522
522.500	335.697	80.007	19.996	103.794	19.605	29.530	0.527
523.000	335.921	80.008	19.994	103.794	19.604	29.581	0.482
523.500	336.175	80.008	19.994	103.790	19.594	30.339	0.464
524.000	336.410	80.009	19.995	103.790	19.589	30.698	0.484
524.500	336.689	80.005	19.994	103.789	19.585	30.959	0.502
525.000	336.900	80.005	19.995	103.788	19.582	31.195	0.502
525.500	337.169	80.007	19.996	103.788	19.576	31.619	0.485
526.000	337.429	80.009	19.994	103.788	19.573	31.806	0.505
526.500	337.672	80.007	19.994	103.788	19.569	32.148	0.516
527.000	337.941	80.008	19.995	103.788	19.564	32.454	0.507
527.500	338.186	80.006	19.995	103.788	19.557	32.984	0.513
528.000	338.462	80.007	19.995	103.788	19.552	33.320	0.518
528.500	338.701	80.006	19.993	103.789	19.548	33.655	0.518
529.000	338.949	80.010	19.996	103.788	19.540	34.189	0.501
529.500	339.196	80.006	19.995	103.795	19.536	34.494	0.491
530.000	339.452	80.006	19.995	103.798	19.530	34.907	0.500
530.500	339.678	80.008	19.994	103.800	19.525	35.277	0.493
531.000	339.953	80.007	19.996	103.800	19.521	35.584	0.491
531.500	340.221	80.008	19.995	103.800	19.514	36.090	0.522
532.000	340.471	80.008	19.995	103.794	19.509	36.460	0.530
532.500	340.736	80.009	19.995	103.791	19.504	36.832	0.516
533.000	340.971	80.008	19.994	103.789	19.495	37.458	0.508
533.500	341.219	80.009	19.995	103.789	19.491	37.763	0.491
534.000	341.490	80.008	19.994	103.790	19.485	38.166	0.501
534.500	341.710	80.009	19.994	103.790	19.479	38.609	0.505
535.000	341.952	80.008	19.995	103.790	19.471	39.199	0.477
535.500	342.195	80.007	19.995	103.789	19.466	39.571	0.473
536.000	342.493	80.008	19.995	103.789	19.458	40.111	0.513
536.500	342.708	80.009	19.994	103.790	19.451	40.677	0.527
537.000	342.982	80.009	19.993	103.790	19.445	41.094	0.501
537.500	343.210	80.008	19.994	103.789	19.440	41.453	0.496
538.000	343.440	80.009	19.993	103.790	19.435	41.829	0.480
538.500	343.693	80.007	19.994	103.791	19.429	42.244	0.471
539.000	343.940	80.008	19.995	103.790	19.422	42.747	0.492
539.500	344.190	80.006	19.994	103.790	19.411	43.560	0.498
540.000	344.442	80.007	19.994	103.791	19.406	43.909	0.499
540.500	344.688	80.006	19.995	103.791	19.398	44.473	0.500
541.000	344.954	80.007	19.995	103.791	19.392	44.942	0.505
541.500	345.214	80.009	19.994	103.790	19.384	45.457	0.519
542.000	345.472	80.007	19.993	103.790	19.376	46.044	0.522
542.500	345.708	80.007	19.995	103.790	19.367	46.729	0.506
543.000	345.973	80.006	19.994	103.790	19.360	47.237	0.497
543.500	346.206	80.007	19.995	103.789	19.352	47.792	0.499
544.000	346.481	80.006	19.995	103.789	19.346	48.243	0.503
544.500	346.718	80.006	19.995	103.788	19.335	49.044	0.510
545.000	346.993	80.006	19.994	103.786	19.329	49.432	0.512
545.500	347.243	80.004	19.995	103.786	19.322	49.941	0.518
546.000	347.479	80.007	19.995	103.785	19.311	50.785	0.505
546.500	347.724	80.007	19.996	103.785	19.304	51.283	0.484
547.000	347.975	80.004	19.999	103.787	19.295	51.926	0.489
547.500	348.226	80.006	19.994	103.788	19.285	52.620	0.499
548.000	348.479	80.007	19.996	103.788	19.277	53.240	0.503
548.500	348.730	80.007	19.997	103.788	19.268	53.883	0.504
549.000	348.938	80.007	19.996	103.788	19.261	54.404	0.481
549.500	349.234	80.007	19.994	103.788	19.252	55.041	0.482
550.000	349.465	80.006	19.994	103.785	19.240	55.893	0.515
550.500	349.736	80.006	19.995	103.786	19.234	56.321	0.514
551.000	349.967	80.006	19.994	103.786	19.224	57.055	0.503
551.500	350.204	80.007	19.994	103.786	19.215	57.668	0.485
552.000	350.482	80.007	19.994	103.787	19.206	58.334	0.491
552.500	350.734	80.008	19.995	103.789	19.199	58.847	0.523
553.000	350.986	80.010	19.994	103.789	19.190	59.459	0.517
553.500	351.212	80.009	19.993	103.788	19.179	60.318	0.491
554.000	351.484	80.007	19.993	103.788	19.170	60.971	0.488
554.500	351.713	80.008	19.994	103.788	19.159	61.746	0.499
555.000	351.980	80.010	19.993	103.788	19.148	62.542	0.498
555.500	352.209	80.008	19.993	103.787	19.138	63.233	0.496
556.000	352.492	80.007	19.991	103.788	19.130	63.810	0.504
556.500	352.703	80.009	19.993	103.787	19.123	64.311	0.503
557.000	352.989	80.008	19.994	103.785	19.109	65.343	0.496
557.500	353.227	80.008	19.992	103.780	19.101	65.924	0.510
558.000	353.481	80.009	19.994	103.779	19.093	66.522	0.507
558.500	353.761	80.008	19.993	103.777	19.080	67.465	0.513
559.000	354.025	80.007	19.993	103.778	19.071	68.097	0.540
559.500	354.256	80.010	19.994	103.779	19.058	68.991	0.520
560.000	354.530	80.009	19.991	103.783	19.048	69.750	0.500
560.500	354.736	80.010	19.994	103.784	19.038	70.449	0.492
561.000	354.978	80.011	19.993	103.784	19.027	71.284	0.464
561.500	355.221	80.008	19.994	103.777	19.017	71.971	0.466
562.000	355.470	80.009	19.994	103.770	19.006	72.791	0.488
562.500	355.704	80.011	19.993	103.765	18.996	73.480	0.488
563.000	356.009	80.010	19.993	103.759	18.985	74.329	0.511
563.500	356.232	80.016	19.992	103.754	18.973	75.188	0.533
564.000	356.495	80.008	19.994	103.755	18.960	76.073	0.507
564.500	356.736	80.013	19.992	103.759	18.949	76.907	0.495
565.000	356.995	80.010	19.994	103.761	18.936	77.806	0.502
565.500	357.246	80.008	19.993	103.761	18.925	78.635	0.505
566.000	357.509	80.008	19.994	103.763	18.915	79.389	0.512
566.500	357.774	80.007	19.994	103.763	18.904	80.172	0.521
567.000	358.045	80.007	19.994	103.759	18.889	81.209	0.532
567.500	358.287	80.007	19.993	103.755	18.879	81.929	0.525
568.000	358.518	80.008	19.993	103.753	18.869	82.705	0.493
568.500	358.760	80.006	19.994	103.751	18.854	83.753	0.473
569.000	359.022	80.006	19.993	103.749	18.844	84.449	0.488
569.500	359.282	80.008	19.993	103.748	18.832	85.317	0.513
570.000	359.548	80.007	19.994	103.748	18.821	86.168	0.524
570.500	359.788	80.007	19.994	103.748	18.807	87.161	0.516
571.000	360.014	80.006	19.992	103.748	18.795	88.035	0.486
571.500	360.284	80.007	19.994	103.748	18.786	88.642	0.481
572.000	360.542	80.007	19.992	103.749	18.772	89.650	0.513
572.500	360.817	80.007	19.994	103.749	18.760	90.530	0.531
573.000	361.063	80.007	19.993	103.749	18.751	91.211	0.527
573.500	361.308	80.008	19.993	103.749	18.739	92.082	0.506
574.000	361.558	80.007	19.993	103.749	18.725	93.067	0.492
574.500	361.839	80.007	19.993	103.748	18.714	93.851	0.513
575.000	362.069	80.005	19.992	103.747	18.704	94.555	0.521
575.500	362.327	80.006	19.993	103.747	18.692	95.452	0.499
576.000	362.567	80.006	19.994	103.747	18.679	96.396	0.493
576.500	362.825	80.005	19.993	103.747	18.667	97.210	0.498
577.000	363.069	80.007	19.993	103.747	18.655	98.095	0.500
577.500	363.326	80.006	19.993	103.747	18.641	99.091	0.501
578.000	363.571	80.006	19.994	103.746	18.628	100.069	0.501
578.500	363.825	80.007	19.993	103.747	18.618	100.801	0.501
579.000	364.080	80.006	19.994	103.745	18.608	101.524	0.504
579.500	364.331	80.005	19.993	103.743	18.596	102.394	0.507
580.000	364.614	80.006	19.993	103.743	18.582	103.406	0.520
580.500	364.838	80.006	19.993	103.741	18.570	104.225	0.521
581.000	365.102	80.007	19.994	103.735	18.559	105.047	0.497
581.500	365.360	80.007	19.993	103.734	18.546	105.955	0.505
582.000	365.592	80.006	19.993	103.734	18.535	106.779	0.506
582.500	365.871	80.006	19.995	103.733	18.525	107.527	0.501
583.000	366.093	80.005	19.995	103.735	18.510	108.564	0.506
583.500	366.378	80.007	19.994	103.741	18.499	109.354	0.504
584.000	366.618	80.007	19.993	103.739	18.487	110.256	0.516
584.500	366.866	80.007	19.993	103.736	18.475	111.117	0.507
585.000	367.109	80.007	19.994	103.730	18.464	111.933	0.490
585.500	367.391	80.007	19.993	103.725	18.452	112.789	0.508
586.000	367.620	80.008	19.993	103.718	18.440	113.645	0.518
586.500	367.892	80.008	19.992	103.715	18.430	114.358	0.506
587.000	368.156	80.007	19.994	103.713	18.420	115.105	0.519
587.500	368.415	80.007	19.994	103.713	18.408	115.915	0.529
588.000	368.633	80.008	19.994	103.712	18.399	116.584	0.500
588.500	368.908	80.007	19.992	103.713	18.388	117.420	0.485
589.000	369.191	80.009	19.994	103.715	18.380	117.970	0.526
589.500	369.427	80.008	19.994	103.720	18.370	118.654	0.539
590.000	369.719	80.008	19.994	103.722	18.359	119.485	0.524
590.500	369.938	80.009	19.994	103.722	18.349	120.166	0.519
591.000	370.229	80.007	19.993	103.721	18.339	120.904	0.510
591.500	370.450	80.008	19.995	103.718	18.333	121.343	0.511
592.000	370.720	80.006	19.994	103.714	18.323	122.048	0.502
592.500	370.967	80.008	19.993	103.711	18.313	122.800	0.505
593.000	371.193	80.009	19.993	103.711	18.302	123.586	0.495
593.500	371.502	80.009	19.993	103.710	18.294	124.122	0.504
594.000	371.730	80.008	19.993	103.711	18.288	124.587	0.536
594.500	372.006	80.007	19.994	103.710	18.280	125.159	0.520
595.000	372.246	80.008	19.993	103.709	18.272	125.737	0.510
595.500	372.536	80.008	19.993	103.707	18.265	126.244	0.523
596.000	372.756	80.007	19.993	103.706	18.260	126.612	0.520
596.500	373.040	80.007	19.994	103.705	18.249	127.370	0.507
597.000	373.332	80.007	19.993	103.704	18.242	127.886	0.540
597.500	373.547	80.007	19.993	103.700	18.237	128.252	0.542
598.000	373.799	80.006	19.994	103.702	18.233	128.572	0.487
598.500	374.073	80.006	19.993	103.703	18.226	129.051	0.496
599.000	374.333	80.007	19.994	103.704	18.216	129.804	0.530
599.500	374.575	80.007	19.992	103.705	18.210	130.229	0.518
600.000	374.805	80.007	19.994	103.708	18.206	130.512	0.487
600.500	375.077	80.006	19.993	103.705	18.204	130.609	0.487
601.000	375.329	80.006	19.993	103.701	18.197	131.159	0.513
601.500	375.593	80.006	19.994	103.700	18.190	131.659	0.520
602.000	375.820	80.005	19.994	103.695	18.188	131.816	0.504
602.500	376.110	80.006	19.994	103.692	18.183	132.142	0.504
603.000	376.362	80.005	19.994	103.691	18.180	132.367	0.529
603.500	376.599	80.007	19.993	103.691	18.177	132.586	0.516
604.000	376.865	80.005	19.993	103.686	18.175	132.719	0.496
604.500	377.113	80.004	19.993	103.685	18.174	132.781	0.508
605.000	377.396	80.008	19.994	103.683	18.171	133.055	0.522
605.500	377.648	80.007	19.994	103.679	18.167	133.342	0.533
606.000	377.918	80.006	19.994	103.677	18.167	133.295	0.529
606.500	378.129	80.006	19.993	103.678	18.161	133.714	0.502
607.000	378.388	80.006	19.994	103.677	18.162	133.704	0.476
607.500	378.638	80.007	19.995	103.676	18.161	133.733	0.490
608.000	378.917	80.006	19.994	103.676	18.162	133.702	0.519
608.500	379.151	80.007	19.995	103.675	18.161	133.717	0.521
609.000	379.400	80.006	19.996	103.675	18.159	133.856	0.498
609.500	379.707	80.006	19.995	103.674	18.159	133.866	0.519
610.000	379.945	80.006	19.994	103.674	18.161	133.714	0.551
610.500	380.164	80.007	19.994	103.674	18.163	133.573	0.501
611.000	380.451	80.006	19.994	103.674	18.162	133.641	0.482
611.500	380.724	80.007	19.995	103.673	18.164	133.527	0.533
612.000	380.964	80.007	19.993	103.673	18.169	133.194	0.536
612.500	381.239	80.007	19.994	103.673	18.169	133.146	0.514
613.000	381.477	80.007	19.994	103.673	18.170	133.077	0.514
613.500	381.729	80.007	19.994	103.672	18.176	132.633	0.502
614.000	381.975	80.008	19.994	103.673	18.176	132.671	0.494
614.500	382.247	80.009	19.993	103.673	18.181	132.259	0.508
615.000	382.485	80.007	19.994	103.673	18.185	131.976	0.514
615.500	382.725	80.008	19.994	103.674	18.189	131.713	0.494
616.000	382.960	80.007	19.994	103.674	18.194	131.369	0.477
616.500	383.240	80.008	19.993	103.674	18.197	131.179	0.495
617.000	383.482	80.008	19.994	103.674	18.205	130.605	0.519
617.500	383.761	80.009	19.994	103.674	18.208	130.343	0.521
618.000	384.005	80.008	19.993	103.674	18.214	129.940	0.522
618.500	384.269	80.007	19.994	103.674	18.221	129.414	0.516
619.000	384.519	80.008	19.994	103.674	18.228	128.872	0.511
619.500	384.777	80.007	19.992	103.674	18.237	128.229	0.511
620.000	385.008	80.008	19.992	103.674	18.244	127.710	0.498
620.500	385.267	80.007	19.994	103.675	18.248	127.425	0.489
621.000	385.529	80.008	19.993	103.675	18.258	126.768	0.505
621.500	385.775	80.007	19.993	103.675	18.265	126.244	0.515
622.000	385.997	80.009	19.993	103.674	18.269	125.918	0.488
622.500	386.244	80.008	19.994	103.674	18.278	125.306	0.468
623.000	386.532	80.007	19.995	103.674	18.288	124.585	0.502
623.500	386.787	80.008	19.994	103.673	18.296	124.017	0.539
624.000	386.997	80.007	19.995	103.673	18.306	123.286	0.504
624.500	387.257	80.007	19.994	103.672	18.314	122.719	0.468
625.000	387.524	80.007	19.994	103.672	18.321	122.208	0.498
625.500	387.781	80.009	19.993	103.672	18.332	121.412	0.525
626.000	388.010	80.009	19.994	103.673	18.342	120.698	0.505
626.500	388.281	80.007	19.995	103.675	18.351	120.058	0.493
627.000	388.537	80.008	19.994	103.678	18.361	119.297	0.513
627.500	388.782	80.009	19.993	103.681	18.371	118.627	0.514
628.000	389.010	80.006	19.994	103.681	18.382	117.842	0.487
628.500	389.293	80.009	19.995	103.679	18.391	117.126	0.492
629.000	389.549	80.008	19.994	103.676	18.401	116.397	0.525
629.500	389.785	80.008	19.994	103.674	18.410	115.787	0.516
630.000	390.018	80.007	19.994	103.671	18.422	114.895	0.481
630.500	390.264	80.008	19.994	103.671	18.431	114.274	0.474
631.000	390.545	80.009	19.993	103.671	18.445	113.275	0.503
631.500	390.794	80.007	19.995	103.673	18.454	112.618	0.528
632.000	391.022	80.008	19.993	103.673	18.464	111.878	0.503
632.500	391.308	80.007	19.994	103.672	18.478	110.906	0.496
633.000	391.549	80.008	19.993	103.672	18.490	110.000	0.521
633.500	391.818	80.009	19.993	103.672	18.502	109.129	0.519
634.000	392.085	80.008	19.994	103.671	18.515	108.192	0.523
634.500	392.303	80.009	19.994	103.672	18.523	107.623	0.510
635.000	392.579	80.008	19.995	103.675	18.538	106.539	0.490
635.500	392.795	80.009	19.995	103.676	18.550	105.696	0.494
636.000	393.060	80.009	19.994	103.677	18.559	105.052	0.487
636.500	393.324	80.009	19.994	103.677	18.572	104.096	0.505
637.000	393.618	80.008	19.994	103.680	18.583	103.322	0.543
637.500	393.853	80.009	19.994	103.680	18.595	102.407	0.544
638.000	394.105	80.009	19.995	103.683	18.608	101.484	0.508
638.500	394.360	80.008	19.995	103.689	18.620	100.619	0.497
639.000	394.601	80.008	19.994	103.694	18.629	99.988	0.502
639.500	394.854	80.009	19.994	103.691	18.640	99.162	0.495
640.000	395.128	80.009	19.995	103.691	18.651	98.411	0.510
640.500	395.382	80.009	19.996	103.693	18.662	97.583	0.528
641.000	395.640	80.009	19.995	103.692	18.675	96.667	0.520
641.500	395.876	80.010	19.994	103.692	18.686	95.848	0.503
642.000	396.186	80.010	19.995	103.698	18.696	95.159	0.520
642.500	396.374	80.008	19.995	103.703	18.711	94.063	0.522
643.000	396.627	80.010	19.994	103.703	18.722	93.267	0.470
643.500	396.869	80.009	19.995	103.705	18.730	92.708	0.468
644.000	397.132	80.010	19.995	103.705	18.745	91.612	0.500
644.500	397.410	80.009	19.994	103.706	18.753	91.014	0.523
645.000	397.608	80.009	19.995	103.706	18.765	90.136	0.509
645.500	397.903	80.009	19.994	103.706	18.776	89.345	0.484
646.000	398.156	80.010	19.995	103.707	18.788	88.534	0.520
646.500	398.406	80.008	19.994	103.708	18.801	87.564	0.526
647.000	398.672	80.009	19.994	103.709	18.810	86.890	0.510
647.500	398.931	80.010	19.994	103.709	18.818	86.314	0.521
648.000	399.180	80.008	19.995	103.708	18.827	85.725	0.516
648.500	399.420	80.007	19.992	103.707	18.839	84.865	0.498
649.000	399.686	80.006	19.995	103.708	18.848	84.200	0.497
649.500	399.931	80.008	19.995	103.714	18.859	83.401	0.509
650.000	400.179	80.008	19.995	103.717	18.867	82.800	0.502
650.500	400.403	80.008	19.994	103.717	18.878	82.028	0.483
651.000	400.669	80.008	19.994	103.717	18.891	81.084	0.481
651.500	400.925	80.008	19.995	103.717	18.900	80.401	0.506
652.000	401.192	80.008	19.994	103.712	18.907	79.941	0.522
652.500	401.429	80.009	19.994	103.710	18.916	79.284	0.513
653.000	401.711	80.007	19.994	103.712	18.925	78.610	0.512
653.500	401.946	80.008	19.994	103.713	18.933	78.028	0.518
654.000	402.184	80.006	19.993	103.714	18.943	77.360	0.495
654.500	402.448	80.007	19.994	103.716	18.952	76.644	0.488
655.000	402.702	80.007	19.994	103.716	18.959	76.140	0.510
655.500	402.991	80.006	19.994	103.716	18.968	75.496	0.530
656.000	403.235	80.007	19.994	103.715	18.978	74.804	0.537
656.500	403.502	80.007	19.995	103.718	18.987	74.147	0.522
657.000	403.727	80.006	19.995	103.717	18.995	73.558	0.501
657.500	403.979	80.007	19.992	103.719	19.004	72.933	0.485
658.000	404.248	80.007	19.995	103.722	19.012	72.345	0.499
658.500	404.490	80.007	19.994	103.725	19.020	71.731	0.516
659.000	404.719	80.008	19.993	103.723	19.029	71.084	0.491
659.500	404.998	80.006	19.994	103.724	19.035	70.667	0.490
660.000	405.285	80.006	19.993	103.722	19.044	70.067	0.537
660.500	405.525	80.007	19.994	103.720	19.049	69.684	0.546
661.000	405.750	80.006	19.994	103.723	19.053	69.407	0.496
661.500	405.999	80.008	19.994	103.727	19.063	68.667	0.469
662.000	406.302	80.007	19.994	103.730	19.071	68.075	0.513
662.500	406.538	80.007	19.993	103.735	19.078	67.590	0.546
663.000	406.803	80.008	19.994	103.739	19.082	67.305	0.521
663.500	407.043	80.007	19.994	103.738	19.088	66.845	0.503
664.000	407.291	80.007	19.994	103.737	19.098	66.112	0.496
664.500	407.560	80.007	19.994	103.735	19.104	65.676	0.503
665.000	407.830	80.006	19.993	103.734	19.107	65.482	0.528
665.500	408.108	80.008	19.994	103.736	19.113	65.035	0.543
666.000	408.313	80.006	19.994	103.737	19.117	64.782	0.516
666.500	408.534	80.006	19.993	103.736	19.123	64.354	0.455
667.000	408.818	80.007	19.993	103.738	19.131	63.744	0.466
667.500	409.057	80.006	19.994	103.735	19.134	63.564	0.514
668.000	409.340	80.006	19.994	103.733	19.141	63.058	0.522
668.500	409.571	80.008	19.993	103.735	19.141	63.013	0.518
669.000	409.832	80.008	19.994	103.735	19.150	62.395	0.503
669.500	410.077	80.007	19.994	103.737	19.152	62.210	0.499
670.000	410.338	80.007	19.994	103.744	19.160	61.646	0.506
670.500	410.629	80.007	19.994	103.745	19.161	61.554	0.529
671.000	410.874	80.008	19.994	103.746	19.168	61.099	0.544
671.500	411.135	80.007	19.993	103.747	19.174	60.681	0.521
672.000	411.388	80.007	19.995	103.747	19.177	60.419	0.510
672.500	411.656	80.008	19.994	103.747	19.181	60.173	0.518
673.000	411.887	80.008	19.994	103.747	19.186	59.752	0.510
673.500	412.171	80.008	19.993	103.746	19.188	59.618	0.507
674.000	412.428	80.007	19.994	103.747	19.194	59.232	0.528
674.500	412.668	80.006	19.994	103.745	19.199	58.833	0.519
675.000	412.909	80.007	19.994	103.744	19.201	58.695	0.489
675.500	413.153	80.007	19.994	103.744	19.204	58.485	0.483
676.000	413.433	80.006	19.994	103.746	19.208	58.205	0.505
676.500	413.679	80.007	19.995	103.747	19.209	58.122	0.525
677.000	413.921	80.005	19.995	103.749	19.215	57.664	0.507
677.500	414.146	80.006	19.993	103.751	19.220	57.331	0.478
678.000	414.418	80.005	19.994	103.751	19.224	57.010	0.482
678.500	414.660	80.005	19.994	103.751	19.226	56.890	0.505
679.000	414.901	80.007	19.993	103.750	19.228	56.758	0.498
679.500	415.146	80.006	19.994	103.750	19.231	56.561	0.485
680.000	415.391	80.007	19.994	103.750	19.234	56.297	0.488
680.500	415.653	80.006	19.993	103.751	19.240	55.870	0.499
681.000	415.911	80.007	19.994	103.751	19.240	55.862	0.514
681.500	416.174	80.006	19.992	103.752	19.245	55.507	0.520
682.000	416.394	80.006	19.993	103.752	19.248	55.288	0.501
682.500	416.664	80.005	19.993	103.753	19.250	55.133	0.486
683.000	416.905	80.008	19.994	103.753	19.254	54.901	0.501
683.500	417.173	80.006	19.994	103.754	19.253	54.906	0.510
684.000	417.424	80.007	19.994	103.754	19.255	54.782	0.514
684.500	417.674	80.006	19.993	103.754	19.260	54.456	0.509
685.000	417.972	80.006	19.992	103.754	19.257	54.627	0.524
685.500	418.205	80.006	19.993	103.754	19.263	54.205	0.539
686.000	418.436	80.006	19.994	103.754	19.265	54.089	0.498
686.500	418.705	80.008	19.993	103.754	19.266	53.965	0.482
687.000	418.953	80.007	19.992	103.753	19.268	53.876	0.508
687.500	419.210	80.006	19.994	103.753	19.270	53.700	0.511
688.000	419.487	80.007	19.992	103.753	19.270	53.690	0.520
688.500	419.710	80.008	19.994	103.753	19.272	53.600	0.517
689.000	420.003	80.008	19.992	103.753	19.275	53.375	0.508
689.500	420.220	80.007	19.994	103.753	19.278	53.118	0.513
690.000	420.497	80.008	19.993	103.753	19.280	53.016	0.502
690.500	420.768	80.008	19.994	103.753	19.278	53.135	0.521
691.000	421.004	80.009	19.994	103.752	19.281	52.899	0.528
691.500	421.255	80.007	19.994	103.752	19.285	52.642	0.497
692.000	421.516	80.009	19.993	103.751	19.286	52.545	0.499
692.500	421.740	80.008	19.993	103.750	19.284	52.721	0.499
693.000	422.020	80.006	19.996	103.750	19.288	52.395	0.495
693.500	422.282	80.008	19.993	103.750	19.287	52.457	0.523
694.000	422.511	80.009	19.994	103.750	19.293	52.072	0.517
694.500	422.782	80.009	19.993	103.750	19.289	52.320	0.495
695.000	423.020	80.009	19.993	103.749	19.292	52.148	0.504
695.500	423.294	80.007	19.994	103.749	19.292	52.128	0.510
696.000	423.518	80.009	19.993	103.749	19.294	52.012	0.505
696.500	423.795	80.009	19.994	103.749	19.295	51.888	0.500
697.000	424.065	80.009	19.992	103.749	19.296	51.811	0.524
697.500	424.317	80.010	19.995	103.749	19.295	51.895	0.534
698.000	424.573	80.008	19.993	103.748	19.296	51.847	0.515
698.500	424.806	80.008	19.993	103.749	19.297	51.784	0.499
699.000	425.040	80.008	19.994	103.749	19.297	51.769	0.478
699.500	425.294	80.009	19.993	103.750	19.299	51.646	0.478
700.000	425.528	80.009	19.993	103.750	19.299	51.627	0.488
700.500	425.786	80.006	19.993	103.750	19.302	51.401	0.490
701.000	426.048	80.010	19.994	103.750	19.300	51.545	0.506
701.500	426.309	80.009	19.995	103.750	19.303	51.355	0.521
702.000	426.566	80.007	19.995	103.750	19.306	51.130	0.521
702.500	426.819	80.009	19.993	103.752	19.305	51.187	0.514
703.000	427.052	80.007	19.995	103.753	19.304	51.265	0.498
703.500	427.297	80.009	19.993	103.755	19.308	50.958	0.482
704.000	427.557	80.008	19.993	103.758	19.305	51.147	0.491
704.500	427.836	80.007	19.994	103.758	19.309	50.905	0.522
705.000	428.058	80.007	19.994	103.757	19.306	51.075	0.521
705.500	428.348	80.009	19.994	103.757	19.310	50.831	0.507
706.000	428.580	80.008	19.994	103.755	19.309	50.882	0.517
706.500	428.896	80.008	19.995	103.754	19.309	50.921	0.535
707.000	429.090	80.007	19.994	103.755	19.309	50.914	0.529
707.500	429.329	80.008	19.994	103.755	19.309	50.895	0.472
708.000	429.632	80.009	19.995	103.755	19.310	50.854	0.488
708.500	429.884	80.008	19.993	103.754	19.309	50.887	0.548
709.000	430.083	80.008	19.995	103.755	19.312	50.698	0.503
709.500	430.345	80.008	19.995	103.759	19.311	50.761	0.456
710.000	430.633	80.007	19.995	103.760	19.312	50.703	0.505
710.500	430.872	80.008	19.994	103.759	19.317	50.309	0.539
711.000	431.130	80.007	19.995	103.760	19.314	50.502	0.512
711.500	431.366	80.007	19.994	103.758	19.315	50.481	0.495
712.000	431.650	80.009	19.994	103.753	19.316	50.389	0.506
712.500	431.841	80.010	19.994	103.752	19.315	50.427	0.498
713.000	432.142	80.008	19.994	103.754	19.312	50.684	0.484
713.500	432.385	80.008	19.995	103.754	19.318	50.253	0.518
714.000	432.645	80.010	19.994	103.753	19.319	50.193	0.523
714.500	432.928	80.009	19.994	103.752	19.322	49.985	0.523
715.000	433.156	80.009	19.994	103.752	19.318	50.212	0.527
715.500	433.446	80.008	19.995	103.749	19.317	50.307	0.515
716.000	433.692	80.010	19.994	103.749	19.318	50.230	0.527
716.500	433.974	80.008	19.992	103.750	19.318	50.205	0.532
717.000	434.251	80.009	19.993	103.750	19.317	50.300	0.543
717.500	434.477	80.010	19.993	103.750	19.318	50.260	0.531
718.000	434.784	80.010	19.994	103.751	19.319	50.144	0.518
718.500	435.033	80.009	19.995	103.752	19.317	50.339	0.544
719.000	435.242	80.009	19.994	103.753	19.315	50.424	0.507
719.500	435.559	80.011	19.994	103.753	19.315	50.471	0.492
720.000	435.793	80.010	19.994	103.753	19.318	50.232	0.539
720.500	436.010	80.010	19.994	103.753	19.320	50.132	0.502
721.000	436.315	80.010	19.996	103.751	19.318	50.260	0.487
721.500	436.566	80.010	19.994	103.749	19.316	50.372	0.539
722.000	436.818	80.010	19.995	103.749	19.320	50.092	0.529
722.500	437.061	80.011	19.994	103.752	19.318	50.218	0.499
723.000	437.342	80.009	19.994	103.755	19.318	50.209	0.509
723.500	437.603	80.010	19.993	103.758	19.320	50.133	0.533
724.000	437.876	80.010	19.994	103.759	19.320	50.101	0.538
724.500	438.122	80.010	19.993	103.759	19.321	50.052	0.527
725.000	438.397	80.009	19.994	103.758	19.318	50.222	0.520
725.500	438.679	80.009	19.995	103.755	19.318	50.220	0.539
726.000	438.904	80.008	19.994	103.753	19.319	50.190	0.532
726.500	439.189	80.008	19.993	103.753	19.318	50.250	0.508
727.000	439.444	80.009	19.995	103.752	19.319	50.177	0.525
727.500	439.669	80.009	19.994	103.751	19.318	50.238	0.510
728.000	439.919	80.009	19.994	103.751	19.320	50.090	0.478
728.500	440.192	80.010	19.994	103.751	19.319	50.205	0.499
729.000	440.450	80.007	19.995	103.750	19.322	49.970	0.527
729.500	440.694	80.007	19.996	103.750	19.321	50.011	0.516
730.000	440.998	80.007	19.995	103.750	19.322	49.975	0.525
730.500	441.256	80.006	19.995	103.752	19.323	49.847	0.555
731.000	441.481	80.006	19.995	103.752	19.324	49.845	0.522
731.500	441.737	80.007	19.994	103.753	19.323	49.916	0.482
732.000	441.991	80.006	19.995	103.753	19.325	49.774	0.496
732.500	442.262	80.007	19.994	103.753	19.323	49.861	0.517
733.000	442.524	80.006	19.994	103.753	19.323	49.913	0.529
733.500	442.787	80.007	19.994	103.752	19.324	49.800	0.529
734.000	443.031	80.006	19.994	103.754	19.324	49.793	0.516
734.500	443.302	80.008	19.996	103.755	19.324	49.846	0.510
735.000	443.580	80.006	19.995	103.756	19.327	49.606	0.531
735.500	443.798	80.007	19.995	103.756	19.326	49.647	0.522
736.000	444.068	80.006	19.996	103.757	19.325	49.749	0.492
736.500	444.319	80.007	19.995	103.757	19.324	49.801	0.505
737.000	444.607	80.006	19.994	103.761	19.323	49.910	0.530
737.500	444.834	80.006	19.995	103.762	19.330	49.391	0.527
738.000	445.088	80.007	19.995	103.762	19.332	49.214	0.498
738.500	445.332	80.006	19.995	103.766	19.334	49.086	0.490
739.000	445.581	80.005	19.995	103.765	19.333	49.192	0.496
739.500	445.853	80.006	19.995	103.762	19.333	49.147	0.507
740.000	446.124	80.006	19.995	103.760	19.334	49.059	0.532
740.500	446.342	80.009	19.994	103.760	19.336	48.971	0.516
741.000	446.616	80.008	19.994	103.755	19.336	48.937	0.491
741.500	446.866	80.007	19.995	103.754	19.339	48.760	0.508
742.000	447.097	80.008	19.994	103.755	19.340	48.664	0.502
742.500	447.367	80.008	19.993	103.756	19.340	48.669	0.490
743.000	447.632	80.008	19.994	103.758	19.341	48.553	0.518
743.500	447.882	80.008	19.994	103.759	19.342	48.537	0.525
744.000	448.166	80.007	19.994	103.760	19.343	48.461	0.525
744.500	448.438	80.007	19.994	103.760	19.345	48.315	0.545
745.000	448.685	80.007	19.993	103.761	19.348	48.066	0.538
745.500	448.911	80.008	19.992	103.762	19.346	48.235	0.496
746.000	449.166	80.007	19.994	103.762	19.348	48.047	0.477
746.500	449.476	80.007	19.993	103.764	19.349	48.006	0.523
747.000	449.696	80.008	19.992	103.768	19.352	47.761	0.547
747.500	449.953	80.007	19.993	103.770	19.350	47.919	0.503
748.000	450.216	80.006	19.993	103.768	19.352	47.779	0.499
748.500	450.449	80.007	19.994	103.768	19.357	47.447	0.508
749.000	450.717	80.007	19.992	103.768	19.356	47.525	0.498
749.500	450.955	80.007	19.993	103.764	19.359	47.244	0.503
750.000	451.238	80.007	19.993	103.760	19.361	47.157	0.513
750.500	451.483	80.007	19.993	103.759	19.364	46.911	0.524
751.000	451.768	80.006	19.993	103.758	19.364	46.937	0.529
751.500	451.972	80.008	19.993	103.755	19.365	46.882	0.510
752.000	452.272	80.007	19.995	103.753	19.367	46.681	0.496
752.500	452.526	80.009	19.993	103.754	19.371	46.435	0.529
753.000	452.757	80.008	19.993	103.755	19.371	46.384	0.519
753.500	452.996	80.008	19.994	103.757	19.375	46.139	0.478
754.000	453.306	80.008	19.993	103.758	19.377	45.969	0.509
754.500	453.552	80.009	19.993	103.760	19.380	45.796	0.552
755.000	453.843	80.008	19.993	103.762	19.382	45.596	0.546
755.500	454.070	80.009	19.993	103.762	19.386	45.354	0.528
756.000	454.332	80.008	19.994	103.759	19.388	45.178	0.504
756.500	454.620	80.006	19.994	103.758	19.390	45.071	0.519
757.000	454.839	80.006	19.994	103.758	19.391	44.982	0.529
757.500	455.113	80.007	19.995	103.757	19.394	44.732	0.500
758.000	455.350	80.007	19.994	103.755	19.398	44.496	0.502
758.500	455.598	80.008	19.994	103.756	19.397	44.551	0.498
759.000	455.896	80.009	19.993	103.756	19.402	44.170	0.515
759.500	456.116	80.006	19.993	103.752	19.406	43.923	0.532
760.000	456.369	80.007	19.996	103.751	19.408	43.719	0.495
760.500	456.615	80.008	19.993	103.752	19.413	43.375	0.486
761.000	456.886	80.006	19.994	103.756	19.415	43.221	0.508
761.500	457.151	80.009	19.994	103.759	19.417	43.099	0.526
762.000	457.401	80.007	19.994	103.762	19.417	43.097	0.526
762.500	457.635	80.006	19.995	103.765	19.420	42.842	0.499
763.000	457.893	80.006	19.994	103.766	19.424	42.574	0.488
763.500	458.172	80.008	19.993	103.764	19.426	42.441	0.515
764.000	458.407	80.007	19.994	103.762	19.429	42.201	0.525
764.500	458.672	80.008	19.994	103.760	19.437	41.657	0.507
765.000	458.936	80.008	19.994	103.757	19.440	41.415	0.514
765.500	459.174	80.006	19.993	103.757	19.443	41.206	0.516
766.000	459.451	80.008	19.994	103.755	19.443	41.203	0.509
766.500	459.713	80.007	19.993	103.755	19.449	40.795	0.527
767.000	459.986	80.007	19.995	103.758	19.453	40.458	0.537
767.500	460.230	80.007	19.993	103.760	19.455	40.367	0.526
768.000	460.458	80.008	19.994	103.764	19.458	40.148	0.494
768.500	460.745	80.007	19.992	103.768	19.460	39.959	0.494
769.000	461.018	80.008	19.995	103.773	19.466	39.526	0.538
769.500	461.249	80.008	19.995	103.777	19.467	39.467	0.532
770.000	461.542	80.009	19.994	103.781	19.475	38.925	0.514
770.500	461.797	80.008	19.994	103.782	19.480	38.538	0.536
771.000	462.043	80.008	19.995	103.780	19.481	38.444	0.524
771.500	462.278	80.008	19.995	103.775	19.484	38.261	0.491
772.000	462.578	80.007	19.993	103.771	19.491	37.749	0.508
772.500	462.792	80.007	19.994	103.766	19.492	37.686	0.525
773.000	463.075	80.009	19.995	103.761	19.495	37.442	0.505
773.500	463.327	80.008	19.994	103.758	19.503	36.849	0.516
774.000	463.565	80.009	19.993	103.757	19.508	36.511	0.512
774.500	463.840	80.009	19.993	103.755	19.515	35.988	0.501
775.000	464.084	80.010	19.992	103.755	19.517	35.840	0.516
775.500	464.351	80.009	19.994	103.757	19.522	35.506	0.515
776.000	464.574	80.009	19.993	103.759	19.525	35.293	0.501
776.500	464.866	80.010	19.995	103.763	19.532	34.805	0.503
777.000	465.108	80.011	19.994	103.765	19.534	34.656	0.525
777.500	465.371	80.011	19.994	103.763	19.539	34.306	0.519
778.000	465.649	80.009	19.994	103.762	19.543	33.958	0.523
778.500	465.905	80.010	19.993	103.762	19.548	33.625	0.537
779.000	466.128	80.010	19.993	103.760	19.555	33.147	0.507
779.500	466.419	80.010	19.993	103.759	19.560	32.743	0.497
780.000	466.655	80.011	19.993	103.759	19.566	32.346	0.520
780.500	466.914	80.010	19.993	103.759	19.570	32.065	0.511
781.000	467.148	80.010	19.993	103.757	19.573	31.843	0.494
781.500	467.404	80.010	19.993	103.756	19.578	31.463	0.491
782.000	467.671	80.009	19.992	103.755	19.585	30.941	0.506
782.500	467.958	80.009	19.992	103.757	19.588	30.770	0.539
783.000	468.161	80.009	19.993	103.756	19.592	30.458	0.522
783.500	468.413	80.009	19.993	103.756	19.599	29.921	0.472
784.000	468.650	80.009	19.994	103.755	19.608	29.311	0.472
784.500	468.915	80.010	19.994	103.754	19.610	29.125	0.496
785.000	469.175	80.009	19.994	103.755	19.614	28.875	0.514
785.500	469.436	80.007	19.993	103.756	19.620	28.424	0.523
786.000	469.701	80.009	19.993	103.755	19.625	28.036	0.523
786.500	469.967	80.008	19.993	103.757	19.634	27.434	0.529
787.000	470.206	80.008	19.993	103.757	19.636	27.239	0.518
787.500	470.470	80.008	19.993	103.756	19.643	26.781	0.504
788.000	470.735	80.008	19.994	103.757	19.645	26.629	0.516
788.500	471.017	80.009	19.994	103.758	19.651	26.157	0.538
789.000	471.232	80.008	19.994	103.761	19.656	25.811	0.522
789.500	471.485	80.009	19.994	103.766	19.663	25.343	0.482
790.000	471.719	80.009	19.994	103.767	19.668	24.991	0.478
790.500	471.971	80.008	19.995	103.771	19.674	24.551	0.486
791.000	472.258	80.008	19.992	103.778	19.678	24.229	0.512
791.500	472.514	80.008	19.994	103.779	19.684	23.772	0.541
792.000	472.782	80.007	19.994	103.776	19.688	23.542	0.534
792.500	473.005	80.007	19.994	103.776	19.694	23.083	0.508
793.000	473.287	80.008	19.995	103.773	19.699	22.686	0.498
793.500	473.584	80.008	19.994	103.768	19.705	22.257	0.542
794.000	473.849	80.007	19.994	103.766	19.709	22.014	0.570
794.500	474.078	80.007	19.994	103.765	19.715	21.583	0.528
795.000	474.349	80.008	19.995	103.766	19.725	20.847	0.498
795.500	474.615	80.009	19.993	103.769	19.726	20.742	0.519
796.000	474.867	80.008	19.994	103.771	19.734	20.218	0.527
796.500	475.125	80.008	19.994	103.775	19.737	19.940	0.514
797.000	475.376	80.009	19.995	103.782	19.743	19.570	0.509
797.500	475.644	80.008	19.994	103.784	19.743	19.528	0.514
798.000	475.907	80.009	19.993	103.784	19.755	18.686	0.525
798.500	476.151	80.010	19.994	103.781	19.761	18.225	0.519
799.000	476.421	80.008	19.994	103.777	19.762	18.169	0.511
799.500	476.653	80.009	19.994	103.771	19.770	17.615	0.508
800.000	476.909	80.009	19.994	103.768	19.772	17.440	0.495
800.500	477.154	80.010	19.995	103.768	19.776	17.169	0.495
801.000	477.395	80.009	19.994	103.771	19.783	16.668	0.494
801.500	477.692	80.011	19.992	103.774	19.789	16.243	0.512
802.000	477.920	80.009	19.995	103.777	19.790	16.174	0.531
802.500	478.204	80.009	19.993	103.778	19.793	15.918	0.519
803.000	478.459	80.010	19.994	103.777	19.797	15.669	0.526
803.500	478.742	80.009	19.994	103.778	19.800	15.384	0.538
804.000	478.940	80.010	19.994	103.779	19.807	14.936	0.509
804.500	479.183	80.009	19.993	103.781	19.810	14.661	0.461
805.000	479.506	80.010	19.993	103.783	19.817	14.206	0.504
805.500	479.765	80.009	19.995	103.785	19.822	13.829	0.574
806.000	479.981	80.009	19.995	103.785	19.826	13.557	0.528
806.500	480.252	80.007	19.994	103.785	19.831	13.154	0.481
807.000	480.482	80.008	19.993	103.781	19.834	12.986	0.494
807.500	480.747	80.008	19.993	103.780	19.838	12.639	0.498
808.000	481.016	80.007	19.994	103.778	19.842	12.366	0.514
808.500	481.262	80.007	19.993	103.774	19.843	12.285	0.525
809.000	481.534	80.007	19.993	103.769	19.848	11.943	0.517
809.500	481.786	80.007	19.995	103.766	19.849	11.892	0.521
810.000	482.042	80.008	19.994	103.764	19.855	11.424	0.515
810.500	482.311	80.007	19.994	103.765	19.857	11.270	0.516
811.000	482.525	80.007	19.992	103.767	19.863	10.833	0.505
811.500	482.820	80.006	19.994	103.774	19.863	10.892	0.496
812.000	483.047	80.006	19.993	103.778	19.869	10.422	0.515
812.500	483.305	80.007	19.993	103.779	19.872	10.243	0.503
813.000	483.571	80.007	19.994	103.778	19.872	10.191	0.504
813.500	483.809	80.007	19.994	103.779	19.874	10.037	0.514
814.000	484.086	80.006	19.993	103.775	19.876	9.947	0.509
814.500	484.343	80.006	19.993	103.776	19.881	9.545	0.525
815.000	484.578	80.007	19.994	103.780	19.882	9.514	0.513
815.500	484.815	80.007	19.994	103.782	19.886	9.205	0.481
816.000	485.075	80.005	19.994	103.783	19.890	8.902	0.484
816.500	485.335	80.003	19.993	103.787	19.889	8.979	0.509
817.000	485.630	80.007	19.995	103.786	19.894	8.642	0.538
817.500	485.871	80.007	19.994	103.779	19.895	8.583	0.546
818.000	486.090	80.008	19.993	103.772	19.896	8.480	0.498
818.500	486.362	80.007	19.994	103.765	19.897	8.422	0.476
819.000	486.666	80.007	19.995	103.758	19.901	8.133	0.533
819.500	486.876	80.007	19.994	103.757	19.903	7.999	0.545
820.000	487.156	80.006	19.994	103.760	19.907	7.657	0.502
820.500	487.439	80.006	19.994	103.762	19.907	7.685	0.527
821.000	487.717	80.006	19.994	103.767	19.910	7.440	0.562
821.500	487.965	80.005	19.995	103.775	19.913	7.285	0.543
822.000	488.217	80.006	19.994	103.778	19.915	7.137	0.513
822.500	488.464	80.005	19.995	103.779	19.913	7.265	0.500
823.000	488.690	80.005	19.995	103.782	19.919	6.853	0.486
823.500	488.991	80.007	19.995	103.778	19.918	6.862	0.500
824.000	489.241	80.006	19.994	103.772	19.924	6.490	0.539
824.500	489.551	80.005	19.995	103.771	19.924	6.480	0.555
825.000	489.770	80.006	19.994	103.771	19.923	6.561	0.545
825.500	490.004	80.005	19.995	103.772	19.927	6.273	0.492
826.000	490.259	80.007	19.994	103.776	19.928	6.175	0.471
826.500	490.529	80.006	19.993	103.780	19.932	5.888	0.507
827.000	490.770	80.008	19.995	103.781	19.932	5.910	0.518
827.500	491.052	80.004	19.995	103.781	19.932	5.874	0.517
828.000	491.319	80.007	19.995	103.779	19.932	5.872	0.536
828.500	491.545	80.004	19.994	103.772	19.936	5.594	0.521
829.000	491.799	80.006	19.995	103.766	19.938	5.427	0.487
829.500	492.050	80.007	19.995	103.763	19.937	5.541	0.493
830.000	492.361	80.006	19.995	103.763	19.937	5.516	0.534
830.500	492.576	80.007	19.995	103.765	19.941	5.238	0.544
831.000	492.810	80.007	19.995	103.768	19.938	5.417	0.487
831.500	493.080	80.007	19.994	103.768	19.942	5.169	0.477
832.000	493.319	80.006	19.994	103.767	19.942	5.138	0.506
832.500	493.603	80.006	19.994	103.769	19.941	5.212	0.516
833.000	493.856	80.006	19.994	103.766	19.948	4.740	0.531
833.500	494.126	80.006	19.994	103.769	19.947	4.760	0.530
834.000	494.404	80.007	19.994	103.776	19.948	4.742	0.535
834.500	494.677	80.008	19.995	103.775	19.949	4.618	0.550
835.000	494.915	80.007	19.996	103.771	19.951	4.532	0.531
835.500	495.161	80.006	19.995	103.771	19.949	4.617	0.497
836.000	495.476	80.006	19.994	103.770	19.948	4.725	0.522
836.500	495.714	80.006	19.994	103.770	19.951	4.504	0.557
837.000	495.980	80.008	19.994	103.772	19.951	4.485	0.529
837.500	496.200	80.007	19.994	103.775	19.952	4.467	0.496
838.000	496.469	80.008	19.993	103.776	19.956	4.177	0.488
838.500	496.711	80.008	19.994	103.773	19.956	4.140	0.500
839.000	497.017	80.006	19.995	103.769	19.955	4.211	0.529
839.500	497.275	80.007	19.994	103.770	19.954	4.310	0.556
840.000	497.535	80.006	19.992	103.771	19.955	4.252	0.541
840.500	497.777	80.007	19.994	103.774	19.958	3.973	0.510
841.000	498.041	80.008	19.994	103.776	19.958	4.008	0.504
841.500	498.269	80.007	19.993	103.777	19.959	3.943	0.499
842.000	498.574	80.007	19.994	103.774	19.959	3.912	0.512
842.500	498.801	80.008	19.992	103.770	19.957	4.059	0.532
843.000	499.048	80.007	19.993	103.768	19.960	3.870	0.503
843.500	499.288	80.007	19.994	103.765	19.963	3.636	0.481
844.000	499.554	80.007	19.995	103.768	19.961	3.795	0.497
844.500	499.823	80.007	19.993	103.774	19.960	3.829	0.521
845.000	500.041	80.006	19.993	103.778	19.967	3.382	0.511
845.500	500.315	80.007	19.993	103.779	19.961	3.786	0.489
846.000	500.577	80.006	19.993	103.786	19.963	3.620	0.514
846.500	500.834	80.007	19.993	103.785	19.965	3.508	0.527
847.000	501.064	80.007	19.993	103.781	19.965	3.489	0.502
847.500	501.359	80.007	19.994	103.780	19.965	3.480	0.506
848.000	501.581	80.007	19.993	103.780	19.965	3.496	0.521
848.500	501.852	80.005	19.995	103.779	19.967	3.376	0.506
849.000	502.121	80.009	19.994	103.781	19.963	3.648	0.516
849.500	502.348	80.005	19.994	103.784	19.965	3.492	0.518
850.000	502.608	80.005	19.994	103.785	19.966	3.457	0.492
850.500	502.874	80.008	19.994	103.786	19.966	3.388	0.507
851.000	503.122	80.006	19.994	103.784	19.968	3.295	0.520
851.500	503.361	80.007	19.994	103.786	19.967	3.323	0.501
852.000	503.663	80.007	19.993	103.786	19.968	3.256	0.514
852.500	503.868	80.008	19.994	103.784	19.966	3.416	0.524
853.000	504.149	80.007	19.995	103.781	19.965	3.483	0.496
853.500	504.389	80.009	19.994	103.782	19.967	3.368	0.503
854.000	504.656	80.008	19.993	103.782	19.968	3.270	0.514
854.500	504.882	80.008	19.993	103.781	19.969	3.236	0.500
855.000	505.177	80.009	19.993	103.779	19.969	3.217	0.507
855.500	505.437	80.008	19.993	103.779	19.969	3.169	0.538
856.000	505.700	80.008	19.993	103.781	19.971	3.095	0.539
856.500	505.927	80.008	19.993	103.781	19.968	3.287	0.507
857.000	506.192	80.008	19.994	103.780	19.970	3.165	0.491
857.500	506.489	80.008	19.993	103.782	19.965	3.482	0.527
858.000	506.756	80.008	19.994	103.784	19.971	3.083	0.563
858.500	506.995	80.009	19.991	103.778	19.969	3.236	0.535
859.000	507.246	80.009	19.993	103.772	19.969	3.201	0.498
859.500	507.482	80.010	19.992	103.769	19.970	3.105	0.489
860.000	507.749	80.009	19.994	103.772	19.971	3.095	0.495
860.500	508.011	80.009	19.992	103.772	19.972	3.002	0.516
861.000	508.267	80.007	19.993	103.772	19.971	3.071	0.523
861.500	508.528	80.009	19.993	103.776	19.971	3.036	0.517
862.000	508.780	80.007	19.992	103.780	19.976	2.666	0.515
862.500	509.000	80.008	19.992	103.779	19.971	3.059	0.492
863.000	509.295	80.008	19.994	103.781	19.972	2.967	0.493
863.500	509.507	80.009	19.994	103.786	19.972	3.024	0.511
864.000	509.763	80.009	19.992	103.785	19.973	2.922	0.488
864.500	510.046	80.008	19.992	103.784	19.971	3.061	0.504
865.000	510.281	80.009	19.994	103.784	19.977	2.646	0.529
865.500	510.528	80.008	19.995	103.781	19.973	2.939	0.500
866.000	510.795	80.008	19.993	103.778	19.976	2.729	0.498
866.500	511.021	80.010	19.993	103.777	19.975	2.798	0.504
867.000	511.251	80.009	19.994	103.776	19.977	2.595	0.474
867.500	511.547	80.010	19.993	103.772	19.978	2.589	0.491
868.000	511.806	80.008	19.993	103.768	19.974	2.831	0.541
868.500	512.053	80.008	19.994	103.768	19.975	2.758	0.530
869.000	512.321	80.008	19.993	103.771	19.972	2.990	0.510
869.500	512.536	80.007	19.993	103.773	19.973	2.886	0.499
870.000	512.789	80.009	19.992	103.776	19.970	3.097	0.475
870.500	513.055	80.008	19.993	103.781	19.970	3.101	0.494
871.000	513.291	80.008	19.993	103.785	19.974	2.868	0.511
871.500	513.544	80.007	19.993	103.786	19.974	2.815	0.495
872.000	513.816	80.009	19.991	103.786	19.976	2.716	0.506
872.500	514.061	80.008	19.992	103.789	19.974	2.856	0.521
873.000	514.349	80.007	19.993	103.787	19.975	2.781	0.525
873.500	514.594	80.007	19.994	103.787	19.974	2.832	0.533
874.000	514.860	80.007	19.994	103.785	19.976	2.685	0.522
874.500	515.111	80.008	19.992	103.784	19.975	2.738	0.514
875.000	515.370	80.008	19.992	103.783	19.973	2.883	0.514
875.500	515.673	80.007	19.994	103.786	19.977	2.659	0.537
876.000	515.909	80.012	19.992	103.786	19.974	2.828	0.551
876.500	516.160	80.009	19.992	103.788	19.978	2.537	0.513
877.000	516.450	80.009	19.993	103.789	19.975	2.758	0.514
877.500	516.668	80.009	19.992	103.789	19.976	2.724	0.525
878.000	516.945	80.007	19.993	103.786	19.972	3.002	0.502
878.500	517.206	80.007	19.994	103.784	19.974	2.807	0.517
879.000	517.464	80.008	19.993	103.780	19.975	2.752	0.528
879.500	517.711	80.008	19.992	103.777	19.973	2.939	0.512
880.000	517.982	80.009	19.993	103.775	19.974	2.878	0.512
880.500	518.219	80.009	19.993	103.776	19.972	2.990	0.513
881.000	518.484	80.010	19.993	103.777	19.973	2.909	0.505
881.500	518.724	80.008	19.994	103.779	19.974	2.878	0.503
882.000	519.020	80.009	19.994	103.779	19.973	2.925	0.521
882.500	519.266	80.009	19.994	103.776	19.975	2.799	0.539
883.000	519.504	80.010	19.993	103.771	19.975	2.760	0.513
883.500	519.733	80.010	19.993	103.766	19.976	2.675	0.476
884.000	519.986	80.010	19.993	103.758	19.972	2.968	0.475
884.500	520.242	80.010	19.994	103.755	19.972	2.962	0.495
885.000	520.502	80.009	19.993	103.755	19.972	2.958	0.512
885.500	520.786	80.009	19.996	103.753	19.972	2.984	0.530
886.000	521.030	80.011	19.994	103.755	19.974	2.856	0.536
886.500	521.281	80.011	19.993	103.759	19.974	2.872	0.512
887.000	521.525	80.009	19.993	103.764	19.975	2.797	0.495
887.500	521.795	80.008	19.994	103.767	19.974	2.854	0.504
888.000	522.059	80.011	19.993	103.769	19.972	2.958	0.524
888.500	522.301	80.009	19.993	103.773	19.976	2.687	0.520
889.000	522.554	80.008	19.995	103.774	19.970	3.124	0.501
889.500	522.830	80.010	19.994	103.776	19.970	3.098	0.512
890.000	523.093	80.009	19.993	103.776	19.974	2.844	0.533
890.500	523.297	80.008	19.994	103.775	19.973	2.931	0.503
891.000	523.569	80.007	19.993	103.775	19.973	2.896	0.472
891.500	523.808	80.008	19.993	103.775	19.973	2.939	0.494
892.000	524.057	80.009	19.995	103.772	19.969	3.173	0.500
892.500	524.306	80.006	19.996	103.771	19.975	2.748	0.493
893.000	524.604	80.008	19.995	103.775	19.973	2.921	0.522
893.500	524.819	80.007	19.995	103.775	19.976	2.695	0.530
894.000	525.097	80.008	19.995	103.776	19.975	2.781	0.503
894.500	525.363	80.007	19.994	103.775	19.970	3.156	0.518
895.000	525.602	80.007	19.995	103.772	19.976	2.695	0.525
895.500	525.851	80.007	19.994	103.769	19.969	3.171	0.497
896.000	526.074	80.008	19.993	103.765	19.972	2.955	0.480
896.500	526.354	80.008	19.995	103.761	19.974	2.833	0.488
897.000	526.608	80.008	19.994	103.757	19.976	2.711	0.519
897.500	526.851	80.006	19.994	103.758	19.974	2.868	0.515
898.000	527.126	80.008	19.994	103.756	19.970	3.114	0.507
898.500	527.388	80.005	19.995	103.761	19.970	3.124	0.528
899.000	527.624	80.006	19.994	103.761	19.975	2.742	0.518
899.500	527.896	80.007	19.993	103.765	19.973	2.912	0.503
900.000	528.142	80.007	19.995	103.768	19.974	2.874	0.513
900.500	528.388	80.006	19.996	103.772	19.973	2.939	0.505
901.000	528.660	80.006	19.994	103.770	19.976	2.685	0.504
901.500	528.881	80.008	19.993	103.773	19.974	2.854	0.506
902.000	529.166	80.008	19.995	103.777	19.977	2.657	0.500
902.500	529.416	80.006	19.996	103.778	19.977	2.644	0.521
903.000	529.653	80.007	19.993	103.776	19.975	2.762	0.511
903.500	529.903	80.005	19.995	103.774	19.975	2.758	0.487
904.000	530.131	80.008	19.994	103.772	19.977	2.656	0.482
904.500	530.439	80.009	19.993	103.773	19.975	2.758	0.506
905.000	530.690	80.006	19.994	103.773	19.976	2.683	0.547
905.500	530.914	80.006	19.994	103.776	19.975	2.774	0.517
906.000	531.215	80.006	19.995	103.781	19.973	2.920	0.500
906.500	531.447	80.006	19.994	103.780	19.974	2.866	0.529
907.000	531.684	80.008	19.993	103.775	19.977	2.646	0.501
907.500	531.974	80.007	19.994	103.773	19.978	2.583	0.498
908.000	532.190	80.007	19.994	103.770	19.976	2.719	0.516
908.500	532.464	80.006	19.993	103.772	19.978	2.571	0.498
909.000	532.691	80.005	19.994	103.775	19.975	2.784	0.495
909.500	532.957	80.006	19.994	103.780	19.976	2.707	0.497
910.000	533.211	80.008	19.994	103.780	19.973	2.890	0.507
910.500	533.471	80.007	19.995	103.781	19.979	2.496	0.517
911.000	533.692	80.007	19.996	103.778	19.976	2.703	0.498
911.500	533.977	80.006	19.994	103.772	19.979	2.516	0.493
912.000	534.243	80.005	19.995	103.770	19.978	2.534	0.528
912.500	534.495	80.008	19.995	103.773	19.975	2.752	0.535
913.000	534.734	80.007	19.994	103.772	19.975	2.801	0.505
913.500	535.012	80.007	19.995	103.770	19.977	2.591	0.504
914.000	535.300	80.008	19.994	103.775	19.977	2.644	0.541
914.500	535.544	80.005	19.994	103.775	19.975	2.792	0.549
915.000	535.788	80.007	19.995	103.775	19.976	2.679	0.510
915.500	536.026	80.006	19.994	103.777	19.977	2.608	0.485
916.000	536.325	80.007	19.995	103.780	19.975	2.744	0.509
916.500	536.566	80.007	19.995	103.780	19.977	2.624	0.538
917.000	536.802	80.007	19.994	103.782	19.979	2.451	0.508
917.500	537.086	80.007	19.995	103.782	19.978	2.555	0.499
918.000	537.348	80.006	19.996	103.783	19.980	2.437	0.533
918.500	537.608	80.007	19.994	103.783	19.980	2.399	0.534
919.000	537.855	80.007	19.993	103.783	19.980	2.439	0.514
919.500	538.100	80.006	19.995	103.782	19.981	2.368	0.500
920.000	538.362	80.006	19.994	103.782	19.978	2.571	0.500
920.500	538.627	80.007	19.995	103.781	19.979	2.463	0.517
921.000	538.843	80.007	19.995	103.782	19.979	2.459	0.504
921.500	539.118	80.005	19.994	103.779	19.975	2.742	0.486
922.000	539.410	80.005	19.995	103.777	19.977	2.618	0.530
922.500	539.638	80.007	19.995	103.776	19.974	2.815	0.544
923.000	539.898	80.005	19.995	103.777	19.977	2.612	0.504
923.500	540.150	80.007	19.995	103.779	19.973	2.886	0.500
924.000	540.420	80.004	19.995	103.781	19.975	2.762	0.517
924.500	540.646	80.007	19.996	103.784	19.975	2.750	0.509
925.000	540.938	80.006	19.994	103.785	19.978	2.586	0.507
925.500	541.189	80.005	19.995	103.782	19.978	2.551	0.531
926.000	541.421	80.008	19.994	103.777	19.980	2.421	0.513
926.500	541.689	80.005	19.995	103.777	19.978	2.557	0.491
927.000	541.946	80.008	19.994	103.777	19.976	2.675	0.513
927.500	542.186	80.007	19.993	103.774	19.977	2.608	0.511
928.000	542.421	80.006	19.995	103.770	19.976	2.679	0.486
928.500	542.702	80.007	19.994	103.770	19.979	2.447	0.495
929.000	542.983	80.006	19.994	103.769	19.977	2.612	0.539
929.500	543.230	80.007	19.994	103.765	19.976	2.673	0.545
930.000	543.483	80.007	19.994	103.766	19.977	2.646	0.514
930.500	543.753	80.006	19.994	103.770	19.975	2.762	0.511
931.000	543.979	80.006	19.993	103.771	19.981	2.327	0.509
931.500	544.252	80.006	19.995	103.771	19.976	2.695	0.497
932.000	544.485	80.007	19.992	103.774	19.978	2.569	0.502
932.500	544.784	80.008	19.992	103.769	19.975	2.782	0.519
933.000	545.011	80.007	19.993	103.771	19.977	2.618	0.530
933.500	545.236	80.006	19.993	103.774	19.972	2.959	0.489
934.000	545.502	80.005	19.993	103.775	19.972	3.004	0.471
934.500	545.731	80.007	19.992	103.774	19.977	2.602	0.493
935.000	546.024	80.006	19.994	103.775	19.977	2.656	0.509
935.500	546.261	80.005	19.995	103.771	19.976	2.667	0.526
936.000	546.503	80.005	19.994	103.766	19.976	2.699	0.504
936.500	546.725	80.008	19.993	103.764	19.976	2.687	0.471
937.000	547.024	80.007	19.994	103.766	19.976	2.667	0.492
937.500	547.264	80.007	19.994	103.768	19.973	2.921	0.530
938.000	547.523	80.008	19.992	103.772	19.977	2.655	0.519
938.500	547.772	80.008	19.994	103.776	19.979	2.512	0.503
939.000	548.034	80.009	19.993	103.781	19.977	2.614	0.510
939.500	548.296	80.008	19.993	103.784	19.977	2.640	0.518
940.000	548.576	80.009	19.992	103.783	19.977	2.642	0.533
940.500	548.831	80.007	19.994	103.778	19.979	2.508	0.539
941.000	549.046	80.008	19.993	103.775	19.973	2.896	0.502
941.500	549.326	80.010	19.993	103.771	19.980	2.394	0.482
942.000	549.582	80.007	19.993	103.767	19.976	2.703	0.516
942.500	549.834	80.009	19.993	103.767	19.978	2.585	0.522
943.000	550.113	80.009	19.995	103.772	19.978	2.589	0.519
943.500	550.315	80.008	19.993	103.778	19.980	2.380	0.506
944.000	550.605	80.009	19.993	103.780	19.980	2.396	0.487
944.500	550.853	80.009	19.993	103.782	19.981	2.349	0.515
945.000	551.118	80.008	19.992	103.783	19.980	2.382	0.525
945.500	551.389	80.010	19.993	103.779	19.982	2.250	0.525
946.000	551.612	80.009	19.993	103.774	19.981	2.325	0.515
946.500	551.901	80.008	19.996	103.772	19.978	2.573	0.503
947.000	552.122	80.008	19.994	103.768	19.980	2.380	0.511
947.500	552.387	80.008	19.994	103.767	19.978	2.567	0.498
948.000	552.625	80.008	19.994	103.765	19.979	2.457	0.495
948.500	552.888	80.007	19.992	103.765	19.977	2.624	0.502
949.000	553.139	80.009	19.996	103.765	19.977	2.600	0.507
949.500	553.416	80.009	19.994	103.770	19.977	2.590	0.521
950.000	553.680	80.008	19.995	103.773	19.978	2.565	0.535
950.500	553.925	80.008	19.995	103.777	19.977	2.602	0.525
951.000	554.198	80.007	19.994	103.778	19.976	2.679	0.513
951.500	554.453	80.007	19.993	103.776	19.978	2.521	0.523
952.000	554.734	80.008	19.995	103.771	19.979	2.490	0.532
952.500	555.021	80.009	19.994	103.767	19.979	2.496	0.552
953.000	555.255	80.007	19.994	103.768	19.982	2.268	0.545
953.500	555.512	80.008	19.993	103.770	19.982	2.297	0.506
954.000	555.761	80.008	19.994	103.775	19.980	2.423	0.499
954.500	556.031	80.008	19.994	103.777	19.981	2.352	0.512
955.000	556.272	80.007	19.995	103.778	19.982	2.287	0.515
955.500	556.527	80.007	19.993	103.779	19.983	2.226	0.504
956.000	556.801	80.007	19.993	103.773	19.983	2.157	0.512
956.500	557.059	80.009	19.994	103.766	19.978	2.579	0.530
957.000	557.306	80.010	19.993	103.767	19.983	2.228	0.518
957.500	557.579	80.010	19.994	103.772	19.984	2.110	0.512
958.000	557.810	80.009	19.995	103.773	19.982	2.270	0.513
958.500	558.123	80.010	19.994	103.779	19.979	2.449	0.524
959.000	558.363	80.009	19.993	103.789	19.981	2.370	0.548
959.500	558.634	80.010	19.994	103.784	19.982	2.262	0.532
960.000	558.890	80.009	19.994	103.775	19.982	2.264	0.519
960.500	559.140	80.008	19.993	103.768	19.980	2.405	0.517
961.000	559.385	80.008	19.994	103.763	19.983	2.224	0.500
961.500	559.660	80.010	19.992	103.758	19.985	2.041	0.507
962.000	559.865	80.008	19.994	103.761	19.982	2.258	0.500
962.500	560.156	80.010	19.993	103.767	19.982	2.297	0.488
963.000	560.371	80.010	19.993	103.772	19.985	2.071	0.501
963.500	560.597	80.010	19.993	103.777	19.981	2.357	0.473
964.000	560.887	80.010	19.993	103.779	19.978	2.542	0.478
964.500	561.145	80.010	19.993	103.779	19.979	2.514	0.532
965.000	561.406	80.012	19.993	103.778	19.983	2.213	0.534
965.500	561.665	80.011	19.993	103.778	19.980	2.433	0.520
966.000	561.920	80.010	19.993	103.776	19.981	2.305	0.516
966.500	562.159	80.012	19.992	103.774	19.983	2.167	0.504
967.000	562.468	80.011	19.993	103.774	19.985	2.073	0.521
967.500	562.680	80.010	19.993	103.775	19.981	2.328	0.534
968.000	562.941	80.012	19.992	103.773	19.983	2.212	0.497
968.500	563.225	80.012	19.993	103.772	19.983	2.183	0.509
969.000	563.511	80.011	19.992	103.771	19.982	2.281	0.558
969.500	563.756	80.010	19.993	103.770	19.982	2.262	0.550
970.000	564.016	80.011	19.992	103.770	19.981	2.340	0.517
970.500	564.243	80.008	19.993	103.769	19.984	2.110	0.496
971.000	564.512	80.010	19.993	103.767	19.984	2.136	0.491
971.500	564.759	80.010	19.994	103.770	19.981	2.315	0.506
972.000	565.028	80.011	19.992	103.773	19.982	2.281	0.517
972.500	565.253	80.010	19.993	103.775	19.982	2.278	0.506
973.000	565.524	80.008	19.993	103.780	19.982	2.246	0.495
973.500	565.777	80.010	19.993	103.785	19.983	2.228	0.510
974.000	566.027	80.008	19.993	103.786	19.980	2.402	0.513
974.500	566.287	80.009	19.994	103.785	19.981	2.355	0.506
975.000	566.531	80.007	19.993	103.784	19.981	2.303	0.507
975.500	566.809	80.009	19.993	103.780	19.979	2.490	0.513
976.000	567.087	80.009	19.994	103.774	19.981	2.335	0.539
976.500	567.314	80.007	19.994	103.769	19.980	2.410	0.531
977.000	567.588	80.009	19.992	103.764	19.982	2.278	0.503
977.500	567.809	80.007	19.995	103.761	19.982	2.262	0.498
978.000	568.046	80.007	19.995	103.759	19.982	2.277	0.476
978.500	568.337	80.006	19.994	103.761	19.980	2.439	0.493
979.000	568.601	80.007	19.994	103.766	19.980	2.405	0.541
979.500	568.856	80.008	19.996	103.767	19.978	2.569	0.537
980.000	569.106	80.007	19.994	103.767	19.980	2.398	0.512
980.500	569.386	80.009	19.993	103.768	19.980	2.382	0.518
981.000	569.607	80.007	19.994	103.766	19.981	2.358	0.516
981.500	569.883	80.007	19.995	103.764	19.979	2.500	0.499
982.000	570.135	80.007	19.994	103.764	19.978	2.542	0.512
982.500	570.405	80.008	19.994	103.765	19.981	2.329	0.525
983.000	570.643	80.007	19.994	103.768	19.980	2.431	0.515
983.500	570.898	80.007	19.994	103.775	19.980	2.417	0.501
984.000	571.153	80.007	19.993	103.776	19.981	2.366	0.501
984.500	571.415	80.007	19.994	103.778	19.981	2.339	0.514
985.000	571.654	80.007	19.994	103.780	19.981	2.301	0.509
985.500	571.944	80.007	19.994	103.782	19.983	2.224	0.515
986.000	572.191	80.008	19.995	103.780	19.980	2.386	0.533
986.500	572.423	80.004	19.996	103.780	19.982	2.242	0.508
987.000	572.708	80.006	19.995	103.779	19.982	2.264	0.497
987.500	572.974	80.008	19.994	103.777	19.981	2.307	0.534
988.000	573.209	80.009	19.995	103.772	19.981	2.343	0.526
988.500	573.506	80.007	19.994	103.769	19.981	2.305	0.516
989.000	573.720	80.007	19.993	103.769	19.980	2.394	0.522
989.500	573.999	80.006	19.995	103.769	19.980	2.376	0.502
990.000	574.268	80.008	19.994	103.769	19.979	2.498	0.521
990.500	574.534	80.009	19.993	103.769	19.980	2.429	0.542
991.000	574.768	80.007	19.994	103.774	19.982	2.230	0.517
991.500	575.042	80.008	19.994	103.774	19.981	2.344	0.504
992.000	575.337	80.008	19.994	103.778	19.981	2.352	0.538
992.500	575.566	80.008	19.992	103.779	19.979	2.482	0.547
993.000	575.805	80.007	19.995	103.781	19.981	2.368	0.496
993.500	576.057	80.008	19.994	103.778	19.982	2.299	0.480
994.000	576.350	80.008	19.993	103.776	19.983	2.209	0.518
994.500	576.595	80.009	19.994	103.774	19.982	2.248	0.542
995.000	576.833	80.008	19.994	103.775	19.983	2.199	0.510
995.500	577.115	80.007	19.994	103.775	19.981	2.341	0.501
996.000	577.355	80.008	19.995	103.774	19.980	2.437	0.521
996.500	577.597	80.009	19.994	103.773	19.979	2.481	0.503
997.000	577.888	80.008	19.994	103.776	19.983	2.187	0.508
997.500	578.133	80.008	19.994	103.777	19.980	2.426	0.534
998.000	578.392	80.007	19.994	103.779	19.981	2.349	0.520
998.500	578.621	80.008	19.993	103.781	19.980	2.376	0.496
999.000	578.897	80.008	19.993	103.781	19.983	2.179	0.497
999.500	579.169	80.008	19.993	103.780	19.982	2.292	0.526
1000.000	579.403	80.007	19.994	103.780	19.982	2.262	0.527
1000.500	579.648	80.009	19.993	103.779	19.981	2.370	0.492
1001.000	579.917	80.006	19.995	103.780	19.983	2.213	0.496
1001.500	580.168	80.007	19.993	103.779	19.983	2.167	0.517
1002.000	580.399	80.007	19.993	103.775	19.980	2.406	0.501
1002.500	580.634	80.007	19.994	103.771	19.981	2.309	0.474
1003.000	580.910	80.006	19.993	103.765	19.981	2.309	0.489
1003.500	581.200	80.006	19.994	103.764	19.981	2.335	0.538
1004.000	581.417	80.008	19.993	103.766	19.982	2.270	0.536
1004.500	581.659	80.007	19.993	103.768	19.980	2.410	0.483
1005.000	581.930	80.007	19.994	103.772	19.984	2.097	0.486
1005.500	582.202	80.005	19.994	103.779	19.983	2.193	0.528
1006.000	582.489	80.007	19.994	103.783	19.983	2.164	0.551
1006.500	582.706	80.006	19.994	103.786	19.982	2.246	0.531
1007.000	582.970	80.007	19.993	103.790	19.986	1.996	0.493
1007.500	583.212	80.006	19.994	103.791	19.981	2.325	0.494
1008.000	583.495	80.007	19.994	103.791	19.987	1.894	0.515
1008.500	583.718	80.005	19.994	103.791	19.985	2.020	0.516
1009.000	583.984	80.007	19.997	103.790	19.981	2.307	0.498
1009.500	584.257	80.007	19.996	103.789	19.980	2.374	0.514
1010.000	584.504	80.007	19.994	103.787	19.980	2.380	0.530
1010.500	584.729	80.006	19.996	103.783	19.984	2.094	0.496
1011.000	585.005	80.005	19.995	103.780	19.983	2.214	0.486
1011.500	585.204	80.007	19.995	103.776	19.985	2.014	0.487
1012.000	585.501	80.006	19.996	103.773	19.983	2.183	0.486
1012.500	585.788	80.007	19.994	103.772	19.984	2.108	0.540
1013.000	586.017	80.007	19.995	103.775	19.984	2.134	0.550
1013.500	586.253	80.008	19.994	103.778	19.981	2.348	0.490
1014.000	586.550	80.008	19.995	103.781	19.980	2.421	0.499
1014.500	586.779	80.007	19.995	103.785	19.983	2.165	0.530
1015.000	587.053	80.007	19.996	103.785	19.981	2.339	0.514
1015.500	587.305	80.008	19.995	103.785	19.979	2.459	0.515
1016.000	587.563	80.009	19.994	103.786	19.986	1.994	0.518
1016.500	587.798	80.006	19.994	103.783	19.980	2.376	0.501
1017.000	588.048	80.008	19.995	103.781	19.982	2.287	0.489
1017.500	588.337	80.008	19.993	103.780	19.982	2.291	0.512
1018.000	588.537	80.009	19.994	103.778	19.981	2.329	0.514
1018.500	588.808	80.009	19.994	103.776	19.982	2.258	0.480
1019.000	589.074	80.010	19.994	103.778	19.984	2.130	0.504
1019.500	589.316	80.009	19.995	103.780	19.982	2.275	0.522
1020.000	589.616	80.008	19.994	103.780	19.983	2.163	0.526
1020.500	589.876	80.008	19.994	103.778	19.983	2.173	0.551
1021.000	590.142	80.009	19.993	103.776	19.984	2.084	0.543
1021.500	590.385	80.008	19.994	103.774	19.984	2.120	0.517
1022.000	590.611	80.010	19.995	103.770	19.986	1.968	0.489
1022.500	590.870	80.009	19.993	103.769	19.984	2.116	0.477
1023.000	591.083	80.008	19.993	103.770	19.983	2.199	0.478
1023.500	591.374	80.009	19.992	103.770	19.984	2.100	0.487
1024.001	591.626	80.007	19.995	103.770	19.984	2.130	0.523
1024.501	591.879	80.010	19.994	103.768	19.984	2.100	0.525
1025.000	592.128	80.008	19.993	103.769	19.984	2.152	0.504
1025.499	592.398	80.010	19.993	103.771	19.981	2.343	0.511
1025.999	592.629	80.008	19.994	103.774	19.984	2.118	0.510
1026.499	592.908	80.009	19.994	103.776	19.983	2.215	0.505
1026.999	593.150	80.009	19.994	103.778	19.983	2.193	0.515
1027.499	593.400	80.007	19.994	103.776	19.982	2.278	0.506
1028.000	593.667	80.008	19.994	103.775	19.982	2.260	0.504
1028.501	593.921	80.008	19.994	103.769	19.983	2.161	0.519
1029.000	594.206	80.009	19.995	103.770	19.982	2.232	0.530
1029.499	594.439	80.009	19.994	103.769	19.981	2.334	0.529
1029.999	594.695	80.009	19.994	103.770	19.985	2.073	0.504
1030.499	594.958	80.008	19.994	103.767	19.982	2.252	0.504
1030.999	595.180	80.009	19.993	103.769	19.982	2.279	0.502
1031.499	595.450	80.008	19.994	103.765	19.982	2.287	0.489
1031.999	595.720	80.007	19.995	103.763	19.984	2.116	0.516
1032.499	595.992	80.009	19.993	103.761	19.984	2.153	0.540
1032.999	596.246	80.009	19.993	103.763	19.981	2.368	0.534
1033.500	596.475	80.008	19.995	103.761	19.982	2.281	0.505
1034.000	596.687	80.008	19.995	103.760	19.981	2.334	0.462
1034.499	597.009	80.009	19.995	103.759	19.981	2.344	0.488
1034.999	597.259	80.008	19.994	103.764	19.981	2.356	0.553
1035.500	597.513	80.009	19.994	103.767	19.982	2.260	0.538
1036.001	597.749	80.009	19.995	103.772	19.983	2.213	0.496
1036.500	598.023	80.010	19.995	103.778	19.980	2.431	0.500
1036.999	598.242	80.008	19.994	103.785	19.981	2.325	0.502
1037.499	598.530	80.009	19.994	103.785	19.980	2.402	0.500
1038.000	598.783	80.009	19.994	103.782	19.986	1.998	0.524
1038.500	599.018	80.009	19.995	103.777	19.983	2.193	0.515
1038.999	599.256	80.009	19.994	103.775	19.983	2.203	0.480
1039.499	599.538	80.010	19.995	103.769	19.985	2.040	0.496
1039.999	599.780	80.010	19.995	103.765	19.985	2.034	0.522
1040.499	600.051	80.009	19.994	103.762	19.984	2.148	0.519
1040.999	600.320	80.009	19.994	103.763	19.986	2.010	0.526
1041.499	600.543	80.010	19.995	103.761	19.982	2.270	0.516
1041.999	600.781	80.010	19.995	103.763	19.981	2.329	0.477
1042.500	601.049	80.009	19.994	103.765	19.983	2.179	0.484
1043.001	601.310	80.009	19.994	103.767	19.984	2.106	0.517
1043.500	601.543	80.009	19.994	103.766	19.983	2.218	0.512
1043.999	601.770	80.011	19.994	103.766	19.984	2.148	0.477
1044.499	602.043	80.010	19.994	103.766	19.983	2.209	0.480
1044.999	602.306	80.009	19.994	103.764	19.982	2.248	0.518
1045.499	602.599	80.009	19.994	103.765	19.982	2.232	0.546
1045.999	602.798	80.009	19.993	103.766	19.983	2.216	0.525
1046.499	603.012	80.011	19.993	103.768	19.984	2.136	0.453
1046.999	603.321	80.011	19.993	103.771	19.982	2.285	0.467
1047.499	603.570	80.010	19.993	103.778	19.985	2.065	0.540
1047.999	603.842	80.009	19.995	103.780	19.985	2.043	0.540
1048.499	604.051	80.008	19.994	103.781	19.982	2.244	0.501
1048.999	604.322	80.010	19.993	103.781	19.983	2.158	0.480
1049.499	604.577	80.010	19.993	103.782	19.985	2.055	0.503
1049.999	604.846	80.010	19.994	103.781	19.982	2.258	0.526
1050.499	605.091	80.009	19.993	103.781	19.982	2.232	0.519
1050.999	605.336	80.009	19.994	103.786	19.981	2.364	0.502
1051.499	605.613	80.008	19.994	103.787	19.980	2.402	0.506
1051.999	605.843	80.009	19.993	103.786	19.982	2.297	0.514
1052.499	606.120	80.009	19.994	103.783	19.981	2.313	0.507
1052.999	606.356	80.009	19.993	103.780	19.983	2.168	0.510
1053.499	606.656	80.009	19.994	103.776	19.983	2.219	0.524
1053.999	606.854	80.008	19.994	103.775	19.984	2.112	0.517
1054.499	607.174	80.008	19.993	103.772	19.980	2.388	0.508
1054.999	607.400	80.008	19.993	103.772	19.981	2.366	0.532
1055.500	607.640	80.008	19.994	103.771	19.981	2.335	0.506
1056.000	607.891	80.008	19.994	103.773	19.984	2.085	0.479
1056.499	608.157	80.008	19.994	103.770	19.984	2.132	0.504
1056.999	608.426	80.007	19.994	103.772	19.982	2.244	0.526
1057.499	608.669	80.007	19.994	103.774	19.984	2.122	0.524
1057.999	608.904	80.008	19.993	103.774	19.981	2.329	0.495
1058.499	609.153	80.006	19.995	103.772	19.981	2.341	0.481
1058.999	609.448	80.007	19.993	103.774	19.980	2.431	0.514
1059.499	609.648	80.009	19.994	103.776	19.980	2.394	0.519
1059.999	609.925	80.008	19.993	103.776	19.981	2.343	0.486
1060.499	610.175	80.008	19.992	103.778	19.978	2.569	0.502
1060.999	610.405	80.007	19.994	103.782	19.976	2.697	0.504
1061.499	610.698	80.008	19.993	103.782	19.978	2.549	0.501
1062.000	610.989	80.007	19.993	103.780	19.977	2.600	0.553
1062.500	611.183	80.007	19.994	103.782	19.977	2.598	0.535
1062.999	611.449	80.007	19.993	103.783	19.975	2.768	0.472
1063.499	611.734	80.009	19.994	103.784	19.977	2.592	0.505
1063.999	611.985	80.007	19.994	103.785	19.977	2.602	0.544
1064.499	612.219	80.007	19.993	103.785	19.978	2.551	0.510
1064.999	612.481	80.007	19.993	103.781	19.975	2.789	0.491
1065.499	612.741	80.007	19.994	103.778	19.977	2.651	0.509
1065.999	613.038	80.008	19.993	103.774	19.978	2.541	0.539
1066.500	613.247	80.007	19.994	103.771	19.975	2.736	0.531
1067.000	613.556	80.007	19.994	103.770	19.977	2.593	0.512
1067.499	613.731	80.007	19.994	103.771	19.978	2.575	0.502
1067.999	614.025	80.007	19.993	103.770	19.980	2.406	0.477
1068.499	614.275	80.006	19.991	103.770	19.977	2.599	0.506
1068.999	614.566	80.007	19.994	103.770	19.979	2.475	0.542
1069.499	614.842	80.007	19.995	103.773	19.978	2.569	0.554
1069.999	615.077	80.008	19.994	103.776	19.978	2.520	0.539
1070.499	615.349	80.006	19.994	103.781	19.978	2.530	0.509
1070.999	615.596	80.007	19.994	103.787	19.979	2.451	0.513
1071.499	615.827	80.006	19.994	103.790	19.977	2.602	0.499
1071.999	616.082	80.007	19.994	103.788	19.976	2.667	0.482
1072.499	616.324	80.006	19.994	103.784	19.978	2.583	0.492
1073.000	616.539	80.008	19.994	103.778	19.977	2.602	0.477
1073.500	616.854	80.008	19.994	103.772	19.976	2.726	0.493
1074.000	617.105	80.006	19.994	103.766	19.979	2.494	0.548
1074.500	617.307	80.008	19.996	103.761	19.978	2.575	0.509
1074.999	617.573	80.007	19.994	103.757	19.981	2.317	0.460
1075.499	617.845	80.008	19.994	103.756	19.976	2.673	0.503
1075.999	618.078	80.008	19.995	103.756	19.979	2.506	0.522
1076.499	618.326	80.008	19.995	103.761	19.980	2.400	0.493
1076.999	618.546	80.007	19.994	103.768	19.977	2.594	0.475
1077.499	618.815	80.007	19.994	103.774	19.980	2.437	0.479
1077.999	619.110	80.006	19.995	103.778	19.980	2.392	0.526
1078.499	619.372	80.007	19.995	103.781	19.977	2.612	0.561
1078.999	619.580	80.008	19.995	103.781	19.977	2.640	0.514
1079.499	619.889	80.007	19.994	103.780	19.981	2.341	0.493
1079.999	620.142	80.007	19.994	103.780	19.973	2.951	0.539
1080.499	620.374	80.007	19.995	103.781	19.977	2.606	0.524
1080.999	620.639	80.009	19.995	103.784	19.983	2.223	0.491
1081.499	620.876	80.007	19.994	103.783	19.980	2.376	0.500
1081.999	621.187	80.006	19.996	103.782	19.972	2.990	0.525
1082.499	621.424	80.007	19.995	103.778	19.988	1.852	0.548
1082.999	621.671	80.007	19.995	103.775	19.964	3.534	0.516
1083.499	621.896	80.007	19.995	103.772	19.974	2.872	0.478
1083.999	622.190	80.008	19.995	103.767	19.990	1.707	0.495
1084.499	622.401	80.007	19.994	103.764	19.985	2.069	0.512
1084.999	622.635	80.007	19.995	103.764	19.977	2.640	0.475
1085.499	622.934	80.008	19.994	103.764	19.987	1.937	0.489
1085.999	623.209	80.006	19.994	103.766	19.977	2.601	0.553
1086.499	623.414	80.007	19.994	103.773	19.978	2.571	0.527
1087.000	623.685	80.007	19.995	103.775	19.974	2.866	0.479
1087.500	623.974	80.006	19.995	103.775	19.976	2.705	0.518
1087.999	624.189	80.007	19.994	103.772	19.977	2.662	0.532
1088.500	624.444	80.007	19.994	103.769	19.981	2.372	0.487
1089.000	624.763	80.008	19.995	103.764	19.976	2.667	0.521
1089.499	624.920	80.007	19.995	103.765	19.976	2.707	0.525
1089.999	625.157	80.007	19.995	103.769	19.978	2.541	0.435
1090.499	625.527	80.006	19.995	103.774	19.980	2.425	0.500
1090.999	625.737	80.007	19.994	103.777	19.979	2.471	0.593
1091.499	626.035	80.007	19.994	103.781	19.977	2.654	0.544
1091.999	626.224	80.005	19.994	103.783	19.976	2.669	0.498
1092.499	626.504	80.007	19.995	103.780	19.977	2.591	0.478
1093.000	626.615	80.008	19.994	103.779	19.981	2.347	0.430
1093.500	627.082	80.006	19.994	103.778	19.979	2.488	0.485
1093.999	627.190	80.007	19.995	103.775	19.978	2.553	0.577
1094.499	627.491	80.006	19.994	103.777	19.979	2.510	0.492
1094.999	627.773	80.008	19.996	103.780	19.979	2.449	0.496
1095.499	628.078	80.007	19.994	103.781	19.979	2.518	0.585
1095.999	628.246	80.007	19.995	103.783	19.977	2.593	0.530
1096.499	628.771	80.007	19.994	103.787	19.980	2.433	0.583
1096.999	628.143	80.005	19.993	103.786	19.977	2.642	0.295
1097.499	629.312	80.006	19.994	103.785	19.982	2.296	0.219
1097.999	629.907	80.008	19.995	103.785	19.976	2.666	1.152
1098.499	629.300	80.005	19.994	103.782	19.980	2.410	0.876
1099.000	629.324	80.006	19.994	103.781	19.980	2.380	-0.298
1099.500	630.094	80.006	19.995	103.780	19.977	2.591	0.106
1099.999	630.217	80.008	19.994	103.779	19.979	2.483	0.844
1100.500	630.466	80.007	19.995	103.777	19.980	2.416	0.633
1101.000	630.650	80.007	19.995	103.779	19.981	2.305	0.403
1101.499	630.981	80.008	19.995	103.780	19.978	2.540	0.474
1101.999	631.308	80.009	19.994	103.780	19.978	2.530	0.586
1102.499	631.592	80.007	19.996	103.780	19.978	2.561	0.634
1103.000	631.761	80.009	19.995	103.780	19.976	2.727	0.532
1103.500	632.046	80.008	19.995	103.780	19.978	2.549	0.454
1103.999	632.253	80.009	19.994	103.780	19.975	2.774	0.473
1104.499	632.605	80.008	19.994	103.781	19.975	2.758	0.526
1104.999	632.843	80.009	19.995	103.784	19.977	2.607	0.574
1105.499	633.011	80.008	19.994	103.785	19.978	2.587	0.498
1106.000	633.305	80.009	19.993	103.786	19.977	2.618	0.434
1106.500	633.574	80.008	19.994	103.786	19.976	2.717	0.512
1107.000	633.819	80.008	19.995	103.786	19.978	2.559	0.538
1107.501	634.168	80.008	19.993	103.785	19.978	2.589	0.554
1108.001	634.335	80.008	19.994	103.785	19.979	2.514	0.555
1108.500	634.537	80.007	19.995	103.784	19.979	2.459	0.443
1108.999	634.909	80.006	19.995	103.784	19.980	2.427	0.471
1109.499	635.099	80.006	19.994	103.785	19.977	2.652	0.568
1110.000	635.351	80.008	19.994	103.786	19.977	2.634	0.502
1110.500	635.637	80.006	19.995	103.786	19.977	2.599	0.490
1111.000	635.894	80.007	19.995	103.785	19.976	2.729	0.540
1111.500	636.192	80.007	19.994	103.784	19.977	2.624	0.549
1111.999	636.397	80.007	19.994	103.782	19.980	2.416	0.529
1112.500	636.688	80.008	19.995	103.781	19.978	2.524	0.500
1113.000	636.929	80.008	19.994	103.781	19.980	2.439	0.514
1113.499	637.095	80.006	19.993	103.781	19.976	2.703	0.469
1113.999	637.420	80.008	19.994	103.783	19.977	2.613	0.449
1114.499	637.672	80.006	19.994	103.786	19.978	2.557	0.534
1114.999	637.921	80.008	19.994	103.788	19.979	2.463	0.540
1115.500	638.226	80.007	19.994	103.789	19.975	2.764	0.528
1116.000	638.421	80.007	19.993	103.789	19.976	2.676	0.526
1116.499	638.722	80.009	19.993	103.789	19.977	2.640	0.498
1116.999	638.927	80.008	19.993	103.786	19.976	2.731	0.502
1117.499	639.200	80.008	19.994	103.783	19.976	2.680	0.492
1117.999	639.464	80.009	19.994	103.781	19.973	2.900	0.507
1118.499	639.636	80.009	19.993	103.781	19.973	2.922	0.486
1119.000	639.988	80.007	19.994	103.782	19.975	2.784	0.480
1119.501	640.201	80.009	19.993	103.785	19.976	2.699	0.545
1120.000	640.417	80.008	19.993	103.787	19.975	2.745	0.497
1120.499	640.724	80.009	19.994	103.789	19.971	3.038	0.476
1120.999	640.962	80.008	19.993	103.790	19.973	2.926	0.534
1121.499	641.229	80.009	19.993	103.790	19.976	2.691	0.525
1121.999	641.445	80.009	19.994	103.791	19.974	2.855	0.494
1122.499	641.725	80.010	19.993	103.791	19.975	2.770	0.489
1123.000	642.000	80.008	19.993	103.790	19.975	2.782	0.525
1123.500	642.238	80.008	19.992	103.790	19.975	2.741	0.534
1123.999	642.480	80.010	19.993	103.790	19.975	2.802	0.497
1124.499	642.729	80.010	19.992	103.790	19.978	2.583	0.486
1124.999	643.042	80.009	19.993	103.789	19.977	2.656	0.527
1125.499	643.282	80.010	19.993	103.789	19.974	2.849	0.557
1125.999	643.497	80.009	19.994	103.789	19.975	2.746	0.504
1126.500	643.796	80.009	19.993	103.789	19.973	2.935	0.485
1127.000	644.033	80.009	19.993	103.789	19.973	2.898	0.525
1127.499	644.286	80.009	19.993	103.789	19.976	2.666	0.513
1127.999	644.517	80.008	19.993	103.789	19.978	2.589	0.487
1128.499	644.779	80.007	19.992	103.789	19.974	2.811	0.489
1128.999	645.042	80.009	19.995	103.789	19.974	2.831	0.509
1129.499	645.262	80.009	19.994	103.793	19.976	2.666	0.504
1129.999	645.518	80.009	19.994	103.794	19.977	2.597	0.479
1130.499	645.790	80.009	19.994	103.795	19.974	2.857	0.502
1130.999	646.011	80.010	19.993	103.796	19.972	2.987	0.511
1131.500	646.266	80.008	19.993	103.795	19.975	2.750	0.484
1132.001	646.485	80.009	19.993	103.792	19.978	2.540	0.475
1132.500	646.781	80.010	19.993	103.791	19.976	2.679	0.495
1132.999	647.053	80.008	19.995	103.791	19.974	2.878	0.542
1133.499	647.290	80.009	19.993	103.791	19.974	2.841	0.539
1133.999	647.567	80.007	19.993	103.791	19.973	2.949	0.512
1134.499	647.781	80.008	19.992	103.790	19.975	2.798	0.502
1134.999	648.039	80.007	19.994	103.790	19.968	3.286	0.481
1135.499	648.320	80.007	19.993	103.790	19.963	3.664	0.506
1136.000	648.592	80.007	19.993	103.790	19.960	3.869	0.546
1136.500	648.836	80.006	19.993	103.790	19.971	3.085	0.534
1136.999	649.088	80.009	19.994	103.790	19.977	2.646	0.506
1137.500	649.375	80.005	19.994	103.789	19.974	2.813	0.517
1138.001	649.564	80.006	19.994	103.789	19.971	3.044	0.507
1138.501	649.892	80.007	19.994	103.789	19.976	2.693	0.497
1139.000	650.082	80.007	19.994	103.789	19.973	2.949	0.518
1139.499	650.395	80.007	19.994	103.788	19.975	2.752	0.510
1139.999	650.692	80.007	19.994	103.788	19.972	2.965	0.556
1140.499	650.889	80.008	19.993	103.788	19.975	2.772	0.552
1140.999	651.098	80.007	19.994	103.788	19.972	2.979	0.450
1141.499	651.406	80.007	19.995	103.787	19.973	2.912	0.462
1141.999	651.668	80.006	19.993	103.787	19.974	2.855	0.544
1142.499	651.917	80.007	19.994	103.787	19.974	2.819	0.541
1142.999	652.132	80.007	19.995	103.787	19.974	2.827	0.487
1143.500	652.432	80.005	19.994	103.788	19.972	2.965	0.489
1144.000	652.639	80.007	19.994	103.788	19.973	2.902	0.511
1144.499	652.951	80.008	19.994	103.788	19.973	2.939	0.513
1144.999	653.145	80.008	19.994	103.789	19.969	3.195	0.512
1145.499	653.471	80.008	19.993	103.789	19.974	2.835	0.513
1145.999	653.671	80.006	19.994	103.789	19.973	2.880	0.523
1146.499	654.028	80.006	19.992	103.789	19.971	3.042	0.542
1147.000	654.168	80.007	19.993	103.789	19.972	3.004	0.527
1147.501	654.656	80.006	19.994	103.789	19.969	3.233	0.562
1148.000	654.527	80.009	19.993	103.789	19.971	3.048	0.493
1148.499	654.853	80.008	19.994	103.789	19.975	2.780	0.278
1148.999	655.443	80.008	19.994	103.789	19.972	2.993	0.557
1149.499	655.337	80.011	19.992	103.789	19.971	3.050	0.700
1149.999	655.782	80.008	19.993	103.790	19.969	3.223	0.412
1150.499	656.163	80.008	19.994	103.791	19.974	2.859	0.583
1151.000	656.290	80.008	19.993	103.790	19.972	2.975	0.667
1151.500	656.620	80.007	19.993	103.791	19.977	2.658	0.482
1151.999	656.732	80.008	19.993	103.790	19.972	2.963	0.449
1152.499	657.073	80.007	19.994	103.789	19.976	2.735	0.447
1152.999	657.157	80.007	19.993	103.788	19.974	2.867	0.439
1153.499	657.645	80.008	19.994	103.789	19.972	2.963	0.499
1154.000	657.820	80.006	19.994	103.788	19.975	2.741	0.617
1154.500	658.056	80.008	19.993	103.788	19.976	2.680	0.536
1155.000	658.369	80.007	19.993	103.788	19.977	2.605	0.480
1155.500	658.638	80.008	19.993	103.788	19.974	2.845	0.565
1155.999	658.883	80.007	19.993	103.788	19.975	2.800	0.548
1156.499	659.115	80.008	19.993	103.788	19.974	2.813	0.496
1156.999	659.402	80.009	19.992	103.789	19.972	2.963	0.498
1157.499	659.614	80.006	19.993	103.789	19.978	2.546	0.509
1157.999	659.886	80.009	19.993	103.789	19.977	2.591	0.491
1158.499	660.108	80.006	19.994	103.789	19.974	2.823	0.489
1158.999	660.340	80.007	19.993	103.789	19.974	2.833	0.475
1159.499	660.635	80.009	19.994	103.790	19.976	2.715	0.491
1159.999	660.866	80.008	19.994	103.790	19.976	2.731	0.526
1160.499	661.177	80.007	19.993	103.790	19.975	2.790	0.534
1160.999	661.366	80.007	19.996	103.790	19.973	2.896	0.521
1161.499	661.654	80.007	19.994	103.790	19.976	2.681	0.488
1161.999	661.889	80.007	19.994	103.788	19.974	2.878	0.500
1162.499	662.183	80.007	19.994	103.789	19.975	2.782	0.526
1162.999	662.458	80.007	19.995	103.790	19.973	2.945	0.549
1163.499	662.702	80.009	19.994	103.789	19.971	3.095	0.544
1163.999	662.917	80.008	19.994	103.790	19.972	3.022	0.489
1164.499	663.206	80.008	19.995	103.790	19.970	3.097	0.481
1164.999	663.518	80.007	19.995	103.791	19.973	2.900	0.553
1165.499	663.737	80.007	19.994	103.790	19.972	2.967	0.566
1165.999	664.008	80.006	19.994	103.790	19.972	3.024	0.511
1166.499	664.220	80.007	19.995	103.790	19.970	3.113	0.486
1166.999	664.515	80.006	19.995	103.790	19.972	2.961	0.495
1167.499	664.750	80.007	19.995	103.790	19.971	3.087	0.519
1167.999	664.996	80.006	19.995	103.790	19.975	2.737	0.505
1168.499	665.264	80.006	19.994	103.790	19.970	3.140	0.497
1168.999	665.500	80.007	19.994	103.790	19.968	3.296	0.509
1169.499	665.751	80.005	19.995	103.790	19.971	3.079	0.496
1169.999	666.027	80.008	19.995	103.789	19.970	3.105	0.507
1170.499	666.249	80.006	19.995	103.789	19.971	3.081	0.513
1170.999	666.494	80.004	19.995	103.789	19.970	3.142	0.482
1171.499	666.786	80.007	19.996	103.789	19.973	2.943	0.502
1171.999	667.026	80.007	19.995	103.789	19.967	3.337	0.535
1172.499	667.298	80.007	19.994	103.789	19.969	3.237	0.522
1172.999	667.548	80.006	19.994	103.789	19.972	3.005	0.516
1173.499	667.800	80.007	19.995	103.789	19.973	2.912	0.512
1174.000	668.024	80.006	19.995	103.789	19.974	2.847	0.489
1174.500	668.300	80.007	19.994	103.790	19.974	2.829	0.488
1175.000	668.559	80.008	19.994	103.791	19.972	2.959	0.518
1175.500	668.812	80.007	19.995	103.791	19.969	3.172	0.523
1175.999	669.050	80.007	19.994	103.791	19.972	2.955	0.501
1176.499	669.309	80.009	19.995	103.791	19.970	3.162	0.494
1177.000	669.530	80.006	19.994	103.791	19.971	3.089	0.489
1177.500	669.830	80.008	19.995	103.790	19.973	2.943	0.501
1177.999	670.066	80.007	19.994	103.791	19.974	2.817	0.529
1178.499	670.351	80.007	19.995	103.793	19.973	2.902	0.528
1178.999	670.593	80.007	19.995	103.796	19.972	2.975	0.524
1179.499	670.847	80.008	19.994	103.796	19.972	2.985	0.511
1179.999	671.099	80.008	19.995	103.795	19.973	2.885	0.501
1180.500	671.344	80.006	19.994	103.795	19.971	3.036	0.502
1181.001	671.622	80.008	19.994	103.794	19.974	2.814	0.510
1181.500	671.834	80.009	19.994	103.793	19.972	2.983	0.506
1181.999	672.125	80.008	19.994	103.794	19.969	3.239	0.496
1182.499	672.349	80.008	19.995	103.794	19.969	3.217	0.509
1183.000	672.621	80.008	19.993	103.795	19.972	2.953	0.506
1183.500	672.842	80.009	19.994	103.794	19.971	3.044	0.495
1183.999	673.124	80.009	19.994	103.794	19.974	2.825	0.498
1184.499	673.368	80.008	19.994	103.793	19.974	2.865	0.514
1185.000	673.654	80.009	19.994	103.794	19.974	2.867	0.528
1185.500	673.895	80.008	19.993	103.796	19.975	2.780	0.529
1185.999	674.141	80.008	19.994	103.795	19.976	2.686	0.507
1186.499	674.409	80.007	19.994	103.795	19.975	2.802	0.501
1186.999	674.704	80.007	19.993	103.795	19.974	2.840	0.538
1187.499	674.955	80.008	19.994	103.794	19.972	2.999	0.554
1188.000	675.226	80.008	19.994	103.791	19.974	2.844	0.534
1188.500	675.478	80.007	19.993	103.791	19.975	2.763	0.523
1188.999	675.711	80.008	19.995	103.791	19.971	3.034	0.504
1189.499	676.005	80.008	19.996	103.791	19.976	2.729	0.506
1189.999	676.255	80.009	19.995	103.798	19.974	2.826	0.536
1190.499	676.440	80.007	19.994	103.802	19.974	2.861	0.490
1190.999	676.734	80.008	19.994	103.805	19.973	2.898	0.457
1191.499	677.011	80.008	19.994	103.805	19.971	3.081	0.525
1191.999	677.280	80.008	19.994	103.809	19.973	2.881	0.559
1192.499	677.544	80.009	19.994	103.804	19.973	2.932	0.540
1192.999	677.769	80.008	19.994	103.801	19.972	2.963	0.511
1193.500	678.068	80.008	19.994	103.798	19.970	3.133	0.506
1194.000	678.337	80.008	19.994	103.798	19.971	3.032	0.546
1194.499	678.604	80.006	19.994	103.795	19.972	2.973	0.552
1194.999	678.845	80.007	19.994	103.793	19.972	3.025	0.522
1195.499	679.102	80.007	19.993	103.794	19.974	2.879	0.502
1195.999	679.330	80.007	19.995	103.794	19.969	3.173	0.491
1196.499	679.603	80.007	19.994	103.798	19.970	3.141	0.493
1197.000	679.839	80.007	19.994	103.804	19.969	3.240	0.505
1197.500	680.121	80.007	19.993	103.809	19.971	3.058	0.513
1198.000	680.351	80.007	19.995	103.810	19.973	2.921	0.515
1198.500	680.635	80.007	19.994	103.811	19.973	2.952	0.513
1198.999	680.853	80.007	19.995	103.811	19.972	2.986	0.508
1199.499	681.167	80.007	19.994	103.810	19.968	3.313	0.517
1200.000	681.407	80.007	19.994	103.809	19.969	3.224	0.543
1200.500	681.678	80.007	19.994	103.811	19.970	3.143	0.533
1200.999	681.901	80.008	19.996	103.811	19.968	3.249	0.502
1201.499	682.146	80.006	19.995	103.809	19.970	3.141	0.481
1201.999	682.425	80.008	19.995	103.804	19.968	3.245	0.496
1202.499	682.668	80.009	19.995	103.799	19.970	3.120	0.523
1202.999	682.949	80.010	19.994	103.797	19.970	3.098	0.523
1203.499	683.219	80.008	19.995	103.798	19.971	3.072	0.537
1203.999	683.444	80.009	19.995	103.796	19.970	3.159	0.523
1204.499	683.711	80.009	19.994	103.800	19.970	3.104	0.493
1204.999	683.966	80.009	19.994	103.806	19.966	3.431	0.507
1205.499	684.232	80.009	19.994	103.810	19.969	3.210	0.522
1205.999	684.456	80.009	19.993	103.812	19.969	3.179	0.506
1206.499	684.726	80.010	19.993	103.817	19.972	3.013	0.492
1206.999	684.961	80.009	19.993	103.817	19.970	3.163	0.499
1207.500	685.214	80.011	19.994	103.818	19.967	3.376	0.496
1208.000	685.487	80.008	19.993	103.818	19.968	3.305	0.507
1208.499	685.709	80.010	19.994	103.819	19.972	2.994	0.510
1208.999	686.003	80.008	19.994	103.820	19.971	3.053	0.505
1209.500	686.226	80.009	19.993	103.821	19.968	3.258	0.517
1210.000	686.490	80.009	19.994	103.821	19.969	3.240	0.503
1210.499	686.786	80.009	19.993	103.823	19.972	3.007	0.523
1210.999	686.975	80.011	19.993	103.820	19.969	3.189	0.522
1211.499	687.227	80.010	19.993	103.820	19.970	3.157	0.463
1211.999	687.553	80.010	19.993	103.820	19.970	3.118	0.509
1212.499	687.768	80.010	19.993	103.819	19.968	3.275	0.560
1212.999	688.307	80.009	19.993	103.818	19.969	3.181	0.648
1213.500	687.994	80.009	19.994	103.821	19.969	3.189	0.490
1214.001	688.583	80.010	19.993	103.822	19.967	3.368	0.251
1214.500	688.885	80.009	19.993	103.822	19.967	3.362	0.583
1214.999	689.042	80.009	19.993	103.822	19.967	3.360	0.675
1215.499	689.358	80.009	19.994	103.824	19.968	3.271	0.466
1216.000	689.567	80.007	19.994	103.823	19.968	3.311	0.499
1216.500	689.820	80.007	19.994	103.822	19.966	3.449	0.493
1216.999	690.132	80.007	19.994	103.822	19.971	3.057	0.513
1217.499	690.365	80.008	19.994	103.824	19.968	3.309	0.556
1218.000	690.636	80.006	19.993	103.824	19.968	3.283	0.525
1218.500	690.875	80.008	19.993	103.826	19.967	3.346	0.507
1218.999	691.143	80.006	19.994	103.827	19.968	3.307	0.508
1219.499	691.372	80.007	19.993	103.827	19.968	3.256	0.502
1219.999	691.663	80.007	19.995	103.827	19.971	3.063	0.509
1220.499	691.896	80.007	19.994	103.828	19.969	3.179	0.522
1220.999	692.177	80.007	19.994	103.828	19.968	3.277	0.519
1221.499	692.436	80.007	19.995	103.828	19.969	3.220	0.527
1221.999	692.689	80.007	19.994	103.827	19.967	3.335	0.526
1222.500	692.943	80.008	19.994	103.827	19.970	3.145	0.509
1223.000	693.233	80.007	19.994	103.827	19.967	3.319	0.526
1223.499	693.432	80.009	19.995	103.827	19.967	3.386	0.517
1223.999	693.724	80.008	19.995	103.827	19.967	3.332	0.490
1224.499	693.988	80.008	19.994	103.828	19.967	3.346	0.524
1224.999	694.259	80.007	19.994	103.829	19.965	3.478	0.545
1225.499	694.503	80.007	19.995	103.829	19.966	3.409	0.525
1225.999	694.749	80.008	19.994	103.830	19.968	3.313	0.503
1226.499	695.024	80.008	19.993	103.830	19.968	3.281	0.506
1226.999	695.298	80.009	19.994	103.830	19.966	3.423	0.535
1227.499	695.554	80.008	19.995	103.829	19.963	3.610	0.540
1228.000	695.793	80.009	19.995	103.829	19.966	3.429	0.513
1228.500	696.053	80.008	19.994	103.829	19.965	3.469	0.497
1228.999	696.328	80.008	19.995	103.829	19.966	3.445	0.516
1229.499	696.627	80.009	19.995	103.831	19.966	3.388	0.554
1229.999	696.860	80.007	19.994	103.831	19.964	3.538	0.553
1230.499	697.119	80.008	19.995	103.830	19.969	3.242	0.512
1230.999	697.376	80.008	19.994	103.830	19.965	3.490	0.504
1231.499	697.591	80.009	19.993	103.831	19.966	3.459	0.494
1231.999	697.890	80.008	19.994	103.832	19.967	3.366	0.493
1232.499	698.169	80.007	19.993	103.832	19.966	3.424	0.546
1232.999	698.395	80.007	19.994	103.831	19.965	3.528	0.542
1233.499	698.538	80.008	19.994	103.831	19.967	3.357	0.437
1233.999	698.929	80.008	19.994	103.830	19.964	3.583	0.451
1234.499	699.145	80.007	19.993	103.827	19.964	3.565	0.570
1234.999	699.411	80.008	19.994	103.828	19.964	3.557	0.545
1235.499	699.646	80.006	19.994	103.829	19.966	3.417	0.492
1235.999	699.966	80.008	19.994	103.829	19.964	3.533	0.528
1236.499	700.180	80.007	19.993	103.829	19.962	3.723	0.545
1236.999	700.461	80.009	19.994	103.829	19.961	3.811	0.514
1237.499	700.662	80.008	19.994	103.829	19.965	3.474	0.488
1238.000	700.938	80.007	19.993	103.829	19.963	3.644	0.480
1238.500	701.221	80.006	19.994	103.829	19.959	3.894	0.518
1238.999	701.439	80.007	19.993	103.830	19.960	3.872	0.530
1239.499	701.729	80.007	19.994	103.833	19.961	3.776	0.505
1239.999	701.995	80.007	19.993	103.834	19.964	3.550	0.532
1240.499	702.254	80.008	19.992	103.836	19.960	3.877	0.540
1240.999	702.454	80.007	19.994	103.836	19.964	3.585	0.492
1241.500	702.750	80.007	19.995	103.837	19.962	3.723	0.478
1242.000	703.000	80.007	19.995	103.836	19.963	3.607	0.521
1242.500	703.260	80.008	19.994	103.838	19.962	3.723	0.528
1243.000	703.523	80.008	19.993	103.839	19.961	3.792	0.516
1243.500	703.817	80.008	19.993	103.842	19.963	3.618	0.540
1244.000	704.035	80.008	19.994	103.843	19.962	3.715	0.535
1244.499	704.276	80.008	19.994	103.843	19.961	3.768	0.485
1244.999	704.517	80.007	19.994	103.840	19.964	3.595	0.470
1245.499	704.782	80.009	19.994	103.838	19.961	3.762	0.494
1245.999	705.075	80.007	19.993	103.835	19.961	3.796	0.533
1246.500	705.302	80.007	19.994	103.832	19.962	3.717	0.539
1247.000	705.565	80.007	19.993	103.831	19.963	3.643	0.505
1247.499	705.840	80.007	19.993	103.831	19.962	3.688	0.514
1247.999	706.098	80.006	19.994	103.830	19.963	3.635	0.535
1248.499	706.321	80.005	19.993	103.831	19.960	3.849	0.507
1248.999	706.589	80.007	19.995	103.833	19.961	3.808	0.486
1249.499	706.832	80.007	19.996	103.835	19.961	3.764	0.501
1249.999	707.114	80.007	19.993	103.837	19.958	4.001	0.518
1250.500	707.415	80.006	19.995	103.840	19.961	3.778	0.554
1251.000	707.600	80.006	19.993	103.841	19.961	3.796	0.534
1251.499	707.869	80.007	19.995	103.843	19.963	3.651	0.470
1252.000	708.163	80.007	19.995	103.840	19.962	3.690	0.509
1252.500	708.374	80.008	19.995	103.841	19.961	3.765	0.534
1252.999	708.650	80.006	19.994	103.841	19.960	3.826	0.496
1253.500	708.912	80.007	19.994	103.840	19.960	3.851	0.512
1254.001	709.186	80.006	19.995	103.840	19.959	3.944	0.536
1254.501	709.410	80.007	19.994	103.842	19.962	3.690	0.517
1255.001	709.669	80.007	19.994	103.841	19.961	3.818	0.491
1255.500	709.924	80.005	19.994	103.840	19.958	3.984	0.499
1255.999	710.174	80.006	19.993	103.845	19.961	3.793	0.510
1256.499	710.449	80.005	19.993	103.847	19.961	3.805	0.515
1256.999	710.717	80.006	19.994	103.852	19.962	3.678	0.534
1257.499	710.946	80.006	19.994	103.856	19.960	3.838	0.520
1257.999	711.242	80.007	19.994	103.861	19.958	4.003	0.511
1258.499	711.466	80.006	19.993	103.860	19.958	4.025	0.523
1258.999	711.733	80.006	19.993	103.856	19.957	4.064	0.506
1259.499	711.973	80.007	19.994	103.852	19.961	3.820	0.499
1259.999	712.252	80.008	19.994	103.849	19.957	4.042	0.513
1260.499	712.492	80.008	19.994	103.847	19.958	4.022	0.519
1260.999	712.747	80.009	19.994	103.849	19.962	3.705	0.507
1261.499	713.024	80.008	19.994	103.853	19.960	3.881	0.514
1261.999	713.274	80.008	19.994	103.854	19.960	3.836	0.529
1262.499	713.518	80.008	19.994	103.858	19.959	3.950	0.510
1262.999	713.774	80.009	19.993	103.856	19.960	3.875	0.497
1263.499	713.991	80.007	19.994	103.851	19.959	3.899	0.486
1263.999	714.281	80.009	19.993	103.850	19.957	4.064	0.490
1264.499	714.547	80.009	19.994	103.850	19.958	4.018	0.532
1264.999	714.763	80.006	19.994	103.852	19.956	4.118	0.519
1265.499	715.124	80.010	19.994	103.857	19.957	4.053	0.529
1266.000	715.315	80.009	19.995	103.862	19.957	4.045	0.564
1266.500	715.573	80.008	19.994	103.865	19.956	4.128	0.501
1266.999	715.827	80.010	19.994	103.868	19.959	3.904	0.481
1267.499	716.075	80.009	19.994	103.865	19.955	4.225	0.507
1267.999	716.316	80.009	19.995	103.859	19.955	4.210	0.495
1268.499	716.585	80.008	19.994	103.858	19.958	3.975	0.500
1268.999	716.840	80.008	19.994	103.855	19.958	4.001	0.518
1269.499	717.103	80.008	19.994	103.848	19.955	4.204	0.521
1269.999	717.357	80.008	19.993	103.846	19.958	4.001	0.517
1270.500	717.633	80.008	19.994	103.844	19.952	4.403	0.524
1271.000	717.844	80.008	19.994	103.840	19.956	4.151	0.509
1271.499	718.080	80.009	19.993	103.841	19.957	4.087	0.467
1271.999	718.345	80.009	19.994	103.842	19.955	4.192	0.474
1272.499	718.626	80.008	19.994	103.847	19.957	4.048	0.523
1272.999	718.872	80.007	19.994	103.853	19.956	4.116	0.536
1273.499	719.136	80.008	19.994	103.857	19.953	4.343	0.518
1273.999	719.367	80.008	19.993	103.856	19.958	4.008	0.503
1274.499	719.659	80.007	19.994	103.855	19.956	4.158	0.509
1274.999	719.883	80.007	19.995	103.848	19.958	3.995	0.520
1275.499	720.137	80.009	19.993	103.840	19.958	4.030	0.497
1275.999	720.377	80.008	19.994	103.833	19.959	3.963	0.486
1276.499	720.613	80.008	19.993	103.828	19.958	4.002	0.485
1276.999	720.914	80.008	19.994	103.830	19.958	4.004	0.506
1277.499	721.121	80.008	19.994	103.835	19.959	3.927	0.523
1277.999	721.390	80.008	19.995	103.841	19.959	3.915	0.492
1278.499	721.649	80.008	19.995	103.844	19.960	3.856	0.502
1278.999	721.897	80.008	19.995	103.845	19.962	3.740	0.518
1279.499	722.162	80.007	19.994	103.844	19.961	3.805	0.510
1279.999	722.380	80.007	19.994	103.844	19.963	3.661	0.498
1280.500	722.666	80.008	19.994	103.842	19.962	3.744	0.494
1281.000	722.895	80.008	19.993	103.845	19.961	3.752	0.509
1281.500	723.151	80.007	19.993	103.846	19.960	3.837	0.500
1282.000	723.395	80.006	19.993	103.846	19.958	3.971	0.493
1282.499	723.668	80.007	19.994	103.841	19.961	3.756	0.509
1282.999	723.884	80.009	19.994	103.837	19.963	3.655	0.503
1283.499	724.137	80.008	19.994	103.833	19.961	3.795	0.479
1283.999	724.415	80.008	19.995	103.831	19.960	3.862	0.500
1284.499	724.655	80.008	19.993	103.833	19.960	3.821	0.525
1284.999	724.889	80.009	19.994	103.837	19.959	3.911	0.496
1285.499	725.187	80.008	19.993	103.840	19.960	3.884	0.503
1285.999	725.429	80.008	19.994	103.841	19.960	3.828	0.536
1286.499	725.663	80.008	19.994	103.844	19.960	3.891	0.508
1286.999	725.891	80.008	19.994	103.841	19.961	3.755	0.469
1287.499	726.144	80.009	19.993	103.838	19.963	3.655	0.471
1288.000	726.432	80.009	19.995	103.834	19.960	3.887	0.511
1288.500	726.631	80.009	19.994	103.832	19.958	3.972	0.514
1288.999	726.908	80.010	19.995	103.829	19.960	3.857	0.482
1289.499	727.196	80.010	19.995	103.829	19.961	3.814	0.521
1289.999	727.429	80.010	19.995	103.827	19.960	3.820	0.543
1290.500	727.683	80.010	19.995	103.827	19.960	3.867	0.504
1291.001	727.955	80.009	19.995	103.828	19.961	3.770	0.507
1291.500	728.189	80.010	19.995	103.828	19.962	3.686	0.517
1291.999	728.468	80.010	19.995	103.828	19.962	3.680	0.510
1292.499	728.709	80.009	19.994	103.827	19.962	3.676	0.516
1292.999	728.997	80.009	19.994	103.826	19.957	4.069	0.524
1293.499	729.227	80.009	19.995	103.825	19.960	3.851	0.524
1293.999	729.508	80.010	19.994	103.823	19.960	3.833	0.515
1294.500	729.744	80.010	19.994	103.823	19.962	3.735	0.513
1295.000	730.010	80.008	19.994	103.821	19.961	3.760	0.509
1295.499	730.271	80.008	19.995	103.819	19.960	3.835	0.515
1295.999	730.505	80.007	19.994	103.819	19.961	3.786	0.511
1296.500	730.780	80.008	19.995	103.819	19.963	3.672	0.502
1297.000	731.024	80.007	19.994	103.815	19.961	3.794	0.514
1297.499	731.259	80.007	19.995	103.812	19.964	3.557	0.499
1297.999	731.536	80.007	19.994	103.812	19.965	3.530	0.495
1298.499	731.788	80.008	19.994	103.811	19.963	3.608	0.520
1298.999	732.017	80.007	19.994	103.805	19.960	3.858	0.505
1299.499	732.265	80.007	19.995	103.803	19.961	3.779	0.479
1299.999	732.517	80.007	19.994	103.801	19.963	3.610	0.489
1300.499	732.769	80.007	19.993	103.797	19.963	3.630	0.502
1300.999	733.062	80.007	19.994	103.794	19.964	3.572	0.524
1301.499	733.302	80.006	19.993	103.794	19.963	3.653	0.539
1301.999	733.529	80.008	19.995	103.792	19.964	3.560	0.500
1302.499	733.793	80.007	19.994	103.792	19.964	3.600	0.479
1302.999	734.070	80.008	19.994	103.792	19.965	3.468	0.516
1303.499	734.319	80.006	19.993	103.789	19.966	3.390	0.533
1303.999	734.553	80.008	19.993	103.788	19.969	3.191	0.504
1304.499	734.812	80.006	19.993	103.789	19.968	3.291	0.488
1304.999	735.080	80.005	19.993	103.789	19.966	3.431	0.510
1305.499	735.314	80.006	19.994	103.790	19.966	3.387	0.514
1305.999	735.558	80.007	19.994	103.790	19.967	3.320	0.490
1306.499	735.831	80.007	19.993	103.790	19.963	3.604	0.498
1306.999	736.082	80.006	19.994	103.790	19.965	3.489	0.520
1307.500	736.327	80.007	19.993	103.790	19.970	3.165	0.510
1308.000	736.570	80.006	19.993	103.789	19.969	3.230	0.492
1308.499	736.806	80.005	19.991	103.785	19.967	3.354	0.484
1308.999	737.083	80.006	19.994	103.780	19.969	3.232	0.496
1309.499	737.340	80.007	19.995	103.778	19.968	3.293	0.523
1309.999	737.609	80.005	19.994	103.774	19.970	3.141	0.530
1310.499	737.836	80.006	19.994	103.772	19.970	3.143	0.511
1310.999	738.126	80.006	19.994	103.771	19.970	3.098	0.507
1311.500	738.376	80.006	19.994	103.769	19.971	3.035	0.528
1312.000	738.626	80.007	19.993	103.764	19.969	3.232	0.519
1312.500	738.846	80.007	19.993	103.760	19.971	3.045	0.485
1313.000	739.091	80.007	19.994	103.758	19.971	3.068	0.468
1313.499	739.354	80.007	19.993	103.760	19.970	3.110	0.487
1314.000	739.627	80.006	19.994	103.767	19.971	3.066	0.522
1314.500	739.848	80.007	19.994	103.772	19.972	2.970	0.515
1314.999	740.126	80.008	19.994	103.773	19.973	2.946	0.496
1315.499	740.356	80.007	19.994	103.771	19.970	3.127	0.504
1315.999	740.619	80.006	19.994	103.767	19.971	3.076	0.501
1316.499	740.897	80.006	19.994	103.760	19.973	2.885	0.517
1316.999	741.145	80.007	19.993	103.754	19.974	2.822	0.534
1317.499	741.351	80.006	19.992	103.753	19.973	2.879	0.490
1318.000	741.660	80.007	19.995	103.753	19.972	3.015	0.484
1318.500	741.890	80.007	19.993	103.754	19.974	2.875	0.527
1318.999	742.145	80.008	19.994	103.754	19.972	2.968	0.512
1319.499	742.431	80.008	19.994	103.754	19.971	3.045	0.513
1320.000	742.650	80.008	19.994	103.754	19.973	2.938	0.523
1320.500	742.906	80.007	19.994	103.754	19.970	3.104	0.490
1320.999	743.161	80.007	19.993	103.753	19.973	2.895	0.493
1321.500	743.386	80.007	19.994	103.753	19.971	3.051	0.495
1322.000	743.669	80.007	19.994	103.753	19.967	3.320	0.494
