Sample ID:	C:\MCC\MCC Cal\Test\Rubber_Band_MCC_30K_min_220208_R3.txt
Sample Weight (mg):	4.35
Heating Rate (C/s):	0.5
Combustor Temp (C):	900
N2 Flow Rate (cc/min):	80
O2 Flow Rate (cc/min):	20
Calibration File:	C:\MCC\MCC Cal\Coeff1 JN10440_30_210304.txt.txt
T Correction Coefficients:	0	1.024463	0
Time Shift (s):	14
*
Time (s)	Temperature (C)	N2 flow rate (cc/min)	O2 flow rate (cc/min)	Flow Rate (cc/min)	Oxygen (%)	HRR (W/g)	Heating rate (C/s)
0.000	115.339	80.003	19.994	103.640	19.970	0.101	-0.008
0.499	115.347	80.002	19.992	103.638	19.972	-0.071	-0.025
1.000	115.350	80.003	19.998	103.638	19.971	0.028	-0.012
1.500	115.362	80.003	19.997	103.644	19.970	0.138	0.013
2.000	115.349	80.002	19.996	103.651	19.972	-0.057	0.007
2.500	115.320	80.005	19.998	103.658	19.973	-0.115	-0.021
3.000	115.328	80.002	19.995	103.666	19.969	0.200	-0.031
3.500	115.350	80.003	19.994	103.667	19.974	-0.170	0.005
4.000	115.351	80.003	19.997	103.664	19.971	0.026	0.027
4.500	115.347	80.003	19.997	103.659	19.971	0.024	0.010
5.000	115.333	80.004	19.995	103.655	19.970	0.069	-0.011
5.500	115.369	80.003	19.995	103.650	19.970	0.071	0.002
6.000	115.340	80.004	19.994	103.647	19.968	0.277	0.014
6.500	115.345	80.004	19.994	103.646	19.970	0.087	-0.008
7.000	115.336	80.004	19.994	103.645	19.969	0.215	-0.013
7.500	115.363	80.004	19.994	103.643	19.973	-0.097	0.007
8.000	115.369	80.004	19.992	103.643	19.970	0.122	0.025
8.500	115.334	80.006	19.993	103.643	19.971	0.043	0.002
9.000	115.337	80.004	19.993	103.641	19.969	0.144	-0.030
9.500	115.359	80.006	19.993	103.640	19.972	-0.038	-0.003
10.000	115.326	80.004	19.993	103.641	19.973	-0.154	0.007
10.500	115.333	80.006	19.993	103.643	19.970	0.107	-0.018
11.000	115.344	80.005	19.993	103.647	19.970	0.095	-0.004
11.500	115.356	80.006	19.993	103.648	19.970	0.120	0.020
12.000	115.345	80.007	19.992	103.650	19.967	0.290	0.012
12.500	115.366	80.005	19.993	103.651	19.970	0.077	0.005
13.000	115.326	80.005	19.993	103.650	19.968	0.233	-0.005
13.500	115.363	80.006	19.993	103.650	19.966	0.403	-0.011
14.000	115.329	80.005	19.992	103.654	19.966	0.393	0.000
14.500	115.386	80.007	19.992	103.656	19.965	0.510	0.013
15.000	115.319	80.006	19.992	103.657	19.964	0.519	0.006
15.500	115.327	80.008	19.993	103.657	19.964	0.531	-0.034
16.000	115.357	80.005	19.992	103.653	19.960	0.828	-0.011
16.500	115.285	80.006	19.993	103.654	19.963	0.591	-0.002
17.000	115.319	80.008	19.994	103.656	19.960	0.820	-0.040
17.500	115.341	80.007	19.994	103.660	19.958	0.972	0.009
18.000	115.315	80.006	19.992	103.664	19.961	0.766	0.026
18.500	115.323	80.007	19.993	103.670	19.961	0.780	-0.011
19.000	115.339	80.007	19.993	103.674	19.960	0.873	0.003
19.500	115.353	80.007	19.992	103.679	19.958	0.962	0.027
20.000	115.315	80.006	19.993	103.684	19.958	1.027	0.003
20.500	115.328	80.007	19.993	103.687	19.960	0.875	-0.024
21.000	115.347	80.007	19.994	103.690	19.957	1.056	0.004
21.500	115.321	80.006	19.993	103.688	19.954	1.275	0.012
22.000	115.310	80.005	19.994	103.684	19.960	0.857	-0.023
22.500	115.296	80.005	19.993	103.678	19.956	1.123	-0.031
23.000	115.338	80.005	19.993	103.675	19.963	0.651	0.002
23.500	115.353	80.005	19.994	103.672	19.959	0.918	0.043
24.000	115.359	80.006	19.994	103.671	19.960	0.829	0.039
24.500	115.350	80.006	19.993	103.671	19.962	0.722	0.009
25.000	115.426	80.007	19.993	103.671	19.960	0.827	0.032
25.500	115.382	80.005	19.993	103.672	19.957	1.075	0.050
26.000	115.345	80.006	19.993	103.677	19.958	1.022	-0.025
26.500	115.401	80.006	19.992	103.683	19.960	0.878	-0.031
27.000	115.390	80.006	19.992	103.686	19.959	0.905	0.032
27.500	115.431	80.005	19.993	103.687	19.960	0.832	0.037
28.000	115.411	80.005	19.992	103.691	19.957	1.047	0.025
28.500	115.413	80.008	19.993	103.688	19.955	1.193	0.001
29.000	115.431	80.006	19.994	103.686	19.956	1.177	0.001
29.500	115.458	80.007	19.994	103.688	19.953	1.367	0.033
30.000	115.446	80.006	19.993	103.695	19.955	1.223	0.030
30.500	115.467	80.008	19.993	103.698	19.953	1.347	0.012
31.000	115.460	80.006	19.993	103.703	19.954	1.260	0.012
31.500	115.468	80.007	19.993	103.708	19.953	1.369	0.008
32.000	115.481	80.006	19.993	103.714	19.950	1.574	0.011
32.499	115.494	80.006	19.993	103.720	19.953	1.349	0.023
32.999	115.498	80.006	19.993	103.728	19.948	1.733	0.021
33.499	115.520	80.006	19.992	103.738	19.947	1.806	0.021
33.999	115.577	80.007	19.994	103.751	19.948	1.773	0.053
34.499	115.570	80.006	19.993	103.763	19.945	1.936	0.065
34.999	115.574	80.006	19.993	103.775	19.946	1.905	0.024
35.499	115.645	80.006	19.993	103.790	19.941	2.283	0.036
36.000	115.673	80.007	19.993	103.804	19.944	2.029	0.087
36.500	115.705	80.006	19.994	103.813	19.939	2.398	0.080
36.999	115.727	80.008	19.994	103.822	19.942	2.179	0.057
37.499	115.775	80.007	19.993	103.828	19.942	2.204	0.062
37.999	115.811	80.008	19.993	103.829	19.936	2.626	0.077
38.499	115.876	80.007	19.993	103.830	19.937	2.581	0.092
38.999	115.888	80.007	19.991	103.831	19.934	2.786	0.089
39.499	115.973	80.008	19.993	103.834	19.935	2.691	0.087
39.999	115.971	80.007	19.993	103.837	19.936	2.612	0.090
40.499	116.053	80.007	19.994	103.839	19.933	2.835	0.081
40.999	116.082	80.007	19.992	103.844	19.931	3.003	0.095
41.499	116.136	80.008	19.993	103.850	19.930	3.054	0.097
41.999	116.215	80.008	19.993	103.852	19.930	3.056	0.108
42.499	116.277	80.007	19.992	103.853	19.931	2.983	0.137
42.999	116.330	80.007	19.992	103.856	19.935	2.725	0.128
43.499	116.390	80.006	19.993	103.857	19.932	2.933	0.114
43.999	116.449	80.007	19.992	103.857	19.930	3.081	0.116
44.500	116.509	80.007	19.992	103.859	19.933	2.825	0.119
45.000	116.549	80.006	19.993	103.861	19.930	3.089	0.109
45.499	116.618	80.006	19.993	103.863	19.926	3.373	0.104
45.999	116.702	80.007	19.992	103.863	19.926	3.347	0.132
46.499	116.795	80.007	19.993	103.863	19.926	3.388	0.165
47.000	116.886	80.005	19.992	103.864	19.923	3.595	0.180
47.500	116.972	80.005	19.992	103.864	19.924	3.516	0.180
47.999	117.050	80.004	19.993	103.865	19.928	3.266	0.171
48.499	117.100	80.005	19.993	103.865	19.923	3.642	0.146
48.999	117.212	80.005	19.992	103.867	19.926	3.394	0.145
49.499	117.301	80.006	19.993	103.867	19.924	3.561	0.181
49.999	117.380	80.005	19.994	103.867	19.926	3.382	0.184
50.499	117.479	80.005	19.993	103.867	19.919	3.916	0.173
50.999	117.575	80.005	19.993	103.868	19.924	3.548	0.187
51.499	117.656	80.005	19.993	103.867	19.925	3.451	0.186
51.999	117.754	80.005	19.992	103.868	19.926	3.362	0.178
52.499	117.831	80.004	19.994	103.872	19.922	3.682	0.177
52.999	117.928	80.004	19.995	103.873	19.921	3.778	0.175
53.499	118.020	80.005	19.994	103.878	19.923	3.634	0.182
54.000	118.138	80.005	19.994	103.880	19.925	3.477	0.200
54.501	118.262	80.004	19.993	103.882	19.922	3.703	0.226
55.000	118.370	80.005	19.993	103.884	19.922	3.650	0.236
55.499	118.472	80.005	19.993	103.890	19.921	3.772	0.221
55.999	118.576	80.004	19.994	103.893	19.918	3.992	0.208
56.499	118.704	80.003	19.992	103.898	19.918	3.972	0.219
56.999	118.791	80.005	19.994	103.904	19.923	3.635	0.223
57.499	118.912	80.005	19.994	103.907	19.920	3.795	0.212
57.999	119.050	80.005	19.994	103.908	19.921	3.752	0.234
58.499	119.161	80.003	19.995	103.909	19.919	3.870	0.254
58.999	119.294	80.005	19.995	103.910	19.922	3.688	0.247
59.499	119.396	80.006	19.993	103.910	19.920	3.864	0.239
59.999	119.523	80.004	19.994	103.909	19.919	3.872	0.232
60.500	119.648	80.004	19.995	103.908	19.918	4.012	0.240
61.000	119.766	80.003	19.994	103.908	19.917	4.041	0.248
61.499	119.894	80.003	19.994	103.908	19.918	4.008	0.245
61.999	120.006	80.005	19.994	103.908	19.915	4.201	0.243
62.500	120.147	80.005	19.993	103.909	19.918	4.015	0.246
63.000	120.310	80.004	19.993	103.910	19.915	4.228	0.279
63.499	120.438	80.004	19.994	103.910	19.912	4.401	0.298
63.999	120.583	80.005	19.995	103.910	19.914	4.273	0.282
64.499	120.716	80.003	19.993	103.910	19.917	4.065	0.275
64.999	120.878	80.004	19.994	103.912	19.913	4.362	0.287
65.499	120.986	80.004	19.994	103.918	19.913	4.336	0.283
65.999	121.168	80.004	19.995	103.922	19.914	4.261	0.280
66.499	121.317	80.006	19.995	103.927	19.913	4.336	0.310
66.999	121.486	80.005	19.994	103.931	19.912	4.401	0.325
67.499	121.618	80.004	19.994	103.933	19.915	4.238	0.310
67.999	121.773	80.005	19.994	103.934	19.915	4.226	0.293
68.499	121.934	80.005	19.993	103.934	19.915	4.187	0.301
68.999	122.101	80.006	19.994	103.934	19.914	4.297	0.322
69.500	122.260	80.005	19.994	103.937	19.912	4.451	0.327
70.000	122.410	80.005	19.993	103.940	19.910	4.597	0.318
70.499	122.571	80.004	19.992	103.939	19.911	4.508	0.310
70.999	122.736	80.004	19.994	103.940	19.906	4.845	0.318
71.499	122.904	80.004	19.993	103.942	19.908	4.721	0.330
71.999	123.081	80.005	19.993	103.942	19.909	4.623	0.339
72.499	123.245	80.006	19.992	103.943	19.910	4.554	0.343
72.999	123.404	80.005	19.993	103.945	19.911	4.516	0.332
73.499	123.596	80.005	19.993	103.946	19.908	4.719	0.338
74.000	123.740	80.005	19.993	103.947	19.908	4.717	0.344
74.500	123.949	80.004	19.993	103.947	19.911	4.518	0.344
74.999	124.129	80.005	19.993	103.947	19.912	4.404	0.371
75.500	124.274	80.005	19.993	103.947	19.910	4.577	0.357
76.000	124.447	80.006	19.994	103.948	19.905	4.914	0.322
76.499	124.614	80.004	19.993	103.948	19.909	4.676	0.330
76.999	124.803	80.005	19.993	103.949	19.911	4.538	0.348
77.499	125.002	80.004	19.993	103.949	19.905	4.973	0.371
77.999	125.202	80.005	19.994	103.949	19.910	4.611	0.393
78.499	125.372	80.004	19.994	103.949	19.907	4.804	0.385
78.999	125.576	80.004	19.994	103.948	19.910	4.613	0.372
79.499	125.781	80.005	19.993	103.948	19.909	4.617	0.392
80.000	125.938	80.005	19.993	103.948	19.908	4.696	0.386
80.500	126.150	80.004	19.993	103.947	19.907	4.812	0.365
80.999	126.336	80.004	19.994	103.946	19.906	4.844	0.383
81.499	126.521	80.005	19.994	103.945	19.910	4.597	0.384
81.999	126.742	80.004	19.994	103.944	19.906	4.889	0.389
82.499	126.913	80.004	19.994	103.940	19.907	4.818	0.399
82.999	127.147	80.003	19.994	103.933	19.907	4.786	0.398
83.499	127.297	80.004	19.995	103.931	19.906	4.845	0.395
84.000	127.511	80.004	19.994	103.929	19.907	4.806	0.374
84.501	127.729	80.003	19.994	103.930	19.907	4.829	0.398
85.001	127.913	80.004	19.994	103.933	19.907	4.821	0.417
85.500	128.113	80.003	19.994	103.938	19.906	4.884	0.393
85.999	128.318	80.003	19.994	103.938	19.904	5.011	0.394
86.499	128.559	80.004	19.994	103.935	19.903	5.076	0.426
86.999	128.796	80.003	19.994	103.935	19.901	5.243	0.462
87.499	128.956	80.004	19.994	103.934	19.905	4.928	0.437
87.999	129.197	80.004	19.994	103.935	19.905	4.948	0.399
88.499	129.380	80.004	19.995	103.937	19.904	5.017	0.413
88.999	129.611	80.004	19.994	103.941	19.904	5.050	0.419
89.499	129.805	80.003	19.995	103.939	19.908	4.717	0.419
89.999	130.020	80.005	19.994	103.936	19.904	5.042	0.417
90.499	130.272	80.003	19.994	103.935	19.908	4.743	0.438
90.999	130.451	80.005	19.994	103.931	19.904	5.011	0.449
91.499	130.690	80.004	19.993	103.929	19.903	5.070	0.425
91.999	130.878	80.005	19.995	103.929	19.906	4.905	0.423
92.499	131.081	80.005	19.994	103.933	19.904	5.049	0.409
92.999	131.328	80.005	19.994	103.934	19.905	4.921	0.421
93.499	131.536	80.006	19.995	103.937	19.902	5.143	0.452
93.999	131.739	80.004	19.994	103.937	19.900	5.311	0.432
94.499	131.945	80.006	19.994	103.937	19.901	5.224	0.410
95.000	132.187	80.005	19.994	103.937	19.902	5.153	0.429
95.501	132.473	80.006	19.993	103.938	19.903	5.072	0.488
96.001	132.639	80.006	19.994	103.939	19.908	4.747	0.490
96.500	132.873	80.005	19.993	103.940	19.908	4.702	0.426
96.999	133.098	80.007	19.994	103.937	19.909	4.649	0.430
97.499	133.313	80.006	19.993	103.933	19.904	5.035	0.449
97.999	133.515	80.006	19.994	103.934	19.905	4.918	0.428
98.500	133.789	80.005	19.993	103.934	19.905	4.968	0.446
99.000	133.990	80.006	19.994	103.933	19.906	4.842	0.476
99.499	134.234	80.006	19.993	103.938	19.904	5.013	0.460
99.999	134.440	80.005	19.993	103.940	19.909	4.678	0.448
100.499	134.681	80.007	19.993	103.940	19.906	4.875	0.449
100.999	134.919	80.005	19.993	103.941	19.907	4.834	0.463
101.499	135.163	80.005	19.993	103.940	19.908	4.710	0.480
101.999	135.375	80.007	19.994	103.934	19.904	4.986	0.469
102.499	135.621	80.006	19.993	103.929	19.905	4.976	0.457
102.999	135.856	80.007	19.994	103.925	19.904	5.006	0.470
103.499	136.062	80.006	19.992	103.922	19.903	5.084	0.462
103.999	136.319	80.006	19.993	103.919	19.905	4.943	0.452
104.500	136.543	80.005	19.992	103.923	19.906	4.899	0.472
105.000	136.801	80.006	19.992	103.928	19.905	4.935	0.481
105.499	137.043	80.005	19.993	103.927	19.901	5.278	0.491
105.999	137.287	80.005	19.993	103.925	19.907	4.830	0.493
106.499	137.527	80.006	19.993	103.924	19.905	4.978	0.485
106.999	137.739	80.006	19.993	103.921	19.904	5.032	0.469
107.499	137.994	80.007	19.992	103.920	19.908	4.734	0.460
107.999	138.211	80.006	19.992	103.923	19.902	5.178	0.470
108.499	138.468	80.006	19.993	103.925	19.901	5.223	0.473
108.999	138.731	80.004	19.993	103.929	19.903	5.134	0.497
109.499	138.993	80.006	19.995	103.928	19.906	4.904	0.522
110.000	139.190	80.005	19.993	103.928	19.904	5.008	0.492
110.500	139.483	80.006	19.995	103.928	19.902	5.203	0.475
111.000	139.677	80.006	19.995	103.926	19.904	4.990	0.488
111.500	139.959	80.006	19.994	103.925	19.903	5.116	0.481
112.000	140.194	80.004	19.993	103.923	19.902	5.191	0.496
112.500	140.456	80.005	19.993	103.921	19.903	5.134	0.507
112.999	140.667	80.005	19.993	103.923	19.901	5.237	0.485
113.499	140.925	80.006	19.992	103.921	19.900	5.310	0.471
113.999	141.177	80.006	19.993	103.921	19.902	5.154	0.489
114.499	141.421	80.005	19.994	103.921	19.902	5.152	0.503
114.999	141.699	80.005	19.994	103.919	19.899	5.363	0.509
115.499	141.922	80.006	19.993	103.915	19.905	4.963	0.512
115.999	142.205	80.007	19.993	103.917	19.900	5.296	0.503
116.499	142.407	80.004	19.991	103.915	19.903	5.079	0.495
117.000	142.710	80.006	19.993	103.915	19.905	4.971	0.495
117.500	142.934	80.005	19.994	103.916	19.902	5.146	0.516
118.000	143.168	80.006	19.992	103.913	19.899	5.408	0.492
118.500	143.457	80.005	19.993	103.910	19.900	5.296	0.491
118.999	143.687	80.006	19.992	103.908	19.901	5.282	0.521
119.499	143.908	80.006	19.993	103.909	19.898	5.450	0.485
119.999	144.157	80.007	19.993	103.909	19.898	5.434	0.460
120.499	144.463	80.008	19.992	103.910	19.897	5.562	0.513
120.999	144.684	80.005	19.993	103.910	19.900	5.302	0.541
121.499	144.915	80.006	19.993	103.911	19.900	5.337	0.489
121.999	145.163	80.006	19.993	103.910	19.900	5.324	0.465
122.500	145.451	80.006	19.993	103.909	19.899	5.410	0.508
123.000	145.671	80.007	19.993	103.910	19.898	5.452	0.522
123.500	145.943	80.007	19.993	103.910	19.895	5.716	0.500
124.000	146.204	80.007	19.993	103.910	19.898	5.458	0.513
124.499	146.453	80.007	19.992	103.909	19.899	5.422	0.521
125.000	146.701	80.007	19.992	103.909	19.896	5.605	0.503
125.501	146.936	80.006	19.993	103.909	19.893	5.838	0.490
126.000	147.225	80.006	19.992	103.908	19.893	5.814	0.504
126.499	147.451	80.007	19.993	103.908	19.895	5.718	0.519
126.999	147.702	80.005	19.993	103.908	19.895	5.712	0.496
127.499	147.974	80.006	19.993	103.907	19.896	5.655	0.501
127.999	148.199	80.006	19.993	103.907	19.897	5.568	0.510
128.500	148.478	80.006	19.994	103.906	19.897	5.536	0.500
129.000	148.721	80.006	19.993	103.906	19.891	5.984	0.513
129.500	149.028	80.005	19.993	103.906	19.897	5.534	0.536
130.000	149.229	80.006	19.993	103.906	19.894	5.790	0.529
130.500	149.511	80.005	19.992	103.906	19.891	5.962	0.496
131.000	149.776	80.005	19.993	103.907	19.894	5.777	0.515
131.500	150.055	80.005	19.992	103.907	19.894	5.800	0.546
132.000	150.330	80.005	19.993	103.907	19.888	6.236	0.549
132.500	150.541	80.005	19.993	103.907	19.893	5.877	0.520
133.000	150.778	80.004	19.992	103.907	19.887	6.268	0.467
133.500	151.023	80.004	19.993	103.907	19.892	5.885	0.465
134.000	151.274	80.003	19.993	103.906	19.892	5.952	0.489
134.500	151.553	80.005	19.992	103.906	19.892	5.911	0.513
135.000	151.806	80.004	19.993	103.906	19.889	6.155	0.531
135.500	152.063	80.005	19.993	103.906	19.890	6.059	0.521
136.000	152.280	80.005	19.993	103.905	19.891	6.022	0.492
136.500	152.564	80.004	19.993	103.907	19.887	6.282	0.488
137.000	152.834	80.005	19.993	103.906	19.889	6.162	0.528
137.500	153.048	80.004	19.993	103.905	19.888	6.231	0.519
138.000	153.327	80.005	19.992	103.906	19.887	6.262	0.489
138.500	153.594	80.005	19.992	103.906	19.888	6.231	0.520
139.000	153.893	80.005	19.993	103.906	19.890	6.079	0.556
139.500	154.058	80.004	19.991	103.907	19.887	6.297	0.515
140.000	154.339	80.004	19.994	103.909	19.890	6.060	0.455
140.500	154.603	80.005	19.993	103.909	19.887	6.250	0.495
141.000	154.870	80.004	19.994	103.910	19.886	6.342	0.538
141.500	155.127	80.004	19.994	103.910	19.886	6.328	0.527
142.000	155.350	80.004	19.993	103.910	19.886	6.350	0.502
142.500	155.649	80.004	19.994	103.908	19.887	6.310	0.501
143.000	155.918	80.005	19.993	103.908	19.885	6.412	0.545
143.500	156.149	80.004	19.993	103.907	19.882	6.641	0.534
144.000	156.382	80.005	19.993	103.906	19.885	6.466	0.482
144.500	156.626	80.005	19.993	103.906	19.882	6.691	0.470
145.000	156.927	80.006	19.993	103.906	19.886	6.376	0.511
145.500	157.140	80.005	19.993	103.905	19.881	6.721	0.530
146.000	157.400	80.005	19.993	103.904	19.881	6.704	0.494
146.500	157.661	80.004	19.993	103.902	19.883	6.601	0.497
147.000	157.898	80.004	19.993	103.901	19.883	6.558	0.509
147.500	158.154	80.005	19.993	103.896	19.880	6.774	0.495
148.000	158.389	80.004	19.993	103.896	19.882	6.652	0.492
148.500	158.699	80.005	19.992	103.896	19.880	6.808	0.518
149.000	158.925	80.004	19.993	103.895	19.883	6.548	0.541
149.500	159.148	80.004	19.993	103.888	19.882	6.684	0.492
150.000	159.435	80.004	19.994	103.889	19.884	6.487	0.480
150.500	159.685	80.005	19.992	103.884	19.883	6.556	0.524
151.000	159.950	80.005	19.993	103.878	19.879	6.909	0.526
151.500	160.193	80.005	19.993	103.875	19.879	6.909	0.512
152.000	160.445	80.005	19.994	103.883	19.881	6.737	0.501
152.500	160.719	80.006	19.994	103.885	19.878	6.932	0.510
153.000	160.964	80.005	19.993	103.886	19.881	6.715	0.522
153.500	161.229	80.005	19.993	103.890	19.879	6.909	0.514
154.000	161.489	80.004	19.993	103.894	19.880	6.786	0.518
154.500	161.736	80.004	19.994	103.891	19.877	6.999	0.516
155.000	162.025	80.005	19.994	103.885	19.875	7.212	0.521
155.500	162.245	80.005	19.993	103.883	19.877	7.021	0.522
156.000	162.524	80.005	19.993	103.878	19.876	7.074	0.504
156.500	162.767	80.005	19.993	103.872	19.876	7.100	0.511
157.000	163.000	80.005	19.994	103.868	19.875	7.206	0.499
157.500	163.244	80.004	19.993	103.870	19.876	7.135	0.477
158.000	163.522	80.006	19.993	103.871	19.872	7.386	0.500
158.500	163.738	80.004	19.993	103.872	19.874	7.228	0.508
159.000	164.050	80.006	19.994	103.871	19.873	7.297	0.511
159.500	164.272	80.005	19.994	103.871	19.871	7.494	0.531
160.000	164.556	80.004	19.993	103.869	19.873	7.303	0.520
160.500	164.772	80.003	19.993	103.868	19.871	7.443	0.503
161.000	165.065	80.004	19.993	103.867	19.869	7.619	0.505
161.500	165.337	80.005	19.993	103.867	19.873	7.355	0.537
162.000	165.565	80.004	19.993	103.866	19.873	7.366	0.532
162.500	165.875	80.004	19.994	103.866	19.872	7.394	0.519
163.000	166.093	80.004	19.994	103.866	19.869	7.632	0.533
163.500	166.385	80.004	19.993	103.868	19.868	7.668	0.519
164.000	166.632	80.006	19.994	103.869	19.868	7.692	0.524
164.500	166.875	80.005	19.994	103.869	19.868	7.723	0.514
165.000	167.106	80.005	19.993	103.869	19.870	7.581	0.482
165.500	167.406	80.005	19.994	103.868	19.868	7.715	0.502
166.000	167.601	80.004	19.993	103.868	19.869	7.619	0.513
166.500	167.888	80.005	19.994	103.867	19.867	7.762	0.489
167.000	168.141	80.004	19.993	103.868	19.869	7.630	0.511
167.500	168.395	80.004	19.994	103.867	19.871	7.490	0.523
168.000	168.635	80.004	19.993	103.868	19.867	7.768	0.500
168.500	168.859	80.005	19.993	103.868	19.865	7.950	0.479
169.000	169.124	80.004	19.994	103.868	19.861	8.247	0.477
169.500	169.364	80.005	19.993	103.868	19.868	7.701	0.497
170.000	169.630	80.004	19.993	103.868	19.864	8.029	0.505
170.500	169.897	80.005	19.993	103.868	19.860	8.309	0.519
171.000	170.132	80.004	19.993	103.866	19.865	7.912	0.518
171.500	170.385	80.004	19.994	103.863	19.859	8.362	0.495
172.000	170.610	80.004	19.994	103.863	19.868	7.713	0.483
172.500	170.865	80.006	19.993	103.863	19.860	8.299	0.479
173.000	171.120	80.005	19.994	103.863	19.864	8.013	0.495
173.500	171.405	80.005	19.993	103.864	19.862	8.163	0.525
174.000	171.647	80.005	19.994	103.867	19.860	8.281	0.534
174.500	171.877	80.006	19.993	103.867	19.857	8.496	0.500
175.000	172.101	80.006	19.994	103.867	19.857	8.559	0.463
175.500	172.401	80.003	19.994	103.866	19.858	8.468	0.488
176.000	172.633	80.005	19.993	103.866	19.860	8.268	0.528
176.500	172.905	80.004	19.993	103.866	19.858	8.471	0.518
177.000	173.129	80.006	19.994	103.867	19.855	8.696	0.500
177.500	173.378	80.006	19.993	103.869	19.857	8.516	0.484
178.000	173.640	80.007	19.995	103.870	19.858	8.447	0.492
178.500	173.904	80.006	19.994	103.870	19.855	8.648	0.519
179.000	174.145	80.005	19.993	103.869	19.852	8.879	0.516
179.500	174.361	80.007	19.993	103.869	19.852	8.859	0.481
180.000	174.661	80.005	19.993	103.868	19.853	8.849	0.486
180.500	174.914	80.005	19.993	103.868	19.849	9.143	0.534
181.000	175.163	80.005	19.993	103.869	19.849	9.151	0.527
181.500	175.421	80.005	19.994	103.868	19.849	9.117	0.505
182.000	175.655	80.006	19.993	103.868	19.848	9.171	0.500
182.500	175.858	80.006	19.994	103.867	19.846	9.347	0.464
183.000	176.121	80.004	19.994	103.867	19.845	9.440	0.451
183.500	176.379	80.005	19.995	103.866	19.841	9.687	0.493
184.000	176.612	80.004	19.995	103.866	19.847	9.275	0.506
184.500	176.886	80.004	19.994	103.865	19.843	9.553	0.499
185.000	177.135	80.005	19.995	103.866	19.843	9.548	0.515
185.500	177.384	80.003	19.993	103.867	19.843	9.558	0.510
186.000	177.619	80.004	19.994	103.868	19.845	9.410	0.491
186.500	177.866	80.005	19.994	103.866	19.843	9.562	0.483
187.000	178.126	80.004	19.994	103.863	19.838	9.936	0.494
187.500	178.366	80.005	19.994	103.861	19.838	9.899	0.503
188.000	178.630	80.006	19.994	103.859	19.837	10.009	0.502
188.500	178.879	80.004	19.994	103.857	19.838	9.964	0.509
189.000	179.106	80.006	19.995	103.858	19.839	9.838	0.494
189.500	179.358	80.004	19.994	103.859	19.832	10.373	0.478
190.000	179.575	80.006	19.993	103.861	19.835	10.126	0.474
190.500	179.851	80.005	19.995	103.863	19.834	10.230	0.481
191.000	180.116	80.004	19.993	103.862	19.832	10.354	0.516
191.500	180.336	80.006	19.994	103.862	19.833	10.277	0.513
192.000	180.630	80.005	19.994	103.864	19.834	10.208	0.500
192.500	180.808	80.005	19.994	103.862	19.831	10.471	0.493
193.000	181.087	80.004	19.993	103.855	19.830	10.567	0.465
193.500	181.329	80.006	19.993	103.852	19.830	10.548	0.489
194.000	181.558	80.007	19.993	103.848	19.829	10.585	0.496
194.500	181.791	80.004	19.994	103.842	19.831	10.431	0.467
195.000	182.074	80.007	19.994	103.839	19.826	10.822	0.489
195.500	182.286	80.006	19.993	103.846	19.829	10.582	0.505
196.000	182.534	80.007	19.993	103.849	19.830	10.552	0.477
196.500	182.791	80.007	19.993	103.851	19.828	10.706	0.482
197.000	183.022	80.006	19.993	103.854	19.825	10.898	0.496
197.500	183.265	80.009	19.993	103.857	19.826	10.792	0.481
198.000	183.512	80.006	19.992	103.858	19.825	10.890	0.483
198.500	183.764	80.006	19.993	103.858	19.822	11.121	0.495
199.000	184.005	80.007	19.992	103.857	19.821	11.210	0.496
199.500	184.219	80.006	19.993	103.855	19.823	11.087	0.474
200.000	184.451	80.007	19.993	103.852	19.817	11.529	0.451
200.500	184.717	80.005	19.992	103.850	19.825	10.920	0.472
201.000	184.968	80.007	19.992	103.851	19.823	11.055	0.508
201.500	185.200	80.007	19.992	103.853	19.822	11.118	0.500
202.000	185.478	80.007	19.993	103.858	19.817	11.504	0.496
202.500	185.729	80.006	19.993	103.862	19.815	11.611	0.519
203.000	185.973	80.008	19.992	103.861	19.816	11.555	0.512
203.500	186.221	80.006	19.992	103.857	19.815	11.673	0.494
204.000	186.485	80.007	19.992	103.857	19.815	11.649	0.502
204.500	186.729	80.007	19.992	103.856	19.810	12.042	0.511
205.000	186.993	80.008	19.992	103.857	19.811	11.937	0.508
205.500	187.237	80.008	19.993	103.858	19.814	11.735	0.508
206.000	187.487	80.008	19.993	103.856	19.813	11.804	0.501
206.500	187.728	80.008	19.993	103.851	19.812	11.860	0.492
207.000	187.974	80.007	19.992	103.850	19.812	11.895	0.489
207.500	188.243	80.008	19.992	103.845	19.806	12.290	0.501
208.000	188.471	80.008	19.992	103.840	19.808	12.169	0.506
208.500	188.692	80.008	19.993	103.840	19.808	12.132	0.473
209.000	188.981	80.006	19.991	103.843	19.807	12.275	0.479
209.500	189.236	80.007	19.993	103.842	19.806	12.335	0.527
210.000	189.457	80.007	19.992	103.842	19.803	12.550	0.510
210.500	189.723	80.007	19.993	103.843	19.804	12.473	0.481
211.000	189.987	80.008	19.992	103.842	19.803	12.526	0.508
211.500	190.234	80.005	19.994	103.837	19.801	12.716	0.521
212.000	190.479	80.006	19.993	103.834	19.801	12.714	0.502
212.500	190.713	80.006	19.992	103.833	19.799	12.813	0.486
213.000	190.955	80.005	19.992	103.835	19.800	12.777	0.478
213.500	191.195	80.004	19.993	103.837	19.799	12.850	0.479
214.000	191.443	80.005	19.994	103.841	19.799	12.828	0.485
214.500	191.713	80.005	19.994	103.843	19.794	13.185	0.503
215.000	191.956	80.005	19.994	103.846	19.795	13.144	0.515
215.500	192.185	80.005	19.994	103.843	19.793	13.288	0.493
216.000	192.447	80.005	19.994	103.841	19.794	13.189	0.481
216.500	192.659	80.006	19.995	103.837	19.792	13.359	0.482
217.000	192.901	80.005	19.994	103.834	19.793	13.257	0.464
217.500	193.143	80.004	19.993	103.831	19.789	13.550	0.469
218.000	193.378	80.005	19.993	103.828	19.790	13.533	0.481
218.500	193.629	80.005	19.993	103.829	19.784	13.921	0.481
219.000	193.860	80.005	19.994	103.831	19.785	13.854	0.484
219.500	194.152	80.004	19.993	103.834	19.788	13.653	0.503
220.000	194.386	80.004	19.992	103.835	19.783	13.994	0.525
220.500	194.637	80.004	19.995	103.835	19.785	13.901	0.506
221.000	194.868	80.005	19.994	103.835	19.782	14.114	0.484
221.500	195.110	80.004	19.993	103.833	19.782	14.079	0.478
222.000	195.350	80.005	19.993	103.830	19.783	14.017	0.478
222.500	195.596	80.005	19.993	103.829	19.782	14.067	0.484
223.000	195.875	80.005	19.994	103.829	19.777	14.503	0.505
223.500	196.103	80.005	19.994	103.828	19.776	14.570	0.516
224.000	196.359	80.005	19.992	103.828	19.779	14.351	0.496
224.500	196.580	80.006	19.993	103.828	19.775	14.653	0.481
225.000	196.826	80.006	19.993	103.828	19.777	14.509	0.472
225.500	197.051	80.005	19.993	103.829	19.776	14.552	0.469
226.000	197.286	80.007	19.993	103.828	19.772	14.813	0.465
226.500	197.558	80.006	19.993	103.828	19.771	14.955	0.484
227.000	197.782	80.004	19.994	103.829	19.773	14.769	0.502
227.500	198.088	80.005	19.993	103.828	19.771	14.901	0.513
228.000	198.288	80.005	19.993	103.827	19.770	15.012	0.517
228.500	198.575	80.004	19.993	103.827	19.769	15.079	0.496
229.000	198.804	80.006	19.993	103.826	19.763	15.520	0.501
229.500	199.046	80.005	19.993	103.826	19.766	15.278	0.494
230.000	199.300	80.006	19.994	103.826	19.765	15.388	0.484
230.500	199.473	80.005	19.992	103.827	19.766	15.314	0.461
231.000	199.769	80.005	19.993	103.827	19.759	15.848	0.448
231.500	200.023	80.005	19.994	103.828	19.759	15.830	0.510
232.000	200.202	80.005	19.993	103.829	19.762	15.610	0.491
232.500	200.473	80.004	19.992	103.829	19.756	16.040	0.442
233.000	200.748	80.006	19.993	103.832	19.755	16.150	0.498
233.500	201.000	80.007	19.992	103.832	19.753	16.274	0.536
234.000	201.236	80.006	19.993	103.832	19.751	16.379	0.508
234.500	201.480	80.005	19.992	103.831	19.754	16.181	0.484
235.000	201.738	80.006	19.994	103.830	19.747	16.678	0.491
235.500	201.955	80.004	19.993	103.827	19.751	16.418	0.488
236.000	202.252	80.006	19.993	103.827	19.746	16.755	0.494
236.500	202.520	80.005	19.991	103.827	19.746	16.767	0.539
237.000	202.744	80.006	19.993	103.827	19.748	16.661	0.528
237.500	202.951	80.004	19.993	103.828	19.748	16.613	0.461
238.000	203.209	80.006	19.994	103.828	19.744	16.925	0.448
238.500	203.479	80.006	19.994	103.829	19.744	16.941	0.497
239.000	203.702	80.005	19.993	103.830	19.744	16.943	0.510
239.500	203.973	80.006	19.993	103.831	19.738	17.349	0.494
240.000	204.232	80.005	19.992	103.831	19.740	17.241	0.512
240.500	204.468	80.006	19.993	103.831	19.737	17.422	0.512
241.000	204.697	80.006	19.993	103.830	19.736	17.554	0.480
241.500	204.965	80.005	19.994	103.829	19.736	17.511	0.482
242.000	205.177	80.007	19.993	103.829	19.736	17.566	0.488
242.500	205.425	80.004	19.993	103.828	19.735	17.588	0.470
243.000	205.698	80.004	19.994	103.827	19.735	17.584	0.491
243.500	205.946	80.006	19.994	103.827	19.733	17.758	0.521
244.000	206.163	80.003	19.995	103.827	19.732	17.848	0.493
244.500	206.425	80.005	19.994	103.827	19.733	17.777	0.472
245.000	206.664	80.004	19.994	103.828	19.729	18.083	0.490
245.500	206.902	80.006	19.993	103.829	19.730	17.946	0.489
246.000	207.139	80.004	19.993	103.829	19.729	18.048	0.476
246.500	207.419	80.003	19.993	103.829	19.726	18.241	0.496
247.000	207.665	80.004	19.993	103.829	19.723	18.531	0.522
247.500	207.907	80.004	19.994	103.828	19.723	18.531	0.507
248.000	208.157	80.005	19.994	103.829	19.724	18.424	0.490
248.500	208.409	80.004	19.994	103.828	19.720	18.688	0.497
249.000	208.658	80.004	19.994	103.828	19.721	18.669	0.502
249.500	208.891	80.004	19.994	103.829	19.718	18.850	0.492
250.000	209.125	80.004	19.995	103.830	19.714	19.184	0.474
250.500	209.376	80.006	19.994	103.828	19.718	18.864	0.476
251.000	209.648	80.005	19.995	103.829	19.715	19.095	0.504
251.500	209.854	80.005	19.994	103.829	19.712	19.312	0.500
252.000	210.115	80.005	19.994	103.829	19.714	19.182	0.473
252.500	210.392	80.005	19.994	103.828	19.713	19.248	0.503
253.000	210.616	80.005	19.993	103.829	19.711	19.376	0.519
253.500	210.915	80.005	19.995	103.828	19.712	19.287	0.512
254.000	211.087	80.005	19.994	103.828	19.710	19.476	0.497
254.500	211.366	80.006	19.994	103.828	19.712	19.348	0.461
255.000	211.626	80.005	19.993	103.826	19.712	19.336	0.495
255.500	211.861	80.006	19.995	103.827	19.709	19.544	0.517
256.000	212.101	80.006	19.993	103.825	19.709	19.516	0.485
256.500	212.342	80.005	19.993	103.824	19.706	19.784	0.478
257.000	212.576	80.007	19.993	103.823	19.706	19.784	0.477
257.500	212.839	80.007	19.994	103.824	19.706	19.788	0.486
258.000	213.107	80.006	19.994	103.824	19.700	20.176	0.514
258.500	213.339	80.005	19.995	103.827	19.700	20.187	0.516
259.000	213.595	80.007	19.994	103.828	19.704	19.883	0.494
259.500	213.850	80.006	19.994	103.828	19.704	19.942	0.499
260.000	214.079	80.006	19.993	103.828	19.702	20.023	0.498
260.500	214.346	80.008	19.994	103.828	19.700	20.189	0.490
261.000	214.628	80.007	19.994	103.828	19.702	20.037	0.522
261.500	214.829	80.007	19.994	103.828	19.697	20.410	0.516
262.000	215.060	80.006	19.993	103.827	19.698	20.339	0.458
262.500	215.313	80.007	19.994	103.826	19.693	20.751	0.458
263.000	215.551	80.007	19.992	103.825	19.698	20.388	0.488
263.500	215.815	80.006	19.992	103.823	19.696	20.529	0.497
264.000	216.059	80.006	19.993	103.822	19.694	20.674	0.505
264.500	216.289	80.007	19.993	103.824	19.694	20.673	0.491
265.000	216.527	80.006	19.993	103.825	19.695	20.592	0.471
265.500	216.779	80.006	19.993	103.824	19.692	20.794	0.479
266.000	217.026	80.006	19.993	103.825	19.687	21.202	0.494
266.500	217.280	80.006	19.994	103.822	19.688	21.070	0.500
267.000	217.541	80.006	19.993	103.822	19.692	20.812	0.508
267.500	217.794	80.006	19.993	103.822	19.690	20.966	0.515
268.000	218.052	80.007	19.994	103.824	19.691	20.888	0.513
268.500	218.249	80.006	19.994	103.824	19.687	21.138	0.483
269.000	218.554	80.005	19.992	103.825	19.687	21.203	0.478
269.500	218.771	80.005	19.994	103.822	19.685	21.329	0.512
270.000	219.009	80.006	19.994	103.820	19.683	21.511	0.489
270.500	219.282	80.007	19.993	103.820	19.683	21.446	0.483
271.000	219.516	80.006	19.994	103.821	19.683	21.470	0.509
271.500	219.765	80.005	19.993	103.821	19.682	21.583	0.495
272.000	220.054	80.005	19.994	103.823	19.683	21.463	0.511
272.500	220.269	80.006	19.994	103.821	19.682	21.570	0.521
273.000	220.532	80.005	19.994	103.821	19.678	21.814	0.490
273.500	220.793	80.006	19.995	103.819	19.684	21.420	0.501
274.000	221.034	80.005	19.994	103.820	19.684	21.367	0.513
274.500	221.311	80.007	19.994	103.818	19.678	21.810	0.510
275.000	221.550	80.006	19.995	103.820	19.681	21.616	0.517
275.500	221.772	80.006	19.994	103.819	19.678	21.852	0.488
276.000	222.039	80.007	19.994	103.816	19.683	21.479	0.475
276.500	222.266	80.006	19.994	103.811	19.677	21.934	0.491
277.000	222.528	80.006	19.993	103.807	19.681	21.625	0.491
277.500	222.797	80.006	19.995	103.805	19.678	21.866	0.510
278.000	223.035	80.007	19.994	103.803	19.677	21.887	0.519
278.500	223.251	80.006	19.993	103.800	19.679	21.775	0.480
279.000	223.546	80.007	19.995	103.804	19.676	21.964	0.482
279.500	223.764	80.006	19.995	103.810	19.678	21.848	0.512
280.000	224.013	80.006	19.994	103.812	19.677	21.945	0.490
280.500	224.238	80.007	19.994	103.813	19.678	21.859	0.471
281.000	224.527	80.007	19.993	103.817	19.678	21.840	0.494
281.500	224.783	80.007	19.995	103.817	19.679	21.765	0.529
282.000	225.025	80.006	19.994	103.817	19.677	21.913	0.521
282.500	225.274	80.008	19.993	103.815	19.674	22.126	0.495
283.000	225.516	80.007	19.993	103.812	19.675	22.043	0.491
283.500	225.784	80.007	19.994	103.807	19.674	22.129	0.500
284.000	226.008	80.007	19.994	103.802	19.677	21.913	0.500
284.500	226.243	80.006	19.994	103.799	19.677	21.951	0.476
285.000	226.512	80.009	19.994	103.796	19.675	22.051	0.482
285.500	226.753	80.009	19.994	103.795	19.678	21.857	0.507
286.000	227.027	80.007	19.994	103.795	19.676	21.966	0.513
286.500	227.214	80.008	19.994	103.798	19.676	21.996	0.488
287.000	227.480	80.008	19.993	103.798	19.677	21.890	0.457
287.500	227.771	80.006	19.994	103.797	19.675	22.066	0.504
288.000	228.001	80.007	19.993	103.800	19.677	21.939	0.539
288.500	228.241	80.008	19.993	103.800	19.680	21.687	0.496
289.000	228.509	80.007	19.994	103.802	19.677	21.892	0.489
289.500	228.788	80.008	19.993	103.802	19.678	21.806	0.527
290.000	229.038	80.008	19.995	103.802	19.674	22.117	0.538
290.500	229.301	80.007	19.993	103.800	19.673	22.182	0.521
291.000	229.537	80.008	19.994	103.799	19.674	22.156	0.506
291.500	229.806	80.006	19.992	103.794	19.677	21.923	0.502
292.000	230.063	80.007	19.993	103.792	19.674	22.128	0.515
292.500	230.297	80.006	19.992	103.791	19.675	22.077	0.509
293.000	230.553	80.006	19.993	103.790	19.670	22.465	0.491
293.500	230.810	80.007	19.994	103.791	19.678	21.862	0.501
294.000	231.041	80.006	19.994	103.793	19.675	22.031	0.500
294.500	231.318	80.005	19.993	103.796	19.676	21.992	0.498
295.000	231.544	80.005	19.993	103.801	19.675	22.037	0.506
295.500	231.833	80.005	19.994	103.807	19.678	21.854	0.509
296.000	232.048	80.006	19.993	103.810	19.673	22.187	0.509
296.500	232.275	80.005	19.991	103.814	19.677	21.942	0.473
297.000	232.549	80.004	19.994	103.814	19.677	21.899	0.471
297.500	232.810	80.007	19.995	103.810	19.676	21.964	0.518
298.000	233.074	80.006	19.995	103.806	19.683	21.487	0.530
298.500	233.310	80.006	19.993	103.807	19.680	21.690	0.513
299.000	233.551	80.006	19.994	103.801	19.680	21.708	0.488
299.500	233.819	80.006	19.993	103.798	19.679	21.745	0.493
300.000	234.064	80.006	19.993	103.796	19.677	21.952	0.511
300.500	234.297	80.006	19.993	103.793	19.682	21.512	0.495
301.000	234.513	80.004	19.994	103.789	19.683	21.488	0.463
301.500	234.795	80.006	19.994	103.789	19.680	21.686	0.474
302.000	235.059	80.005	19.993	103.791	19.682	21.510	0.522
302.500	235.308	80.006	19.995	103.792	19.684	21.390	0.529
303.000	235.535	80.006	19.995	103.792	19.688	21.125	0.495
303.500	235.839	80.005	19.994	103.792	19.684	21.392	0.503
304.000	236.060	80.006	19.994	103.792	19.685	21.321	0.528
304.500	236.295	80.005	19.994	103.792	19.690	20.972	0.491
305.000	236.512	80.005	19.994	103.792	19.685	21.321	0.454
305.500	236.756	80.005	19.994	103.792	19.687	21.161	0.456
306.000	237.045	80.005	19.994	103.792	19.688	21.088	0.497
306.500	237.285	80.005	19.993	103.791	19.691	20.877	0.531
307.000	237.535	80.005	19.993	103.791	19.690	20.964	0.509
307.500	237.745	80.004	19.993	103.792	19.688	21.076	0.475
308.000	238.025	80.004	19.994	103.792	19.693	20.760	0.475
308.500	238.279	80.005	19.993	103.792	19.695	20.557	0.512
309.000	238.515	80.005	19.993	103.793	19.692	20.776	0.512
309.500	238.776	80.005	19.994	103.792	19.693	20.723	0.494
310.000	239.009	80.004	19.994	103.791	19.696	20.498	0.496
310.500	239.256	80.005	19.994	103.791	19.696	20.526	0.487
311.000	239.490	80.005	19.993	103.792	19.696	20.535	0.480
311.500	239.748	80.006	19.993	103.793	19.698	20.368	0.487
312.000	240.021	80.005	19.994	103.794	19.702	20.044	0.512
312.500	240.262	80.005	19.994	103.794	19.699	20.275	0.523
313.000	240.464	80.005	19.993	103.794	19.701	20.123	0.478
313.500	240.742	80.005	19.993	103.794	19.699	20.291	0.461
314.000	240.963	80.006	19.993	103.793	19.699	20.314	0.489
314.500	241.254	80.004	19.993	103.792	19.698	20.334	0.505
315.000	241.469	80.005	19.993	103.792	19.704	19.912	0.509
315.500	241.741	80.006	19.993	103.791	19.704	19.920	0.497
316.000	242.023	80.005	19.993	103.790	19.704	19.888	0.521
316.500	242.249	80.007	19.993	103.791	19.703	19.948	0.531
317.000	242.498	80.006	19.993	103.791	19.705	19.815	0.492
317.500	242.761	80.006	19.994	103.792	19.706	19.750	0.493
318.000	242.999	80.006	19.994	103.793	19.704	19.870	0.506
318.500	243.247	80.006	19.994	103.794	19.706	19.762	0.493
319.000	243.511	80.006	19.993	103.793	19.707	19.703	0.499
319.500	243.756	80.005	19.994	103.793	19.710	19.448	0.511
320.000	244.015	80.008	19.993	103.793	19.709	19.555	0.507
320.500	244.281	80.006	19.993	103.793	19.709	19.560	0.514
321.000	244.509	80.006	19.993	103.793	19.708	19.604	0.509
321.500	244.776	80.007	19.994	103.793	19.710	19.472	0.495
322.000	245.007	80.005	19.992	103.793	19.715	19.093	0.497
322.500	245.287	80.005	19.993	103.792	19.713	19.229	0.504
323.000	245.495	80.006	19.993	103.793	19.713	19.265	0.500
323.500	245.776	80.006	19.993	103.794	19.716	19.022	0.489
324.000	246.049	80.005	19.993	103.794	19.717	18.918	0.522
324.500	246.269	80.004	19.993	103.793	19.717	18.971	0.523
325.000	246.524	80.006	19.993	103.794	19.720	18.709	0.484
325.500	246.755	80.004	19.992	103.794	19.720	18.740	0.481
326.000	247.022	80.005	19.993	103.793	19.727	18.182	0.492
326.500	247.257	80.005	19.993	103.793	19.725	18.317	0.500
327.000	247.478	80.004	19.993	103.793	19.730	17.991	0.479
327.500	247.740	80.005	19.993	103.793	19.729	18.013	0.470
328.000	247.995	80.005	19.993	103.793	19.736	17.559	0.500
328.500	248.240	80.005	19.993	103.793	19.727	18.228	0.508
329.000	248.509	80.004	19.993	103.793	19.734	17.656	0.507
329.500	248.738	80.003	19.994	103.794	19.734	17.687	0.506
330.000	249.007	80.005	19.994	103.794	19.734	17.670	0.498
330.500	249.299	80.004	19.993	103.795	19.736	17.498	0.530
331.000	249.543	80.005	19.993	103.795	19.738	17.401	0.549
331.500	249.756	80.005	19.993	103.795	19.739	17.285	0.496
332.000	250.016	80.004	19.992	103.795	19.739	17.307	0.465
332.500	250.286	80.004	19.992	103.793	19.740	17.214	0.502
333.000	250.537	80.005	19.993	103.793	19.745	16.874	0.526
333.500	250.802	80.004	19.993	103.793	19.743	16.981	0.518
334.000	251.022	80.005	19.992	103.793	19.743	17.005	0.501
334.500	251.248	80.004	19.993	103.793	19.748	16.659	0.466
335.000	251.516	80.005	19.992	103.793	19.747	16.693	0.470
335.500	251.734	80.005	19.992	103.792	19.749	16.584	0.490
336.000	252.020	80.006	19.992	103.791	19.749	16.537	0.495
336.500	252.267	80.006	19.993	103.791	19.752	16.361	0.518
337.000	252.531	80.006	19.993	103.790	19.753	16.290	0.522
337.500	252.752	80.006	19.993	103.789	19.752	16.306	0.498
338.000	253.028	80.005	19.993	103.788	19.753	16.279	0.491
338.500	253.294	80.006	19.993	103.787	19.755	16.121	0.519
339.000	253.516	80.006	19.993	103.787	19.757	15.967	0.515
339.500	253.792	80.006	19.994	103.787	19.761	15.691	0.493
340.000	254.040	80.005	19.993	103.787	19.759	15.843	0.511
340.500	254.313	80.007	19.993	103.787	19.758	15.880	0.522
341.000	254.570	80.006	19.993	103.787	19.766	15.325	0.526
341.500	254.801	80.007	19.994	103.787	19.763	15.530	0.509
342.000	255.045	80.006	19.993	103.787	19.766	15.258	0.481
342.500	255.322	80.006	19.993	103.787	19.763	15.530	0.498
343.000	255.587	80.005	19.992	103.786	19.767	15.199	0.531
343.500	255.819	80.006	19.993	103.787	19.764	15.408	0.519
344.000	256.098	80.006	19.993	103.787	19.771	14.931	0.504
344.500	256.345	80.008	19.993	103.786	19.770	14.960	0.518
345.000	256.571	80.005	19.994	103.786	19.772	14.859	0.500
345.500	256.785	80.006	19.993	103.787	19.774	14.672	0.457
346.000	257.044	80.005	19.993	103.787	19.771	14.887	0.457
346.500	257.324	80.004	19.994	103.787	19.778	14.393	0.506
347.000	257.586	80.007	19.995	103.787	19.778	14.371	0.540
347.500	257.837	80.005	19.993	103.787	19.782	14.103	0.527
348.000	258.070	80.006	19.993	103.787	19.782	14.109	0.498
348.500	258.312	80.006	19.993	103.786	19.785	13.878	0.480
349.000	258.585	80.005	19.993	103.786	19.784	13.971	0.495
349.500	258.812	80.005	19.993	103.786	19.788	13.662	0.508
350.000	259.101	80.005	19.993	103.785	19.790	13.536	0.508
350.500	259.342	80.007	19.993	103.785	19.788	13.682	0.523
351.000	259.589	80.005	19.992	103.786	19.789	13.557	0.509
351.500	259.840	80.007	19.993	103.787	19.789	13.565	0.493
352.000	260.061	80.006	19.994	103.789	19.789	13.596	0.485
352.500	260.307	80.006	19.993	103.789	19.790	13.515	0.470
353.000	260.534	80.006	19.994	103.789	19.789	13.556	0.470
353.500	260.796	80.004	19.993	103.789	19.794	13.243	0.481
354.000	261.038	80.006	19.993	103.788	19.799	12.821	0.497
354.500	261.266	80.006	19.993	103.789	19.794	13.222	0.487
355.000	261.526	80.005	19.993	103.789	19.796	13.068	0.479
355.500	261.782	80.007	19.993	103.790	19.798	12.920	0.502
356.000	262.035	80.007	19.993	103.791	19.797	12.946	0.512
356.500	262.284	80.006	19.993	103.791	19.795	13.149	0.505
357.000	262.552	80.006	19.994	103.790	19.801	12.693	0.509
357.500	262.805	80.007	19.995	103.793	19.800	12.743	0.519
358.000	263.036	80.006	19.994	103.795	19.799	12.867	0.503
358.500	263.278	80.006	19.994	103.795	19.800	12.733	0.479
359.000	263.566	80.007	19.995	103.795	19.806	12.301	0.502
359.500	263.799	80.007	19.993	103.794	19.805	12.364	0.526
360.000	264.035	80.006	19.994	103.791	19.806	12.328	0.495
360.500	264.336	80.006	19.994	103.788	19.806	12.338	0.503
361.000	264.585	80.007	19.994	103.788	19.809	12.054	0.543
361.500	264.842	80.006	19.996	103.788	19.807	12.211	0.528
362.000	265.094	80.007	19.994	103.789	19.807	12.233	0.508
362.500	265.325	80.007	19.995	103.792	19.809	12.067	0.497
363.000	265.557	80.007	19.995	103.797	19.812	11.874	0.473
363.500	265.816	80.007	19.996	103.797	19.814	11.748	0.477
364.000	266.048	80.007	19.993	103.797	19.811	11.904	0.491
364.500	266.315	80.008	19.993	103.795	19.813	11.819	0.495
365.000	266.581	80.008	19.993	103.793	19.815	11.622	0.516
365.500	266.828	80.007	19.993	103.788	19.816	11.551	0.523
366.000	267.087	80.007	19.993	103.787	19.819	11.359	0.509
366.500	267.310	80.008	19.994	103.787	19.814	11.714	0.494
367.000	267.564	80.008	19.993	103.786	19.815	11.665	0.480
367.500	267.814	80.008	19.994	103.786	19.821	11.183	0.491
368.000	268.076	80.006	19.994	103.786	19.821	11.181	0.507
368.500	268.302	80.008	19.994	103.786	19.827	10.759	0.500
369.000	268.569	80.008	19.993	103.787	19.819	11.339	0.491
369.500	268.835	80.008	19.995	103.787	19.822	11.158	0.513
370.000	269.047	80.007	19.994	103.788	19.824	11.003	0.506
370.500	269.345	80.008	19.995	103.788	19.823	11.027	0.494
371.000	269.559	80.007	19.993	103.788	19.827	10.741	0.511
371.500	269.837	80.005	19.993	103.790	19.829	10.609	0.502
372.000	270.057	80.008	19.994	103.791	19.827	10.737	0.495
372.500	270.307	80.006	19.994	103.790	19.832	10.382	0.484
373.000	270.588	80.006	19.993	103.790	19.826	10.832	0.500
373.500	270.879	80.006	19.994	103.790	19.834	10.262	0.551
374.000	271.122	80.006	19.993	103.789	19.829	10.575	0.553
374.500	271.349	80.005	19.994	103.788	19.831	10.419	0.502
375.000	271.623	80.005	19.994	103.788	19.832	10.372	0.486
375.500	271.863	80.005	19.994	103.789	19.835	10.188	0.508
376.000	272.153	80.005	19.994	103.789	19.834	10.245	0.522
376.500	272.363	80.005	19.994	103.789	19.834	10.263	0.515
377.000	272.623	80.004	19.995	103.789	19.834	10.242	0.485
377.500	272.890	80.004	19.994	103.790	19.838	9.934	0.499
378.000	273.124	80.005	19.993	103.793	19.833	10.307	0.514
378.500	273.356	80.004	19.996	103.792	19.835	10.145	0.484
379.000	273.638	80.004	19.995	103.793	19.837	9.978	0.491
379.500	273.862	80.004	19.994	103.794	19.837	10.029	0.510
380.000	274.112	80.002	19.994	103.794	19.838	9.956	0.490
380.500	274.349	80.006	19.995	103.793	19.840	9.795	0.480
381.000	274.603	80.005	19.994	103.795	19.839	9.870	0.489
381.500	274.898	80.006	19.994	103.796	19.843	9.574	0.520
382.000	275.121	80.004	19.994	103.796	19.842	9.629	0.534
382.500	275.366	80.004	19.993	103.795	19.842	9.610	0.493
383.000	275.605	80.007	19.992	103.794	19.841	9.736	0.476
383.500	275.898	80.004	19.993	103.792	19.842	9.661	0.508
384.000	276.142	80.005	19.993	103.791	19.841	9.675	0.535
384.500	276.414	80.005	19.993	103.792	19.841	9.675	0.527
385.000	276.632	80.006	19.993	103.794	19.843	9.535	0.503
385.500	276.886	80.005	19.993	103.796	19.844	9.454	0.481
386.000	277.135	80.004	19.992	103.798	19.841	9.729	0.487
386.500	277.419	80.005	19.993	103.799	19.843	9.571	0.518
387.000	277.674	80.004	19.992	103.799	19.845	9.399	0.536
387.500	277.925	80.005	19.992	103.798	19.845	9.445	0.522
388.000	278.135	80.005	19.993	103.797	19.847	9.265	0.483
388.500	278.408	80.004	19.992	103.795	19.847	9.231	0.472
389.000	278.643	80.005	19.992	103.794	19.848	9.186	0.495
389.500	278.887	80.005	19.992	103.792	19.848	9.154	0.494
390.000	279.161	80.005	19.995	103.794	19.847	9.259	0.498
390.500	279.397	80.005	19.994	103.796	19.850	9.009	0.514
391.000	279.598	80.006	19.993	103.797	19.845	9.374	0.474
391.500	279.856	80.005	19.994	103.800	19.851	8.940	0.449
392.000	280.080	80.005	19.993	103.806	19.854	8.725	0.471
392.500	280.402	80.005	19.993	103.806	19.852	8.873	0.514
393.000	280.639	80.005	19.992	103.804	19.852	8.892	0.552
393.500	280.842	80.005	19.992	103.806	19.851	8.944	0.499
394.000	281.136	80.006	19.992	103.806	19.853	8.794	0.469
394.500	281.397	80.005	19.994	103.806	19.853	8.845	0.526
395.000	281.625	80.006	19.992	103.807	19.850	9.054	0.522
395.500	281.886	80.005	19.994	103.806	19.851	8.962	0.489
396.000	282.123	80.005	19.993	103.803	19.851	8.964	0.493
396.500	282.351	80.005	19.993	103.801	19.852	8.891	0.481
397.000	282.588	80.004	19.993	103.797	19.850	9.013	0.465
397.500	282.887	80.006	19.992	103.796	19.854	8.759	0.501
398.000	283.105	80.005	19.992	103.797	19.851	8.956	0.527
398.500	283.372	80.005	19.992	103.797	19.849	9.084	0.501
399.000	283.603	80.006	19.994	103.797	19.853	8.800	0.491
399.500	283.841	80.005	19.994	103.798	19.852	8.869	0.484
400.000	284.105	80.005	19.993	103.800	19.855	8.658	0.486
400.500	284.388	80.007	19.993	103.799	19.855	8.701	0.524
401.000	284.622	80.006	19.993	103.797	19.859	8.331	0.531
401.500	284.901	80.005	19.993	103.797	19.853	8.848	0.515
402.000	285.126	80.006	19.992	103.794	19.855	8.686	0.509
402.500	285.378	80.005	19.993	103.793	19.854	8.711	0.490
403.000	285.646	80.004	19.992	103.793	19.855	8.698	0.498
403.500	285.889	80.005	19.993	103.794	19.860	8.305	0.516
404.000	286.145	80.005	19.994	103.794	19.850	9.065	0.506
404.500	286.426	80.005	19.992	103.793	19.855	8.688	0.518
405.000	286.647	80.005	19.993	103.792	19.852	8.915	0.519
405.500	286.896	80.005	19.994	103.793	19.852	8.893	0.486
406.000	287.166	80.005	19.993	103.792	19.851	8.952	0.494
406.500	287.414	80.005	19.993	103.792	19.851	8.926	0.519
407.000	287.694	80.006	19.994	103.792	19.852	8.922	0.523
407.500	287.929	80.005	19.993	103.790	19.852	8.885	0.521
408.000	288.175	80.005	19.993	103.790	19.853	8.804	0.498
408.500	288.421	80.005	19.994	103.790	19.851	8.983	0.487
409.000	288.679	80.007	19.993	103.790	19.852	8.857	0.498
409.500	288.891	80.005	19.994	103.790	19.851	8.934	0.487
410.000	289.180	80.004	19.993	103.790	19.853	8.780	0.486
410.500	289.414	80.005	19.993	103.790	19.856	8.607	0.512
411.000	289.690	80.004	19.993	103.789	19.853	8.844	0.517
411.500	289.938	80.005	19.995	103.789	19.851	8.972	0.517
412.000	290.185	80.005	19.993	103.788	19.854	8.731	0.509
412.500	290.457	80.005	19.993	103.788	19.851	8.970	0.507
413.000	290.745	80.006	19.994	103.788	19.854	8.763	0.540
413.500	290.975	80.005	19.992	103.788	19.856	8.617	0.539
414.000	291.266	80.006	19.993	103.788	19.853	8.832	0.519
414.500	291.514	80.005	19.992	103.788	19.854	8.769	0.530
415.000	291.745	80.005	19.992	103.788	19.854	8.757	0.509
415.500	292.005	80.006	19.994	103.788	19.850	9.039	0.485
416.000	292.267	80.006	19.994	103.788	19.851	8.968	0.507
416.500	292.535	80.005	19.991	103.789	19.851	8.999	0.526
417.000	292.777	80.006	19.994	103.790	19.849	9.139	0.520
417.500	293.044	80.006	19.994	103.791	19.848	9.165	0.509
418.000	293.299	80.006	19.993	103.793	19.849	9.090	0.516
418.500	293.535	80.006	19.993	103.793	19.850	9.049	0.506
419.000	293.769	80.007	19.993	103.792	19.846	9.299	0.480
419.500	294.056	80.006	19.994	103.791	19.847	9.295	0.496
420.000	294.296	80.007	19.993	103.790	19.846	9.311	0.524
420.500	294.521	80.006	19.992	103.789	19.846	9.347	0.496
421.000	294.806	80.006	19.993	103.788	19.848	9.165	0.488
421.500	295.064	80.007	19.993	103.789	19.845	9.388	0.526
422.000	295.318	80.007	19.994	103.789	19.847	9.270	0.527
422.500	295.578	80.005	19.992	103.788	19.847	9.228	0.513
423.000	295.823	80.007	19.993	103.789	19.848	9.149	0.510
423.500	296.110	80.007	19.992	103.789	19.846	9.364	0.519
424.000	296.341	80.007	19.993	103.788	19.848	9.204	0.525
424.500	296.614	80.007	19.992	103.789	19.845	9.380	0.511
425.000	296.894	80.007	19.993	103.789	19.845	9.418	0.528
425.500	297.102	80.007	19.993	103.788	19.843	9.593	0.520
426.000	297.332	80.006	19.993	103.788	19.843	9.552	0.462
426.500	297.614	80.006	19.992	103.788	19.843	9.542	0.475
427.000	297.885	80.007	19.992	103.789	19.845	9.388	0.533
427.500	298.108	80.008	19.993	103.788	19.841	9.698	0.523
428.000	298.383	80.006	19.992	103.789	19.842	9.627	0.496
428.500	298.653	80.007	19.993	103.789	19.841	9.680	0.522
429.000	298.888	80.006	19.993	103.790	19.839	9.891	0.525
429.500	299.136	80.007	19.993	103.789	19.841	9.737	0.494
430.000	299.378	80.006	19.992	103.790	19.842	9.621	0.486
430.500	299.629	80.007	19.994	103.789	19.839	9.828	0.492
431.000	299.890	80.007	19.993	103.789	19.838	9.954	0.502
431.500	300.150	80.007	19.992	103.790	19.841	9.694	0.516
432.000	300.364	80.006	19.994	103.790	19.842	9.611	0.497
432.500	300.630	80.007	19.992	103.790	19.840	9.771	0.477
433.000	300.865	80.005	19.993	103.789	19.839	9.846	0.491
433.500	301.160	80.006	19.994	103.790	19.839	9.883	0.515
434.000	301.391	80.006	19.994	103.790	19.841	9.741	0.527
434.500	301.617	80.005	19.994	103.790	19.836	10.112	0.491
435.000	301.927	80.004	19.993	103.791	19.838	9.919	0.497
435.500	302.143	80.006	19.993	103.791	19.838	9.903	0.531
436.000	302.435	80.005	19.993	103.791	19.839	9.877	0.517
436.500	302.679	80.005	19.994	103.789	19.834	10.260	0.522
437.000	302.902	80.005	19.994	103.789	19.836	10.071	0.501
437.500	303.206	80.005	19.995	103.789	19.837	9.998	0.497
438.000	303.474	80.005	19.994	103.789	19.832	10.351	0.550
438.500	303.675	80.006	19.993	103.790	19.834	10.250	0.520
439.000	303.917	80.005	19.994	103.790	19.834	10.250	0.456
439.500	304.177	80.005	19.994	103.790	19.834	10.236	0.473
440.000	304.464	80.007	19.993	103.790	19.832	10.383	0.524
440.500	304.689	80.006	19.993	103.790	19.832	10.361	0.529
441.000	304.962	80.006	19.993	103.790	19.831	10.414	0.505
441.500	305.207	80.006	19.994	103.790	19.830	10.521	0.508
442.000	305.422	80.007	19.995	103.790	19.831	10.446	0.489
442.500	305.721	80.007	19.995	103.790	19.828	10.674	0.487
443.000	305.945	80.006	19.994	103.791	19.827	10.716	0.518
443.500	306.252	80.006	19.994	103.791	19.832	10.353	0.527
444.000	306.531	80.007	19.994	103.791	19.830	10.556	0.559
444.500	306.743	80.007	19.995	103.791	19.828	10.684	0.539
445.000	306.996	80.007	19.993	103.791	19.827	10.771	0.478
445.500	307.269	80.007	19.994	103.790	19.827	10.753	0.496
446.000	307.542	80.008	19.995	103.790	19.826	10.816	0.536
446.500	307.777	80.008	19.992	103.789	19.825	10.911	0.527
447.000	308.052	80.007	19.993	103.789	19.826	10.828	0.509
447.500	308.288	80.006	19.993	103.789	19.821	11.181	0.510
448.000	308.530	80.007	19.994	103.790	19.821	11.195	0.495
448.500	308.790	80.008	19.993	103.790	19.824	10.968	0.490
449.000	309.061	80.006	19.993	103.790	19.822	11.106	0.517
449.500	309.315	80.007	19.992	103.790	19.822	11.154	0.528
450.000	309.588	80.007	19.994	103.790	19.821	11.171	0.526
450.500	309.807	80.006	19.994	103.790	19.818	11.408	0.509
451.000	310.082	80.007	19.994	103.789	19.818	11.454	0.493
451.500	310.344	80.007	19.993	103.790	19.818	11.454	0.515
452.000	310.620	80.007	19.993	103.790	19.816	11.558	0.537
452.500	310.857	80.006	19.993	103.790	19.814	11.718	0.526
453.000	311.081	80.006	19.993	103.790	19.812	11.844	0.487
453.500	311.373	80.006	19.993	103.790	19.812	11.858	0.488
454.000	311.623	80.005	19.993	103.790	19.810	11.998	0.529
454.500	311.880	80.006	19.995	103.790	19.808	12.139	0.525
455.000	312.146	80.006	19.994	103.790	19.810	12.042	0.515
455.500	312.421	80.007	19.992	103.791	19.807	12.227	0.532
456.000	312.673	80.005	19.994	103.791	19.810	12.038	0.534
456.500	312.932	80.005	19.993	103.791	19.803	12.502	0.518
457.000	313.213	80.005	19.993	103.791	19.809	12.094	0.525
457.500	313.448	80.005	19.993	103.792	19.806	12.297	0.528
458.000	313.690	80.005	19.993	103.792	19.809	12.117	0.497
458.500	313.947	80.004	19.994	103.791	19.805	12.374	0.488
459.000	314.213	80.005	19.993	103.792	19.804	12.461	0.511
459.500	314.462	80.005	19.994	103.792	19.803	12.569	0.519
460.000	314.744	80.004	19.994	103.792	19.804	12.470	0.523
460.500	314.975	80.005	19.994	103.792	19.799	12.865	0.522
461.000	315.204	80.003	19.993	103.792	19.798	12.891	0.487
461.500	315.438	80.004	19.994	103.792	19.798	12.897	0.461
462.000	315.744	80.003	19.995	103.793	19.796	13.078	0.502
462.500	316.003	80.004	19.995	103.792	19.794	13.204	0.553
463.000	316.244	80.004	19.994	103.792	19.795	13.096	0.533
463.500	316.541	80.003	19.993	103.791	19.789	13.546	0.519
464.000	316.755	80.005	19.994	103.791	19.787	13.755	0.524
464.500	316.993	80.004	19.993	103.791	19.792	13.368	0.482
465.000	317.249	80.005	19.994	103.790	19.787	13.729	0.473
465.500	317.492	80.004	19.994	103.790	19.784	13.958	0.497
466.000	317.767	80.005	19.996	103.789	19.785	13.897	0.509
466.500	318.000	80.004	19.993	103.788	19.781	14.144	0.513
467.000	318.250	80.004	19.995	103.788	19.783	14.005	0.495
467.500	318.479	80.005	19.996	103.787	19.784	13.913	0.481
468.000	318.771	80.004	19.995	103.786	19.781	14.191	0.500
468.500	319.003	80.004	19.996	103.786	19.775	14.607	0.522
469.000	319.261	80.004	19.995	103.785	19.774	14.664	0.507
469.500	319.486	80.005	19.995	103.785	19.778	14.406	0.487
470.000	319.761	80.005	19.995	103.785	19.771	14.929	0.492
470.500	320.044	80.004	19.995	103.786	19.770	14.986	0.529
471.000	320.295	80.005	19.997	103.787	19.767	15.197	0.546
471.500	320.560	80.005	19.995	103.787	19.769	15.038	0.525
472.000	320.765	80.004	19.996	103.786	19.766	15.305	0.493
472.500	321.076	80.003	19.995	103.787	19.765	15.362	0.493
473.000	321.289	80.004	19.995	103.786	19.761	15.635	0.520
473.500	321.536	80.006	19.994	103.786	19.763	15.487	0.492
474.000	321.820	80.005	19.994	103.786	19.760	15.713	0.496
474.500	322.068	80.007	19.994	103.785	19.756	16.048	0.531
475.000	322.325	80.006	19.994	103.785	19.756	16.012	0.518
475.500	322.593	80.005	19.994	103.785	19.755	16.113	0.515
476.000	322.794	80.005	19.994	103.786	19.753	16.281	0.497
476.500	323.063	80.005	19.992	103.786	19.751	16.431	0.470
477.000	323.379	80.006	19.994	103.787	19.748	16.638	0.527
477.500	323.561	80.006	19.995	103.787	19.743	17.021	0.541
478.000	323.837	80.006	19.995	103.787	19.741	17.133	0.479
478.500	324.074	80.006	19.994	103.788	19.743	17.021	0.485
479.000	324.334	80.006	19.994	103.787	19.740	17.228	0.504
479.500	324.554	80.006	19.995	103.787	19.742	17.086	0.488
480.000	324.837	80.007	19.995	103.787	19.736	17.503	0.492
480.500	325.064	80.005	19.993	103.786	19.731	17.913	0.507
481.000	325.339	80.005	19.993	103.786	19.730	18.001	0.506
481.500	325.574	80.006	19.993	103.786	19.727	18.208	0.506
482.000	325.841	80.006	19.994	103.786	19.724	18.439	0.506
482.500	326.109	80.006	19.994	103.782	19.723	18.459	0.519
483.000	326.354	80.006	19.994	103.779	19.721	18.607	0.524
483.500	326.591	80.007	19.994	103.777	19.719	18.812	0.497
484.000	326.850	80.005	19.994	103.778	19.720	18.737	0.489
484.500	327.060	80.004	19.993	103.778	19.717	18.965	0.483
485.000	327.323	80.005	19.993	103.782	19.713	19.235	0.471
485.500	327.599	80.006	19.993	103.786	19.711	19.391	0.506
486.000	327.847	80.006	19.994	103.788	19.709	19.519	0.532
486.500	328.100	80.006	19.993	103.786	19.705	19.859	0.512
487.000	328.344	80.006	19.994	103.785	19.703	19.996	0.499
487.500	328.632	80.006	19.995	103.784	19.698	20.341	0.514
488.000	328.896	80.005	19.993	103.784	19.698	20.377	0.542
488.500	329.099	80.005	19.993	103.784	19.697	20.395	0.510
489.000	329.352	80.005	19.993	103.784	19.691	20.855	0.461
489.500	329.623	80.006	19.993	103.783	19.685	21.303	0.490
490.000	329.877	80.005	19.995	103.783	19.683	21.439	0.525
490.500	330.140	80.005	19.995	103.783	19.679	21.730	0.521
491.000	330.385	80.005	19.994	103.783	19.679	21.740	0.512
491.500	330.632	80.006	19.994	103.785	19.677	21.912	0.500
492.000	330.887	80.004	19.994	103.787	19.676	22.023	0.497
492.500	331.102	80.005	19.993	103.787	19.674	22.143	0.486
493.000	331.393	80.005	19.994	103.788	19.670	22.467	0.488
493.500	331.658	80.004	19.995	103.788	19.665	22.836	0.531
494.000	331.872	80.005	19.993	103.788	19.661	23.117	0.518
494.500	332.154	80.004	19.992	103.788	19.661	23.107	0.487
495.000	332.393	80.005	19.994	103.787	19.659	23.291	0.508
495.500	332.653	80.005	19.993	103.783	19.654	23.622	0.510
496.000	332.909	80.005	19.994	103.783	19.648	24.054	0.508
496.500	333.198	80.006	19.993	103.782	19.647	24.173	0.530
497.000	333.428	80.005	19.993	103.782	19.640	24.646	0.532
497.500	333.701	80.005	19.993	103.782	19.636	24.997	0.511
498.000	333.941	80.005	19.993	103.786	19.633	25.154	0.508
498.500	334.231	80.006	19.992	103.786	19.631	25.342	0.521
499.000	334.486	80.006	19.994	103.785	19.625	25.767	0.538
499.500	334.746	80.007	19.993	103.782	19.622	26.009	0.530
500.000	334.997	80.006	19.993	103.784	19.620	26.192	0.513
500.500	335.227	80.007	19.993	103.784	19.615	26.560	0.496
501.000	335.468	80.007	19.994	103.785	19.610	26.927	0.476
501.500	335.721	80.006	19.993	103.787	19.608	27.050	0.483
502.000	335.952	80.007	19.994	103.789	19.601	27.579	0.489
502.500	336.262	80.006	19.993	103.785	19.600	27.642	0.512
503.000	336.484	80.007	19.994	103.785	19.594	28.115	0.536
503.500	336.715	80.007	19.993	103.784	19.592	28.242	0.492
504.000	336.962	80.006	19.994	103.784	19.587	28.647	0.466
504.500	337.224	80.007	19.994	103.784	19.580	29.097	0.494
505.000	337.500	80.007	19.994	103.789	19.579	29.218	0.523
505.500	337.753	80.007	19.992	103.789	19.573	29.662	0.533
506.000	338.017	80.006	19.993	103.789	19.567	30.076	0.523
506.500	338.270	80.007	19.993	103.788	19.562	30.501	0.518
507.000	338.523	80.007	19.993	103.789	19.562	30.438	0.512
507.500	338.765	80.008	19.992	103.786	19.555	31.015	0.500
508.000	339.035	80.008	19.993	103.783	19.550	31.356	0.504
508.500	339.275	80.008	19.993	103.780	19.543	31.910	0.511
509.000	339.543	80.007	19.993	103.776	19.542	31.942	0.509
509.500	339.780	80.007	19.992	103.773	19.533	32.608	0.506
510.000	340.047	80.007	19.993	103.774	19.530	32.890	0.505
510.500	340.280	80.009	19.993	103.776	19.524	33.323	0.502
511.000	340.518	80.007	19.992	103.777	19.518	33.736	0.485
511.500	340.763	80.007	19.994	103.775	19.514	34.018	0.477
512.000	341.012	80.008	19.992	103.773	19.510	34.343	0.488
512.500	341.289	80.006	19.992	103.771	19.503	34.858	0.510
513.000	341.554	80.006	19.993	103.772	19.500	35.064	0.535
513.500	341.810	80.007	19.993	103.772	19.491	35.757	0.531
514.000	342.055	80.007	19.992	103.774	19.486	36.150	0.510
514.500	342.270	80.006	19.992	103.779	19.480	36.576	0.480
515.000	342.550	80.006	19.992	103.777	19.478	36.700	0.478
515.500	342.781	80.006	19.993	103.775	19.471	37.262	0.503
516.000	343.054	80.006	19.993	103.774	19.465	37.690	0.507
516.500	343.258	80.007	19.993	103.773	19.457	38.296	0.491
517.000	343.501	80.006	19.992	103.768	19.451	38.708	0.462
517.500	343.767	80.006	19.993	103.766	19.449	38.849	0.478
518.000	344.030	80.007	19.992	103.764	19.440	39.577	0.519
518.500	344.272	80.006	19.992	103.762	19.436	39.855	0.517
519.000	344.541	80.006	19.992	103.765	19.425	40.667	0.508
519.500	344.810	80.006	19.993	103.768	19.421	40.952	0.524
520.000	345.048	80.007	19.992	103.772	19.415	41.379	0.523
520.500	345.300	80.007	19.993	103.777	19.406	42.061	0.499
521.000	345.572	80.006	19.993	103.776	19.403	42.274	0.507
521.500	345.795	80.006	19.992	103.774	19.397	42.744	0.510
522.000	346.064	80.006	19.994	103.770	19.389	43.345	0.493
522.500	346.295	80.007	19.993	103.766	19.380	43.975	0.496
523.000	346.590	80.005	19.991	103.763	19.374	44.424	0.513
523.500	346.839	80.007	19.993	103.762	19.369	44.840	0.534
524.000	347.055	80.006	19.993	103.759	19.362	45.341	0.505
524.500	347.327	80.007	19.994	103.758	19.355	45.872	0.477
525.000	347.580	80.008	19.992	103.757	19.351	46.158	0.507
525.500	347.836	80.006	19.994	103.754	19.343	46.772	0.517
526.000	348.098	80.008	19.994	103.754	19.332	47.601	0.514
526.500	348.340	80.008	19.993	103.755	19.328	47.904	0.511
527.000	348.603	80.007	19.994	103.756	19.318	48.597	0.505
527.500	348.861	80.007	19.993	103.757	19.309	49.310	0.513
528.000	349.130	80.007	19.993	103.757	19.302	49.835	0.524
528.500	349.361	80.008	19.993	103.755	19.292	50.547	0.513
529.000	349.639	80.007	19.994	103.752	19.286	51.011	0.505
529.500	349.903	80.009	19.992	103.752	19.277	51.655	0.526
530.000	350.148	80.009	19.993	103.751	19.270	52.204	0.526
530.500	350.370	80.009	19.995	103.753	19.258	53.064	0.488
531.000	350.611	80.008	19.995	103.756	19.254	53.382	0.465
531.500	350.900	80.008	19.995	103.759	19.243	54.162	0.496
532.000	351.128	80.007	19.994	103.759	19.236	54.716	0.523
532.500	351.381	80.008	19.993	103.758	19.228	55.310	0.499
533.000	351.605	80.008	19.994	103.755	19.220	55.924	0.479
533.500	351.897	80.008	19.994	103.751	19.209	56.755	0.496
534.000	352.174	80.007	19.995	103.747	19.199	57.476	0.542
534.500	352.438	80.007	19.996	103.746	19.192	57.983	0.556
535.000	352.679	80.007	19.994	103.745	19.182	58.718	0.523
535.500	352.929	80.008	19.994	103.746	19.173	59.395	0.498
536.000	353.209	80.008	19.993	103.746	19.162	60.205	0.510
536.500	353.463	80.007	19.994	103.746	19.154	60.822	0.532
537.000	353.743	80.008	19.995	103.747	19.145	61.460	0.534
537.500	353.986	80.007	19.996	103.747	19.136	62.149	0.528
538.000	354.245	80.007	19.994	103.747	19.126	62.892	0.513
538.500	354.454	80.007	19.994	103.747	19.115	63.721	0.485
539.000	354.768	80.008	19.994	103.747	19.104	64.535	0.495
539.500	354.987	80.005	19.993	103.747	19.099	64.911	0.528
540.000	355.222	80.006	19.994	103.747	19.091	65.488	0.494
540.500	355.504	80.007	19.993	103.747	19.078	66.452	0.486
541.000	355.735	80.005	19.994	103.747	19.067	67.246	0.515
541.500	355.977	80.006	19.994	103.747	19.058	67.966	0.493
542.000	356.262	80.006	19.993	103.747	19.049	68.646	0.500
542.500	356.484	80.007	19.994	103.742	19.036	69.586	0.517
543.000	356.722	80.005	19.996	103.741	19.029	70.135	0.483
543.500	356.974	80.006	19.994	103.741	19.017	70.967	0.475
544.000	357.251	80.006	19.992	103.740	19.007	71.756	0.510
544.500	357.498	80.006	19.993	103.741	18.996	72.586	0.526
545.000	357.773	80.007	19.995	103.744	18.987	73.191	0.523
545.500	358.029	80.006	19.994	103.743	18.972	74.345	0.527
546.000	358.279	80.006	19.994	103.743	18.963	75.006	0.519
546.500	358.580	80.006	19.993	103.742	18.947	76.185	0.529
547.000	358.800	80.006	19.994	103.741	18.939	76.817	0.536
547.500	359.045	80.004	19.993	103.739	18.926	77.797	0.493
548.000	359.303	80.005	19.993	103.736	18.917	78.403	0.484
548.500	359.568	80.007	19.992	103.731	18.906	79.286	0.513
549.000	359.805	80.005	19.993	103.730	18.896	80.022	0.512
549.500	360.102	80.004	19.993	103.728	18.885	80.800	0.518
550.000	360.341	80.006	19.993	103.726	18.876	81.457	0.535
550.500	360.582	80.005	19.993	103.725	18.861	82.585	0.508
551.000	360.848	80.006	19.993	103.725	18.851	83.357	0.494
551.500	361.091	80.004	19.994	103.724	18.836	84.482	0.508
552.000	361.354	80.007	19.993	103.723	18.827	85.161	0.507
552.500	361.618	80.006	19.995	103.724	18.815	86.002	0.516
553.000	361.861	80.005	19.995	103.726	18.810	86.421	0.517
553.500	362.121	80.005	19.995	103.725	18.790	87.884	0.505
554.000	362.389	80.006	19.994	103.720	18.784	88.319	0.515
554.500	362.621	80.005	19.994	103.717	18.771	89.263	0.514
555.000	362.891	80.006	19.994	103.713	18.758	90.221	0.502
555.500	363.129	80.005	19.994	103.712	18.746	91.111	0.505
556.000	363.411	80.005	19.994	103.714	18.736	91.896	0.514
556.500	363.649	80.005	19.995	103.716	18.726	92.660	0.520
557.000	363.890	80.006	19.995	103.716	18.714	93.541	0.499
557.500	364.121	80.006	19.994	103.718	18.701	94.506	0.476
558.000	364.411	80.006	19.994	103.718	18.691	95.247	0.497
558.500	364.660	80.005	19.995	103.715	18.678	96.218	0.530
559.000	364.911	80.004	19.995	103.712	18.662	97.358	0.520
559.500	365.143	80.006	19.995	103.711	18.651	98.219	0.491
560.000	365.424	80.006	19.995	103.709	18.640	99.003	0.498
560.500	365.668	80.005	19.995	103.708	18.630	99.754	0.519
561.000	365.917	80.006	19.993	103.708	18.619	100.577	0.509
561.500	366.170	80.007	19.994	103.708	18.609	101.341	0.497
562.000	366.445	80.006	19.995	103.708	18.596	102.285	0.515
562.500	366.694	80.005	19.994	103.708	18.583	103.289	0.526
563.000	366.922	80.005	19.995	103.708	18.574	103.915	0.501
563.500	367.208	80.004	19.994	103.708	18.562	104.845	0.496
564.000	367.465	80.006	19.993	103.708	18.550	105.685	0.528
564.500	367.715	80.007	19.993	103.708	18.538	106.577	0.525
565.000	367.935	80.006	19.994	103.707	18.524	107.616	0.488
565.500	368.181	80.005	19.995	103.705	18.513	108.473	0.468
566.000	368.458	80.006	19.993	103.705	18.500	109.422	0.495
566.500	368.748	80.007	19.994	103.704	18.493	109.964	0.545
567.000	368.998	80.007	19.994	103.702	18.482	110.787	0.553
567.500	369.198	80.005	19.994	103.700	18.467	111.875	0.494
568.000	369.532	80.005	19.993	103.698	18.460	112.418	0.491
568.500	369.779	80.005	19.994	103.694	18.448	113.302	0.557
569.000	370.006	80.006	19.994	103.689	18.434	114.289	0.528
569.500	370.239	80.005	19.994	103.690	18.427	114.839	0.467
570.000	370.508	80.004	19.994	103.687	18.416	115.629	0.481
570.500	370.784	80.004	19.993	103.689	18.406	116.421	0.524
571.000	370.987	80.006	19.995	103.687	18.395	117.205	0.512
571.500	371.264	80.005	19.993	103.689	18.387	117.806	0.480
572.000	371.513	80.004	19.994	103.688	18.380	118.367	0.503
572.500	371.783	80.005	19.994	103.691	18.369	119.162	0.523
573.000	372.042	80.005	19.993	103.688	18.358	119.952	0.524
573.500	372.293	80.004	19.994	103.689	18.351	120.500	0.519
574.000	372.567	80.005	19.993	103.687	18.340	121.306	0.517
574.500	372.773	80.006	19.992	103.684	18.330	122.074	0.502
575.000	373.049	80.005	19.993	103.679	18.324	122.491	0.481
575.500	373.348	80.005	19.996	103.677	18.312	123.404	0.528
576.000	373.591	80.006	19.994	103.677	18.307	123.761	0.559
576.500	373.853	80.005	19.994	103.676	18.299	124.350	0.524
577.000	374.108	80.005	19.995	103.677	18.294	124.731	0.511
577.500	374.353	80.005	19.994	103.676	18.285	125.397	0.508
578.000	374.572	80.005	19.993	103.677	18.277	126.006	0.482
578.500	374.846	80.006	19.993	103.675	18.273	126.291	0.478
579.000	375.127	80.005	19.993	103.675	18.267	126.757	0.524
579.500	375.372	80.004	19.993	103.674	18.258	127.366	0.541
580.000	375.599	80.006	19.994	103.675	18.251	127.914	0.499
580.500	375.853	80.006	19.992	103.674	18.246	128.254	0.477
581.000	376.110	80.006	19.992	103.674	18.240	128.738	0.496
581.500	376.381	80.006	19.993	103.674	18.234	129.166	0.519
582.000	376.643	80.005	19.992	103.674	18.226	129.751	0.530
582.500	376.895	80.008	19.994	103.674	18.225	129.841	0.523
583.000	377.117	80.005	19.994	103.673	18.219	130.304	0.494
583.500	377.404	80.007	19.993	103.673	18.215	130.586	0.492
584.000	377.683	80.006	19.993	103.673	18.213	130.764	0.538
584.500	377.904	80.006	19.991	103.673	18.207	131.206	0.533
585.000	378.179	80.006	19.993	103.673	18.203	131.472	0.497
585.500	378.372	80.006	19.994	103.673	18.198	131.866	0.482
586.000	378.679	80.007	19.993	103.672	18.194	132.106	0.484
586.500	378.943	80.007	19.993	103.672	18.194	132.167	0.536
587.000	379.179	80.007	19.993	103.669	18.193	132.230	0.536
587.500	379.402	80.006	19.992	103.669	18.190	132.435	0.480
588.000	379.665	80.007	19.994	103.669	18.188	132.589	0.473
588.500	379.912	80.007	19.993	103.669	18.186	132.758	0.498
589.000	380.200	80.008	19.994	103.670	18.184	132.886	0.522
589.500	380.428	80.008	19.993	103.673	18.186	132.765	0.525
590.000	380.674	80.006	19.992	103.672	18.185	132.780	0.495
590.500	380.957	80.007	19.993	103.669	18.185	132.835	0.502
591.000	381.182	80.007	19.993	103.668	18.184	132.861	0.519
591.500	381.432	80.007	19.992	103.667	18.187	132.672	0.492
592.000	381.688	80.006	19.993	103.664	18.186	132.732	0.491
592.500	381.918	80.006	19.992	103.662	18.186	132.756	0.496
593.000	382.174	80.007	19.993	103.662	18.189	132.494	0.486
593.500	382.438	80.007	19.993	103.661	18.188	132.569	0.503
594.000	382.706	80.006	19.992	103.659	18.191	132.383	0.526
594.500	382.938	80.007	19.992	103.661	18.195	132.033	0.516
595.000	383.187	80.007	19.993	103.662	18.198	131.863	0.490
595.500	383.450	80.006	19.993	103.661	18.198	131.798	0.496
596.000	383.705	80.007	19.994	103.660	18.206	131.248	0.515
596.500	383.979	80.005	19.993	103.656	18.209	131.049	0.524
597.000	384.211	80.006	19.994	103.652	18.211	130.872	0.518
597.500	384.441	80.006	19.994	103.654	18.216	130.471	0.484
598.000	384.720	80.006	19.994	103.656	18.217	130.394	0.485
598.500	384.939	80.005	19.993	103.658	18.223	129.958	0.503
599.000	385.205	80.006	19.993	103.663	18.230	129.456	0.492
599.500	385.448	80.006	19.993	103.663	18.236	129.037	0.497
600.000	385.683	80.007	19.993	103.659	18.241	128.673	0.493
600.500	385.935	80.007	19.993	103.655	18.244	128.388	0.482
601.000	386.218	80.006	19.993	103.651	18.252	127.801	0.511
601.500	386.440	80.008	19.992	103.649	18.258	127.399	0.520
602.000	386.662	80.007	19.993	103.651	18.263	127.042	0.475
602.500	386.975	80.007	19.994	103.653	18.270	126.507	0.489
603.000	387.194	80.007	19.993	103.656	18.278	125.876	0.533
603.500	387.480	80.007	19.994	103.656	18.286	125.338	0.519
604.000	387.692	80.007	19.993	103.655	18.295	124.613	0.502
604.500	387.958	80.007	19.992	103.653	18.305	123.905	0.488
605.000	388.231	80.007	19.993	103.650	18.313	123.287	0.509
605.500	388.450	80.008	19.993	103.647	18.322	122.673	0.516
606.000	388.715	80.007	19.993	103.649	18.324	122.511	0.488
606.500	388.951	80.007	19.993	103.647	18.336	121.564	0.492
607.000	389.222	80.008	19.993	103.645	18.342	121.178	0.504
607.500	389.485	80.007	19.992	103.644	18.353	120.321	0.521
608.000	389.743	80.010	19.992	103.643	18.363	119.588	0.528
608.500	389.988	80.007	19.994	103.643	18.373	118.821	0.512
609.000	390.245	80.008	19.993	103.645	18.381	118.289	0.503
609.500	390.480	80.008	19.993	103.646	18.390	117.603	0.497
610.000	390.739	80.009	19.993	103.646	18.400	116.849	0.493
610.500	390.984	80.008	19.992	103.651	18.410	116.114	0.499
611.000	391.231	80.008	19.993	103.654	18.420	115.341	0.497
611.500	391.499	80.008	19.992	103.654	18.431	114.557	0.503
612.000	391.748	80.007	19.993	103.656	18.443	113.678	0.516
612.500	392.049	80.007	19.993	103.659	18.451	113.042	0.534
613.000	392.253	80.008	19.993	103.659	18.461	112.343	0.528
613.500	392.488	80.008	19.992	103.661	18.473	111.450	0.472
614.000	392.774	80.009	19.993	103.664	18.484	110.618	0.480
614.500	393.026	80.008	19.992	103.667	18.500	109.416	0.529
615.000	393.267	80.009	19.993	103.667	18.509	108.737	0.516
615.500	393.532	80.009	19.993	103.668	18.522	107.780	0.499
616.000	393.776	80.008	19.992	103.668	18.532	107.038	0.507
616.500	394.028	80.007	19.992	103.667	18.543	106.185	0.503
617.000	394.311	80.010	19.992	103.667	18.554	105.392	0.516
617.500	394.533	80.009	19.993	103.667	18.565	104.584	0.520
618.000	394.811	80.006	19.994	103.667	18.576	103.765	0.502
618.500	395.057	80.006	19.993	103.666	18.588	102.863	0.512
619.000	395.329	80.007	19.992	103.666	18.600	101.949	0.521
619.500	395.572	80.007	19.994	103.667	18.608	101.370	0.516
620.000	395.820	80.006	19.993	103.667	18.623	100.269	0.503
620.500	396.068	80.007	19.994	103.668	18.634	99.453	0.493
621.000	396.339	80.006	19.994	103.669	18.645	98.657	0.507
621.500	396.608	80.006	19.993	103.670	18.658	97.668	0.529
622.000	396.843	80.005	19.994	103.670	18.667	96.989	0.522
622.500	397.083	80.004	19.993	103.670	18.680	96.017	0.490
623.000	397.338	80.005	19.994	103.670	18.690	95.312	0.485
623.500	397.580	80.005	19.994	103.670	18.699	94.629	0.496
624.000	397.826	80.004	19.994	103.671	18.712	93.650	0.492
624.500	398.097	80.004	19.994	103.671	18.721	92.971	0.502
625.000	398.328	80.005	19.994	103.672	18.734	92.063	0.509
625.500	398.607	80.004	19.995	103.673	18.744	91.257	0.506
626.000	398.851	80.005	19.994	103.673	18.754	90.552	0.517
626.500	399.094	80.005	19.994	103.671	18.765	89.703	0.506
627.000	399.343	80.006	19.994	103.673	18.774	89.091	0.490
627.500	399.584	80.006	19.993	103.677	18.785	88.254	0.491
628.000	399.857	80.005	19.994	103.677	18.796	87.445	0.502
628.500	400.107	80.005	19.994	103.678	18.807	86.598	0.519
629.000	400.401	80.005	19.994	103.679	18.819	85.718	0.534
629.500	400.587	80.005	19.994	103.679	18.829	85.004	0.512
630.000	400.878	80.005	19.994	103.676	18.836	84.471	0.479
630.500	401.142	80.005	19.993	103.680	18.845	83.788	0.516
631.000	401.351	80.005	19.993	103.681	18.853	83.168	0.514
631.500	401.640	80.005	19.993	103.683	18.864	82.358	0.485
632.000	401.894	80.004	19.994	103.688	18.873	81.733	0.520
632.500	402.131	80.005	19.994	103.690	18.884	80.855	0.517
633.000	402.391	80.007	19.994	103.687	18.892	80.280	0.494
633.500	402.634	80.006	19.993	103.689	18.899	79.777	0.500
634.000	402.919	80.005	19.995	103.693	18.910	78.981	0.516
634.500	403.166	80.006	19.994	103.693	18.920	78.211	0.531
635.000	403.439	80.007	19.994	103.696	18.928	77.643	0.526
635.500	403.659	80.005	19.995	103.701	18.939	76.801	0.506
636.000	403.929	80.007	19.994	103.706	18.948	76.092	0.491
636.500	404.196	80.006	19.994	103.704	18.953	75.724	0.513
637.000	404.461	80.006	19.993	103.701	18.965	74.888	0.535
637.500	404.674	80.005	19.993	103.701	18.971	74.414	0.505
638.000	404.938	80.005	19.994	103.701	18.979	73.816	0.477
638.500	405.163	80.006	19.993	103.698	18.988	73.151	0.483
639.000	405.424	80.005	19.993	103.700	18.996	72.526	0.487
639.500	405.676	80.006	19.995	103.705	19.003	72.029	0.500
640.000	405.918	80.004	19.994	103.706	19.010	71.511	0.504
640.500	406.200	80.006	19.994	103.707	19.019	70.840	0.509
641.000	406.418	80.006	19.993	103.710	19.027	70.249	0.512
641.500	406.688	80.005	19.994	103.710	19.031	69.953	0.493
642.000	406.925	80.005	19.994	103.709	19.040	69.293	0.497
642.500	407.200	80.005	19.993	103.710	19.045	68.903	0.510
643.000	407.417	80.006	19.994	103.708	19.052	68.362	0.502
643.500	407.681	80.004	19.993	103.708	19.058	67.959	0.487
644.000	407.951	80.006	19.993	103.708	19.067	67.272	0.507
644.500	408.184	80.004	19.993	103.709	19.070	67.051	0.519
645.000	408.446	80.006	19.994	103.708	19.075	66.687	0.499
645.500	408.678	80.004	19.994	103.708	19.083	66.121	0.494
646.000	408.961	80.005	19.993	103.709	19.091	65.524	0.504
646.500	409.194	80.005	19.993	103.710	19.092	65.410	0.515
647.000	409.452	80.005	19.993	103.711	19.100	64.798	0.503
647.500	409.703	80.004	19.993	103.712	19.106	64.362	0.500
648.000	409.949	80.005	19.993	103.712	19.111	64.004	0.503
648.500	410.211	80.004	19.994	103.712	19.117	63.566	0.503
649.000	410.486	80.005	19.993	103.712	19.120	63.366	0.523
649.500	410.716	80.005	19.993	103.712	19.127	62.832	0.521
650.000	411.004	80.003	19.994	103.713	19.126	62.919	0.511
650.500	411.240	80.003	19.992	103.713	19.136	62.174	0.521
651.000	411.491	80.005	19.996	103.713	19.141	61.770	0.506
651.500	411.752	80.004	19.994	103.713	19.146	61.419	0.499
652.000	412.003	80.005	19.993	103.714	19.151	61.013	0.512
652.500	412.209	80.005	19.994	103.714	19.151	61.053	0.484
653.000	412.487	80.003	19.996	103.715	19.158	60.498	0.470
653.500	412.711	80.004	19.995	103.716	19.162	60.250	0.493
654.000	412.992	80.003	19.994	103.716	19.168	59.760	0.504
654.500	413.269	80.004	19.995	103.717	19.171	59.558	0.532
655.000	413.451	80.003	19.995	103.717	19.172	59.451	0.508
655.500	413.702	80.003	19.994	103.717	19.177	59.094	0.446
656.000	413.981	80.005	19.994	103.717	19.183	58.658	0.481
656.500	414.222	80.004	19.992	103.718	19.187	58.381	0.525
657.000	414.432	80.003	19.996	103.720	19.189	58.210	0.485
657.500	414.702	80.003	19.994	103.723	19.194	57.866	0.465
658.000	414.957	80.006	19.995	103.726	19.195	57.789	0.503
658.500	415.211	80.004	19.996	103.725	19.203	57.166	0.517
659.000	415.490	80.005	19.995	103.724	19.202	57.226	0.521
659.500	415.698	80.004	19.995	103.720	19.208	56.802	0.510
660.000	415.945	80.004	19.994	103.716	19.208	56.770	0.471
660.500	416.210	80.005	19.995	103.715	19.214	56.324	0.484
661.000	416.461	80.005	19.994	103.715	19.215	56.291	0.514
661.500	416.705	80.005	19.994	103.713	19.218	56.071	0.505
662.000	416.939	80.004	19.994	103.714	19.223	55.682	0.486
662.500	417.211	80.006	19.994	103.714	19.223	55.651	0.492
663.000	417.455	80.005	19.994	103.713	19.227	55.346	0.511
663.500	417.703	80.007	19.993	103.715	19.231	55.104	0.504
664.000	418.012	80.004	19.994	103.719	19.235	54.771	0.524
664.500	418.230	80.007	19.992	103.721	19.231	55.068	0.542
665.000	418.474	80.007	19.993	103.725	19.238	54.525	0.495
665.500	418.755	80.006	19.993	103.730	19.237	54.649	0.494
666.000	418.988	80.007	19.993	103.730	19.241	54.358	0.519
666.500	419.257	80.006	19.993	103.730	19.244	54.132	0.508
667.000	419.499	80.008	19.992	103.729	19.248	53.811	0.506
667.500	419.747	80.008	19.992	103.726	19.250	53.704	0.501
668.000	419.981	80.007	19.994	103.722	19.251	53.605	0.486
668.500	420.260	80.007	19.993	103.723	19.254	53.383	0.497
669.000	420.477	80.007	19.992	103.723	19.253	53.456	0.505
669.500	420.754	80.007	19.993	103.724	19.257	53.180	0.495
670.000	421.015	80.008	19.993	103.727	19.259	52.979	0.516
670.500	421.262	80.007	19.994	103.730	19.258	53.076	0.523
671.000	421.511	80.006	19.993	103.730	19.262	52.796	0.502
671.500	421.795	80.006	19.993	103.731	19.263	52.687	0.515
672.000	422.051	80.006	19.994	103.730	19.265	52.542	0.537
672.500	422.303	80.007	19.993	103.732	19.268	52.363	0.524
673.000	422.534	80.007	19.993	103.731	19.269	52.229	0.495
673.500	422.821	80.006	19.993	103.730	19.270	52.153	0.500
674.000	423.053	80.007	19.993	103.728	19.272	52.016	0.519
674.500	423.303	80.006	19.993	103.726	19.273	51.975	0.501
675.000	423.588	80.006	19.993	103.725	19.272	52.036	0.509
675.500	423.819	80.006	19.992	103.724	19.276	51.748	0.526
676.000	424.055	80.007	19.994	103.724	19.280	51.456	0.491
676.500	424.331	80.006	19.993	103.724	19.281	51.406	0.489
677.000	424.554	80.007	19.993	103.725	19.280	51.470	0.505
677.500	424.833	80.008	19.993	103.723	19.281	51.337	0.500
678.000	425.078	80.007	19.995	103.723	19.280	51.465	0.513
678.500	425.361	80.006	19.992	103.722	19.283	51.253	0.526
679.000	425.583	80.006	19.993	103.720	19.284	51.157	0.516
679.500	425.875	80.006	19.992	103.721	19.282	51.257	0.510
680.000	426.102	80.007	19.995	103.721	19.283	51.213	0.516
680.500	426.350	80.005	19.993	103.720	19.284	51.136	0.497
681.000	426.618	80.006	19.993	103.720	19.285	51.097	0.496
681.500	426.883	80.006	19.993	103.720	19.288	50.857	0.524
682.000	427.110	80.006	19.995	103.719	19.287	50.899	0.512
682.500	427.382	80.005	19.994	103.724	19.288	50.815	0.496
683.000	427.625	80.006	19.994	103.729	19.290	50.724	0.507
683.500	427.868	80.007	19.993	103.735	19.290	50.716	0.500
684.000	428.167	80.008	19.993	103.739	19.290	50.667	0.514
684.500	428.390	80.006	19.994	103.742	19.287	50.926	0.532
685.000	428.675	80.006	19.993	103.739	19.290	50.662	0.515
685.500	428.913	80.006	19.994	103.738	19.290	50.687	0.515
686.000	429.161	80.005	19.994	103.739	19.290	50.670	0.504
686.500	429.415	80.007	19.993	103.739	19.292	50.557	0.494
687.000	429.693	80.007	19.994	103.738	19.294	50.406	0.517
687.500	429.937	80.007	19.994	103.738	19.295	50.332	0.527
688.000	430.192	80.008	19.994	103.736	19.294	50.381	0.511
688.500	430.424	80.006	19.993	103.736	19.296	50.237	0.493
689.000	430.703	80.009	19.993	103.735	19.295	50.315	0.499
689.500	430.960	80.007	19.994	103.738	19.295	50.306	0.524
690.000	431.236	80.007	19.994	103.735	19.293	50.454	0.535
690.500	431.490	80.009	19.994	103.736	19.296	50.243	0.532
691.000	431.728	80.007	19.993	103.734	19.297	50.183	0.511
691.500	431.960	80.008	19.994	103.734	19.295	50.311	0.481
692.000	432.230	80.008	19.992	103.733	19.297	50.193	0.486
692.500	432.495	80.008	19.992	103.736	19.294	50.370	0.518
693.000	432.769	80.008	19.993	103.734	19.294	50.436	0.537
693.500	433.040	80.007	19.993	103.732	19.297	50.196	0.542
694.000	433.251	80.008	19.993	103.733	19.296	50.260	0.514
694.500	433.538	80.008	19.993	103.730	19.298	50.069	0.490
695.000	433.785	80.006	19.992	103.728	19.295	50.352	0.515
695.500	434.056	80.007	19.992	103.727	19.300	49.962	0.526
696.000	434.293	80.009	19.992	103.726	19.295	50.289	0.513
696.500	434.556	80.007	19.993	103.723	19.299	50.049	0.504
697.000	434.799	80.005	19.993	103.722	19.300	49.970	0.503
697.500	435.057	80.007	19.993	103.720	19.298	50.101	0.504
698.000	435.306	80.007	19.992	103.722	19.298	50.079	0.504
698.500	435.544	80.005	19.992	103.727	19.298	50.073	0.497
699.000	435.805	80.007	19.992	103.731	19.298	50.094	0.493
699.500	436.045	80.006	19.993	103.732	19.302	49.806	0.500
700.000	436.298	80.005	19.992	103.738	19.297	50.183	0.497
700.500	436.570	80.006	19.993	103.736	19.297	50.147	0.509
701.000	436.835	80.006	19.992	103.736	19.300	49.968	0.531
701.500	437.081	80.006	19.993	103.736	19.301	49.903	0.524
702.000	437.334	80.005	19.993	103.737	19.299	50.053	0.505
702.500	437.569	80.005	19.993	103.737	19.303	49.755	0.494
703.000	437.823	80.007	19.992	103.742	19.303	49.707	0.489
703.500	438.078	80.004	19.993	103.743	19.301	49.882	0.499
704.000	438.353	80.005	19.993	103.744	19.300	49.955	0.519
704.500	438.569	80.004	19.992	103.747	19.299	50.038	0.510
705.000	438.828	80.007	19.993	103.745	19.299	50.000	0.483
705.500	439.121	80.006	19.994	103.740	19.301	49.885	0.514
706.000	439.350	80.005	19.993	103.735	19.301	49.871	0.537
706.500	439.592	80.004	19.993	103.734	19.304	49.687	0.496
707.000	439.843	80.005	19.992	103.735	19.299	50.059	0.482
707.500	440.096	80.005	19.994	103.736	19.300	49.974	0.498
708.000	440.379	80.005	19.993	103.737	19.299	50.006	0.520
708.500	440.594	80.004	19.993	103.740	19.300	49.996	0.517
709.000	440.839	80.005	19.992	103.740	19.303	49.736	0.479
709.500	441.118	80.005	19.992	103.740	19.305	49.616	0.492
710.000	441.402	80.004	19.993	103.742	19.305	49.603	0.543
710.500	441.640	80.004	19.993	103.746	19.303	49.717	0.543
711.000	441.873	80.006	19.993	103.749	19.302	49.769	0.497
711.500	442.097	80.004	19.992	103.747	19.305	49.563	0.464
712.000	442.386	80.004	19.993	103.741	19.306	49.514	0.485
712.500	442.606	80.004	19.993	103.737	19.303	49.696	0.511
713.000	442.854	80.005	19.993	103.732	19.303	49.714	0.489
713.500	443.164	80.005	19.993	103.728	19.305	49.574	0.513
714.000	443.394	80.002	19.994	103.729	19.310	49.192	0.549
714.500	443.666	80.002	19.995	103.735	19.308	49.364	0.521
715.000	443.881	80.004	19.992	103.739	19.309	49.307	0.494
715.500	444.155	80.003	19.992	103.740	19.308	49.337	0.488
716.000	444.401	80.003	19.993	103.744	19.312	49.067	0.505
716.500	444.646	80.004	19.993	103.746	19.306	49.490	0.505
717.000	444.907	80.005	19.996	103.746	19.310	49.220	0.498
717.500	445.178	80.005	19.995	103.746	19.312	49.027	0.519
718.000	445.441	80.004	19.996	103.750	19.311	49.099	0.533
718.500	445.688	80.005	19.995	103.749	19.316	48.780	0.522
719.000	445.947	80.004	19.994	103.749	19.314	48.894	0.508
719.500	446.160	80.005	19.994	103.748	19.314	48.948	0.489
720.000	446.427	80.005	19.994	103.747	19.317	48.694	0.476
720.500	446.704	80.003	19.994	103.743	19.315	48.803	0.512
721.000	446.933	80.005	19.995	103.740	19.316	48.731	0.525
721.500	447.178	80.006	19.994	103.738	19.318	48.594	0.490
722.000	447.470	80.005	19.995	103.737	19.315	48.818	0.506
722.500	447.710	80.006	19.994	103.734	19.318	48.577	0.535
723.000	447.964	80.005	19.994	103.736	19.324	48.152	0.513
723.500	448.246	80.004	19.996	103.735	19.321	48.373	0.515
724.000	448.477	80.005	19.994	103.735	19.323	48.216	0.524
724.500	448.719	80.005	19.993	103.736	19.323	48.211	0.493
725.000	448.967	80.004	19.994	103.737	19.322	48.303	0.482
725.500	449.217	80.006	19.994	103.736	19.324	48.163	0.494
726.000	449.487	80.007	19.993	103.740	19.325	48.122	0.509
726.500	449.781	80.004	19.994	103.741	19.326	48.009	0.542
727.000	449.961	80.004	19.994	103.735	19.329	47.806	0.519
727.500	450.239	80.005	19.994	103.730	19.330	47.749	0.466
728.000	450.509	80.006	19.994	103.731	19.330	47.730	0.503
728.500	450.761	80.005	19.994	103.732	19.335	47.320	0.536
729.000	451.017	80.004	19.993	103.733	19.333	47.485	0.515
729.500	451.271	80.004	19.993	103.736	19.338	47.134	0.509
730.000	451.518	80.005	19.993	103.741	19.342	46.817	0.505
730.500	451.796	80.005	19.994	103.740	19.343	46.772	0.513
731.000	452.052	80.004	19.993	103.734	19.343	46.778	0.530
731.500	452.301	80.005	19.993	103.732	19.346	46.503	0.520
732.000	452.562	80.005	19.993	103.731	19.347	46.439	0.507
732.500	452.818	80.004	19.993	103.729	19.350	46.226	0.514
733.000	453.068	80.004	19.994	103.730	19.351	46.176	0.512
733.500	453.335	80.003	19.993	103.735	19.355	45.849	0.511
734.000	453.568	80.006	19.994	103.736	19.355	45.867	0.508
734.500	453.831	80.004	19.994	103.737	19.358	45.661	0.498
735.000	454.086	80.003	19.993	103.738	19.355	45.834	0.507
735.500	454.361	80.004	19.993	103.737	19.363	45.295	0.524
736.000	454.592	80.006	19.994	103.738	19.364	45.208	0.519
736.500	454.860	80.004	19.994	103.739	19.365	45.114	0.503
737.000	455.117	80.004	19.993	103.741	19.368	44.911	0.512
737.500	455.398	80.005	19.994	103.742	19.369	44.804	0.531
738.000	455.637	80.005	19.994	103.738	19.368	44.910	0.529
738.500	455.865	80.003	19.995	103.736	19.374	44.476	0.494
739.000	456.148	80.003	19.995	103.735	19.374	44.468	0.489
739.500	456.371	80.004	19.994	103.735	19.378	44.115	0.508
740.000	456.669	80.004	19.993	103.732	19.380	44.008	0.513
740.500	456.907	80.003	19.994	103.736	19.382	43.842	0.528
741.000	457.144	80.005	19.994	103.733	19.386	43.548	0.505
741.500	457.438	80.006	19.994	103.733	19.386	43.530	0.503
742.000	457.690	80.005	19.994	103.733	19.391	43.166	0.539
742.500	457.932	80.003	19.993	103.737	19.391	43.175	0.520
743.000	458.187	80.005	19.994	103.736	19.394	42.929	0.495
743.500	458.482	80.006	19.993	103.734	19.401	42.406	0.523
744.000	458.732	80.004	19.994	103.732	19.401	42.465	0.548
744.500	459.005	80.005	19.994	103.731	19.404	42.198	0.534
745.000	459.241	80.005	19.994	103.729	19.407	41.960	0.516
745.500	459.528	80.004	19.994	103.731	19.409	41.874	0.516
746.000	459.780	80.006	19.995	103.738	19.415	41.387	0.531
746.500	460.017	80.005	19.994	103.739	19.417	41.243	0.514
747.000	460.284	80.005	19.995	103.734	19.420	40.996	0.496
747.500	460.541	80.006	19.994	103.732	19.423	40.793	0.514
748.000	460.809	80.006	19.994	103.731	19.425	40.649	0.524
748.500	461.053	80.006	19.994	103.731	19.428	40.431	0.519
749.000	461.298	80.007	19.994	103.733	19.433	40.092	0.501
749.500	461.579	80.007	19.994	103.737	19.438	39.724	0.508
750.000	461.839	80.006	19.994	103.736	19.437	39.742	0.533
750.500	462.084	80.005	19.994	103.737	19.442	39.388	0.522
751.000	462.343	80.006	19.994	103.737	19.448	38.976	0.504
751.500	462.594	80.007	19.995	103.737	19.450	38.767	0.507
752.000	462.846	80.006	19.994	103.738	19.455	38.425	0.506
752.500	463.099	80.005	19.994	103.737	19.459	38.098	0.504
753.000	463.356	80.007	19.994	103.736	19.463	37.850	0.508
753.500	463.600	80.005	19.995	103.733	19.469	37.370	0.506
754.000	463.903	80.006	19.993	103.727	19.470	37.296	0.524
754.500	464.155	80.007	19.993	103.726	19.475	36.901	0.550
755.000	464.373	80.004	19.994	103.726	19.479	36.674	0.512
755.500	464.645	80.006	19.993	103.727	19.480	36.530	0.480
756.000	464.881	80.005	19.993	103.729	19.485	36.220	0.499
756.500	465.139	80.005	19.993	103.732	19.487	36.021	0.501
757.000	465.361	80.006	19.993	103.732	19.492	35.644	0.487
757.500	465.637	80.006	19.994	103.736	19.498	35.231	0.489
758.000	465.880	80.007	19.994	103.736	19.505	34.702	0.508
758.500	466.156	80.006	19.992	103.736	19.508	34.473	0.519
759.000	466.381	80.006	19.993	103.739	19.512	34.148	0.510
759.500	466.672	80.006	19.993	103.738	19.520	33.590	0.509
760.000	466.902	80.006	19.993	103.736	19.522	33.449	0.519
760.500	467.138	80.005	19.993	103.737	19.527	33.072	0.494
761.000	467.432	80.005	19.993	103.737	19.533	32.612	0.498
761.500	467.712	80.005	19.992	103.739	19.537	32.338	0.552
762.000	467.920	80.003	19.993	103.743	19.543	31.855	0.531
762.500	468.210	80.005	19.992	103.743	19.549	31.426	0.494
763.000	468.476	80.004	19.992	103.744	19.555	31.003	0.527
763.500	468.705	80.006	19.994	103.746	19.558	30.758	0.525
764.000	468.968	80.005	19.992	103.746	19.563	30.417	0.493
764.500	469.195	80.006	19.993	103.747	19.567	30.123	0.490
765.000	469.463	80.003	19.992	103.748	19.572	29.750	0.492
765.500	469.743	80.007	19.992	103.750	19.578	29.266	0.522
766.000	470.047	80.005	19.993	103.749	19.582	28.982	0.566
766.500	470.235	80.007	19.992	103.749	19.584	28.830	0.538
767.000	470.490	80.007	19.993	103.749	19.594	28.088	0.467
767.500	470.750	80.005	19.993	103.750	19.598	27.819	0.479
768.000	471.024	80.006	19.992	103.750	19.602	27.466	0.525
768.500	471.242	80.004	19.993	103.751	19.607	27.099	0.513
769.000	471.492	80.007	19.992	103.751	19.610	26.865	0.480
769.500	471.773	80.007	19.994	103.751	19.617	26.346	0.500
770.000	472.010	80.006	19.992	103.748	19.623	25.896	0.525
770.500	472.268	80.007	19.992	103.746	19.628	25.545	0.507
771.000	472.517	80.006	19.993	103.743	19.633	25.215	0.501
771.500	472.781	80.007	19.993	103.742	19.638	24.807	0.510
772.000	473.052	80.006	19.993	103.741	19.643	24.404	0.524
772.500	473.329	80.007	19.992	103.743	19.652	23.784	0.541
773.000	473.548	80.007	19.991	103.745	19.654	23.610	0.522
773.500	473.856	80.008	19.992	103.749	19.660	23.182	0.512
774.000	474.114	80.007	19.993	103.750	19.664	22.878	0.547
774.500	474.361	80.005	19.992	103.751	19.665	22.793	0.535
775.000	474.628	80.006	19.993	103.750	19.673	22.223	0.510
775.500	474.882	80.007	19.991	103.749	19.682	21.556	0.518
776.000	475.158	80.007	19.993	103.749	19.687	21.167	0.526
776.500	475.432	80.005	19.991	103.749	19.691	20.897	0.540
777.000	475.659	80.006	19.993	103.749	19.698	20.378	0.525
777.500	475.908	80.005	19.993	103.750	19.702	20.019	0.489
778.000	476.177	80.007	19.992	103.750	19.708	19.628	0.497
778.500	476.428	80.006	19.994	103.750	19.713	19.233	0.519
779.000	476.675	80.005	19.994	103.751	19.717	18.963	0.509
779.500	476.890	80.007	19.994	103.751	19.722	18.564	0.480
780.000	477.177	80.007	19.993	103.752	19.727	18.185	0.482
780.500	477.418	80.005	19.994	103.753	19.732	17.828	0.515
781.000	477.688	80.005	19.994	103.753	19.735	17.605	0.519
781.500	477.952	80.007	19.993	103.752	19.739	17.316	0.522
782.000	478.195	80.006	19.993	103.753	19.743	16.981	0.520
782.500	478.499	80.006	19.993	103.753	19.745	16.878	0.527
783.000	478.727	80.004	19.993	103.753	19.752	16.361	0.540
783.500	478.976	80.005	19.993	103.753	19.752	16.355	0.505
784.000	479.228	80.005	19.993	103.753	19.760	15.734	0.489
784.500	479.468	80.004	19.993	103.752	19.767	15.224	0.497
785.000	479.744	80.003	19.993	103.752	19.771	14.887	0.504
785.500	479.999	80.005	19.994	103.752	19.775	14.618	0.523
786.000	480.265	80.005	19.992	103.752	19.778	14.356	0.526
786.500	480.528	80.005	19.992	103.751	19.782	14.111	0.525
787.000	480.773	80.005	19.992	103.751	19.787	13.740	0.518
787.500	481.032	80.007	19.993	103.751	19.789	13.590	0.506
788.000	481.315	80.005	19.993	103.750	19.793	13.239	0.523
788.500	481.574	80.003	19.994	103.750	19.799	12.818	0.542
789.000	481.795	80.005	19.993	103.750	19.803	12.544	0.511
789.500	482.056	80.005	19.994	103.750	19.805	12.368	0.481
790.000	482.300	80.006	19.992	103.750	19.805	12.364	0.494
790.500	482.565	80.005	19.993	103.750	19.808	12.177	0.508
791.000	482.817	80.003	19.993	103.750	19.813	11.812	0.513
791.500	483.056	80.004	19.993	103.751	19.814	11.721	0.503
792.000	483.328	80.006	19.993	103.751	19.820	11.273	0.501
792.500	483.568	80.007	19.994	103.751	19.823	11.008	0.512
793.000	483.811	80.005	19.994	103.751	19.826	10.787	0.498
793.500	484.089	80.004	19.992	103.751	19.829	10.631	0.502
794.000	484.334	80.005	19.993	103.750	19.832	10.382	0.522
794.500	484.604	80.006	19.993	103.750	19.832	10.370	0.519
795.000	484.840	80.004	19.993	103.750	19.837	10.031	0.510
795.500	485.103	80.006	19.993	103.749	19.838	9.899	0.503
796.000	485.330	80.006	19.993	103.750	19.843	9.563	0.494
796.500	485.613	80.004	19.992	103.749	19.845	9.382	0.500
797.000	485.846	80.006	19.992	103.749	19.848	9.149	0.513
797.500	486.093	80.005	19.993	103.749	19.852	8.886	0.498
798.000	486.353	80.007	19.992	103.749	19.855	8.671	0.493
798.500	486.610	80.006	19.993	103.749	19.855	8.649	0.512
799.000	486.865	80.004	19.993	103.748	19.856	8.618	0.514
799.500	487.156	80.003	19.992	103.749	19.857	8.543	0.529
800.000	487.376	80.004	19.992	103.749	19.859	8.399	0.529
800.500	487.627	80.004	19.993	103.749	19.863	8.095	0.491
801.000	487.918	80.005	19.993	103.749	19.865	7.897	0.506
801.500	488.157	80.004	19.994	103.750	19.868	7.674	0.536
802.000	488.414	80.008	19.993	103.749	19.868	7.718	0.513
802.500	488.663	80.006	19.992	103.749	19.871	7.440	0.501
803.000	488.908	80.007	19.994	103.748	19.869	7.592	0.500
803.500	489.151	80.005	19.994	103.749	19.872	7.392	0.491
804.000	489.453	80.006	19.994	103.749	19.875	7.153	0.516
804.500	489.665	80.006	19.994	103.750	19.879	6.843	0.530
805.000	489.915	80.006	19.993	103.750	19.883	6.577	0.488
805.500	490.152	80.005	19.994	103.751	19.885	6.397	0.474
806.000	490.427	80.004	19.993	103.751	19.879	6.897	0.499
806.500	490.668	80.004	19.994	103.750	19.883	6.561	0.514
807.000	490.937	80.004	19.993	103.750	19.884	6.533	0.513
807.500	491.201	80.006	19.993	103.749	19.885	6.431	0.521
808.000	491.415	80.006	19.994	103.749	19.890	6.058	0.505
808.500	491.673	80.006	19.994	103.748	19.894	5.756	0.475
809.000	491.955	80.007	19.994	103.749	19.892	5.888	0.506
809.500	492.193	80.004	19.994	103.749	19.892	5.880	0.530
810.000	492.496	80.006	19.994	103.750	19.896	5.596	0.530
810.500	492.750	80.006	19.993	103.751	19.896	5.596	0.549
811.000	493.001	80.003	19.994	103.751	19.900	5.339	0.531
811.500	493.235	80.007	19.993	103.751	19.898	5.434	0.495
812.000	493.500	80.005	19.993	103.750	19.898	5.462	0.492
812.500	493.787	80.005	19.995	103.750	19.897	5.542	0.525
813.000	494.034	80.004	19.994	103.748	19.900	5.288	0.543
813.500	494.278	80.004	19.994	103.748	19.903	5.112	0.513
814.000	494.531	80.006	19.994	103.747	19.906	4.871	0.494
814.500	494.782	80.006	19.994	103.748	19.908	4.692	0.500
815.000	495.081	80.005	19.993	103.748	19.906	4.836	0.527
815.500	495.315	80.007	19.994	103.749	19.908	4.721	0.542
816.000	495.581	80.002	19.994	103.749	19.910	4.553	0.516
816.500	495.805	80.004	19.994	103.749	19.910	4.565	0.495
817.000	496.057	80.004	19.993	103.749	19.910	4.605	0.483
817.500	496.316	80.004	19.993	103.749	19.910	4.601	0.494
818.000	496.594	80.006	19.993	103.749	19.910	4.552	0.524
818.500	496.824	80.005	19.993	103.749	19.913	4.354	0.523
819.000	497.123	80.005	19.993	103.750	19.916	4.098	0.519
819.500	497.359	80.006	19.993	103.751	19.912	4.443	0.532
820.000	497.610	80.004	19.993	103.751	19.911	4.498	0.511
820.500	497.868	80.005	19.993	103.751	19.917	4.050	0.498
821.000	498.149	80.003	19.994	103.751	19.918	3.971	0.524
821.500	498.384	80.005	19.993	103.751	19.921	3.772	0.528
822.000	498.666	80.005	19.992	103.751	19.917	4.070	0.516
822.500	498.888	80.005	19.993	103.751	19.920	3.853	0.510
823.000	499.153	80.002	19.994	103.751	19.920	3.833	0.496
823.500	499.425	80.004	19.994	103.751	19.920	3.843	0.512
824.000	499.668	80.004	19.993	103.751	19.920	3.792	0.526
824.500	499.945	80.005	19.993	103.751	19.918	4.001	0.517
825.000	500.173	80.005	19.994	103.752	19.921	3.738	0.513
825.500	500.432	80.003	19.993	103.752	19.921	3.772	0.496
826.000	500.709	80.006	19.993	103.752	19.919	3.916	0.511
826.500	500.971	80.005	19.993	103.753	19.922	3.711	0.538
827.000	501.221	80.006	19.993	103.754	19.924	3.521	0.526
827.500	501.466	80.006	19.993	103.754	19.922	3.657	0.504
828.000	501.751	80.005	19.993	103.755	19.922	3.645	0.512
828.500	502.034	80.006	19.993	103.754	19.924	3.535	0.549
829.000	502.258	80.004	19.993	103.754	19.923	3.632	0.538
829.500	502.518	80.005	19.993	103.752	19.924	3.500	0.495
830.000	502.781	80.005	19.993	103.751	19.924	3.537	0.503
830.500	503.020	80.005	19.994	103.751	19.923	3.604	0.513
831.000	503.313	80.006	19.994	103.751	19.926	3.405	0.517
831.500	503.523	80.005	19.993	103.751	19.922	3.675	0.517
832.000	503.824	80.006	19.993	103.751	19.926	3.367	0.507
832.500	504.049	80.005	19.994	103.752	19.924	3.519	0.518
833.000	504.304	80.005	19.994	103.752	19.922	3.693	0.503
833.500	504.545	80.005	19.992	103.752	19.924	3.557	0.488
834.000	504.801	80.006	19.994	103.751	19.925	3.458	0.497
834.500	505.080	80.006	19.994	103.752	19.925	3.423	0.516
835.000	505.307	80.004	19.993	103.752	19.928	3.225	0.520
835.500	505.600	80.006	19.993	103.752	19.929	3.190	0.513
836.000	505.845	80.006	19.993	103.752	19.931	3.002	0.529
836.500	506.121	80.005	19.993	103.753	19.925	3.432	0.530
837.000	506.377	80.006	19.996	103.753	19.926	3.389	0.527
837.500	506.649	80.006	19.996	103.755	19.928	3.207	0.530
838.000	506.876	80.004	19.996	103.759	19.926	3.381	0.513
838.500	507.109	80.004	19.995	103.760	19.926	3.395	0.479
839.000	507.389	80.005	19.995	103.760	19.929	3.166	0.486
839.500	507.619	80.003	19.996	103.759	19.928	3.219	0.512
840.000	507.880	80.004	19.994	103.756	19.927	3.318	0.501
840.500	508.191	80.004	19.994	103.753	19.928	3.211	0.532
841.000	508.413	80.004	19.994	103.751	19.930	3.111	0.553
841.500	508.667	80.004	19.993	103.752	19.929	3.119	0.505
842.000	508.913	80.003	19.994	103.752	19.929	3.188	0.488
842.500	509.203	80.004	19.993	103.752	19.932	2.963	0.517
843.000	509.432	80.003	19.994	103.752	19.928	3.231	0.528
843.500	509.707	80.003	19.995	103.752	19.927	3.328	0.512
844.000	509.974	80.003	19.994	103.752	19.931	3.022	0.523
844.500	510.197	80.005	19.994	103.751	19.929	3.132	0.516
845.000	510.442	80.004	19.994	103.751	19.930	3.101	0.479
845.500	510.693	80.005	19.993	103.751	19.929	3.174	0.481
846.000	510.969	80.005	19.994	103.751	19.927	3.282	0.511
846.500	511.207	80.004	19.994	103.751	19.930	3.109	0.521
847.000	511.488	80.005	19.995	103.752	19.929	3.142	0.517
847.500	511.758	80.004	19.994	103.753	19.934	2.805	0.535
848.000	512.024	80.004	19.994	103.753	19.930	3.063	0.544
848.500	512.265	80.005	19.994	103.753	19.930	3.061	0.521
849.000	512.525	80.004	19.994	103.753	19.932	2.943	0.504
849.500	512.786	80.006	19.994	103.752	19.932	2.949	0.511
850.000	513.047	80.005	19.992	103.750	19.928	3.223	0.522
850.500	513.277	80.006	19.993	103.751	19.931	3.012	0.506
851.000	513.535	80.007	19.992	103.751	19.932	2.939	0.489
851.500	513.827	80.005	19.992	103.751	19.931	2.994	0.519
852.000	514.055	80.006	19.994	103.750	19.932	2.939	0.535
852.500	514.300	80.006	19.994	103.750	19.930	3.054	0.497
853.000	514.606	80.007	19.994	103.750	19.931	3.016	0.512
853.500	514.832	80.009	19.994	103.750	19.935	2.708	0.541
854.000	515.106	80.007	19.993	103.750	19.928	3.239	0.516
854.500	515.356	80.005	19.993	103.750	19.932	2.937	0.512
855.000	515.618	80.007	19.993	103.751	19.933	2.854	0.518
855.500	515.895	80.006	19.992	103.750	19.933	2.866	0.525
856.000	516.140	80.009	19.993	103.750	19.934	2.765	0.531
856.500	516.408	80.008	19.993	103.750	19.934	2.801	0.518
857.000	516.626	80.007	19.992	103.750	19.936	2.613	0.500
857.500	516.893	80.006	19.994	103.750	19.937	2.574	0.485
858.000	517.166	80.008	19.993	103.751	19.933	2.825	0.512
858.500	517.411	80.007	19.993	103.751	19.935	2.702	0.529
859.000	517.670	80.007	19.992	103.751	19.932	2.925	0.511
859.500	517.903	80.010	19.993	103.750	19.935	2.677	0.498
860.000	518.186	80.008	19.994	103.750	19.934	2.799	0.504
860.500	518.436	80.008	19.993	103.753	19.935	2.671	0.524
861.000	518.716	80.006	19.993	103.753	19.935	2.734	0.531
861.500	518.957	80.007	19.993	103.752	19.935	2.722	0.525
862.000	519.232	80.007	19.994	103.752	19.935	2.679	0.518
862.500	519.471	80.005	19.993	103.751	19.934	2.791	0.515
863.000	519.745	80.006	19.994	103.748	19.933	2.850	0.513
863.500	519.985	80.005	19.993	103.748	19.933	2.852	0.514
864.000	520.264	80.005	19.991	103.747	19.932	2.911	0.517
864.500	520.504	80.006	19.994	103.749	19.936	2.655	0.519
865.000	520.775	80.006	19.994	103.749	19.934	2.752	0.515
865.500	521.043	80.004	19.993	103.749	19.934	2.775	0.525
866.000	521.266	80.004	19.994	103.749	19.937	2.562	0.516
866.500	521.573	80.003	19.993	103.750	19.935	2.738	0.511
867.000	521.789	80.004	19.993	103.749	19.935	2.712	0.526
867.500	522.080	80.005	19.995	103.749	19.935	2.708	0.515
868.000	522.298	80.004	19.993	103.749	19.936	2.611	0.508
868.500	522.559	80.006	19.993	103.749	19.934	2.748	0.494
869.000	522.844	80.002	19.993	103.750	19.936	2.637	0.512
869.500	523.058	80.004	19.993	103.750	19.936	2.649	0.522
870.000	523.324	80.006	19.993	103.750	19.936	2.659	0.489
870.500	523.606	80.006	19.993	103.750	19.933	2.850	0.514
871.000	523.841	80.005	19.992	103.749	19.938	2.469	0.532
871.500	524.091	80.004	19.993	103.748	19.934	2.748	0.501
872.000	524.394	80.004	19.993	103.749	19.933	2.870	0.519
872.500	524.644	80.005	19.993	103.749	19.937	2.544	0.553
873.000	524.882	80.004	19.993	103.749	19.933	2.850	0.521
873.500	525.149	80.004	19.993	103.749	19.933	2.842	0.496
874.000	525.390	80.007	19.993	103.749	19.937	2.528	0.506
874.500	525.618	80.006	19.993	103.749	19.937	2.576	0.489
875.000	525.893	80.005	19.994	103.749	19.936	2.619	0.486
875.500	526.187	80.005	19.993	103.749	19.934	2.789	0.536
876.000	526.429	80.004	19.993	103.749	19.935	2.712	0.552
876.500	526.698	80.004	19.994	103.749	19.933	2.828	0.524
877.000	526.934	80.004	19.992	103.749	19.936	2.637	0.508
877.500	527.174	80.004	19.993	103.749	19.933	2.884	0.491
878.000	527.447	80.005	19.993	103.749	19.935	2.745	0.495
878.500	527.701	80.005	19.994	103.749	19.935	2.678	0.520
879.000	527.986	80.003	19.992	103.749	19.933	2.824	0.533
879.500	528.216	80.006	19.993	103.750	19.934	2.801	0.527
880.000	528.478	80.005	19.992	103.751	19.934	2.761	0.503
880.500	528.697	80.004	19.993	103.751	19.934	2.791	0.486
881.000	528.967	80.005	19.993	103.751	19.937	2.552	0.485
881.500	529.256	80.005	19.992	103.751	19.935	2.730	0.524
882.000	529.537	80.004	19.993	103.749	19.935	2.680	0.564
882.500	529.754	80.004	19.993	103.749	19.938	2.519	0.533
883.000	530.029	80.006	19.994	103.749	19.936	2.655	0.495
883.500	530.293	80.005	19.993	103.750	19.935	2.706	0.516
884.000	530.547	80.005	19.992	103.751	19.937	2.548	0.528
884.500	530.759	80.005	19.992	103.751	19.937	2.550	0.492
885.000	531.063	80.003	19.993	103.751	19.937	2.552	0.491
885.500	531.284	80.005	19.992	103.751	19.935	2.692	0.520
886.000	531.578	80.006	19.993	103.751	19.932	2.895	0.520
886.500	531.815	80.005	19.992	103.751	19.938	2.513	0.523
887.000	532.052	80.006	19.992	103.752	19.937	2.554	0.503
887.500	532.319	80.005	19.993	103.753	19.937	2.593	0.489
888.000	532.571	80.004	19.993	103.755	19.937	2.562	0.512
888.500	532.840	80.006	19.992	103.755	19.935	2.738	0.520
889.000	533.095	80.005	19.993	103.755	19.936	2.643	0.523
889.500	533.336	80.005	19.992	103.754	19.937	2.530	0.510
890.000	533.590	80.006	19.993	103.755	19.937	2.548	0.495
890.500	533.841	80.005	19.992	103.754	19.940	2.369	0.500
891.000	534.109	80.006	19.992	103.753	19.938	2.505	0.512
891.500	534.359	80.005	19.992	103.753	19.939	2.374	0.519
892.000	534.623	80.006	19.992	103.753	19.938	2.459	0.516
892.500	534.886	80.004	19.992	103.753	19.937	2.590	0.520
893.000	535.142	80.005	19.992	103.752	19.937	2.540	0.523
893.500	535.410	80.005	19.993	103.752	19.939	2.376	0.522
894.000	535.655	80.004	19.993	103.753	19.940	2.315	0.518
894.500	535.923	80.006	19.991	103.754	19.935	2.698	0.513
895.000	536.178	80.005	19.992	103.755	19.940	2.347	0.518
895.500	536.420	80.005	19.993	103.756	19.937	2.540	0.510
896.000	536.697	80.005	19.993	103.756	19.937	2.578	0.508
896.500	536.911	80.003	19.992	103.756	19.938	2.469	0.505
897.000	537.196	80.004	19.995	103.755	19.936	2.653	0.495
897.500	537.443	80.003	19.995	103.755	19.938	2.509	0.516
898.000	537.709	80.004	19.994	103.756	19.938	2.515	0.523
898.500	537.948	80.002	19.994	103.757	19.940	2.311	0.509
899.000	538.205	80.004	19.994	103.756	19.937	2.526	0.501
899.500	538.480	80.007	19.994	103.756	19.938	2.463	0.514
900.000	538.728	80.006	19.992	103.755	19.936	2.615	0.527
900.500	538.985	80.005	19.994	103.753	19.937	2.574	0.513
901.000	539.244	80.002	19.993	103.752	19.940	2.339	0.510
901.500	539.510	80.005	19.992	103.753	19.934	2.763	0.521
902.000	539.761	80.003	19.994	103.753	19.937	2.572	0.521
902.500	540.027	80.004	19.994	103.753	19.937	2.582	0.517
903.000	540.293	80.004	19.994	103.753	19.936	2.633	0.525
903.500	540.565	80.006	19.994	103.753	19.939	2.418	0.535
904.000	540.789	80.003	19.993	103.753	19.934	2.815	0.517
904.500	541.072	80.006	19.993	103.752	19.936	2.603	0.502
905.000	541.322	80.005	19.993	103.752	19.937	2.590	0.520
905.500	541.571	80.006	19.994	103.754	19.938	2.511	0.516
906.000	541.854	80.006	19.992	103.755	19.939	2.432	0.515
906.500	542.116	80.002	19.995	103.755	19.940	2.313	0.538
907.000	542.361	80.006	19.994	103.756	19.938	2.501	0.527
907.500	542.643	80.004	19.995	103.757	19.938	2.495	0.517
908.000	542.870	80.008	19.993	103.755	19.942	2.197	0.518
908.500	543.124	80.007	19.993	103.755	19.937	2.566	0.495
909.000	543.359	80.007	19.993	103.755	19.939	2.428	0.485
909.500	543.613	80.004	19.994	103.756	19.937	2.528	0.488
910.000	543.856	80.006	19.994	103.755	19.942	2.209	0.493
910.500	544.124	80.006	19.993	103.755	19.934	2.767	0.504
911.000	544.387	80.007	19.994	103.755	19.934	2.757	0.521
911.500	544.656	80.005	19.994	103.754	19.938	2.477	0.531
912.000	544.895	80.008	19.992	103.754	19.937	2.588	0.520
912.500	545.138	80.008	19.993	103.754	19.937	2.570	0.495
913.000	545.395	80.006	19.994	103.753	19.939	2.398	0.491
913.500	545.668	80.005	19.994	103.753	19.937	2.574	0.515
914.000	545.890	80.006	19.994	103.753	19.936	2.657	0.512
914.500	546.154	80.006	19.993	103.752	19.937	2.562	0.490
915.000	546.380	80.005	19.994	103.752	19.934	2.750	0.488
915.500	546.636	80.006	19.993	103.751	19.937	2.550	0.486
916.000	546.902	80.007	19.993	103.750	19.935	2.724	0.503
916.500	547.175	80.007	19.995	103.750	19.935	2.692	0.531
917.000	547.451	80.008	19.993	103.750	19.933	2.825	0.544
917.500	547.700	80.006	19.993	103.749	19.939	2.420	0.537
918.000	547.922	80.005	19.994	103.749	19.936	2.653	0.498
918.500	548.210	80.007	19.992	103.750	19.939	2.394	0.490
919.000	548.490	80.008	19.993	103.750	19.936	2.600	0.539
919.500	548.769	80.006	19.995	103.750	19.940	2.300	0.564
920.000	548.985	80.007	19.994	103.750	19.938	2.501	0.527
920.500	549.250	80.007	19.994	103.750	19.938	2.471	0.488
921.000	549.496	80.008	19.993	103.749	19.938	2.509	0.496
921.500	549.771	80.006	19.993	103.750	19.940	2.347	0.516
922.000	550.019	80.007	19.994	103.750	19.942	2.189	0.522
922.500	550.302	80.006	19.994	103.750	19.938	2.465	0.527
923.000	550.551	80.007	19.994	103.749	19.940	2.349	0.531
923.500	550.800	80.006	19.994	103.750	19.937	2.568	0.515
924.000	551.088	80.007	19.993	103.750	19.938	2.465	0.517
924.500	551.286	80.006	19.993	103.750	19.938	2.517	0.511
925.000	551.558	80.006	19.993	103.750	19.938	2.521	0.479
925.500	551.820	80.005	19.994	103.751	19.939	2.436	0.502
926.000	552.099	80.006	19.994	103.750	19.938	2.448	0.537
926.500	552.304	80.006	19.994	103.749	19.937	2.538	0.513
927.000	552.580	80.005	19.994	103.748	19.938	2.459	0.482
927.500	552.824	80.001	19.994	103.748	19.936	2.663	0.500
928.000	553.077	80.008	19.994	103.747	19.935	2.696	0.509
928.500	553.360	80.007	19.992	103.747	19.938	2.517	0.517
929.000	553.608	80.005	19.994	103.748	19.936	2.629	0.534
929.500	553.880	80.006	19.995	103.748	19.939	2.446	0.526
930.000	554.153	80.005	19.995	103.749	19.934	2.752	0.532
930.500	554.392	80.005	19.995	103.749	19.936	2.669	0.528
931.000	554.668	80.005	19.994	103.749	19.932	2.894	0.514
931.500	554.908	80.006	19.995	103.749	19.937	2.540	0.515
932.000	555.175	80.005	19.995	103.749	19.936	2.613	0.512
932.500	555.418	80.006	19.994	103.747	19.933	2.842	0.509
933.000	555.679	80.006	19.994	103.747	19.940	2.355	0.507
933.500	555.951	80.007	19.993	103.747	19.935	2.671	0.518
934.000	556.225	80.006	19.995	103.747	19.936	2.637	0.539
934.500	556.464	80.008	19.994	103.748	19.935	2.704	0.529
935.000	556.705	80.006	19.994	103.748	19.936	2.619	0.497
935.500	556.981	80.007	19.994	103.748	19.934	2.807	0.499
936.000	557.246	80.008	19.993	103.748	19.936	2.643	0.529
936.500	557.491	80.004	19.994	103.748	19.935	2.734	0.525
937.000	557.715	80.007	19.994	103.748	19.934	2.771	0.489
937.500	558.023	80.006	19.994	103.748	19.934	2.763	0.500
938.000	558.268	80.006	19.994	103.749	19.933	2.882	0.543
938.500	558.498	80.007	19.993	103.748	19.938	2.455	0.514
939.000	558.733	80.006	19.995	103.748	19.937	2.562	0.470
939.500	558.954	80.006	19.993	103.748	19.938	2.489	0.460
940.000	559.251	80.009	19.994	103.747	19.937	2.574	0.487
940.500	559.510	80.007	19.994	103.747	19.935	2.696	0.537
941.000	559.789	80.007	19.994	103.746	19.939	2.384	0.547
941.500	560.000	80.006	19.995	103.746	19.938	2.467	0.514
942.000	560.237	80.006	19.993	103.746	19.938	2.509	0.469
942.500	560.511	80.006	19.994	103.746	19.939	2.442	0.480
943.000	560.767	80.005	19.995	103.746	19.938	2.461	0.521
943.500	561.025	80.007	19.993	103.746	19.940	2.301	0.521
944.000	561.261	80.006	19.993	103.746	19.939	2.388	0.503
944.500	561.499	80.006	19.993	103.746	19.936	2.605	0.484
945.000	561.736	80.005	19.994	103.747	19.936	2.601	0.475
945.500	562.026	80.005	19.993	103.748	19.937	2.574	0.501
946.000	562.241	80.006	19.993	103.748	19.936	2.649	0.516
946.500	562.520	80.005	19.993	103.748	19.937	2.536	0.499
947.000	562.788	80.005	19.993	103.749	19.938	2.449	0.521
947.500	563.053	80.003	19.993	103.749	19.936	2.623	0.541
948.000	563.288	80.004	19.994	103.749	19.934	2.801	0.516
948.500	563.543	80.004	19.993	103.749	19.934	2.795	0.495
949.000	563.785	80.006	19.993	103.749	19.937	2.572	0.493
949.500	564.044	80.005	19.993	103.749	19.934	2.815	0.499
950.000	564.299	80.006	19.993	103.749	19.936	2.607	0.508
950.500	564.539	80.005	19.993	103.749	19.937	2.554	0.504
951.000	564.795	80.004	19.993	103.750	19.938	2.481	0.496
951.500	565.040	80.004	19.992	103.750	19.938	2.515	0.499
952.000	565.305	80.005	19.992	103.750	19.939	2.422	0.505
952.500	565.557	80.005	19.993	103.751	19.937	2.534	0.513
953.000	565.829	80.004	19.993	103.751	19.935	2.744	0.521
953.500	566.049	80.006	19.993	103.751	19.937	2.580	0.508
954.000	566.319	80.004	19.993	103.752	19.936	2.627	0.490
954.500	566.575	80.004	19.993	103.752	19.937	2.546	0.508
955.000	566.811	80.006	19.994	103.752	19.934	2.783	0.509
955.500	567.096	80.004	19.994	103.753	19.937	2.544	0.507
956.000	567.312	80.006	19.993	103.753	19.936	2.599	0.511
956.500	567.569	80.003	19.991	103.753	19.933	2.828	0.487
957.000	567.825	80.005	19.993	103.753	19.936	2.655	0.493
957.500	568.103	80.004	19.995	103.753	19.938	2.471	0.524
958.000	568.320	80.006	19.994	103.752	19.939	2.400	0.514
958.500	568.581	80.007	19.994	103.752	19.934	2.801	0.486
959.000	568.815	80.004	19.992	103.752	19.934	2.751	0.486
959.500	569.081	80.004	19.993	103.752	19.934	2.793	0.498
960.000	569.337	80.005	19.994	103.752	19.933	2.892	0.511
960.500	569.596	80.005	19.993	103.751	19.936	2.657	0.518
961.000	569.841	80.004	19.993	103.751	19.933	2.874	0.510
961.500	570.097	80.005	19.993	103.752	19.933	2.866	0.502
962.000	570.338	80.005	19.993	103.751	19.934	2.767	0.499
962.500	570.575	80.005	19.994	103.751	19.935	2.674	0.488
963.000	570.858	80.005	19.993	103.751	19.933	2.844	0.499
963.500	571.095	80.004	19.994	103.752	19.933	2.842	0.520
964.000	571.310	80.006	19.993	103.753	19.935	2.714	0.486
964.500	571.609	80.004	19.993	103.753	19.935	2.728	0.483
965.000	571.861	80.004	19.993	103.754	19.932	2.915	0.532
965.500	572.131	80.005	19.993	103.753	19.935	2.688	0.536
966.000	572.372	80.006	19.994	103.753	19.934	2.813	0.517
966.500	572.619	80.005	19.993	103.752	19.937	2.540	0.500
967.000	572.850	80.004	19.993	103.753	19.934	2.791	0.483
967.500	573.129	80.004	19.993	103.753	19.936	2.662	0.494
968.000	573.374	80.005	19.992	103.753	19.937	2.583	0.517
968.500	573.640	80.006	19.993	103.754	19.935	2.708	0.518
969.000	573.906	80.005	19.993	103.754	19.936	2.639	0.522
969.500	574.181	80.003	19.993	103.754	19.935	2.708	0.536
970.000	574.424	80.005	19.993	103.754	19.935	2.692	0.529
970.500	574.673	80.004	19.993	103.755	19.934	2.757	0.505
971.000	574.943	80.004	19.993	103.754	19.934	2.819	0.506
971.500	575.166	80.006	19.993	103.754	19.933	2.846	0.506
972.000	575.448	80.006	19.993	103.755	19.937	2.584	0.499
972.500	575.667	80.006	19.993	103.755	19.934	2.817	0.503
973.000	575.944	80.004	19.993	103.754	19.934	2.769	0.499
973.500	576.221	80.004	19.992	103.754	19.936	2.645	0.525
974.000	576.486	80.005	19.992	103.754	19.934	2.759	0.548
974.500	576.717	80.005	19.992	103.755	19.935	2.728	0.518
975.000	576.965	80.005	19.992	103.755	19.935	2.736	0.488
975.500	577.236	80.004	19.992	103.755	19.934	2.793	0.499
976.000	577.436	80.004	19.993	103.755	19.937	2.560	0.495
976.500	577.733	80.005	19.994	103.755	19.933	2.827	0.484
977.000	578.014	80.003	19.994	103.755	19.934	2.813	0.538
977.500	578.256	80.005	19.994	103.760	19.934	2.775	0.550
978.000	578.489	80.006	19.993	103.762	19.930	3.093	0.499
978.500	578.729	80.006	19.995	103.765	19.932	2.937	0.474
979.000	578.990	80.003	19.994	103.769	19.935	2.710	0.487
979.500	579.238	80.005	19.994	103.768	19.932	2.933	0.505
980.000	579.494	80.004	19.993	103.763	19.930	3.048	0.506
980.500	579.776	80.003	19.993	103.760	19.933	2.834	0.521
981.000	580.078	80.004	19.994	103.756	19.931	2.977	0.562
981.500	580.305	80.005	19.994	103.752	19.933	2.874	0.557
982.000	580.558	80.004	19.993	103.752	19.932	2.935	0.504
982.500	580.815	80.004	19.995	103.752	19.932	2.931	0.494
983.000	581.056	80.004	19.994	103.751	19.932	2.963	0.504
983.500	581.352	80.006	19.993	103.751	19.933	2.892	0.518
984.000	581.577	80.005	19.994	103.751	19.931	3.042	0.529
984.500	581.804	80.005	19.994	103.751	19.929	3.127	0.487
985.000	582.123	80.004	19.992	103.751	19.931	2.973	0.499
985.500	582.359	80.004	19.993	103.752	19.930	3.081	0.550
986.000	582.609	80.005	19.993	103.752	19.929	3.123	0.521
986.500	582.858	80.005	19.993	103.750	19.929	3.174	0.493
987.000	583.110	80.005	19.994	103.750	19.933	2.882	0.500
987.500	583.398	80.005	19.993	103.750	19.931	3.014	0.520
988.000	583.620	80.006	19.993	103.749	19.931	3.024	0.525
988.500	583.888	80.006	19.993	103.750	19.932	2.941	0.500
989.000	584.176	80.006	19.992	103.750	19.932	2.927	0.523
989.500	584.403	80.006	19.994	103.750	19.932	2.951	0.535
990.000	584.658	80.006	19.992	103.751	19.932	2.925	0.498
990.500	584.927	80.006	19.993	103.751	19.933	2.872	0.503
991.000	585.175	80.005	19.993	103.750	19.931	2.971	0.521
991.500	585.414	80.007	19.993	103.750	19.931	2.969	0.502
992.000	585.692	80.008	19.993	103.750	19.930	3.089	0.502
992.500	585.918	80.007	19.993	103.749	19.932	2.963	0.511
993.000	586.187	80.007	19.993	103.749	19.933	2.842	0.499
993.500	586.434	80.008	19.993	103.748	19.929	3.140	0.506
994.000	586.697	80.006	19.993	103.747	19.929	3.168	0.513
994.500	586.955	80.006	19.993	103.745	19.928	3.239	0.515
995.000	587.218	80.008	19.993	103.745	19.930	3.073	0.521
995.500	587.466	80.007	19.993	103.745	19.931	3.024	0.516
996.000	587.697	80.006	19.995	103.746	19.930	3.054	0.495
996.500	587.973	80.005	19.994	103.747	19.934	2.807	0.493
997.000	588.211	80.006	19.994	103.748	19.931	2.982	0.511
997.500	588.445	80.005	19.993	103.748	19.929	3.176	0.493
998.000	588.742	80.006	19.995	103.748	19.932	2.957	0.501
998.500	588.978	80.005	19.993	103.747	19.933	2.892	0.532
999.000	589.249	80.004	19.995	103.748	19.929	3.180	0.520
999.500	589.500	80.006	19.994	103.748	19.931	2.975	0.514
1000.000	589.729	80.005	19.994	103.748	19.933	2.834	0.501
1000.500	589.980	80.005	19.994	103.749	19.931	2.992	0.480
1001.000	590.278	80.004	19.994	103.749	19.935	2.686	0.515
1001.500	590.557	80.006	19.993	103.749	19.933	2.860	0.564
1002.000	590.766	80.007	19.994	103.749	19.931	3.014	0.533
1002.500	591.039	80.006	19.994	103.750	19.931	2.988	0.485
1003.000	591.295	80.006	19.994	103.749	19.934	2.781	0.505
1003.500	591.581	80.007	19.995	103.749	19.933	2.833	0.535
1004.000	591.834	80.005	19.995	103.748	19.933	2.835	0.541
1004.500	592.102	80.005	19.993	103.748	19.934	2.783	0.530
1005.000	592.332	80.006	19.993	103.748	19.934	2.793	0.510
1005.500	592.574	80.006	19.994	103.748	19.935	2.736	0.485
1006.000	592.863	80.006	19.994	103.748	19.935	2.736	0.501
1006.500	593.107	80.007	19.994	103.748	19.934	2.789	0.532
1007.000	593.370	80.005	19.994	103.749	19.932	2.959	0.520
1007.500	593.579	80.005	19.994	103.750	19.930	3.055	0.489
1008.000	593.838	80.005	19.993	103.750	19.934	2.809	0.470
1008.500	594.099	80.007	19.993	103.750	19.933	2.870	0.495
1009.000	594.343	80.005	19.995	103.751	19.930	3.057	0.513
1009.500	594.644	80.006	19.994	103.751	19.930	3.051	0.525
1010.000	594.881	80.006	19.993	103.751	19.930	3.109	0.541
1010.500	595.129	80.006	19.994	103.751	19.930	3.075	0.512
1011.000	595.377	80.006	19.994	103.750	19.932	2.951	0.491
1011.500	595.631	80.006	19.994	103.750	19.931	3.042	0.499
1012.000	595.869	80.006	19.994	103.749	19.928	3.211	0.497
1012.500	596.151	80.006	19.993	103.749	19.932	2.929	0.506
1013.000	596.397	80.005	19.993	103.749	19.932	2.921	0.524
1013.500	596.674	80.006	19.993	103.748	19.933	2.864	0.526
1014.000	596.936	80.006	19.993	103.747	19.925	3.431	0.531
1014.500	597.196	80.008	19.993	103.746	19.927	3.296	0.531
1015.000	597.439	80.007	19.992	103.745	19.926	3.413	0.513
1015.500	597.690	80.007	19.993	103.745	19.926	3.348	0.499
1016.000	597.931	80.007	19.993	103.748	19.930	3.046	0.492
1016.500	598.208	80.003	19.992	103.749	19.923	3.565	0.505
1017.000	598.494	80.008	19.994	103.749	19.925	3.468	0.541
1017.500	598.733	80.006	19.994	103.751	19.927	3.302	0.543
1018.000	598.967	80.004	19.995	103.752	19.928	3.243	0.499
1018.500	599.249	80.007	19.994	103.754	19.926	3.385	0.495
1019.000	599.476	80.005	19.994	103.756	19.926	3.407	0.513
1019.500	599.756	80.008	19.994	103.756	19.929	3.178	0.508
1020.000	599.979	80.008	19.993	103.756	19.927	3.275	0.505
1020.500	600.265	80.006	19.995	103.755	19.928	3.233	0.506
1021.000	600.511	80.005	19.993	103.753	19.925	3.482	0.520
1021.500	600.777	80.005	19.994	103.751	19.927	3.296	0.522
1022.000	601.042	80.006	19.994	103.750	19.927	3.306	0.522
1022.500	601.254	80.006	19.994	103.749	19.929	3.174	0.504
1023.000	601.534	80.005	19.993	103.749	19.928	3.217	0.485
1023.500	601.793	80.005	19.995	103.749	19.926	3.409	0.516
1024.000	602.018	80.005	19.994	103.749	19.928	3.219	0.511
1024.499	602.276	80.004	19.995	103.749	19.929	3.160	0.483
1024.999	602.527	80.005	19.995	103.748	19.927	3.308	0.496
1025.499	602.779	80.004	19.994	103.748	19.928	3.241	0.506
1025.999	603.060	80.005	19.994	103.748	19.930	3.079	0.517
1026.500	603.297	80.004	19.995	103.748	19.931	3.030	0.525
1027.001	603.511	80.004	19.995	103.748	19.930	3.113	0.485
1027.500	603.799	80.005	19.994	103.749	19.927	3.292	0.477
1027.999	604.004	80.002	19.995	103.750	19.928	3.209	0.498
1028.499	604.254	80.002	19.995	103.750	19.928	3.243	0.474
1028.999	604.531	80.004	19.994	103.750	19.928	3.259	0.491
1029.499	604.773	80.002	19.995	103.751	19.928	3.209	0.523
1029.999	605.019	80.003	19.994	103.750	19.929	3.174	0.503
1030.499	605.283	80.004	19.995	103.750	19.927	3.288	0.499
1030.999	605.511	80.002	19.996	103.751	19.926	3.407	0.501
1031.499	605.776	80.004	19.995	103.751	19.929	3.176	0.492
1031.999	606.037	80.005	19.995	103.751	19.929	3.186	0.509
1032.499	606.286	80.002	19.994	103.751	19.929	3.146	0.518
1032.999	606.560	80.003	19.995	103.751	19.930	3.105	0.517
1033.499	606.808	80.003	19.994	103.751	19.930	3.065	0.522
1033.999	607.046	80.003	19.994	103.751	19.929	3.182	0.504
1034.499	607.331	80.003	19.993	103.751	19.927	3.267	0.505
1034.999	607.548	80.003	19.994	103.752	19.929	3.170	0.512
1035.500	607.819	80.003	19.994	103.752	19.929	3.188	0.495
1036.000	608.077	80.003	19.993	103.752	19.929	3.138	0.509
1036.499	608.315	80.003	19.993	103.752	19.931	3.022	0.512
1036.999	608.581	80.004	19.993	103.752	19.931	2.979	0.500
1037.499	608.839	80.002	19.994	103.753	19.927	3.290	0.514
1037.999	609.065	80.004	19.993	103.752	19.926	3.361	0.504
1038.499	609.369	80.004	19.993	103.753	19.928	3.255	0.507
1038.999	609.621	80.003	19.993	103.754	19.929	3.140	0.543
1039.499	609.871	80.005	19.994	103.755	19.927	3.304	0.529
1039.999	610.129	80.003	19.993	103.755	19.927	3.312	0.504
1040.499	610.371	80.005	19.993	103.755	19.928	3.243	0.504
1040.999	610.589	80.006	19.993	103.755	19.926	3.387	0.480
1041.499	610.873	80.003	19.992	103.753	19.927	3.330	0.481
1041.999	611.140	80.005	19.993	103.752	19.927	3.326	0.527
1042.499	611.390	80.005	19.993	103.752	19.925	3.427	0.535
1042.999	611.621	80.007	19.992	103.752	19.926	3.385	0.499
1043.500	611.919	80.006	19.994	103.752	19.927	3.302	0.505
1044.000	612.149	80.005	19.992	103.751	19.925	3.468	0.528
1044.499	612.418	80.005	19.993	103.752	19.926	3.403	0.513
1044.999	612.637	80.004	19.994	103.752	19.926	3.405	0.493
1045.499	612.879	80.004	19.994	103.751	19.930	3.075	0.475
1045.999	613.173	80.006	19.994	103.750	19.929	3.174	0.499
1046.499	613.448	80.004	19.993	103.749	19.928	3.204	0.552
1046.999	613.677	80.006	19.993	103.748	19.923	3.594	0.536
1047.499	613.957	80.006	19.993	103.747	19.925	3.482	0.507
1047.999	614.202	80.006	19.993	103.748	19.927	3.275	0.517
1048.499	614.468	80.006	19.993	103.749	19.926	3.348	0.518
1049.000	614.745	80.004	19.992	103.749	19.925	3.444	0.527
1049.501	614.990	80.005	19.993	103.749	19.926	3.403	0.533
1050.000	615.216	80.005	19.994	103.748	19.925	3.429	0.496
1050.499	615.523	80.005	19.994	103.748	19.926	3.403	0.502
1050.999	615.747	80.005	19.993	103.749	19.927	3.279	0.532
1051.499	616.005	80.005	19.994	103.749	19.930	3.059	0.507
1051.999	616.273	80.006	19.993	103.749	19.929	3.170	0.504
1052.499	616.476	80.005	19.994	103.749	19.927	3.318	0.498
1052.999	616.777	80.006	19.993	103.749	19.931	3.038	0.487
1053.499	616.996	80.006	19.993	103.749	19.928	3.249	0.512
1053.999	617.265	80.004	19.995	103.749	19.928	3.227	0.504
1054.499	617.535	80.006	19.992	103.749	19.929	3.142	0.514
1054.999	617.806	80.005	19.993	103.749	19.926	3.381	0.540
1055.499	618.040	80.005	19.993	103.749	19.927	3.290	0.523
1055.999	618.292	80.006	19.994	103.749	19.928	3.251	0.496
1056.499	618.515	80.003	19.995	103.749	19.927	3.318	0.481
1056.999	618.750	80.004	19.993	103.748	19.928	3.231	0.466
1057.499	619.039	80.006	19.994	103.748	19.927	3.275	0.491
1057.999	619.274	80.003	19.993	103.749	19.925	3.480	0.525
1058.499	619.552	80.004	19.994	103.749	19.929	3.170	0.518
1059.000	619.787	80.004	19.994	103.749	19.926	3.407	0.512
1059.500	620.088	80.004	19.993	103.750	19.926	3.361	0.524
1059.999	620.313	80.005	19.994	103.750	19.927	3.271	0.531
1060.499	620.561	80.005	19.993	103.749	19.928	3.249	0.500
1060.999	620.801	80.003	19.994	103.750	19.927	3.269	0.481
1061.499	621.046	80.004	19.993	103.750	19.927	3.284	0.486
1062.000	621.294	80.004	19.995	103.749	19.929	3.121	0.489
1062.500	621.537	80.004	19.994	103.749	19.929	3.164	0.492
1062.999	621.785	80.004	19.993	103.749	19.928	3.211	0.491
1063.499	622.059	80.005	19.994	103.749	19.928	3.231	0.506
1063.999	622.358	80.003	19.993	103.748	19.928	3.237	0.548
1064.499	622.575	80.005	19.993	103.749	19.931	3.026	0.545
1065.000	622.845	80.003	19.994	103.749	19.926	3.385	0.502
1065.500	623.095	80.004	19.994	103.749	19.926	3.356	0.504
1065.999	623.373	80.005	19.994	103.749	19.929	3.180	0.524
1066.499	623.619	80.006	19.994	103.750	19.927	3.273	0.526
1066.999	623.911	80.004	19.994	103.749	19.926	3.344	0.531
1067.499	624.128	80.005	19.993	103.749	19.928	3.241	0.523
1067.999	624.326	80.005	19.994	103.750	19.927	3.308	0.462
1068.499	624.649	80.003	19.994	103.751	19.928	3.201	0.468
1068.999	624.881	80.007	19.993	103.751	19.926	3.413	0.538
1069.499	625.144	80.002	19.995	103.752	19.928	3.217	0.525
1069.999	625.382	80.007	19.993	103.751	19.931	2.996	0.498
1070.500	625.653	80.008	19.992	103.753	19.932	2.905	0.505
1071.000	625.876	80.006	19.993	103.752	19.931	3.038	0.502
1071.499	626.159	80.006	19.992	103.752	19.928	3.215	0.500
1071.999	626.399	80.005	19.993	103.751	19.929	3.144	0.515
1072.499	626.668	80.008	19.993	103.753	19.932	2.939	0.516
1073.000	626.923	80.006	19.992	103.750	19.928	3.201	0.516
1073.500	627.187	80.008	19.993	103.751	19.929	3.170	0.522
1073.999	627.445	80.005	19.994	103.751	19.927	3.280	0.520
1074.500	627.659	80.006	19.992	103.751	19.929	3.130	0.497
1075.000	627.967	80.007	19.992	103.750	19.926	3.377	0.497
1075.500	628.223	80.007	19.994	103.750	19.926	3.359	0.543
1076.000	628.481	80.008	19.994	103.749	19.928	3.192	0.539
1076.500	628.723	80.005	19.992	103.749	19.927	3.284	0.507
1077.001	629.009	80.007	19.994	103.749	19.926	3.381	0.514
1077.501	629.267	80.007	19.994	103.749	19.929	3.186	0.536
1078.000	629.526	80.006	19.993	103.750	19.928	3.231	0.530
1078.499	629.779	80.008	19.993	103.751	19.928	3.221	0.515
1078.999	630.014	80.005	19.992	103.754	19.928	3.194	0.500
1079.500	630.284	80.007	19.993	103.755	19.926	3.383	0.497
1080.001	630.544	80.006	19.993	103.756	19.929	3.146	0.518
1080.500	630.780	80.007	19.993	103.757	19.926	3.391	0.513
1080.999	631.039	80.006	19.992	103.756	19.929	3.156	0.495
1081.499	631.361	80.006	19.993	103.753	19.926	3.397	0.538
1081.999	631.585	80.004	19.993	103.753	19.930	3.101	0.564
1082.499	631.820	80.008	19.994	103.753	19.930	3.103	0.502
1082.999	632.090	80.007	19.994	103.753	19.925	3.423	0.482
1083.499	632.376	80.005	19.993	103.753	19.927	3.284	0.531
1083.999	632.674	80.005	19.993	103.754	19.924	3.503	0.570
1084.499	632.876	80.004	19.993	103.753	19.927	3.316	0.542
1085.000	633.184	80.007	19.993	103.752	19.927	3.312	0.505
1085.500	633.419	80.003	19.993	103.752	19.927	3.316	0.526
1085.999	633.669	80.005	19.994	103.751	19.924	3.496	0.514
1086.499	633.968	80.005	19.995	103.752	19.924	3.500	0.517
1087.000	634.222	80.006	19.993	103.753	19.924	3.527	0.551
1087.500	634.466	80.006	19.993	103.753	19.924	3.561	0.525
1088.000	634.761	80.006	19.993	103.753	19.925	3.419	0.518
1088.500	635.011	80.004	19.994	103.754	19.925	3.458	0.542
1089.000	635.268	80.007	19.993	103.752	19.924	3.545	0.526
1089.500	635.523	80.005	19.994	103.751	19.923	3.626	0.510
1089.999	635.812	80.007	19.995	103.752	19.924	3.529	0.528
1090.500	636.048	80.008	19.993	103.752	19.928	3.239	0.535
1091.000	636.337	80.006	19.993	103.753	19.920	3.800	0.525
1091.500	636.573	80.006	19.993	103.753	19.922	3.711	0.525
1092.000	636.853	80.005	19.994	103.753	19.920	3.857	0.520
1092.499	637.093	80.007	19.994	103.752	19.923	3.575	0.518
1092.999	637.359	80.005	19.994	103.752	19.922	3.667	0.513
1093.499	637.599	80.007	19.994	103.752	19.926	3.399	0.506
1094.000	637.906	80.007	19.992	103.752	19.925	3.464	0.527
1094.500	638.130	80.006	19.993	103.752	19.923	3.606	0.539
1095.000	638.415	80.007	19.994	103.753	19.926	3.369	0.520
1095.501	638.656	80.009	19.994	103.753	19.927	3.288	0.518
1096.001	638.950	80.007	19.993	103.753	19.922	3.665	0.530
1096.500	639.213	80.007	19.993	103.753	19.922	3.665	0.546
1097.000	639.456	80.008	19.993	103.753	19.922	3.679	0.532
1097.500	639.722	80.008	19.993	103.752	19.921	3.766	0.508
1097.999	639.961	80.007	19.994	103.752	19.923	3.628	0.507
1098.499	640.214	80.006	19.993	103.752	19.923	3.582	0.499
1098.999	640.489	80.007	19.993	103.752	19.924	3.503	0.510
1099.499	640.756	80.006	19.993	103.752	19.922	3.649	0.535
1100.000	641.009	80.007	19.993	103.753	19.925	3.456	0.531
1100.500	641.224	80.006	19.993	103.753	19.923	3.596	0.494
1100.999	641.480	80.009	19.993	103.753	19.928	3.245	0.470
1101.499	641.782	80.007	19.993	103.753	19.927	3.312	0.515
1101.999	642.026	80.006	19.994	103.753	19.927	3.286	0.552
1102.499	642.262	80.007	19.994	103.751	19.926	3.381	0.513
1103.000	642.532	80.008	19.993	103.750	19.925	3.466	0.493
1103.500	642.834	80.006	19.994	103.750	19.924	3.561	0.539
1103.999	643.031	80.008	19.993	103.750	19.924	3.517	0.535
1104.499	643.333	80.005	19.992	103.752	19.926	3.387	0.499
1105.000	643.577	80.007	19.993	103.755	19.926	3.379	0.523
1105.501	643.794	80.008	19.993	103.756	19.931	3.040	0.503
1106.000	644.057	80.008	19.994	103.755	19.927	3.275	0.470
1106.500	644.334	80.005	19.993	103.756	19.927	3.274	0.510
1107.000	644.620	80.008	19.993	103.755	19.926	3.411	0.552
1107.499	644.880	80.005	19.993	103.757	19.926	3.405	0.555
1107.999	645.104	80.005	19.993	103.757	19.927	3.282	0.515
1108.499	645.383	80.006	19.995	103.757	19.925	3.420	0.493
1108.999	645.672	80.003	19.994	103.757	19.925	3.488	0.535
1109.500	645.947	80.006	19.993	103.756	19.925	3.440	0.566
1110.000	646.147	80.005	19.993	103.754	19.922	3.647	0.519
1110.499	646.433	80.006	19.993	103.756	19.926	3.371	0.480
1110.999	646.668	80.006	19.994	103.757	19.922	3.665	0.503
1111.499	646.905	80.005	19.993	103.757	19.926	3.399	0.497
1111.999	647.239	80.003	19.993	103.756	19.924	3.494	0.522
1112.499	647.461	80.005	19.994	103.753	19.924	3.519	0.564
1112.999	647.753	80.004	19.994	103.751	19.925	3.462	0.535
1113.499	647.964	80.005	19.994	103.752	19.922	3.663	0.508
1113.999	648.229	80.004	19.994	103.752	19.925	3.454	0.490
1114.499	648.533	80.003	19.995	103.752	19.924	3.497	0.522
1114.999	648.769	80.004	19.994	103.753	19.923	3.594	0.554
1115.499	649.038	80.004	19.994	103.753	19.924	3.503	0.522
1116.000	649.296	80.006	19.994	103.751	19.922	3.693	0.516
1116.500	649.568	80.003	19.995	103.751	19.925	3.452	0.529
1117.000	649.811	80.007	19.994	103.752	19.926	3.393	0.523
1117.500	650.094	80.007	19.994	103.754	19.925	3.448	0.520
1117.999	650.316	80.002	19.995	103.754	19.924	3.505	0.515
1118.499	650.627	80.003	19.994	103.757	19.927	3.302	0.519
1118.999	650.858	80.004	19.994	103.757	19.923	3.614	0.537
1119.499	651.130	80.005	19.994	103.756	19.927	3.330	0.523
1119.999	651.413	80.006	19.994	103.756	19.921	3.750	0.529
1120.499	651.660	80.005	19.994	103.757	19.921	3.724	0.543
1120.999	651.895	80.006	19.995	103.757	19.925	3.462	0.507
1121.500	652.158	80.003	19.995	103.757	19.923	3.575	0.490
1122.000	652.406	80.004	19.994	103.755	19.923	3.604	0.504
1122.499	652.718	80.005	19.994	103.755	19.924	3.557	0.536
1122.999	652.900	80.005	19.994	103.753	19.924	3.503	0.527
1123.499	653.200	80.005	19.994	103.749	19.923	3.638	0.488
1123.999	653.446	80.007	19.993	103.749	19.923	3.596	0.514
1124.499	653.690	80.006	19.994	103.752	19.925	3.454	0.518
1124.999	653.999	80.008	19.992	103.754	19.923	3.632	0.522
1125.499	654.211	80.006	19.994	103.756	19.924	3.553	0.537
1125.999	654.523	80.006	19.994	103.759	19.924	3.545	0.522
1126.499	654.758	80.005	19.994	103.758	19.925	3.424	0.535
1126.999	655.007	80.005	19.995	103.757	19.923	3.590	0.515
1127.499	655.228	80.005	19.994	103.755	19.926	3.381	0.477
1127.999	655.545	80.011	19.993	103.753	19.926	3.402	0.504
1128.499	655.801	80.009	19.994	103.753	19.923	3.612	0.556
1129.000	656.028	80.007	19.994	103.753	19.922	3.679	0.528
1129.501	656.297	80.007	19.993	103.757	19.922	3.645	0.489
1130.000	656.542	80.004	19.993	103.757	19.921	3.716	0.505
1130.499	656.809	80.006	19.994	103.757	19.924	3.523	0.513
1130.999	657.045	80.004	19.994	103.756	19.922	3.668	0.507
1131.499	657.323	80.010	19.994	103.755	19.921	3.787	0.508
1131.999	657.559	80.004	19.993	103.752	19.922	3.682	0.514
1132.499	657.809	80.008	19.994	103.750	19.922	3.700	0.500
1133.000	658.093	80.003	19.992	103.753	19.921	3.737	0.510
1133.500	658.341	80.005	19.994	103.755	19.923	3.611	0.533
1133.999	658.592	80.005	19.994	103.756	19.924	3.501	0.516
1134.500	658.854	80.006	19.993	103.754	19.921	3.744	0.506
1135.000	659.083	80.006	19.994	103.754	19.925	3.430	0.502
1135.499	659.384	80.006	19.993	103.752	19.925	3.479	0.510
1136.000	659.617	80.007	19.995	103.749	19.922	3.643	0.532
1136.501	659.889	80.005	19.992	103.749	19.920	3.848	0.520
1137.000	660.125	80.005	19.996	103.752	19.920	3.860	0.507
1137.499	660.407	80.008	19.996	103.760	19.922	3.704	0.513
1137.999	660.656	80.004	19.994	103.765	19.925	3.445	0.524
1138.499	660.908	80.004	19.993	103.766	19.924	3.510	0.516
1138.999	661.183	80.008	19.994	103.767	19.925	3.429	0.514
1139.499	661.433	80.004	19.993	103.765	19.921	3.725	0.526
1139.999	661.681	80.005	19.993	103.763	19.925	3.417	0.512
1140.499	661.952	80.007	19.993	103.761	19.925	3.473	0.509
1140.999	662.231	80.004	19.994	103.764	19.923	3.579	0.534
1141.499	662.444	80.005	19.994	103.769	19.924	3.500	0.521
1141.999	662.723	80.004	19.993	103.776	19.923	3.593	0.492
1142.499	662.987	80.006	19.994	103.779	19.923	3.625	0.518
1142.999	663.216	80.006	19.994	103.782	19.921	3.765	0.518
1143.499	663.438	80.004	19.993	103.784	19.917	4.043	0.472
1144.000	663.682	80.004	19.993	103.786	19.919	3.880	0.458
1144.500	663.971	80.006	19.993	103.780	19.918	3.978	0.500
1144.999	664.208	80.005	19.993	103.776	19.920	3.850	0.530
1145.499	664.474	80.005	19.995	103.772	19.918	3.976	0.514
1145.999	664.728	80.005	19.995	103.767	19.919	3.933	0.512
1146.499	664.978	80.006	19.993	103.764	19.920	3.852	0.512
1147.000	665.254	80.005	19.993	103.765	19.919	3.889	0.515
1147.500	665.486	80.007	19.994	103.767	19.921	3.769	0.517
1147.999	665.767	80.006	19.994	103.772	19.920	3.846	0.510
1148.499	666.008	80.006	19.993	103.777	19.922	3.702	0.517
1149.000	666.266	80.004	19.994	103.781	19.920	3.812	0.511
1149.500	666.531	80.005	19.994	103.785	19.921	3.741	0.511
1149.999	666.774	80.004	19.993	103.787	19.919	3.925	0.515
1150.499	667.016	80.006	19.993	103.787	19.922	3.710	0.496
1150.999	667.259	80.004	19.994	103.788	19.921	3.729	0.485
1151.500	667.542	80.007	19.993	103.786	19.922	3.680	0.506
1152.000	667.814	80.006	19.993	103.788	19.920	3.796	0.540
1152.499	668.083	80.003	19.992	103.787	19.921	3.731	0.548
1152.999	668.297	80.008	19.994	103.786	19.921	3.729	0.512
1153.499	668.566	80.006	19.993	103.783	19.923	3.611	0.483
1153.999	668.813	80.007	19.992	103.784	19.919	3.926	0.500
1154.499	669.066	80.004	19.994	103.779	19.920	3.794	0.508
1155.000	669.314	80.006	19.994	103.776	19.920	3.818	0.501
1155.500	669.671	80.005	19.993	103.774	19.922	3.680	0.553
1155.999	669.769	80.007	19.993	103.773	19.921	3.753	0.530
1156.499	670.092	80.007	19.993	103.773	19.921	3.759	0.438
1156.999	670.331	80.008	19.994	103.775	19.921	3.755	0.491
1157.499	670.590	80.007	19.994	103.779	19.923	3.569	0.530
1157.999	670.822	80.006	19.993	103.783	19.919	3.889	0.494
1158.499	671.069	80.007	19.993	103.782	19.920	3.796	0.485
1159.000	671.341	80.006	19.993	103.780	19.923	3.621	0.499
1159.501	671.590	80.004	19.994	103.781	19.920	3.826	0.520
1160.001	671.815	80.006	19.994	103.779	19.921	3.751	0.497
1160.500	672.085	80.007	19.993	103.778	19.922	3.666	0.484
1161.000	672.358	80.008	19.993	103.779	19.920	3.852	0.519
1161.500	672.613	80.007	19.993	103.782	19.921	3.717	0.536
1161.999	672.871	80.006	19.993	103.784	19.923	3.636	0.521
1162.499	673.112	80.006	19.994	103.785	19.921	3.741	0.506
1162.999	673.370	80.006	19.992	103.787	19.922	3.670	0.498
1163.499	673.629	80.006	19.993	103.791	19.921	3.767	0.508
1163.999	673.903	80.006	19.993	103.792	19.919	3.883	0.525
1164.499	674.147	80.006	19.993	103.791	19.922	3.688	0.525
1164.999	674.382	80.009	19.993	103.792	19.920	3.840	0.499
1165.499	674.642	80.005	19.993	103.790	19.920	3.848	0.487
1165.999	674.921	80.006	19.992	103.787	19.921	3.785	0.517
1166.499	675.175	80.006	19.993	103.785	19.919	3.887	0.536
1166.999	675.429	80.005	19.993	103.785	19.924	3.496	0.520
1167.499	675.678	80.005	19.993	103.784	19.920	3.848	0.506
1167.999	675.933	80.005	19.993	103.785	19.920	3.824	0.504
1168.499	676.171	80.004	19.992	103.787	19.920	3.804	0.498
1168.999	676.452	80.008	19.993	103.787	19.923	3.615	0.506
1169.499	676.721	80.006	19.992	103.786	19.924	3.550	0.535
1169.999	676.960	80.007	19.992	103.785	19.922	3.710	0.529
1170.499	677.214	80.005	19.993	103.786	19.921	3.755	0.501
1170.999	677.479	80.009	19.993	103.786	19.921	3.751	0.506
1171.499	677.759	80.006	19.993	103.789	19.921	3.729	0.532
1171.999	677.990	80.007	19.994	103.789	19.922	3.688	0.528
1172.499	678.250	80.008	19.993	103.789	19.920	3.832	0.501
1172.999	678.486	80.006	19.994	103.789	19.919	3.864	0.493
1173.499	678.769	80.007	19.994	103.789	19.915	4.183	0.508
1173.999	679.039	80.008	19.994	103.788	19.922	3.712	0.537
1174.499	679.270	80.007	19.994	103.787	19.920	3.789	0.527
1174.999	679.533	80.005	19.994	103.786	19.923	3.639	0.497
1175.499	679.794	80.009	19.993	103.785	19.921	3.779	0.509
1176.000	680.014	80.009	19.994	103.785	19.920	3.792	0.502
1176.500	680.276	80.007	19.993	103.784	19.920	3.840	0.482
1176.999	680.530	80.006	19.994	103.785	19.921	3.733	0.499
1177.499	680.750	80.006	19.994	103.786	19.924	3.538	0.495
1177.999	681.054	80.008	19.992	103.786	19.921	3.765	0.499
1178.499	681.274	80.008	19.993	103.788	19.921	3.745	0.523
1178.999	681.545	80.006	19.993	103.788	19.920	3.863	0.507
1179.499	681.826	80.008	19.994	103.787	19.923	3.585	0.522
1179.999	682.062	80.009	19.992	103.787	19.920	3.834	0.535
1180.499	682.297	80.007	19.994	103.787	19.919	3.913	0.494
1180.999	682.597	80.007	19.993	103.786	19.916	4.140	0.503
1181.499	682.841	80.008	19.994	103.786	19.919	3.873	0.539
1181.999	683.129	80.007	19.994	103.786	19.917	4.045	0.537
1182.499	683.365	80.004	19.995	103.785	19.920	3.808	0.528
1182.999	683.604	80.006	19.993	103.785	19.920	3.790	0.499
1183.499	683.905	80.008	19.993	103.784	19.918	3.992	0.508
1183.999	684.181	80.009	19.993	103.784	19.922	3.660	0.559
1184.499	684.401	80.005	19.994	103.783	19.922	3.666	0.536
1184.999	684.642	80.008	19.993	103.783	19.917	4.073	0.478
1185.499	684.893	80.005	19.993	103.784	19.923	3.583	0.476
1185.999	685.168	80.006	19.994	103.785	19.921	3.774	0.509
1186.500	685.425	80.007	19.993	103.786	19.916	4.092	0.529
1187.000	685.655	80.005	19.993	103.787	19.930	3.101	0.510
1187.499	685.904	80.006	19.994	103.787	19.918	3.955	0.483
1187.999	686.217	80.002	19.993	103.787	19.920	3.857	0.520
1188.499	686.440	80.006	19.995	103.787	19.918	4.005	0.549
1188.999	686.751	80.004	19.995	103.786	19.916	4.133	0.535
1189.499	686.990	80.007	19.993	103.786	19.922	3.680	0.542
1189.999	687.229	80.006	19.994	103.786	19.919	3.881	0.514
1190.499	687.476	80.006	19.994	103.786	19.917	4.037	0.482
1190.999	687.697	80.005	19.994	103.787	19.916	4.139	0.477
1191.499	687.986	80.006	19.994	103.786	19.917	4.035	0.489
1192.000	688.284	80.008	19.994	103.787	19.918	3.964	0.548
1192.500	688.498	80.003	19.995	103.786	19.923	3.640	0.550
1193.000	688.730	80.002	19.994	103.786	19.915	4.195	0.479
1193.501	689.020	80.005	19.994	103.785	19.919	3.899	0.484
1194.000	689.257	80.004	19.993	103.786	19.917	4.031	0.525
1194.500	689.492	80.006	19.993	103.786	19.918	3.938	0.500
1195.000	689.763	80.006	19.995	103.786	19.919	3.871	0.489
1195.500	689.998	80.004	19.993	103.787	19.919	3.936	0.506
1196.000	690.256	80.005	19.994	103.787	19.918	3.963	0.500
1196.499	690.502	80.005	19.992	103.788	19.917	4.076	0.498
1197.000	690.779	80.003	19.996	103.793	19.918	3.985	0.513
1197.500	691.041	80.004	19.995	103.801	19.917	4.040	0.531
1197.999	691.274	80.006	19.995	103.807	19.918	3.985	0.517
1198.499	691.537	80.005	19.993	103.808	19.915	4.214	0.496
1198.999	691.808	80.004	19.995	103.808	19.917	4.084	0.516
1199.499	692.088	80.006	19.993	103.803	19.915	4.226	0.542
1199.999	692.378	80.006	19.994	103.795	19.917	4.031	0.560
1200.500	692.680	80.005	19.995	103.790	19.916	4.155	0.581
1201.000	692.915	80.003	19.994	103.791	19.917	4.054	0.564
1201.499	693.290	80.005	19.995	103.792	19.917	4.056	0.573
1201.999	693.338	80.005	19.994	103.793	19.920	3.825	0.517
1202.499	693.535	80.004	19.994	103.796	19.917	4.022	0.335
1202.999	693.827	80.003	19.995	103.797	19.918	3.969	0.367
1203.499	694.134	80.005	19.996	103.795	19.918	3.957	0.544
1203.999	694.341	80.002	19.995	103.795	19.919	3.924	0.556
1204.499	694.591	80.007	19.994	103.799	19.917	4.060	0.486
1204.999	694.805	80.002	19.995	103.801	19.918	4.005	0.461
1205.500	695.100	80.005	19.994	103.802	19.917	4.042	0.486
1206.000	695.346	80.004	19.994	103.804	19.915	4.184	0.525
1206.500	695.627	80.005	19.994	103.807	19.917	4.086	0.534
1207.001	695.861	80.005	19.993	103.806	19.913	4.350	0.521
1207.500	696.086	80.003	19.994	103.802	19.915	4.174	0.487
1207.999	696.371	80.005	19.994	103.801	19.918	3.995	0.484
1208.500	696.623	80.004	19.994	103.802	19.919	3.927	0.523
1209.001	696.851	80.006	19.993	103.799	19.921	3.760	0.509
1209.500	697.146	80.005	19.993	103.797	19.915	4.164	0.501
1210.000	697.372	80.002	19.994	103.795	19.916	4.091	0.521
1210.500	697.597	80.001	19.993	103.795	19.914	4.270	0.486
1210.999	697.883	80.006	19.993	103.798	19.918	4.004	0.481
1211.499	698.107	80.004	19.994	103.801	19.917	4.067	0.510
1211.999	698.392	80.005	19.994	103.806	19.917	4.079	0.510
1212.499	698.613	79.999	19.995	103.809	19.914	4.264	0.507
1213.000	698.858	80.004	19.994	103.813	19.913	4.323	0.485
1213.500	699.136	80.004	19.994	103.812	19.913	4.329	0.495
1213.999	699.361	80.005	19.994	103.809	19.917	4.085	0.514
1214.499	699.627	80.007	19.994	103.806	19.914	4.284	0.497
1214.999	699.860	80.006	19.994	103.808	19.916	4.089	0.495
1215.499	700.126	80.004	19.994	103.808	19.915	4.203	0.499
1215.999	700.390	80.005	19.995	103.808	19.917	4.057	0.514
1216.499	700.657	80.004	19.994	103.806	19.915	4.223	0.530
1217.000	700.902	80.006	19.994	103.807	19.914	4.282	0.521
1217.500	701.144	79.999	19.994	103.809	19.916	4.089	0.500
1217.999	701.403	80.008	19.994	103.809	19.914	4.296	0.495
1218.499	701.638	80.005	19.995	103.811	19.915	4.215	0.498
1218.999	701.883	80.004	19.994	103.817	19.915	4.166	0.487
1219.499	702.148	80.007	19.995	103.820	19.917	4.024	0.495
1219.999	702.416	80.003	19.994	103.820	19.916	4.111	0.521
1220.499	702.670	80.005	19.994	103.823	19.916	4.146	0.527
1221.000	702.928	80.003	19.993	103.825	19.917	4.041	0.517
1221.500	703.205	80.004	19.994	103.824	19.915	4.215	0.524
1222.000	703.390	80.004	19.995	103.826	19.919	3.931	0.499
1222.500	703.731	80.004	19.994	103.826	19.916	4.156	0.494
1222.999	703.920	80.004	19.993	103.826	19.914	4.296	0.528
1223.499	704.220	80.005	19.993	103.826	19.916	4.120	0.509
1223.999	704.397	80.005	19.993	103.829	19.914	4.302	0.483
1224.499	704.675	80.006	19.993	103.830	19.917	4.020	0.466
1224.999	704.918	80.003	19.995	103.831	19.914	4.262	0.488
1225.499	705.169	80.004	19.993	103.831	19.918	3.968	0.508
1225.999	705.418	80.004	19.993	103.830	19.915	4.193	0.497
1226.499	705.712	80.003	19.993	103.829	19.918	3.957	0.522
1227.000	705.926	80.005	19.993	103.829	19.919	3.921	0.525
1227.501	706.208	80.005	19.993	103.829	19.916	4.095	0.502
1228.000	706.432	80.003	19.994	103.829	19.915	4.172	0.500
1228.500	706.668	80.010	19.991	103.829	19.917	4.022	0.483
1229.000	706.940	80.006	19.994	103.829	19.915	4.231	0.484
1229.499	707.185	80.007	19.993	103.825	19.918	4.000	0.513
1229.999	707.433	80.006	19.992	103.825	19.914	4.286	0.505
1230.500	707.682	80.007	19.993	103.825	19.916	4.105	0.494
1231.000	707.937	80.008	19.993	103.825	19.914	4.294	0.500
1231.499	708.175	80.005	19.993	103.826	19.915	4.231	0.499
1231.999	708.421	80.007	19.993	103.830	19.914	4.258	0.489
1232.499	708.700	80.007	19.993	103.830	19.915	4.180	0.505
1232.999	708.988	80.003	19.992	103.830	19.911	4.493	0.546
1233.499	709.207	80.009	19.993	103.830	19.914	4.264	0.537
1233.999	709.493	80.007	19.994	103.830	19.913	4.385	0.506
1234.499	709.700	80.005	19.993	103.831	19.913	4.320	0.499
1234.999	709.967	80.007	19.993	103.830	19.913	4.317	0.484
1235.499	710.210	80.006	19.992	103.830	19.911	4.495	0.492
1235.999	710.466	80.007	19.993	103.829	19.911	4.507	0.504
1236.499	710.737	80.006	19.993	103.829	19.911	4.467	0.513
1236.999	710.931	80.006	19.994	103.828	19.911	4.517	0.496
1237.499	711.186	80.006	19.994	103.828	19.910	4.537	0.457
1237.999	711.464	80.010	19.993	103.826	19.915	4.205	0.491
1238.499	711.741	80.016	19.993	103.827	19.914	4.282	0.544
1238.999	711.955	80.006	19.994	103.826	19.911	4.479	0.523
1239.499	712.241	80.005	19.993	103.825	19.911	4.515	0.496
1239.999	712.474	80.009	19.993	103.826	19.911	4.495	0.510
1240.499	712.759	80.006	19.993	103.828	19.909	4.643	0.518
1240.999	713.018	80.007	19.993	103.828	19.911	4.472	0.531
1241.499	713.246	80.006	19.994	103.827	19.912	4.393	0.516
1241.999	713.466	80.006	19.993	103.828	19.911	4.519	0.467
1242.499	713.717	80.006	19.993	103.828	19.911	4.487	0.459
1242.999	713.988	80.005	19.993	103.828	19.910	4.546	0.496
1243.499	714.255	80.007	19.994	103.828	19.913	4.365	0.530
1243.999	714.488	80.007	19.993	103.828	19.910	4.560	0.519
1244.499	714.760	80.005	19.993	103.829	19.911	4.473	0.503
1244.999	715.052	80.007	19.993	103.828	19.911	4.467	0.534
1245.500	715.321	80.000	19.994	103.828	19.911	4.515	0.562
1246.001	715.547	80.006	19.994	103.830	19.912	4.416	0.528
1246.500	715.801	80.009	19.993	103.830	19.910	4.548	0.488
1246.999	716.028	80.002	19.993	103.830	19.914	4.300	0.480
1247.500	716.299	80.001	19.994	103.829	19.912	4.412	0.489
1248.001	716.597	80.003	19.993	103.829	19.912	4.418	0.533
1248.500	716.847	80.008	19.992	103.827	19.914	4.300	0.558
1248.999	717.082	80.007	19.995	103.829	19.910	4.594	0.517
1249.499	717.332	80.005	19.993	103.828	19.909	4.643	0.486
1249.999	717.549	80.002	19.994	103.829	19.910	4.537	0.476
1250.500	717.798	80.006	19.995	103.831	19.909	4.657	0.466
1251.000	718.062	80.004	19.994	103.828	19.909	4.659	0.489
1251.499	718.263	80.011	19.993	103.825	19.908	4.726	0.489
1251.999	718.573	80.018	19.992	103.824	19.910	4.594	0.488
1252.499	718.830	80.017	19.992	103.825	19.910	4.582	0.539
1252.999	719.093	80.007	19.993	103.826	19.912	4.389	0.543
1253.499	719.305	80.004	19.994	103.829	19.910	4.590	0.497
1253.999	719.559	80.005	19.993	103.831	19.911	4.491	0.471
1254.500	719.863	80.008	19.993	103.832	19.911	4.485	0.513
1255.000	720.114	80.007	19.994	103.830	19.910	4.560	0.556
1255.499	720.361	80.006	19.993	103.828	19.908	4.696	0.526
1255.999	720.615	80.007	19.993	103.829	19.905	4.925	0.500
1256.499	720.895	80.002	19.993	103.829	19.909	4.610	0.517
1256.999	721.145	80.006	19.995	103.829	19.912	4.450	0.532
1257.499	721.403	80.008	19.994	103.832	19.909	4.679	0.519
1258.000	721.610	80.007	19.995	103.832	19.911	4.518	0.487
1258.500	721.925	80.008	19.994	103.832	19.912	4.405	0.494
1258.999	722.159	80.007	19.994	103.831	19.910	4.549	0.536
1259.499	722.403	80.008	19.993	103.830	19.911	4.508	0.513
1259.999	722.657	80.008	19.993	103.828	19.909	4.630	0.488
1260.499	722.864	80.007	19.994	103.827	19.910	4.543	0.480
1261.000	723.165	80.008	19.993	103.827	19.911	4.498	0.484
1261.500	723.418	80.004	19.993	103.827	19.909	4.642	0.531
1261.999	723.676	80.009	19.993	103.827	19.909	4.624	0.532
1262.499	723.939	80.008	19.993	103.826	19.909	4.681	0.516
1262.999	724.171	80.008	19.992	103.823	19.910	4.585	0.508
1263.499	724.423	80.006	19.993	103.823	19.909	4.677	0.490
1263.999	724.657	80.007	19.992	103.822	19.908	4.729	0.485
1264.499	724.926	80.009	19.993	103.823	19.909	4.678	0.495
1264.999	725.180	80.008	19.993	103.824	19.910	4.601	0.513
1265.499	725.430	80.008	19.992	103.828	19.908	4.701	0.514
1265.999	725.712	80.007	19.992	103.827	19.908	4.755	0.518
1266.499	725.935	80.007	19.993	103.827	19.912	4.455	0.519
1266.999	726.212	80.007	19.992	103.827	19.910	4.605	0.503
1267.499	726.406	80.005	19.994	103.824	19.908	4.726	0.485
1268.000	726.707	80.003	19.993	103.816	19.910	4.595	0.483
1268.500	726.927	80.006	19.993	103.810	19.912	4.434	0.508
1268.999	727.168	80.004	19.993	103.806	19.910	4.544	0.491
1269.499	727.441	80.006	19.994	103.802	19.909	4.625	0.488
1269.999	727.687	80.005	19.993	103.804	19.911	4.459	0.516
1270.499	727.966	80.006	19.993	103.805	19.912	4.448	0.522
1270.999	728.199	80.005	19.993	103.807	19.911	4.475	0.518
1271.499	728.461	80.004	19.993	103.807	19.914	4.278	0.504
1271.999	728.703	80.004	19.993	103.809	19.913	4.343	0.500
1272.499	728.925	80.011	19.993	103.808	19.910	4.561	0.484
1272.999	729.251	80.008	19.992	103.811	19.911	4.523	0.506
1273.499	729.439	80.001	19.995	103.813	19.912	4.385	0.531
1273.999	729.707	80.004	19.992	103.811	19.912	4.405	0.485
1274.499	729.987	80.005	19.993	103.809	19.915	4.231	0.502
1274.999	730.195	80.003	19.992	103.807	19.912	4.393	0.518
1275.499	730.443	80.003	19.993	103.805	19.915	4.208	0.472
1275.999	730.729	80.006	19.993	103.799	19.917	4.038	0.495
1276.499	730.974	80.004	19.993	103.801	19.915	4.216	0.532
1276.999	731.216	80.006	19.994	103.797	19.915	4.202	0.509
1277.499	731.470	80.005	19.993	103.794	19.914	4.255	0.492
1277.999	731.760	80.005	19.995	103.791	19.918	3.963	0.520
1278.500	731.977	80.005	19.993	103.791	19.917	4.060	0.526
1279.001	732.251	80.006	19.992	103.791	19.918	3.979	0.499
1279.500	732.532	80.005	19.993	103.790	19.918	3.985	0.523
1279.999	732.733	80.000	19.994	103.788	19.915	4.159	0.518
1280.499	733.008	80.001	19.994	103.785	19.917	4.074	0.479
1280.999	733.264	80.002	19.995	103.784	19.916	4.102	0.503
1281.500	733.511	80.000	19.994	103.783	19.916	4.157	0.517
1282.000	733.769	80.004	19.994	103.779	19.918	3.964	0.504
1282.500	734.076	80.008	19.994	103.774	19.916	4.141	0.535
1283.001	734.306	80.005	19.994	103.774	19.918	3.954	0.551
1283.500	734.584	80.006	19.994	103.772	19.920	3.827	0.523
1283.999	734.827	80.001	19.994	103.770	19.919	3.867	0.514
1284.500	735.092	80.008	19.994	103.770	19.919	3.883	0.514
1285.000	735.271	80.002	19.995	103.773	19.919	3.887	0.476
1285.499	735.565	80.005	19.993	103.772	19.920	3.840	0.458
1285.999	735.864	80.004	19.993	103.769	19.920	3.838	0.533
1286.499	736.088	80.004	19.993	103.765	19.922	3.640	0.558
1286.999	736.339	80.004	19.993	103.763	19.922	3.640	0.499
1287.499	736.560	80.010	19.994	103.758	19.920	3.849	0.473
1287.999	736.837	80.003	19.993	103.756	19.918	3.944	0.484
1288.500	737.108	80.008	19.994	103.754	19.921	3.776	0.523
1289.000	737.336	80.004	19.993	103.753	19.920	3.845	0.524
1289.500	737.600	80.006	19.994	103.754	19.918	3.981	0.495
1290.000	737.879	80.003	19.993	103.753	19.923	3.638	0.518
1290.499	738.143	80.000	19.994	103.752	19.922	3.680	0.543
1290.999	738.377	80.005	19.993	103.751	19.921	3.771	0.520
1291.499	738.649	80.010	19.992	103.750	19.922	3.641	0.502
1291.999	738.938	80.005	19.993	103.751	19.921	3.765	0.534
1292.499	739.113	80.004	19.993	103.753	19.920	3.787	0.513
1292.999	739.416	80.004	19.993	103.748	19.920	3.832	0.471
1293.499	739.664	80.007	19.993	103.748	19.920	3.804	0.515
1294.000	739.945	80.002	19.993	103.747	19.918	3.950	0.540
1294.501	740.185	80.006	19.992	103.746	19.918	3.942	0.525
1295.000	740.460	80.006	19.994	103.742	19.920	3.830	0.518
1295.499	740.679	80.003	19.993	103.742	19.923	3.620	0.504
1295.999	740.952	80.006	19.994	103.741	19.924	3.553	0.493
1296.499	741.181	80.005	19.993	103.736	19.920	3.824	0.497
1296.999	741.446	80.005	19.993	103.732	19.923	3.577	0.498
1297.499	741.759	80.006	19.995	103.733	19.922	3.677	0.536
1297.999	741.982	80.008	19.993	103.736	19.920	3.788	0.557
1298.499	742.242	80.005	19.994	103.739	19.921	3.721	0.509
1298.999	742.547	80.005	19.994	103.743	19.920	3.798	0.524
1299.499	742.756	80.002	19.994	103.747	19.921	3.752	0.539
1299.999	743.036	80.004	19.994	103.748	19.922	3.644	0.501
1300.499	743.282	80.005	19.994	103.747	19.921	3.766	0.507
1300.999	743.557	80.006	19.994	103.742	19.925	3.456	0.524
