Sample ID:	C:\MCC\MCC Cal\Test\Polyester_Bed_Skirt_MCC_30K_min_211208_R2.txt
Sample Weight (mg):	4.59
Heating Rate (C/s):	0.5
Combustor Temp (C):	900
N2 Flow Rate (cc/min):	80
O2 Flow Rate (cc/min):	20
Calibration File:	C:\MCC\MCC Cal\Coeff1 JN10440_30_210304.txt.txt
T Correction Coefficients:	0	1.024463	0
Time Shift (s):	14
*
Time (s)	Temperature (C)	N2 flow rate (cc/min)	O2 flow rate (cc/min)	Flow Rate (cc/min)	Oxygen (%)	HRR (W/g)	Heating rate (C/s)
0.000	110.373	80.007	19.994	103.094	20.112	-0.031	-0.025
0.500	110.406	80.008	19.994	103.095	20.108	0.217	0.020
1.000	110.405	80.007	19.994	103.094	20.112	-0.010	0.038
1.500	110.442	80.006	19.993	103.094	20.113	-0.083	0.034
2.000	110.401	80.007	19.993	103.092	20.115	-0.246	0.016
2.500	110.413	80.007	19.993	103.091	20.117	-0.406	-0.016
3.000	110.404	80.007	19.994	103.090	20.115	-0.236	-0.013
3.500	110.433	80.007	19.996	103.091	20.114	-0.193	0.012
4.000	110.412	80.007	19.995	103.092	20.115	-0.236	0.014
4.500	110.375	80.007	19.994	103.095	20.113	-0.102	-0.025
5.000	110.389	80.007	19.994	103.095	20.114	-0.195	-0.040
5.500	110.360	80.006	19.993	103.095	20.118	-0.454	-0.019
6.000	110.359	80.007	19.994	103.095	20.115	-0.249	-0.023
6.500	110.401	80.007	19.994	103.094	20.119	-0.491	0.006
7.000	110.366	80.008	19.993	103.093	20.117	-0.383	0.024
7.500	110.377	80.006	19.993	103.093	20.115	-0.219	-0.009
8.000	110.402	80.006	19.993	103.096	20.116	-0.307	0.006
8.501	110.395	80.007	19.994	103.096	20.118	-0.458	0.027
9.001	110.374	80.008	19.993	103.097	20.117	-0.410	-0.005
9.500	110.407	80.007	19.994	103.097	20.121	-0.629	-0.008
10.001	110.400	80.007	19.992	103.098	20.118	-0.460	0.020
10.501	110.387	80.009	19.993	103.094	20.119	-0.538	0.003
11.000	110.356	80.008	19.993	103.094	20.118	-0.454	-0.033
11.500	110.380	80.008	19.994	103.094	20.118	-0.443	-0.025
12.000	110.349	80.008	19.993	103.094	20.116	-0.321	-0.007
12.500	110.332	80.007	19.993	103.093	20.115	-0.265	-0.028
13.000	110.380	80.008	19.994	103.094	20.116	-0.344	-0.009
13.501	110.320	80.008	19.994	103.094	20.116	-0.329	0.010
14.001	110.342	80.008	19.994	103.093	20.114	-0.153	-0.024
14.501	110.352	80.008	19.994	103.092	20.114	-0.141	-0.003
15.001	110.339	80.007	19.995	103.093	20.116	-0.338	0.015
15.500	110.339	80.010	19.993	103.092	20.117	-0.365	-0.008
16.000	110.389	80.009	19.994	103.091	20.117	-0.410	0.018
16.500	110.352	80.007	19.994	103.091	20.113	-0.126	0.032
17.000	110.371	80.009	19.994	103.091	20.115	-0.246	-0.002
17.500	110.324	80.008	19.994	103.092	20.114	-0.182	-0.023
18.000	110.359	80.008	19.994	103.093	20.116	-0.338	-0.020
18.500	110.363	80.007	19.993	103.093	20.116	-0.296	0.014
19.000	110.358	80.007	19.994	103.093	20.118	-0.422	0.019
19.500	110.376	80.006	19.995	103.091	20.114	-0.195	0.006
20.000	110.387	80.008	19.995	103.091	20.117	-0.367	0.021
20.501	110.422	80.008	19.994	103.089	20.117	-0.387	0.038
21.001	110.386	80.006	19.995	103.089	20.113	-0.114	0.023
21.500	110.392	80.009	19.994	103.090	20.116	-0.292	-0.016
22.000	110.410	80.008	19.994	103.091	20.117	-0.369	-0.003
22.500	110.392	80.008	19.994	103.090	20.116	-0.338	0.012
23.000	110.380	80.007	19.995	103.091	20.117	-0.377	-0.015
23.500	110.422	80.008	19.993	103.091	20.118	-0.441	0.000
24.000	110.383	80.008	19.995	103.090	20.117	-0.412	0.016
24.500	110.384	80.009	19.994	103.089	20.115	-0.267	-0.018
25.000	110.395	80.008	19.995	103.089	20.115	-0.217	-0.013
25.500	110.384	80.007	19.993	103.088	20.117	-0.387	0.006
26.000	110.377	80.007	19.995	103.088	20.116	-0.335	-0.009
26.500	110.352	80.008	19.996	103.088	20.114	-0.207	-0.025
27.000	110.366	80.008	19.994	103.088	20.114	-0.207	-0.021
27.500	110.376	80.008	19.995	103.088	20.114	-0.141	0.006
28.000	110.411	80.007	19.994	103.088	20.115	-0.248	0.034
28.500	110.385	80.007	19.995	103.090	20.116	-0.278	0.027
29.000	110.384	80.008	19.994	103.090	20.115	-0.246	-0.009
29.500	110.396	80.006	19.993	103.092	20.115	-0.269	-0.008
30.000	110.358	80.007	19.994	103.092	20.118	-0.464	-0.008
30.500	110.394	80.007	19.994	103.092	20.115	-0.257	-0.014
31.001	110.394	80.008	19.995	103.091	20.116	-0.315	0.017
31.500	110.354	80.007	19.994	103.090	20.117	-0.352	-0.002
32.000	110.392	80.008	19.994	103.089	20.112	-0.033	-0.021
32.500	110.357	80.008	19.995	103.089	20.111	0.014	0.001
33.000	110.388	80.007	19.994	103.088	20.114	-0.141	-0.000
33.500	110.386	80.007	19.994	103.088	20.116	-0.279	0.012
34.000	110.338	80.008	19.995	103.091	20.117	-0.366	-0.010
34.500	110.378	80.008	19.996	103.091	20.117	-0.354	-0.029
35.000	110.340	80.008	19.994	103.092	20.116	-0.286	-0.003
35.500	110.374	80.008	19.993	103.092	20.117	-0.362	-0.001
36.001	110.372	80.009	19.995	103.091	20.116	-0.339	0.014
36.501	110.363	80.007	19.994	103.090	20.114	-0.194	0.011
37.000	110.374	80.008	19.995	103.094	20.116	-0.331	-0.004
37.500	110.396	80.008	19.995	103.095	20.118	-0.443	0.017
38.000	110.368	80.009	19.994	103.095	20.116	-0.335	0.014
38.501	110.315	80.008	19.995	103.098	20.117	-0.370	-0.043
39.001	110.374	80.009	19.993	103.098	20.114	-0.172	-0.038
39.500	110.377	80.009	19.994	103.095	20.115	-0.265	0.034
40.000	110.345	80.009	19.994	103.096	20.114	-0.147	0.017
40.500	110.390	80.010	19.994	103.101	20.112	-0.035	-0.008
41.001	110.339	80.009	19.994	103.102	20.112	-0.012	0.004
41.501	110.344	80.008	19.994	103.105	20.110	0.101	-0.025
42.000	110.299	80.009	19.994	103.109	20.112	-0.017	-0.043
42.500	110.290	80.008	19.994	103.113	20.110	0.089	-0.047
43.000	110.337	80.011	19.995	103.116	20.110	0.116	-0.008
43.501	110.312	80.010	19.995	103.122	20.109	0.159	0.030
44.001	110.355	80.010	19.996	103.131	20.109	0.145	0.020
44.500	110.339	80.010	19.995	103.142	20.110	0.091	0.023
45.000	110.362	80.009	19.995	103.153	20.108	0.225	0.017
45.501	110.334	80.010	19.995	103.161	20.107	0.298	0.001
46.001	110.368	80.010	19.995	103.168	20.100	0.789	0.000
46.500	110.388	80.010	19.994	103.174	20.100	0.789	0.030
47.000	110.440	80.009	19.994	103.181	20.102	0.659	0.063
47.500	110.438	80.009	19.996	103.188	20.101	0.717	0.061
48.000	110.474	80.008	19.994	103.202	20.096	1.124	0.042
48.500	110.459	80.009	19.994	103.216	20.093	1.271	0.028
49.000	110.504	80.009	19.995	103.227	20.092	1.362	0.025
49.501	110.526	80.010	19.994	103.237	20.095	1.172	0.048
50.001	110.535	80.008	19.995	103.250	20.094	1.219	0.049
50.501	110.563	80.008	19.995	103.257	20.090	1.509	0.034
51.000	110.596	80.008	19.996	103.267	20.091	1.463	0.049
51.500	110.658	80.008	19.994	103.276	20.092	1.374	0.078
52.001	110.677	80.008	19.996	103.282	20.089	1.593	0.088
52.501	110.670	80.008	19.995	103.284	20.089	1.595	0.047
53.000	110.715	80.008	19.996	103.285	20.090	1.523	0.025
53.500	110.758	80.008	19.997	103.284	20.087	1.732	0.063
54.000	110.795	80.006	19.996	103.284	20.086	1.827	0.084
54.500	110.859	80.007	19.996	103.284	20.085	1.875	0.091
55.000	110.914	80.007	19.995	103.287	20.083	2.013	0.110
55.501	110.919	80.007	19.996	103.287	20.083	2.036	0.089
56.001	111.007	80.007	19.995	103.288	20.081	2.146	0.076
56.500	111.042	80.008	19.995	103.287	20.081	2.135	0.108
57.000	111.108	80.007	19.995	103.284	20.081	2.150	0.112
57.500	111.198	80.007	19.995	103.281	20.080	2.220	0.129
58.000	111.247	80.007	19.995	103.281	20.083	1.974	0.147
58.500	111.297	80.007	19.995	103.280	20.083	2.022	0.119
59.000	111.384	80.008	19.995	103.281	20.084	1.916	0.118
59.501	111.423	80.006	19.994	103.281	20.080	2.206	0.131
60.001	111.484	80.007	19.995	103.276	20.081	2.138	0.114
60.500	111.540	80.007	19.995	103.271	20.085	1.838	0.109
61.000	111.613	80.007	19.994	103.269	20.082	2.094	0.123
61.500	111.717	80.007	19.994	103.270	20.080	2.226	0.153
62.000	111.789	80.008	19.994	103.272	20.079	2.268	0.176
62.500	111.816	80.008	19.995	103.278	20.080	2.183	0.137
63.000	111.885	80.008	19.994	103.283	20.082	2.049	0.097
63.500	111.980	80.008	19.994	103.279	20.078	2.328	0.130
64.000	112.070	80.009	19.994	103.275	20.081	2.152	0.174
64.500	112.182	80.009	19.994	103.272	20.081	2.111	0.193
65.000	112.199	80.008	19.994	103.267	20.080	2.212	0.165
65.500	112.308	80.010	19.994	103.260	20.080	2.197	0.127
66.001	112.411	80.009	19.993	103.261	20.081	2.150	0.169
66.501	112.465	80.010	19.993	103.260	20.080	2.181	0.185
67.000	112.550	80.010	19.993	103.259	20.081	2.150	0.148
67.500	112.638	80.009	19.993	103.262	20.083	2.032	0.156
68.000	112.730	80.010	19.994	103.262	20.081	2.160	0.177
68.500	112.790	80.009	19.993	103.262	20.080	2.191	0.166
69.000	112.855	80.010	19.992	103.260	20.081	2.127	0.139
69.500	112.947	80.010	19.993	103.256	20.083	2.001	0.141
70.000	113.015	80.009	19.994	103.254	20.081	2.121	0.158
70.500	113.159	80.009	19.993	103.255	20.082	2.077	0.186
71.000	113.218	80.009	19.992	103.257	20.083	2.021	0.208
71.500	113.321	80.010	19.993	103.258	20.082	2.098	0.183
72.000	113.408	80.009	19.994	103.259	20.084	1.945	0.177
72.500	113.481	80.008	19.993	103.254	20.087	1.722	0.176
73.000	113.621	80.009	19.992	103.252	20.085	1.850	0.187
73.500	113.715	80.009	19.993	103.249	20.087	1.753	0.223
74.000	113.835	80.011	19.993	103.247	20.081	2.139	0.224
74.500	113.897	80.010	19.993	103.246	20.083	2.030	0.198
75.000	113.998	80.009	19.994	103.249	20.082	2.058	0.173
75.500	114.088	80.008	19.992	103.252	20.082	2.054	0.177
76.000	114.187	80.008	19.993	103.252	20.080	2.180	0.190
76.500	114.309	80.008	19.994	103.255	20.081	2.149	0.205
77.000	114.395	80.008	19.994	103.262	20.081	2.124	0.214
77.500	114.443	80.007	19.993	103.265	20.083	2.011	0.171
78.000	114.575	80.008	19.992	103.270	20.082	2.042	0.157
78.500	114.664	80.007	19.991	103.270	20.085	1.895	0.201
79.001	114.784	80.008	19.994	103.269	20.085	1.874	0.215
79.501	114.878	80.007	19.995	103.261	20.084	1.963	0.211
80.001	115.009	80.006	19.994	103.257	20.084	1.934	0.219
80.501	115.135	80.007	19.994	103.255	20.087	1.717	0.241
81.000	115.250	80.007	19.995	103.260	20.078	2.352	0.249
81.500	115.358	80.007	19.994	103.266	20.086	1.827	0.232
82.001	115.430	80.007	19.995	103.273	20.082	2.079	0.202
82.501	115.554	80.007	19.994	103.275	20.081	2.124	0.188
83.000	115.678	80.008	19.993	103.274	20.080	2.217	0.222
83.501	115.747	80.007	19.995	103.274	20.084	1.909	0.220
84.001	115.902	80.009	19.994	103.274	20.079	2.297	0.208
84.501	115.998	80.006	19.993	103.274	20.079	2.252	0.237
85.001	116.119	80.009	19.993	103.277	20.078	2.345	0.234
85.500	116.225	80.008	19.994	103.282	20.078	2.345	0.222
86.000	116.382	80.008	19.993	103.286	20.081	2.153	0.245
86.500	116.463	80.007	19.995	103.287	20.082	2.054	0.251
87.000	116.613	80.007	19.995	103.287	20.082	2.076	0.234
87.501	116.718	80.007	19.994	103.289	20.080	2.213	0.243
88.001	116.869	80.008	19.994	103.291	20.078	2.345	0.256
88.500	116.970	80.007	19.995	103.295	20.086	1.797	0.254
89.000	117.101	80.007	19.994	103.294	20.089	1.595	0.242
89.500	117.186	80.008	19.994	103.296	20.080	2.198	0.224
90.000	117.298	80.007	19.994	103.295	20.076	2.487	0.206
90.500	117.426	80.007	19.994	103.291	20.077	2.427	0.218
91.000	117.632	80.007	19.994	103.288	20.084	1.913	0.287
91.500	117.777	80.007	19.994	103.289	20.087	1.737	0.342
92.000	117.904	80.007	19.994	103.292	20.080	2.246	0.311
92.500	118.024	80.008	19.994	103.299	20.080	2.188	0.260
93.000	118.157	80.009	19.994	103.307	20.079	2.287	0.250
93.500	118.316	80.008	19.993	103.311	20.082	2.103	0.272
94.001	118.424	80.008	19.994	103.316	20.079	2.314	0.280
94.501	118.620	80.008	19.993	103.318	20.079	2.289	0.286
95.000	118.720	80.008	19.994	103.319	20.080	2.212	0.300
95.500	118.747	80.009	19.993	103.314	20.076	2.469	0.212
96.001	119.006	80.009	19.994	103.312	20.075	2.557	0.207
96.501	119.092	80.010	19.994	103.314	20.078	2.341	0.315
97.000	119.293	80.009	19.994	103.314	20.072	2.754	0.316
97.501	119.323	80.008	19.994	103.313	20.080	2.206	0.259
98.001	119.484	80.009	19.993	103.319	20.079	2.309	0.211
98.500	119.644	80.009	19.992	103.321	20.073	2.716	0.256
99.000	119.795	80.007	19.994	103.321	20.075	2.563	0.316
99.500	119.935	80.007	19.993	103.318	20.075	2.590	0.301
100.000	120.087	80.008	19.993	103.318	20.075	2.560	0.291
100.500	120.233	80.008	19.994	103.318	20.078	2.370	0.295
101.001	120.402	80.009	19.993	103.318	20.074	2.603	0.307
101.501	120.539	80.009	19.994	103.318	20.073	2.731	0.310
102.000	120.681	80.009	19.992	103.322	20.075	2.547	0.292
102.500	120.788	80.008	19.994	103.323	20.076	2.528	0.264
103.001	120.989	80.008	19.994	103.323	20.074	2.621	0.279
103.501	121.142	80.009	19.994	103.324	20.071	2.818	0.331
104.000	121.304	80.009	19.993	103.325	20.075	2.588	0.334
104.500	121.515	80.009	19.994	103.327	20.074	2.667	0.344
105.000	121.665	80.008	19.994	103.328	20.071	2.847	0.367
105.500	121.821	80.009	19.994	103.328	20.075	2.590	0.334
106.000	122.002	80.009	19.994	103.328	20.073	2.704	0.321
106.500	122.192	80.008	19.994	103.323	20.073	2.685	0.354
107.000	122.301	80.008	19.994	103.321	20.074	2.659	0.335
107.501	122.483	80.008	19.994	103.320	20.073	2.688	0.295
108.001	122.642	80.008	19.996	103.320	20.075	2.590	0.316
108.500	122.864	80.009	19.994	103.320	20.071	2.869	0.361
109.000	123.034	80.009	19.994	103.325	20.072	2.747	0.387
109.500	123.195	80.008	19.994	103.327	20.071	2.844	0.362
110.000	123.373	80.007	19.995	103.328	20.070	2.913	0.335
110.500	123.538	80.007	19.995	103.326	20.073	2.706	0.341
111.000	123.713	80.008	19.994	103.321	20.075	2.537	0.341
111.500	123.865	80.007	19.994	103.319	20.073	2.685	0.333
112.000	124.056	80.007	19.993	103.317	20.075	2.533	0.335
112.500	124.169	80.007	19.995	103.316	20.075	2.580	0.323
113.000	124.399	80.008	19.993	103.319	20.074	2.658	0.324
113.501	124.590	80.006	19.994	103.324	20.075	2.601	0.382
114.001	124.791	80.007	19.994	103.324	20.073	2.692	0.406
114.500	124.959	80.007	19.995	103.325	20.071	2.859	0.380
115.000	125.155	80.007	19.994	103.325	20.073	2.725	0.367
115.500	125.295	80.006	19.994	103.326	20.074	2.656	0.350
116.001	125.505	80.006	19.994	103.325	20.072	2.803	0.344
116.501	125.669	80.006	19.994	103.324	20.073	2.685	0.362
117.000	125.867	80.005	19.995	103.324	20.068	3.024	0.368
117.500	126.045	80.007	19.995	103.324	20.071	2.822	0.369
118.000	126.252	80.005	19.994	103.325	20.072	2.743	0.380
118.500	126.437	80.007	19.995	103.327	20.072	2.759	0.388
119.000	126.628	80.007	19.995	103.330	20.074	2.671	0.384
119.500	126.784	80.007	19.994	103.331	20.072	2.764	0.362
120.000	126.996	80.007	19.994	103.331	20.073	2.739	0.358
120.500	127.188	80.006	19.995	103.330	20.075	2.584	0.386
121.000	127.382	80.007	19.995	103.330	20.071	2.873	0.394
121.501	127.530	80.007	19.994	103.329	20.070	2.910	0.364
122.001	127.730	80.008	19.995	103.329	20.071	2.881	0.346
122.501	127.929	80.007	19.995	103.330	20.073	2.714	0.374
123.001	128.118	80.008	19.995	103.330	20.071	2.883	0.394
123.500	128.286	80.008	19.994	103.328	20.068	3.051	0.372
124.000	128.535	80.008	19.994	103.330	20.072	2.751	0.387
124.500	128.734	80.008	19.994	103.331	20.071	2.865	0.433
125.000	128.902	80.007	19.994	103.330	20.069	2.987	0.408
125.500	129.144	80.009	19.995	103.330	20.071	2.840	0.388
126.000	129.327	80.009	19.995	103.330	20.071	2.840	0.417
126.500	129.516	80.008	19.995	103.328	20.066	3.208	0.399
127.000	129.712	80.009	19.995	103.326	20.066	3.204	0.379
127.500	129.891	80.008	19.994	103.327	20.072	2.747	0.380
128.000	130.070	80.008	19.994	103.328	20.068	3.036	0.366
128.500	130.306	80.008	19.994	103.331	20.067	3.162	0.386
129.001	130.493	80.009	19.994	103.334	20.068	3.065	0.419
129.501	130.695	80.009	19.993	103.338	20.071	2.873	0.406
130.000	130.901	80.008	19.993	103.340	20.067	3.125	0.398
130.500	131.103	80.010	19.993	103.339	20.068	3.076	0.408
131.000	131.333	80.008	19.993	103.337	20.068	3.026	0.420
131.500	131.531	80.008	19.995	103.338	20.065	3.266	0.430
132.000	131.780	80.008	19.993	103.338	20.066	3.216	0.438
132.500	131.955	80.009	19.993	103.337	20.069	2.993	0.435
133.000	132.161	80.007	19.994	103.340	20.071	2.826	0.402
133.500	132.373	80.009	19.993	103.340	20.068	3.078	0.399
134.000	132.553	80.008	19.995	103.336	20.067	3.148	0.406
134.500	132.774	80.007	19.994	103.333	20.068	3.057	0.397
135.000	133.004	80.007	19.995	103.333	20.068	3.086	0.426
135.500	133.209	80.008	19.994	103.334	20.069	2.975	0.443
136.000	133.427	80.008	19.994	103.337	20.066	3.216	0.429
136.500	133.651	80.007	19.994	103.339	20.065	3.251	0.432
137.000	133.857	80.008	19.994	103.337	20.066	3.223	0.436
137.500	134.080	80.007	19.993	103.335	20.068	3.086	0.429
138.000	134.298	80.008	19.993	103.334	20.066	3.220	0.435
138.500	134.489	80.006	19.993	103.329	20.067	3.119	0.425
139.000	134.703	80.009	19.995	103.331	20.071	2.828	0.407
139.500	134.945	80.007	19.995	103.335	20.068	3.063	0.431
140.000	135.133	80.008	19.995	103.335	20.071	2.836	0.444
140.500	135.352	80.005	19.996	103.335	20.069	3.010	0.419
141.000	135.565	80.006	19.995	103.337	20.070	2.914	0.419
141.500	135.803	80.006	19.994	103.334	20.068	3.047	0.442
142.000	136.039	80.008	19.995	103.334	20.072	2.766	0.463
142.500	136.222	80.007	19.995	103.334	20.068	3.028	0.447
143.000	136.460	80.008	19.995	103.338	20.071	2.822	0.420
143.500	136.679	80.007	19.995	103.338	20.072	2.785	0.439
144.000	136.898	80.008	19.995	103.338	20.070	2.925	0.447
144.500	137.134	80.008	19.994	103.339	20.069	3.022	0.447
145.000	137.380	80.008	19.995	103.338	20.069	3.008	0.469
145.500	137.616	80.006	19.997	103.334	20.074	2.665	0.482
146.000	137.782	80.008	19.995	103.332	20.073	2.686	0.442
146.500	138.050	80.008	19.995	103.331	20.071	2.830	0.419
147.000	138.277	80.008	19.995	103.329	20.073	2.735	0.465
147.500	138.470	80.008	19.996	103.327	20.071	2.843	0.457
148.000	138.751	80.007	19.995	103.326	20.071	2.822	0.447
148.500	138.954	80.008	19.996	103.325	20.068	3.026	0.479
149.000	139.187	80.007	19.996	103.324	20.069	2.975	0.460
149.500	139.414	80.007	19.995	103.323	20.072	2.783	0.448
150.000	139.664	80.008	19.996	103.323	20.073	2.714	0.468
150.500	139.908	80.009	19.994	103.325	20.072	2.791	0.485
151.000	140.082	80.009	19.996	103.328	20.072	2.751	0.456
151.500	140.314	80.008	19.994	103.335	20.074	2.646	0.413
152.000	140.583	80.009	19.995	103.339	20.070	2.902	0.453
152.500	140.796	80.008	19.995	103.339	20.071	2.863	0.491
153.000	141.049	80.010	19.995	103.337	20.068	3.082	0.474
153.500	141.269	80.010	19.995	103.334	20.068	3.033	0.470
154.000	141.519	80.009	19.995	103.328	20.065	3.250	0.471
154.500	141.737	80.010	19.995	103.322	20.069	2.977	0.469
155.000	141.973	80.008	19.994	103.323	20.070	2.909	0.461
155.500	142.228	80.009	19.995	103.323	20.069	2.995	0.472
156.000	142.456	80.009	19.995	103.323	20.069	2.993	0.487
156.500	142.678	80.009	19.995	103.321	20.067	3.121	0.467
157.000	142.937	80.009	19.996	103.322	20.066	3.212	0.465
157.500	143.192	80.010	19.995	103.321	20.066	3.202	0.497
158.000	143.417	80.008	19.996	103.323	20.065	3.235	0.498
158.500	143.652	80.009	19.995	103.322	20.062	3.448	0.470
159.000	143.934	80.008	19.995	103.323	20.065	3.301	0.488
159.500	144.171	80.009	19.995	103.323	20.061	3.520	0.518
160.000	144.392	80.008	19.994	103.324	20.064	3.371	0.488
160.500	144.633	80.007	19.994	103.323	20.065	3.237	0.460
161.000	144.902	80.008	19.994	103.326	20.065	3.241	0.486
161.500	145.093	80.007	19.993	103.327	20.065	3.252	0.485
162.000	145.349	80.008	19.994	103.327	20.063	3.380	0.453
162.500	145.598	80.007	19.993	103.327	20.069	3.002	0.476
163.000	145.829	80.007	19.994	103.326	20.063	3.404	0.492
163.500	146.064	80.006	19.994	103.323	20.066	3.169	0.473
164.000	146.309	80.006	19.994	103.322	20.065	3.241	0.473
164.500	146.558	80.006	19.994	103.322	20.065	3.297	0.487
165.000	146.778	80.006	19.994	103.323	20.063	3.380	0.482
165.500	147.072	80.007	19.994	103.323	20.064	3.312	0.492
166.000	147.275	80.006	19.994	103.323	20.062	3.491	0.505
166.500	147.534	80.008	19.993	103.324	20.065	3.281	0.479
167.000	147.714	80.007	19.994	103.325	20.062	3.510	0.450
167.500	147.976	80.008	19.994	103.326	20.062	3.477	0.441
168.000	148.206	80.008	19.994	103.325	20.060	3.588	0.467
168.500	148.437	80.007	19.994	103.326	20.063	3.394	0.476
169.000	148.736	80.006	19.994	103.328	20.062	3.491	0.495
169.500	148.935	80.007	19.994	103.330	20.061	3.524	0.514
170.000	149.217	80.006	19.994	103.330	20.067	3.094	0.490
170.500	149.391	80.008	19.995	103.330	20.067	3.148	0.468
171.000	149.671	80.007	19.995	103.330	20.066	3.185	0.455
171.500	149.933	80.006	19.993	103.328	20.066	3.204	0.498
172.000	150.167	80.007	19.995	103.325	20.065	3.245	0.519
172.500	150.395	80.007	19.994	103.324	20.066	3.208	0.479
173.000	150.656	80.006	19.994	103.324	20.066	3.200	0.475
173.500	150.908	80.007	19.994	103.323	20.067	3.144	0.501
174.000	151.099	80.006	19.994	103.323	20.066	3.206	0.479
174.500	151.365	80.006	19.995	103.322	20.069	3.002	0.450
175.000	151.636	80.007	19.995	103.322	20.065	3.303	0.497
175.500	151.862	80.007	19.993	103.323	20.067	3.109	0.517
176.000	152.150	80.009	19.994	103.323	20.070	2.917	0.506
176.500	152.373	80.007	19.994	103.323	20.070	2.942	0.512
177.000	152.613	80.008	19.994	103.323	20.070	2.906	0.487
177.500	152.864	80.006	19.995	103.323	20.069	3.000	0.478
178.000	153.134	80.006	19.994	103.323	20.072	2.811	0.506
178.500	153.355	80.007	19.995	103.324	20.070	2.896	0.506
179.000	153.601	80.007	19.995	103.325	20.070	2.923	0.479
179.500	153.811	80.007	19.995	103.325	20.069	3.004	0.461
180.000	154.082	80.007	19.994	103.325	20.071	2.863	0.468
180.500	154.294	80.006	19.995	103.325	20.071	2.874	0.482
181.000	154.544	80.008	19.994	103.324	20.069	2.983	0.473
181.500	154.843	80.007	19.995	103.324	20.072	2.762	0.506
182.000	155.079	80.006	19.995	103.324	20.074	2.607	0.542
182.500	155.284	80.008	19.994	103.325	20.073	2.704	0.488
183.000	155.547	80.006	19.995	103.325	20.070	2.935	0.454
183.500	155.789	80.006	19.994	103.325	20.071	2.828	0.487
184.000	156.079	80.006	19.995	103.325	20.071	2.869	0.519
184.500	156.298	80.008	19.995	103.325	20.073	2.696	0.521
185.000	156.561	80.007	19.994	103.324	20.072	2.754	0.496
185.500	156.845	80.007	19.995	103.325	20.071	2.869	0.514
186.000	157.054	80.008	19.995	103.325	20.070	2.884	0.520
186.501	157.311	80.006	19.993	103.325	20.071	2.845	0.479
187.000	157.602	80.006	19.993	103.325	20.069	3.000	0.507
187.500	157.800	80.007	19.994	103.326	20.068	3.076	0.518
188.000	158.085	80.007	19.992	103.326	20.071	2.841	0.486
188.501	158.325	80.005	19.995	103.325	20.070	2.896	0.504
189.001	158.596	80.007	19.994	103.325	20.071	2.845	0.518
189.500	158.831	80.007	19.993	103.325	20.069	2.975	0.509
190.000	159.069	80.007	19.995	103.325	20.073	2.739	0.490
190.500	159.353	80.006	19.995	103.324	20.074	2.640	0.497
191.000	159.623	80.006	19.993	103.325	20.073	2.702	0.538
191.500	159.869	80.007	19.994	103.324	20.072	2.805	0.535
192.000	160.118	80.006	19.995	103.324	20.072	2.799	0.506
192.500	160.342	80.007	19.995	103.324	20.071	2.826	0.484
193.000	160.643	80.006	19.994	103.324	20.071	2.874	0.499
193.500	160.889	80.007	19.993	103.324	20.069	3.012	0.536
194.000	161.147	80.006	19.994	103.324	20.070	2.931	0.526
194.500	161.390	80.006	19.993	103.324	20.073	2.712	0.503
195.000	161.627	80.007	19.995	103.323	20.071	2.840	0.491
195.500	161.913	80.007	19.995	103.323	20.072	2.762	0.501
196.000	162.146	80.007	19.994	103.323	20.071	2.814	0.521
196.500	162.402	80.007	19.993	103.323	20.071	2.841	0.504
197.000	162.676	80.005	19.994	103.324	20.068	3.031	0.509
197.500	162.934	80.005	19.994	103.324	20.071	2.832	0.531
198.000	163.166	80.006	19.993	103.322	20.073	2.696	0.511
198.500	163.430	80.005	19.994	103.322	20.075	2.535	0.493
199.000	163.648	80.006	19.995	103.323	20.073	2.740	0.490
199.500	163.923	80.006	19.995	103.324	20.074	2.607	0.488
200.000	164.191	80.006	19.995	103.323	20.071	2.826	0.518
200.500	164.434	80.005	19.996	103.323	20.073	2.721	0.527
201.000	164.715	80.007	19.994	103.322	20.071	2.830	0.518
201.500	165.003	80.005	19.995	103.322	20.071	2.859	0.546
202.000	165.181	80.006	19.993	103.316	20.074	2.663	0.517
202.500	165.472	80.006	19.995	103.317	20.073	2.740	0.468
203.000	165.714	80.006	19.994	103.318	20.075	2.558	0.501
203.500	165.967	80.006	19.994	103.320	20.073	2.705	0.513
204.000	166.253	80.007	19.994	103.319	20.075	2.554	0.517
204.500	166.510	80.007	19.994	103.324	20.074	2.615	0.541
205.000	166.758	80.006	19.994	103.325	20.076	2.463	0.524
205.500	166.985	80.007	19.995	103.326	20.071	2.812	0.490
206.000	167.280	80.007	19.993	103.324	20.071	2.827	0.499
206.500	167.498	80.008	19.994	103.322	20.072	2.783	0.518
207.000	167.742	80.008	19.994	103.323	20.075	2.585	0.487
207.500	167.958	80.007	19.995	103.321	20.070	2.891	0.461
208.000	168.227	80.007	19.995	103.317	20.074	2.655	0.472
208.500	168.456	80.007	19.994	103.313	20.075	2.558	0.491
209.000	168.726	80.007	19.993	103.312	20.075	2.562	0.498
209.501	168.987	80.008	19.996	103.310	20.075	2.544	0.515
210.001	169.239	80.007	19.993	103.312	20.074	2.604	0.522
210.501	169.557	80.007	19.993	103.312	20.076	2.492	0.542
211.001	169.770	80.008	19.995	103.316	20.077	2.407	0.551
211.500	170.001	80.009	19.995	103.317	20.073	2.701	0.488
212.000	170.290	80.007	19.995	103.315	20.072	2.763	0.482
212.500	170.591	80.007	19.995	103.308	20.076	2.498	0.555
213.000	170.778	80.009	19.994	103.304	20.074	2.618	0.539
213.500	171.046	80.008	19.996	103.302	20.078	2.350	0.472
214.000	171.291	80.009	19.996	103.304	20.079	2.275	0.484
214.500	171.542	80.010	19.995	103.306	20.078	2.364	0.505
215.000	171.764	80.009	19.996	103.312	20.077	2.409	0.485
215.500	171.980	80.009	19.996	103.318	20.074	2.639	0.455
216.000	172.291	80.007	19.996	103.315	20.077	2.405	0.482
216.500	172.540	80.006	19.996	103.309	20.079	2.255	0.544
217.000	172.821	80.009	19.994	103.302	20.079	2.281	0.545
217.500	173.063	80.008	19.995	103.295	20.078	2.366	0.527
218.000	173.311	80.008	19.995	103.288	20.080	2.203	0.506
218.500	173.590	80.008	19.994	103.288	20.083	2.009	0.508
219.000	173.804	80.009	19.995	103.290	20.078	2.370	0.510
219.500	174.065	80.007	19.995	103.291	20.080	2.248	0.484
220.000	174.326	80.007	19.995	103.294	20.078	2.362	0.499
220.500	174.529	80.008	19.996	103.294	20.078	2.335	0.493
221.000	174.798	80.008	19.995	103.292	20.076	2.463	0.468
221.500	175.058	80.008	19.995	103.290	20.078	2.360	0.500
222.000	175.295	80.007	19.994	103.289	20.082	2.069	0.513
222.500	175.601	80.007	19.995	103.287	20.080	2.201	0.520
223.000	175.818	80.006	19.996	103.287	20.082	2.075	0.533
223.500	176.087	80.008	19.994	103.287	20.080	2.244	0.504
224.000	176.338	80.008	19.994	103.288	20.080	2.224	0.503
224.500	176.578	80.008	19.995	103.290	20.079	2.265	0.506
225.000	176.868	80.008	19.993	103.293	20.080	2.238	0.511
225.500	177.116	80.007	19.995	103.294	20.081	2.116	0.534
226.000	177.351	80.008	19.995	103.294	20.082	2.100	0.510
226.500	177.601	80.008	19.995	103.292	20.079	2.296	0.484
227.001	177.830	80.008	19.995	103.290	20.081	2.164	0.482
227.501	178.107	80.008	19.994	103.286	20.083	1.998	0.493
228.000	178.363	80.007	19.996	103.285	20.078	2.341	0.520
228.500	178.603	80.008	19.994	103.284	20.080	2.186	0.514
229.000	178.841	80.008	19.994	103.284	20.081	2.153	0.487
229.500	179.105	80.008	19.994	103.285	20.079	2.284	0.490
230.000	179.357	80.008	19.994	103.284	20.082	2.044	0.509
230.500	179.638	80.009	19.995	103.285	20.079	2.319	0.524
231.000	179.844	80.009	19.994	103.285	20.080	2.234	0.510
231.500	180.126	80.010	19.993	103.287	20.078	2.377	0.488
232.001	180.354	80.009	19.993	103.287	20.076	2.523	0.499
232.501	180.628	80.009	19.995	103.287	20.078	2.381	0.506
233.001	180.861	80.010	19.996	103.287	20.078	2.360	0.504
233.500	181.136	80.009	19.994	103.286	20.080	2.201	0.507
234.000	181.386	80.009	19.994	103.285	20.079	2.292	0.517
234.500	181.642	80.010	19.994	103.286	20.081	2.143	0.515
235.000	181.894	80.009	19.995	103.289	20.079	2.253	0.507
235.500	182.149	80.009	19.996	103.290	20.081	2.116	0.508
236.000	182.376	80.009	19.994	103.290	20.081	2.133	0.494
236.500	182.647	80.011	19.994	103.290	20.081	2.124	0.490
237.000	182.921	80.010	19.994	103.288	20.081	2.141	0.522
237.500	183.126	80.009	19.995	103.285	20.083	1.998	0.512
238.000	183.375	80.008	19.995	103.283	20.081	2.114	0.466
238.500	183.649	80.009	19.993	103.284	20.082	2.050	0.488
239.000	183.879	80.008	19.994	103.283	20.078	2.354	0.513
239.501	184.131	80.010	19.995	103.282	20.079	2.255	0.493
240.001	184.369	80.007	19.994	103.282	20.079	2.251	0.486
240.500	184.634	80.008	19.994	103.282	20.080	2.199	0.496
241.001	184.860	80.008	19.995	103.281	20.081	2.151	0.497
241.501	185.136	80.008	19.996	103.282	20.082	2.067	0.497
242.000	185.373	80.009	19.994	103.281	20.080	2.244	0.508
242.500	185.621	80.009	19.994	103.281	20.081	2.131	0.499
243.000	185.875	80.007	19.995	103.281	20.079	2.269	0.493
243.500	186.150	80.008	19.996	103.281	20.083	2.034	0.516
244.000	186.424	80.007	19.997	103.280	20.083	2.003	0.540
244.500	186.629	80.008	19.996	103.280	20.082	2.073	0.514
245.000	186.888	80.006	19.995	103.281	20.081	2.155	0.471
245.500	187.136	80.007	19.995	103.281	20.082	2.100	0.485
246.000	187.351	80.005	19.996	103.281	20.082	2.046	0.485
246.500	187.562	80.006	19.996	103.282	20.081	2.151	0.445
247.001	187.857	80.006	19.995	103.283	20.078	2.325	0.466
247.501	188.131	80.006	19.996	103.284	20.080	2.199	0.538
248.000	188.358	80.007	19.995	103.284	20.083	1.994	0.535
248.500	188.619	80.007	19.995	103.284	20.080	2.207	0.494
249.000	188.852	80.005	19.996	103.283	20.081	2.166	0.491
249.500	189.106	80.006	19.996	103.283	20.081	2.137	0.491
250.000	189.309	80.006	19.995	103.283	20.079	2.275	0.472
250.500	189.577	80.005	19.996	103.283	20.082	2.052	0.464
251.000	189.866	80.005	19.995	103.283	20.084	1.916	0.514
251.501	190.139	80.005	19.995	103.285	20.082	2.064	0.559
252.002	190.373	80.005	19.996	103.285	20.083	1.988	0.534
252.501	190.612	80.005	19.996	103.285	20.083	2.029	0.491
253.000	190.862	80.008	19.995	103.285	20.085	1.879	0.481
253.501	191.125	80.005	19.994	103.285	20.084	1.936	0.501
254.001	191.339	80.007	19.995	103.285	20.083	1.980	0.495
254.501	191.626	80.005	19.996	103.285	20.086	1.802	0.489
255.000	191.858	80.007	19.994	103.285	20.086	1.810	0.510
255.500	192.111	80.007	19.995	103.283	20.085	1.889	0.502
256.000	192.342	80.008	19.995	103.283	20.084	1.899	0.484
256.500	192.598	80.006	19.994	103.284	20.081	2.125	0.485
257.000	192.836	80.007	19.995	103.284	20.086	1.792	0.490
257.500	193.115	80.007	19.995	103.284	20.084	1.918	0.506
258.000	193.348	80.006	19.994	103.286	20.084	1.918	0.515
258.500	193.596	80.006	19.993	103.287	20.084	1.901	0.497
259.000	193.840	80.006	19.995	103.287	20.084	1.932	0.486
259.500	194.098	80.006	19.995	103.287	20.084	1.930	0.497
260.000	194.362	80.008	19.995	103.288	20.086	1.788	0.512
260.500	194.585	80.008	19.995	103.287	20.080	2.215	0.504
261.000	194.836	80.006	19.994	103.287	20.084	1.963	0.480
261.500	195.104	80.006	19.995	103.287	20.082	2.052	0.497
262.000	195.325	80.006	19.994	103.286	20.084	1.947	0.505
262.500	195.524	80.006	19.994	103.286	20.085	1.872	0.454
263.000	195.802	80.006	19.994	103.286	20.084	1.901	0.448
263.500	196.024	80.006	19.994	103.286	20.086	1.769	0.489
264.000	196.299	80.006	19.994	103.286	20.087	1.726	0.499
264.500	196.575	80.007	19.994	103.286	20.083	1.990	0.524
265.000	196.777	80.006	19.995	103.286	20.086	1.812	0.514
265.500	197.071	80.007	19.994	103.286	20.082	2.056	0.487
266.000	197.293	80.007	19.995	103.286	20.083	1.972	0.506
266.500	197.540	80.007	19.995	103.286	20.085	1.891	0.492
267.000	197.791	80.008	19.995	103.283	20.085	1.872	0.484
267.500	198.030	80.006	19.993	103.282	20.084	1.959	0.494
268.000	198.287	80.006	19.994	103.282	20.085	1.841	0.493
268.500	198.541	80.006	19.994	103.282	20.081	2.110	0.503
269.001	198.772	80.006	19.993	103.283	20.082	2.077	0.498
269.501	199.022	80.006	19.994	103.286	20.083	2.011	0.483
270.000	199.290	80.007	19.994	103.286	20.082	2.108	0.499
270.500	199.508	80.007	19.994	103.286	20.081	2.145	0.502
271.000	199.801	80.006	19.995	103.286	20.085	1.870	0.499
271.500	199.985	80.007	19.995	103.284	20.085	1.841	0.494
272.000	200.231	80.006	19.994	103.285	20.084	1.910	0.453
272.500	200.460	80.008	19.995	103.285	20.084	1.965	0.452
273.000	200.729	80.006	19.994	103.285	20.085	1.829	0.486
273.500	200.971	80.007	19.994	103.285	20.085	1.879	0.504
274.000	201.238	80.007	19.995	103.286	20.086	1.808	0.510
274.500	201.468	80.007	19.995	103.286	20.084	1.953	0.503
275.000	201.700	80.005	19.994	103.284	20.082	2.069	0.480
275.500	201.963	80.006	19.996	103.283	20.087	1.689	0.479
276.000	202.224	80.006	19.994	103.281	20.085	1.829	0.509
276.500	202.498	80.007	19.994	103.280	20.085	1.860	0.529
277.000	202.763	80.007	19.994	103.279	20.086	1.815	0.537
277.500	202.981	80.007	19.995	103.281	20.084	1.930	0.511
278.000	203.217	80.008	19.994	103.281	20.085	1.840	0.469
278.500	203.485	80.006	19.995	103.282	20.085	1.871	0.479
279.000	203.683	80.007	19.993	103.282	20.081	2.119	0.485
279.501	203.958	80.006	19.994	103.282	20.083	2.007	0.470
280.001	204.211	80.006	19.995	103.279	20.084	1.920	0.500
280.500	204.453	80.008	19.994	103.276	20.087	1.751	0.512
281.000	204.727	80.008	19.994	103.275	20.086	1.815	0.506
281.500	204.986	80.007	19.995	103.276	20.084	1.926	0.524
282.000	205.196	80.006	19.994	103.273	20.085	1.854	0.501
282.500	205.433	80.007	19.993	103.277	20.088	1.664	0.458
283.000	205.668	80.005	19.996	103.280	20.085	1.895	0.460
283.500	205.891	80.006	19.994	103.281	20.082	2.052	0.465
284.000	206.165	80.006	19.994	103.281	20.085	1.856	0.477
284.500	206.446	80.005	19.994	103.284	20.082	2.073	0.526
285.000	206.680	80.007	19.995	103.282	20.083	2.028	0.535
285.500	206.923	80.009	19.994	103.279	20.083	2.015	0.496
286.000	207.181	80.006	19.995	103.278	20.082	2.079	0.489
286.500	207.442	80.007	19.994	103.277	20.086	1.763	0.510
287.000	207.719	80.007	19.995	103.277	20.085	1.864	0.529
287.500	207.958	80.007	19.995	103.275	20.086	1.796	0.527
288.000	208.181	80.007	19.993	103.277	20.087	1.745	0.489
288.500	208.449	80.007	19.995	103.274	20.090	1.498	0.476
289.000	208.668	80.008	19.993	103.269	20.085	1.842	0.489
289.500	208.960	80.008	19.995	103.264	20.089	1.589	0.499
290.000	209.208	80.009	19.995	103.266	20.089	1.591	0.525
290.500	209.451	80.008	19.995	103.265	20.089	1.548	0.515
291.000	209.659	80.007	19.994	103.268	20.086	1.813	0.471
291.500	209.893	80.007	19.994	103.272	20.086	1.773	0.446
292.000	210.140	80.008	19.995	103.275	20.085	1.883	0.461
292.500	210.387	80.007	19.994	103.272	20.088	1.678	0.488
293.000	210.608	80.008	19.996	103.267	20.089	1.614	0.482
293.500	210.923	80.010	19.994	103.267	20.087	1.691	0.502
294.000	211.138	80.009	19.994	103.267	20.086	1.811	0.532
294.500	211.383	80.008	19.994	103.269	20.089	1.612	0.495
295.000	211.628	80.009	19.994	103.274	20.085	1.879	0.476
295.500	211.895	80.008	19.994	103.277	20.088	1.666	0.501
296.000	212.128	80.008	19.994	103.272	20.089	1.567	0.506
296.500	212.374	80.010	19.994	103.272	20.091	1.455	0.489
297.000	212.622	80.009	19.995	103.273	20.087	1.734	0.486
297.500	212.867	80.009	19.994	103.271	20.087	1.753	0.494
298.000	213.108	80.008	19.994	103.271	20.085	1.893	0.490
298.500	213.367	80.008	19.993	103.274	20.085	1.885	0.492
299.000	213.599	80.008	19.994	103.270	20.086	1.827	0.495
299.500	213.834	80.008	19.995	103.269	20.086	1.786	0.479
300.000	214.068	80.008	19.994	103.270	20.087	1.745	0.468
300.500	214.382	80.009	19.994	103.270	20.086	1.800	0.509
301.000	214.629	80.011	19.994	103.272	20.086	1.825	0.554
301.500	214.847	80.008	19.994	103.276	20.087	1.697	0.513
302.000	215.129	80.009	19.995	103.276	20.087	1.749	0.483
302.500	215.395	80.007	19.995	103.275	20.086	1.825	0.524
303.000	215.636	80.010	19.996	103.274	20.086	1.770	0.527
303.500	215.885	80.009	19.995	103.270	20.085	1.829	0.499
304.000	216.093	80.007	19.994	103.267	20.086	1.763	0.474
304.500	216.400	80.008	19.995	103.268	20.086	1.819	0.486
305.000	216.619	80.008	19.994	103.269	20.084	1.960	0.521
305.500	216.857	80.006	19.996	103.271	20.082	2.084	0.492
306.000	217.056	80.005	19.994	103.273	20.084	1.968	0.447
306.500	217.320	80.009	19.994	103.273	20.089	1.608	0.450
307.000	217.580	80.009	19.995	103.271	20.088	1.650	0.493
307.500	217.825	80.009	19.995	103.270	20.087	1.712	0.515
308.000	218.095	80.009	19.994	103.267	20.088	1.619	0.510
308.500	218.374	80.007	19.995	103.265	20.090	1.526	0.532
309.000	218.554	80.004	19.995	103.265	20.091	1.463	0.504
309.500	218.832	80.007	19.995	103.265	20.090	1.528	0.458
310.000	219.053	80.007	19.995	103.266	20.089	1.600	0.479
310.500	219.323	80.007	19.994	103.269	20.090	1.482	0.495
311.000	219.575	80.007	19.994	103.268	20.090	1.532	0.506
311.500	219.820	80.007	19.995	103.265	20.089	1.612	0.510
312.000	219.994	80.005	19.994	103.260	20.089	1.588	0.458
312.500	220.270	80.009	19.997	103.255	20.090	1.503	0.434
313.000	220.537	80.007	19.995	103.250	20.088	1.633	0.496
313.500	220.746	80.008	19.995	103.247	20.088	1.629	0.510
314.000	221.019	80.006	19.995	103.253	20.089	1.598	0.479
314.500	221.271	80.006	19.994	103.258	20.090	1.542	0.503
315.000	221.501	80.008	19.995	103.259	20.089	1.598	0.503
315.500	221.794	80.006	19.996	103.261	20.086	1.759	0.503
316.000	221.988	80.006	19.995	103.265	20.089	1.602	0.505
316.500	222.250	80.007	19.995	103.261	20.089	1.571	0.472
317.000	222.501	80.006	19.994	103.256	20.090	1.499	0.485
317.500	222.716	80.007	19.995	103.255	20.087	1.745	0.490
318.000	222.971	80.009	19.995	103.252	20.091	1.470	0.468
318.500	223.222	80.009	19.994	103.251	20.091	1.460	0.487
319.000	223.468	80.009	19.995	103.257	20.091	1.457	0.501
319.500	223.679	80.009	19.995	103.262	20.091	1.412	0.477
320.000	223.991	80.008	19.995	103.266	20.093	1.302	0.490
320.500	224.188	80.010	19.995	103.268	20.092	1.395	0.516
321.000	224.465	80.010	19.995	103.265	20.091	1.464	0.492
321.501	224.727	80.009	19.995	103.259	20.088	1.646	0.507
322.001	225.008	80.010	19.995	103.254	20.087	1.726	0.541
322.500	225.228	80.008	19.994	103.256	20.086	1.766	0.522
323.000	225.484	80.009	19.994	103.258	20.089	1.549	0.488
323.500	225.778	80.008	19.995	103.261	20.090	1.517	0.513
324.000	225.976	80.009	19.994	103.262	20.088	1.652	0.521
324.500	226.209	80.007	19.995	103.261	20.087	1.718	0.461
325.000	226.490	80.008	19.994	103.255	20.091	1.445	0.473
325.500	226.720	80.008	19.993	103.251	20.092	1.348	0.513
326.000	226.969	80.008	19.994	103.249	20.093	1.321	0.495
326.500	227.195	80.007	19.995	103.251	20.091	1.439	0.477
327.000	227.457	80.007	19.994	103.253	20.092	1.379	0.481
327.500	227.690	80.007	19.994	103.255	20.095	1.164	0.492
328.000	227.981	80.007	19.994	103.255	20.090	1.534	0.510
328.500	228.208	80.006	19.995	103.257	20.091	1.462	0.521
329.000	228.476	80.005	19.996	103.253	20.091	1.476	0.506
329.500	228.724	80.007	19.995	103.251	20.094	1.263	0.505
330.000	228.947	80.006	19.996	103.252	20.093	1.272	0.494
330.500	229.234	80.004	19.994	103.253	20.093	1.309	0.490
331.000	229.487	80.005	19.995	103.252	20.089	1.559	0.525
331.500	229.742	80.006	19.995	103.252	20.092	1.406	0.524
332.000	229.969	80.005	19.996	103.251	20.091	1.429	0.495
332.500	230.272	80.005	19.994	103.249	20.093	1.321	0.506
333.000	230.509	80.005	19.994	103.248	20.093	1.329	0.535
333.500	230.770	80.006	19.995	103.248	20.092	1.356	0.519
334.000	231.021	80.005	19.995	103.249	20.093	1.286	0.505
334.500	231.248	80.004	19.994	103.249	20.091	1.453	0.495
335.000	231.475	80.005	19.994	103.249	20.092	1.406	0.466
335.500	231.698	80.004	19.996	103.249	20.089	1.588	0.452
336.000	231.951	80.007	19.996	103.249	20.090	1.495	0.463
336.500	232.215	80.005	19.995	103.248	20.091	1.422	0.496
337.000	232.457	80.005	19.995	103.249	20.092	1.365	0.511
337.500	232.706	80.003	19.995	103.249	20.093	1.276	0.499
338.000	232.957	80.005	19.995	103.249	20.091	1.451	0.496
338.500	233.226	80.005	19.996	103.249	20.093	1.313	0.510
339.000	233.450	80.005	19.996	103.249	20.091	1.476	0.506
339.500	233.735	80.007	19.994	103.248	20.090	1.524	0.501
340.000	233.989	80.004	19.995	103.247	20.090	1.480	0.524
340.500	234.222	80.005	19.995	103.245	20.090	1.516	0.513
341.000	234.484	80.004	19.995	103.245	20.090	1.509	0.491
341.500	234.735	80.006	19.995	103.245	20.093	1.284	0.504
342.000	234.963	80.007	19.996	103.245	20.094	1.205	0.497
342.500	235.202	80.005	19.997	103.247	20.093	1.319	0.473
343.000	235.455	80.004	19.996	103.253	20.091	1.460	0.480
343.500	235.731	80.005	19.995	103.256	20.092	1.398	0.510
344.000	236.001	80.005	19.994	103.255	20.093	1.286	0.537
344.500	236.210	80.006	19.995	103.254	20.090	1.511	0.512
345.001	236.499	80.007	19.996	103.252	20.089	1.611	0.488
345.501	236.728	80.007	19.995	103.246	20.092	1.369	0.508
346.000	237.009	80.005	19.996	103.243	20.092	1.365	0.514
346.500	237.265	80.006	19.995	103.246	20.088	1.679	0.524
347.000	237.506	80.006	19.995	103.247	20.090	1.540	0.517
347.500	237.744	80.007	19.995	103.247	20.092	1.356	0.488
348.001	238.024	80.006	19.995	103.246	20.089	1.551	0.498
348.501	238.245	80.006	19.995	103.246	20.091	1.431	0.509
349.000	238.481	80.006	19.995	103.244	20.092	1.387	0.479
349.501	238.721	80.006	19.996	103.244	20.092	1.350	0.467
350.001	239.011	80.007	19.995	103.244	20.094	1.224	0.503
350.500	239.251	80.007	19.996	103.244	20.093	1.333	0.530
351.000	239.485	80.005	19.994	103.244	20.096	1.071	0.502
351.500	239.730	80.007	19.994	103.244	20.095	1.166	0.477
352.000	239.966	80.006	19.994	103.244	20.093	1.294	0.480
352.500	240.203	80.007	19.995	103.244	20.096	1.100	0.477
353.000	240.451	80.007	19.994	103.246	20.093	1.315	0.479
353.500	240.703	80.007	19.994	103.249	20.095	1.187	0.492
354.000	240.917	80.007	19.995	103.250	20.096	1.083	0.483
354.500	241.199	80.005	19.995	103.250	20.097	1.025	0.480
355.000	241.474	80.007	19.994	103.250	20.098	0.976	0.526
355.500	241.728	80.008	19.994	103.248	20.095	1.160	0.544
356.000	241.969	80.007	19.995	103.247	20.097	1.044	0.512
356.500	242.212	80.006	19.995	103.248	20.098	0.963	0.489
357.000	242.463	80.007	19.994	103.248	20.098	0.951	0.489
357.500	242.726	80.007	19.994	103.248	20.095	1.178	0.505
358.000	242.964	80.006	19.994	103.246	20.096	1.110	0.507
358.500	243.194	80.006	19.994	103.245	20.098	0.959	0.484
359.000	243.431	80.005	19.994	103.242	20.096	1.108	0.467
359.500	243.719	80.006	19.994	103.243	20.096	1.114	0.496
360.000	243.944	80.006	19.995	103.245	20.094	1.209	0.519
360.500	244.202	80.007	19.995	103.250	20.096	1.088	0.498
361.000	244.455	80.006	19.994	103.251	20.094	1.257	0.497
361.500	244.707	80.008	19.994	103.253	20.100	0.815	0.508
362.000	244.963	80.007	19.994	103.252	20.095	1.156	0.506
362.500	245.209	80.007	19.995	103.251	20.098	0.934	0.505
363.000	245.433	80.007	19.993	103.247	20.097	1.026	0.486
363.500	245.704	80.007	19.994	103.246	20.096	1.092	0.482
364.000	245.986	80.005	19.996	103.245	20.097	1.011	0.524
364.500	246.235	80.005	19.995	103.245	20.096	1.094	0.542
365.000	246.475	80.007	19.995	103.245	20.099	0.908	0.510
365.500	246.718	80.007	19.994	103.245	20.098	0.947	0.486
366.000	247.010	80.006	19.995	103.245	20.094	1.257	0.509
366.500	247.233	80.006	19.994	103.246	20.097	1.044	0.525
367.000	247.463	80.006	19.995	103.246	20.095	1.129	0.484
367.500	247.741	80.008	19.994	103.246	20.097	0.997	0.481
368.000	248.006	80.006	19.995	103.245	20.096	1.073	0.525
368.500	248.213	80.007	19.994	103.246	20.097	1.023	0.507
369.000	248.515	80.006	19.995	103.245	20.097	0.994	0.490
369.500	248.739	80.006	19.995	103.245	20.096	1.079	0.517
370.000	248.969	80.007	19.994	103.245	20.095	1.135	0.490
370.500	249.257	80.008	19.995	103.245	20.094	1.224	0.486
371.000	249.525	80.008	19.995	103.245	20.096	1.075	0.537
371.500	249.767	80.007	19.994	103.245	20.095	1.158	0.533
372.000	250.039	80.007	19.994	103.245	20.098	0.968	0.512
372.500	250.272	80.009	19.994	103.245	20.097	0.999	0.509
373.000	250.541	80.007	19.995	103.244	20.098	0.953	0.504
373.500	250.762	80.008	19.994	103.244	20.099	0.874	0.496
374.000	250.983	80.008	19.995	103.244	20.095	1.127	0.465
374.500	251.256	80.008	19.994	103.245	20.096	1.083	0.468
375.000	251.511	80.009	19.994	103.246	20.095	1.170	0.512
375.500	251.748	80.009	19.994	103.248	20.098	0.955	0.510
376.000	252.039	80.008	19.994	103.248	20.099	0.910	0.510
376.500	252.255	80.009	19.993	103.248	20.097	0.992	0.517
377.000	252.544	80.008	19.994	103.248	20.097	1.021	0.506
377.500	252.715	80.008	19.996	103.246	20.101	0.730	0.482
378.000	253.024	80.009	19.994	103.245	20.102	0.655	0.470
378.500	253.237	80.009	19.993	103.246	20.099	0.901	0.501
379.000	253.519	80.008	19.996	103.246	20.098	0.916	0.509
379.500	253.759	80.009	19.995	103.247	20.102	0.682	0.509
380.000	253.979	80.009	19.994	103.248	20.100	0.810	0.491
380.500	254.202	80.008	19.995	103.248	20.099	0.852	0.451
381.000	254.438	80.007	19.995	103.248	20.099	0.897	0.451
381.500	254.722	80.008	19.995	103.248	20.101	0.726	0.489
382.000	254.960	80.008	19.994	103.248	20.102	0.684	0.521
382.500	255.218	80.006	19.994	103.248	20.099	0.874	0.509
383.000	255.432	80.008	19.994	103.249	20.100	0.817	0.484
383.500	255.663	80.008	19.996	103.249	20.098	0.972	0.459
384.000	255.940	80.010	19.995	103.248	20.100	0.821	0.477
384.500	256.179	80.008	19.994	103.249	20.099	0.862	0.511
385.000	256.413	80.009	19.995	103.251	20.101	0.724	0.494
385.500	256.660	80.008	19.995	103.251	20.101	0.730	0.477
386.000	256.897	80.009	19.995	103.251	20.100	0.804	0.482
386.500	257.173	80.008	19.996	103.251	20.103	0.569	0.499
387.000	257.406	80.009	19.994	103.251	20.101	0.738	0.512
387.500	257.685	80.009	19.994	103.250	20.103	0.575	0.511
388.000	257.895	80.011	19.995	103.252	20.101	0.738	0.500
388.500	258.145	80.009	19.994	103.252	20.101	0.711	0.474
389.000	258.372	80.008	19.994	103.253	20.099	0.854	0.469
389.500	258.666	80.009	19.994	103.252	20.101	0.742	0.499
390.000	258.905	80.008	19.995	103.251	20.104	0.500	0.527
390.500	259.174	80.008	19.995	103.248	20.100	0.835	0.521
391.000	259.416	80.009	19.993	103.250	20.097	1.003	0.509
391.500	259.683	80.007	19.995	103.250	20.101	0.732	0.510
392.000	259.909	80.008	19.995	103.250	20.099	0.908	0.501
392.500	260.205	80.008	19.993	103.250	20.105	0.494	0.507
393.000	260.428	80.007	19.994	103.250	20.103	0.633	0.520
393.500	260.658	80.008	19.995	103.248	20.102	0.697	0.486
394.000	260.899	80.008	19.993	103.248	20.103	0.595	0.462
394.500	261.164	80.008	19.993	103.247	20.101	0.742	0.488
395.000	261.415	80.008	19.995	103.247	20.102	0.647	0.511
395.500	261.633	80.010	19.993	103.247	20.103	0.577	0.493
396.000	261.890	80.007	19.993	103.247	20.102	0.674	0.472
396.500	262.125	80.009	19.993	103.247	20.102	0.680	0.484
397.000	262.356	80.008	19.995	103.249	20.101	0.722	0.479
397.500	262.606	80.010	19.997	103.249	20.100	0.810	0.473
398.000	262.870	80.007	19.994	103.250	20.101	0.738	0.497
398.501	263.111	80.008	19.994	103.250	20.099	0.897	0.509
399.001	263.379	80.008	19.995	103.250	20.103	0.610	0.507
399.500	263.613	80.008	19.993	103.250	20.100	0.817	0.506
400.000	263.871	80.010	19.994	103.250	20.102	0.689	0.497
400.500	264.170	80.009	19.995	103.249	20.103	0.587	0.525
401.000	264.356	80.009	19.995	103.249	20.100	0.821	0.521
401.500	264.659	80.010	19.995	103.249	20.101	0.748	0.487
402.000	264.907	80.010	19.994	103.249	20.101	0.722	0.520
402.500	265.128	80.010	19.998	103.249	20.100	0.825	0.510
403.000	265.390	80.010	19.992	103.249	20.104	0.533	0.476
403.500	265.640	80.010	19.994	103.249	20.103	0.602	0.498
404.001	265.909	80.010	19.996	103.248	20.103	0.612	0.516
404.501	266.129	80.011	19.993	103.248	20.103	0.620	0.504
405.000	266.407	80.009	19.993	103.249	20.104	0.525	0.494
405.500	266.634	80.010	19.995	103.248	20.104	0.523	0.501
406.000	266.889	80.009	19.994	103.248	20.104	0.556	0.494
406.500	267.133	80.011	19.994	103.247	20.104	0.536	0.491
407.000	267.369	80.009	19.995	103.246	20.101	0.715	0.490
407.500	267.648	80.010	19.994	103.242	20.102	0.689	0.497
408.000	267.929	80.010	19.994	103.242	20.099	0.846	0.538
408.500	268.156	80.010	19.996	103.240	20.101	0.705	0.534
409.000	268.408	80.009	19.995	103.239	20.099	0.895	0.493
409.500	268.652	80.008	19.994	103.239	20.105	0.467	0.488
410.000	268.882	80.008	19.995	103.241	20.100	0.779	0.486
410.500	269.130	80.008	19.995	103.242	20.101	0.757	0.476
411.000	269.408	80.010	19.995	103.243	20.101	0.775	0.502
411.500	269.655	80.007	19.995	103.243	20.100	0.780	0.525
412.000	269.874	80.007	19.995	103.242	20.102	0.688	0.495
412.500	270.135	80.006	19.995	103.242	20.101	0.713	0.473
413.000	270.371	80.007	19.996	103.240	20.102	0.649	0.489
413.500	270.674	80.008	19.995	103.240	20.099	0.893	0.518
414.000	270.924	80.007	19.994	103.240	20.105	0.453	0.546
414.500	271.227	80.007	19.995	103.241	20.103	0.567	0.553
415.000	271.418	80.006	19.995	103.242	20.101	0.759	0.524
415.500	271.670	80.006	19.995	103.243	20.101	0.748	0.468
416.000	271.972	80.007	19.994	103.244	20.101	0.715	0.498
416.500	272.232	80.007	19.995	103.244	20.104	0.548	0.558
417.000	272.459	80.007	19.995	103.244	20.102	0.641	0.525
417.500	272.734	80.006	19.995	103.244	20.103	0.612	0.494
418.000	272.982	80.007	19.995	103.244	20.102	0.651	0.513
418.500	273.226	80.007	19.997	103.244	20.102	0.676	0.508
419.000	273.485	80.007	19.995	103.244	20.103	0.608	0.498
419.500	273.700	80.007	19.995	103.244	20.105	0.492	0.488
420.000	273.944	80.007	19.995	103.240	20.102	0.672	0.466
420.500	274.218	80.008	19.994	103.237	20.105	0.451	0.489
421.000	274.452	80.007	19.995	103.237	20.102	0.641	0.513
421.500	274.704	80.009	19.995	103.237	20.102	0.689	0.497
422.000	274.984	80.008	19.994	103.237	20.103	0.573	0.509
422.500	275.241	80.008	19.994	103.240	20.099	0.870	0.535
423.000	275.449	80.007	19.996	103.238	20.102	0.693	0.501
423.500	275.723	80.008	19.996	103.233	20.104	0.550	0.473
424.000	275.972	80.008	19.994	103.231	20.103	0.575	0.503
424.500	276.177	80.008	19.994	103.231	20.104	0.540	0.488
425.000	276.459	80.008	19.996	103.231	20.105	0.424	0.470
425.500	276.709	80.006	19.995	103.236	20.107	0.343	0.509
426.000	276.992	80.008	19.996	103.241	20.108	0.246	0.532
426.500	277.204	80.006	19.994	103.243	20.108	0.240	0.514
427.000	277.495	80.007	19.995	103.243	20.105	0.455	0.499
427.500	277.705	80.007	19.996	103.244	20.108	0.283	0.503
428.001	277.972	80.009	19.995	103.241	20.105	0.430	0.489
428.500	278.227	80.009	19.996	103.237	20.105	0.463	0.499
429.000	278.489	80.007	19.995	103.236	20.107	0.298	0.520
429.500	278.733	80.007	19.996	103.235	20.107	0.341	0.512
430.000	278.941	80.005	19.995	103.230	20.104	0.519	0.479
430.500	279.279	80.008	19.996	103.228	20.107	0.323	0.499
431.000	279.471	80.006	19.995	103.232	20.107	0.349	0.538
431.500	279.745	80.008	19.995	103.232	20.102	0.670	0.498
432.000	280.010	80.007	19.995	103.232	20.108	0.273	0.502
432.500	280.254	80.007	19.996	103.236	20.105	0.476	0.524
433.000	280.515	80.008	19.996	103.240	20.106	0.387	0.507
433.500	280.768	80.007	19.996	103.239	20.107	0.316	0.509
434.000	280.999	80.005	19.997	103.240	20.106	0.362	0.499
434.500	281.263	80.007	19.995	103.238	20.106	0.372	0.490
435.000	281.478	80.006	19.996	103.233	20.106	0.354	0.487
435.500	281.742	80.007	19.996	103.228	20.104	0.529	0.479
436.000	282.004	80.007	19.996	103.222	20.106	0.383	0.502
436.500	282.254	80.007	19.995	103.220	20.110	0.134	0.519
437.000	282.493	80.005	19.997	103.223	20.107	0.300	0.501
437.500	282.758	80.008	19.997	103.227	20.105	0.480	0.497
438.000	283.032	80.007	19.996	103.231	20.106	0.366	0.521
438.500	283.299	80.008	19.997	103.231	20.108	0.250	0.540
439.000	283.566	80.007	19.995	103.232	20.108	0.254	0.538
439.500	283.817	80.005	19.996	103.232	20.106	0.387	0.526
440.000	284.091	80.008	19.996	103.231	20.107	0.327	0.522
440.500	284.329	80.006	19.996	103.233	20.106	0.403	0.519
441.000	284.595	80.007	19.995	103.232	20.108	0.256	0.508
441.500	284.824	80.007	19.996	103.229	20.107	0.312	0.499
442.000	285.071	80.006	19.996	103.227	20.108	0.225	0.485
442.500	285.324	80.006	19.995	103.227	20.107	0.310	0.488
443.000	285.568	80.006	19.995	103.227	20.108	0.269	0.499
443.500	285.811	80.007	19.996	103.231	20.108	0.281	0.492
444.000	286.068	80.007	19.997	103.235	20.111	0.031	0.494
444.500	286.333	80.005	19.996	103.235	20.110	0.091	0.511
445.000	286.577	80.007	19.995	103.232	20.108	0.246	0.515
445.500	286.821	80.005	19.994	103.228	20.108	0.223	0.498
446.000	287.098	80.007	19.996	103.224	20.109	0.151	0.505
446.500	287.369	80.008	19.995	103.218	20.108	0.254	0.534
447.000	287.586	80.005	19.995	103.218	20.111	0.060	0.518
447.500	287.828	80.005	19.994	103.223	20.108	0.223	0.473
448.000	288.062	80.008	19.994	103.227	20.108	0.256	0.467
448.500	288.334	80.006	19.994	103.233	20.107	0.325	0.491
449.000	288.575	80.008	19.994	103.236	20.108	0.221	0.510
449.500	288.805	80.006	19.994	103.232	20.109	0.157	0.492
450.000	289.065	80.008	19.995	103.230	20.111	0.035	0.480
450.500	289.342	80.008	19.993	103.228	20.108	0.240	0.514
451.000	289.601	80.006	19.994	103.226	20.110	0.126	0.537
451.500	289.816	80.008	19.995	103.223	20.111	0.052	0.505
452.000	290.088	80.007	19.994	103.223	20.109	0.196	0.480
452.500	290.354	80.007	19.994	103.222	20.109	0.205	0.512
453.000	290.614	80.007	19.995	103.226	20.108	0.221	0.532
453.500	290.854	80.008	19.994	103.229	20.107	0.320	0.513
454.000	291.098	80.007	19.994	103.233	20.109	0.176	0.492
454.500	291.383	80.009	19.993	103.237	20.106	0.362	0.507
455.000	291.644	80.007	19.995	103.237	20.110	0.101	0.537
455.500	291.920	80.008	19.995	103.231	20.109	0.209	0.541
456.000	292.158	80.008	19.994	103.228	20.111	0.039	0.525
456.500	292.423	80.007	19.996	103.230	20.107	0.341	0.508
457.000	292.673	80.010	19.995	103.229	20.109	0.192	0.510
457.500	292.954	80.007	19.994	103.233	20.105	0.463	0.523
458.000	293.180	80.008	19.996	103.238	20.108	0.256	0.519
458.500	293.434	80.008	19.995	103.241	20.106	0.389	0.493
459.000	293.696	80.008	19.995	103.236	20.105	0.430	0.498
459.500	293.979	80.008	19.995	103.235	20.108	0.281	0.530
460.000	294.200	80.008	19.996	103.231	20.107	0.335	0.524
460.500	294.443	80.008	19.994	103.229	20.107	0.325	0.484
461.000	294.711	80.009	19.994	103.226	20.106	0.354	0.488
461.500	294.953	80.008	19.993	103.226	20.108	0.215	0.511
462.000	295.207	80.008	19.994	103.227	20.107	0.331	0.503
462.500	295.462	80.010	19.994	103.225	20.107	0.316	0.503
463.001	295.747	80.008	19.996	103.223	20.107	0.318	0.524
463.500	295.939	80.008	19.994	103.226	20.109	0.145	0.509
464.000	296.219	80.009	19.997	103.229	20.108	0.269	0.475
464.500	296.465	80.009	19.995	103.231	20.109	0.168	0.499
465.000	296.722	80.009	19.993	103.237	20.110	0.134	0.514
465.500	296.996	80.008	19.995	103.239	20.111	0.019	0.517
466.000	297.226	80.008	19.992	103.234	20.108	0.223	0.517
466.500	297.493	80.008	19.994	103.233	20.111	0.017	0.500
467.000	297.728	80.008	19.994	103.228	20.111	0.043	0.499
467.500	297.984	80.008	19.995	103.222	20.110	0.095	0.497
468.000	298.245	80.006	19.995	103.218	20.106	0.358	0.505
468.500	298.487	80.010	19.996	103.217	20.108	0.246	0.510
469.000	298.732	80.009	19.993	103.220	20.109	0.163	0.495
469.500	299.006	80.008	19.995	103.224	20.108	0.242	0.503
470.000	299.253	80.007	19.995	103.229	20.109	0.151	0.520
470.500	299.490	80.008	19.997	103.231	20.111	0.023	0.503
471.000	299.742	80.008	19.996	103.234	20.109	0.178	0.487
471.500	299.996	80.009	19.996	103.230	20.109	0.184	0.497
472.000	300.240	80.007	19.995	103.227	20.107	0.323	0.502
472.500	300.516	80.006	19.993	103.226	20.109	0.174	0.509
473.000	300.755	80.009	19.994	103.226	20.107	0.325	0.518
473.500	301.001	80.010	19.993	103.222	20.108	0.267	0.500
474.000	301.249	80.008	19.996	103.219	20.106	0.370	0.489
474.500	301.527	80.007	19.995	103.217	20.111	0.050	0.510
475.000	301.721	80.007	19.995	103.214	20.108	0.273	0.499
475.500	301.994	80.010	19.995	103.216	20.109	0.211	0.469
476.000	302.246	80.007	19.993	103.221	20.108	0.244	0.496
476.500	302.479	80.008	19.995	103.226	20.110	0.114	0.505
477.000	302.765	80.009	19.995	103.227	20.110	0.110	0.502
477.500	303.033	80.009	19.995	103.225	20.109	0.153	0.536
478.000	303.311	80.008	19.995	103.221	20.108	0.261	0.550
478.500	303.546	80.010	19.996	103.216	20.109	0.147	0.530
479.000	303.812	80.010	19.997	103.213	20.108	0.256	0.507
479.500	304.045	80.009	19.994	103.213	20.106	0.354	0.500
480.000	304.338	80.011	19.994	103.216	20.107	0.300	0.513
480.500	304.585	80.010	19.994	103.221	20.106	0.383	0.533
481.000	304.833	80.010	19.992	103.225	20.108	0.242	0.517
481.500	305.059	80.009	19.994	103.224	20.109	0.180	0.485
482.000	305.292	80.009	19.995	103.224	20.108	0.267	0.467
482.500	305.542	80.011	19.992	103.225	20.108	0.219	0.471
483.000	305.841	80.011	19.995	103.222	20.115	-0.275	0.516
483.500	306.076	80.011	19.993	103.219	20.109	0.155	0.541
484.000	306.331	80.007	19.993	103.221	20.112	-0.008	0.512
484.500	306.604	80.010	19.994	103.222	20.109	0.170	0.509
485.000	306.857	80.011	19.993	103.221	20.111	0.014	0.527
485.500	307.092	80.011	19.994	103.220	20.111	0.043	0.507
486.000	307.329	80.013	19.994	103.218	20.112	-0.062	0.481
486.500	307.564	80.009	19.993	103.221	20.113	-0.091	0.472
487.000	307.808	80.010	19.992	103.221	20.110	0.120	0.475
487.500	308.061	80.009	19.993	103.221	20.109	0.149	0.488
488.000	308.331	80.011	19.995	103.224	20.111	0.050	0.510
488.500	308.606	80.010	19.996	103.228	20.112	-0.048	0.534
489.000	308.819	80.010	19.994	103.222	20.112	-0.019	0.516
489.500	309.123	80.011	19.994	103.220	20.108	0.244	0.502
490.000	309.375	80.009	19.995	103.219	20.111	0.046	0.537
490.500	309.604	80.012	19.994	103.213	20.113	-0.072	0.519
491.000	309.869	80.009	19.994	103.212	20.113	-0.112	0.487
491.500	310.117	80.009	19.994	103.214	20.113	-0.114	0.503
492.000	310.387	80.009	19.993	103.215	20.112	-0.037	0.515
492.500	310.610	80.009	19.993	103.214	20.111	0.037	0.506
493.000	310.871	80.010	19.995	103.214	20.111	0.060	0.488
493.500	311.127	80.008	19.995	103.211	20.112	-0.052	0.500
494.000	311.371	80.008	19.994	103.209	20.110	0.130	0.509
494.500	311.634	80.009	19.994	103.208	20.113	-0.079	0.504
495.000	311.899	80.008	19.995	103.211	20.110	0.110	0.518
495.500	312.186	80.006	19.994	103.213	20.109	0.197	0.540
496.000	312.415	80.008	19.994	103.215	20.108	0.275	0.534
496.500	312.675	80.006	19.995	103.214	20.112	-0.029	0.502
497.000	312.957	80.008	19.995	103.214	20.112	-0.002	0.515
497.500	313.189	80.007	19.996	103.212	20.113	-0.120	0.528
498.000	313.482	80.007	19.994	103.209	20.112	-0.060	0.520
498.500	313.692	80.009	19.994	103.209	20.109	0.174	0.514
499.000	313.977	80.008	19.996	103.210	20.110	0.079	0.499
499.500	314.259	80.007	19.993	103.212	20.112	-0.017	0.531
500.000	314.466	80.006	19.995	103.213	20.108	0.236	0.528
500.500	314.726	80.008	19.997	103.213	20.111	0.008	0.478
501.000	314.979	80.009	19.997	103.213	20.108	0.230	0.490
501.500	315.206	80.009	19.995	103.214	20.111	0.052	0.496
502.000	315.453	80.008	19.993	103.216	20.114	-0.188	0.477
502.500	315.700	80.007	19.996	103.217	20.110	0.079	0.484
503.000	315.967	80.007	19.992	103.217	20.109	0.188	0.504
503.500	316.250	80.008	19.994	103.216	20.111	0.054	0.532
504.000	316.485	80.007	19.996	103.214	20.114	-0.147	0.534
504.500	316.745	80.007	19.996	103.210	20.113	-0.134	0.507
505.000	316.981	80.006	19.993	103.209	20.113	-0.122	0.496
505.500	317.216	80.007	19.993	103.210	20.112	-0.066	0.483
506.000	317.527	80.008	19.995	103.210	20.113	-0.074	0.509
506.500	317.739	80.009	19.995	103.211	20.115	-0.259	0.534
507.000	317.962	80.009	19.996	103.210	20.113	-0.105	0.479
507.500	318.246	80.008	19.995	103.209	20.112	-0.062	0.471
508.000	318.504	80.005	19.995	103.209	20.113	-0.108	0.525
508.500	318.752	80.008	19.994	103.209	20.116	-0.290	0.524
509.000	318.984	80.008	19.994	103.210	20.110	0.103	0.493
509.500	319.261	80.008	19.997	103.209	20.113	-0.095	0.495
510.000	319.499	80.006	19.994	103.209	20.112	-0.004	0.512
510.500	319.768	80.008	19.996	103.209	20.111	0.006	0.511
511.000	319.970	80.009	19.994	103.209	20.110	0.095	0.489
511.500	320.256	80.008	19.997	103.209	20.111	0.046	0.479
512.000	320.509	80.010	19.994	103.209	20.109	0.211	0.514
512.500	320.717	80.006	19.995	103.209	20.110	0.099	0.500
513.000	321.016	80.008	19.995	103.211	20.113	-0.097	0.484
513.500	321.247	80.007	19.996	103.213	20.111	0.041	0.518
514.000	321.512	80.008	19.995	103.214	20.110	0.108	0.513
514.500	321.789	80.008	19.995	103.213	20.111	0.070	0.520
515.000	322.034	80.009	19.995	103.213	20.111	0.019	0.532
515.500	322.270	80.007	19.994	103.211	20.110	0.128	0.501
516.000	322.547	80.007	19.994	103.209	20.110	0.095	0.497
516.500	322.753	80.007	19.995	103.208	20.110	0.126	0.498
517.000	323.003	80.007	19.994	103.208	20.111	0.006	0.470
517.500	323.268	80.006	19.996	103.209	20.113	-0.077	0.486
518.000	323.533	80.009	19.996	103.209	20.111	0.052	0.522
518.500	323.807	80.007	19.993	103.209	20.116	-0.283	0.534
519.000	324.036	80.009	19.994	103.209	20.114	-0.165	0.521
519.500	324.264	80.007	19.994	103.210	20.110	0.085	0.480
520.000	324.508	80.008	19.992	103.210	20.110	0.081	0.464
520.500	324.766	80.006	19.994	103.209	20.112	-0.062	0.487
521.000	325.048	80.007	19.996	103.209	20.112	-0.012	0.521
521.500	325.311	80.007	19.995	103.208	20.112	0.002	0.543
522.000	325.553	80.007	19.992	103.206	20.109	0.145	0.525
522.500	325.789	80.007	19.994	103.206	20.109	0.211	0.491
523.000	326.043	80.006	19.995	103.206	20.110	0.101	0.484
523.500	326.270	80.006	19.995	103.206	20.111	0.054	0.486
524.000	326.538	80.009	19.997	103.208	20.111	0.054	0.488
524.500	326.769	80.004	19.995	103.210	20.111	0.031	0.497
525.000	327.023	80.006	19.996	103.209	20.110	0.099	0.492
525.500	327.236	80.006	19.995	103.209	20.113	-0.116	0.476
526.000	327.528	80.007	19.996	103.209	20.110	0.099	0.486
526.500	327.733	80.006	19.995	103.210	20.112	-0.008	0.501
527.000	328.000	80.006	19.996	103.210	20.111	0.037	0.484
527.500	328.262	80.007	19.995	103.211	20.108	0.281	0.500
528.000	328.491	80.007	19.996	103.211	20.110	0.081	0.510
528.500	328.752	80.004	19.995	103.210	20.112	-0.029	0.491
529.000	329.004	80.005	19.995	103.209	20.110	0.118	0.502
529.500	329.248	80.007	19.995	103.209	20.110	0.074	0.505
530.000	329.514	80.006	19.993	103.207	20.109	0.182	0.503
530.500	329.759	80.007	19.994	103.206	20.111	0.060	0.511
531.000	330.044	80.006	19.994	103.207	20.112	-0.019	0.521
531.501	330.312	80.006	19.995	103.207	20.115	-0.221	0.541
532.002	330.499	80.005	19.996	103.207	20.110	0.132	0.504
532.501	330.779	80.007	19.996	103.209	20.111	0.043	0.461
533.000	331.011	80.007	19.995	103.209	20.113	-0.072	0.489
533.500	331.246	80.005	19.993	103.209	20.108	0.225	0.490
534.000	331.512	80.006	19.996	103.211	20.107	0.304	0.485
534.500	331.752	80.005	19.996	103.212	20.111	0.014	0.504
535.000	332.048	80.007	19.994	103.212	20.113	-0.077	0.521
535.500	332.237	80.006	19.996	103.212	20.112	-0.056	0.510
536.000	332.487	80.007	19.994	103.211	20.108	0.240	0.462
536.500	332.702	80.006	19.993	103.209	20.109	0.192	0.452
537.000	332.997	80.008	19.995	103.207	20.110	0.126	0.488
537.500	333.228	80.010	19.994	103.207	20.110	0.085	0.518
538.001	333.509	80.007	19.995	103.206	20.107	0.308	0.519
538.501	333.793	80.008	19.994	103.206	20.109	0.159	0.539
539.001	334.023	80.008	19.994	103.205	20.110	0.091	0.539
539.501	334.245	80.007	19.995	103.205	20.106	0.397	0.483
540.000	334.512	80.009	19.995	103.203	20.110	0.112	0.471
540.500	334.757	80.007	19.996	103.204	20.106	0.416	0.500
541.000	335.025	80.008	19.994	103.204	20.106	0.414	0.512
541.501	335.269	80.008	19.994	103.204	20.106	0.403	0.513
542.000	335.547	80.010	19.993	103.204	20.106	0.366	0.517
542.500	335.762	80.008	19.995	103.205	20.106	0.356	0.508
543.000	336.001	80.009	19.992	103.205	20.107	0.318	0.474
543.500	336.254	80.009	19.993	103.205	20.109	0.166	0.473
544.000	336.512	80.010	19.993	103.205	20.108	0.252	0.501
544.500	336.749	80.010	19.994	103.205	20.106	0.414	0.503
545.000	337.026	80.008	19.995	103.206	20.107	0.302	0.505
545.500	337.263	80.007	19.994	103.206	20.104	0.496	0.514
546.000	337.552	80.010	19.994	103.206	20.104	0.505	0.520
546.500	337.760	80.010	19.994	103.206	20.107	0.285	0.512
547.000	338.011	80.008	19.995	103.206	20.108	0.227	0.478
547.501	338.269	80.007	19.994	103.206	20.106	0.356	0.484
548.001	338.541	80.008	19.994	103.206	20.109	0.147	0.519
548.500	338.791	80.008	19.995	103.206	20.104	0.558	0.526
549.000	339.014	80.009	19.994	103.206	20.108	0.250	0.497
549.500	339.257	80.008	19.994	103.206	20.107	0.297	0.469
550.000	339.527	80.009	19.997	103.205	20.108	0.240	0.490
550.500	339.772	80.007	19.994	103.205	20.106	0.399	0.515
551.000	340.040	80.007	19.994	103.205	20.111	0.045	0.514
551.500	340.255	80.008	19.994	103.205	20.109	0.167	0.497
552.000	340.526	80.008	19.995	103.204	20.107	0.288	0.484
552.500	340.787	80.010	19.992	103.204	20.105	0.451	0.509
553.000	341.001	80.009	19.996	103.204	20.106	0.362	0.504
553.500	341.264	80.009	19.995	103.203	20.107	0.306	0.476
554.000	341.540	80.009	19.996	103.204	20.110	0.136	0.508
554.500	341.748	80.007	19.995	103.204	20.107	0.300	0.512
555.001	341.984	80.008	19.996	103.205	20.110	0.134	0.464
555.501	342.271	80.008	19.996	103.210	20.111	0.072	0.483
556.000	342.486	80.007	19.997	103.217	20.108	0.263	0.513
556.500	342.760	80.008	19.995	103.223	20.111	0.023	0.496
557.000	342.997	80.008	19.996	103.231	20.114	-0.153	0.500
557.500	343.267	80.006	19.995	103.238	20.113	-0.112	0.509
558.000	343.494	80.008	19.994	103.245	20.113	-0.076	0.502
558.500	343.734	80.008	19.994	103.257	20.113	-0.076	0.482
559.000	344.022	80.008	19.996	103.289	20.112	-0.043	0.497
559.500	344.247	80.008	19.995	103.314	20.112	-0.008	0.520
560.000	344.511	80.009	19.996	103.319	20.117	-0.356	0.501
560.500	344.754	80.010	19.997	103.316	20.112	-0.025	0.498
561.000	345.006	80.008	19.996	103.301	20.110	0.137	0.501
561.500	345.291	80.010	19.995	103.266	20.110	0.091	0.516
562.000	345.543	80.010	19.995	103.236	20.113	-0.118	0.537
562.500	345.742	80.009	19.995	103.223	20.112	-0.006	0.494
563.000	346.059	80.007	19.996	103.215	20.110	0.110	0.483
563.500	346.282	80.009	19.994	103.211	20.112	-0.008	0.528
564.000	346.535	80.008	19.993	103.208	20.110	0.095	0.509
564.500	346.780	80.009	19.995	103.206	20.112	-0.002	0.487
565.000	347.028	80.009	19.995	103.205	20.110	0.103	0.495
565.500	347.308	80.009	19.994	103.206	20.111	0.056	0.510
566.000	347.545	80.010	19.994	103.206	20.109	0.211	0.522
566.500	347.757	80.010	19.995	103.206	20.112	-0.002	0.483
567.000	348.024	80.008	19.995	103.206	20.111	0.072	0.464
567.500	348.276	80.010	19.997	103.205	20.111	0.017	0.499
568.000	348.542	80.012	19.996	103.204	20.108	0.275	0.519
568.500	348.761	80.008	19.996	103.204	20.109	0.190	0.501
569.000	349.037	80.010	19.994	103.204	20.111	0.017	0.490
569.500	349.285	80.008	19.994	103.204	20.111	0.015	0.510
570.001	349.529	80.013	19.992	103.205	20.107	0.292	0.508
570.501	349.761	80.009	19.994	103.205	20.108	0.238	0.484
571.000	350.081	80.010	19.994	103.206	20.107	0.312	0.514
571.500	350.291	80.010	19.993	103.206	20.112	-0.014	0.541
572.000	350.576	80.009	19.993	103.206	20.108	0.283	0.512
572.500	350.819	80.010	19.994	103.206	20.107	0.304	0.511
573.000	351.079	80.010	19.992	103.206	20.107	0.292	0.515
573.500	351.283	80.011	19.993	103.207	20.109	0.196	0.484
574.000	351.594	80.008	19.996	103.207	20.108	0.271	0.490
574.500	351.830	80.010	19.994	103.207	20.109	0.143	0.531
575.000	352.082	80.008	19.995	103.208	20.113	-0.070	0.517
575.500	352.302	80.009	19.995	103.208	20.111	0.014	0.480
576.000	352.565	80.007	19.992	103.209	20.110	0.093	0.478
576.500	352.833	80.006	19.994	103.208	20.112	-0.045	0.507
577.001	353.085	80.007	19.994	103.208	20.109	0.176	0.526
577.501	353.329	80.007	19.994	103.208	20.108	0.265	0.508
578.000	353.597	80.008	19.995	103.207	20.107	0.302	0.504
578.500	353.861	80.007	19.994	103.207	20.108	0.224	0.522
579.000	354.112	80.008	19.993	103.206	20.107	0.327	0.523
579.500	354.396	80.007	19.994	103.206	20.109	0.190	0.525
580.000	354.628	80.007	19.994	103.206	20.106	0.366	0.525
580.500	354.869	80.008	19.995	103.207	20.106	0.410	0.495
581.000	355.137	80.006	19.994	103.204	20.107	0.308	0.491
581.500	355.343	80.005	19.991	103.205	20.107	0.335	0.491
582.000	355.616	80.008	19.995	103.206	20.106	0.376	0.477
582.500	355.868	80.008	19.993	103.206	20.110	0.106	0.502
583.000	356.134	80.008	19.995	103.206	20.108	0.273	0.521
583.500	356.388	80.007	19.993	103.206	20.107	0.287	0.519
584.000	356.615	80.008	19.994	103.207	20.107	0.327	0.500
584.500	356.912	80.007	19.995	103.207	20.109	0.188	0.503
585.000	357.154	80.007	19.994	103.207	20.106	0.405	0.532
585.500	357.396	80.007	19.994	103.207	20.109	0.163	0.511
586.000	357.639	80.007	19.995	103.209	20.110	0.122	0.484
586.500	357.933	80.007	19.994	103.210	20.108	0.281	0.511
587.000	358.160	80.007	19.993	103.210	20.108	0.283	0.529
587.500	358.394	80.005	19.996	103.210	20.107	0.296	0.491
588.000	358.638	80.006	19.994	103.205	20.103	0.577	0.470
588.500	358.917	80.006	19.995	103.185	20.106	0.407	0.500
589.000	359.147	80.007	19.994	103.162	20.103	0.575	0.516
589.500	359.409	80.007	19.996	103.146	20.105	0.474	0.501
590.000	359.711	80.008	19.995	103.135	20.104	0.507	0.528
590.500	359.921	80.006	19.995	103.132	20.104	0.505	0.538
591.000	360.158	80.005	19.996	103.151	20.102	0.647	0.479
591.500	360.407	80.006	19.995	103.170	20.102	0.660	0.466
592.000	360.659	80.006	19.994	103.185	20.101	0.707	0.494
592.500	360.942	80.006	19.994	103.190	20.104	0.507	0.519
593.000	361.197	80.006	19.998	103.194	20.102	0.701	0.537
593.500	361.419	80.006	19.996	103.190	20.103	0.581	0.508
594.000	361.668	80.007	19.995	103.193	20.102	0.683	0.474
594.500	361.936	80.007	19.993	103.193	20.104	0.511	0.494
595.000	362.163	80.006	19.995	103.198	20.101	0.738	0.506
595.500	362.420	80.008	19.995	103.202	20.101	0.772	0.490
596.000	362.708	80.007	19.995	103.205	20.101	0.740	0.514
596.500	362.974	80.007	19.997	103.205	20.102	0.703	0.549
597.000	363.213	80.008	19.994	103.206	20.102	0.641	0.530
597.500	363.466	80.007	19.995	103.203	20.101	0.732	0.498
598.000	363.719	80.006	19.994	103.203	20.103	0.602	0.499
598.500	363.971	80.007	19.995	103.203	20.101	0.771	0.506
599.000	364.165	80.007	19.993	103.199	20.097	1.018	0.475
599.500	364.498	80.007	19.994	103.194	20.097	1.005	0.487
600.000	364.719	80.007	19.995	103.197	20.095	1.148	0.540
600.500	364.987	80.008	19.996	103.197	20.098	0.935	0.521
601.000	365.284	80.006	19.997	103.198	20.099	0.881	0.528
601.500	365.518	80.008	19.996	103.202	20.100	0.819	0.548
602.000	365.750	80.008	19.995	103.208	20.098	0.951	0.498
602.500	366.020	80.006	19.997	103.208	20.096	1.096	0.484
603.000	366.235	80.008	19.994	103.207	20.098	0.955	0.494
603.500	366.513	80.005	19.995	103.206	20.097	1.055	0.489
604.000	366.822	80.007	19.995	103.204	20.097	1.032	0.540
604.500	367.046	80.007	19.994	103.201	20.096	1.078	0.560
605.000	367.305	80.007	19.993	103.202	20.094	1.220	0.508
605.500	367.540	80.006	19.993	103.202	20.094	1.253	0.489
606.000	367.789	80.007	19.997	103.203	20.092	1.355	0.489
606.500	368.053	80.006	19.995	103.205	20.097	1.013	0.498
607.000	368.277	80.007	19.995	103.208	20.095	1.187	0.501
607.500	368.554	80.006	19.996	103.206	20.093	1.328	0.495
608.000	368.808	80.007	19.995	103.203	20.093	1.282	0.516
608.500	369.076	80.005	19.994	103.203	20.093	1.324	0.527
609.000	369.335	80.006	19.994	103.203	20.091	1.448	0.524
609.500	369.614	80.007	19.995	103.203	20.092	1.382	0.533
610.000	369.840	80.007	19.994	103.204	20.091	1.473	0.522
610.500	370.060	80.006	19.994	103.207	20.088	1.673	0.476
611.000	370.372	80.006	19.994	103.207	20.089	1.578	0.489
611.500	370.626	80.007	19.994	103.207	20.088	1.659	0.549
612.000	370.849	80.008	19.996	103.206	20.091	1.427	0.521
612.500	371.126	80.006	19.995	103.207	20.085	1.847	0.488
613.000	371.366	80.006	19.994	103.207	20.088	1.650	0.509
613.500	371.609	80.007	19.996	103.208	20.086	1.826	0.500
614.000	371.848	80.007	19.994	103.208	20.085	1.857	0.483
614.500	372.103	80.007	19.997	103.208	20.084	1.938	0.488
615.000	372.374	80.006	19.994	103.208	20.082	2.066	0.509
615.500	372.657	80.006	19.994	103.208	20.078	2.321	0.540
616.000	372.901	80.006	19.995	103.208	20.080	2.196	0.541
616.500	373.150	80.006	19.996	103.208	20.078	2.362	0.510
617.000	373.410	80.007	19.994	103.208	20.078	2.341	0.501
617.500	373.714	80.006	19.997	103.208	20.076	2.501	0.536
618.000	373.947	80.007	19.995	103.208	20.077	2.401	0.551
618.500	374.175	80.007	19.996	103.208	20.074	2.637	0.499
619.000	374.430	80.006	19.996	103.208	20.072	2.786	0.472
619.500	374.684	80.008	19.994	103.210	20.072	2.784	0.496
620.000	374.973	80.007	19.996	103.210	20.072	2.763	0.526
620.500	375.250	80.007	19.997	103.210	20.073	2.736	0.554
621.000	375.487	80.007	19.996	103.210	20.071	2.833	0.540
621.500	375.724	80.008	19.997	103.209	20.070	2.902	0.494
622.000	375.979	80.006	19.996	103.208	20.070	2.891	0.483
622.501	376.253	80.008	19.996	103.208	20.068	3.038	0.511
623.000	376.494	80.007	19.997	103.207	20.064	3.350	0.523
623.500	376.773	80.008	19.994	103.207	20.061	3.537	0.518
624.000	377.014	80.006	19.995	103.207	20.059	3.671	0.520
624.500	377.268	80.009	19.997	103.207	20.060	3.648	0.507
625.000	377.508	80.006	19.996	103.207	20.057	3.820	0.494
625.500	377.804	80.008	19.996	103.207	20.059	3.693	0.515
626.000	378.016	80.007	19.996	103.207	20.054	4.039	0.523
626.500	378.287	80.008	19.996	103.207	20.052	4.182	0.496
627.000	378.548	80.009	19.996	103.207	20.050	4.308	0.507
627.500	378.789	80.006	19.996	103.207	20.050	4.325	0.517
628.000	379.034	80.007	19.995	103.207	20.046	4.587	0.494
628.500	379.321	80.009	19.997	103.206	20.044	4.746	0.509
629.000	379.589	80.007	19.996	103.206	20.045	4.639	0.544
629.500	379.853	80.007	19.997	103.206	20.045	4.657	0.544
630.000	380.091	80.006	19.996	103.206	20.038	5.166	0.516
630.500	380.359	80.008	19.997	103.206	20.036	5.317	0.504
631.000	380.575	80.007	19.993	103.206	20.033	5.480	0.496
631.500	380.858	80.009	19.996	103.207	20.033	5.500	0.491
632.000	381.104	80.007	19.995	103.209	20.030	5.717	0.514
632.500	381.358	80.008	19.993	103.211	20.029	5.774	0.515
633.000	381.636	80.008	19.996	103.212	20.027	5.932	0.516
633.500	381.896	80.006	19.994	103.212	20.026	5.996	0.535
634.000	382.172	80.008	19.994	103.215	20.023	6.233	0.537
634.500	382.422	80.007	19.997	103.214	20.019	6.485	0.531
635.000	382.697	80.008	19.994	103.215	20.020	6.401	0.526
635.500	382.980	80.008	19.994	103.218	20.018	6.599	0.542
636.000	383.208	80.008	19.993	103.220	20.014	6.816	0.535
636.501	383.522	80.008	19.994	103.218	20.016	6.707	0.527
637.001	383.743	80.007	19.995	103.218	20.011	7.052	0.538
637.500	383.986	80.006	19.996	103.215	20.013	6.905	0.500
638.000	384.253	80.007	19.995	103.213	20.011	7.060	0.487
638.500	384.519	80.007	19.995	103.212	20.012	7.000	0.521
639.000	384.795	80.009	19.995	103.212	20.006	7.416	0.538
639.500	385.040	80.008	19.993	103.212	20.005	7.501	0.532
640.000	385.307	80.007	19.995	103.212	20.002	7.678	0.516
640.500	385.548	80.007	19.994	103.212	20.000	7.835	0.510
641.000	385.818	80.007	19.993	103.214	20.001	7.730	0.510
641.500	386.050	80.008	19.994	103.219	19.997	8.063	0.506
642.000	386.339	80.007	19.996	103.226	19.997	8.063	0.512
642.500	386.572	80.008	19.996	103.234	19.993	8.329	0.522
643.000	386.833	80.008	19.994	103.238	19.994	8.273	0.508
643.501	387.103	80.008	19.997	103.243	19.989	8.600	0.512
644.001	387.361	80.008	19.994	103.245	19.987	8.744	0.529
644.501	387.581	80.008	19.996	103.245	19.985	8.903	0.503
645.001	387.888	80.008	19.995	103.246	19.984	8.968	0.503
645.501	388.111	80.008	19.996	103.248	19.979	9.323	0.529
646.000	388.359	80.010	19.995	103.249	19.977	9.418	0.501
646.500	388.638	80.009	19.994	103.249	19.971	9.837	0.499
647.000	388.932	80.007	19.995	103.249	19.971	9.854	0.550
647.500	389.139	80.009	19.994	103.248	19.970	9.911	0.537
648.000	389.410	80.009	19.993	103.248	19.966	10.188	0.489
648.500	389.666	80.010	19.992	103.247	19.964	10.389	0.503
649.000	389.922	80.009	19.995	103.248	19.959	10.694	0.520
649.500	390.154	80.008	19.995	103.248	19.956	10.887	0.500
650.000	390.442	80.008	19.996	103.248	19.954	11.066	0.504
650.500	390.685	80.008	19.992	103.248	19.951	11.263	0.525
651.000	390.981	80.011	19.995	103.248	19.943	11.847	0.535
651.500	391.215	80.009	19.994	103.248	19.942	11.922	0.535
652.000	391.498	80.009	19.993	103.248	19.936	12.331	0.523
652.500	391.745	80.009	19.995	103.248	19.936	12.343	0.524
653.000	392.014	80.009	19.995	103.250	19.932	12.637	0.523
653.500	392.254	80.010	19.994	103.252	19.928	12.874	0.512
654.000	392.508	80.010	19.994	103.254	19.925	13.128	0.502
654.500	392.764	80.010	19.994	103.255	19.922	13.294	0.503
655.000	393.039	80.008	19.995	103.262	19.916	13.763	0.521
655.500	393.290	80.008	19.993	103.266	19.914	13.835	0.528
656.000	393.566	80.008	19.994	103.271	19.911	14.073	0.526
656.500	393.835	80.007	19.994	103.275	19.903	14.645	0.536
657.000	394.105	80.008	19.994	103.281	19.899	14.955	0.542
657.500	394.334	80.007	19.995	103.282	19.896	15.126	0.519
658.000	394.607	80.008	19.995	103.284	19.893	15.354	0.501
658.500	394.851	80.008	19.993	103.285	19.886	15.841	0.509
659.000	395.145	80.006	19.996	103.287	19.881	16.188	0.527
659.500	395.383	80.006	19.996	103.287	19.873	16.780	0.535
660.000	395.626	80.006	19.994	103.287	19.869	17.047	0.506
660.500	395.902	80.004	19.996	103.287	19.864	17.407	0.500
661.000	396.156	80.006	19.996	103.288	19.861	17.596	0.524
661.500	396.418	80.006	19.994	103.288	19.853	18.190	0.523
662.000	396.704	80.007	19.994	103.288	19.850	18.382	0.532
662.500	396.928	80.007	19.994	103.288	19.845	18.706	0.529
663.000	397.169	80.007	19.995	103.288	19.842	18.953	0.488
663.500	397.417	80.007	19.994	103.288	19.833	19.540	0.477
664.000	397.678	80.006	19.995	103.289	19.828	19.893	0.499
664.500	397.931	80.007	19.994	103.290	19.824	20.166	0.512
665.000	398.140	80.007	19.996	103.290	19.816	20.752	0.488
665.500	398.446	80.007	19.994	103.290	19.814	20.893	0.489
666.000	398.709	80.006	19.995	103.290	19.806	21.432	0.542
666.500	398.910	80.005	19.996	103.290	19.803	21.688	0.516
667.000	399.209	80.007	19.996	103.288	19.800	21.891	0.482
667.500	399.489	80.006	19.996	103.289	19.792	22.431	0.539
668.000	399.725	80.006	19.995	103.290	19.786	22.863	0.547
668.500	399.979	80.007	19.995	103.292	19.780	23.269	0.503
669.000	400.216	80.006	19.994	103.294	19.773	23.742	0.491
669.500	400.491	80.007	19.994	103.295	19.770	23.955	0.502
670.000	400.747	80.006	19.995	103.297	19.762	24.552	0.521
670.500	400.991	80.009	19.992	103.300	19.754	25.082	0.516
671.000	401.288	80.008	19.996	103.302	19.747	25.632	0.521
671.500	401.542	80.008	19.995	103.307	19.742	25.968	0.546
672.000	401.790	80.007	19.998	103.313	19.731	26.713	0.527
672.500	402.050	80.008	19.995	103.319	19.724	27.202	0.505
673.000	402.295	80.007	19.995	103.321	19.720	27.514	0.506
673.500	402.523	80.007	19.993	103.322	19.715	27.891	0.489
674.000	402.811	80.006	19.994	103.318	19.706	28.462	0.495
674.500	403.072	80.008	19.994	103.312	19.703	28.696	0.532
675.000	403.320	80.007	19.994	103.306	19.697	29.160	0.529
675.500	403.569	80.006	19.994	103.306	19.687	29.847	0.503
676.000	403.832	80.007	19.995	103.309	19.681	30.244	0.504
676.500	404.096	80.007	19.993	103.307	19.679	30.386	0.520
677.000	404.363	80.008	19.994	103.307	19.672	30.876	0.530
677.500	404.612	80.008	19.995	103.310	19.665	31.402	0.523
678.000	404.831	80.008	19.993	103.313	19.659	31.807	0.492
678.500	405.101	80.007	19.995	103.312	19.652	32.297	0.478
679.000	405.346	80.007	19.996	103.317	19.649	32.514	0.502
679.500	405.618	80.009	19.995	103.324	19.645	32.820	0.516
680.000	405.882	80.008	19.994	103.325	19.632	33.688	0.527
680.500	406.133	80.008	19.996	103.324	19.629	33.943	0.525
681.000	406.414	80.007	19.993	103.324	19.623	34.318	0.523
681.500	406.676	80.007	19.996	103.326	19.620	34.533	0.538
682.000	406.878	80.007	19.995	103.332	19.613	35.070	0.504
682.500	407.191	80.007	19.996	103.335	19.608	35.373	0.489
683.000	407.412	80.008	19.995	103.339	19.603	35.771	0.524
683.500	407.702	80.007	19.996	103.347	19.592	36.521	0.522
684.000	407.975	80.007	19.994	103.354	19.587	36.880	0.537
684.500	408.193	80.009	19.995	103.356	19.578	37.515	0.527
685.000	408.486	80.008	19.997	103.361	19.573	37.860	0.501
685.500	408.724	80.006	19.995	103.364	19.567	38.295	0.521
686.000	408.925	80.008	19.995	103.365	19.556	39.052	0.485
686.500	409.227	80.008	19.995	103.368	19.551	39.367	0.471
687.000	409.455	80.007	19.995	103.368	19.546	39.786	0.516
687.500	409.760	80.008	19.996	103.368	19.538	40.293	0.531
688.000	409.974	80.007	19.995	103.372	19.530	40.906	0.526
688.500	410.220	80.009	19.996	103.376	19.523	41.377	0.490
689.000	410.500	80.007	19.995	103.372	19.515	41.921	0.493
689.500	410.742	80.006	19.996	103.379	19.507	42.516	0.524
690.000	410.958	80.006	19.995	103.385	19.499	43.061	0.490
690.500	411.247	80.008	19.994	103.388	19.490	43.676	0.482
691.000	411.506	80.006	19.996	103.391	19.487	43.949	0.527
691.500	411.756	80.006	19.996	103.399	19.475	44.733	0.529
692.000	412.031	80.006	19.996	103.401	19.469	45.180	0.517
692.501	412.242	80.008	19.997	103.400	19.460	45.845	0.505
693.001	412.507	80.007	19.995	103.394	19.450	46.507	0.481
693.500	412.757	80.007	19.995	103.390	19.445	46.899	0.496
694.000	412.991	80.006	19.996	103.385	19.434	47.682	0.500
694.500	413.264	80.006	19.994	103.383	19.423	48.434	0.495
695.000	413.506	80.006	19.993	103.385	19.410	49.366	0.510
695.500	413.768	80.008	19.995	103.391	19.400	50.065	0.510
696.000	414.015	80.007	19.997	103.398	19.394	50.499	0.507
696.500	414.278	80.006	19.997	103.403	19.384	51.169	0.510
697.000	414.536	80.008	19.993	103.405	19.373	51.940	0.515
697.500	414.787	80.008	19.995	103.405	19.366	52.472	0.515
698.000	415.000	80.007	19.995	103.405	19.356	53.198	0.487
698.500	415.233	80.005	19.994	103.404	19.347	53.815	0.455
699.000	415.473	80.007	19.994	103.407	19.336	54.553	0.459
699.500	415.735	80.006	19.994	103.412	19.328	55.137	0.487
700.000	415.985	80.008	19.995	103.419	19.316	56.022	0.507
700.500	416.263	80.007	19.993	103.427	19.309	56.490	0.520
701.000	416.505	80.006	19.994	103.435	19.303	56.918	0.524
701.500	416.741	80.007	19.995	103.444	19.287	58.032	0.499
702.000	416.979	80.007	19.995	103.453	19.279	58.623	0.476
702.500	417.232	80.007	19.995	103.457	19.265	59.609	0.483
703.000	417.527	80.008	19.996	103.464	19.255	60.273	0.520
703.500	417.733	80.007	19.994	103.470	19.243	61.116	0.525
704.000	417.989	80.008	19.994	103.475	19.229	62.115	0.482
704.500	418.275	80.007	19.995	103.479	19.218	62.889	0.502
705.000	418.517	80.009	19.995	103.485	19.207	63.707	0.535
705.500	418.761	80.009	19.994	103.489	19.199	64.240	0.507
706.000	418.997	80.008	19.995	103.497	19.183	65.400	0.483
706.500	419.246	80.009	19.996	103.503	19.172	66.181	0.482
707.000	419.520	80.008	19.995	103.509	19.160	66.987	0.503
707.500	419.769	80.007	19.997	103.515	19.152	67.612	0.523
708.000	420.036	80.008	19.995	103.520	19.135	68.778	0.520
708.500	420.250	80.007	19.996	103.520	19.121	69.759	0.499
709.000	420.513	80.009	19.996	103.520	19.112	70.421	0.479
709.500	420.747	80.008	19.996	103.525	19.099	71.340	0.487
710.000	420.995	80.008	19.998	103.533	19.085	72.291	0.489
710.500	421.262	80.008	19.994	103.537	19.073	73.166	0.499
711.000	421.500	80.007	19.996	103.541	19.063	73.858	0.510
711.500	421.768	80.007	19.994	103.545	19.048	74.916	0.505
712.000	422.022	80.007	19.993	103.547	19.035	75.868	0.514
712.500	422.291	80.006	19.995	103.548	19.018	77.047	0.522
713.000	422.520	80.006	19.995	103.553	19.007	77.800	0.511
713.500	422.781	80.005	19.996	103.558	18.993	78.822	0.495
714.000	423.051	80.007	19.993	103.567	18.976	80.010	0.511
714.500	423.285	80.005	19.994	103.576	18.962	81.005	0.517
715.000	423.542	80.005	19.996	103.584	18.945	82.183	0.497
715.500	423.778	80.008	19.997	103.592	18.932	83.158	0.492
716.000	424.020	80.007	19.993	103.601	18.912	84.590	0.485
716.500	424.277	80.008	19.996	103.604	18.897	85.616	0.489
717.000	424.500	80.008	19.997	103.603	18.880	86.844	0.490
717.500	424.793	80.006	19.998	103.609	18.863	88.069	0.498
718.000	424.991	80.008	19.995	103.621	18.845	89.296	0.504
718.500	425.273	80.006	19.997	103.626	18.830	90.385	0.485
719.000	425.537	80.006	19.995	103.633	18.815	91.471	0.513
719.500	425.784	80.006	19.997	103.640	18.801	92.430	0.528
720.000	426.055	80.006	19.995	103.643	18.784	93.640	0.515
720.500	426.286	80.007	19.996	103.641	18.768	94.816	0.510
721.000	426.537	80.006	19.996	103.642	18.751	95.965	0.492
721.500	426.779	80.006	19.997	103.644	18.735	97.102	0.487
722.000	427.033	80.007	19.994	103.645	18.717	98.387	0.494
722.500	427.279	80.006	19.995	103.645	18.703	99.412	0.499
723.000	427.542	80.007	19.995	103.644	18.687	100.547	0.505
723.500	427.813	80.006	19.997	103.650	18.670	101.749	0.522
724.000	428.057	80.008	19.995	103.656	18.653	102.939	0.524
724.500	428.255	80.008	19.996	103.663	18.636	104.169	0.478
725.000	428.564	80.007	19.995	103.670	18.620	105.238	0.474
725.500	428.774	80.008	19.995	103.678	18.605	106.312	0.513
726.000	429.045	80.007	19.993	103.686	18.584	107.847	0.500
726.500	429.301	80.009	19.994	103.694	18.570	108.845	0.504
727.000	429.576	80.008	19.995	103.704	18.552	110.089	0.529
727.500	429.817	80.008	19.993	103.718	18.533	111.427	0.524
728.000	430.050	80.009	19.994	103.732	18.514	112.777	0.495
728.500	430.289	80.011	19.993	103.740	18.495	114.091	0.473
729.000	430.535	80.010	19.995	103.751	18.475	115.525	0.479
729.500	430.799	80.011	19.995	103.763	18.455	116.967	0.497
730.000	431.007	80.008	19.994	103.770	18.437	118.208	0.491
730.500	431.285	80.008	19.994	103.777	18.415	119.767	0.479
731.000	431.542	80.008	19.993	103.785	18.397	121.077	0.510
731.500	431.787	80.010	19.995	103.791	18.380	122.283	0.519
732.000	432.017	80.011	19.994	103.794	18.364	123.424	0.489
732.500	432.294	80.009	19.994	103.796	18.344	124.846	0.491
733.000	432.508	80.009	19.995	103.798	18.325	126.129	0.499
733.500	432.765	80.010	19.995	103.805	18.309	127.310	0.481
734.000	433.026	80.010	19.992	103.809	18.289	128.746	0.495
734.500	433.275	80.011	19.993	103.813	18.270	130.077	0.515
735.000	433.547	80.009	19.993	103.820	18.252	131.309	0.515
735.500	433.809	80.011	19.994	103.826	18.234	132.605	0.527
736.000	434.038	80.009	19.994	103.826	18.219	133.706	0.512
736.500	434.277	80.009	19.995	103.830	18.201	134.961	0.480
737.000	434.563	80.009	19.994	103.838	18.184	136.163	0.497
737.500	434.853	80.007	19.995	103.842	18.171	137.156	0.551
738.000	435.113	80.008	19.992	103.845	18.156	138.215	0.562
738.500	435.320	80.010	19.994	103.852	18.142	139.201	0.508
739.000	435.590	80.007	19.994	103.857	18.129	140.164	0.472
739.500	435.837	80.010	19.994	103.859	18.121	140.694	0.497
740.000	436.100	80.008	19.993	103.859	18.108	141.647	0.513
740.500	436.335	80.006	19.993	103.864	18.096	142.514	0.504
741.000	436.613	80.009	19.995	103.865	18.082	143.496	0.506
741.500	436.869	80.006	19.995	103.868	18.069	144.423	0.523
742.000	437.111	80.007	19.994	103.871	18.058	145.220	0.515
742.500	437.382	80.006	19.993	103.876	18.048	145.905	0.506
743.000	437.620	80.006	19.997	103.880	18.041	146.393	0.511
743.500	437.858	80.008	19.996	103.885	18.031	147.080	0.492
744.000	438.092	80.007	19.995	103.890	18.026	147.471	0.474
744.500	438.341	80.007	19.995	103.896	18.016	148.165	0.478
745.000	438.620	80.007	19.996	103.902	18.007	148.786	0.505
745.500	438.889	80.007	19.995	103.907	17.998	149.415	0.538
746.000	439.142	80.008	19.996	103.910	17.989	150.047	0.535
746.500	439.381	80.007	19.994	103.917	17.977	150.894	0.507
747.000	439.661	80.007	19.995	103.925	17.969	151.434	0.506
747.500	439.907	80.007	19.994	103.933	17.959	152.127	0.523
748.000	440.122	80.006	19.995	103.946	17.945	153.183	0.493
748.500	440.396	80.007	19.994	103.961	17.935	153.880	0.474
749.000	440.653	80.007	19.993	103.970	17.925	154.595	0.510
749.500	440.918	80.007	19.996	103.978	17.911	155.563	0.527
750.000	441.157	80.006	19.995	103.986	17.901	156.320	0.513
750.500	441.387	80.008	19.995	103.993	17.887	157.311	0.487
751.000	441.624	80.008	19.995	103.999	17.878	157.973	0.469
751.500	441.882	80.006	19.995	104.007	17.862	159.073	0.481
752.000	442.141	80.006	19.996	104.014	17.854	159.690	0.506
752.500	442.392	80.007	19.996	104.022	17.844	160.376	0.513
753.000	442.662	80.007	19.997	104.025	17.835	160.983	0.516
753.500	442.976	80.006	19.996	104.025	17.823	161.832	0.553
754.000	443.213	80.008	19.995	104.025	17.812	162.661	0.567
754.500	443.421	80.008	19.993	104.022	17.803	163.295	0.499
755.000	443.690	80.008	19.994	104.018	17.790	164.181	0.461
755.500	443.923	80.007	19.996	104.014	17.781	164.800	0.490
756.000	444.128	80.008	19.993	104.013	17.774	165.360	0.470
756.500	444.415	80.008	19.996	104.007	17.765	166.003	0.465
757.000	444.690	80.007	19.996	104.002	17.753	166.839	0.527
757.500	444.960	80.007	19.994	103.999	17.743	167.532	0.553
758.000	445.212	80.007	19.995	103.996	17.733	168.273	0.533
758.500	445.470	80.008	19.995	103.992	17.724	168.854	0.516
759.000	445.693	80.008	19.995	103.997	17.716	169.439	0.496
759.500	445.938	80.006	19.996	104.003	17.710	169.822	0.474
760.000	446.233	80.007	19.994	104.012	17.704	170.279	0.504
760.500	446.408	80.008	19.995	104.021	17.698	170.704	0.505
761.000	446.694	80.007	19.994	104.032	17.690	171.276	0.466
761.500	446.949	80.007	19.993	104.038	17.687	171.429	0.501
762.000	447.175	80.007	19.993	104.039	17.678	172.055	0.511
762.500	447.473	80.006	19.994	104.044	17.676	172.222	0.502
763.000	447.715	80.009	19.994	104.046	17.671	172.567	0.532
763.500	447.967	80.006	19.992	104.046	17.667	172.843	0.517
764.000	448.226	80.007	19.991	104.047	17.660	173.326	0.502
764.500	448.471	80.006	19.991	104.051	17.660	173.352	0.507
765.000	448.735	80.008	19.995	104.052	17.657	173.526	0.506
765.500	448.977	80.008	19.994	104.051	17.655	173.634	0.507
766.000	449.265	80.009	19.993	104.050	17.653	173.784	0.518
766.500	449.545	80.008	19.994	104.052	17.655	173.656	0.549
767.000	449.746	80.006	19.994	104.054	17.654	173.688	0.524
767.500	449.995	80.007	19.992	104.056	17.654	173.727	0.466
768.000	450.282	80.008	19.994	104.059	17.654	173.735	0.493
768.500	450.489	80.009	19.994	104.062	17.660	173.287	0.515
769.000	450.760	80.007	19.992	104.059	17.660	173.290	0.485
769.500	451.032	80.006	19.994	104.055	17.664	172.965	0.510
770.000	451.296	80.006	19.994	104.052	17.671	172.459	0.540
770.500	451.532	80.008	19.995	104.047	17.674	172.256	0.518
771.000	451.746	80.005	19.994	104.043	17.682	171.655	0.475
771.500	452.027	80.007	19.994	104.041	17.689	171.149	0.472
772.000	452.293	80.007	19.993	104.038	17.698	170.528	0.521
772.500	452.513	80.005	19.993	104.034	17.706	169.956	0.517
773.000	452.779	80.008	19.992	104.032	17.719	169.009	0.486
773.500	453.064	80.007	19.995	104.027	17.729	168.295	0.518
774.000	453.332	80.006	19.992	104.026	17.740	167.479	0.552
774.500	453.553	80.007	19.996	104.024	17.755	166.434	0.522
775.000	453.819	80.007	19.995	104.021	17.769	165.409	0.488
775.500	454.076	80.008	19.994	104.016	17.784	164.318	0.505
776.000	454.335	80.006	19.994	104.011	17.796	163.454	0.519
776.500	454.574	80.007	19.994	104.005	17.812	162.305	0.507
777.000	454.836	80.006	19.996	103.999	17.829	161.122	0.500
777.500	455.087	80.005	19.995	103.994	17.844	160.049	0.507
778.000	455.370	80.005	19.993	103.992	17.862	158.719	0.523
778.501	455.607	80.005	19.996	103.990	17.883	157.261	0.527
779.001	455.892	80.005	19.993	103.986	17.901	155.956	0.521
779.500	456.170	80.006	19.995	103.979	17.922	154.451	0.542
780.000	456.409	80.006	19.995	103.971	17.944	152.939	0.540
780.500	456.645	80.005	19.995	103.963	17.966	151.360	0.496
781.000	456.865	80.006	19.995	103.956	17.989	149.735	0.466
781.500	457.154	80.006	19.994	103.952	18.012	148.080	0.482
782.000	457.396	80.008	19.994	103.950	18.035	146.419	0.520
782.500	457.675	80.008	19.993	103.948	18.063	144.488	0.526
783.000	457.899	80.006	19.995	103.942	18.085	142.915	0.512
783.500	458.182	80.007	19.996	103.934	18.113	140.900	0.505
784.000	458.440	80.007	19.995	103.927	18.139	139.052	0.524
784.500	458.703	80.006	19.996	103.917	18.167	137.073	0.530
785.000	458.955	80.008	19.996	103.903	18.194	135.168	0.518
785.500	459.209	80.008	19.996	103.894	18.222	133.116	0.511
786.000	459.469	80.008	19.994	103.884	18.252	131.051	0.510
786.500	459.724	80.007	19.995	103.871	18.283	128.854	0.515
787.000	460.000	80.008	19.994	103.860	18.313	126.682	0.523
787.500	460.241	80.007	19.996	103.852	18.341	124.743	0.524
788.000	460.514	80.009	19.993	103.840	18.371	122.578	0.515
788.500	460.792	80.009	19.994	103.827	18.397	120.729	0.532
789.000	461.072	80.009	19.995	103.818	18.429	118.466	0.554
789.500	461.295	80.008	19.995	103.809	18.461	116.262	0.531
790.000	461.565	80.008	19.993	103.799	18.492	114.083	0.498
790.500	461.796	80.007	19.991	103.793	18.521	112.026	0.497
791.000	462.050	80.010	19.994	103.788	18.552	109.825	0.493
791.500	462.302	80.009	19.994	103.779	18.585	107.469	0.496
792.000	462.582	80.008	19.994	103.771	18.615	105.381	0.519
792.500	462.816	80.008	19.994	103.766	18.648	103.045	0.523
793.000	463.053	80.008	19.994	103.754	18.684	100.514	0.492
793.500	463.339	80.009	19.996	103.742	18.714	98.353	0.497
794.000	463.598	80.008	19.995	103.730	18.753	95.617	0.534
794.500	463.814	80.010	19.994	103.715	18.789	93.063	0.510
795.000	464.090	80.007	19.996	103.699	18.826	90.462	0.484
795.500	464.354	80.008	19.994	103.689	18.859	88.124	0.516
796.000	464.608	80.008	19.994	103.679	18.892	85.825	0.529
796.500	464.851	80.009	19.996	103.668	18.924	83.556	0.507
797.000	465.091	80.008	19.994	103.660	18.958	81.136	0.490
797.500	465.355	80.005	19.995	103.651	18.990	78.858	0.493
798.000	465.608	80.009	19.994	103.642	19.019	76.802	0.511
798.500	465.855	80.007	19.994	103.632	19.051	74.554	0.509
799.000	466.144	80.007	19.995	103.625	19.084	72.250	0.518
799.500	466.410	80.007	19.996	103.619	19.113	70.193	0.545
800.000	466.649	80.008	19.996	103.612	19.144	68.030	0.530
800.500	466.929	80.008	19.995	103.605	19.173	65.987	0.512
801.000	467.237	80.007	19.994	103.602	19.199	64.186	0.553
801.500	467.458	80.009	19.995	103.599	19.225	62.290	0.559
802.000	467.718	80.006	19.996	103.596	19.251	60.487	0.505
802.500	468.005	80.007	19.997	103.590	19.276	58.720	0.514
803.000	468.225	80.007	19.995	103.584	19.302	56.893	0.527
803.500	468.496	80.007	19.994	103.575	19.327	55.129	0.499
804.000	468.756	80.007	19.995	103.568	19.350	53.506	0.510
804.500	468.988	80.008	19.994	103.558	19.374	51.860	0.511
805.000	469.238	80.008	19.996	103.547	19.395	50.364	0.488
805.500	469.507	80.007	19.995	103.538	19.412	49.127	0.501
806.000	469.790	80.008	19.997	103.524	19.438	47.338	0.535
806.500	470.009	80.008	19.995	103.508	19.457	45.964	0.527
807.000	470.272	80.008	19.996	103.496	19.476	44.623	0.492
807.500	470.564	80.005	19.994	103.487	19.496	43.218	0.518
808.001	470.776	80.008	19.998	103.477	19.515	41.942	0.530
808.500	471.072	80.008	19.995	103.469	19.532	40.683	0.506
809.000	471.347	80.009	19.997	103.462	19.551	39.372	0.540
809.500	471.594	80.008	19.995	103.453	19.571	37.960	0.547
810.000	471.857	80.006	19.996	103.446	19.583	37.147	0.516
810.500	472.094	80.008	19.994	103.441	19.595	36.243	0.505
811.000	472.362	80.009	19.994	103.436	19.613	34.993	0.503
811.500	472.570	80.008	19.995	103.433	19.629	33.855	0.490
812.000	472.841	80.009	19.995	103.426	19.645	32.730	0.477
812.500	473.123	80.010	19.994	103.420	19.660	31.739	0.516
813.000	473.388	80.009	19.995	103.412	19.668	31.126	0.550
813.500	473.642	80.008	19.996	103.406	19.685	29.928	0.533
814.000	473.934	80.008	19.995	103.399	19.699	28.975	0.533
814.500	474.145	80.008	19.994	103.393	19.709	28.276	0.524
815.000	474.436	80.008	19.996	103.387	19.719	27.543	0.503
815.500	474.702	80.004	19.995	103.381	19.734	26.530	0.529
816.000	474.943	80.009	19.995	103.374	19.745	25.732	0.532
816.500	475.236	80.008	19.995	103.368	19.756	24.966	0.521
817.000	475.463	80.009	19.995	103.364	19.766	24.288	0.527
817.500	475.731	80.007	19.993	103.362	19.776	23.586	0.507
818.000	475.988	80.008	19.997	103.359	19.785	22.943	0.510
818.500	476.250	80.007	19.994	103.358	19.792	22.418	0.522
819.000	476.495	80.009	19.995	103.352	19.802	21.757	0.513
819.500	476.729	80.007	19.995	103.344	19.815	20.848	0.493
820.000	477.003	80.009	19.994	103.337	19.823	20.238	0.493
820.500	477.262	80.006	19.996	103.331	19.834	19.504	0.520
821.000	477.495	80.008	19.995	103.324	19.841	19.003	0.513
821.500	477.801	80.008	19.996	103.321	19.852	18.224	0.516
822.000	478.027	80.007	19.995	103.320	19.863	17.466	0.536
822.500	478.305	80.006	19.993	103.321	19.869	16.996	0.518
823.000	478.561	80.008	19.994	103.319	19.877	16.465	0.519
823.500	478.817	80.007	19.994	103.315	19.882	16.102	0.523
824.000	479.021	80.007	19.995	103.313	19.888	15.671	0.486
824.500	479.275	80.007	19.994	103.313	19.896	15.103	0.459
825.000	479.560	80.006	19.994	103.309	19.904	14.560	0.498
825.500	479.797	80.008	19.994	103.304	19.910	14.149	0.531
826.000	480.055	80.006	19.995	103.302	19.915	13.766	0.508
826.500	480.316	80.007	19.994	103.297	19.924	13.169	0.507
827.000	480.575	80.008	19.994	103.292	19.931	12.679	0.520
827.500	480.806	80.008	19.994	103.289	19.933	12.530	0.506
828.000	481.095	80.007	19.995	103.288	19.939	12.115	0.505
828.500	481.333	80.006	19.995	103.286	19.946	11.586	0.523
829.000	481.608	80.007	19.994	103.285	19.952	11.162	0.520
829.500	481.869	80.005	19.994	103.285	19.959	10.678	0.525
830.000	482.101	80.006	19.994	103.285	19.962	10.461	0.515
830.500	482.379	80.007	19.993	103.286	19.966	10.203	0.501
831.000	482.618	80.007	19.994	103.286	19.973	9.696	0.514
831.500	482.853	80.009	19.993	103.285	19.971	9.837	0.496
832.000	483.124	80.005	19.994	103.282	19.981	9.192	0.490
832.500	483.387	80.006	19.993	103.282	19.984	8.973	0.520
833.001	483.641	80.007	19.994	103.280	19.986	8.789	0.526
833.501	483.901	80.007	19.994	103.274	19.991	8.454	0.516
834.001	484.154	80.005	19.995	103.270	19.995	8.149	0.513
834.500	484.415	80.007	19.995	103.266	20.001	7.754	0.513
835.000	484.694	80.007	19.994	103.259	20.007	7.304	0.527
835.500	484.947	80.005	19.996	103.254	20.008	7.234	0.537
836.000	485.235	80.006	19.994	103.253	20.012	6.963	0.536
836.500	485.502	80.007	19.993	103.251	20.015	6.787	0.547
837.000	485.743	80.006	19.994	103.250	20.019	6.500	0.531
837.500	486.027	80.006	19.995	103.249	20.019	6.486	0.517
838.000	486.246	80.008	19.994	103.249	20.025	6.051	0.514
838.500	486.536	80.007	19.995	103.249	20.029	5.799	0.506
839.000	486.754	80.007	19.995	103.248	20.033	5.511	0.509
839.500	487.051	80.008	19.995	103.248	20.029	5.762	0.511
840.000	487.238	80.008	19.993	103.248	20.034	5.456	0.499
840.500	487.562	80.005	19.994	103.248	20.041	4.982	0.498
841.000	487.745	80.007	19.995	103.246	20.042	4.906	0.509
841.500	488.037	80.007	19.993	103.245	20.043	4.800	0.491
842.000	488.299	80.007	19.994	103.245	20.044	4.749	0.515
842.500	488.544	80.006	19.993	103.243	20.050	4.302	0.531
843.000	488.842	80.006	19.994	103.241	20.050	4.310	0.525
843.500	489.060	80.006	19.994	103.239	20.054	4.021	0.529
844.000	489.375	80.005	19.994	103.240	20.058	3.776	0.524
844.500	489.589	80.006	19.994	103.237	20.060	3.590	0.531
845.000	489.877	80.005	19.994	103.233	20.060	3.630	0.516
845.500	490.062	80.003	19.994	103.229	20.063	3.392	0.487
846.000	490.378	80.007	19.993	103.228	20.067	3.144	0.487
846.500	490.583	80.005	19.994	103.222	20.066	3.222	0.511
847.000	490.861	80.007	19.994	103.218	20.073	2.728	0.502
847.500	491.101	80.007	19.994	103.217	20.072	2.767	0.501
848.000	491.373	80.006	19.994	103.215	20.075	2.589	0.515
848.500	491.645	80.007	19.995	103.215	20.075	2.558	0.528
849.000	491.918	80.007	19.995	103.215	20.075	2.542	0.545
849.500	492.160	80.006	19.995	103.215	20.076	2.469	0.530
850.000	492.435	80.006	19.993	103.216	20.078	2.383	0.516
850.500	492.700	80.007	19.993	103.216	20.082	2.045	0.529
851.001	492.918	80.008	19.994	103.214	20.083	2.025	0.512
851.501	493.186	80.007	19.994	103.214	20.083	2.037	0.485
852.001	493.459	80.005	19.994	103.214	20.083	1.983	0.513
852.501	493.713	80.008	19.994	103.213	20.088	1.646	0.533
853.000	493.951	80.006	19.995	103.213	20.089	1.553	0.509
853.500	494.224	80.007	19.995	103.212	20.093	1.318	0.501
854.000	494.479	80.006	19.993	103.212	20.093	1.315	0.519
854.500	494.733	80.005	19.994	103.212	20.094	1.258	0.519
855.000	495.009	80.006	19.993	103.212	20.094	1.256	0.520
855.500	495.280	80.004	19.995	103.212	20.098	0.920	0.539
856.000	495.512	80.006	19.993	103.213	20.097	1.018	0.525
856.500	495.781	80.008	19.995	103.213	20.098	0.960	0.502
857.000	496.033	80.006	19.994	103.213	20.101	0.740	0.511
857.500	496.284	80.007	19.994	103.213	20.099	0.865	0.513
858.000	496.593	80.008	19.993	103.212	20.103	0.588	0.531
858.500	496.827	80.007	19.995	103.211	20.103	0.579	0.551
859.000	497.090	80.007	19.994	103.210	20.103	0.629	0.520
859.500	497.365	80.007	19.994	103.210	20.107	0.296	0.518
860.000	497.622	80.007	19.994	103.209	20.107	0.314	0.535
860.500	497.868	80.008	19.994	103.209	20.111	0.060	0.517
861.000	498.132	80.005	19.994	103.208	20.110	0.106	0.507
861.500	498.401	80.006	19.993	103.208	20.111	0.066	0.522
862.000	498.635	80.006	19.995	103.207	20.112	-0.039	0.518
862.500	498.925	80.005	19.994	103.207	20.113	-0.120	0.513
863.000	499.141	80.005	19.994	103.207	20.113	-0.110	0.515
863.500	499.428	80.007	19.994	103.206	20.117	-0.374	0.505
864.000	499.660	80.009	19.994	103.202	20.117	-0.375	0.511
864.500	499.953	80.007	19.994	103.200	20.115	-0.244	0.522
865.000	500.185	80.008	19.995	103.200	20.117	-0.393	0.525
865.500	500.444	80.008	19.995	103.197	20.115	-0.240	0.508
866.000	500.718	80.008	19.994	103.197	20.118	-0.455	0.512
866.500	500.954	80.009	19.996	103.198	20.119	-0.523	0.521
867.000	501.234	80.008	19.994	103.200	20.122	-0.755	0.513
867.500	501.488	80.007	19.995	103.197	20.121	-0.644	0.525
868.000	501.708	80.008	19.994	103.197	20.121	-0.674	0.503
868.500	501.977	80.009	19.993	103.194	20.121	-0.631	0.482
869.000	502.248	80.008	19.994	103.194	20.125	-0.935	0.515
869.500	502.525	80.010	19.994	103.189	20.120	-0.614	0.544
870.000	502.745	80.007	19.993	103.187	20.121	-0.685	0.522
870.500	503.045	80.007	19.995	103.181	20.124	-0.859	0.508
871.000	503.261	80.007	19.994	103.177	20.126	-0.997	0.518
871.500	503.495	80.007	19.994	103.173	20.125	-0.944	0.483
872.000	503.768	80.006	19.995	103.175	20.126	-0.981	0.478
872.500	504.061	80.008	19.995	103.176	20.126	-1.020	0.536
873.000	504.267	80.006	19.996	103.176	20.129	-1.208	0.532
873.500	504.591	80.008	19.995	103.177	20.128	-1.163	0.515
874.000	504.834	80.006	19.995	103.179	20.126	-1.020	0.549
874.500	505.090	80.008	19.996	103.179	20.127	-1.086	0.533
875.000	505.343	80.008	19.994	103.176	20.128	-1.132	0.504
875.500	505.577	80.008	19.995	103.175	20.130	-1.291	0.498
876.000	505.861	80.007	19.996	103.174	20.128	-1.148	0.502
876.500	506.139	80.006	19.994	103.172	20.132	-1.434	0.540
877.000	506.386	80.008	19.996	103.168	20.129	-1.215	0.543
877.500	506.623	80.008	19.996	103.169	20.132	-1.428	0.505
878.000	506.910	80.006	19.996	103.169	20.133	-1.529	0.505
878.500	507.141	80.007	19.995	103.170	20.133	-1.510	0.521
879.000	507.353	80.007	19.996	103.169	20.133	-1.510	0.481
879.500	507.636	80.008	19.995	103.168	20.131	-1.368	0.469
880.000	507.958	80.007	19.995	103.168	20.130	-1.270	0.550
880.500	508.145	80.006	19.995	103.168	20.129	-1.217	0.557
881.000	508.471	80.005	19.996	103.167	20.133	-1.513	0.511
881.500	508.686	80.007	19.995	103.167	20.134	-1.570	0.527
882.000	508.899	80.009	19.995	103.167	20.133	-1.498	0.485
882.500	509.217	80.008	19.995	103.167	20.135	-1.649	0.480
883.000	509.449	80.006	19.994	103.167	20.135	-1.676	0.540
883.500	509.695	80.008	19.995	103.167	20.134	-1.579	0.514
884.000	509.961	80.008	19.994	103.167	20.132	-1.469	0.495
884.500	510.208	80.008	19.994	103.167	20.136	-1.695	0.512
885.000	510.465	80.007	19.996	103.167	20.134	-1.593	0.509
885.501	510.729	80.008	19.995	103.167	20.134	-1.602	0.513
886.001	510.974	80.008	19.994	103.167	20.132	-1.451	0.515
886.500	511.218	80.008	19.994	103.167	20.136	-1.711	0.499
887.000	511.503	80.007	19.996	103.166	20.139	-1.891	0.509
887.500	511.750	80.009	19.995	103.165	20.136	-1.711	0.531
888.000	512.006	80.008	19.995	103.165	20.138	-1.868	0.517
888.500	512.213	80.008	19.995	103.165	20.133	-1.519	0.483
889.000	512.476	80.008	19.995	103.165	20.136	-1.711	0.466
889.500	512.760	80.007	19.994	103.166	20.141	-2.038	0.509
890.000	512.988	80.008	19.994	103.167	20.138	-1.860	0.530
890.500	513.328	80.008	19.994	103.167	20.136	-1.692	0.540
891.000	513.480	80.009	19.995	103.167	20.135	-1.639	0.530
891.500	513.833	80.006	19.995	103.167	20.140	-2.007	0.498
892.000	514.124	80.010	19.995	103.167	20.136	-1.726	0.575
892.500	514.285	80.009	19.994	103.166	20.135	-1.612	0.548
893.000	514.629	80.009	19.994	103.165	20.133	-1.515	0.478
893.500	514.861	80.007	19.994	103.166	20.136	-1.711	0.541
894.000	515.118	80.008	19.995	103.166	20.133	-1.481	0.533
894.500	515.343	80.008	19.994	103.166	20.141	-2.090	0.486
895.000	515.646	80.007	19.994	103.167	20.135	-1.610	0.505
895.500	515.898	80.009	19.995	103.168	20.140	-1.978	0.541
896.000	516.160	80.010	19.995	103.166	20.141	-2.052	0.535
896.500	516.411	80.008	19.995	103.162	20.139	-1.914	0.513
897.000	516.631	80.009	19.995	103.162	20.141	-2.059	0.492
897.500	516.954	80.009	19.996	103.162	20.143	-2.181	0.507
898.000	517.138	80.007	19.994	103.162	20.138	-1.870	0.525
898.500	517.448	80.008	19.995	103.165	20.142	-2.110	0.500
899.000	517.683	80.006	19.994	103.168	20.141	-2.038	0.520
899.500	518.028	80.007	19.995	103.169	20.142	-2.127	0.563
900.000	518.182	80.007	19.995	103.169	20.142	-2.139	0.539
900.500	518.431	80.007	19.995	103.170	20.138	-1.831	0.451
901.000	518.759	80.006	19.996	103.170	20.139	-1.955	0.490
901.500	518.986	80.006	19.994	103.170	20.143	-2.212	0.567
902.000	519.284	80.007	19.995	103.170	20.142	-2.166	0.540
902.500	519.494	80.007	19.993	103.170	20.144	-2.264	0.517
903.000	519.761	80.005	19.996	103.169	20.145	-2.348	0.493
903.500	520.038	80.006	19.996	103.169	20.140	-2.024	0.510
904.000	520.324	80.002	19.996	103.169	20.141	-2.048	0.553
904.500	520.477	80.004	19.997	103.168	20.139	-1.937	0.501
905.000	520.818	80.007	19.995	103.169	20.149	-2.636	0.467
905.500	521.116	80.005	19.995	103.169	20.140	-2.030	0.566
906.000	521.303	80.007	19.996	103.169	20.142	-2.154	0.561
906.500	521.581	80.005	19.994	103.168	20.149	-2.615	0.475
907.000	521.784	80.007	19.995	103.169	20.138	-1.850	0.473
907.500	522.081	80.005	19.995	103.169	20.143	-2.185	0.491
908.000	522.246	80.008	19.995	103.169	20.142	-2.108	0.481
908.500	522.672	80.007	19.996	103.170	20.149	-2.659	0.526
909.000	522.863	80.005	19.994	103.170	20.140	-1.968	0.604
909.500	523.106	80.005	19.995	103.169	20.139	-1.959	0.526
910.000	523.452	80.008	19.995	103.169	20.140	-2.013	0.512
910.500	523.562	80.006	19.994	103.168	20.149	-2.599	0.523
911.000	523.953	80.006	19.995	103.169	20.144	-2.270	0.478
911.500	524.233	80.005	19.995	103.169	20.139	-1.920	0.586
912.000	524.319	80.006	19.994	103.170	20.143	-2.210	0.518
912.500	524.635	80.006	19.995	103.171	20.147	-2.456	0.384
913.000	524.983	80.006	19.995	103.172	20.140	-2.026	0.533
913.500	525.294	80.006	19.994	103.172	20.148	-2.530	0.662
914.000	525.490	80.007	19.994	103.172	20.145	-2.375	0.583
914.500	525.564	80.007	19.994	103.172	20.141	-2.069	0.388
915.000	525.876	80.006	19.993	103.172	20.144	-2.276	0.328
915.500	526.239	80.006	19.994	103.172	20.144	-2.274	0.531
916.000	526.528	80.005	19.994	103.172	20.144	-2.286	0.664
916.500	526.741	80.007	19.994	103.172	20.147	-2.467	0.577
917.000	526.989	80.006	19.994	103.172	20.145	-2.318	0.481
917.500	527.213	80.006	19.994	103.170	20.141	-2.051	0.466
918.000	527.446	80.005	19.993	103.168	20.147	-2.520	0.465
918.500	527.629	80.005	19.993	103.167	20.150	-2.671	0.437
919.000	528.120	80.006	19.995	103.167	20.150	-2.725	0.545
919.500	527.825	80.006	19.994	103.166	20.142	-2.133	0.435
920.000	528.566	80.008	19.994	103.168	20.146	-2.423	0.321
920.500	529.054	80.007	19.995	103.170	20.144	-2.276	0.838
921.000	528.621	80.009	19.994	103.171	20.144	-2.241	0.642
921.500	529.175	80.008	19.995	103.170	20.143	-2.177	0.088
922.000	529.671	80.007	19.995	103.171	20.143	-2.201	0.585
922.500	530.403	80.008	19.993	103.169	20.145	-2.346	1.139
923.000	530.231	80.007	19.994	103.168	20.142	-2.164	0.894
923.500	530.226	80.010	19.993	103.168	20.148	-2.547	0.192
924.000	530.152	80.007	19.994	103.169	20.148	-2.551	-0.128
924.500	531.170	80.007	19.994	103.168	20.145	-2.330	0.433
925.000	531.094	80.008	19.993	103.167	20.147	-2.512	0.943
925.500	531.088	80.006	19.994	103.168	20.145	-2.375	0.430
926.000	531.733	80.008	19.993	103.167	20.145	-2.363	0.278
926.500	532.053	80.006	19.995	103.165	20.144	-2.305	0.802
927.000	531.878	80.005	19.994	103.162	20.146	-2.433	0.555
927.500	532.692	80.007	19.995	103.163	20.146	-2.407	0.392
928.000	532.546	80.008	19.994	103.163	20.146	-2.409	0.653
928.500	532.921	80.008	19.995	103.163	20.145	-2.313	0.448
929.000	533.444	80.008	19.994	103.164	20.146	-2.423	0.564
929.500	533.441	80.007	19.995	103.167	20.145	-2.377	0.710
930.000	533.623	80.006	19.994	103.167	20.147	-2.475	0.350
930.500	533.903	80.007	19.995	103.167	20.148	-2.560	0.320
931.000	534.356	80.007	19.994	103.167	20.148	-2.570	0.597
931.500	534.452	80.006	19.994	103.167	20.147	-2.485	0.641
932.000	534.783	80.008	19.994	103.168	20.149	-2.632	0.488
932.500	535.190	80.006	19.995	103.168	20.148	-2.584	0.582
933.000	535.335	80.006	19.994	103.168	20.147	-2.500	0.645
933.500	535.547	80.007	19.995	103.168	20.149	-2.628	0.454
934.000	535.939	80.006	19.995	103.168	20.148	-2.572	0.480
934.500	536.100	80.007	19.995	103.168	20.150	-2.727	0.579
935.000	536.388	80.006	19.996	103.168	20.148	-2.576	0.501
935.500	536.667	80.006	19.995	103.169	20.149	-2.626	0.508
936.001	536.858	80.006	19.995	103.167	20.149	-2.618	0.519
936.500	537.160	80.006	19.995	103.167	20.149	-2.636	0.482
937.000	537.489	80.006	19.995	103.166	20.150	-2.688	0.562
937.500	537.839	80.006	19.995	103.165	20.153	-2.887	0.655
938.000	537.979	80.006	19.995	103.161	20.150	-2.725	0.584
938.501	538.187	80.004	19.994	103.162	20.154	-2.972	0.419
939.001	538.585	80.006	19.996	103.162	20.152	-2.835	0.477
939.500	538.845	80.006	19.995	103.164	20.152	-2.821	0.632
940.000	539.038	80.007	19.995	103.165	20.152	-2.852	0.556
940.500	539.337	80.007	19.994	103.168	20.150	-2.676	0.472
941.000	539.662	80.006	19.994	103.164	20.149	-2.657	0.558
941.500	539.865	80.006	19.995	103.162	20.151	-2.750	0.576
942.000	540.147	80.008	19.996	103.162	20.153	-2.920	0.507
942.500	540.453	80.007	19.994	103.161	20.152	-2.822	0.537
943.000	540.726	80.008	19.994	103.162	20.154	-2.998	0.584
943.500	540.951	80.008	19.994	103.167	20.151	-2.742	0.538
944.000	541.274	80.008	19.994	103.168	20.152	-2.868	0.523
944.500	541.521	80.007	19.994	103.167	20.151	-2.760	0.559
945.000	541.745	80.008	19.995	103.165	20.150	-2.705	0.521
945.500	542.037	80.008	19.994	103.163	20.149	-2.649	0.493
946.000	542.400	80.008	19.994	103.161	20.152	-2.839	0.585
946.500	542.595	80.008	19.993	103.160	20.150	-2.696	0.607
947.000	542.884	80.009	19.993	103.161	20.155	-3.065	0.521
947.500	543.159	80.008	19.995	103.161	20.151	-2.766	0.524
948.000	543.426	80.008	19.993	103.162	20.152	-2.849	0.553
948.500	543.695	80.009	19.994	103.163	20.151	-2.750	0.539
949.000	543.951	80.009	19.995	103.163	20.156	-3.114	0.531
949.500	544.220	80.010	19.995	103.159	20.157	-3.183	0.525
950.000	544.498	80.010	19.994	103.158	20.155	-3.063	0.536
950.500	544.784	80.010	19.994	103.154	20.151	-2.738	0.556
951.000	545.005	80.009	19.994	103.155	20.152	-2.847	0.536
951.500	545.305	80.008	19.996	103.156	20.154	-3.002	0.514
952.000	545.545	80.010	19.994	103.160	20.150	-2.725	0.530
952.500	545.878	80.009	19.995	103.162	20.151	-2.773	0.556
953.001	546.152	80.009	19.994	103.165	20.150	-2.717	0.590
953.501	546.374	80.009	19.993	103.163	20.153	-2.885	0.552
954.000	546.671	80.010	19.993	103.162	20.155	-3.044	0.507
954.500	546.911	80.009	19.994	103.159	20.153	-2.907	0.528
955.000	547.170	80.009	19.995	103.159	20.155	-3.042	0.518
955.500	547.484	80.009	19.995	103.161	20.154	-3.009	0.536
956.000	547.789	80.008	19.993	103.162	20.155	-3.038	0.596
956.500	548.046	80.008	19.994	103.163	20.155	-3.054	0.590
957.000	548.291	80.007	19.995	103.165	20.153	-2.889	0.532
957.500	548.559	80.008	19.993	103.166	20.156	-3.131	0.508
958.000	548.821	80.007	19.993	103.163	20.156	-3.118	0.522
958.500	549.063	80.007	19.994	103.164	20.157	-3.209	0.517
959.000	549.326	80.008	19.995	103.160	20.158	-3.257	0.504
959.500	549.640	80.007	19.995	103.156	20.157	-3.215	0.541
960.000	549.927	80.007	19.994	103.156	20.157	-3.164	0.589
960.500	550.198	80.007	19.993	103.158	20.156	-3.096	0.579
961.000	550.460	80.007	19.994	103.159	20.159	-3.313	0.545
961.500	550.735	80.006	19.994	103.164	20.157	-3.187	0.535
962.000	550.944	80.006	19.998	103.167	20.160	-3.431	0.511
962.500	551.281	80.007	19.994	103.163	20.156	-3.137	0.515
963.000	551.524	80.007	19.993	103.160	20.156	-3.147	0.563
963.500	551.814	80.005	19.994	103.160	20.158	-3.263	0.557
964.000	552.041	80.007	19.995	103.160	20.154	-2.978	0.525
964.500	552.339	80.008	19.995	103.162	20.152	-2.827	0.521
965.000	552.597	80.006	19.994	103.164	20.152	-2.850	0.541
965.500	552.838	80.006	19.994	103.168	20.152	-2.835	0.528
966.000	553.116	80.007	19.994	103.168	20.153	-2.937	0.509
966.500	553.410	80.007	19.994	103.165	20.156	-3.141	0.545
967.000	553.692	80.008	19.995	103.164	20.152	-2.860	0.574
967.500	553.939	80.007	19.995	103.163	20.155	-3.017	0.553
968.000	554.178	80.007	19.995	103.163	20.153	-2.928	0.508
968.500	554.496	80.008	19.996	103.164	20.154	-2.951	0.522
969.000	554.727	80.007	19.995	103.165	20.156	-3.135	0.553
969.500	555.041	80.007	19.994	103.165	20.156	-3.141	0.547
970.000	555.278	80.008	19.994	103.167	20.157	-3.187	0.548
970.500	555.519	80.007	19.994	103.165	20.155	-3.040	0.515
971.000	555.827	80.008	19.995	103.160	20.154	-2.959	0.514
971.500	556.113	80.010	19.995	103.158	20.155	-3.075	0.571
972.000	556.379	80.008	19.994	103.158	20.155	-3.048	0.573
972.500	556.610	80.009	19.995	103.156	20.155	-3.048	0.524
973.000	556.901	80.009	19.994	103.156	20.156	-3.116	0.509
973.500	557.140	80.009	19.994	103.158	20.159	-3.336	0.526
974.000	557.451	80.009	19.993	103.158	20.156	-3.104	0.540
974.500	557.691	80.010	19.995	103.154	20.156	-3.125	0.550
975.000	557.969	80.009	19.993	103.153	20.155	-3.048	0.534
975.500	558.212	80.010	19.994	103.154	20.159	-3.320	0.519
976.000	558.464	80.009	19.994	103.153	20.158	-3.262	0.509
976.500	558.757	80.008	19.993	103.152	20.155	-3.052	0.520
977.000	558.956	80.009	19.994	103.151	20.156	-3.125	0.518
977.500	559.271	80.009	19.994	103.151	20.157	-3.173	0.503
978.000	559.520	80.008	19.994	103.151	20.158	-3.270	0.539
978.500	559.766	80.007	19.993	103.152	20.157	-3.162	0.530
979.000	560.054	80.008	19.995	103.152	20.156	-3.092	0.515
979.500	560.286	80.008	19.996	103.153	20.155	-3.067	0.527
980.000	560.585	80.009	19.996	103.155	20.155	-3.040	0.525
980.500	560.770	80.007	19.995	103.152	20.160	-3.363	0.507
981.000	561.080	80.008	19.994	103.148	20.157	-3.179	0.489
981.500	561.360	80.006	19.995	103.151	20.161	-3.446	0.542
982.000	561.647	80.006	19.996	103.152	20.155	-3.043	0.578
982.500	561.878	80.007	19.994	103.148	20.155	-3.022	0.543
983.000	562.138	80.008	19.994	103.150	20.155	-3.059	0.505
983.500	562.411	80.006	19.994	103.155	20.154	-2.945	0.512
984.000	562.677	80.007	19.995	103.156	20.156	-3.136	0.536
984.500	562.928	80.005	19.995	103.153	20.153	-2.883	0.528
985.000	563.184	80.006	19.995	103.153	20.153	-2.933	0.512
985.500	563.440	80.006	19.995	103.151	20.154	-3.007	0.510
986.000	563.700	80.005	19.995	103.151	20.155	-3.038	0.514
986.500	563.973	80.006	19.997	103.148	20.156	-3.137	0.524
987.000	564.235	80.005	19.995	103.149	20.159	-3.313	0.534
987.500	564.485	80.006	19.995	103.150	20.157	-3.208	0.524
988.000	564.708	80.006	19.995	103.148	20.157	-3.165	0.493
988.500	564.978	80.005	19.996	103.144	20.156	-3.119	0.483
989.000	565.248	80.006	19.996	103.142	20.158	-3.277	0.517
989.500	565.532	80.006	19.995	103.140	20.160	-3.368	0.547
990.000	565.767	80.005	19.995	103.137	20.157	-3.198	0.536
990.500	566.019	80.006	19.996	103.137	20.156	-3.136	0.503
991.000	566.287	80.005	19.995	103.136	20.158	-3.247	0.503
991.500	566.578	80.006	19.996	103.135	20.158	-3.285	0.540
992.000	566.826	80.005	19.995	103.134	20.154	-2.959	0.549
992.500	567.095	80.005	19.995	103.133	20.157	-3.193	0.528
993.000	567.335	80.006	19.995	103.133	20.157	-3.187	0.513
993.500	567.609	80.007	19.996	103.132	20.157	-3.206	0.511
994.000	567.833	80.005	19.995	103.134	20.158	-3.257	0.506
994.500	568.103	80.006	19.996	103.132	20.158	-3.286	0.496
995.000	568.397	80.007	19.996	103.132	20.158	-3.278	0.529
995.500	568.618	80.006	19.995	103.136	20.157	-3.169	0.540
996.000	568.859	80.008	19.995	103.141	20.153	-2.937	0.489
996.500	569.124	80.007	19.995	103.143	20.156	-3.094	0.484
997.000	569.396	80.006	19.996	103.147	20.159	-3.293	0.521
997.500	569.640	80.008	19.996	103.150	20.157	-3.214	0.526
998.000	569.890	80.005	19.995	103.148	20.156	-3.109	0.505
998.500	570.163	80.006	19.996	103.147	20.157	-3.156	0.509
999.000	570.411	80.006	19.996	103.143	20.156	-3.135	0.522
999.500	570.643	80.006	19.994	103.140	20.157	-3.173	0.500
1000.000	570.947	80.005	19.995	103.136	20.154	-2.984	0.508
1000.500	571.174	80.006	19.994	103.134	20.154	-2.957	0.533
1001.000	571.438	80.007	19.995	103.132	20.155	-3.075	0.511
1001.500	571.743	80.007	19.996	103.134	20.155	-3.044	0.531
1002.000	571.963	80.006	19.995	103.137	20.158	-3.230	0.547
1002.500	572.212	80.006	19.994	103.139	20.156	-3.127	0.496
1003.000	572.501	80.007	19.994	103.145	20.157	-3.158	0.503
1003.500	572.733	80.008	19.996	103.148	20.156	-3.132	0.530
1004.000	573.027	80.007	19.996	103.151	20.154	-3.008	0.524
1004.500	573.279	80.008	19.995	103.152	20.153	-2.931	0.535
1005.000	573.523	80.007	19.996	103.152	20.152	-2.854	0.521
1005.500	573.792	80.006	19.995	103.146	20.152	-2.848	0.505
1006.000	574.090	80.007	19.994	103.142	20.154	-2.993	0.540
1006.500	574.329	80.007	19.995	103.141	20.152	-2.871	0.552
1007.000	574.573	80.006	19.995	103.137	20.154	-3.011	0.510
1007.500	574.871	80.006	19.994	103.135	20.151	-2.778	0.513
1008.000	575.116	80.007	19.994	103.138	20.150	-2.709	0.543
1008.500	575.397	80.007	19.995	103.140	20.152	-2.856	0.534
1009.000	575.650	80.006	19.995	103.136	20.151	-2.792	0.530
1009.500	575.863	80.006	19.994	103.138	20.151	-2.800	0.500
1010.000	576.150	80.007	19.995	103.142	20.152	-2.819	0.483
1010.500	576.367	80.006	19.994	103.146	20.154	-2.993	0.502
1011.000	576.634	80.007	19.995	103.150	20.153	-2.898	0.494
1011.500	576.881	80.007	19.995	103.153	20.151	-2.794	0.499
1012.000	577.140	80.007	19.994	103.156	20.154	-2.997	0.510
1012.500	577.422	80.007	19.995	103.156	20.152	-2.867	0.524
1013.000	577.713	80.006	19.995	103.149	20.154	-2.972	0.557
1013.500	577.945	80.006	19.996	103.142	20.153	-2.918	0.548
1014.000	578.193	80.006	19.995	103.139	20.154	-2.981	0.501
1014.500	578.459	80.005	19.995	103.134	20.154	-2.972	0.497
1015.000	578.700	80.006	19.993	103.134	20.153	-2.916	0.510
1015.500	578.998	80.006	19.996	103.137	20.158	-3.247	0.523
1016.000	579.212	80.005	19.994	103.141	20.155	-3.067	0.526
1016.500	579.460	80.005	19.995	103.145	20.155	-3.047	0.487
1017.000	579.731	80.005	19.995	103.145	20.156	-3.132	0.491
1017.500	580.004	80.005	19.995	103.146	20.155	-3.026	0.531
1018.000	580.256	80.006	19.995	103.144	20.158	-3.231	0.534
1018.500	580.492	80.007	19.994	103.140	20.157	-3.196	0.506
1019.000	580.761	80.006	19.994	103.137	20.158	-3.247	0.497
1019.500	580.990	80.006	19.994	103.136	20.157	-3.195	0.502
1020.000	581.275	80.006	19.995	103.135	20.158	-3.278	0.506
1020.500	581.510	80.005	19.994	103.134	20.157	-3.191	0.517
1021.000	581.749	80.007	19.995	103.134	20.158	-3.249	0.497
1021.500	582.027	80.006	19.995	103.134	20.157	-3.191	0.495
1022.000	582.300	80.006	19.995	103.135	20.158	-3.254	0.534
1022.500	582.551	80.006	19.994	103.132	20.156	-3.109	0.538
1023.000	582.791	80.006	19.994	103.132	20.156	-3.119	0.507
1023.500	583.067	80.007	19.995	103.132	20.155	-3.013	0.503
1024.000	583.312	80.007	19.995	103.134	20.157	-3.198	0.519
1024.500	583.577	80.007	19.995	103.134	20.158	-3.239	0.515
1025.000	583.831	80.008	19.994	103.135	20.155	-3.047	0.514
1025.500	584.106	80.007	19.994	103.136	20.154	-2.958	0.524
1026.000	584.336	80.006	19.995	103.137	20.155	-3.036	0.517
1026.501	584.599	80.007	19.994	103.135	20.153	-2.908	0.499
1027.001	584.840	80.007	19.995	103.135	20.152	-2.844	0.499
1027.500	585.112	80.008	19.994	103.135	20.155	-3.072	0.509
1028.000	585.394	80.009	19.995	103.135	20.153	-2.929	0.534
1028.500	585.598	80.007	19.994	103.138	20.154	-2.974	0.520
1029.000	585.868	80.008	19.994	103.142	20.155	-3.051	0.480
1029.500	586.150	80.006	19.994	103.144	20.151	-2.750	0.512
1030.000	586.393	80.006	19.994	103.147	20.152	-2.804	0.538
1030.500	586.671	80.008	19.996	103.150	20.149	-2.655	0.523
1031.001	586.948	80.006	19.993	103.147	20.150	-2.689	0.538
1031.501	587.198	80.006	19.994	103.144	20.158	-3.260	0.541
1032.000	587.478	80.009	19.994	103.143	20.152	-2.834	0.528
1032.500	587.698	80.009	19.994	103.139	20.151	-2.794	0.515
1033.000	587.953	80.008	19.994	103.136	20.152	-2.860	0.487
1033.501	588.239	80.007	19.995	103.137	20.151	-2.788	0.508
1034.001	588.443	80.007	19.994	103.139	20.154	-3.011	0.516
1034.500	588.764	80.007	19.994	103.139	20.153	-2.914	0.508
1035.000	589.007	80.008	19.994	103.140	20.154	-2.962	0.544
1035.500	589.228	80.006	19.994	103.140	20.153	-2.885	0.513
1036.000	589.519	80.007	19.994	103.138	20.150	-2.705	0.488
1036.500	589.754	80.008	19.994	103.134	20.151	-2.755	0.519
1037.000	590.014	80.007	19.994	103.133	20.151	-2.744	0.511
1037.500	590.264	80.006	19.994	103.135	20.147	-2.498	0.503
1038.000	590.525	80.007	19.994	103.134	20.149	-2.655	0.511
1038.500	590.776	80.005	19.993	103.135	20.149	-2.606	0.512
1039.000	591.014	80.007	19.995	103.138	20.150	-2.709	0.501
1039.500	591.263	80.006	19.994	103.144	20.148	-2.546	0.488
1040.000	591.550	80.007	19.994	103.144	20.148	-2.548	0.512
1040.500	591.807	80.007	19.994	103.144	20.154	-2.982	0.540
1041.000	592.031	80.007	19.994	103.144	20.150	-2.722	0.512
1041.500	592.319	80.007	19.994	103.142	20.154	-2.945	0.496
1042.000	592.563	80.007	19.993	103.136	20.153	-2.921	0.522
1042.500	592.844	80.005	19.995	103.137	20.149	-2.652	0.529
1043.000	593.077	80.006	19.994	103.138	20.149	-2.658	0.520
1043.500	593.336	80.007	19.994	103.141	20.148	-2.560	0.503
1044.000	593.607	80.006	19.994	103.141	20.149	-2.594	0.511
1044.500	593.842	80.006	19.994	103.141	20.155	-3.018	0.517
1045.000	594.211	80.005	19.994	103.139	20.148	-2.533	0.555
1045.500	594.368	80.007	19.993	103.137	20.150	-2.712	0.565
1046.000	594.726	80.007	19.994	103.136	20.147	-2.463	0.520
1046.500	594.902	80.006	19.993	103.136	20.144	-2.240	0.524
1047.000	595.184	80.006	19.993	103.137	20.148	-2.546	0.496
1047.501	595.440	80.008	19.994	103.138	20.148	-2.538	0.498
1048.001	595.684	80.008	19.994	103.139	20.146	-2.447	0.519
1048.500	595.974	80.007	19.994	103.138	20.148	-2.559	0.517
1049.000	596.179	80.008	19.993	103.137	20.147	-2.503	0.514
1049.500	596.471	80.008	19.994	103.137	20.147	-2.517	0.496
1050.000	596.704	80.008	19.994	103.137	20.149	-2.633	0.511
1050.500	596.968	80.009	19.994	103.139	20.147	-2.496	0.511
1051.000	597.198	80.007	19.994	103.140	20.149	-2.639	0.496
1051.500	597.494	80.007	19.993	103.140	20.151	-2.732	0.511
1052.000	597.713	80.008	19.995	103.138	20.149	-2.645	0.521
1052.500	597.991	80.007	19.995	103.136	20.146	-2.420	0.506
1053.000	598.263	80.009	19.994	103.133	20.143	-2.205	0.523
1053.500	598.550	80.009	19.994	103.132	20.142	-2.122	0.554
1054.000	598.716	80.009	19.994	103.132	20.145	-2.370	0.506
1054.500	599.055	80.008	19.995	103.133	20.143	-2.221	0.479
1055.000	599.250	80.009	19.995	103.133	20.151	-2.788	0.519
1055.501	599.520	80.008	19.995	103.133	20.152	-2.836	0.499
1056.001	599.794	80.008	19.996	103.133	20.147	-2.459	0.505
1056.500	600.052	80.009	19.994	103.134	20.153	-2.941	0.539
1057.000	600.318	80.008	19.995	103.136	20.152	-2.848	0.528
1057.500	600.568	80.008	19.995	103.136	20.146	-2.428	0.520
1058.000	600.752	80.008	19.995	103.134	20.149	-2.621	0.475
1058.500	601.070	80.008	19.995	103.132	20.147	-2.461	0.468
1059.000	601.352	80.007	19.994	103.130	20.147	-2.503	0.551
1059.500	601.666	80.007	19.995	103.128	20.151	-2.741	0.598
1060.000	601.912	80.007	19.995	103.129	20.143	-2.217	0.578
1060.500	602.169	80.008	19.995	103.129	20.144	-2.277	0.531
1061.000	602.303	80.008	19.994	103.130	20.144	-2.289	0.447
1061.500	602.616	80.007	19.995	103.131	20.147	-2.511	0.419
1062.000	602.818	80.005	19.995	103.130	20.145	-2.318	0.481
1062.500	603.097	80.007	19.994	103.130	20.147	-2.490	0.498
1063.000	603.357	80.006	19.994	103.129	20.146	-2.428	0.510
1063.501	603.599	80.006	19.995	103.129	20.143	-2.180	0.520
1064.001	603.887	80.005	19.994	103.129	20.148	-2.561	0.516
1064.500	604.100	80.006	19.994	103.128	20.146	-2.420	0.516
1065.000	604.364	80.005	19.996	103.128	20.143	-2.225	0.490
1065.500	604.610	80.006	19.995	103.128	20.143	-2.231	0.493
1066.000	604.919	80.006	19.995	103.128	20.141	-2.033	0.532
1066.500	605.152	80.005	19.995	103.129	20.142	-2.144	0.549
1067.001	605.361	80.005	19.994	103.129	20.148	-2.523	0.493
1067.501	605.618	80.006	19.994	103.130	20.141	-2.099	0.454
1068.000	605.927	80.006	19.995	103.130	20.145	-2.337	0.516
1068.500	606.159	80.005	19.995	103.131	20.144	-2.246	0.554
1069.000	606.413	80.006	19.995	103.130	20.148	-2.563	0.514
1069.500	606.662	80.006	19.994	103.130	20.148	-2.571	0.494
1070.000	606.910	80.007	19.995	103.129	20.147	-2.517	0.500
1070.500	607.162	80.005	19.995	103.129	20.149	-2.660	0.499
1071.000	607.402	80.007	19.996	103.128	20.146	-2.442	0.496
1071.500	607.654	80.006	19.995	103.128	20.145	-2.380	0.492
1072.000	607.910	80.006	19.995	103.128	20.148	-2.544	0.500
1072.500	608.164	80.006	19.995	103.129	20.147	-2.482	0.509
1073.000	608.405	80.007	19.994	103.129	20.148	-2.523	0.503
1073.500	608.658	80.006	19.995	103.129	20.144	-2.300	0.495
1074.000	608.872	80.006	19.994	103.130	20.147	-2.482	0.481
1074.500	609.197	80.006	19.994	103.130	20.146	-2.438	0.503
1075.000	609.489	80.005	19.994	103.130	20.148	-2.536	0.577
1075.500	609.706	80.007	19.996	103.130	20.148	-2.532	0.563
1076.000	609.960	80.006	19.996	103.130	20.147	-2.474	0.490
1076.500	610.190	80.007	19.995	103.130	20.148	-2.542	0.478
1077.000	610.420	80.006	19.995	103.130	20.150	-2.697	0.472
1077.500	610.657	80.006	19.995	103.129	20.151	-2.788	0.463
1078.000	610.899	80.006	19.996	103.130	20.150	-2.697	0.473
1078.500	611.210	80.005	19.995	103.130	20.149	-2.631	0.516
1079.000	611.499	80.006	19.995	103.130	20.149	-2.647	0.576
1079.500	611.707	80.006	19.995	103.132	20.151	-2.738	0.549
1080.000	611.954	80.007	19.996	103.133	20.152	-2.848	0.476
1080.500	612.210	80.006	19.996	103.135	20.149	-2.643	0.479
1081.000	612.432	80.005	19.996	103.136	20.152	-2.858	0.490
1081.500	612.629	80.007	19.992	103.139	20.153	-2.910	0.449
1082.000	612.904	80.005	19.996	103.137	20.152	-2.823	0.446
1082.500	613.205	80.006	19.994	103.135	20.150	-2.724	0.524
1083.000	613.463	80.007	19.996	103.134	20.153	-2.941	0.568
1083.500	613.720	80.006	19.995	103.133	20.151	-2.796	0.537
1084.000	613.986	80.005	19.996	103.132	20.152	-2.838	0.519
1084.500	614.259	80.006	19.995	103.132	20.152	-2.811	0.531
1085.000	614.496	80.005	19.995	103.132	20.153	-2.873	0.524
1085.500	614.763	80.005	19.995	103.132	20.151	-2.776	0.507
1086.000	614.999	80.004	19.996	103.134	20.152	-2.865	0.504
1086.500	615.308	80.005	19.995	103.132	20.153	-2.933	0.524
1087.000	615.542	80.005	19.996	103.132	20.151	-2.769	0.544
1087.500	615.782	80.006	19.995	103.133	20.151	-2.796	0.508
1088.000	616.049	80.005	19.995	103.135	20.150	-2.730	0.490
1088.500	616.282	80.005	19.995	103.135	20.152	-2.864	0.504
1089.000	616.561	80.004	19.995	103.136	20.155	-3.013	0.506
1089.500	616.826	80.006	19.995	103.138	20.152	-2.813	0.528
1090.000	617.061	80.006	19.996	103.138	20.152	-2.809	0.522
1090.500	617.370	80.005	19.995	103.137	20.153	-2.939	0.522
1091.000	617.587	80.006	19.996	103.136	20.155	-3.038	0.535
1091.500	617.856	80.005	19.996	103.135	20.156	-3.113	0.506
1092.000	618.115	80.005	19.995	103.133	20.154	-2.983	0.507
1092.500	618.354	80.004	19.995	103.133	20.155	-3.012	0.513
1093.000	618.617	80.005	19.995	103.131	20.156	-3.140	0.500
1093.500	618.870	80.005	19.995	103.131	20.156	-3.113	0.509
1094.000	619.128	80.006	19.995	103.131	20.152	-2.858	0.514
1094.500	619.417	80.005	19.995	103.132	20.156	-3.136	0.529
1095.000	619.662	80.005	19.996	103.134	20.158	-3.229	0.540
1095.500	619.966	80.005	19.996	103.136	20.155	-3.043	0.541
1096.000	620.164	80.006	19.994	103.137	20.155	-3.026	0.525
1096.500	620.445	80.006	19.995	103.139	20.157	-3.161	0.491
1097.000	620.662	80.007	19.994	103.139	20.156	-3.150	0.489
1097.500	620.939	80.006	19.994	103.138	20.159	-3.293	0.496
1098.001	621.175	80.005	19.994	103.137	20.160	-3.384	0.504
1098.501	621.479	80.005	19.992	103.136	20.161	-3.446	0.527
1099.001	621.693	80.014	19.996	103.135	20.159	-3.306	0.529
1099.501	621.966	80.012	19.996	103.141	20.158	-3.264	0.502
1100.000	622.248	80.008	19.995	103.143	20.161	-3.444	0.521
1100.501	622.480	80.005	19.996	103.144	20.160	-3.394	0.535
1101.001	622.737	80.005	19.996	103.144	20.160	-3.403	0.502
1101.500	623.013	80.006	19.995	103.144	20.157	-3.208	0.510
1102.000	623.249	80.006	19.995	103.139	20.161	-3.459	0.522
1102.500	623.500	80.006	19.995	103.136	20.159	-3.361	0.500
1103.000	623.776	80.005	19.995	103.134	20.156	-3.134	0.507
1103.500	624.013	80.006	19.995	103.134	20.156	-3.094	0.520
1104.000	624.243	80.007	19.994	103.134	20.154	-2.977	0.490
1104.500	624.555	80.006	19.995	103.135	20.155	-3.080	0.505
1105.000	624.798	80.007	19.994	103.135	20.154	-3.006	0.548
1105.500	625.092	80.008	19.994	103.135	20.156	-3.148	0.545
1106.000	625.345	80.007	19.995	103.135	20.156	-3.146	0.542
1106.500	625.584	80.007	19.995	103.134	20.156	-3.134	0.520
1107.000	625.826	80.007	19.994	103.133	20.157	-3.208	0.487
1107.500	626.087	80.007	19.995	103.132	20.158	-3.239	0.492
1108.000	626.325	80.007	19.993	103.130	20.160	-3.417	0.501
1108.500	626.591	80.007	19.993	103.130	20.160	-3.362	0.502
1109.000	626.880	80.009	19.994	103.131	20.160	-3.399	0.529
1109.500	627.129	80.008	19.995	103.131	20.159	-3.351	0.546
1110.000	627.353	80.008	19.994	103.131	20.158	-3.248	0.506
1110.500	627.670	80.008	19.993	103.132	20.160	-3.389	0.507
1111.000	627.911	80.007	19.994	103.132	20.161	-3.438	0.549
1111.500	628.153	80.007	19.994	103.135	20.162	-3.511	0.521
1112.000	628.453	80.007	19.995	103.135	20.161	-3.434	0.513
1112.501	628.689	80.008	19.994	103.135	20.161	-3.434	0.539
1113.001	628.952	80.007	19.994	103.135	20.164	-3.701	0.517
1113.500	629.207	80.008	19.994	103.135	20.165	-3.761	0.508
1114.000	629.450	80.007	19.996	103.131	20.162	-3.517	0.507
1114.500	629.722	80.008	19.994	103.130	20.160	-3.403	0.506
1115.000	629.976	80.006	19.995	103.129	20.164	-3.660	0.521
1115.500	630.225	80.007	19.994	103.127	20.161	-3.451	0.515
1116.000	630.490	80.007	19.995	103.126	20.164	-3.687	0.508
1116.500	630.733	80.008	19.994	103.125	20.162	-3.531	0.511
1117.000	631.015	80.006	19.994	103.126	20.163	-3.614	0.517
1117.500	631.239	80.007	19.994	103.127	20.164	-3.693	0.516
1118.000	631.488	80.008	19.995	103.127	20.166	-3.848	0.490
1118.500	631.739	80.007	19.994	103.128	20.162	-3.548	0.487
1119.000	631.990	80.007	19.994	103.128	20.165	-3.728	0.501
1119.500	632.246	80.007	19.995	103.128	20.167	-3.914	0.504
1120.000	632.508	80.005	19.995	103.128	20.168	-3.933	0.512
1120.500	632.765	80.007	19.995	103.128	20.170	-4.125	0.519
1121.000	633.020	80.005	19.995	103.129	20.168	-3.970	0.515
1121.500	633.261	80.008	19.994	103.129	20.169	-4.047	0.504
1122.000	633.556	80.007	19.995	103.129	20.167	-3.896	0.516
1122.500	633.779	80.007	19.995	103.129	20.166	-3.811	0.527
1123.000	634.084	80.007	19.994	103.129	20.167	-3.898	0.522
1123.500	634.326	80.007	19.994	103.129	20.169	-4.003	0.538
1124.000	634.594	80.007	19.994	103.129	20.171	-4.184	0.529
1124.500	634.831	80.008	19.994	103.130	20.170	-4.074	0.507
1125.000	635.065	80.007	19.994	103.129	20.173	-4.318	0.488
1125.500	635.344	80.007	19.994	103.130	20.174	-4.349	0.492
1126.000	635.619	80.007	19.994	103.130	20.173	-4.275	0.534
1126.500	635.868	80.008	19.994	103.129	20.171	-4.142	0.539
1127.000	636.121	80.007	19.994	103.129	20.172	-4.262	0.513
1127.500	636.402	80.007	19.994	103.129	20.173	-4.341	0.518
1128.000	636.642	80.008	19.994	103.129	20.175	-4.438	0.527
1128.500	636.882	80.008	19.995	103.129	20.174	-4.347	0.500
1129.000	637.137	80.008	19.994	103.129	20.176	-4.500	0.488
1129.501	637.394	80.007	19.994	103.128	20.173	-4.337	0.504
1130.001	637.660	80.008	19.994	103.128	20.175	-4.451	0.517
1130.500	637.920	80.008	19.994	103.128	20.177	-4.606	0.524
1131.000	638.188	80.009	19.993	103.128	20.171	-4.190	0.527
1131.500	638.428	80.009	19.995	103.128	20.173	-4.295	0.518
1132.000	638.708	80.009	19.994	103.129	20.173	-4.277	0.514
1132.500	638.955	80.009	19.993	103.129	20.173	-4.300	0.523
1133.000	639.197	80.010	19.993	103.128	20.172	-4.262	0.508
1133.500	639.479	80.009	19.995	103.128	20.178	-4.633	0.507
1134.000	639.720	80.009	19.993	103.127	20.177	-4.560	0.524
1134.500	639.986	80.009	19.994	103.125	20.173	-4.303	0.515
1135.000	640.221	80.010	19.994	103.125	20.176	-4.539	0.504
1135.501	640.508	80.008	19.994	103.125	20.174	-4.390	0.511
1136.001	640.721	80.009	19.993	103.126	20.174	-4.353	0.511
1136.500	640.986	80.009	19.994	103.126	20.174	-4.364	0.489
1137.001	641.270	80.009	19.993	103.127	20.172	-4.214	0.513
1137.501	641.525	80.009	19.994	103.127	20.178	-4.635	0.544
1138.001	641.782	80.009	19.994	103.126	20.175	-4.465	0.526
1138.501	642.050	80.009	19.994	103.126	20.174	-4.411	0.518
1139.000	642.323	80.009	19.994	103.125	20.175	-4.465	0.533
1139.500	642.590	80.007	19.994	103.123	20.176	-4.539	0.540
1140.000	642.837	80.008	19.993	103.123	20.175	-4.425	0.527
1140.500	643.137	80.007	19.994	103.123	20.175	-4.426	0.530
1141.000	643.376	80.007	19.994	103.124	20.176	-4.539	0.543
1141.500	643.601	80.007	19.995	103.125	20.178	-4.649	0.501
1142.000	643.862	80.006	19.995	103.125	20.179	-4.732	0.475
1142.500	644.101	80.006	19.995	103.123	20.179	-4.711	0.493
1143.000	644.365	80.007	19.995	103.123	20.175	-4.475	0.502
1143.501	644.608	80.006	19.995	103.122	20.179	-4.715	0.505
1144.001	644.909	80.007	19.994	103.123	20.178	-4.653	0.526
1144.500	645.140	80.006	19.995	103.125	20.179	-4.707	0.538
1145.000	645.359	80.005	19.995	103.127	20.175	-4.454	0.490
1145.500	645.600	80.004	19.995	103.128	20.179	-4.727	0.455
1146.000	645.873	80.005	19.995	103.127	20.178	-4.647	0.487
1146.500	646.143	80.005	19.996	103.128	20.181	-4.854	0.529
1147.000	646.399	80.007	19.995	103.128	20.178	-4.661	0.534
1147.500	646.671	80.004	19.995	103.127	20.180	-4.790	0.527
1148.000	646.922	80.006	19.995	103.128	20.177	-4.603	0.526
1148.500	647.190	80.006	19.995	103.127	20.179	-4.705	0.521
1149.000	647.427	80.005	19.995	103.126	20.182	-4.966	0.512
1149.500	647.681	80.006	19.995	103.126	20.182	-4.910	0.498
1150.000	647.933	80.006	19.995	103.128	20.179	-4.740	0.499
1150.500	648.197	80.005	19.995	103.128	20.183	-5.007	0.511
1151.000	648.447	80.006	19.995	103.130	20.184	-5.063	0.515
1151.500	648.740	80.006	19.994	103.129	20.185	-5.152	0.528
1152.000	648.959	80.006	19.995	103.129	20.185	-5.117	0.527
1152.501	649.213	80.006	19.994	103.129	20.182	-4.958	0.492
1153.001	649.472	80.006	19.995	103.128	20.185	-5.150	0.493
1153.501	649.715	80.005	19.994	103.129	20.187	-5.272	0.508
1154.000	649.992	80.008	19.995	103.130	20.186	-5.229	0.511
1154.500	650.265	80.006	19.995	103.132	20.184	-5.074	0.535
1155.001	650.485	80.005	19.996	103.135	20.183	-4.983	0.522
1155.501	650.727	80.007	19.996	103.136	20.182	-4.933	0.477
1156.000	651.043	80.007	19.994	103.136	20.185	-5.155	0.510
1156.500	651.319	80.004	19.995	103.136	20.186	-5.233	0.575
1157.000	651.563	80.006	19.995	103.136	20.185	-5.119	0.556
1157.500	651.816	80.006	19.994	103.133	20.182	-4.912	0.508
1158.000	652.041	80.006	19.995	103.132	20.184	-5.082	0.487
1158.500	652.297	80.006	19.995	103.132	20.186	-5.210	0.480
1159.000	652.569	80.005	19.996	103.132	20.183	-5.007	0.505
1159.500	652.824	80.005	19.995	103.131	20.183	-5.038	0.528
1160.001	653.087	80.007	19.995	103.131	20.182	-4.945	0.522
1160.501	653.375	80.007	19.995	103.131	20.181	-4.841	0.534
1161.000	653.611	80.007	19.995	103.131	20.183	-4.980	0.537
1161.500	653.835	80.006	19.995	103.130	20.182	-4.961	0.492
1162.000	654.117	80.006	19.994	103.129	20.179	-4.755	0.483
1162.500	654.368	80.006	19.994	103.129	20.182	-4.912	0.520
1163.000	654.629	80.006	19.994	103.129	20.182	-4.910	0.523
1163.500	654.897	80.005	19.996	103.129	20.184	-5.094	0.520
1164.000	655.147	80.007	19.995	103.129	20.180	-4.794	0.523
1164.500	655.411	80.006	19.995	103.126	20.182	-4.935	0.516
1165.000	655.703	80.006	19.995	103.122	20.183	-5.038	0.535
1165.500	655.955	80.006	19.996	103.120	20.182	-4.941	0.550
1166.000	656.222	80.005	19.996	103.118	20.180	-4.769	0.531
1166.500	656.458	80.007	19.995	103.118	20.181	-4.892	0.511
1167.000	656.737	80.007	19.995	103.122	20.182	-4.950	0.509
1167.500	656.979	80.005	19.994	103.125	20.180	-4.817	0.518
1168.000	657.185	80.005	19.995	103.127	20.180	-4.794	0.485
1168.500	657.456	80.007	19.995	103.127	20.182	-4.918	0.463
1169.000	657.706	80.006	19.995	103.128	20.180	-4.776	0.499
1169.500	657.973	80.006	19.994	103.127	20.182	-4.931	0.519
1170.000	658.231	80.005	19.996	103.128	20.184	-5.055	0.521
1170.500	658.472	80.005	19.995	103.129	20.182	-4.933	0.512
1171.000	658.712	80.005	19.995	103.131	20.182	-4.905	0.490
1171.500	659.015	80.006	19.996	103.131	20.182	-4.932	0.512
1172.000	659.218	80.005	19.996	103.131	20.182	-4.933	0.525
1172.500	659.492	80.005	19.996	103.131	20.183	-5.020	0.491
1173.001	659.766	80.005	19.994	103.127	20.184	-5.103	0.512
1173.501	660.004	80.003	19.995	103.127	20.179	-4.745	0.530
1174.000	660.253	80.004	19.995	103.127	20.183	-4.989	0.500
1174.500	660.513	80.004	19.996	103.126	20.184	-5.053	0.498
1175.000	660.764	80.004	19.995	103.126	20.184	-5.103	0.510
1175.501	661.029	80.005	19.995	103.130	20.183	-5.008	0.513
1176.001	661.282	80.006	19.995	103.129	20.186	-5.244	0.517
1176.501	661.533	80.005	19.997	103.128	20.181	-4.865	0.511
1177.001	661.795	80.005	19.996	103.127	20.184	-5.058	0.508
1177.500	662.062	80.005	19.995	103.124	20.182	-4.950	0.521
1178.000	662.292	80.003	19.995	103.124	20.185	-5.147	0.513
1178.500	662.521	80.005	19.996	103.124	20.188	-5.381	0.478
1179.000	662.837	80.004	19.995	103.125	20.185	-5.124	0.502
1179.500	663.038	80.004	19.996	103.125	20.185	-5.182	0.531
1180.000	663.316	80.006	19.995	103.127	20.188	-5.333	0.499
1180.500	663.535	80.005	19.995	103.123	20.188	-5.366	0.488
1181.000	663.850	80.006	19.996	103.119	20.188	-5.370	0.515
1181.500	664.019	80.006	19.995	103.117	20.192	-5.635	0.509
1182.000	664.335	80.006	19.995	103.113	20.186	-5.202	0.484
1182.500	664.574	80.007	19.995	103.111	20.186	-5.254	0.520
1183.000	664.795	80.006	19.995	103.114	20.186	-5.186	0.507
1183.500	665.182	80.008	19.995	103.116	20.185	-5.126	0.534
1184.000	665.287	80.007	19.995	103.115	20.185	-5.178	0.550
1184.500	665.636	80.007	19.995	103.118	20.192	-5.627	0.473
1185.000	665.370	80.005	19.996	103.118	20.186	-5.228	0.269
1185.500	666.173	80.007	19.994	103.116	20.187	-5.287	0.309
1186.001	666.353	80.009	19.995	103.114	20.186	-5.199	0.759
1186.501	666.450	80.006	19.996	103.116	20.189	-5.447	0.630
1187.000	666.987	80.009	19.994	103.113	20.189	-5.462	0.456
1187.500	667.019	80.007	19.994	103.111	20.189	-5.414	0.602
1188.000	667.370	80.010	19.994	103.112	20.187	-5.300	0.476
1188.500	667.703	80.007	19.995	103.113	20.190	-5.469	0.533
1189.000	667.952	80.009	19.995	103.113	20.190	-5.482	0.633
1189.500	668.177	80.007	19.994	103.115	20.188	-5.366	0.528
1190.000	668.467	80.009	19.995	103.118	20.189	-5.455	0.494
1190.500	668.685	80.007	19.993	103.118	20.189	-5.442	0.512
1191.000	668.945	80.008	19.994	103.119	20.190	-5.519	0.493
1191.500	669.180	80.008	19.995	103.121	20.188	-5.392	0.486
1192.000	669.498	80.008	19.995	103.123	20.189	-5.450	0.524
1192.500	669.745	80.008	19.994	103.123	20.189	-5.450	0.559
1193.000	669.959	80.008	19.994	103.120	20.189	-5.423	0.513
1193.501	670.279	80.008	19.994	103.116	20.193	-5.726	0.498
1194.001	670.512	80.007	19.994	103.111	20.190	-5.473	0.543
1194.500	670.772	80.008	19.994	103.110	20.191	-5.581	0.523
1195.000	671.058	80.008	19.995	103.107	20.191	-5.535	0.520
1195.500	671.325	80.008	19.995	103.109	20.190	-5.511	0.549
1196.000	671.549	80.008	19.995	103.113	20.191	-5.604	0.522
1196.500	671.798	80.007	19.995	103.113	20.191	-5.571	0.482
1197.000	672.083	80.008	19.995	103.111	20.191	-5.564	0.504
1197.500	672.287	80.007	19.994	103.110	20.193	-5.676	0.512
1198.000	672.543	80.007	19.994	103.108	20.187	-5.256	0.475
1198.500	672.869	80.006	19.995	103.110	20.188	-5.382	0.521
1199.000	673.076	80.007	19.994	103.114	20.191	-5.581	0.558
1199.500	673.398	80.008	19.995	103.118	20.196	-5.889	0.531
1200.000	673.622	80.007	19.995	103.122	20.178	-4.658	0.538
1200.500	673.871	80.007	19.994	103.125	20.184	-5.061	0.509
1201.000	674.124	80.007	19.993	103.124	20.197	-5.964	0.488
1201.500	674.378	80.006	19.994	103.124	20.188	-5.329	0.505
1202.000	674.672	80.007	19.994	103.124	20.190	-5.475	0.528
1202.500	674.930	80.008	19.995	103.123	20.190	-5.517	0.550
1203.000	675.209	80.007	19.996	103.124	20.188	-5.351	0.545
1203.501	675.453	80.007	19.994	103.125	20.192	-5.666	0.530
1204.001	675.704	80.008	19.996	103.127	20.192	-5.647	0.509
1204.500	675.974	80.009	19.995	103.126	20.193	-5.714	0.508
1205.000	676.259	80.007	19.995	103.126	20.194	-5.758	0.538
1205.500	676.477	80.008	19.994	103.126	20.192	-5.673	0.529
1206.000	676.769	80.007	19.995	103.125	20.193	-5.715	0.507
1206.500	677.041	80.009	19.994	103.124	20.193	-5.721	0.537
1207.001	677.288	80.009	19.995	103.123	20.194	-5.785	0.541
1207.501	677.567	80.008	19.995	103.123	20.196	-5.901	0.523
1208.000	677.799	80.009	19.995	103.124	20.194	-5.812	0.519
1208.500	678.078	80.008	19.994	103.124	20.196	-5.894	0.512
1209.000	678.330	80.007	19.994	103.124	20.196	-5.927	0.521
1209.500	678.529	80.008	19.994	103.126	20.196	-5.931	0.490
1210.000	678.889	80.008	19.994	103.127	20.193	-5.726	0.505
1210.500	679.104	80.009	19.994	103.126	20.195	-5.873	0.568
1211.000	679.373	80.008	19.994	103.127	20.197	-5.964	0.530
1211.500	679.630	80.008	19.994	103.125	20.195	-5.861	0.505
1212.001	679.826	80.008	19.993	103.123	20.196	-5.917	0.489
1212.501	680.072	80.008	19.994	103.121	20.197	-5.989	0.448
1213.001	680.326	80.009	19.994	103.122	20.197	-5.975	0.472
1213.501	680.912	80.009	19.995	103.123	20.199	-6.122	0.670
1214.000	680.085	80.008	19.994	103.124	20.192	-5.632	0.299
1214.500	681.155	80.009	19.994	103.125	20.196	-5.954	0.001
1215.000	681.655	80.010	19.993	103.122	20.193	-5.691	0.906
1215.500	681.720	80.009	19.994	103.116	20.198	-6.035	1.068
1216.000	681.985	80.009	19.995	103.109	20.194	-5.803	0.448
1216.500	682.198	80.010	19.995	103.105	20.192	-5.668	0.404
1217.000	682.384	80.008	19.994	103.101	20.196	-5.896	0.439
1217.500	682.779	80.009	19.993	103.101	20.193	-5.721	0.490
1218.001	683.059	80.008	19.994	103.103	20.197	-6.006	0.628
1218.501	683.353	80.008	19.994	103.107	20.198	-6.065	0.625
1219.000	683.545	80.009	19.995	103.110	20.194	-5.768	0.530
1219.500	683.822	80.007	19.994	103.116	20.196	-5.946	0.477
1220.000	684.069	80.008	19.995	103.119	20.195	-5.834	0.497
1220.500	684.333	80.009	19.994	103.120	20.196	-5.943	0.517
1221.000	684.585	80.007	19.994	103.120	20.197	-5.966	0.513
1221.500	684.907	80.006	19.995	103.120	20.193	-5.719	0.545
1222.000	685.132	80.007	19.994	103.117	20.196	-5.908	0.561
1222.500	685.356	80.005	19.994	103.116	20.197	-6.009	0.498
1223.001	685.634	80.008	19.995	103.115	20.197	-5.974	0.476
1223.501	685.899	80.007	19.994	103.116	20.195	-5.877	0.522
1224.000	686.110	80.008	19.994	103.112	20.197	-5.994	0.509
1224.500	686.412	80.008	19.995	103.109	20.201	-6.294	0.494
1225.000	686.678	80.006	19.994	103.107	20.198	-6.087	0.540
1225.500	686.905	80.006	19.994	103.110	20.199	-6.151	0.531
1226.000	687.181	80.006	19.994	103.113	20.202	-6.329	0.498
1226.501	687.403	80.007	19.994	103.113	20.202	-6.351	0.501
1227.001	687.667	80.006	19.994	103.116	20.199	-6.163	0.492
1227.500	687.908	80.007	19.994	103.114	20.199	-6.120	0.495
1228.000	688.146	80.006	19.994	103.109	20.198	-6.083	0.492
1228.500	688.382	80.007	19.994	103.103	20.198	-6.052	0.477
1229.000	688.626	80.004	19.995	103.103	20.199	-6.120	0.477
1229.500	688.934	80.006	19.995	103.102	20.199	-6.149	0.516
1230.000	689.149	80.006	19.995	103.105	20.199	-6.131	0.537
1230.500	689.416	80.006	19.995	103.109	20.200	-6.211	0.502
1231.000	689.648	80.006	19.995	103.113	20.200	-6.194	0.491
1231.501	689.927	80.006	19.995	103.118	20.199	-6.137	0.505
1232.001	690.167	80.004	19.995	103.123	20.199	-6.147	0.515
1232.500	690.414	80.006	19.994	103.125	20.200	-6.230	0.503
1233.001	690.647	80.005	19.995	103.123	20.200	-6.181	0.483
1233.501	690.928	80.006	19.994	103.124	20.198	-6.083	0.497
1234.000	691.183	80.006	19.995	103.121	20.198	-6.079	0.525
1234.500	691.393	80.005	19.994	103.116	20.198	-6.072	0.501
1235.000	691.672	80.007	19.995	103.111	20.199	-6.106	0.477
1235.500	691.883	80.004	19.994	103.112	20.202	-6.312	0.489
1236.000	692.189	80.006	19.995	103.109	20.199	-6.161	0.504
1236.500	692.392	80.007	19.993	103.111	20.198	-6.080	0.513
1237.000	692.631	80.005	19.995	103.115	20.199	-6.116	0.475
1237.500	692.879	80.005	19.995	103.117	20.197	-6.004	0.464
1238.000	693.176	80.008	19.994	103.113	20.199	-6.132	0.516
1238.501	693.464	80.007	19.995	103.114	20.198	-6.047	0.565
1239.001	693.692	80.006	19.995	103.111	20.201	-6.304	0.550
1239.500	693.927	80.007	19.995	103.108	20.197	-5.995	0.490
1240.000	694.209	80.006	19.996	103.107	20.198	-6.057	0.490
1240.500	694.381	80.006	19.996	103.108	20.197	-6.014	0.486
1241.000	694.707	80.007	19.996	103.107	20.196	-5.942	0.476
1241.500	694.934	80.006	19.996	103.109	20.198	-6.033	0.526
1242.000	695.162	80.008	19.996	103.110	20.199	-6.147	0.504
1242.500	695.376	80.006	19.995	103.108	20.197	-5.975	0.449
1243.001	695.676	80.007	19.994	103.105	20.200	-6.170	0.478
1243.501	695.916	80.006	19.995	103.103	20.199	-6.159	0.527
1244.000	696.179	80.006	19.995	103.100	20.200	-6.178	0.521
1244.500	696.400	80.007	19.996	103.101	20.199	-6.120	0.493
1245.000	696.666	80.007	19.995	103.106	20.202	-6.325	0.485
1245.500	696.938	80.006	19.995	103.109	20.201	-6.299	0.513
1246.000	697.149	80.007	19.994	103.110	20.200	-6.172	0.511
1246.500	697.436	80.008	19.995	103.114	20.205	-6.520	0.490
1247.000	697.667	80.007	19.995	103.114	20.203	-6.386	0.508
1247.500	697.872	80.007	19.995	103.115	20.199	-6.164	0.477
1248.000	698.152	80.007	19.995	103.115	20.200	-6.207	0.460
1248.500	698.373	80.007	19.995	103.118	20.201	-6.271	0.493
1249.000	698.631	80.007	19.996	103.120	20.203	-6.375	0.490
1249.500	698.899	80.006	19.996	103.120	20.202	-6.352	0.503
1250.000	699.133	80.006	19.996	103.116	20.201	-6.296	0.514
1250.500	699.388	80.005	19.996	103.116	20.202	-6.359	0.495
1251.000	699.607	80.007	19.995	103.117	20.202	-6.351	0.481
1251.500	699.846	80.005	19.995	103.116	20.203	-6.431	0.466
1252.000	700.150	80.007	19.995	103.116	20.202	-6.307	0.501
1252.500	700.348	80.006	19.995	103.115	20.200	-6.228	0.523
1253.000	700.624	80.006	19.996	103.112	20.203	-6.445	0.488
1253.500	700.837	80.007	19.995	103.110	20.200	-6.190	0.482
1254.000	701.076	80.005	19.995	103.110	20.203	-6.397	0.470
1254.500	701.313	80.005	19.995	103.107	20.200	-6.180	0.463
1255.000	701.541	80.006	19.995	103.108	20.201	-6.292	0.471
1255.500	701.819	80.006	19.994	103.109	20.200	-6.209	0.486
1256.000	702.093	80.006	19.996	103.107	20.203	-6.391	0.529
1256.500	702.308	80.006	19.996	103.103	20.203	-6.406	0.521
1257.000	702.564	80.005	19.996	103.100	20.202	-6.321	0.480
1257.500	702.786	80.005	19.995	103.098	20.203	-6.408	0.474
1258.000	703.053	80.005	19.996	103.101	20.203	-6.404	0.483
1258.500	703.342	80.007	19.996	103.103	20.205	-6.529	0.522
1259.000	703.587	80.006	19.995	103.103	20.204	-6.485	0.545
1259.500	703.816	80.006	19.996	103.108	20.203	-6.411	0.504
1260.000	704.085	80.006	19.995	103.109	20.201	-6.303	0.486
1260.500	704.312	80.006	19.996	103.104	20.203	-6.437	0.497
1261.000	704.578	80.006	19.996	103.101	20.202	-6.332	0.494
1261.500	704.816	80.006	19.997	103.102	20.202	-6.356	0.498
1262.000	705.028	80.005	19.997	103.099	20.205	-6.538	0.477
1262.500	705.322	80.006	19.996	103.098	20.202	-6.336	0.479
1263.000	705.550	80.006	19.996	103.103	20.206	-6.646	0.514
1263.501	705.769	80.007	19.996	103.107	20.203	-6.414	0.484
1264.001	706.050	80.007	19.996	103.111	20.203	-6.437	0.474
1264.500	706.282	80.006	19.996	103.111	20.206	-6.611	0.507
1265.000	706.526	80.007	19.996	103.112	20.204	-6.503	0.494
1265.500	706.786	80.007	19.996	103.111	20.200	-6.224	0.490
1266.000	707.039	80.008	19.996	103.108	20.202	-6.348	0.509
1266.500	707.275	80.008	19.996	103.108	20.205	-6.533	0.501
1267.000	707.515	80.009	19.995	103.107	20.201	-6.301	0.482
1267.500	707.760	80.008	19.996	103.107	20.202	-6.315	0.481
1268.001	708.047	80.008	19.995	103.105	20.204	-6.460	0.509
1268.501	708.256	80.006	19.996	103.104	20.203	-6.438	0.514
1269.000	708.531	80.009	19.995	103.098	20.204	-6.477	0.489
1269.500	708.768	80.007	19.995	103.099	20.204	-6.449	0.498
1270.000	709.030	80.007	19.995	103.096	20.200	-6.205	0.506
1270.500	709.325	80.008	19.995	103.094	20.202	-6.372	0.528
1271.000	709.538	80.007	19.996	103.094	20.201	-6.240	0.533
1271.501	709.753	80.007	19.996	103.098	20.204	-6.499	0.468
1272.001	710.030	80.008	19.996	103.100	20.205	-6.575	0.460
1272.500	710.270	80.008	19.995	103.102	20.204	-6.466	0.505
1273.000	710.549	80.007	19.995	103.105	20.202	-6.367	0.518
1273.500	710.770	80.007	19.994	103.103	20.201	-6.249	0.509
1274.000	711.045	80.007	19.995	103.104	20.203	-6.445	0.498
1274.500	711.265	80.007	19.995	103.107	20.198	-6.093	0.496
1275.000	711.523	80.006	19.995	103.107	20.200	-6.170	0.487
1275.500	711.765	80.006	19.995	103.105	20.201	-6.294	0.489
1276.000	712.049	80.007	19.994	103.105	20.198	-6.048	0.513
1276.500	712.297	80.007	19.994	103.102	20.201	-6.255	0.529
1277.000	712.548	80.006	19.994	103.099	20.200	-6.214	0.515
1277.500	712.814	80.008	19.995	103.097	20.202	-6.369	0.508
1278.000	713.076	80.007	19.993	103.099	20.204	-6.458	0.522
1278.500	713.309	80.007	19.994	103.099	20.203	-6.400	0.512
1279.000	713.574	80.007	19.995	103.097	20.203	-6.402	0.496
1279.500	713.819	80.006	19.994	103.099	20.202	-6.308	0.503
1280.000	714.063	80.008	19.995	103.102	20.204	-6.488	0.500
1280.500	714.304	80.008	19.994	103.105	20.203	-6.424	0.487
1281.000	714.533	80.009	19.995	103.111	20.203	-6.376	0.477
1281.500	714.838	80.007	19.994	103.115	20.202	-6.324	0.502
1282.000	715.061	80.009	19.995	103.112	20.204	-6.510	0.531
1282.500	715.327	80.006	19.994	103.111	20.204	-6.506	0.508
1283.000	715.574	80.007	19.996	103.109	20.206	-6.610	0.501
1283.500	715.847	80.008	19.993	103.105	20.206	-6.593	0.517
1284.001	716.121	80.006	19.993	103.105	20.203	-6.410	0.533
1284.501	716.397	80.007	19.994	103.106	20.206	-6.619	0.548
1285.000	716.618	80.008	19.993	103.109	20.205	-6.530	0.524
1285.500	716.853	80.006	19.995	103.109	20.205	-6.578	0.477
1286.000	717.136	80.007	19.994	103.108	20.208	-6.746	0.487
1286.500	717.382	80.007	19.994	103.106	20.206	-6.615	0.523
1287.000	717.650	80.007	19.994	103.104	20.207	-6.659	0.522
1287.500	717.887	80.007	19.994	103.098	20.208	-6.768	0.510
1288.000	718.112	80.008	19.994	103.096	20.206	-6.594	0.483
1288.500	718.367	80.008	19.994	103.097	20.208	-6.741	0.471
1289.000	718.620	80.007	19.994	103.099	20.204	-6.474	0.494
1289.500	718.845	80.008	19.993	103.104	20.205	-6.557	0.493
1290.000	719.045	80.007	19.994	103.108	20.209	-6.843	0.452
1290.500	719.313	80.008	19.993	103.111	20.207	-6.699	0.447
1291.000	719.590	80.008	19.994	103.115	20.210	-6.922	0.506
1291.500	719.885	80.009	19.994	103.119	20.211	-6.994	0.558
1292.000	720.146	80.008	19.995	103.119	20.210	-6.918	0.564
1292.500	720.384	80.009	19.994	103.122	20.210	-6.880	0.528
1293.000	720.638	80.009	19.993	103.121	20.212	-7.052	0.496
1293.501	720.898	80.008	19.995	103.119	20.212	-7.030	0.503
1294.001	721.169	80.008	19.995	103.116	20.208	-6.763	0.523
1294.500	721.405	80.007	19.993	103.119	20.206	-6.638	0.520
1295.000	721.680	80.007	19.993	103.115	20.211	-6.955	0.509
1295.500	721.968	80.009	19.994	103.114	20.210	-6.909	0.537
1296.000	722.205	80.008	19.995	103.113	20.207	-6.704	0.544
1296.500	722.477	80.008	19.994	103.109	20.209	-6.843	0.517
1297.001	722.720	80.008	19.994	103.103	20.209	-6.843	0.512
1297.501	722.985	80.008	19.995	103.103	20.209	-6.806	0.511
1298.000	723.202	80.007	19.994	103.104	20.207	-6.688	0.495
1298.500	723.468	80.008	19.994	103.106	20.208	-6.795	0.483
1299.000	723.715	80.008	19.995	103.111	20.207	-6.717	0.497
1299.501	724.012	80.007	19.994	103.109	20.209	-6.802	0.528
1300.001	724.250	80.007	19.994	103.107	20.209	-6.864	0.540
1300.500	724.504	80.006	19.995	103.104	20.207	-6.657	0.513
1301.000	724.774	80.007	19.994	103.101	20.209	-6.811	0.508
1301.500	725.003	80.007	19.994	103.097	20.209	-6.815	0.511
1302.001	725.273	80.006	19.994	103.102	20.208	-6.755	0.498
1302.501	725.524	80.007	19.996	103.103	20.209	-6.813	0.510
1303.000	725.756	80.006	19.994	103.103	20.208	-6.744	0.502
1303.500	726.041	80.007	19.995	103.101	20.210	-6.872	0.500
1304.000	726.302	80.006	19.995	103.100	20.209	-6.832	0.532
1304.500	726.581	80.006	19.995	103.095	20.209	-6.851	0.543
1305.000	726.828	80.005	19.994	103.097	20.209	-6.851	0.533
1305.500	727.095	80.006	19.995	103.098	20.209	-6.830	0.520
1306.000	727.354	80.006	19.994	103.101	20.208	-6.779	0.520
1306.500	727.612	80.006	19.994	103.102	20.209	-6.841	0.522
1307.000	727.872	80.006	19.995	103.101	20.210	-6.885	0.517
1307.501	728.096	80.007	19.995	103.098	20.208	-6.775	0.501
1308.001	728.402	80.007	19.994	103.096	20.211	-6.949	0.508
1308.500	728.633	80.007	19.995	103.096	20.209	-6.841	0.534
1309.000	728.908	80.005	19.995	103.099	20.207	-6.694	0.521
1309.500	729.141	80.007	19.995	103.101	20.207	-6.686	0.506
1310.000	729.416	80.008	19.994	103.102	20.211	-6.961	0.507
1310.501	729.683	80.006	19.994	103.103	20.208	-6.791	0.525
1311.001	729.931	80.006	19.995	103.100	20.207	-6.719	0.529
1311.500	730.179	80.006	19.994	103.096	20.208	-6.744	0.506
1312.000	730.441	80.007	19.995	103.093	20.209	-6.858	0.503
1312.500	730.674	80.006	19.993	103.093	20.209	-6.796	0.502
1313.000	730.921	80.006	19.995	103.095	20.208	-6.736	0.487
1313.500	731.195	80.005	19.994	103.095	20.206	-6.638	0.501
1314.000	731.461	80.006	19.995	103.100	20.204	-6.500	0.531
1314.500	731.719	80.006	19.994	103.104	20.209	-6.864	0.532
1315.000	731.992	80.007	19.995	103.108	20.205	-6.574	0.528
1315.500	732.271	80.005	19.994	103.109	20.209	-6.806	0.542
1316.000	732.538	80.006	19.994	103.110	20.207	-6.661	0.549
1316.500	732.803	80.007	19.995	103.105	20.206	-6.611	0.539
1317.000	733.042	80.006	19.994	103.103	20.205	-6.561	0.518
1317.500	733.305	80.006	19.994	103.100	20.208	-6.754	0.503
1318.001	733.588	80.006	19.994	103.097	20.205	-6.578	0.524
1318.501	733.854	80.007	19.993	103.099	20.207	-6.719	0.548
1319.001	734.100	80.007	19.994	103.099	20.210	-6.894	0.531
1319.501	734.370	80.007	19.995	103.101	20.209	-6.839	0.514
1320.000	734.640	80.007	19.994	103.102	20.210	-6.874	0.528
1320.500	734.908	80.007	19.994	103.104	20.210	-6.903	0.538
1321.000	735.136	80.008	19.996	103.100	20.207	-6.720	0.517
1321.501	735.411	80.007	19.993	103.099	20.208	-6.747	0.500
1322.001	735.669	80.006	19.994	103.096	20.207	-6.688	0.518
1322.500	735.919	80.007	19.995	103.094	20.208	-6.731	0.520
1323.000	736.189	80.005	19.994	103.093	20.211	-6.945	0.514
1323.500	736.437	80.006	19.995	103.094	20.207	-6.690	0.519
1324.000	736.689	80.007	19.995	103.094	20.211	-6.995	0.509
1324.500	736.979	80.006	19.995	103.096	20.208	-6.761	0.521
1325.000	737.218	80.007	19.995	103.095	20.209	-6.835	0.536
1325.501	737.485	80.005	19.996	103.094	20.208	-6.753	0.517
1326.001	737.737	80.006	19.996	103.094	20.207	-6.661	0.512
1326.500	738.034	80.005	19.996	103.094	20.209	-6.852	0.534
1327.000	738.277	80.005	19.994	103.098	20.208	-6.775	0.544
1327.500	738.517	80.004	19.995	103.105	20.208	-6.724	0.511
1328.000	738.761	80.007	19.994	103.103	20.210	-6.872	0.484
1328.500	739.057	80.006	19.995	103.102	20.207	-6.688	0.513
1329.000	739.322	80.005	19.996	103.101	20.209	-6.816	0.551
1329.500	739.595	80.007	19.995	103.094	20.208	-6.772	0.550
1330.000	739.824	80.006	19.996	103.089	20.207	-6.685	0.520
1330.500	740.117	80.004	19.995	103.095	20.206	-6.590	0.512
1331.001	740.345	80.005	19.995	103.102	20.209	-6.855	0.521
1331.501	740.604	80.005	19.995	103.107	20.210	-6.911	0.504
1332.000	740.868	80.005	19.996	103.107	20.207	-6.673	0.505
1332.500	741.157	80.005	19.996	103.109	20.207	-6.656	0.538
1333.000	741.399	80.004	19.996	103.107	20.209	-6.820	0.542
1333.500	741.645	80.005	19.995	103.101	20.208	-6.746	0.509
1334.000	741.917	80.005	19.996	103.096	20.209	-6.860	0.503
1334.501	742.160	80.005	19.995	103.096	20.209	-6.821	0.516
1335.001	742.440	80.006	19.995	103.095	20.209	-6.833	0.519
1335.500	742.714	80.004	19.996	103.094	20.208	-6.750	0.538
1336.000	742.953	80.005	19.996	103.093	20.208	-6.781	0.534
1336.501	743.233	80.005	19.995	103.094	20.208	-6.781	0.516
1337.001	743.475	80.005	19.995	103.095	20.209	-6.808	0.521
