Sample ID:	C:\MCC\MCC Cal\Test\Polyester_Bed_Skirt_MCC_30K_min_211208_R1.txt
Sample Weight (mg):	4.54
Heating Rate (C/s):	0.5
Combustor Temp (C):	900
N2 Flow Rate (cc/min):	80
O2 Flow Rate (cc/min):	20
Calibration File:	C:\MCC\MCC Cal\Coeff1 JN10440_30_210304.txt.txt
T Correction Coefficients:	0	1.024463	0
Time Shift (s):	14
*
Time (s)	Temperature (C)	N2 flow rate (cc/min)	O2 flow rate (cc/min)	Flow Rate (cc/min)	Oxygen (%)	HRR (W/g)	Heating rate (C/s)
0.000	108.290	80.005	19.997	103.055	20.266	0.336	-0.003
0.500	108.289	80.005	19.996	103.057	20.263	0.530	0.001
1.000	108.282	80.005	19.995	103.057	20.268	0.233	-0.002
1.500	108.313	80.004	19.995	103.057	20.265	0.385	0.008
2.000	108.269	80.004	19.995	103.057	20.268	0.233	0.005
2.500	108.310	80.005	19.995	103.057	20.269	0.156	-0.008
3.000	108.255	80.005	19.995	103.055	20.265	0.436	-0.009
3.500	108.295	80.005	19.995	103.055	20.266	0.346	-0.014
4.000	108.265	80.006	19.996	103.057	20.269	0.111	-0.003
4.500	108.285	80.006	19.996	103.060	20.270	0.039	0.000
5.000	108.268	80.005	19.995	103.066	20.267	0.274	-0.003
5.500	108.315	80.005	19.995	103.074	20.265	0.417	0.017
6.000	108.279	80.005	19.995	103.081	20.264	0.491	0.020
6.500	108.288	80.006	19.994	103.087	20.266	0.372	-0.008
7.000	108.277	80.006	19.994	103.092	20.261	0.720	-0.014
7.501	108.275	80.006	19.994	103.094	20.261	0.728	-0.008
8.001	108.265	80.007	19.994	103.096	20.259	0.861	-0.012
8.500	108.296	80.006	19.994	103.097	20.263	0.520	0.005
9.000	108.308	80.006	19.994	103.105	20.260	0.740	0.032
9.500	108.357	80.007	19.994	103.118	20.261	0.697	0.052
10.000	108.298	80.007	19.994	103.128	20.261	0.699	0.025
10.500	108.310	80.007	19.994	103.135	20.259	0.820	-0.029
11.000	108.325	80.006	19.994	103.140	20.261	0.724	-0.010
11.500	108.366	80.006	19.994	103.139	20.257	0.955	0.042
12.000	108.360	80.007	19.995	103.132	20.258	0.943	0.045
12.500	108.354	80.008	19.994	103.130	20.257	1.002	0.011
13.000	108.380	80.007	19.995	103.129	20.257	1.004	0.004
13.501	108.375	80.008	19.995	103.130	20.254	1.198	0.020
14.001	108.415	80.007	19.995	103.129	20.256	1.070	0.028
14.501	108.404	80.007	19.993	103.128	20.255	1.106	0.032
15.001	108.445	80.006	19.995	103.127	20.257	0.996	0.030
15.500	108.462	80.007	19.997	103.128	20.260	0.740	0.044
16.000	108.450	80.007	19.995	103.128	20.255	1.110	0.032
16.500	108.504	80.007	19.994	103.130	20.256	1.059	0.024
17.000	108.522	80.006	19.995	103.130	20.253	1.266	0.057
17.500	108.505	80.006	19.994	103.130	20.253	1.241	0.036
18.000	108.562	80.006	19.995	103.129	20.254	1.188	0.020
18.500	108.591	80.007	19.996	103.131	20.253	1.229	0.063
19.000	108.577	80.006	19.995	103.137	20.249	1.533	0.050
19.500	108.605	80.005	19.995	103.145	20.250	1.450	0.014
20.000	108.624	80.006	19.995	103.153	20.250	1.441	0.031
20.500	108.691	80.006	19.994	103.161	20.250	1.509	0.067
21.000	108.697	80.005	19.995	103.166	20.250	1.499	0.080
21.500	108.694	80.002	19.995	103.170	20.246	1.738	0.038
22.000	108.735	80.003	19.995	103.173	20.250	1.492	0.021
22.502	108.777	80.004	19.995	103.177	20.244	1.871	0.061
23.001	108.803	80.004	19.995	103.176	20.247	1.719	0.076
23.500	108.785	80.004	19.995	103.177	20.247	1.707	0.037
24.000	108.863	80.003	19.996	103.176	20.248	1.637	0.033
24.500	108.895	80.003	19.995	103.173	20.244	1.926	0.085
25.000	108.930	80.004	19.996	103.170	20.241	2.081	0.089
25.500	108.989	80.004	19.996	103.171	20.242	2.032	0.081
26.000	109.000	80.004	19.995	103.173	20.246	1.732	0.082
26.500	109.038	80.004	19.995	103.175	20.243	2.001	0.060
27.000	109.070	80.003	19.995	103.177	20.244	1.922	0.060
27.500	109.127	80.004	19.996	103.182	20.241	2.087	0.079
28.000	109.154	80.004	19.995	103.188	20.239	2.265	0.086
28.500	109.241	80.004	19.996	103.194	20.239	2.265	0.099
29.000	109.277	80.002	19.996	103.198	20.242	2.024	0.119
29.500	109.348	80.004	19.995	103.203	20.242	2.011	0.115
30.000	109.420	80.003	19.996	103.206	20.243	1.964	0.125
30.500	109.476	80.004	19.996	103.205	20.239	2.263	0.135
31.000	109.501	80.004	19.995	103.204	20.240	2.212	0.104
31.500	109.534	80.004	19.996	103.203	20.242	2.055	0.069
32.000	109.609	80.005	19.996	103.203	20.237	2.422	0.083
32.501	109.660	80.005	19.996	103.203	20.237	2.432	0.117
33.001	109.720	80.004	19.995	103.206	20.236	2.471	0.118
33.500	109.805	80.006	19.995	103.211	20.238	2.330	0.128
34.000	109.804	80.005	19.996	103.215	20.235	2.536	0.115
34.500	109.895	80.005	19.996	103.219	20.236	2.487	0.087
35.000	109.943	80.004	19.994	103.219	20.238	2.350	0.115
35.500	110.035	80.005	19.995	103.218	20.239	2.266	0.139
36.000	110.106	80.005	19.995	103.215	20.237	2.379	0.151
36.500	110.147	80.006	19.995	103.214	20.238	2.348	0.138
37.000	110.189	80.005	19.995	103.210	20.235	2.526	0.098
37.500	110.286	80.006	19.995	103.213	20.233	2.649	0.111
38.000	110.349	80.005	19.995	103.214	20.236	2.479	0.150
38.500	110.429	80.006	19.994	103.217	20.235	2.520	0.151
39.000	110.500	80.005	19.994	103.223	20.238	2.348	0.147
39.500	110.580	80.005	19.994	103.227	20.237	2.393	0.152
40.000	110.671	80.005	19.994	103.227	20.235	2.528	0.161
40.500	110.743	80.005	19.994	103.227	20.235	2.536	0.167
41.000	110.832	80.006	19.995	103.224	20.235	2.573	0.162
41.500	110.862	80.005	19.995	103.217	20.235	2.526	0.140
42.000	110.957	80.004	19.993	103.213	20.231	2.791	0.122
42.500	111.042	80.006	19.997	103.215	20.234	2.601	0.153
43.000	111.121	80.005	19.996	103.222	20.233	2.708	0.172
43.500	111.238	80.005	19.996	103.229	20.234	2.628	0.180
44.000	111.307	80.005	19.995	103.236	20.234	2.593	0.191
44.500	111.362	80.006	19.995	103.244	20.230	2.881	0.155
45.000	111.457	80.006	19.995	103.247	20.233	2.674	0.137
45.500	111.573	80.005	19.995	103.247	20.229	2.940	0.181
46.000	111.642	80.004	19.997	103.247	20.233	2.666	0.198
46.500	111.719	80.005	19.995	103.248	20.231	2.811	0.165
47.000	111.821	80.005	19.995	103.248	20.232	2.766	0.162
47.500	111.929	80.005	19.994	103.248	20.230	2.882	0.195
48.000	111.983	80.006	19.994	103.248	20.229	2.970	0.186
48.500	112.100	80.005	19.994	103.249	20.231	2.829	0.167
49.000	112.207	80.005	19.995	103.249	20.230	2.886	0.198
49.500	112.339	80.005	19.994	103.250	20.229	2.982	0.231
50.000	112.387	80.005	19.993	103.250	20.230	2.927	0.209
50.501	112.527	80.005	19.994	103.256	20.230	2.911	0.185
51.001	112.586	80.005	19.994	103.257	20.228	3.005	0.194
51.500	112.684	80.005	19.994	103.260	20.228	3.068	0.178
52.000	112.826	80.005	19.994	103.261	20.224	3.305	0.198
52.500	112.930	80.004	19.994	103.262	20.225	3.217	0.243
53.000	113.065	80.005	19.994	103.257	20.226	3.176	0.243
53.500	113.165	80.005	19.994	103.259	20.222	3.431	0.237
54.000	113.268	80.005	19.996	103.260	20.226	3.180	0.219
54.501	113.386	80.004	19.994	103.263	20.226	3.213	0.212
55.001	113.511	80.004	19.996	103.271	20.224	3.311	0.232
55.500	113.594	80.004	19.995	103.277	20.222	3.431	0.226
56.000	113.722	80.004	19.995	103.282	20.225	3.265	0.210
56.500	113.867	80.006	19.994	103.287	20.222	3.451	0.242
57.000	113.984	80.005	19.994	103.289	20.222	3.441	0.267
57.500	114.039	80.004	19.995	103.290	20.220	3.637	0.217
58.000	114.216	80.006	19.995	103.290	20.221	3.515	0.202
58.500	114.292	80.005	19.994	103.290	20.221	3.501	0.242
59.000	114.436	80.004	19.993	103.290	20.222	3.452	0.236
59.500	114.565	80.005	19.994	103.290	20.221	3.509	0.246
60.000	114.720	80.003	19.994	103.289	20.224	3.317	0.279
60.500	114.833	80.005	19.995	103.290	20.218	3.764	0.276
61.001	114.979	80.005	19.996	103.290	20.223	3.409	0.264
61.501	115.105	80.005	19.994	103.290	20.221	3.523	0.266
62.000	115.245	80.005	19.995	103.291	20.218	3.717	0.269
62.500	115.362	80.005	19.994	103.294	20.215	3.989	0.261
63.000	115.459	80.006	19.994	103.299	20.220	3.633	0.235
63.500	115.637	80.005	19.994	103.300	20.220	3.633	0.245
64.001	115.751	80.005	19.994	103.301	20.216	3.876	0.284
64.502	115.871	80.007	19.995	103.306	20.217	3.848	0.263
65.001	115.993	80.006	19.994	103.307	20.216	3.889	0.238
65.500	116.149	80.007	19.993	103.308	20.215	3.950	0.260
66.000	116.280	80.006	19.995	103.309	20.216	3.885	0.282
66.500	116.471	80.007	19.993	103.314	20.216	3.915	0.305
67.000	116.623	80.006	19.994	103.317	20.217	3.807	0.333
67.501	116.782	80.006	19.994	103.319	20.215	3.982	0.327
68.001	116.889	80.007	19.994	103.319	20.216	3.872	0.288
68.500	117.049	80.006	19.995	103.319	20.216	3.896	0.266
69.001	117.201	80.006	19.994	103.315	20.219	3.662	0.290
69.501	117.345	80.006	19.995	103.308	20.216	3.915	0.304
70.000	117.508	80.005	19.994	103.305	20.217	3.800	0.301
70.500	117.667	80.005	19.993	103.306	20.216	3.864	0.315
71.000	117.830	80.005	19.994	103.308	20.220	3.617	0.322
71.500	117.968	80.007	19.994	103.307	20.222	3.443	0.312
72.000	118.151	80.008	19.995	103.310	20.216	3.870	0.311
72.500	118.320	80.007	19.993	103.308	20.216	3.893	0.336
73.000	118.490	80.007	19.993	103.305	20.218	3.740	0.345
73.501	118.652	80.007	19.994	103.305	20.219	3.690	0.335
74.001	118.794	80.007	19.994	103.306	20.219	3.678	0.318
74.501	118.931	80.006	19.994	103.309	20.218	3.727	0.291
75.001	119.143	80.008	19.993	103.311	20.214	4.026	0.314
75.501	119.284	80.006	19.994	103.314	20.214	4.038	0.351
76.001	119.451	80.006	19.994	103.312	20.217	3.817	0.331
76.501	119.600	80.008	19.994	103.313	20.215	3.952	0.313
77.000	119.791	80.005	19.993	103.309	20.218	3.740	0.328
77.500	119.952	80.005	19.994	103.311	20.216	3.915	0.345
78.000	120.154	80.005	19.993	103.310	20.215	3.942	0.357
78.500	120.319	80.006	19.993	103.313	20.216	3.873	0.365
79.000	120.454	80.005	19.995	103.315	20.214	4.046	0.334
79.500	120.632	80.008	19.994	103.319	20.216	3.889	0.307
80.000	120.812	80.005	19.994	103.322	20.214	4.026	0.336
80.500	121.015	80.006	19.993	103.322	20.217	3.799	0.370
81.000	121.181	80.007	19.994	103.320	20.215	3.981	0.376
81.500	121.362	80.007	19.994	103.315	20.215	3.985	0.358
82.001	121.567	80.005	19.994	103.312	20.216	3.891	0.367
82.501	121.714	80.006	19.995	103.310	20.215	3.983	0.369
83.000	121.927	80.005	19.995	103.308	20.216	3.895	0.356
83.500	122.104	80.006	19.995	103.307	20.212	4.185	0.375
84.000	122.326	80.006	19.993	103.311	20.214	4.067	0.394
84.500	122.434	80.006	19.995	103.313	20.215	3.936	0.364
85.000	122.653	80.006	19.994	103.311	20.217	3.812	0.329
85.500	122.835	80.008	19.994	103.310	20.217	3.840	0.364
86.000	123.024	80.006	19.994	103.308	20.214	4.010	0.386
86.500	123.207	80.006	19.996	103.305	20.220	3.607	0.372
87.000	123.422	80.007	19.994	103.304	20.213	4.081	0.385
87.500	123.606	80.006	19.994	103.306	20.214	4.042	0.398
88.000	123.776	80.007	19.995	103.305	20.216	3.897	0.377
88.500	123.967	80.007	19.995	103.306	20.213	4.101	0.358
89.000	124.155	80.006	19.995	103.304	20.213	4.079	0.370
89.500	124.342	80.007	19.996	103.302	20.214	4.004	0.377
90.000	124.534	80.008	19.994	103.295	20.215	3.963	0.377
90.500	124.721	80.007	19.996	103.297	20.212	4.150	0.379
91.000	124.934	80.006	19.995	103.298	20.210	4.344	0.389
91.500	125.150	80.007	19.995	103.300	20.213	4.085	0.414
92.000	125.306	80.007	19.995	103.301	20.213	4.085	0.400
92.501	125.504	80.007	19.993	103.303	20.216	3.870	0.363
93.001	125.687	80.007	19.994	103.301	20.214	3.999	0.367
93.500	125.901	80.008	19.995	103.300	20.213	4.090	0.389
94.000	126.086	80.008	19.995	103.299	20.215	3.966	0.398
94.500	126.300	80.007	19.994	103.297	20.215	3.962	0.399
95.000	126.482	80.007	19.995	103.295	20.216	3.870	0.397
95.500	126.684	80.007	19.995	103.292	20.215	3.995	0.390
96.000	126.867	80.007	19.994	103.291	20.217	3.843	0.385
96.500	127.105	80.007	19.994	103.292	20.216	3.927	0.403
97.000	127.272	80.007	19.995	103.297	20.217	3.790	0.413
97.501	127.513	80.008	19.995	103.301	20.216	3.917	0.406
98.001	127.686	80.008	19.995	103.305	20.215	3.931	0.411
98.501	127.860	80.007	19.994	103.307	20.218	3.762	0.381
99.001	128.081	80.008	19.995	103.304	20.219	3.652	0.371
99.501	128.333	80.007	19.994	103.299	20.221	3.531	0.434
100.000	128.494	80.007	19.995	103.296	20.219	3.704	0.443
100.500	128.720	80.007	19.994	103.296	20.221	3.527	0.400
101.000	128.916	80.006	19.994	103.298	20.220	3.598	0.404
101.501	129.083	80.007	19.994	103.300	20.220	3.604	0.392
102.001	129.302	80.005	19.993	103.303	20.222	3.480	0.375
102.501	129.504	80.006	19.997	103.310	20.223	3.410	0.404
103.001	129.735	80.005	19.995	103.312	20.222	3.478	0.427
103.501	129.923	80.005	19.995	103.315	20.220	3.633	0.426
104.000	130.133	80.005	19.996	103.319	20.221	3.531	0.408
104.500	130.300	80.005	19.995	103.319	20.219	3.714	0.387
105.000	130.496	80.005	19.996	103.319	20.220	3.635	0.371
105.500	130.759	80.007	19.995	103.319	20.217	3.802	0.411
106.000	130.966	80.006	19.996	103.317	20.219	3.712	0.464
106.500	131.129	80.005	19.994	103.317	20.220	3.584	0.420
107.000	131.402	80.006	19.995	103.321	20.220	3.588	0.403
107.500	131.572	80.004	19.994	103.318	20.218	3.721	0.440
108.000	131.834	80.005	19.995	103.312	20.217	3.802	0.437
108.500	132.012	80.006	19.994	103.311	20.217	3.790	0.436
109.000	132.235	80.004	19.995	103.311	20.218	3.784	0.421
109.500	132.438	80.007	19.995	103.311	20.217	3.833	0.414
110.001	132.678	80.005	19.995	103.315	20.217	3.788	0.435
110.501	132.855	80.005	19.994	103.318	20.219	3.645	0.429
111.000	133.079	80.003	19.994	103.321	20.218	3.723	0.409
111.500	133.316	80.004	19.995	103.320	20.216	3.900	0.431
112.000	133.534	80.004	19.995	103.318	20.218	3.759	0.458
112.500	133.743	80.004	19.996	103.318	20.220	3.621	0.441
113.000	133.968	80.004	19.994	103.320	20.215	3.982	0.431
113.500	134.249	80.005	19.995	103.319	20.214	4.039	0.470
114.000	134.402	80.005	19.996	103.321	20.217	3.812	0.470
114.500	134.639	80.006	19.996	103.324	20.216	3.917	0.412
115.000	134.861	80.004	19.995	103.325	20.214	4.009	0.424
115.500	135.057	80.004	19.995	103.326	20.214	4.035	0.439
116.000	135.325	80.006	19.994	103.327	20.215	3.976	0.441
116.500	135.566	80.004	19.995	103.327	20.214	4.052	0.487
117.000	135.758	80.005	19.995	103.328	20.218	3.747	0.471
117.500	135.932	80.005	19.995	103.326	20.216	3.859	0.399
118.000	136.184	80.005	19.996	103.326	20.215	3.986	0.396
118.500	136.413	80.004	19.995	103.326	20.218	3.745	0.454
119.000	136.633	80.004	19.996	103.326	20.217	3.794	0.465
119.501	136.891	80.006	19.995	103.325	20.217	3.833	0.464
120.001	137.091	80.003	19.994	103.326	20.217	3.803	0.469
120.501	137.308	80.004	19.996	103.326	20.219	3.696	0.437
121.002	137.548	80.004	19.995	103.326	20.219	3.680	0.436
121.501	137.777	80.004	19.996	103.326	20.217	3.821	0.463
122.000	137.992	80.004	19.996	103.326	20.216	3.882	0.456
122.500	138.189	80.005	19.995	103.325	20.216	3.892	0.428
123.000	138.447	80.004	19.996	103.326	20.217	3.829	0.434
123.500	138.690	80.005	19.994	103.326	20.219	3.706	0.478
124.000	138.895	80.004	19.994	103.326	20.216	3.892	0.474
124.500	139.135	80.003	19.995	103.327	20.217	3.839	0.446
125.001	139.388	80.004	19.994	103.327	20.215	3.937	0.469
125.501	139.586	80.005	19.994	103.325	20.216	3.878	0.472
126.000	139.838	80.005	19.994	103.323	20.217	3.788	0.451
126.500	140.065	80.005	19.995	103.323	20.217	3.849	0.464
127.000	140.294	80.004	19.994	103.322	20.216	3.903	0.468
127.501	140.525	80.005	19.995	103.322	20.217	3.823	0.458
128.000	140.751	80.006	19.994	103.325	20.219	3.707	0.458
128.500	140.981	80.006	19.993	103.326	20.217	3.786	0.457
129.001	141.194	80.005	19.994	103.322	20.217	3.798	0.449
129.501	141.441	80.005	19.994	103.318	20.220	3.639	0.452
130.000	141.663	80.005	19.995	103.318	20.218	3.741	0.465
130.500	141.900	80.004	19.994	103.318	20.219	3.660	0.463
131.000	142.144	80.003	19.994	103.318	20.221	3.523	0.470
131.500	142.383	80.006	19.995	103.323	20.218	3.768	0.482
132.000	142.620	80.004	19.994	103.327	20.218	3.760	0.480
132.500	142.877	80.005	19.995	103.326	20.221	3.564	0.485
133.000	143.117	80.005	19.994	103.326	20.218	3.725	0.495
133.500	143.372	80.004	19.994	103.325	20.214	4.054	0.496
134.000	143.593	80.005	19.994	103.323	20.216	3.890	0.486
134.500	143.859	80.004	19.995	103.321	20.217	3.843	0.482
135.000	144.062	80.005	19.995	103.321	20.215	3.998	0.478
135.500	144.327	80.005	19.994	103.322	20.219	3.684	0.468
136.000	144.600	80.004	19.993	103.320	20.215	3.950	0.503
136.500	144.819	80.004	19.993	103.317	20.216	3.891	0.515
137.000	145.069	80.004	19.993	103.318	20.215	3.928	0.481
137.500	145.298	80.004	19.995	103.319	20.218	3.734	0.474
138.000	145.547	80.005	19.994	103.318	20.216	3.856	0.478
138.500	145.772	80.004	19.993	103.319	20.217	3.850	0.476
139.000	146.018	80.004	19.995	103.319	20.220	3.576	0.473
139.500	146.265	80.004	19.995	103.319	20.218	3.751	0.482
140.000	146.504	80.004	19.994	103.317	20.217	3.853	0.489
140.500	146.711	80.005	19.994	103.318	20.214	4.033	0.466
141.000	146.963	80.005	19.994	103.317	20.217	3.827	0.453
141.500	147.247	80.005	19.995	103.319	20.217	3.825	0.498
142.000	147.455	80.006	19.994	103.319	20.218	3.737	0.514
142.500	147.718	80.006	19.994	103.316	20.217	3.852	0.481
143.000	147.986	80.006	19.994	103.314	20.216	3.856	0.501
143.500	148.246	80.006	19.994	103.317	20.216	3.917	0.529
144.000	148.432	80.006	19.995	103.318	20.216	3.858	0.487
144.500	148.723	80.006	19.995	103.319	20.216	3.860	0.462
145.000	148.969	80.007	19.995	103.324	20.219	3.693	0.507
145.500	149.221	80.007	19.995	103.325	20.217	3.819	0.517
146.000	149.451	80.006	19.994	103.320	20.215	3.954	0.490
146.500	149.704	80.005	19.994	103.316	20.214	4.056	0.482
147.000	149.901	80.007	19.994	103.314	20.217	3.838	0.467
147.500	150.158	80.006	19.995	103.311	20.217	3.848	0.453
148.000	150.442	80.006	19.994	103.305	20.219	3.647	0.497
148.500	150.674	80.006	19.994	103.306	20.217	3.852	0.528
149.000	150.903	80.007	19.994	103.310	20.216	3.876	0.489
149.500	151.160	80.008	19.995	103.311	20.218	3.741	0.474
150.000	151.404	80.007	19.994	103.313	20.217	3.837	0.493
150.500	151.668	80.006	19.995	103.319	20.214	3.999	0.504
151.000	151.859	80.008	19.994	103.322	20.214	4.001	0.481
151.501	152.133	80.007	19.994	103.320	20.212	4.146	0.460
152.001	152.421	80.008	19.994	103.320	20.213	4.128	0.513
152.501	152.646	80.007	19.994	103.317	20.212	4.142	0.537
153.001	152.913	80.007	19.995	103.314	20.213	4.075	0.503
153.500	153.124	80.007	19.995	103.312	20.215	3.946	0.485
154.000	153.374	80.007	19.995	103.312	20.214	4.024	0.470
154.500	153.625	80.007	19.994	103.312	20.214	4.066	0.482
155.000	153.823	80.007	19.994	103.309	20.212	4.168	0.475
155.500	154.061	80.007	19.993	103.307	20.214	4.044	0.442
156.000	154.325	80.007	19.993	103.308	20.214	4.013	0.469
156.500	154.592	80.007	19.994	103.306	20.211	4.251	0.517
157.000	154.872	80.007	19.994	103.305	20.213	4.138	0.540
157.500	155.076	80.006	19.994	103.307	20.216	3.905	0.516
158.000	155.329	80.008	19.994	103.311	20.216	3.918	0.470
158.500	155.546	80.007	19.994	103.312	20.214	4.059	0.463
159.000	155.851	80.006	19.994	103.315	20.210	4.324	0.496
159.500	156.097	80.007	19.994	103.316	20.213	4.087	0.537
160.000	156.316	80.006	19.993	103.319	20.214	4.010	0.508
160.500	156.604	80.008	19.994	103.318	20.212	4.161	0.486
161.000	156.844	80.007	19.994	103.317	20.209	4.400	0.517
161.500	157.096	80.007	19.994	103.315	20.212	4.194	0.510
162.000	157.319	80.005	19.994	103.313	20.210	4.314	0.483
162.500	157.615	80.007	19.996	103.310	20.214	4.020	0.497
163.000	157.854	80.006	19.997	103.310	20.213	4.114	0.527
163.500	158.090	80.007	19.995	103.309	20.211	4.214	0.505
164.000	158.340	80.008	19.994	103.308	20.213	4.084	0.480
164.500	158.575	80.007	19.995	103.306	20.216	3.910	0.486
165.000	158.827	80.007	19.994	103.308	20.213	4.135	0.486
165.500	159.057	80.007	19.994	103.310	20.209	4.371	0.485
166.000	159.300	80.008	19.993	103.308	20.211	4.255	0.478
166.500	159.538	80.007	19.995	103.306	20.213	4.104	0.477
167.000	159.801	80.007	19.993	103.305	20.213	4.098	0.491
167.500	160.043	80.007	19.993	103.302	20.215	3.987	0.503
168.000	160.315	80.007	19.993	103.298	20.216	3.902	0.509
168.500	160.582	80.006	19.993	103.299	20.214	4.000	0.526
169.000	160.801	80.008	19.994	103.297	20.216	3.887	0.512
169.500	161.082	80.007	19.994	103.298	20.216	3.863	0.493
170.000	161.313	80.007	19.994	103.300	20.219	3.693	0.506
170.500	161.602	80.008	19.995	103.301	20.218	3.763	0.516
171.000	161.841	80.007	19.994	103.300	20.219	3.667	0.524
171.500	162.070	80.008	19.994	103.299	20.217	3.836	0.498
172.000	162.354	80.009	19.994	103.298	20.218	3.726	0.490
172.500	162.597	80.008	19.994	103.294	20.219	3.657	0.520
173.000	162.841	80.009	19.993	103.291	20.217	3.808	0.507
173.500	163.089	80.008	19.994	103.289	20.217	3.824	0.490
174.000	163.328	80.009	19.994	103.289	20.215	3.951	0.490
174.500	163.629	80.008	19.993	103.288	20.215	3.983	0.513
175.000	163.802	80.009	19.994	103.288	20.215	3.947	0.506
175.500	164.084	80.008	19.994	103.287	20.216	3.918	0.465
176.000	164.351	80.007	19.994	103.286	20.216	3.912	0.503
176.500	164.565	80.008	19.993	103.290	20.214	4.055	0.515
177.000	164.840	80.008	19.993	103.291	20.216	3.892	0.485
177.500	165.135	80.008	19.994	103.291	20.216	3.879	0.529
178.000	165.382	80.008	19.993	103.291	20.216	3.889	0.556
178.500	165.632	80.008	19.995	103.292	20.217	3.826	0.520
179.000	165.876	80.007	19.995	103.287	20.218	3.732	0.496
179.500	166.115	80.006	19.994	103.286	20.219	3.710	0.488
180.000	166.387	80.007	19.995	103.287	20.217	3.798	0.497
180.500	166.685	80.006	19.994	103.287	20.218	3.744	0.541
181.000	166.908	80.006	19.994	103.287	20.218	3.777	0.546
181.500	167.209	80.006	19.996	103.287	20.218	3.761	0.522
182.000	167.441	80.006	19.994	103.287	20.216	3.855	0.528
182.500	167.683	80.006	19.995	103.287	20.217	3.810	0.504
183.000	167.950	80.006	19.996	103.288	20.218	3.751	0.492
183.500	168.230	80.006	19.995	103.288	20.218	3.751	0.528
184.000	168.440	80.007	19.995	103.289	20.219	3.671	0.518
184.500	168.718	80.006	19.994	103.289	20.217	3.808	0.489
185.000	169.001	80.005	19.995	103.289	20.218	3.753	0.524
185.500	169.239	80.005	19.994	103.288	20.217	3.816	0.541
186.000	169.485	80.005	19.995	103.288	20.220	3.616	0.503
186.500	169.712	80.004	19.994	103.286	20.220	3.612	0.479
187.000	169.978	80.006	19.994	103.285	20.219	3.712	0.483
187.500	170.234	80.007	19.994	103.284	20.220	3.614	0.508
188.000	170.472	80.006	19.995	103.285	20.219	3.712	0.508
188.501	170.731	80.005	19.994	103.285	20.219	3.644	0.495
189.001	170.985	80.004	19.994	103.288	20.218	3.744	0.504
189.500	171.201	80.005	19.995	103.289	20.219	3.677	0.491
190.000	171.468	80.005	19.995	103.289	20.218	3.755	0.477
190.500	171.732	80.005	19.995	103.288	20.218	3.777	0.507
191.000	172.003	80.005	19.994	103.289	20.219	3.644	0.533
191.500	172.267	80.005	19.994	103.288	20.217	3.802	0.535
192.000	172.488	80.005	19.994	103.289	20.219	3.687	0.510
192.500	172.738	80.005	19.995	103.289	20.220	3.603	0.478
193.000	173.026	80.005	19.995	103.289	20.219	3.661	0.504
193.500	173.260	80.005	19.995	103.288	20.219	3.683	0.530
194.000	173.531	80.005	19.994	103.288	20.220	3.591	0.514
194.500	173.782	80.005	19.994	103.288	20.218	3.738	0.514
195.000	174.007	80.005	19.993	103.288	20.216	3.904	0.499
195.500	174.247	80.004	19.995	103.289	20.219	3.655	0.470
196.000	174.522	80.006	19.994	103.289	20.218	3.726	0.490
196.500	174.764	80.005	19.994	103.290	20.219	3.651	0.516
197.000	175.024	80.005	19.995	103.289	20.223	3.381	0.509
197.500	175.269	80.005	19.994	103.289	20.219	3.706	0.504
198.000	175.521	80.004	19.995	103.288	20.217	3.790	0.501
198.500	175.745	80.005	19.993	103.288	20.221	3.557	0.486
199.000	176.028	80.005	19.994	103.288	20.220	3.575	0.491
199.500	176.271	80.004	19.995	103.289	20.221	3.565	0.517
200.000	176.538	80.004	19.994	103.288	20.219	3.655	0.518
200.500	176.760	80.003	19.994	103.288	20.221	3.555	0.499
201.000	176.997	80.005	19.994	103.287	20.219	3.685	0.474
201.500	177.257	80.005	19.994	103.287	20.220	3.628	0.478
202.000	177.521	80.005	19.994	103.288	20.220	3.591	0.511
202.500	177.763	80.005	19.994	103.287	20.222	3.487	0.515
203.000	178.040	80.005	19.994	103.287	20.221	3.557	0.512
203.500	178.263	80.006	19.994	103.289	20.220	3.579	0.509
204.000	178.510	80.005	19.994	103.288	20.224	3.330	0.485
204.500	178.786	80.005	19.995	103.289	20.223	3.426	0.497
205.000	179.025	80.006	19.994	103.289	20.223	3.383	0.519
205.500	179.276	80.005	19.995	103.288	20.222	3.457	0.502
206.000	179.504	80.006	19.994	103.288	20.219	3.687	0.484
206.500	179.764	80.005	19.995	103.285	20.222	3.483	0.484
207.000	180.051	80.006	19.995	103.282	20.221	3.506	0.518
207.500	180.287	80.005	19.995	103.278	20.220	3.633	0.535
208.000	180.525	80.006	19.995	103.274	20.218	3.735	0.498
208.500	180.806	80.004	19.994	103.273	20.218	3.780	0.496
209.000	181.011	80.006	19.996	103.275	20.221	3.559	0.502
209.500	181.279	80.005	19.996	103.275	20.220	3.622	0.480
210.000	181.533	80.005	19.995	103.277	20.220	3.640	0.497
210.500	181.781	80.006	19.996	103.279	20.221	3.534	0.512
211.000	182.015	80.005	19.997	103.279	20.219	3.651	0.492
211.500	182.309	80.006	19.995	103.280	20.220	3.626	0.505
212.000	182.529	80.004	19.995	103.281	20.220	3.577	0.521
212.500	182.781	80.005	19.996	103.282	20.220	3.630	0.493
213.000	182.998	80.005	19.995	103.283	20.222	3.430	0.470
213.500	183.278	80.005	19.997	103.282	20.221	3.547	0.483
214.000	183.513	80.005	19.995	103.282	20.219	3.651	0.506
214.500	183.789	80.004	19.995	103.280	20.219	3.665	0.513
215.000	184.034	80.006	19.996	103.279	20.220	3.610	0.516
215.500	184.261	80.005	19.996	103.280	20.224	3.314	0.497
216.000	184.523	80.004	19.995	103.282	20.224	3.353	0.480
216.500	184.759	80.005	19.996	103.281	20.225	3.263	0.494
217.000	185.020	80.005	19.996	103.282	20.224	3.316	0.498
217.500	185.312	80.005	19.995	103.281	20.222	3.461	0.525
218.000	185.542	80.004	19.995	103.280	20.222	3.436	0.537
218.500	185.777	80.005	19.996	103.277	20.221	3.559	0.494
219.000	186.039	80.005	19.996	103.278	20.221	3.541	0.481
219.500	186.298	80.004	19.994	103.278	20.221	3.549	0.509
220.000	186.528	80.005	19.995	103.280	20.221	3.506	0.505
220.500	186.806	80.006	19.995	103.282	20.224	3.310	0.499
221.000	187.020	80.005	19.995	103.284	20.224	3.342	0.500
221.500	187.267	80.005	19.994	103.284	20.223	3.420	0.477
222.000	187.518	80.004	19.993	103.284	20.219	3.677	0.479
222.500	187.767	80.004	19.996	103.284	20.223	3.400	0.499
223.000	188.033	80.006	19.995	103.284	20.222	3.471	0.508
223.500	188.267	80.005	19.994	103.283	20.224	3.343	0.508
224.000	188.510	80.005	19.994	103.281	20.222	3.437	0.489
224.500	188.764	80.005	19.995	103.281	20.219	3.651	0.487
225.000	188.990	80.005	19.995	103.279	20.224	3.312	0.488
225.500	189.238	80.006	19.994	103.279	20.222	3.451	0.477
226.000	189.515	80.005	19.995	103.275	20.223	3.367	0.499
226.500	189.713	80.006	19.995	103.273	20.224	3.335	0.500
227.000	189.987	80.005	19.995	103.274	20.222	3.498	0.474
227.500	190.224	80.007	19.995	103.275	20.223	3.396	0.492
228.000	190.505	80.007	19.995	103.273	20.224	3.331	0.514
228.500	190.768	80.007	19.995	103.277	20.221	3.556	0.530
229.000	191.002	80.007	19.994	103.276	20.219	3.644	0.520
229.500	191.297	80.007	19.995	103.274	20.220	3.574	0.513
230.000	191.526	80.007	19.994	103.271	20.220	3.619	0.527
230.500	191.745	80.009	19.996	103.270	20.225	3.286	0.487
231.000	191.986	80.008	19.995	103.270	20.221	3.566	0.454
231.500	192.205	80.009	19.994	103.275	20.220	3.597	0.459
232.000	192.460	80.008	19.994	103.276	20.220	3.580	0.467
232.500	192.712	80.007	19.995	103.277	20.218	3.752	0.491
233.000	192.970	80.008	19.994	103.276	20.218	3.781	0.509
233.500	193.184	80.007	19.994	103.273	20.216	3.897	0.491
234.000	193.472	80.006	19.995	103.268	20.222	3.429	0.487
234.500	193.681	80.006	19.994	103.264	20.220	3.625	0.500
235.000	193.946	80.005	19.994	103.267	20.221	3.553	0.485
235.500	194.201	80.007	19.994	103.270	20.219	3.686	0.497
236.000	194.413	80.007	19.994	103.272	20.221	3.531	0.494
236.500	194.685	80.007	19.994	103.276	20.218	3.768	0.475
237.000	194.909	80.007	19.994	103.276	20.221	3.533	0.490
237.500	195.153	80.006	19.995	103.269	20.219	3.696	0.483
238.000	195.389	80.008	19.994	103.265	20.218	3.729	0.475
238.500	195.673	80.008	19.994	103.262	20.221	3.549	0.500
239.000	195.933	80.006	19.994	103.255	20.218	3.716	0.532
239.500	196.187	80.006	19.995	103.253	20.221	3.567	0.529
240.000	196.393	80.006	19.994	103.255	20.219	3.704	0.487
240.500	196.667	80.006	19.995	103.256	20.218	3.725	0.470
241.000	196.882	80.007	19.994	103.255	20.217	3.793	0.485
241.500	197.161	80.005	19.995	103.255	20.216	3.866	0.491
242.000	197.384	80.006	19.993	103.256	20.214	4.005	0.497
242.500	197.605	80.006	19.993	103.254	20.217	3.784	0.473
243.000	197.824	80.006	19.994	103.252	20.216	3.890	0.442
243.500	198.068	80.006	19.994	103.252	20.219	3.660	0.451
244.000	198.327	80.005	19.995	103.254	20.221	3.543	0.483
244.500	198.604	80.007	19.995	103.257	20.223	3.424	0.520
245.000	198.831	80.005	19.993	103.260	20.221	3.500	0.520
245.500	199.071	80.006	19.994	103.266	20.222	3.483	0.486
246.000	199.287	80.005	19.995	103.269	20.220	3.614	0.461
246.500	199.572	80.005	19.995	103.271	20.222	3.443	0.478
247.000	199.788	80.007	19.994	103.268	20.220	3.617	0.501
247.500	200.043	80.006	19.994	103.268	20.225	3.265	0.486
248.000	200.287	80.005	19.994	103.264	20.228	3.063	0.485
248.500	200.567	80.004	19.995	103.267	20.226	3.190	0.512
249.001	200.783	80.006	19.994	103.270	20.223	3.410	0.510
249.501	201.043	80.006	19.994	103.274	20.221	3.506	0.486
250.001	201.292	80.008	19.995	103.274	20.222	3.455	0.492
250.501	201.524	80.006	19.995	103.275	20.220	3.580	0.495
251.000	201.751	80.007	19.993	103.270	20.224	3.312	0.470
251.500	202.030	80.007	19.994	103.265	20.222	3.461	0.482
252.000	202.269	80.007	19.994	103.261	20.221	3.514	0.512
252.500	202.491	80.007	19.994	103.260	20.224	3.335	0.489
253.000	202.725	80.007	19.994	103.260	20.226	3.169	0.458
253.500	203.020	80.007	19.994	103.263	20.227	3.132	0.492
254.000	203.218	80.008	19.994	103.267	20.224	3.322	0.511
254.500	203.466	80.006	19.993	103.266	20.223	3.421	0.470
255.000	203.711	80.008	19.994	103.269	20.222	3.468	0.469
255.500	203.958	80.007	19.994	103.274	20.224	3.316	0.492
256.000	204.215	80.008	19.994	103.274	20.226	3.184	0.498
256.500	204.458	80.007	19.994	103.274	20.224	3.308	0.503
257.000	204.686	80.007	19.995	103.277	20.222	3.464	0.486
257.500	204.942	80.007	19.994	103.271	20.223	3.374	0.478
258.000	205.185	80.007	19.994	103.265	20.224	3.313	0.491
258.500	205.474	80.007	19.994	103.259	20.223	3.427	0.515
259.000	205.745	80.006	19.994	103.256	20.224	3.327	0.546
259.500	205.968	80.006	19.993	103.257	20.224	3.321	0.527
260.000	206.232	80.007	19.994	103.261	20.226	3.186	0.490
260.500	206.465	80.007	19.993	103.264	20.223	3.402	0.492
261.000	206.749	80.007	19.994	103.268	20.225	3.237	0.507
261.500	206.985	80.007	19.994	103.267	20.224	3.327	0.519
262.000	207.280	80.005	19.994	103.268	20.223	3.404	0.526
262.500	207.486	80.005	19.993	103.270	20.224	3.327	0.516
263.000	207.720	80.005	19.994	103.270	20.227	3.090	0.471
263.500	207.983	80.005	19.993	103.267	20.223	3.360	0.469
264.000	208.219	80.005	19.993	103.267	20.222	3.439	0.498
264.500	208.470	80.005	19.993	103.264	20.224	3.349	0.493
265.000	208.726	80.004	19.994	103.261	20.222	3.456	0.497
265.500	208.978	80.005	19.994	103.259	20.225	3.259	0.507
266.000	209.214	80.003	19.994	103.260	20.223	3.398	0.498
266.500	209.501	80.005	19.993	103.258	20.224	3.339	0.506
267.000	209.751	80.005	19.993	103.257	20.224	3.341	0.530
267.500	209.981	80.006	19.994	103.255	20.226	3.180	0.509
268.000	210.260	80.005	19.994	103.254	20.224	3.290	0.494
268.500	210.464	80.004	19.994	103.253	20.225	3.227	0.496
269.000	210.728	80.005	19.994	103.254	20.225	3.225	0.476
269.500	210.980	80.005	19.995	103.259	20.224	3.349	0.492
270.000	211.218	80.006	19.996	103.257	20.222	3.429	0.503
270.500	211.435	80.005	19.995	103.257	20.225	3.231	0.472
271.001	211.699	80.005	19.993	103.257	20.226	3.184	0.468
271.501	211.936	80.006	19.995	103.256	20.224	3.355	0.491
272.000	212.188	80.006	19.995	103.252	20.223	3.368	0.495
272.500	212.451	80.004	19.994	103.253	20.223	3.378	0.502
273.000	212.694	80.004	19.995	103.254	20.222	3.488	0.511
273.500	212.930	80.005	19.995	103.254	20.220	3.630	0.493
274.000	213.193	80.006	19.995	103.252	20.223	3.417	0.489
274.500	213.454	80.005	19.994	103.251	20.226	3.202	0.511
275.000	213.708	80.004	19.995	103.249	20.222	3.486	0.519
275.500	213.947	80.005	19.994	103.249	20.223	3.414	0.504
276.000	214.197	80.005	19.994	103.251	20.224	3.288	0.491
276.500	214.415	80.006	19.995	103.251	20.225	3.253	0.479
277.000	214.721	80.005	19.995	103.251	20.227	3.096	0.496
277.500	214.939	80.006	19.995	103.251	20.225	3.243	0.524
278.001	215.190	80.006	19.995	103.249	20.226	3.204	0.497
278.501	215.444	80.004	19.994	103.247	20.224	3.341	0.488
279.000	215.670	80.005	19.995	103.247	20.228	3.029	0.492
279.500	215.907	80.006	19.995	103.247	20.226	3.211	0.471
280.000	216.177	80.005	19.994	103.247	20.227	3.082	0.485
280.500	216.438	80.005	19.994	103.248	20.226	3.192	0.519
281.000	216.674	80.005	19.995	103.252	20.224	3.321	0.514
281.500	216.944	80.005	19.995	103.253	20.223	3.390	0.502
282.000	217.180	80.004	19.994	103.253	20.226	3.207	0.506
282.500	217.424	80.007	19.996	103.254	20.225	3.268	0.493
283.000	217.650	80.005	19.995	103.254	20.227	3.139	0.475
283.500	217.875	80.005	19.995	103.250	20.224	3.299	0.461
284.000	218.151	80.005	19.994	103.248	20.225	3.260	0.476
284.500	218.427	80.007	19.994	103.248	20.225	3.247	0.526
285.000	218.642	80.005	19.997	103.248	20.224	3.343	0.521
285.500	218.917	80.006	19.997	103.251	20.223	3.358	0.490
286.000	219.172	80.004	19.996	103.256	20.223	3.362	0.510
286.500	219.399	80.006	19.995	103.263	20.225	3.249	0.506
287.000	219.649	80.006	19.995	103.263	20.224	3.323	0.479
287.500	219.891	80.005	19.994	103.262	20.224	3.354	0.485
288.000	220.130	80.006	19.995	103.259	20.224	3.323	0.486
288.500	220.375	80.006	19.995	103.253	20.222	3.456	0.483
289.000	220.646	80.004	19.995	103.247	20.223	3.360	0.500
289.500	220.870	80.005	19.994	103.247	20.224	3.296	0.506
290.000	221.107	80.007	19.995	103.247	20.224	3.303	0.478
290.500	221.380	80.005	19.995	103.247	20.227	3.141	0.485
291.000	221.651	80.005	19.994	103.246	20.223	3.425	0.527
291.500	221.867	80.005	19.994	103.246	20.223	3.360	0.516
292.000	222.112	80.006	19.994	103.246	20.226	3.206	0.474
292.500	222.370	80.005	19.996	103.246	20.221	3.521	0.482
293.000	222.651	80.005	19.995	103.246	20.224	3.325	0.521
293.500	222.871	80.005	19.995	103.245	20.224	3.300	0.520
294.000	223.147	80.005	19.994	103.245	20.225	3.276	0.498
294.500	223.362	80.005	19.995	103.244	20.225	3.233	0.494
295.000	223.616	80.005	19.996	103.244	20.226	3.158	0.481
295.500	223.861	80.004	19.994	103.245	20.225	3.256	0.484
296.000	224.105	80.004	19.995	103.245	20.224	3.323	0.494
296.500	224.365	80.005	19.995	103.245	20.224	3.352	0.497
297.000	224.677	80.004	19.995	103.245	20.226	3.162	0.538
297.500	224.877	80.004	19.995	103.245	20.226	3.166	0.542
298.000	225.131	80.004	19.995	103.245	20.226	3.168	0.483
298.500	225.347	80.004	19.994	103.246	20.228	3.041	0.462
299.000	225.627	80.003	19.994	103.246	20.225	3.255	0.483
299.500	225.861	80.005	19.994	103.246	20.224	3.327	0.505
300.000	226.109	80.004	19.995	103.246	20.223	3.427	0.498
300.500	226.352	80.004	19.995	103.247	20.221	3.540	0.486
301.000	226.598	80.006	19.994	103.247	20.226	3.207	0.490
301.500	226.892	80.005	19.995	103.247	20.224	3.288	0.514
302.000	227.130	80.005	19.996	103.247	20.225	3.264	0.536
302.500	227.325	80.005	19.995	103.248	20.222	3.437	0.483
303.000	227.600	80.004	19.996	103.246	20.224	3.333	0.452
303.500	227.877	80.005	19.996	103.247	20.225	3.276	0.511
304.000	228.121	80.004	19.997	103.246	20.222	3.495	0.537
304.500	228.353	80.005	19.996	103.246	20.220	3.597	0.499
305.000	228.607	80.004	19.996	103.246	20.223	3.386	0.481
305.500	228.878	80.006	19.996	103.246	20.225	3.251	0.506
306.000	229.129	80.004	19.995	103.245	20.226	3.194	0.524
306.500	229.374	80.005	19.996	103.246	20.224	3.354	0.509
307.000	229.653	80.006	19.995	103.245	20.224	3.339	0.509
307.500	229.938	80.005	19.996	103.245	20.224	3.294	0.544
308.000	230.151	80.005	19.996	103.246	20.225	3.258	0.532
308.500	230.407	80.005	19.996	103.246	20.221	3.528	0.484
309.000	230.640	80.005	19.995	103.247	20.224	3.301	0.479
309.500	230.909	80.006	19.996	103.248	20.223	3.407	0.496
310.000	231.119	80.006	19.995	103.249	20.220	3.626	0.491
310.500	231.425	80.005	19.995	103.249	20.221	3.505	0.498
311.000	231.640	80.007	19.995	103.249	20.224	3.354	0.519
311.500	231.929	80.006	19.995	103.247	20.225	3.219	0.512
312.000	232.166	80.007	19.994	103.246	20.222	3.437	0.514
312.500	232.446	80.006	19.994	103.246	20.221	3.529	0.521
313.000	232.694	80.006	19.994	103.245	20.223	3.364	0.523
313.500	232.911	80.006	19.994	103.245	20.227	3.133	0.497
314.000	233.158	80.006	19.994	103.247	20.223	3.411	0.464
314.501	233.454	80.005	19.994	103.248	20.227	3.082	0.503
315.001	233.637	80.007	19.996	103.248	20.223	3.403	0.511
315.500	233.934	80.006	19.995	103.248	20.224	3.343	0.479
316.000	234.176	80.007	19.994	103.247	20.221	3.535	0.510
316.500	234.395	80.005	19.995	103.247	20.226	3.213	0.500
317.000	234.671	80.007	19.994	103.247	20.223	3.370	0.478
317.500	234.930	80.007	19.994	103.247	20.224	3.288	0.515
318.000	235.210	80.005	19.994	103.247	20.225	3.233	0.537
318.500	235.429	80.006	19.995	103.246	20.224	3.288	0.519
319.000	235.680	80.004	19.994	103.242	20.224	3.327	0.485
319.500	235.974	80.006	19.994	103.242	20.224	3.325	0.508
320.000	236.200	80.006	19.994	103.242	20.224	3.325	0.533
320.500	236.474	80.007	19.995	103.242	20.221	3.511	0.510
321.000	236.690	80.006	19.994	103.243	20.220	3.634	0.495
321.500	236.956	80.006	19.995	103.248	20.225	3.223	0.486
322.000	237.209	80.005	19.995	103.249	20.220	3.617	0.500
322.500	237.464	80.006	19.995	103.249	20.222	3.476	0.513
323.000	237.703	80.005	19.995	103.248	20.222	3.495	0.501
323.500	237.957	80.004	19.994	103.249	20.222	3.480	0.494
324.000	238.223	80.005	19.994	103.249	20.224	3.313	0.507
324.500	238.477	80.006	19.994	103.249	20.223	3.421	0.520
325.000	238.742	80.005	19.993	103.248	20.224	3.321	0.520
325.500	238.961	80.006	19.993	103.249	20.225	3.233	0.501
326.000	239.187	80.005	19.994	103.249	20.221	3.564	0.464
326.500	239.491	80.004	19.995	103.249	20.224	3.354	0.488
327.001	239.718	80.005	19.995	103.250	20.222	3.456	0.530
327.501	239.976	80.005	19.994	103.250	20.225	3.256	0.508
328.000	240.240	80.006	19.995	103.250	20.223	3.417	0.504
328.500	240.475	80.004	19.994	103.250	20.223	3.413	0.510
329.000	240.737	80.006	19.995	103.250	20.218	3.754	0.498
329.500	240.965	80.005	19.994	103.249	20.220	3.619	0.494
330.000	241.219	80.005	19.995	103.248	20.223	3.382	0.486
330.500	241.488	80.005	19.994	103.248	20.223	3.382	0.503
331.000	241.705	80.005	19.994	103.248	20.226	3.211	0.505
331.500	241.977	80.007	19.993	103.249	20.228	3.072	0.488
332.000	242.226	80.006	19.995	103.249	20.228	3.059	0.505
332.500	242.503	80.006	19.994	103.249	20.225	3.243	0.523
333.000	242.757	80.006	19.994	103.245	20.227	3.092	0.528
333.500	243.003	80.006	19.994	103.243	20.225	3.235	0.515
334.000	243.253	80.006	19.995	103.242	20.223	3.382	0.498
334.500	243.497	80.006	19.994	103.242	20.226	3.196	0.495
335.000	243.777	80.006	19.994	103.242	20.227	3.127	0.509
335.500	244.032	80.008	19.994	103.246	20.227	3.131	0.530
336.000	244.222	80.007	19.993	103.248	20.223	3.409	0.490
336.500	244.509	80.006	19.993	103.245	20.225	3.262	0.460
337.000	244.772	80.007	19.993	103.246	20.222	3.448	0.513
337.500	245.011	80.008	19.994	103.245	20.225	3.280	0.527
338.000	245.259	80.008	19.993	103.245	20.226	3.144	0.495
338.500	245.525	80.007	19.994	103.243	20.221	3.520	0.500
339.000	245.772	80.008	19.994	103.245	20.224	3.293	0.513
339.500	246.022	80.008	19.994	103.243	20.223	3.378	0.505
340.000	246.301	80.007	19.994	103.243	20.229	2.988	0.513
340.500	246.517	80.008	19.994	103.242	20.226	3.152	0.512
341.000	246.766	80.008	19.995	103.243	20.222	3.458	0.480
341.500	247.041	80.006	19.993	103.242	20.225	3.215	0.494
342.000	247.274	80.006	19.994	103.243	20.223	3.421	0.516
342.500	247.526	80.006	19.995	103.244	20.223	3.399	0.497
343.000	247.777	80.007	19.994	103.244	20.227	3.100	0.494
343.500	247.992	80.006	19.994	103.244	20.225	3.231	0.485
344.000	248.319	80.006	19.994	103.244	20.224	3.333	0.504
344.500	248.549	80.006	19.994	103.243	20.224	3.348	0.549
345.000	248.813	80.006	19.995	103.243	20.225	3.260	0.525
345.500	249.057	80.005	19.995	103.242	20.224	3.305	0.501
346.000	249.359	80.005	19.994	103.242	20.226	3.203	0.527
346.500	249.603	80.005	19.994	103.243	20.225	3.278	0.546
347.000	249.845	80.005	19.994	103.243	20.226	3.153	0.516
347.500	250.135	80.005	19.994	103.242	20.225	3.256	0.509
348.000	250.354	80.006	19.994	103.238	20.226	3.182	0.521
348.500	250.573	80.005	19.994	103.238	20.225	3.254	0.474
349.000	250.892	80.006	19.995	103.236	20.223	3.425	0.488
349.500	251.111	80.007	19.994	103.234	20.223	3.420	0.538
350.000	251.360	80.006	19.994	103.233	20.224	3.350	0.503
350.500	251.617	80.006	19.994	103.238	20.225	3.262	0.487
351.000	251.840	80.004	19.993	103.239	20.225	3.233	0.493
351.500	252.102	80.005	19.993	103.241	20.225	3.252	0.482
352.000	252.370	80.006	19.994	103.243	20.225	3.237	0.507
352.500	252.583	80.005	19.993	103.246	20.224	3.337	0.506
353.000	252.798	80.005	19.994	103.245	20.225	3.245	0.455
353.500	253.098	80.005	19.994	103.245	20.228	3.037	0.472
354.000	253.369	80.005	19.994	103.245	20.224	3.317	0.543
354.500	253.587	80.006	19.994	103.245	20.224	3.297	0.530
355.000	253.814	80.005	19.994	103.245	20.224	3.293	0.467
355.500	254.087	80.005	19.995	103.244	20.221	3.532	0.472
356.000	254.337	80.006	19.995	103.243	20.224	3.321	0.511
356.500	254.581	80.006	19.994	103.243	20.224	3.344	0.508
357.000	254.811	80.006	19.993	103.243	20.224	3.291	0.484
357.500	255.098	80.004	19.993	103.243	20.225	3.260	0.496
358.000	255.337	80.007	19.993	103.245	20.223	3.358	0.521
358.500	255.571	80.006	19.994	103.246	20.221	3.503	0.499
359.000	255.851	80.005	19.994	103.246	20.225	3.229	0.494
359.500	256.104	80.006	19.994	103.243	20.222	3.462	0.524
360.000	256.352	80.005	19.994	103.237	20.221	3.562	0.517
360.500	256.611	80.007	19.994	103.233	20.225	3.231	0.504
361.000	256.820	80.005	19.994	103.233	20.224	3.313	0.488
361.500	257.113	80.006	19.993	103.233	20.224	3.309	0.485
362.000	257.336	80.005	19.994	103.234	20.224	3.309	0.509
362.500	257.587	80.005	19.994	103.240	20.223	3.366	0.494
363.000	257.804	80.005	19.994	103.244	20.223	3.424	0.471
363.500	258.060	80.007	19.994	103.243	20.221	3.530	0.471
364.000	258.348	80.006	19.994	103.243	20.222	3.487	0.508
364.500	258.561	80.006	19.994	103.244	20.222	3.493	0.523
365.000	258.832	80.007	19.995	103.245	20.221	3.528	0.493
365.500	259.074	80.005	19.994	103.243	20.224	3.333	0.499
366.000	259.345	80.005	19.994	103.240	20.218	3.720	0.513
366.500	259.556	80.004	19.995	103.239	20.223	3.378	0.498
367.000	259.814	80.004	19.995	103.238	20.222	3.497	0.476
367.500	260.056	80.005	19.995	103.236	20.223	3.390	0.484
368.000	260.282	80.004	19.995	103.232	20.224	3.331	0.484
368.500	260.544	80.005	19.994	103.233	20.221	3.505	0.477
369.000	260.799	80.005	19.994	103.233	20.223	3.364	0.502
369.500	260.996	80.004	19.994	103.233	20.225	3.260	0.484
370.000	261.233	80.003	19.995	103.234	20.225	3.266	0.443
370.500	261.506	80.004	19.994	103.238	20.223	3.401	0.473
371.000	261.740	80.004	19.995	103.238	20.222	3.489	0.509
371.500	262.001	80.006	19.995	103.236	20.223	3.407	0.501
372.000	262.270	80.005	19.995	103.238	20.223	3.375	0.512
372.500	262.507	80.004	19.994	103.236	20.221	3.501	0.518
373.000	262.747	80.005	19.996	103.232	20.222	3.459	0.491
373.500	263.035	80.005	19.995	103.231	20.225	3.244	0.502
374.000	263.248	80.004	19.995	103.231	20.223	3.421	0.515
374.500	263.548	80.004	19.994	103.231	20.222	3.434	0.508
375.000	263.737	80.004	19.995	103.229	20.223	3.407	0.501
375.500	263.996	80.005	19.994	103.234	20.223	3.425	0.468
376.000	264.256	80.005	19.995	103.239	20.226	3.164	0.483
376.500	264.503	80.005	19.995	103.241	20.221	3.530	0.513
377.000	264.802	80.004	19.995	103.242	20.222	3.466	0.527
377.500	265.002	80.004	19.995	103.248	20.221	3.526	0.523
378.000	265.231	80.003	19.995	103.248	20.224	3.348	0.464
378.500	265.486	80.003	19.996	103.245	20.223	3.409	0.456
379.000	265.737	80.005	19.995	103.242	20.224	3.313	0.495
379.500	266.002	80.004	19.994	103.240	20.226	3.200	0.511
380.000	266.236	80.004	19.994	103.239	20.226	3.201	0.508
380.500	266.491	80.004	19.995	103.235	20.225	3.223	0.494
381.000	266.733	80.004	19.994	103.237	20.224	3.319	0.493
381.500	266.967	80.005	19.994	103.239	20.224	3.299	0.487
382.000	267.276	80.005	19.995	103.234	20.227	3.102	0.510
382.500	267.506	80.006	19.995	103.230	20.225	3.219	0.541
383.000	267.743	80.005	19.995	103.231	20.224	3.335	0.503
383.500	268.002	80.005	19.996	103.227	20.225	3.241	0.482
384.000	268.266	80.004	19.995	103.227	20.224	3.297	0.510
384.500	268.534	80.004	19.994	103.232	20.225	3.270	0.527
385.000	268.763	80.005	19.996	103.237	20.223	3.395	0.514
385.500	269.017	80.004	19.996	103.242	20.224	3.334	0.490
386.000	269.280	80.005	19.996	103.245	20.226	3.166	0.500
386.500	269.513	80.005	19.995	103.244	20.226	3.180	0.507
387.000	269.791	80.004	19.995	103.241	20.225	3.233	0.503
387.500	270.000	80.004	19.995	103.240	20.222	3.448	0.499
388.000	270.297	80.005	19.995	103.241	20.223	3.407	0.497
388.500	270.552	80.004	19.994	103.241	20.223	3.405	0.529
389.000	270.782	80.006	19.996	103.244	20.221	3.528	0.518
389.500	271.049	80.004	19.994	103.245	20.224	3.336	0.491
390.000	271.347	80.004	19.995	103.243	20.219	3.706	0.531
390.500	271.560	80.004	19.997	103.242	20.222	3.479	0.538
391.000	271.805	80.004	19.995	103.242	20.222	3.463	0.485
391.500	272.089	80.005	19.995	103.239	20.224	3.320	0.494
392.000	272.334	80.003	19.995	103.242	20.223	3.416	0.529
392.500	272.595	80.006	19.996	103.244	20.225	3.277	0.517
393.000	272.851	80.005	19.995	103.245	20.224	3.346	0.511
393.500	273.099	80.006	19.996	103.242	20.223	3.373	0.510
394.000	273.350	80.006	19.995	103.241	20.224	3.344	0.502
394.500	273.572	80.004	19.995	103.239	20.225	3.246	0.486
395.000	273.817	80.003	19.995	103.237	20.225	3.256	0.470
395.500	274.078	80.006	19.996	103.236	20.224	3.309	0.487
396.000	274.366	80.005	19.997	103.234	20.224	3.297	0.528
396.500	274.626	80.006	19.996	103.235	20.222	3.493	0.548
397.000	274.886	80.005	19.996	103.237	20.226	3.203	0.534
397.500	275.112	80.006	19.996	103.239	20.224	3.295	0.503
398.000	275.363	80.005	19.996	103.240	20.225	3.263	0.482
398.500	275.583	80.006	19.996	103.239	20.224	3.342	0.474
399.000	275.854	80.005	19.995	103.237	20.225	3.234	0.481
399.500	276.088	80.005	19.995	103.231	20.223	3.361	0.498
400.000	276.341	80.006	19.995	103.225	20.223	3.369	0.496
400.500	276.629	80.006	19.996	103.224	20.225	3.236	0.514
401.000	276.851	80.006	19.995	103.223	20.225	3.222	0.526
401.500	277.097	80.005	19.995	103.224	20.223	3.422	0.489
402.000	277.323	80.006	19.995	103.225	20.225	3.256	0.470
402.500	277.575	80.006	19.995	103.223	20.225	3.272	0.475
403.000	277.832	80.005	19.997	103.225	20.227	3.078	0.494
403.500	278.057	80.005	19.997	103.227	20.224	3.297	0.496
404.000	278.320	80.005	19.996	103.226	20.225	3.254	0.485
404.500	278.569	80.005	19.996	103.228	20.225	3.248	0.500
405.000	278.842	80.007	19.996	103.231	20.224	3.316	0.517
405.500	279.085	80.005	19.996	103.229	20.226	3.201	0.519
406.000	279.354	80.006	19.995	103.231	20.224	3.305	0.513
406.500	279.589	80.006	19.995	103.231	20.228	3.060	0.508
407.000	279.848	80.005	19.995	103.230	20.225	3.285	0.499
407.500	280.090	80.005	19.995	103.227	20.223	3.418	0.498
408.000	280.368	80.005	19.995	103.221	20.228	3.025	0.510
408.500	280.587	80.005	19.996	103.220	20.222	3.461	0.509
409.000	280.870	80.006	19.994	103.219	20.226	3.209	0.499
409.500	281.112	80.006	19.995	103.218	20.223	3.379	0.514
410.000	281.344	80.008	19.994	103.219	20.224	3.338	0.500
410.500	281.581	80.006	19.995	103.222	20.224	3.303	0.472
411.000	281.857	80.006	19.994	103.220	20.224	3.291	0.491
411.500	282.093	80.008	19.993	103.218	20.223	3.395	0.512
412.000	282.354	80.007	19.995	103.220	20.226	3.183	0.504
412.500	282.604	80.008	19.995	103.222	20.226	3.173	0.504
413.000	282.878	80.007	19.994	103.226	20.225	3.262	0.518
413.500	283.094	80.007	19.994	103.230	20.226	3.189	0.507
414.000	283.371	80.007	19.993	103.230	20.223	3.381	0.491
414.500	283.606	80.006	19.994	103.228	20.224	3.339	0.502
415.000	283.834	80.009	19.994	103.225	20.224	3.355	0.488
415.500	284.106	80.007	19.993	103.218	20.223	3.359	0.481
416.000	284.359	80.007	19.994	103.215	20.221	3.565	0.512
416.500	284.634	80.007	19.993	103.217	20.222	3.493	0.527
417.000	284.862	80.007	19.994	103.219	20.224	3.295	0.516
417.500	285.085	80.008	19.994	103.220	20.220	3.616	0.477
418.000	285.368	80.007	19.993	103.221	20.220	3.569	0.478
418.500	285.570	80.008	19.994	103.220	20.223	3.372	0.496
419.000	285.816	80.007	19.993	103.218	20.225	3.250	0.466
419.500	286.078	80.007	19.993	103.219	20.224	3.318	0.478
420.000	286.355	80.009	19.994	103.219	20.225	3.238	0.524
420.500	286.634	80.008	19.994	103.223	20.225	3.271	0.548
421.000	286.823	80.008	19.995	103.224	20.223	3.426	0.512
421.500	287.123	80.009	19.994	103.225	20.229	2.997	0.479
422.000	287.362	80.007	19.995	103.225	20.222	3.433	0.515
422.500	287.627	80.007	19.995	103.229	20.226	3.144	0.521
423.000	287.844	80.008	19.995	103.225	20.224	3.312	0.492
423.500	288.122	80.008	19.995	103.222	20.225	3.269	0.488
424.000	288.367	80.006	19.994	103.221	20.226	3.211	0.509
424.500	288.585	80.005	19.995	103.216	20.226	3.199	0.494
425.001	288.828	80.007	19.995	103.211	20.225	3.262	0.462
425.501	289.067	80.007	19.995	103.211	20.223	3.360	0.472
426.000	289.369	80.006	19.995	103.214	20.224	3.336	0.511
426.500	289.601	80.005	19.995	103.218	20.225	3.234	0.537
427.000	289.862	80.005	19.995	103.224	20.224	3.316	0.513
427.500	290.114	80.005	19.994	103.230	20.224	3.340	0.503
428.000	290.375	80.005	19.995	103.233	20.223	3.395	0.514
428.500	290.631	80.005	19.995	103.236	20.225	3.265	0.515
429.000	290.885	80.005	19.994	103.236	20.220	3.585	0.513
429.500	291.129	80.004	19.995	103.233	20.221	3.565	0.503
430.000	291.372	80.005	19.994	103.228	20.222	3.461	0.493
430.500	291.599	80.006	19.995	103.228	20.220	3.626	0.479
431.000	291.863	80.004	19.995	103.223	20.224	3.324	0.481
431.500	292.135	80.004	19.994	103.217	20.224	3.326	0.513
432.000	292.397	80.005	19.994	103.217	20.223	3.420	0.535
432.500	292.660	80.006	19.995	103.214	20.225	3.228	0.529
433.000	292.883	80.003	19.995	103.210	20.222	3.440	0.505
433.500	293.161	80.005	19.995	103.213	20.225	3.219	0.494
434.000	293.401	80.004	19.996	103.215	20.223	3.426	0.510
434.500	293.646	80.004	19.995	103.217	20.222	3.473	0.501
435.000	293.958	80.005	19.995	103.220	20.225	3.261	0.521
435.500	294.152	80.003	19.996	103.223	20.223	3.396	0.532
436.000	294.439	80.005	19.995	103.224	20.221	3.541	0.494
436.500	294.685	80.004	19.995	103.225	20.223	3.400	0.507
437.000	294.957	80.005	19.993	103.226	20.220	3.639	0.526
437.500	295.193	80.004	19.994	103.225	20.221	3.500	0.513
438.000	295.435	80.005	19.994	103.224	20.222	3.465	0.493
438.500	295.694	80.004	19.993	103.219	20.220	3.620	0.489
439.000	295.911	80.004	19.993	103.218	20.221	3.551	0.488
439.500	296.181	80.005	19.995	103.219	20.222	3.440	0.482
440.000	296.449	80.005	19.995	103.221	20.221	3.520	0.513
440.500	296.666	80.004	19.994	103.226	20.224	3.310	0.511
441.000	296.925	80.005	19.994	103.227	20.223	3.399	0.481
441.500	297.149	80.003	19.994	103.226	20.225	3.263	0.480
442.000	297.426	80.003	19.994	103.223	20.224	3.308	0.492
442.500	297.663	80.004	19.994	103.222	20.225	3.277	0.507
443.000	297.933	80.005	19.995	103.222	20.221	3.539	0.510
443.500	298.187	80.005	19.994	103.225	20.224	3.312	0.516
444.000	298.430	80.005	19.994	103.226	20.225	3.230	0.511
444.500	298.658	80.005	19.994	103.224	20.226	3.208	0.484
445.000	298.883	80.004	19.995	103.224	20.225	3.281	0.462
445.500	299.183	80.005	19.994	103.219	20.223	3.377	0.489
446.000	299.434	80.006	19.995	103.216	20.224	3.299	0.538
446.500	299.640	80.005	19.992	103.217	20.222	3.451	0.504
447.000	299.955	80.006	19.996	103.219	20.222	3.479	0.489
447.500	300.184	80.006	19.994	103.217	20.221	3.545	0.532
448.000	300.448	80.005	19.994	103.215	20.223	3.387	0.518
448.500	300.676	80.005	19.994	103.218	20.222	3.467	0.492
449.000	300.938	80.005	19.995	103.217	20.221	3.526	0.491
449.500	301.179	80.005	19.994	103.215	20.223	3.418	0.497
450.000	301.436	80.005	19.994	103.216	20.223	3.387	0.501
450.500	301.707	80.007	19.995	103.218	20.225	3.263	0.513
451.000	301.865	80.005	19.994	103.216	20.226	3.185	0.478
451.500	302.169	80.005	19.994	103.219	20.224	3.338	0.445
452.000	302.438	80.005	19.993	103.220	20.224	3.297	0.518
452.500	302.666	80.004	19.994	103.221	20.227	3.089	0.535
453.000	302.932	80.005	19.995	103.221	20.227	3.116	0.495
453.500	303.186	80.005	19.994	103.219	20.222	3.437	0.507
454.000	303.442	80.004	19.994	103.217	20.223	3.396	0.515
454.500	303.691	80.006	19.993	103.217	20.222	3.439	0.507
455.000	303.930	80.003	19.995	103.215	20.225	3.277	0.496
455.500	304.189	80.004	19.994	103.212	20.226	3.152	0.493
456.000	304.444	80.003	19.994	103.214	20.226	3.212	0.506
456.500	304.692	80.004	19.995	103.213	20.224	3.347	0.508
457.000	304.940	80.004	19.995	103.217	20.227	3.105	0.500
457.500	305.194	80.003	19.995	103.219	20.226	3.208	0.499
458.000	305.492	80.003	19.997	103.220	20.226	3.195	0.527
458.500	305.706	80.004	19.995	103.220	20.224	3.292	0.532
459.000	305.972	80.003	19.995	103.220	20.223	3.367	0.496
459.500	306.181	80.004	19.994	103.216	20.224	3.296	0.478
460.000	306.482	80.004	19.995	103.214	20.225	3.261	0.493
460.500	306.758	80.004	19.995	103.214	20.225	3.245	0.544
461.000	306.997	80.004	19.995	103.213	20.224	3.296	0.546
461.500	307.240	80.004	19.994	103.212	20.222	3.429	0.498
462.000	307.495	80.003	19.994	103.212	20.224	3.353	0.490
462.500	307.723	80.003	19.997	103.214	20.222	3.465	0.490
463.000	308.005	80.005	19.995	103.214	20.223	3.404	0.496
463.500	308.229	80.003	19.996	103.214	20.223	3.416	0.509
464.000	308.517	80.005	19.996	103.214	20.222	3.463	0.509
464.500	308.743	80.005	19.996	103.213	20.223	3.361	0.513
465.000	309.013	80.004	19.995	103.212	20.225	3.259	0.505
465.500	309.244	80.004	19.995	103.211	20.223	3.394	0.498
466.000	309.496	80.003	19.996	103.211	20.220	3.584	0.492
466.500	309.788	80.004	19.995	103.210	20.224	3.318	0.513
467.000	310.031	80.005	19.997	103.211	20.224	3.318	0.539
467.500	310.262	80.005	19.997	103.213	20.223	3.369	0.505
468.000	310.560	80.003	19.995	103.212	20.221	3.520	0.502
468.500	310.784	80.004	19.997	103.211	20.221	3.565	0.525
469.000	311.064	80.006	19.996	103.211	20.220	3.608	0.512
469.500	311.295	80.005	19.995	103.209	20.222	3.435	0.507
470.000	311.531	80.005	19.996	103.207	20.222	3.431	0.489
470.500	311.800	80.005	19.995	103.208	20.221	3.563	0.486
471.000	312.098	80.006	19.995	103.209	20.219	3.653	0.536
471.500	312.355	80.007	19.995	103.209	20.217	3.790	0.561
472.000	312.586	80.006	19.995	103.208	20.220	3.592	0.521
472.500	312.823	80.006	19.995	103.208	20.216	3.862	0.478
473.000	313.086	80.007	19.996	103.208	20.221	3.539	0.484
473.500	313.315	80.005	19.995	103.208	20.219	3.658	0.496
474.000	313.581	80.007	19.995	103.208	20.216	3.876	0.493
474.500	313.848	80.006	19.996	103.208	20.219	3.707	0.514
475.000	314.104	80.006	19.996	103.208	20.218	3.723	0.528
475.500	314.320	80.006	19.995	103.209	20.219	3.668	0.497
476.000	314.572	80.007	19.996	103.209	20.220	3.633	0.469
476.500	314.852	80.007	19.995	103.209	20.219	3.658	0.500
477.000	315.094	80.007	19.994	103.210	20.218	3.778	0.527
477.500	315.354	80.007	19.994	103.209	20.219	3.702	0.513
478.000	315.583	80.007	19.995	103.208	20.218	3.743	0.495
478.500	315.853	80.007	19.996	103.209	20.220	3.637	0.493
479.000	316.132	80.008	19.995	103.209	20.218	3.731	0.524
479.500	316.360	80.005	19.994	103.209	20.219	3.686	0.528
480.000	316.613	80.006	19.995	103.209	20.222	3.488	0.494
480.500	316.870	80.006	19.996	103.210	20.221	3.519	0.496
481.000	317.111	80.007	19.996	103.209	20.220	3.586	0.504
481.500	317.364	80.006	19.994	103.209	20.218	3.725	0.496
482.000	317.621	80.005	19.995	103.208	20.218	3.768	0.502
482.500	317.826	80.006	19.995	103.206	20.218	3.713	0.486
483.000	318.100	80.004	19.996	103.206	20.218	3.725	0.470
483.500	318.356	80.005	19.996	103.208	20.218	3.713	0.505
484.000	318.648	80.006	19.995	103.208	20.219	3.670	0.539
484.500	318.855	80.006	19.995	103.209	20.219	3.692	0.524
485.000	319.107	80.005	19.996	103.210	20.219	3.692	0.479
485.500	319.365	80.006	19.996	103.211	20.219	3.655	0.485
486.000	319.587	80.004	19.995	103.209	20.221	3.543	0.495
486.500	319.860	80.006	19.994	103.209	20.220	3.621	0.487
487.000	320.087	80.006	19.994	103.209	20.221	3.533	0.497
487.500	320.350	80.005	19.995	103.208	20.221	3.504	0.495
488.000	320.588	80.005	19.995	103.208	20.221	3.500	0.495
488.500	320.808	80.004	19.996	103.208	20.218	3.733	0.479
489.000	321.094	80.005	19.995	103.209	20.220	3.629	0.483
489.500	321.340	80.003	19.996	103.209	20.221	3.516	0.519
490.000	321.586	80.006	19.995	103.209	20.219	3.680	0.511
490.500	321.865	80.006	19.996	103.209	20.220	3.625	0.508
491.000	322.118	80.007	19.997	103.209	20.220	3.570	0.529
491.500	322.350	80.006	19.995	103.208	20.220	3.613	0.509
492.000	322.607	80.006	19.995	103.208	20.217	3.841	0.487
492.500	322.894	80.005	19.996	103.208	20.221	3.547	0.517
493.000	323.144	80.005	19.996	103.207	20.219	3.662	0.540
493.500	323.411	80.005	19.996	103.206	20.221	3.541	0.526
494.000	323.636	80.007	19.996	103.206	20.218	3.721	0.504
494.500	323.890	80.005	19.996	103.206	20.217	3.835	0.486
495.001	324.153	80.007	19.996	103.206	20.219	3.641	0.498
495.501	324.398	80.007	19.996	103.206	20.220	3.619	0.513
496.000	324.654	80.006	19.995	103.207	20.219	3.696	0.504
496.500	324.923	80.007	19.997	103.207	20.220	3.578	0.513
497.000	325.201	80.007	19.995	103.207	20.220	3.633	0.536
497.500	325.416	80.008	19.995	103.206	20.219	3.694	0.520
498.000	325.677	80.007	19.995	103.207	20.219	3.651	0.484
498.500	325.976	80.009	19.996	103.208	20.220	3.631	0.518
499.000	326.166	80.007	19.995	103.208	20.221	3.529	0.525
499.500	326.456	80.006	19.995	103.208	20.223	3.379	0.484
500.000	326.671	80.009	19.995	103.208	20.219	3.688	0.492
500.500	326.917	80.007	19.994	103.209	20.221	3.524	0.483
501.000	327.195	80.008	19.994	103.208	20.220	3.586	0.493
501.500	327.484	80.007	19.993	103.208	20.222	3.486	0.546
502.000	327.721	80.008	19.994	103.209	20.218	3.735	0.547
502.500	327.947	80.008	19.994	103.209	20.220	3.602	0.494
503.000	328.206	80.007	19.994	103.209	20.216	3.860	0.474
503.500	328.437	80.008	19.994	103.209	20.217	3.801	0.488
504.000	328.702	80.007	19.994	103.210	20.219	3.670	0.493
504.500	329.001	80.008	19.995	103.210	20.218	3.719	0.530
505.000	329.197	80.008	19.994	103.210	20.218	3.762	0.529
505.500	329.480	80.006	19.994	103.210	20.217	3.827	0.487
506.000	329.742	80.006	19.994	103.210	20.218	3.772	0.513
506.500	330.007	80.005	19.994	103.211	20.219	3.668	0.536
507.000	330.211	80.007	19.993	103.210	20.216	3.854	0.498
507.500	330.468	80.007	19.994	103.210	20.217	3.817	0.465
508.000	330.706	80.004	19.995	103.210	20.214	4.060	0.478
508.500	330.995	80.004	19.995	103.210	20.215	3.952	0.511
509.000	331.215	80.005	19.994	103.210	20.219	3.662	0.518
509.500	331.496	80.005	19.994	103.210	20.219	3.670	0.505
510.000	331.728	80.005	19.995	103.210	20.217	3.798	0.507
510.500	332.007	80.005	19.994	103.210	20.217	3.807	0.512
511.000	332.240	80.005	19.995	103.212	20.219	3.668	0.511
511.500	332.549	80.003	19.995	103.214	20.224	3.351	0.527
512.000	332.804	80.006	19.994	103.215	20.222	3.447	0.553
512.500	333.061	80.006	19.993	103.216	20.220	3.633	0.538
513.000	333.305	80.005	19.994	103.216	20.223	3.377	0.507
513.500	333.563	80.006	19.994	103.214	20.216	3.880	0.502
514.000	333.836	80.005	19.994	103.212	20.217	3.825	0.516
514.500	334.068	80.004	19.994	103.211	20.216	3.901	0.518
515.000	334.326	80.004	19.994	103.211	20.215	3.958	0.497
515.500	334.607	80.005	19.995	103.210	20.218	3.749	0.515
516.001	334.846	80.004	19.995	103.210	20.219	3.643	0.530
516.501	335.079	80.005	19.993	103.210	20.220	3.637	0.496
517.000	335.345	80.004	19.993	103.210	20.216	3.903	0.486
517.500	335.572	80.003	19.994	103.210	20.217	3.823	0.497
518.000	335.840	80.003	19.994	103.211	20.215	3.946	0.494
518.500	336.094	80.004	19.994	103.211	20.216	3.868	0.508
519.000	336.330	80.003	19.994	103.212	20.216	3.878	0.506
519.501	336.611	80.005	19.994	103.212	20.214	4.001	0.503
520.001	336.835	80.004	19.993	103.211	20.213	4.103	0.511
520.500	337.078	80.004	19.993	103.212	20.217	3.790	0.486
521.000	337.337	80.004	19.995	103.212	20.214	4.032	0.484
521.500	337.606	80.003	19.993	103.212	20.217	3.837	0.515
522.000	337.837	80.003	19.994	103.212	20.216	3.915	0.514
522.500	338.091	80.004	19.994	103.212	20.218	3.748	0.493
523.000	338.361	80.004	19.996	103.213	20.216	3.872	0.505
523.500	338.644	80.004	19.994	103.212	20.218	3.723	0.538
524.000	338.851	80.005	19.994	103.212	20.217	3.792	0.521
524.500	339.122	80.005	19.995	103.213	20.217	3.801	0.484
525.000	339.379	80.005	19.996	103.213	20.215	3.968	0.504
525.500	339.629	80.005	19.995	103.213	20.216	3.913	0.517
526.000	339.882	80.005	19.994	103.212	20.216	3.874	0.504
526.500	340.151	80.005	19.995	103.213	20.216	3.854	0.512
527.000	340.446	80.005	19.995	103.213	20.212	4.173	0.543
527.501	340.669	80.005	19.994	103.210	20.215	3.932	0.541
528.000	340.953	80.005	19.995	103.210	20.216	3.895	0.512
528.500	341.201	80.005	19.994	103.210	20.219	3.664	0.520
529.000	341.419	80.005	19.994	103.209	20.217	3.803	0.499
529.500	341.674	80.006	19.995	103.209	20.217	3.821	0.470
530.000	341.909	80.006	19.996	103.210	20.218	3.752	0.482
530.500	342.159	80.006	19.995	103.210	20.218	3.768	0.488
531.000	342.422	80.004	19.994	103.210	20.218	3.772	0.499
531.500	342.680	80.006	19.993	103.209	20.216	3.860	0.517
532.000	342.942	80.005	19.996	103.209	20.215	3.927	0.520
532.500	343.189	80.004	19.994	103.209	20.218	3.737	0.515
533.000	343.405	80.007	19.995	103.208	20.214	4.042	0.486
533.500	343.673	80.004	19.995	103.208	20.217	3.821	0.473
534.000	343.949	80.005	19.994	103.209	20.219	3.662	0.514
534.500	344.191	80.006	19.993	103.209	20.213	4.068	0.531
535.000	344.420	80.005	19.995	103.208	20.218	3.739	0.494
535.500	344.682	80.005	19.995	103.208	20.220	3.594	0.481
536.000	344.960	80.006	19.995	103.208	20.221	3.527	0.515
536.500	345.202	80.005	19.995	103.208	20.220	3.570	0.530
537.000	345.435	80.005	19.994	103.208	20.219	3.684	0.497
537.500	345.723	80.003	19.995	103.208	20.218	3.749	0.498
538.000	345.996	80.005	19.995	103.208	20.217	3.844	0.541
538.500	346.244	80.004	19.995	103.208	20.216	3.876	0.541
539.000	346.479	80.004	19.995	103.208	20.217	3.823	0.502
539.500	346.736	80.003	19.995	103.208	20.216	3.858	0.487
540.000	346.988	80.004	19.994	103.208	20.216	3.889	0.501
540.500	347.262	80.004	19.994	103.208	20.216	3.862	0.518
541.001	347.511	80.003	19.995	103.208	20.217	3.782	0.525
541.501	347.739	80.007	19.995	103.208	20.219	3.692	0.500
542.000	348.010	80.004	19.994	103.208	20.217	3.821	0.488
542.500	348.284	80.004	19.995	103.208	20.220	3.580	0.522
543.000	348.493	80.004	19.994	103.209	20.218	3.778	0.514
543.500	348.800	80.004	19.994	103.209	20.216	3.913	0.499
544.000	349.000	80.004	19.994	103.208	20.216	3.879	0.511
544.501	349.300	80.004	19.995	103.209	20.218	3.754	0.503
545.001	349.559	80.005	19.992	103.209	20.214	3.995	0.529
545.500	349.840	80.004	19.996	103.209	20.213	4.118	0.549
546.000	350.037	80.004	19.994	103.209	20.215	3.944	0.509
546.500	350.317	80.005	19.996	103.209	20.215	3.974	0.478
547.000	350.577	80.004	19.995	103.209	20.210	4.291	0.509
547.500	350.844	80.004	19.995	103.209	20.215	3.983	0.534
548.001	351.114	80.005	19.995	103.210	20.216	3.915	0.532
548.501	351.376	80.005	19.995	103.210	20.214	4.054	0.534
549.001	351.605	80.005	19.995	103.210	20.218	3.748	0.511
549.500	351.862	80.005	19.993	103.210	20.216	3.868	0.489
550.000	352.135	80.005	19.995	103.210	20.215	3.987	0.508
550.500	352.396	80.005	19.995	103.210	20.212	4.165	0.532
551.000	352.686	80.005	19.995	103.210	20.210	4.306	0.542
551.500	352.906	80.006	19.994	103.208	20.214	4.024	0.531
552.000	353.138	80.005	19.996	103.207	20.214	4.038	0.481
552.500	353.385	80.005	19.995	103.207	20.214	4.058	0.465
553.000	353.671	80.005	19.996	103.207	20.212	4.207	0.506
553.500	353.931	80.005	19.995	103.206	20.215	3.974	0.540
554.000	354.204	80.006	19.995	103.204	20.216	3.878	0.539
554.500	354.435	80.005	19.995	103.202	20.217	3.813	0.518
555.000	354.682	80.006	19.997	103.202	20.211	4.214	0.491
555.500	354.921	80.006	19.995	103.202	20.214	4.054	0.482
556.000	355.227	80.006	19.995	103.202	20.213	4.117	0.515
556.500	355.437	80.008	19.995	103.205	20.211	4.261	0.531
557.000	355.713	80.006	19.995	103.207	20.210	4.340	0.501
557.500	355.923	80.006	19.994	103.207	20.207	4.520	0.486
558.000	356.189	80.007	19.994	103.207	20.208	4.455	0.481
558.500	356.411	80.006	19.995	103.208	20.208	4.447	0.482
559.000	356.674	80.006	19.994	103.207	20.212	4.189	0.486
559.500	356.957	80.005	19.995	103.207	20.208	4.489	0.515
560.000	357.202	80.006	19.995	103.207	20.208	4.479	0.537
560.500	357.454	80.007	19.995	103.207	20.210	4.338	0.512
561.000	357.679	80.008	19.996	103.207	20.208	4.483	0.487
561.501	357.961	80.007	19.995	103.208	20.209	4.373	0.493
562.001	358.220	80.005	19.994	103.207	20.207	4.537	0.524
562.500	358.484	80.007	19.995	103.208	20.207	4.553	0.532
563.000	358.733	80.007	19.996	103.208	20.213	4.075	0.518
563.500	358.971	80.007	19.994	103.208	20.209	4.391	0.500
564.000	359.235	80.005	19.995	103.208	20.206	4.584	0.495
564.500	359.466	80.008	19.996	103.209	20.207	4.514	0.498
565.000	359.729	80.006	19.994	103.209	20.206	4.581	0.494
565.500	359.973	80.008	19.993	103.209	20.204	4.708	0.500
566.000	360.218	80.005	19.995	103.209	20.208	4.440	0.498
566.500	360.470	80.006	19.994	103.210	20.209	4.412	0.493
567.000	360.739	80.005	19.994	103.210	20.207	4.547	0.509
567.500	360.983	80.006	19.994	103.210	20.206	4.569	0.517
568.000	361.252	80.006	19.997	103.210	20.205	4.635	0.513
568.500	361.485	80.005	19.995	103.210	20.207	4.553	0.507
569.000	361.711	80.005	19.995	103.210	20.202	4.907	0.480
569.500	361.991	80.006	19.995	103.210	20.203	4.794	0.483
570.000	362.253	80.006	19.994	103.210	20.201	4.986	0.524
570.500	362.462	80.006	19.995	103.210	20.204	4.731	0.507
571.000	362.730	80.007	19.995	103.211	20.207	4.561	0.474
571.500	362.989	80.006	19.996	103.210	20.208	4.485	0.502
572.000	363.243	80.005	19.995	103.210	20.205	4.698	0.519
572.500	363.483	80.006	19.996	103.210	20.203	4.827	0.503
573.000	363.723	80.005	19.996	103.210	20.200	5.019	0.487
573.500	363.974	80.005	19.994	103.210	20.203	4.837	0.486
574.000	364.226	80.005	19.994	103.211	20.203	4.845	0.497
574.500	364.516	80.006	19.995	103.211	20.198	5.140	0.522
575.000	364.733	80.005	19.995	103.212	20.200	5.027	0.525
575.500	364.985	80.007	19.994	103.212	20.202	4.892	0.488
576.000	365.239	80.005	19.996	103.212	20.202	4.878	0.487
576.500	365.490	80.006	19.996	103.211	20.200	5.001	0.505
577.000	365.754	80.006	19.995	103.211	20.196	5.303	0.510
577.500	365.991	80.006	19.996	103.209	20.202	4.862	0.508
578.000	366.241	80.006	19.994	103.209	20.200	5.040	0.494
578.500	366.479	80.006	19.995	103.208	20.202	4.915	0.487
579.000	366.721	80.006	19.994	103.208	20.201	4.945	0.484
579.500	367.001	80.007	19.994	103.208	20.198	5.136	0.501
580.000	367.227	80.005	19.996	103.208	20.198	5.148	0.514
580.500	367.506	80.008	19.995	103.209	20.198	5.178	0.506
581.000	367.724	80.006	19.994	103.209	20.198	5.176	0.501
581.500	368.000	80.007	19.995	103.209	20.195	5.358	0.496
582.000	368.217	80.007	19.995	103.209	20.195	5.409	0.494
582.500	368.493	80.007	19.997	103.209	20.194	5.483	0.493
583.000	368.726	80.006	19.996	103.210	20.193	5.551	0.501
583.500	369.007	80.006	19.995	103.210	20.198	5.177	0.512
584.000	369.254	80.006	19.998	103.209	20.191	5.661	0.521
584.500	369.488	80.006	19.996	103.210	20.190	5.739	0.504
585.000	369.776	80.007	19.995	103.210	20.193	5.540	0.502
585.500	370.011	80.007	19.996	103.209	20.190	5.755	0.522
586.000	370.270	80.006	19.995	103.209	20.190	5.733	0.508
586.500	370.494	80.006	19.996	103.209	20.190	5.716	0.488
587.000	370.771	80.005	19.997	103.209	20.187	5.914	0.492
587.500	370.994	80.006	19.995	103.209	20.187	5.947	0.501
588.000	371.242	80.005	19.996	103.209	20.185	6.107	0.485
588.500	371.474	80.005	19.996	103.209	20.184	6.188	0.476
589.000	371.743	80.005	19.994	103.209	20.181	6.338	0.491
589.500	371.995	80.005	19.995	103.211	20.184	6.146	0.510
590.000	372.261	80.005	19.996	103.210	20.182	6.268	0.519
590.500	372.526	80.005	19.995	103.211	20.181	6.389	0.525
591.000	372.795	80.004	19.997	103.211	20.178	6.568	0.533
591.500	373.051	80.006	19.994	103.211	20.179	6.533	0.529
592.000	373.299	80.005	19.994	103.212	20.177	6.653	0.514
592.500	373.604	80.004	19.995	103.212	20.175	6.807	0.529
593.000	373.838	80.004	19.996	103.212	20.176	6.711	0.546
593.500	374.101	80.006	19.995	103.211	20.172	6.980	0.518
594.000	374.351	80.005	19.994	103.211	20.174	6.840	0.505
594.500	374.601	80.005	19.996	103.209	20.173	6.938	0.506
595.000	374.833	80.004	19.994	103.209	20.168	7.273	0.491
595.500	375.058	80.004	19.996	103.209	20.168	7.314	0.469
596.000	375.338	80.006	19.995	103.210	20.167	7.345	0.481
596.500	375.573	80.005	19.994	103.209	20.166	7.402	0.510
597.000	375.828	80.004	19.996	103.210	20.165	7.523	0.503
597.500	376.125	80.006	19.995	103.210	20.163	7.630	0.521
598.000	376.353	80.006	19.995	103.211	20.161	7.822	0.538
598.500	376.622	80.005	19.994	103.210	20.159	7.897	0.511
599.000	376.869	80.004	19.996	103.210	20.158	7.981	0.507
599.500	377.141	80.005	19.995	103.210	20.158	7.972	0.518
600.000	377.364	80.005	19.994	103.211	20.156	8.109	0.507
600.500	377.648	80.005	19.996	103.210	20.156	8.134	0.501
601.000	377.901	80.005	19.995	103.212	20.152	8.418	0.522
601.500	378.158	80.004	19.996	103.214	20.152	8.456	0.523
602.000	378.390	80.005	19.995	103.216	20.149	8.624	0.499
602.500	378.650	80.006	19.995	103.222	20.148	8.736	0.490
603.000	378.866	80.005	19.995	103.226	20.147	8.763	0.485
603.500	379.132	80.004	19.997	103.225	20.147	8.815	0.480
604.000	379.414	80.005	19.994	103.228	20.142	9.145	0.515
604.500	379.686	80.005	19.995	103.231	20.144	9.020	0.551
605.000	379.903	80.005	19.996	103.226	20.139	9.317	0.521
605.500	380.224	80.006	19.994	103.227	20.138	9.389	0.514
606.000	380.465	80.006	19.995	103.226	20.138	9.448	0.550
606.500	380.685	80.007	19.995	103.221	20.134	9.714	0.511
607.000	380.968	80.004	19.996	103.215	20.130	9.988	0.482
607.500	381.238	80.005	19.995	103.214	20.130	10.002	0.528
608.000	381.530	80.005	19.995	103.213	20.131	9.918	0.558
608.500	381.766	80.006	19.994	103.213	20.127	10.229	0.545
609.000	381.998	80.005	19.996	103.213	20.125	10.366	0.498
609.500	382.249	80.006	19.995	103.215	20.125	10.372	0.476
610.000	382.528	80.006	19.995	103.221	20.123	10.513	0.506
610.500	382.785	80.006	19.995	103.219	20.120	10.684	0.533
611.000	383.051	80.007	19.996	103.220	20.119	10.774	0.529
611.500	383.315	80.006	19.994	103.221	20.117	10.946	0.527
612.000	383.556	80.006	19.996	103.223	20.113	11.212	0.518
612.500	383.832	80.006	19.995	103.225	20.115	11.083	0.511
613.000	384.093	80.008	19.994	103.226	20.115	11.042	0.527
613.500	384.336	80.005	19.994	103.228	20.108	11.571	0.520
614.001	384.619	80.004	19.995	103.232	20.106	11.701	0.515
614.501	384.877	80.007	19.994	103.234	20.106	11.709	0.534
615.000	385.137	80.004	19.995	103.232	20.103	11.883	0.529
615.500	385.415	80.006	19.995	103.237	20.098	12.247	0.528
616.001	385.647	80.005	19.995	103.242	20.095	12.467	0.524
616.500	385.882	80.005	19.995	103.242	20.095	12.467	0.488
617.000	386.191	80.007	19.995	103.243	20.094	12.548	0.505
617.500	386.435	80.005	19.996	103.244	20.092	12.671	0.549
618.000	386.716	80.006	19.995	103.245	20.089	12.912	0.539
618.500	386.957	80.005	19.995	103.245	20.087	13.058	0.524
619.000	387.251	80.007	19.995	103.246	20.089	12.934	0.528
619.500	387.495	80.005	19.995	103.244	20.084	13.227	0.536
620.000	387.723	80.006	19.996	103.245	20.080	13.519	0.505
620.500	387.974	80.007	19.994	103.245	20.077	13.740	0.476
621.000	388.269	80.006	19.994	103.244	20.074	13.991	0.512
621.500	388.542	80.005	19.995	103.244	20.071	14.174	0.556
622.000	388.798	80.006	19.995	103.246	20.073	14.022	0.549
622.500	389.050	80.005	19.996	103.246	20.070	14.264	0.519
623.000	389.302	80.006	19.995	103.246	20.067	14.478	0.506
623.500	389.544	80.006	19.996	103.246	20.061	14.872	0.499
624.000	389.830	80.006	19.994	103.247	20.063	14.717	0.511
624.500	390.066	80.006	19.995	103.248	20.059	15.014	0.525
625.000	390.334	80.005	19.994	103.252	20.052	15.562	0.513
625.500	390.598	80.006	19.994	103.253	20.053	15.443	0.518
626.000	390.864	80.005	19.994	103.255	20.044	16.074	0.531
626.500	391.156	80.006	19.995	103.255	20.042	16.228	0.544
627.000	391.414	80.005	19.995	103.254	20.038	16.507	0.554
627.500	391.647	80.004	19.996	103.255	20.034	16.829	0.520
628.000	391.914	80.007	19.993	103.261	20.034	16.801	0.496
628.500	392.140	80.005	19.995	103.263	20.030	17.099	0.497
629.000	392.377	80.005	19.996	103.264	20.025	17.430	0.478
629.500	392.654	80.006	19.994	103.269	20.017	17.983	0.489
630.000	392.952	80.006	19.994	103.266	20.016	18.104	0.544
630.500	393.202	80.007	19.995	103.260	20.010	18.544	0.561
631.000	393.438	80.005	19.995	103.257	20.005	18.882	0.517
631.500	393.732	80.005	19.995	103.261	19.999	19.315	0.508
632.000	394.024	80.006	19.996	103.264	19.998	19.344	0.558
632.500	394.279	80.007	19.994	103.270	19.991	19.842	0.567
633.000	394.539	80.006	19.995	103.276	19.984	20.351	0.531
633.500	394.801	80.005	19.995	103.281	19.981	20.578	0.518
634.000	395.054	80.007	19.995	103.284	19.976	20.947	0.519
634.500	395.326	80.006	19.995	103.286	19.972	21.216	0.519
635.001	395.609	80.008	19.994	103.286	19.965	21.733	0.540
635.501	395.846	80.007	19.995	103.289	19.961	21.978	0.538
636.000	396.144	80.006	19.994	103.290	19.958	22.192	0.527
636.500	396.390	80.006	19.994	103.290	19.952	22.658	0.539
637.000	396.651	80.007	19.994	103.291	19.942	23.322	0.526
637.500	396.919	80.007	19.994	103.291	19.941	23.436	0.519
638.000	397.167	80.007	19.994	103.295	19.934	23.916	0.523
638.500	397.391	80.007	19.994	103.296	19.926	24.450	0.494
639.000	397.677	80.008	19.994	103.296	19.920	24.907	0.491
639.500	397.907	80.008	19.994	103.295	19.915	25.294	0.513
640.000	398.217	80.007	19.994	103.293	19.909	25.675	0.528
640.500	398.456	80.006	19.995	103.290	19.904	26.073	0.544
641.000	398.702	80.007	19.994	103.294	19.897	26.521	0.517
641.500	398.978	80.007	19.994	103.302	19.893	26.870	0.503
642.000	399.211	80.006	19.994	103.309	19.887	27.244	0.515
642.500	399.496	80.007	19.996	103.316	19.875	28.091	0.513
643.000	399.748	80.006	19.995	103.324	19.872	28.338	0.528
643.500	400.037	80.006	19.996	103.326	19.864	28.889	0.539
644.000	400.249	80.008	19.996	103.326	19.857	29.386	0.521
644.500	400.513	80.006	19.995	103.326	19.852	29.735	0.489
645.000	400.801	80.008	19.996	103.327	19.844	30.304	0.514
645.500	401.041	80.006	19.996	103.328	19.842	30.483	0.540
646.000	401.290	80.007	19.996	103.328	19.833	31.131	0.509
646.500	401.539	80.006	19.994	103.328	19.827	31.527	0.493
647.000	401.811	80.004	19.996	103.329	19.824	31.715	0.509
647.500	402.044	80.006	19.997	103.328	19.820	32.029	0.513
648.000	402.331	80.005	19.996	103.328	19.807	32.937	0.512
648.500	402.611	80.007	19.995	103.327	19.800	33.438	0.543
649.000	402.869	80.005	19.995	103.327	19.795	33.801	0.553
649.500	403.153	80.006	19.995	103.331	19.789	34.259	0.540
650.000	403.417	80.005	19.995	103.339	19.779	34.933	0.545
650.500	403.674	80.005	19.995	103.344	19.775	35.215	0.535
651.000	403.947	80.004	19.997	103.349	19.766	35.894	0.525
651.500	404.156	80.004	19.996	103.356	19.760	36.335	0.506
652.000	404.439	80.005	19.994	103.361	19.755	36.674	0.487
652.500	404.705	80.007	19.996	103.362	19.747	37.248	0.521
653.000	404.988	80.004	19.994	103.364	19.742	37.616	0.549
653.500	405.235	80.005	19.995	103.367	19.736	38.043	0.540
654.000	405.489	80.004	19.995	103.367	19.725	38.779	0.516
654.500	405.726	80.006	19.995	103.368	19.721	39.074	0.496
655.000	406.013	80.005	19.994	103.369	19.714	39.574	0.507
655.500	406.302	80.006	19.995	103.370	19.707	40.058	0.550
656.000	406.555	80.005	19.995	103.372	19.703	40.376	0.559
656.500	406.810	80.007	19.995	103.372	19.694	41.036	0.525
657.000	407.094	80.007	19.996	103.371	19.685	41.607	0.523
657.500	407.329	80.006	19.995	103.370	19.678	42.132	0.529
658.000	407.606	80.007	19.995	103.371	19.674	42.425	0.516
658.500	407.822	80.008	19.995	103.369	19.667	42.953	0.503
659.000	408.075	80.006	19.995	103.372	19.657	43.604	0.481
659.501	408.342	80.007	19.994	103.380	19.651	44.057	0.494
660.001	408.585	80.008	19.995	103.387	19.644	44.554	0.515
660.500	408.862	80.007	19.994	103.392	19.638	44.975	0.515
661.000	409.147	80.009	19.995	103.400	19.631	45.454	0.541
661.500	409.370	80.008	19.995	103.405	19.623	46.053	0.535
662.000	409.640	80.007	19.995	103.407	19.614	46.669	0.500
662.500	409.909	80.008	19.995	103.413	19.606	47.294	0.516
663.000	410.114	80.007	19.994	103.416	19.597	47.904	0.507
663.500	410.424	80.008	19.994	103.421	19.589	48.476	0.495
664.000	410.688	80.008	19.996	103.424	19.582	48.995	0.544
664.500	410.965	80.007	19.995	103.426	19.570	49.809	0.557
665.000	411.204	80.009	19.995	103.428	19.562	50.418	0.528
665.500	411.441	80.008	19.994	103.430	19.554	50.997	0.497
666.000	411.700	80.008	19.996	103.429	19.542	51.822	0.486
666.500	411.982	80.008	19.995	103.433	19.533	52.495	0.518
667.000	412.236	80.008	19.994	103.435	19.521	53.307	0.539
667.500	412.492	80.007	19.995	103.435	19.512	53.967	0.523
668.000	412.738	80.007	19.994	103.437	19.504	54.551	0.506
668.500	412.986	80.007	19.995	103.440	19.493	55.317	0.498
669.000	413.258	80.006	19.994	103.441	19.487	55.779	0.507
669.500	413.541	80.007	19.994	103.441	19.477	56.491	0.538
670.000	413.779	80.007	19.995	103.445	19.471	56.894	0.538
670.500	414.045	80.006	19.994	103.446	19.462	57.567	0.512
671.000	414.286	80.006	19.995	103.445	19.451	58.329	0.505
671.500	414.547	80.005	19.995	103.446	19.444	58.820	0.505
672.000	414.813	80.005	19.995	103.445	19.434	59.567	0.515
672.500	415.049	80.005	19.995	103.443	19.426	60.095	0.515
673.000	415.290	80.005	19.995	103.443	19.420	60.530	0.490
673.500	415.544	80.005	19.995	103.450	19.405	61.626	0.486
674.000	415.838	80.005	19.994	103.456	19.402	61.842	0.521
674.500	416.060	80.005	19.995	103.463	19.391	62.593	0.532
675.000	416.344	80.004	19.996	103.469	19.383	63.179	0.511
675.500	416.597	80.006	19.995	103.477	19.374	63.811	0.521
676.000	416.859	80.004	19.996	103.481	19.365	64.450	0.526
676.500	417.137	80.005	19.995	103.486	19.353	65.296	0.528
677.000	417.373	80.006	19.996	103.491	19.342	66.104	0.527
677.500	417.635	80.005	19.996	103.498	19.331	66.883	0.506
678.000	417.862	80.005	19.996	103.505	19.322	67.534	0.494
678.500	418.187	80.005	19.996	103.510	19.309	68.472	0.520
679.000	418.391	80.006	19.997	103.519	19.294	69.503	0.540
679.500	418.674	80.005	19.996	103.527	19.285	70.183	0.508
680.000	418.886	80.005	19.995	103.532	19.271	71.178	0.491
680.500	419.121	80.005	19.995	103.534	19.257	72.158	0.471
681.000	419.386	80.004	19.996	103.541	19.249	72.798	0.474
681.500	419.634	80.006	19.996	103.544	19.230	74.132	0.507
682.000	419.877	80.005	19.996	103.547	19.220	74.848	0.502
682.500	420.160	80.006	19.995	103.552	19.214	75.288	0.508
683.000	420.416	80.006	19.996	103.555	19.200	76.292	0.533
683.500	420.636	80.005	19.997	103.551	19.184	77.415	0.507
684.000	420.930	80.006	19.997	103.550	19.172	78.247	0.495
684.500	421.173	80.005	19.996	103.550	19.161	79.041	0.526
685.000	421.390	80.005	19.997	103.551	19.148	80.008	0.499
685.500	421.720	80.005	19.995	103.554	19.133	81.053	0.504
686.000	421.930	80.006	19.995	103.559	19.117	82.225	0.544
686.500	422.192	80.006	19.995	103.561	19.106	82.976	0.506
687.000	422.453	80.006	19.995	103.566	19.094	83.879	0.497
687.501	422.693	80.005	19.997	103.572	19.079	84.935	0.512
688.001	422.951	80.006	19.995	103.575	19.065	85.926	0.499
688.500	423.193	80.006	19.994	103.580	19.058	86.439	0.499
689.000	423.466	80.007	19.993	103.584	19.041	87.632	0.508
689.500	423.673	80.006	19.993	103.585	19.025	88.752	0.497
690.000	423.958	80.007	19.995	103.587	19.013	89.645	0.486
690.500	424.159	80.007	19.994	103.597	18.996	90.850	0.489
691.000	424.432	80.007	19.995	103.606	18.980	92.042	0.479
691.500	424.689	80.005	19.994	103.617	18.968	92.908	0.502
692.000	424.932	80.007	19.994	103.627	18.948	94.303	0.515
692.500	425.189	80.006	19.995	103.635	18.936	95.199	0.500
693.000	425.448	80.006	19.993	103.638	18.918	96.496	0.508
693.500	425.680	80.007	19.995	103.638	18.900	97.776	0.504
694.000	425.978	80.006	19.994	103.638	18.887	98.694	0.511
694.500	426.184	80.005	19.995	103.641	18.871	99.824	0.517
695.000	426.395	80.005	19.994	103.647	18.856	100.894	0.460
695.500	426.693	80.006	19.995	103.654	18.843	101.875	0.463
696.000	426.914	80.005	19.994	103.662	18.824	103.194	0.514
696.500	427.184	80.006	19.994	103.670	18.808	104.320	0.505
697.000	427.470	80.005	19.994	103.675	18.795	105.295	0.523
697.500	427.669	80.005	19.994	103.677	18.774	106.748	0.521
698.000	427.931	80.005	19.995	103.679	18.760	107.762	0.473
698.500	428.204	80.006	19.995	103.681	18.744	108.963	0.498
699.000	428.456	80.005	19.995	103.686	18.725	110.314	0.530
699.500	428.694	80.006	19.995	103.687	18.708	111.483	0.507
700.000	428.911	80.005	19.995	103.694	18.691	112.707	0.472
700.500	429.211	80.006	19.994	103.702	18.675	113.838	0.486
701.000	429.431	80.007	19.994	103.711	18.656	115.246	0.518
701.500	429.682	80.005	19.994	103.717	18.640	116.342	0.495
702.000	429.941	80.005	19.994	103.731	18.619	117.909	0.491
702.500	430.210	80.006	19.996	103.740	18.602	119.115	0.519
703.000	430.411	80.006	19.996	103.750	18.584	120.362	0.499
703.500	430.649	80.005	19.996	103.760	18.565	121.784	0.455
704.000	430.904	80.004	19.995	103.773	18.545	123.168	0.466
704.500	431.190	80.005	19.995	103.781	18.527	124.456	0.517
705.000	431.400	80.006	19.994	103.789	18.506	125.946	0.519
705.500	431.646	80.005	19.996	103.793	18.492	126.988	0.476
706.000	431.893	80.006	19.995	103.796	18.473	128.383	0.474
706.500	432.122	80.004	19.994	103.797	18.458	129.453	0.484
707.000	432.363	80.006	19.995	103.800	18.441	130.660	0.473
707.500	432.621	80.004	19.995	103.802	18.423	131.985	0.484
708.000	432.908	80.004	19.994	103.805	18.408	133.036	0.522
708.500	433.125	80.004	19.994	103.805	18.389	134.446	0.525
709.000	433.391	80.004	19.995	103.811	18.374	135.460	0.493
709.500	433.613	80.005	19.995	103.816	18.355	136.821	0.485
710.000	433.868	80.005	19.995	103.822	18.344	137.671	0.482
710.500	434.165	80.005	19.995	103.827	18.331	138.555	0.515
711.000	434.405	80.005	19.994	103.834	18.316	139.653	0.545
711.500	434.659	80.005	19.994	103.834	18.299	140.854	0.515
712.000	434.898	80.006	19.995	103.835	18.290	141.520	0.493
712.500	435.171	80.004	19.995	103.837	18.277	142.467	0.503
713.000	435.389	80.004	19.996	103.844	18.264	143.418	0.502
713.500	435.648	80.006	19.994	103.847	18.253	144.180	0.484
714.000	435.913	80.006	19.995	103.855	18.240	145.119	0.500
714.500	436.186	80.006	19.995	103.859	18.228	145.958	0.531
715.000	436.444	80.007	19.996	103.861	18.215	146.883	0.534
715.501	436.723	80.005	19.995	103.862	18.204	147.697	0.534
716.001	436.933	80.006	19.995	103.868	18.189	148.775	0.513
716.500	437.188	80.007	19.995	103.875	18.177	149.659	0.477
717.000	437.436	80.006	19.995	103.886	18.163	150.620	0.485
717.500	437.668	80.007	19.996	103.904	18.151	151.496	0.492
718.000	437.918	80.008	19.995	103.917	18.139	152.378	0.481
718.500	438.141	80.006	19.995	103.932	18.123	153.537	0.477
719.000	438.394	80.007	19.995	103.940	18.112	154.336	0.474
719.500	438.687	80.006	19.995	103.946	18.099	155.258	0.511
720.000	438.942	80.006	19.995	103.945	18.088	156.016	0.548
720.500	439.209	80.008	19.995	103.946	18.075	156.940	0.535
721.000	439.450	80.007	19.994	103.945	18.065	157.719	0.515
721.500	439.722	80.008	19.994	103.947	18.052	158.626	0.511
722.000	439.936	80.008	19.994	103.948	18.039	159.518	0.500
722.500	440.183	80.008	19.994	103.951	18.026	160.466	0.473
723.000	440.490	80.008	19.994	103.957	18.017	161.142	0.508
723.500	440.707	80.009	19.995	103.964	18.002	162.218	0.539
724.000	440.954	80.007	19.995	103.970	17.993	162.859	0.493
724.500	441.202	80.006	19.994	103.974	17.984	163.494	0.479
725.000	441.451	80.007	19.993	103.974	17.972	164.381	0.496
725.500	441.732	80.008	19.995	103.971	17.965	164.842	0.514
726.000	441.952	80.005	19.996	103.968	17.952	165.762	0.515
726.500	442.235	80.007	19.994	103.968	17.943	166.428	0.502
727.000	442.457	80.007	19.995	103.971	17.931	167.325	0.504
727.500	442.765	80.007	19.995	103.984	17.922	168.013	0.517
728.000	442.992	80.006	19.995	104.000	17.909	168.906	0.532
728.500	443.230	80.006	19.994	104.007	17.903	169.362	0.500
729.000	443.456	80.006	19.995	104.011	17.891	170.184	0.465
729.500	443.741	80.007	19.995	104.015	17.881	170.895	0.488
730.000	443.935	80.006	19.995	104.016	17.872	171.576	0.495
730.500	444.219	80.006	19.994	104.016	17.863	172.198	0.478
731.000	444.473	80.006	19.995	104.020	17.852	173.005	0.508
731.500	444.735	80.005	19.996	104.023	17.844	173.551	0.527
732.000	444.945	80.007	19.995	104.026	17.835	174.205	0.494
732.500	445.239	80.007	19.996	104.027	17.829	174.593	0.488
733.000	445.471	80.006	19.994	104.027	17.820	175.267	0.515
733.500	445.713	80.006	19.994	104.026	17.812	175.835	0.500
734.000	445.942	80.007	19.994	104.027	17.803	176.471	0.473
734.500	446.219	80.005	19.995	104.027	17.803	176.506	0.489
735.000	446.464	80.008	19.995	104.029	17.795	177.028	0.514
735.500	446.711	80.005	19.995	104.030	17.785	177.748	0.507
736.000	446.980	80.005	19.994	104.032	17.778	178.218	0.504
736.500	447.170	80.005	19.995	104.037	17.776	178.382	0.487
737.000	447.437	80.006	19.995	104.044	17.768	178.946	0.458
737.500	447.689	80.005	19.994	104.052	17.764	179.226	0.488
738.000	447.952	80.005	19.995	104.064	17.756	179.818	0.517
738.500	448.237	80.005	19.994	104.070	17.750	180.210	0.532
739.000	448.455	80.005	19.996	104.076	17.744	180.633	0.526
739.500	448.712	80.006	19.996	104.077	17.742	180.791	0.489
740.000	448.960	80.006	19.995	104.077	17.741	180.885	0.490
740.500	449.261	80.006	19.995	104.073	17.735	181.251	0.527
741.000	449.475	80.008	19.995	104.072	17.737	181.134	0.532
741.500	449.741	80.006	19.995	104.068	17.738	181.088	0.498
742.000	450.028	80.007	19.995	104.066	17.739	180.968	0.517
742.500	450.226	80.007	19.995	104.063	17.738	180.996	0.519
743.000	450.505	80.006	19.994	104.063	17.740	180.841	0.481
743.501	450.766	80.008	19.996	104.062	17.744	180.591	0.508
744.001	450.967	80.007	19.995	104.062	17.748	180.290	0.500
744.500	451.259	80.008	19.993	104.063	17.753	179.923	0.477
745.000	451.492	80.007	19.995	104.065	17.755	179.721	0.509
745.500	451.773	80.008	19.995	104.060	17.759	179.477	0.520
746.000	452.019	80.007	19.995	104.057	17.763	179.142	0.521
746.500	452.258	80.008	19.995	104.053	17.774	178.326	0.506
747.000	452.513	80.007	19.995	104.050	17.782	177.772	0.490
747.500	452.754	80.007	19.996	104.042	17.787	177.410	0.495
748.000	453.000	80.008	19.995	104.042	17.795	176.800	0.491
748.500	453.260	80.009	19.996	104.040	17.804	176.185	0.496
749.000	453.544	80.007	19.995	104.040	17.816	175.277	0.525
749.500	453.762	80.009	19.996	104.038	17.827	174.496	0.523
750.000	454.049	80.008	19.995	104.040	17.838	173.726	0.503
750.500	454.301	80.007	19.995	104.037	17.852	172.722	0.522
751.000	454.574	80.008	19.995	104.034	17.864	171.825	0.532
751.500	454.831	80.007	19.995	104.026	17.879	170.724	0.527
752.000	455.044	80.007	19.995	104.024	17.894	169.622	0.500
752.500	455.334	80.007	19.996	104.018	17.908	168.606	0.486
753.000	455.569	80.006	19.995	104.010	17.927	167.263	0.514
753.500	455.822	80.006	19.995	104.003	17.944	166.018	0.507
754.000	456.040	80.007	19.994	103.998	17.964	164.600	0.480
754.500	456.322	80.007	19.995	103.990	17.983	163.201	0.485
755.000	456.530	80.006	19.996	103.984	18.002	161.809	0.495
755.500	456.826	80.006	19.996	103.976	18.023	160.350	0.497
756.000	457.099	80.007	19.996	103.969	18.047	158.575	0.536
756.500	457.366	80.005	19.994	103.961	18.068	157.067	0.554
757.000	457.608	80.006	19.994	103.953	18.091	155.429	0.525
757.501	457.869	80.007	19.994	103.943	18.114	153.816	0.506
758.001	458.096	80.006	19.996	103.936	18.140	151.933	0.495
758.500	458.379	80.005	19.995	103.928	18.167	150.004	0.499
759.000	458.613	80.005	19.995	103.921	18.193	148.082	0.514
759.500	458.854	80.004	19.994	103.914	18.222	146.038	0.497
760.000	459.184	80.005	19.995	103.910	18.251	143.966	0.523
760.500	459.415	80.005	19.995	103.904	18.279	141.918	0.565
761.000	459.673	80.006	19.995	103.898	18.306	140.036	0.525
761.500	459.949	80.005	19.995	103.891	18.332	138.153	0.512
762.000	460.197	80.004	19.993	103.881	18.362	135.999	0.529
762.500	460.427	80.005	19.996	103.873	18.389	134.030	0.501
763.000	460.650	80.005	19.997	103.865	18.420	131.862	0.466
763.500	460.935	80.004	19.994	103.856	18.450	129.683	0.481
764.000	461.187	80.005	19.995	103.845	18.481	127.496	0.523
764.500	461.438	80.005	19.997	103.834	18.509	125.453	0.520
765.000	461.730	80.004	19.995	103.821	18.539	123.324	0.523
765.500	461.919	80.003	19.996	103.811	18.572	120.973	0.512
766.000	462.199	80.004	19.995	103.798	18.602	118.861	0.475
766.500	462.477	80.003	19.996	103.788	18.635	116.496	0.513
767.000	462.709	80.004	19.996	103.780	18.667	114.202	0.534
767.500	463.016	80.005	19.995	103.772	18.701	111.727	0.524
768.001	463.261	80.004	19.995	103.764	18.737	109.208	0.545
768.501	463.508	80.004	19.997	103.756	18.775	106.448	0.522
769.000	463.722	80.003	19.996	103.746	18.809	104.031	0.477
769.500	463.997	80.005	19.995	103.735	18.843	101.571	0.475
770.000	464.260	80.004	19.995	103.725	18.878	99.134	0.513
770.500	464.511	80.004	19.996	103.715	18.908	96.988	0.526
771.000	464.811	80.005	19.996	103.704	18.943	94.436	0.532
771.500	465.010	80.004	19.996	103.696	18.977	92.030	0.525
772.000	465.263	80.004	19.996	103.688	19.012	89.568	0.476
772.500	465.529	80.003	19.995	103.680	19.038	87.684	0.486
773.000	465.785	80.003	19.995	103.669	19.072	85.285	0.520
773.500	466.099	80.005	19.996	103.661	19.099	83.320	0.546
774.000	466.349	80.003	19.995	103.654	19.131	81.045	0.567
774.500	466.611	80.004	19.996	103.646	19.161	78.920	0.538
775.001	466.877	80.005	19.995	103.640	19.187	77.090	0.520
775.501	467.095	80.006	19.995	103.636	19.217	74.934	0.506
776.000	467.383	80.004	19.996	103.629	19.246	72.858	0.495
776.500	467.623	80.004	19.996	103.622	19.273	70.966	0.517
777.000	467.889	80.004	19.997	103.614	19.295	69.400	0.518
777.500	468.131	80.004	19.995	103.603	19.322	67.423	0.507
778.000	468.313	80.004	19.995	103.590	19.345	65.784	0.465
778.500	468.626	80.004	19.996	103.581	19.368	64.156	0.459
779.000	468.903	80.005	19.995	103.573	19.389	62.671	0.543
779.500	469.172	80.005	19.996	103.565	19.411	61.076	0.568
780.000	469.353	80.005	19.995	103.556	19.435	59.362	0.498
780.500	469.691	80.004	19.995	103.549	19.456	57.907	0.484
781.000	469.909	80.003	19.995	103.539	19.478	56.338	0.538
781.500	470.154	80.004	19.993	103.524	19.497	54.974	0.510
782.000	470.425	80.005	19.993	103.513	19.518	53.501	0.489
782.500	470.689	80.005	19.995	103.504	19.536	52.208	0.525
783.000	470.962	80.005	19.994	103.497	19.555	50.825	0.536
783.500	471.181	80.005	19.994	103.490	19.575	49.429	0.515
784.000	471.465	80.005	19.994	103.487	19.590	48.327	0.498
784.500	471.749	80.006	19.995	103.480	19.610	46.971	0.536
785.000	471.959	80.005	19.995	103.473	19.625	45.869	0.531
785.500	472.279	80.006	19.995	103.465	19.641	44.734	0.512
786.000	472.484	80.006	19.994	103.459	19.654	43.833	0.527
786.500	472.763	80.005	19.996	103.453	19.670	42.685	0.504
787.000	473.027	80.004	19.994	103.445	19.682	41.798	0.513
787.500	473.285	80.005	19.994	103.441	19.692	41.097	0.533
788.000	473.524	80.006	19.995	103.440	19.715	39.477	0.510
788.500	473.762	80.004	19.995	103.432	19.721	39.051	0.487
789.000	474.087	80.004	19.995	103.424	19.736	37.956	0.519
789.500	474.319	80.004	19.993	103.420	19.743	37.509	0.560
790.000	474.656	80.004	19.995	103.411	19.753	36.778	0.564
790.500	474.830	80.007	19.994	103.400	19.773	35.318	0.540
791.000	475.145	80.006	19.994	103.397	19.776	35.121	0.499
791.500	475.390	80.005	19.995	103.390	19.790	34.124	0.524
792.000	475.634	80.004	19.994	103.382	19.812	32.588	0.525
792.500	475.916	80.004	19.995	103.376	19.822	31.833	0.508
793.000	476.081	80.006	19.994	103.372	19.828	31.403	0.487
793.500	476.418	80.006	19.994	103.365	19.834	31.010	0.474
794.000	476.646	80.005	19.994	103.364	19.845	30.230	0.533
794.500	476.921	80.006	19.994	103.364	19.856	29.428	0.534
795.000	477.257	80.004	19.994	103.363	19.853	29.644	0.558
795.500	477.382	80.005	19.994	103.364	19.870	28.417	0.537
796.000	477.753	80.007	19.994	103.363	19.874	28.170	0.478
796.500	477.908	80.007	19.994	103.363	19.888	27.175	0.510
797.000	478.203	80.007	19.995	103.356	19.892	26.857	0.488
797.500	478.509	80.007	19.993	103.348	19.901	26.264	0.526
798.000	478.696	80.006	19.996	103.340	19.908	25.719	0.547
798.500	478.977	80.007	19.994	103.333	19.918	25.057	0.480
799.000	479.338	80.007	19.994	103.325	19.922	24.760	0.555
799.500	479.511	80.007	19.994	103.323	19.930	24.208	0.588
800.000	479.683	80.007	19.994	103.323	19.936	23.767	0.439
800.500	480.099	80.006	19.996	103.323	19.948	22.895	0.466
801.000	480.398	80.006	19.995	103.323	19.950	22.743	0.652
801.500	480.306	80.007	19.996	103.324	19.956	22.346	0.461
802.000	481.013	80.007	19.995	103.319	19.960	22.051	0.411
802.500	480.844	80.008	19.995	103.314	19.968	21.504	0.577
803.000	481.202	80.006	19.995	103.310	19.975	20.995	0.364
803.500	481.446	80.009	19.997	103.307	19.980	20.629	0.395
804.000	481.920	80.007	19.996	103.304	19.985	20.317	0.660
804.500	482.359	80.008	19.997	103.301	19.989	19.974	0.816
805.000	482.014	80.007	19.995	103.298	19.995	19.562	0.504
805.500	482.678	80.008	19.994	103.296	19.999	19.312	0.206
806.000	483.201	80.007	19.996	103.294	20.005	18.883	0.753
806.500	483.459	80.007	19.995	103.289	20.011	18.452	0.984
807.000	483.398	80.007	19.997	103.288	20.011	18.403	0.489
807.500	483.292	80.006	19.994	103.288	20.015	18.161	0.015
808.000	483.626	80.006	19.995	103.289	20.021	17.720	0.030
808.500	484.543	80.008	19.994	103.287	20.025	17.414	0.740
809.000	484.087	80.006	19.994	103.288	20.028	17.218	0.856
809.500	484.783	80.007	19.995	103.289	20.036	16.676	0.350
810.000	484.859	80.008	19.994	103.289	20.038	16.541	0.506
810.500	485.151	80.006	19.995	103.287	20.041	16.325	0.570
811.000	485.308	80.008	19.995	103.285	20.046	15.957	0.409
811.500	485.565	80.007	19.995	103.282	20.050	15.701	0.431
812.000	485.924	80.007	19.995	103.277	20.052	15.497	0.515
812.500	486.211	80.006	19.994	103.269	20.058	15.135	0.631
813.000	486.284	80.007	19.994	103.265	20.059	15.033	0.503
813.500	486.747	80.007	19.995	103.261	20.064	14.667	0.448
814.000	486.836	80.006	19.993	103.262	20.067	14.489	0.544
814.500	487.290	80.007	19.994	103.262	20.068	14.377	0.547
815.000	487.310	80.005	19.995	103.263	20.072	14.124	0.508
815.500	487.818	80.008	19.996	103.261	20.075	13.866	0.501
816.000	487.799	80.007	19.995	103.257	20.077	13.746	0.509
816.500	488.166	80.007	19.994	103.252	20.080	13.509	0.419
817.000	488.392	80.007	19.995	103.248	20.081	13.466	0.470
817.500	488.677	80.006	19.996	103.249	20.080	13.531	0.552
818.000	488.898	80.008	19.995	103.249	20.082	13.376	0.509
818.500	489.118	80.008	19.993	103.249	20.091	12.769	0.474
819.000	489.372	80.007	19.994	103.249	20.089	12.891	0.458
819.500	489.648	80.008	19.995	103.248	20.092	12.672	0.502
820.000	489.873	80.008	19.995	103.248	20.093	12.628	0.516
820.500	490.108	80.008	19.996	103.247	20.095	12.447	0.481
821.000	490.380	80.008	19.995	103.246	20.093	12.634	0.483
821.500	490.559	80.007	19.993	103.247	20.102	11.993	0.479
822.000	490.857	80.006	19.995	103.247	20.097	12.335	0.464
822.500	491.086	80.007	19.995	103.247	20.101	12.043	0.502
823.000	491.327	80.008	19.995	103.249	20.104	11.826	0.498
823.500	491.562	80.007	19.994	103.251	20.105	11.732	0.473
824.000	491.847	80.007	19.996	103.251	20.105	11.752	0.498
824.500	492.034	80.008	19.995	103.252	20.107	11.622	0.496
825.000	492.346	80.008	19.996	103.251	20.109	11.481	0.486
825.500	492.494	80.008	19.994	103.248	20.112	11.254	0.480
826.000	492.752	80.008	19.995	103.245	20.112	11.250	0.433
826.500	493.010	80.007	19.995	103.245	20.115	11.035	0.461
827.000	493.278	80.008	19.995	103.244	20.116	10.964	0.521
827.500	493.576	80.009	19.995	103.243	20.116	10.966	0.546
828.000	493.774	80.008	19.994	103.244	20.116	11.000	0.531
828.500	494.030	80.008	19.993	103.246	20.119	10.786	0.474
829.000	494.218	80.007	19.995	103.246	20.118	10.844	0.449
829.500	494.512	80.007	19.994	103.246	20.123	10.484	0.463
830.000	494.756	80.007	19.994	103.249	20.124	10.410	0.510
830.500	495.021	80.008	19.994	103.249	20.123	10.496	0.523
831.000	495.203	80.007	19.994	103.246	20.125	10.314	0.478
831.500	495.469	80.007	19.993	103.240	20.127	10.173	0.448
832.000	495.703	80.007	19.994	103.234	20.126	10.293	0.474
832.500	495.982	80.007	19.996	103.226	20.129	10.079	0.506
833.000	496.176	80.008	19.996	103.220	20.127	10.230	0.493
833.500	496.436	80.007	19.995	103.219	20.129	10.054	0.463
834.000	496.644	80.007	19.997	103.219	20.131	9.945	0.461
834.500	496.877	80.007	19.995	103.219	20.132	9.817	0.455
835.000	497.099	80.008	19.996	103.219	20.132	9.849	0.448
835.500	497.373	80.005	19.995	103.218	20.132	9.814	0.476
836.000	497.598	80.005	19.996	103.214	20.136	9.528	0.498
836.500	497.843	80.005	19.996	103.214	20.131	9.919	0.485
837.000	498.083	80.005	19.996	103.217	20.138	9.435	0.478
837.500	498.320	80.004	19.996	103.217	20.138	9.392	0.481
838.000	498.568	80.005	19.994	103.216	20.139	9.339	0.481
838.501	498.787	80.004	19.996	103.216	20.138	9.445	0.476
839.000	499.033	80.006	19.995	103.216	20.141	9.183	0.466
839.500	499.281	80.004	19.996	103.211	20.142	9.165	0.479
840.000	499.523	80.005	19.995	103.210	20.144	9.018	0.492
840.500	499.773	80.004	19.994	103.210	20.145	8.938	0.491
841.000	499.972	80.005	19.995	103.211	20.143	9.079	0.471
841.500	500.208	80.005	19.996	103.211	20.146	8.875	0.442
842.000	500.485	80.006	19.995	103.211	20.145	8.950	0.474
842.500	500.685	80.005	19.995	103.212	20.142	9.163	0.495
843.000	500.934	80.005	19.995	103.212	20.148	8.717	0.464
843.500	501.171	80.005	19.996	103.212	20.148	8.746	0.468
844.000	501.385	80.005	19.995	103.212	20.149	8.623	0.468
844.500	501.685	80.005	19.996	103.214	20.147	8.781	0.482
845.000	501.902	80.005	19.994	103.217	20.149	8.628	0.515
845.500	502.139	80.004	19.995	103.218	20.151	8.527	0.486
846.000	502.415	80.005	19.996	103.217	20.150	8.558	0.484
846.500	502.672	80.005	19.994	103.218	20.152	8.460	0.523
847.000	502.853	80.005	19.995	103.216	20.151	8.525	0.485
847.500	503.130	80.005	19.995	103.213	20.150	8.595	0.448
848.000	503.338	80.005	19.994	103.212	20.152	8.428	0.471
848.500	503.609	80.005	19.994	103.212	20.153	8.354	0.482
849.000	503.813	80.005	19.995	103.212	20.151	8.514	0.477
849.500	504.057	80.005	19.994	103.213	20.153	8.366	0.462
850.000	504.319	80.006	19.995	103.212	20.155	8.237	0.477
850.500	504.557	80.006	19.995	103.212	20.155	8.217	0.503
851.000	504.817	80.005	19.994	103.212	20.155	8.205	0.499
851.500	505.040	80.005	19.995	103.213	20.155	8.223	0.490
852.000	505.266	80.005	19.995	103.211	20.151	8.479	0.466
852.500	505.580	80.005	19.995	103.213	20.157	8.086	0.495
853.000	505.766	80.005	19.996	103.212	20.155	8.198	0.520
853.500	506.031	80.006	19.995	103.212	20.156	8.151	0.476
854.000	506.289	80.005	19.994	103.211	20.156	8.143	0.488
854.500	506.550	80.006	19.997	103.210	20.156	8.145	0.521
855.000	506.749	80.007	19.996	103.209	20.156	8.121	0.489
855.500	507.052	80.006	19.996	103.209	20.156	8.176	0.481
856.000	507.284	80.007	19.996	103.209	20.158	7.990	0.518
856.500	507.511	80.004	19.995	103.210	20.155	8.209	0.497
857.000	507.754	80.004	19.996	103.210	20.158	7.992	0.464
857.500	507.987	80.005	19.993	103.209	20.160	7.845	0.473
858.000	508.287	80.007	19.996	103.207	20.156	8.164	0.504
858.500	508.481	80.006	19.995	103.205	20.156	8.121	0.513
859.001	508.748	80.006	19.996	103.204	20.156	8.152	0.478
859.501	509.005	80.005	19.997	103.203	20.154	8.313	0.493
860.000	509.260	80.005	19.996	103.202	20.155	8.241	0.518
860.500	509.499	80.006	19.996	103.203	20.158	8.008	0.503
861.000	509.760	80.005	19.997	103.204	20.153	8.374	0.497
861.500	509.987	80.006	19.995	103.204	20.155	8.245	0.494
862.000	510.227	80.005	19.995	103.204	20.156	8.155	0.477
862.500	510.486	80.005	19.996	103.204	20.157	8.049	0.483
863.001	510.720	80.005	19.996	103.205	20.157	8.039	0.497
863.501	510.989	80.005	19.996	103.206	20.152	8.440	0.498
864.000	511.239	80.005	19.995	103.206	20.155	8.245	0.511
864.500	511.469	80.005	19.996	103.206	20.154	8.305	0.500
865.000	511.716	80.005	19.997	103.207	20.156	8.143	0.478
865.500	511.974	80.005	19.995	103.206	20.156	8.168	0.491
866.000	512.188	80.004	19.997	103.206	20.155	8.184	0.489
866.500	512.433	80.004	19.997	103.205	20.156	8.158	0.465
867.000	512.676	80.006	19.997	103.205	20.156	8.139	0.473
867.500	512.927	80.004	19.996	103.204	20.155	8.248	0.491
868.000	513.175	80.005	19.996	103.203	20.158	8.001	0.497
868.500	513.449	80.005	19.996	103.204	20.156	8.107	0.511
869.000	513.703	80.006	19.996	103.205	20.157	8.038	0.525
869.500	513.936	80.004	19.996	103.204	20.158	7.994	0.508
870.000	514.213	80.005	19.996	103.204	20.156	8.146	0.499
870.500	514.455	80.005	19.996	103.205	20.156	8.135	0.514
871.000	514.730	80.004	19.996	103.205	20.158	7.966	0.518
871.500	514.990	80.004	19.995	103.205	20.156	8.146	0.526
872.000	515.223	80.004	19.995	103.206	20.159	7.943	0.514
872.500	515.459	80.004	19.996	103.206	20.156	8.143	0.481
873.000	515.736	80.004	19.995	103.206	20.158	8.016	0.491
873.500	515.978	80.006	19.995	103.206	20.159	7.965	0.516
874.000	516.229	80.005	19.995	103.206	20.159	7.961	0.506
874.500	516.488	80.006	19.995	103.206	20.157	8.061	0.501
875.000	516.741	80.004	19.996	103.206	20.155	8.248	0.511
875.500	516.996	80.004	19.995	103.207	20.158	8.031	0.510
876.000	517.240	80.006	19.995	103.207	20.157	8.080	0.503
876.500	517.536	80.007	19.996	103.207	20.157	8.053	0.520
877.000	517.765	80.007	19.996	103.207	20.158	8.029	0.533
877.500	518.037	80.005	19.994	103.206	20.159	7.945	0.513
878.000	518.287	80.006	19.995	103.203	20.156	8.113	0.511
878.500	518.541	80.005	19.995	103.201	20.155	8.219	0.513
879.000	518.838	80.005	19.995	103.197	20.156	8.149	0.527
879.500	519.066	80.007	19.994	103.198	20.160	7.886	0.538
880.000	519.272	80.006	19.995	103.199	20.158	8.021	0.480
880.500	519.576	80.006	19.994	103.200	20.160	7.871	0.473
881.000	519.868	80.006	19.995	103.200	20.159	7.931	0.553
881.500	520.093	80.007	19.995	103.204	20.159	7.955	0.557
882.000	520.362	80.007	19.993	103.203	20.160	7.839	0.506
882.500	520.615	80.007	19.995	103.203	20.158	8.022	0.508
883.000	520.846	80.007	19.995	103.205	20.159	7.906	0.503
883.500	521.121	80.007	19.994	103.207	20.157	8.068	0.495
884.000	521.385	80.008	19.997	103.207	20.162	7.738	0.523
884.501	521.650	80.007	19.994	103.207	20.160	7.881	0.534
885.000	521.920	80.008	19.995	103.207	20.158	8.023	0.532
885.500	522.163	80.007	19.995	103.206	20.158	7.972	0.523
886.000	522.384	80.007	19.994	103.206	20.159	7.931	0.488
886.500	522.652	80.006	19.994	103.206	20.164	7.590	0.477
887.000	522.893	80.006	19.996	103.205	20.156	8.174	0.499
887.500	523.179	80.007	19.994	103.203	20.159	7.917	0.518
888.000	523.467	80.006	19.995	103.204	20.162	7.704	0.551
888.500	523.678	80.007	19.994	103.204	20.161	7.763	0.537
889.000	523.949	80.006	19.995	103.205	20.161	7.802	0.491
889.500	524.204	80.006	19.995	103.207	20.159	7.964	0.504
890.000	524.485	80.006	19.996	103.207	20.159	7.911	0.531
890.500	524.741	80.006	19.994	103.207	20.159	7.938	0.536
891.000	524.976	80.007	19.994	103.206	20.157	8.091	0.514
891.500	525.266	80.006	19.995	103.206	20.156	8.109	0.508
892.000	525.459	80.005	19.995	103.205	20.158	7.999	0.504
892.500	525.775	80.006	19.994	103.207	20.160	7.868	0.496
893.000	526.007	80.006	19.995	103.207	20.157	8.049	0.529
893.500	526.231	80.005	19.994	103.208	20.156	8.107	0.503
894.000	526.506	80.005	19.995	103.209	20.161	7.818	0.477
894.500	526.774	80.006	19.995	103.207	20.159	7.947	0.520
895.000	527.060	80.006	19.995	103.207	20.160	7.882	0.549
895.500	527.329	80.005	19.994	103.207	20.158	8.009	0.555
896.000	527.558	80.006	19.994	103.206	20.160	7.885	0.526
896.500	527.865	80.006	19.994	103.201	20.158	7.999	0.517
897.000	528.104	80.007	19.995	103.201	20.161	7.780	0.541
897.500	528.340	80.006	19.994	103.201	20.160	7.858	0.511
898.000	528.619	80.008	19.995	103.201	20.159	7.946	0.495
898.500	528.889	80.008	19.993	103.202	20.159	7.901	0.532
899.000	529.155	80.006	19.995	103.207	20.159	7.909	0.543
899.500	529.386	80.006	19.995	103.208	20.159	7.908	0.517
900.000	529.675	80.007	19.993	103.205	20.160	7.857	0.509
900.500	529.956	80.008	19.995	103.201	20.161	7.800	0.545
901.000	530.158	80.007	19.995	103.199	20.156	8.168	0.526
901.500	530.440	80.006	19.994	103.195	20.160	7.839	0.483
902.000	530.745	80.007	19.994	103.193	20.157	8.096	0.535
902.500	530.952	80.006	19.995	103.196	20.157	8.086	0.549
903.000	531.241	80.006	19.994	103.199	20.160	7.887	0.504
903.500	531.503	80.006	19.993	103.200	20.159	7.945	0.524
904.000	531.764	80.006	19.994	103.204	20.159	7.963	0.538
904.500	532.018	80.008	19.994	103.205	20.156	8.174	0.519
905.000	532.254	80.007	19.995	103.204	20.161	7.751	0.503
905.500	532.498	80.007	19.994	103.204	20.159	7.902	0.485
906.000	532.772	80.008	19.995	103.202	20.160	7.830	0.498
906.500	533.028	80.006	19.993	103.196	20.159	7.940	0.524
907.000	533.347	80.009	19.994	103.195	20.160	7.828	0.553
907.500	533.594	80.007	19.994	103.195	20.161	7.787	0.570
908.000	533.883	80.007	19.993	103.195	20.162	7.738	0.551
908.500	534.112	80.008	19.994	103.192	20.158	8.026	0.527
909.000	534.384	80.008	19.993	103.195	20.160	7.859	0.509
909.500	534.607	80.009	19.993	103.195	20.162	7.742	0.498
910.000	534.912	80.008	19.994	103.190	20.162	7.746	0.512
910.500	535.133	80.007	19.993	103.184	20.159	7.901	0.527
911.000	535.449	80.008	19.993	103.185	20.158	8.012	0.531
911.500	535.694	80.008	19.994	103.183	20.160	7.891	0.549
912.000	535.953	80.008	19.994	103.178	20.159	7.952	0.533
912.500	536.204	80.009	19.993	103.181	20.159	7.926	0.507
913.000	536.446	80.008	19.992	103.185	20.159	7.947	0.502
913.500	536.716	80.008	19.993	103.183	20.158	7.990	0.503
914.000	536.960	80.007	19.994	103.183	20.159	7.898	0.513
914.500	537.270	80.006	19.993	103.184	20.159	7.922	0.534
915.000	537.455	80.007	19.995	103.181	20.158	8.014	0.525
915.500	537.737	80.007	19.993	103.179	20.154	8.279	0.481
916.000	537.958	80.005	19.994	103.181	20.159	7.911	0.485
916.500	538.293	80.006	19.993	103.181	20.158	7.983	0.529
917.000	538.510	80.006	19.994	103.183	20.158	8.030	0.554
917.500	538.797	80.007	19.994	103.186	20.158	8.023	0.528
918.000	539.033	80.007	19.994	103.185	20.161	7.769	0.514
918.501	539.280	80.005	19.995	103.185	20.159	7.897	0.503
919.001	539.558	80.007	19.995	103.185	20.158	7.993	0.504
919.500	539.838	80.006	19.993	103.183	20.156	8.169	0.541
920.000	540.078	80.006	19.995	103.181	20.157	8.078	0.539
920.500	540.348	80.005	19.995	103.187	20.156	8.166	0.515
921.000	540.583	80.005	19.993	103.185	20.155	8.235	0.507
921.500	540.856	80.006	19.994	103.187	20.158	8.034	0.507
922.000	541.110	80.006	19.994	103.192	20.158	7.993	0.518
922.500	541.383	80.006	19.996	103.193	20.157	8.099	0.527
923.000	541.654	80.006	19.995	103.189	20.154	8.272	0.536
923.500	541.917	80.006	19.995	103.188	20.154	8.271	0.539
924.000	542.138	80.007	19.994	103.185	20.155	8.208	0.509
924.500	542.395	80.004	19.993	103.186	20.161	7.776	0.481
925.000	542.672	80.006	19.995	103.185	20.153	8.339	0.506
925.500	542.921	80.005	19.995	103.185	20.156	8.144	0.530
926.000	543.174	80.005	19.996	103.187	20.158	8.034	0.514
926.500	543.447	80.006	19.994	103.192	20.156	8.132	0.514
927.000	543.722	80.004	19.995	103.190	20.153	8.329	0.537
927.500	543.965	80.006	19.996	103.187	20.155	8.245	0.533
928.000	544.219	80.006	19.995	103.186	20.157	8.036	0.508
928.500	544.445	80.005	19.995	103.182	20.157	8.069	0.488
929.000	544.730	80.005	19.996	103.176	20.156	8.132	0.495
929.500	544.986	80.006	19.996	103.171	20.152	8.411	0.526
930.000	545.223	80.005	19.995	103.171	20.154	8.254	0.517
930.500	545.492	80.003	19.996	103.172	20.153	8.334	0.499
931.000	545.767	80.005	19.995	103.176	20.157	8.087	0.525
931.500	546.042	80.005	19.996	103.182	20.154	8.272	0.547
932.000	546.261	80.005	19.996	103.187	20.155	8.246	0.522
932.501	546.550	80.006	19.995	103.193	20.156	8.132	0.501
933.000	546.817	80.005	19.994	103.198	20.154	8.316	0.532
933.500	547.065	80.006	19.994	103.201	20.154	8.292	0.535
934.000	547.315	80.005	19.995	103.201	20.157	8.044	0.507
934.500	547.569	80.005	19.995	103.200	20.156	8.153	0.501
935.000	547.806	80.006	19.994	103.194	20.155	8.195	0.498
935.500	548.105	80.005	19.995	103.194	20.154	8.318	0.514
936.000	548.355	80.007	19.995	103.194	20.150	8.534	0.542
936.500	548.612	80.006	19.996	103.193	20.151	8.521	0.528
937.000	548.861	80.007	19.995	103.190	20.152	8.454	0.506
937.500	549.098	80.006	19.994	103.190	20.152	8.397	0.496
938.000	549.385	80.005	19.995	103.186	20.156	8.115	0.505
938.500	549.666	80.006	19.995	103.186	20.154	8.293	0.546
939.000	549.904	80.005	19.994	103.189	20.153	8.327	0.544
939.500	550.188	80.006	19.994	103.191	20.154	8.284	0.520
940.000	550.430	80.005	19.995	103.197	20.154	8.290	0.524
940.500	550.684	80.004	19.995	103.202	20.155	8.242	0.511
941.000	550.940	80.007	19.994	103.201	20.152	8.445	0.503
941.500	551.213	80.006	19.995	103.196	20.154	8.255	0.519
942.000	551.451	80.006	19.994	103.191	20.152	8.417	0.520
942.500	551.731	80.005	19.996	103.184	20.156	8.147	0.514
943.001	551.985	80.006	19.996	103.177	20.153	8.371	0.526
943.501	552.249	80.006	19.995	103.173	20.151	8.469	0.526
944.000	552.482	80.005	19.994	103.175	20.149	8.606	0.508
944.500	552.770	80.006	19.996	103.181	20.152	8.438	0.509
945.000	553.041	80.006	19.996	103.189	20.151	8.496	0.540
945.500	553.283	80.005	19.997	103.190	20.150	8.576	0.536
946.000	553.558	80.006	19.996	103.192	20.150	8.535	0.515
946.500	553.823	80.006	19.996	103.190	20.152	8.423	0.529
947.000	554.059	80.005	19.996	103.185	20.151	8.466	0.520
947.500	554.313	80.006	19.996	103.182	20.153	8.366	0.495
948.000	554.625	80.005	19.996	103.182	20.152	8.393	0.528
948.500	554.876	80.005	19.995	103.180	20.152	8.393	0.565
949.000	555.141	80.004	19.995	103.179	20.151	8.505	0.540
949.500	555.377	80.005	19.997	103.181	20.151	8.499	0.509
950.000	555.654	80.005	19.996	103.185	20.152	8.397	0.507
950.500	555.867	80.005	19.997	103.190	20.156	8.158	0.501
951.000	556.119	80.005	19.997	103.191	20.150	8.571	0.478
951.500	556.396	80.004	19.997	103.195	20.153	8.350	0.497
952.000	556.648	80.004	19.995	103.194	20.151	8.506	0.529
952.500	556.944	80.003	19.996	103.190	20.151	8.463	0.538
953.000	557.208	80.004	19.996	103.187	20.151	8.477	0.554
953.500	557.420	80.003	19.996	103.190	20.150	8.582	0.518
954.000	557.681	80.003	19.995	103.191	20.150	8.543	0.475
954.500	557.959	80.005	19.996	103.195	20.149	8.670	0.507
955.000	558.224	80.004	19.996	103.196	20.150	8.577	0.541
955.500	558.494	80.004	19.996	103.196	20.150	8.532	0.538
956.000	558.748	80.006	19.997	103.193	20.151	8.479	0.529
956.500	558.993	80.004	19.996	103.191	20.150	8.589	0.512
957.001	559.238	80.006	19.995	103.186	20.149	8.640	0.495
957.501	559.505	80.004	19.996	103.184	20.148	8.681	0.501
958.000	559.746	80.004	19.996	103.182	20.150	8.541	0.510
958.500	560.000	80.005	19.996	103.181	20.149	8.612	0.501
959.000	560.251	80.005	19.996	103.181	20.150	8.596	0.500
959.500	560.534	80.005	19.995	103.182	20.148	8.729	0.519
960.000	560.750	80.004	19.995	103.180	20.147	8.784	0.516
960.500	560.982	80.005	19.997	103.179	20.146	8.843	0.473
961.000	561.266	80.004	19.996	103.180	20.150	8.575	0.482
961.500	561.580	80.005	19.996	103.178	20.145	8.902	0.557
962.000	561.838	80.005	19.996	103.175	20.147	8.777	0.585
962.500	562.059	80.005	19.996	103.176	20.150	8.532	0.525
963.000	562.338	80.005	19.995	103.175	20.147	8.782	0.490
963.500	562.592	80.007	19.996	103.173	20.151	8.473	0.517
964.000	562.893	80.007	19.995	103.171	20.150	8.596	0.544
964.500	563.101	80.006	19.996	103.171	20.147	8.782	0.532
965.000	563.384	80.006	19.995	103.169	20.148	8.721	0.499
965.500	563.609	80.006	19.996	103.171	20.149	8.657	0.499
966.000	563.861	80.005	19.996	103.175	20.147	8.800	0.493
966.500	564.133	80.006	19.995	103.181	20.150	8.567	0.501
967.000	564.386	80.007	19.995	103.181	20.150	8.595	0.525
967.500	564.664	80.007	19.995	103.185	20.146	8.844	0.528
968.000	564.860	80.007	19.995	103.183	20.148	8.680	0.502
968.500	565.127	80.007	19.995	103.180	20.150	8.596	0.468
969.000	565.354	80.008	19.994	103.175	20.151	8.489	0.478
969.500	565.665	80.006	19.994	103.175	20.149	8.665	0.516
970.000	565.914	80.006	19.994	103.171	20.148	8.746	0.549
970.500	566.171	80.008	19.993	103.171	20.148	8.716	0.533
971.000	566.430	80.007	19.994	103.173	20.147	8.774	0.511
971.500	566.651	80.006	19.993	103.177	20.148	8.738	0.498
972.000	566.955	80.006	19.995	103.181	20.146	8.830	0.502
972.500	567.176	80.006	19.993	103.183	20.147	8.785	0.525
973.000	567.414	80.006	19.994	103.182	20.146	8.861	0.492
973.500	567.699	80.006	19.995	103.183	20.145	8.915	0.491
974.000	567.903	80.006	19.994	103.179	20.147	8.781	0.506
974.500	568.154	80.006	19.995	103.175	20.148	8.693	0.472
975.000	568.459	80.007	19.994	103.174	20.148	8.731	0.506
975.500	568.696	80.007	19.994	103.176	20.145	8.909	0.549
976.000	568.946	80.006	19.994	103.173	20.149	8.671	0.515
976.500	569.236	80.007	19.995	103.174	20.145	8.931	0.513
977.000	569.505	80.007	19.994	103.177	20.145	8.921	0.549
977.500	569.764	80.005	19.995	103.178	20.149	8.643	0.543
978.000	570.011	80.006	19.996	103.183	20.145	8.938	0.517
978.500	570.276	80.007	19.994	103.186	20.145	8.904	0.509
979.000	570.542	80.006	19.994	103.192	20.143	9.092	0.521
979.500	570.812	80.008	19.995	103.196	20.143	9.092	0.534
980.000	571.052	80.006	19.995	103.203	20.140	9.278	0.523
980.500	571.309	80.006	19.995	103.202	20.143	9.048	0.503
981.000	571.519	80.007	19.995	103.205	20.146	8.870	0.482
981.500	571.825	80.007	19.995	103.201	20.145	8.917	0.492
982.000	572.091	80.007	19.995	103.194	20.142	9.110	0.545
982.500	572.358	80.008	19.995	103.187	20.141	9.227	0.553
983.000	572.623	80.006	19.994	103.183	20.143	9.068	0.532
983.500	572.847	80.007	19.995	103.180	20.144	8.974	0.511
984.000	573.070	80.006	19.994	103.178	20.144	9.027	0.468
984.500	573.387	80.007	19.994	103.177	20.142	9.129	0.494
985.000	573.652	80.006	19.995	103.180	20.145	8.927	0.561
985.500	573.917	80.006	19.995	103.185	20.143	9.031	0.556
986.000	574.192	80.007	19.994	103.190	20.142	9.109	0.534
986.500	574.425	80.008	19.995	103.194	20.142	9.129	0.523
987.000	574.708	80.009	19.994	103.201	20.143	9.043	0.512
987.500	574.946	80.007	19.995	103.201	20.145	8.898	0.519
988.000	575.228	80.008	19.994	103.198	20.143	9.048	0.521
988.500	575.543	80.009	19.995	103.192	20.143	9.042	0.558
989.000	575.747	80.008	19.993	103.188	20.142	9.150	0.558
989.500	576.019	80.009	19.995	103.184	20.145	8.901	0.497
990.000	576.307	80.007	19.994	103.181	20.147	8.804	0.518
990.500	576.539	80.009	19.994	103.182	20.143	9.039	0.540
991.000	576.780	80.009	19.995	103.186	20.145	8.909	0.497
991.500	577.034	80.009	19.995	103.189	20.144	8.971	0.484
992.000	577.318	80.010	19.995	103.193	20.145	8.927	0.516
992.500	577.544	80.008	19.995	103.191	20.141	9.210	0.524
993.000	577.809	80.008	19.994	103.188	20.144	9.008	0.500
993.500	578.078	80.008	19.995	103.184	20.140	9.258	0.512
994.000	578.286	80.008	19.993	103.182	20.143	9.076	0.506
994.500	578.581	80.008	19.994	103.175	20.139	9.318	0.490
995.000	578.839	80.007	19.994	103.177	20.141	9.209	0.528
995.500	579.088	80.007	19.994	103.177	20.141	9.190	0.530
996.000	579.337	80.009	19.994	103.177	20.142	9.143	0.503
996.500	579.596	80.008	19.994	103.174	20.142	9.118	0.503
997.000	579.848	80.008	19.994	103.177	20.143	9.048	0.510
997.500	580.121	80.007	19.994	103.177	20.142	9.121	0.518
998.000	580.366	80.007	19.995	103.176	20.142	9.133	0.522
998.500	580.651	80.006	19.994	103.174	20.140	9.258	0.524
999.000	580.875	80.006	19.994	103.174	20.139	9.344	0.519
999.500	581.168	80.007	19.994	103.170	20.138	9.385	0.513
1000.000	581.416	80.005	19.993	103.170	20.139	9.322	0.529
1000.500	581.687	80.006	19.994	103.172	20.140	9.310	0.530
1001.000	581.936	80.005	19.994	103.177	20.139	9.335	0.519
1001.500	582.190	80.005	19.993	103.183	20.140	9.307	0.511
1002.000	582.451	80.005	19.994	103.189	20.139	9.335	0.509
1002.500	582.713	80.004	19.995	103.192	20.138	9.430	0.519
1003.000	583.003	80.005	19.997	103.195	20.136	9.585	0.538
1003.500	583.213	80.005	19.995	103.191	20.133	9.748	0.526
1004.000	583.497	80.005	19.996	103.185	20.135	9.651	0.497
1004.500	583.750	80.005	19.994	103.181	20.136	9.572	0.516
1005.000	583.973	80.006	19.994	103.180	20.135	9.627	0.506
1005.500	584.289	80.006	19.994	103.177	20.133	9.790	0.507
1006.000	584.527	80.006	19.995	103.180	20.134	9.689	0.546
1006.500	584.748	80.006	19.995	103.183	20.134	9.684	0.506
1007.000	585.043	80.006	19.994	103.185	20.133	9.755	0.488
1007.500	585.278	80.005	19.994	103.188	20.133	9.790	0.523
1008.000	585.553	80.007	19.994	103.192	20.130	9.969	0.520
1008.500	585.797	80.006	19.994	103.196	20.131	9.883	0.514
1009.000	586.056	80.006	19.995	103.199	20.131	9.929	0.511
1009.500	586.324	80.007	19.995	103.198	20.131	9.886	0.515
1010.000	586.577	80.006	19.994	103.194	20.130	9.958	0.523
1010.500	586.858	80.006	19.995	103.193	20.130	10.007	0.527
1011.000	587.082	80.006	19.995	103.192	20.131	9.908	0.520
1011.500	587.342	80.006	19.995	103.188	20.131	9.908	0.495
1012.000	587.581	80.005	19.994	103.187	20.130	9.961	0.492
1012.500	587.839	80.006	19.995	103.185	20.130	9.985	0.498
1013.000	588.111	80.005	19.995	103.183	20.129	10.055	0.513
1013.500	588.325	80.005	19.995	103.181	20.127	10.174	0.508
1014.000	588.569	80.005	19.994	103.182	20.131	9.912	0.472
1014.500	588.832	80.005	19.996	103.185	20.131	9.884	0.483
1015.000	589.102	80.006	19.995	103.192	20.130	9.978	0.521
1015.500	589.360	80.005	19.995	103.194	20.127	10.165	0.531
1016.000	589.624	80.006	19.995	103.195	20.128	10.099	0.525
1016.500	589.840	80.004	19.994	103.199	20.130	9.968	0.501
1017.000	590.138	80.005	19.995	103.200	20.127	10.168	0.497
1017.500	590.328	80.007	19.994	103.197	20.125	10.344	0.501
1018.001	590.599	80.005	19.995	103.195	20.124	10.401	0.475
1018.501	590.893	80.005	19.996	103.194	20.125	10.374	0.513
1019.001	591.089	80.006	19.995	103.188	20.127	10.178	0.528
1019.500	591.345	80.005	19.994	103.182	20.126	10.282	0.472
1020.000	591.610	80.005	19.995	103.178	20.125	10.329	0.487
1020.500	591.882	80.005	19.995	103.176	20.129	10.070	0.528
1021.000	592.111	80.005	19.995	103.173	20.126	10.279	0.519
1021.500	592.362	80.004	19.996	103.176	20.129	10.058	0.491
1022.000	592.643	80.005	19.995	103.181	20.128	10.111	0.506
1022.500	592.903	80.006	19.994	103.183	20.128	10.150	0.536
1023.000	593.123	80.006	19.995	103.186	20.128	10.158	0.510
1023.500	593.400	80.006	19.995	103.191	20.128	10.113	0.489
1024.000	593.691	80.005	19.996	103.189	20.130	9.974	0.533
1024.500	593.909	80.006	19.995	103.185	20.128	10.094	0.539
1025.000	594.201	80.006	19.994	103.184	20.126	10.290	0.509
1025.501	594.421	80.005	19.995	103.180	20.127	10.220	0.511
1026.001	594.694	80.005	19.994	103.175	20.126	10.245	0.502
1026.501	594.946	80.004	19.995	103.173	20.126	10.273	0.509
1027.001	595.189	80.005	19.995	103.173	20.127	10.172	0.510
1027.501	595.457	80.005	19.996	103.173	20.127	10.227	0.503
1028.001	595.717	80.004	19.996	103.175	20.124	10.415	0.519
1028.500	595.984	80.005	19.995	103.178	20.125	10.305	0.528
1029.000	596.259	80.003	19.995	103.180	20.128	10.135	0.535
1029.500	596.520	80.005	19.995	103.181	20.127	10.232	0.539
1030.000	596.725	80.004	19.996	103.186	20.128	10.111	0.501
1030.500	596.993	80.004	19.995	103.185	20.126	10.254	0.469
1031.000	597.255	80.004	19.995	103.182	20.126	10.236	0.501
1031.500	597.490	80.004	19.995	103.179	20.126	10.252	0.514
1032.000	597.782	80.004	19.995	103.178	20.124	10.426	0.512
1032.500	598.019	80.005	19.995	103.175	20.123	10.516	0.528
1033.000	598.267	80.005	19.995	103.174	20.122	10.572	0.507
1033.500	598.514	80.005	19.994	103.178	20.124	10.405	0.490
1034.000	598.781	80.005	19.995	103.179	20.122	10.577	0.504
1034.500	599.048	80.005	19.994	103.179	20.122	10.555	0.524
1035.000	599.324	80.004	19.995	103.181	20.124	10.408	0.538
1035.500	599.566	80.005	19.995	103.186	20.123	10.510	0.530
1036.001	599.804	80.004	19.994	103.185	20.125	10.306	0.499
1036.501	600.057	80.004	19.995	103.189	20.123	10.466	0.486
1037.000	600.331	80.007	19.995	103.191	20.127	10.212	0.509
1037.500	600.594	80.004	19.995	103.190	20.127	10.170	0.532
1038.000	600.831	80.005	19.996	103.185	20.126	10.263	0.518
1038.500	601.098	80.005	19.994	103.183	20.127	10.205	0.502
1039.000	601.340	80.004	19.995	103.180	20.123	10.510	0.506
1039.500	601.599	80.005	19.995	103.181	20.126	10.255	0.505
1040.000	601.831	80.006	19.996	103.185	20.127	10.201	0.496
1040.501	602.079	80.007	19.995	103.192	20.125	10.345	0.485
1041.001	602.334	80.005	19.995	103.192	20.126	10.255	0.492
1041.501	602.597	80.006	19.995	103.193	20.125	10.367	0.511
1042.001	602.836	80.005	19.994	103.195	20.126	10.259	0.510
1042.501	603.098	80.004	19.996	103.193	20.126	10.257	0.502
1043.000	603.369	80.007	19.996	103.192	20.128	10.130	0.518
1043.500	603.643	80.004	19.996	103.198	20.127	10.183	0.539
1044.000	603.878	80.005	19.996	103.202	20.129	10.046	0.527
1044.500	604.123	80.006	19.995	103.203	20.126	10.295	0.494
1045.000	604.365	80.006	19.996	103.203	20.125	10.350	0.484
1045.500	604.638	80.007	19.995	103.196	20.127	10.210	0.501
1046.000	604.866	80.007	19.995	103.193	20.127	10.232	0.507
1046.500	605.122	80.007	19.997	103.192	20.127	10.209	0.492
1047.000	605.367	80.006	19.995	103.190	20.125	10.337	0.493
1047.500	605.629	80.007	19.996	103.187	20.130	9.999	0.504
1048.000	605.865	80.009	19.996	103.186	20.124	10.414	0.503
1048.500	606.148	80.007	19.995	103.180	20.125	10.340	0.509
1049.000	606.364	80.007	19.996	103.175	20.125	10.357	0.509
1049.500	606.640	80.006	19.996	103.173	20.123	10.458	0.495
1050.000	606.894	80.007	19.997	103.173	20.127	10.195	0.511
1050.500	607.214	80.008	19.996	103.173	20.126	10.273	0.552
1051.000	607.443	80.008	19.995	103.173	20.123	10.451	0.561
1051.500	607.707	80.009	19.996	103.173	20.124	10.404	0.521
1052.001	607.950	80.007	19.996	103.169	20.124	10.402	0.500
1052.502	608.199	80.006	19.997	103.169	20.123	10.477	0.500
1053.001	608.447	80.005	19.996	103.169	20.125	10.306	0.495
1053.500	608.727	80.007	19.996	103.173	20.125	10.324	0.512
1054.000	608.996	80.007	19.996	103.173	20.128	10.143	0.539
1054.500	609.228	80.007	19.997	103.177	20.123	10.464	0.525
1055.000	609.444	80.006	19.996	103.176	20.126	10.286	0.474
1055.500	609.710	80.005	19.996	103.178	20.123	10.497	0.465
1056.000	609.987	80.006	19.995	103.175	20.126	10.296	0.512
1056.500	610.219	80.007	19.994	103.174	20.125	10.333	0.526
1057.000	610.501	80.006	19.996	103.174	20.122	10.586	0.512
1057.500	610.751	80.007	19.994	103.178	20.124	10.418	0.523
1058.000	611.008	80.006	19.996	103.184	20.122	10.523	0.519
1058.501	611.268	80.007	19.995	103.191	20.125	10.355	0.512
1059.001	611.499	80.007	19.995	103.197	20.125	10.345	0.504
1059.500	611.736	80.008	19.995	103.194	20.123	10.459	0.480
1060.000	612.004	80.007	19.995	103.189	20.122	10.533	0.487
1060.500	612.269	80.006	19.996	103.182	20.123	10.496	0.519
1061.000	612.514	80.007	19.996	103.177	20.123	10.503	0.522
1061.501	612.810	80.006	19.995	103.174	20.127	10.206	0.525
1062.001	613.011	80.006	19.994	103.176	20.122	10.564	0.519
1062.500	613.292	80.006	19.995	103.176	20.121	10.644	0.489
1063.000	613.557	80.006	19.995	103.176	20.121	10.635	0.514
1063.500	613.786	80.007	19.994	103.174	20.121	10.642	0.520
1064.000	614.058	80.007	19.996	103.173	20.123	10.466	0.498
1064.500	614.326	80.007	19.995	103.170	20.122	10.550	0.520
1065.000	614.540	80.008	19.995	103.169	20.121	10.645	0.511
1065.500	614.818	80.008	19.995	103.169	20.122	10.533	0.487
1066.000	615.066	80.008	19.995	103.168	20.122	10.551	0.509
1066.500	615.315	80.007	19.994	103.167	20.121	10.626	0.512
1067.001	615.603	80.007	19.994	103.167	20.121	10.612	0.517
1067.501	615.823	80.008	19.995	103.167	20.123	10.501	0.523
1068.000	616.077	80.009	19.995	103.168	20.122	10.577	0.491
1068.500	616.361	80.008	19.995	103.172	20.122	10.535	0.506
1069.000	616.611	80.008	19.995	103.173	20.119	10.747	0.536
1069.500	616.825	80.008	19.994	103.173	20.119	10.745	0.499
1070.000	617.122	80.008	19.995	103.173	20.120	10.678	0.488
1070.500	617.374	80.009	19.993	103.173	20.121	10.637	0.530
1071.000	617.619	80.010	19.994	103.170	20.121	10.614	0.523
1071.500	617.855	80.008	19.994	103.168	20.121	10.637	0.489
1072.001	618.123	80.009	19.994	103.168	20.121	10.637	0.492
1072.501	618.388	80.010	19.995	103.168	20.121	10.614	0.518
1073.000	618.598	80.009	19.994	103.168	20.120	10.696	0.504
1073.500	618.871	80.009	19.994	103.168	20.119	10.769	0.479
1074.000	619.127	80.008	19.994	103.168	20.120	10.695	0.506
1074.500	619.388	80.009	19.995	103.169	20.120	10.697	0.523
1075.000	619.637	80.008	19.994	103.170	20.118	10.810	0.513
1075.500	619.905	80.009	19.994	103.169	20.120	10.686	0.514
1076.000	620.168	80.008	19.994	103.170	20.120	10.716	0.524
1076.500	620.428	80.009	19.995	103.174	20.119	10.755	0.527
1077.001	620.647	80.008	19.994	103.177	20.119	10.794	0.501
1077.501	620.928	80.007	19.995	103.178	20.120	10.693	0.490
1078.000	621.210	80.007	19.994	103.179	20.119	10.783	0.532
1078.500	621.430	80.008	19.993	103.179	20.122	10.540	0.532
1079.000	621.672	80.006	19.994	103.176	20.124	10.431	0.482
1079.501	621.906	80.008	19.994	103.173	20.119	10.767	0.469
1080.001	622.160	80.006	19.995	103.174	20.122	10.585	0.482
1080.501	622.470	80.007	19.995	103.172	20.121	10.626	0.526
1081.000	622.694	80.006	19.995	103.172	20.121	10.640	0.549
1081.500	622.957	80.006	19.994	103.171	20.121	10.595	0.511
1082.000	623.198	80.005	19.995	103.174	20.121	10.606	0.495
1082.500	623.473	80.006	19.995	103.173	20.121	10.591	0.510
1083.000	623.677	80.006	19.994	103.173	20.121	10.635	0.498
1083.500	623.973	80.006	19.995	103.175	20.120	10.703	0.490
1084.000	624.210	80.004	19.995	103.180	20.119	10.772	0.517
1084.500	624.471	80.005	19.994	103.182	20.117	10.895	0.515
1085.000	624.725	80.005	19.995	103.181	20.118	10.862	0.506
1085.500	624.988	80.006	19.995	103.181	20.117	10.903	0.516
1086.001	625.263	80.006	19.994	103.181	20.117	10.888	0.527
1086.501	625.516	80.006	19.994	103.177	20.121	10.637	0.533
1087.000	625.751	80.006	19.996	103.176	20.116	11.007	0.508
1087.500	626.018	80.004	19.994	103.178	20.118	10.841	0.495
1088.000	626.227	80.006	19.994	103.180	20.121	10.649	0.489
1088.500	626.477	80.005	19.994	103.181	20.116	10.993	0.467
1089.000	626.734	80.006	19.995	103.183	20.120	10.719	0.483
1089.500	626.978	80.004	19.993	103.183	20.119	10.742	0.504
1090.000	627.264	80.006	19.994	103.183	20.117	10.940	0.515
1090.500	627.523	80.005	19.995	103.181	20.121	10.608	0.538
1091.000	627.787	80.005	19.994	103.182	20.123	10.465	0.534
1091.500	628.048	80.005	19.994	103.182	20.121	10.643	0.524
1092.000	628.286	80.006	19.994	103.182	20.118	10.817	0.512
1092.500	628.577	80.004	19.994	103.180	20.123	10.483	0.514
1093.000	628.796	80.007	19.994	103.180	20.120	10.696	0.519
1093.500	629.065	80.005	19.995	103.179	20.122	10.559	0.499
1094.000	629.305	80.006	19.994	103.175	20.121	10.655	0.498
1094.500	629.574	80.005	19.994	103.172	20.122	10.584	0.509
1095.000	629.833	80.006	19.994	103.171	20.121	10.637	0.519
1095.500	630.063	80.005	19.996	103.170	20.119	10.737	0.509
1096.000	630.308	80.005	19.995	103.171	20.124	10.443	0.482
1096.500	630.625	80.006	19.995	103.172	20.123	10.453	0.518
1097.000	630.787	80.006	19.996	103.175	20.123	10.483	0.521
1097.501	631.085	80.006	19.994	103.177	20.121	10.598	0.469
1098.001	631.344	80.005	19.994	103.178	20.122	10.533	0.508
1098.500	631.589	80.006	19.995	103.177	20.122	10.573	0.531
1099.000	631.844	80.006	19.994	103.176	20.124	10.422	0.503
1099.500	632.087	80.006	19.994	103.174	20.125	10.308	0.499
1100.000	632.339	80.006	19.994	103.172	20.124	10.439	0.496
1100.500	632.571	80.006	19.994	103.171	20.126	10.275	0.489
1101.000	632.844	80.006	19.994	103.172	20.124	10.392	0.495
1101.500	633.070	80.006	19.994	103.172	20.125	10.351	0.502
1102.000	633.312	80.007	19.993	103.175	20.126	10.281	0.483
1102.500	633.583	80.006	19.993	103.175	20.124	10.390	0.490
1103.000	633.846	80.007	19.994	103.176	20.127	10.194	0.523
1103.500	634.157	80.005	19.994	103.175	20.129	10.061	0.555
1104.000	634.382	80.007	19.994	103.175	20.128	10.130	0.555
1104.500	634.617	80.006	19.995	103.173	20.127	10.185	0.498
1105.000	634.964	80.007	19.994	103.173	20.126	10.290	0.521
1105.500	635.190	80.006	19.995	103.174	20.126	10.298	0.578
1106.000	635.414	80.007	19.995	103.174	20.128	10.139	0.511
1106.501	635.666	80.007	19.994	103.174	20.127	10.212	0.463
1107.001	635.940	80.005	19.994	103.174	20.128	10.143	0.501
1107.500	636.199	80.005	19.995	103.177	20.127	10.188	0.530
1108.000	636.469	80.006	19.995	103.175	20.127	10.202	0.531
1108.500	636.689	80.006	19.995	103.174	20.127	10.177	0.509
1109.000	636.988	80.005	19.995	103.174	20.128	10.132	0.505
1109.500	637.239	80.006	19.996	103.174	20.128	10.126	0.535
1110.000	637.488	80.006	19.995	103.171	20.125	10.308	0.525
1110.500	637.759	80.006	19.994	103.171	20.127	10.210	0.510
1111.000	638.009	80.006	19.994	103.172	20.126	10.239	0.520
1111.500	638.236	80.005	19.995	103.173	20.124	10.409	0.499
1112.000	638.530	80.005	19.995	103.172	20.127	10.184	0.499
1112.500	638.777	80.006	19.995	103.172	20.128	10.106	0.531
1113.000	639.040	80.004	19.996	103.172	20.126	10.290	0.525
1113.500	639.302	80.006	19.995	103.170	20.125	10.323	0.517
1114.000	639.568	80.005	19.995	103.169	20.125	10.351	0.527
1114.501	639.796	80.005	19.994	103.169	20.127	10.231	0.511
1115.002	640.047	80.006	19.995	103.169	20.127	10.222	0.486
1115.501	640.330	80.005	19.996	103.168	20.127	10.196	0.506
1116.001	640.579	80.007	19.996	103.168	20.127	10.198	0.533
1116.501	640.837	80.006	19.995	103.167	20.128	10.139	0.519
1117.000	641.067	80.004	19.996	103.167	20.129	10.042	0.497
1117.500	641.325	80.006	19.995	103.168	20.129	10.059	0.488
1118.000	641.596	80.005	19.996	103.168	20.129	10.069	0.509
1118.500	641.859	80.006	19.995	103.168	20.125	10.316	0.532
1119.000	642.072	80.006	19.995	103.168	20.126	10.294	0.505
1119.500	642.319	80.006	19.995	103.168	20.127	10.167	0.468
1120.000	642.559	80.006	19.996	103.168	20.123	10.470	0.474
1120.500	642.850	80.006	19.995	103.167	20.127	10.175	0.509
1121.000	643.098	80.006	19.995	103.168	20.128	10.136	0.535
1121.500	643.324	80.006	19.995	103.168	20.125	10.365	0.507
1122.000	643.588	80.004	19.995	103.168	20.128	10.095	0.482
1122.500	643.828	80.007	19.995	103.167	20.126	10.277	0.497
1123.000	644.115	80.006	19.996	103.167	20.126	10.267	0.516
1123.500	644.318	80.007	19.995	103.167	20.126	10.296	0.508
1124.000	644.593	80.006	19.997	103.167	20.126	10.282	0.484
1124.500	644.835	80.007	19.995	103.167	20.127	10.190	0.497
1125.000	645.065	80.006	19.996	103.168	20.130	9.969	0.494
1125.500	645.340	80.007	19.995	103.167	20.128	10.147	0.489
1126.000	645.606	80.008	19.996	103.168	20.124	10.376	0.523
1126.500	645.841	80.008	19.995	103.167	20.125	10.357	0.521
1127.000	646.076	80.008	19.995	103.167	20.122	10.527	0.485
1127.500	646.358	80.008	19.995	103.167	20.124	10.437	0.494
1128.000	646.584	80.007	19.995	103.168	20.124	10.415	0.513
1128.500	646.865	80.008	19.995	103.168	20.124	10.416	0.508
1129.000	647.074	80.008	19.995	103.169	20.125	10.304	0.498
1129.500	647.365	80.008	19.996	103.170	20.127	10.177	0.495
1130.000	647.635	80.007	19.994	103.168	20.128	10.136	0.530
1130.500	647.924	80.008	19.996	103.168	20.127	10.226	0.559
1131.000	648.170	80.006	19.995	103.168	20.126	10.298	0.547
1131.500	648.380	80.008	19.996	103.168	20.127	10.224	0.496
1132.000	648.682	80.008	19.995	103.172	20.127	10.227	0.484
1132.500	648.896	80.007	19.995	103.173	20.125	10.329	0.514
1133.000	649.146	80.008	19.994	103.172	20.126	10.298	0.490
1133.500	649.423	80.008	19.995	103.172	20.129	10.088	0.495
1134.000	649.689	80.007	19.995	103.171	20.128	10.114	0.535
1134.500	649.952	80.007	19.996	103.166	20.126	10.251	0.536
1135.000	650.198	80.006	19.994	103.165	20.123	10.447	0.519
1135.500	650.454	80.006	19.994	103.165	20.125	10.314	0.506
1136.000	650.687	80.007	19.995	103.165	20.126	10.282	0.496
1136.500	650.969	80.005	19.995	103.165	20.125	10.343	0.502
1137.000	651.230	80.008	19.996	103.165	20.126	10.290	0.529
1137.500	651.462	80.007	19.995	103.166	20.128	10.114	0.518
1138.000	651.750	80.006	19.995	103.166	20.128	10.118	0.506
1138.500	651.973	80.005	19.996	103.167	20.127	10.202	0.516
1139.000	652.271	80.006	19.995	103.169	20.128	10.109	0.516
1139.500	652.497	80.005	19.996	103.170	20.125	10.336	0.522
1140.000	652.770	80.007	19.996	103.169	20.127	10.228	0.512
1140.500	652.994	80.006	19.995	103.169	20.126	10.257	0.498
1141.000	653.262	80.006	19.995	103.169	20.125	10.370	0.494
1141.500	653.527	80.006	19.996	103.167	20.125	10.322	0.512
1142.000	653.765	80.005	19.996	103.166	20.125	10.343	0.518
1142.500	654.048	80.007	19.997	103.167	20.125	10.310	0.512
1143.000	654.292	80.006	19.996	103.167	20.128	10.126	0.524
1143.500	654.572	80.006	19.996	103.167	20.129	10.057	0.526
1144.000	654.791	80.007	19.997	103.167	20.130	10.011	0.512
1144.500	655.067	80.006	19.995	103.166	20.130	9.991	0.497
1145.000	655.256	80.006	19.996	103.166	20.127	10.198	0.480
1145.500	655.557	80.007	19.996	103.166	20.128	10.145	0.478
1146.000	655.879	80.007	19.996	103.167	20.129	10.024	0.557
1146.500	656.112	80.006	19.996	103.167	20.127	10.196	0.589
1147.000	656.373	80.007	19.996	103.168	20.128	10.122	0.525
1147.500	656.576	80.007	19.996	103.168	20.127	10.165	0.479
1148.000	656.862	80.007	19.996	103.167	20.128	10.114	0.477
1148.500	657.118	80.007	19.996	103.170	20.127	10.163	0.515
1149.000	657.382	80.005	19.996	103.171	20.129	10.030	0.530
1149.500	657.626	80.007	19.996	103.171	20.126	10.259	0.514
1150.000	657.882	80.008	19.996	103.171	20.128	10.147	0.504
1150.500	658.137	80.008	19.994	103.172	20.127	10.220	0.505
1151.000	658.379	80.007	19.995	103.169	20.128	10.157	0.504
1151.500	658.685	80.009	19.995	103.169	20.127	10.167	0.523
1152.000	658.914	80.008	19.996	103.169	20.129	10.040	0.541
1152.500	659.273	80.008	19.996	103.169	20.129	10.042	0.562
1153.000	659.522	80.008	19.995	103.169	20.125	10.345	0.598
1153.500	659.717	80.008	19.994	103.170	20.127	10.230	0.526
1154.000	659.951	80.008	19.995	103.170	20.126	10.249	0.436
1154.500	660.218	80.008	19.995	103.169	20.126	10.243	0.465
1155.000	660.470	80.009	19.994	103.170	20.125	10.333	0.511
1155.500	660.736	80.007	19.996	103.169	20.124	10.425	0.519
1156.000	660.997	80.007	19.993	103.168	20.123	10.465	0.522
1156.500	661.252	80.009	19.994	103.168	20.125	10.308	0.521
1157.000	661.636	80.009	19.995	103.168	20.125	10.351	0.578
1157.500	661.897	80.007	19.994	103.168	20.124	10.384	0.642
1158.000	662.161	80.010	19.995	103.169	20.125	10.332	0.585
1158.500	662.341	80.007	19.994	103.168	20.124	10.381	0.484
1159.000	662.582	80.008	19.995	103.168	20.124	10.379	0.432
1159.500	662.859	80.009	19.995	103.169	20.125	10.310	0.470
1160.000	663.118	80.008	19.993	103.168	20.126	10.289	0.527
1160.500	663.366	80.008	19.994	103.166	20.124	10.422	0.521
1161.000	663.629	80.008	19.995	103.167	20.125	10.330	0.509
1161.500	663.894	80.008	19.995	103.167	20.124	10.410	0.520
1162.000	664.148	80.008	19.994	103.167	20.122	10.523	0.524
1162.500	664.404	80.007	19.995	103.167	20.127	10.218	0.514
1163.001	664.660	80.006	19.994	103.169	20.126	10.282	0.510
1163.500	664.904	80.006	19.994	103.169	20.119	10.728	0.506
1164.000	665.210	80.006	19.993	103.169	20.124	10.384	0.526
1164.500	665.460	80.007	19.994	103.169	20.126	10.290	0.553
1165.000	665.689	80.006	19.995	103.170	20.124	10.414	0.517
1165.500	665.938	80.006	19.995	103.170	20.122	10.531	0.478
1166.000	666.231	80.005	19.994	103.170	20.125	10.367	0.510
1166.500	666.489	80.006	19.994	103.171	20.120	10.686	0.547
1167.000	666.711	80.007	19.994	103.171	20.123	10.457	0.515
1167.500	666.953	80.005	19.994	103.171	20.124	10.415	0.472
1168.000	667.248	80.006	19.996	103.170	20.122	10.535	0.501
1168.500	667.511	80.006	19.995	103.171	20.123	10.452	0.547
1169.000	667.697	80.006	19.994	103.172	20.120	10.677	0.504
1169.500	668.034	80.006	19.994	103.172	20.121	10.620	0.486
1170.000	668.246	80.006	19.995	103.173	20.120	10.700	0.536
1170.500	668.528	80.006	19.994	103.174	20.121	10.638	0.521
1171.000	668.755	80.006	19.995	103.175	20.123	10.457	0.501
1171.500	669.011	80.005	19.994	103.174	20.125	10.312	0.496
1172.000	669.278	80.005	19.994	103.174	20.124	10.432	0.503
1172.500	669.555	80.006	19.995	103.173	20.123	10.479	0.534
1173.000	669.807	80.005	19.994	103.171	20.121	10.626	0.537
1173.500	670.083	80.005	19.995	103.168	20.121	10.654	0.528
1174.000	670.293	80.003	19.993	103.167	20.121	10.642	0.506
1174.500	670.524	80.005	19.994	103.167	20.121	10.599	0.464
1175.000	670.830	80.005	19.994	103.167	20.122	10.517	0.489
1175.500	671.098	80.006	19.995	103.167	20.122	10.572	0.555
1176.000	671.355	80.007	19.994	103.169	20.121	10.654	0.549
1176.500	671.586	80.005	19.994	103.169	20.119	10.736	0.507
1177.000	671.844	80.006	19.996	103.169	20.123	10.456	0.489
1177.500	672.153	80.006	19.994	103.169	20.121	10.591	0.528
1178.000	672.384	80.006	19.995	103.168	20.120	10.666	0.553
1178.500	672.660	80.008	19.995	103.168	20.119	10.742	0.523
1179.000	672.918	80.007	19.996	103.167	20.117	10.932	0.521
1179.500	673.195	80.007	19.994	103.166	20.121	10.631	0.535
1180.000	673.423	80.007	19.994	103.164	20.119	10.779	0.520
1180.500	673.728	80.007	19.995	103.162	20.121	10.625	0.519
1181.000	673.944	80.006	19.994	103.162	20.121	10.601	0.527
1181.500	674.227	80.006	19.995	103.162	20.123	10.500	0.510
1182.001	674.474	80.006	19.993	103.156	20.122	10.572	0.515
1182.501	674.774	80.005	19.995	103.156	20.122	10.586	0.539
1183.000	675.005	80.006	19.995	103.157	20.120	10.709	0.539
1183.500	675.280	80.008	19.995	103.157	20.122	10.568	0.518
1184.000	675.565	80.007	19.995	103.159	20.124	10.382	0.533
1184.500	675.796	80.007	19.994	103.164	20.123	10.458	0.538
1185.000	676.088	80.005	19.995	103.166	20.122	10.576	0.519
1185.500	676.353	80.007	19.995	103.165	20.121	10.646	0.540
1186.000	676.608	80.006	19.996	103.165	20.121	10.628	0.539
1186.500	676.890	80.007	19.996	103.164	20.122	10.582	0.529
1187.000	677.135	80.008	19.995	103.164	20.121	10.642	0.533
1187.500	677.381	80.005	19.995	103.164	20.120	10.689	0.509
1188.000	677.617	80.007	19.995	103.166	20.120	10.713	0.486
1188.500	677.910	80.006	19.996	103.166	20.123	10.495	0.506
1189.000	678.149	80.005	19.994	103.167	20.122	10.562	0.531
1189.500	678.445	80.006	19.994	103.168	20.121	10.642	0.533
1190.000	678.660	80.006	19.995	103.169	20.120	10.664	0.523
1190.500	678.979	80.007	19.994	103.168	20.119	10.740	0.523
1191.000	679.208	80.004	19.994	103.168	20.119	10.732	0.541
1191.500	679.447	80.004	19.995	103.169	20.125	10.345	0.508
1192.000	679.715	80.006	19.994	103.169	20.119	10.728	0.487
1192.500	679.959	80.005	19.995	103.168	20.119	10.749	0.509
1193.000	680.232	80.006	19.995	103.169	20.122	10.516	0.515
1193.500	680.501	80.005	19.995	103.169	20.124	10.423	0.530
1194.000	680.719	80.006	19.995	103.168	20.124	10.428	0.514
1194.500	681.004	80.007	19.995	103.168	20.123	10.503	0.495
1195.000	681.284	80.006	19.995	103.167	20.123	10.501	0.534
1195.500	681.521	80.005	19.994	103.168	20.122	10.531	0.541
1196.000	681.805	80.005	19.995	103.168	20.123	10.468	0.519
1196.500	682.038	80.005	19.995	103.167	20.121	10.649	0.519
1197.000	682.285	80.005	19.995	103.166	20.119	10.729	0.498
1197.500	682.562	80.006	19.995	103.167	20.120	10.662	0.502
1198.000	682.832	80.006	19.995	103.166	20.118	10.834	0.536
1198.500	683.100	80.005	19.995	103.166	20.122	10.540	0.542
1199.000	683.319	80.006	19.995	103.165	20.121	10.606	0.512
1199.500	683.594	80.005	19.995	103.166	20.121	10.651	0.490
1200.000	683.856	80.005	19.994	103.167	20.122	10.527	0.516
1200.500	684.129	80.006	19.995	103.167	20.124	10.419	0.536
1201.000	684.347	80.005	19.995	103.169	20.123	10.478	0.513
1201.500	684.646	80.004	19.995	103.168	20.122	10.584	0.504
1202.000	684.727	80.005	19.994	103.167	20.120	10.684	0.448
1202.500	685.156	80.006	19.995	103.165	20.121	10.654	0.445
1203.000	685.382	80.006	19.995	103.162	20.122	10.584	0.582
1203.500	685.641	80.007	19.994	103.160	20.121	10.619	0.570
1204.000	685.933	80.008	19.995	103.161	20.125	10.357	0.518
1204.500	686.167	80.007	19.994	103.161	20.121	10.616	0.538
1205.000	686.444	80.007	19.996	103.162	20.121	10.655	0.518
1205.500	686.715	80.006	19.995	103.165	20.121	10.650	0.530
1206.000	686.986	80.007	19.995	103.164	20.122	10.554	0.545
1206.500	687.231	80.005	19.995	103.165	20.121	10.641	0.529
1207.000	687.473	80.007	19.995	103.163	20.122	10.571	0.502
1207.500	687.758	80.006	19.995	103.157	20.118	10.859	0.507
1208.000	688.011	80.006	19.995	103.152	20.117	10.888	0.532
1208.500	688.292	80.006	19.995	103.150	20.119	10.796	0.536
1209.000	688.554	80.007	19.995	103.149	20.121	10.634	0.539
1209.500	688.774	80.008	19.996	103.147	20.121	10.655	0.513
1210.000	689.034	80.007	19.994	103.153	20.121	10.628	0.481
1210.500	689.269	80.006	19.996	103.154	20.121	10.638	0.487
1211.000	689.528	80.007	19.995	103.154	20.119	10.779	0.494
1211.500	689.757	80.006	19.995	103.151	20.118	10.835	0.491
1212.000	690.039	80.008	19.995	103.151	20.119	10.745	0.499
1212.500	690.327	80.008	19.995	103.149	20.118	10.813	0.541
1213.000	690.574	80.007	19.995	103.150	20.117	10.881	0.553
1213.500	690.822	80.007	19.995	103.151	20.117	10.920	0.515
1214.000	691.087	80.007	19.994	103.152	20.120	10.722	0.504
1214.500	691.358	80.005	19.996	103.155	20.123	10.492	0.525
1215.000	691.617	80.007	19.994	103.156	20.118	10.822	0.533
1215.500	691.865	80.006	19.994	103.157	20.120	10.691	0.518
1216.000	692.103	80.007	19.995	103.160	20.123	10.455	0.496
1216.500	692.391	80.006	19.995	103.163	20.122	10.559	0.506
1217.000	692.676	80.007	19.995	103.161	20.122	10.551	0.550
1217.500	692.918	80.007	19.995	103.160	20.120	10.686	0.550
1218.000	693.161	80.007	19.995	103.161	20.118	10.832	0.506
1218.500	693.415	80.007	19.994	103.161	20.119	10.770	0.492
1219.000	693.676	80.007	19.994	103.163	20.118	10.797	0.506
1219.500	693.930	80.006	19.995	103.162	20.119	10.752	0.515
1220.000	694.213	80.007	19.995	103.162	20.118	10.801	0.526
1220.500	694.457	80.006	19.995	103.161	20.121	10.612	0.532
1221.000	694.700	80.006	19.994	103.162	20.120	10.700	0.506
1221.500	694.962	80.007	19.995	103.163	20.118	10.854	0.496
1222.000	695.186	80.006	19.995	103.164	20.116	10.992	0.496
1222.500	695.435	80.006	19.995	103.159	20.119	10.782	0.480
1223.000	695.745	80.007	19.995	103.156	20.118	10.854	0.516
1223.500	695.989	80.007	19.995	103.155	20.116	10.950	0.557
1224.000	696.236	80.007	19.996	103.151	20.118	10.868	0.522
1224.500	696.521	80.007	19.995	103.147	20.115	11.027	0.512
1225.000	696.783	80.006	19.995	103.148	20.121	10.645	0.540
1225.500	697.037	80.006	19.995	103.147	20.120	10.692	0.532
1226.001	697.284	80.006	19.994	103.143	20.117	10.920	0.508
1226.500	697.533	80.007	19.994	103.146	20.117	10.893	0.499
1227.000	697.804	80.005	19.994	103.150	20.118	10.839	0.508
1227.500	698.046	80.007	19.994	103.152	20.115	11.041	0.516
1228.001	698.270	80.007	19.995	103.150	20.115	11.035	0.489
1228.501	698.560	80.005	19.995	103.153	20.118	10.863	0.490
1229.000	698.799	80.005	19.995	103.153	20.114	11.107	0.522
1229.500	699.070	80.007	19.994	103.154	20.114	11.113	0.519
1230.000	699.323	80.006	19.996	103.153	20.116	10.957	0.517
1230.500	699.556	80.007	19.994	103.155	20.117	10.886	0.505
1231.000	699.833	80.006	19.995	103.155	20.119	10.765	0.498
1231.500	700.070	80.007	19.994	103.154	20.118	10.868	0.512
1232.000	700.324	80.007	19.995	103.154	20.116	10.952	0.502
1232.500	700.582	80.007	19.994	103.155	20.117	10.919	0.502
1233.000	700.840	80.007	19.994	103.158	20.118	10.845	0.514
1233.500	701.110	80.007	19.994	103.157	20.118	10.853	0.521
1234.000	701.337	80.006	19.996	103.155	20.120	10.718	0.513
1234.500	701.613	80.008	19.994	103.151	20.118	10.798	0.500
1235.000	701.836	80.007	19.995	103.151	20.117	10.917	0.501
1235.500	702.096	80.007	19.994	103.146	20.118	10.807	0.491
1236.000	702.356	80.008	19.996	103.141	20.116	10.986	0.501
1236.500	702.592	80.008	19.995	103.142	20.116	10.976	0.508
1237.000	702.833	80.008	19.995	103.147	20.117	10.906	0.487
1237.500	703.098	80.008	19.995	103.151	20.119	10.784	0.491
1238.000	703.318	80.008	19.996	103.158	20.118	10.826	0.495
1238.500	703.618	80.008	19.995	103.164	20.116	10.986	0.503
1239.000	703.884	80.008	19.995	103.163	20.118	10.825	0.544
1239.500	704.099	80.007	19.995	103.161	20.118	10.809	0.524
1240.000	704.379	80.008	19.997	103.161	20.121	10.615	0.488
1240.500	704.594	80.006	19.996	103.161	20.116	10.957	0.495
1241.000	704.849	80.007	19.995	103.161	20.119	10.743	0.482
1241.500	705.089	80.006	19.994	103.161	20.120	10.719	0.482
1242.000	705.373	80.005	19.994	103.160	20.118	10.850	0.510
1242.500	705.608	80.006	19.996	103.158	20.117	10.916	0.522
1243.000	705.882	80.003	19.996	103.158	20.115	11.016	0.514
1243.500	706.130	80.006	19.997	103.158	20.115	11.039	0.515
1244.000	706.382	80.005	19.996	103.161	20.117	10.896	0.511
1244.500	706.637	80.006	19.997	103.162	20.118	10.815	0.504
1245.000	706.897	80.007	19.997	103.161	20.120	10.723	0.511
1245.500	707.129	80.004	19.995	103.157	20.120	10.692	0.504
1246.000	707.388	80.007	19.995	103.157	20.118	10.843	0.492
1246.500	707.691	80.004	19.995	103.155	20.117	10.911	0.526
1247.000	707.938	80.005	19.995	103.157	20.116	10.991	0.556
1247.500	708.163	80.007	19.996	103.158	20.115	11.025	0.511
1248.000	708.452	80.004	19.995	103.159	20.116	11.003	0.493
1248.500	708.679	80.007	19.996	103.159	20.116	10.999	0.515
1249.000	708.937	80.007	19.996	103.162	20.118	10.807	0.501
1249.500	709.201	80.008	19.995	103.159	20.115	11.021	0.504
1250.000	709.442	80.006	19.995	103.153	20.116	11.005	0.513
1250.500	709.737	80.006	19.995	103.152	20.114	11.085	0.520
1251.000	709.966	80.006	19.994	103.148	20.115	11.040	0.530
1251.500	710.256	80.005	19.995	103.143	20.117	10.897	0.522
1252.000	710.520	80.007	19.996	103.142	20.115	11.044	0.536
1252.500	710.757	80.004	19.995	103.148	20.112	11.250	0.527
1253.000	710.970	80.008	19.995	103.152	20.112	11.226	0.475
1253.500	711.259	80.006	19.994	103.151	20.116	10.964	0.476
1254.000	711.527	80.007	19.994	103.150	20.116	10.956	0.530
1254.500	711.724	80.006	19.995	103.148	20.112	11.232	0.511
1255.000	712.013	80.006	19.994	103.142	20.116	10.996	0.475
1255.500	712.252	80.005	19.994	103.135	20.115	11.065	0.507
1256.000	712.540	80.007	19.995	103.138	20.116	10.996	0.528
1256.500	712.784	80.007	19.995	103.139	20.115	11.061	0.529
1257.000	713.025	80.004	19.995	103.144	20.115	11.047	0.508
1257.500	713.295	80.005	19.995	103.151	20.117	10.927	0.498
1258.000	713.545	80.008	19.995	103.157	20.114	11.111	0.516
1258.500	713.802	80.007	19.994	103.158	20.112	11.281	0.513
1259.000	714.045	80.006	19.996	103.158	20.115	11.069	0.504
1259.500	714.300	80.007	19.996	103.153	20.115	11.032	0.499
1260.000	714.568	80.008	19.994	103.149	20.115	11.024	0.510
1260.500	714.795	80.005	19.994	103.143	20.117	10.907	0.509
1261.000	715.053	80.007	19.995	103.140	20.117	10.921	0.490
1261.500	715.306	80.007	19.995	103.138	20.118	10.839	0.498
1262.000	715.585	80.005	19.994	103.138	20.116	10.941	0.521
1262.500	715.789	80.004	19.995	103.137	20.114	11.102	0.507
1263.000	716.064	80.005	19.995	103.140	20.117	10.936	0.481
1263.500	716.306	80.007	19.995	103.138	20.116	10.995	0.498
1264.000	716.552	80.005	19.995	103.139	20.114	11.102	0.503
1264.500	716.818	80.004	19.994	103.139	20.115	11.017	0.500
1265.000	717.058	80.006	19.994	103.141	20.115	11.054	0.509
1265.500	717.309	80.006	19.994	103.140	20.115	11.050	0.498
1266.000	717.525	80.006	19.995	103.142	20.114	11.148	0.479
1266.500	717.795	80.007	19.994	103.146	20.116	11.000	0.477
1267.000	718.057	80.006	19.995	103.149	20.117	10.907	0.510
1267.500	718.315	80.006	19.995	103.149	20.113	11.175	0.526
1268.000	718.549	80.006	19.995	103.147	20.113	11.189	0.506
1268.500	718.782	80.007	19.995	103.144	20.115	11.016	0.479
1269.000	719.046	80.006	19.995	103.138	20.114	11.142	0.482
1269.500	719.336	80.005	19.995	103.137	20.113	11.187	0.526
1270.000	719.565	80.007	19.994	103.137	20.114	11.142	0.536
1270.500	719.791	80.006	19.995	103.135	20.113	11.175	0.487
1271.000	720.068	80.007	19.995	103.136	20.112	11.281	0.479
1271.500	720.291	80.005	19.995	103.138	20.113	11.154	0.502
1272.000	720.522	80.005	19.995	103.139	20.114	11.132	0.477
1272.500	720.774	80.007	19.995	103.141	20.112	11.224	0.468
1273.000	721.044	80.006	19.996	103.147	20.114	11.105	0.502
1273.500	721.270	80.005	19.995	103.152	20.110	11.382	0.509
1274.000	721.548	80.007	19.994	103.154	20.115	11.039	0.500
1274.500	721.770	80.006	19.994	103.154	20.111	11.358	0.502
1275.000	722.083	80.007	19.995	103.153	20.117	10.930	0.517
1275.500	722.301	80.006	19.994	103.155	20.113	11.179	0.533
1276.000	722.534	80.004	19.995	103.157	20.113	11.203	0.491
1276.500	722.803	80.006	19.995	103.158	20.113	11.172	0.476
1277.000	723.036	80.006	19.995	103.162	20.112	11.259	0.502
1277.500	723.306	80.009	19.996	103.162	20.110	11.399	0.503
1278.000	723.566	80.005	19.994	103.156	20.110	11.427	0.516
1278.500	723.767	80.004	19.995	103.154	20.111	11.330	0.496
1279.000	724.047	80.004	19.994	103.155	20.111	11.357	0.471
1279.500	724.282	80.005	19.994	103.152	20.110	11.416	0.498
1280.000	724.531	80.006	19.994	103.155	20.113	11.175	0.499
1280.500	724.765	80.005	19.996	103.160	20.110	11.413	0.484
1281.000	725.025	80.007	19.994	103.159	20.111	11.304	0.488
1281.500	725.242	80.005	19.995	103.156	20.113	11.172	0.485
1282.000	725.481	80.008	19.995	103.158	20.113	11.190	0.466
1282.500	725.738	80.005	19.995	103.158	20.109	11.454	0.476
1283.000	726.029	80.006	19.994	103.154	20.109	11.480	0.522
1283.500	726.253	80.006	19.995	103.155	20.109	11.478	0.532
1284.000	726.492	80.005	19.994	103.156	20.108	11.551	0.489
1284.500	726.740	80.006	19.994	103.152	20.111	11.350	0.475
1285.000	726.990	80.006	19.994	103.147	20.108	11.560	0.493
1285.500	727.250	80.006	19.995	103.150	20.109	11.487	0.504
1286.001	727.469	80.008	19.995	103.151	20.109	11.454	0.494
1286.501	727.753	80.007	19.994	103.155	20.110	11.374	0.491
1287.000	727.997	80.006	19.994	103.161	20.110	11.390	0.515
1287.500	728.266	80.008	19.995	103.166	20.109	11.438	0.521
1288.000	728.535	80.009	19.995	103.167	20.106	11.661	0.526
1288.500	728.771	80.006	19.994	103.164	20.112	11.261	0.521
1289.000	729.005	80.007	19.994	103.164	20.109	11.497	0.488
1289.500	729.253	80.008	19.994	103.159	20.110	11.421	0.476
1290.000	729.484	80.006	19.995	103.159	20.112	11.229	0.480
1290.500	729.775	80.009	19.994	103.155	20.111	11.325	0.501
1291.000	729.983	80.008	19.994	103.152	20.109	11.475	0.510
1291.500	730.221	80.007	19.995	103.150	20.111	11.309	0.472
1292.000	730.459	80.007	19.994	103.152	20.113	11.223	0.461
1292.500	730.698	80.008	19.995	103.147	20.111	11.358	0.476
1293.000	730.932	80.006	19.995	103.146	20.110	11.418	0.475
1293.500	731.216	80.010	19.994	103.148	20.110	11.399	0.495
1294.000	731.461	80.009	19.995	103.150	20.112	11.273	0.523
1294.500	731.717	80.008	19.994	103.148	20.113	11.191	0.515
1295.000	731.944	80.008	19.994	103.153	20.112	11.223	0.492
1295.500	732.250	80.006	19.994	103.160	20.112	11.264	0.508
1296.000	732.435	80.009	19.993	103.164	20.113	11.154	0.512
1296.500	732.705	80.008	19.995	103.164	20.112	11.254	0.473
1297.000	732.925	80.007	19.993	103.168	20.110	11.381	0.473
1297.500	733.207	80.005	19.995	103.168	20.111	11.309	0.496
1298.000	733.453	80.009	19.994	103.167	20.110	11.378	0.515
1298.500	733.730	80.005	19.995	103.165	20.111	11.333	0.525
1299.000	733.938	80.007	19.995	103.165	20.110	11.390	0.504
1299.500	734.159	80.006	19.995	103.167	20.107	11.629	0.457
1300.000	734.447	80.008	19.994	103.166	20.109	11.488	0.469
1300.500	734.681	80.007	19.995	103.165	20.111	11.333	0.516
1301.000	734.959	80.008	19.995	103.165	20.111	11.341	0.517
1301.500	735.166	80.007	19.995	103.166	20.110	11.394	0.499
1302.000	735.441	80.006	19.995	103.163	20.110	11.394	0.484
1302.500	735.705	80.006	19.997	103.161	20.112	11.244	0.510
1303.000	735.943	80.008	19.996	103.161	20.107	11.576	0.520
1303.500	736.197	80.007	19.997	103.161	20.109	11.469	0.497
1304.000	736.436	80.008	19.995	103.157	20.109	11.474	0.492
1304.500	736.649	80.005	19.995	103.159	20.108	11.525	0.473
1305.000	736.920	80.006	19.994	103.159	20.107	11.623	0.468
1305.500	737.165	80.009	19.995	103.153	20.108	11.537	0.500
1306.000	737.442	80.007	19.995	103.149	20.109	11.483	0.519
1306.500	737.685	80.007	19.996	103.147	20.109	11.480	0.521
1307.000	737.947	80.008	19.995	103.141	20.106	11.710	0.512
1307.500	738.176	80.007	19.997	103.142	20.110	11.375	0.498
1308.000	738.447	80.006	19.995	103.145	20.107	11.584	0.495
1308.500	738.708	80.007	19.995	103.147	20.110	11.367	0.516
1309.000	738.908	80.010	19.995	103.149	20.108	11.550	0.497
1309.500	739.195	80.008	19.995	103.151	20.108	11.561	0.474
1310.000	739.470	80.009	19.996	103.148	20.110	11.369	0.524
1310.500	739.722	80.007	19.995	103.151	20.107	11.613	0.545
1311.000	739.987	80.009	19.995	103.153	20.107	11.588	0.522
1311.500	740.194	80.008	19.995	103.154	20.108	11.525	0.494
1312.000	740.465	80.009	19.996	103.153	20.110	11.406	0.475
1312.500	740.717	80.007	19.994	103.154	20.108	11.566	0.500
1313.000	740.938	80.009	19.996	103.151	20.107	11.584	0.498
1313.500	741.200	80.010	19.996	103.144	20.108	11.517	0.478
1314.000	741.431	80.009	19.996	103.139	20.104	11.822	0.488
1314.500	741.708	80.010	19.995	103.137	20.106	11.667	0.501
1315.000	741.956	80.009	19.995	103.136	20.106	11.678	0.517
1315.500	742.213	80.009	19.995	103.133	20.107	11.584	0.515
1316.000	742.490	80.008	19.995	103.136	20.107	11.588	0.519
1316.500	742.711	80.009	19.996	103.141	20.108	11.530	0.516
1317.000	742.954	80.007	19.995	103.148	20.111	11.332	0.481
1317.500	743.229	80.008	19.995	103.153	20.108	11.572	0.491
1318.000	743.436	80.009	19.995	103.159	20.107	11.613	0.500
