Sample ID:	C:\MCC\MCC Cal\Test\Gypsum_Wallboard_GypsumCore_MCC_30K_min_211004_R1.txt
Sample Weight (mg):	4.73
Heating Rate (C/s):	0.5
Combustor Temp (C):	900
N2 Flow Rate (cc/min):	80
O2 Flow Rate (cc/min):	20
Calibration File:	C:\MCC\MCC Cal\Coeff1 JN10440_30_210304.txt.txt
T Correction Coefficients:	0	1.024463	0
Time Shift (s):	14
*
Time (s)	Temperature (C)	N2 flow rate (cc/min)	O2 flow rate (cc/min)	Flow Rate (cc/min)	Oxygen (%)	HRR (W/g)	Heating rate (C/s)
0.000	106.812	79.994	19.997	100.627	20.034	-0.092	0.001
0.500	106.816	79.993	19.998	100.627	20.030	0.132	0.010
1.000	106.780	79.994	19.996	100.628	20.031	0.074	-0.011
1.500	106.784	79.994	19.995	100.630	20.033	-0.052	-0.032
2.000	106.807	79.994	19.996	100.629	20.030	0.170	-0.003
2.500	106.800	79.994	19.996	100.628	20.033	-0.065	0.022
3.000	106.792	79.995	19.996	100.627	20.033	-0.054	0.000
3.500	106.799	79.994	19.996	100.624	20.031	0.112	-0.008
4.000	106.800	79.993	19.996	100.622	20.032	0.036	0.004
4.500	106.796	79.995	19.996	100.622	20.030	0.177	0.002
5.000	106.822	79.994	19.996	100.622	20.029	0.212	0.010
5.500	106.824	79.994	19.996	100.623	20.028	0.255	0.025
6.000	106.813	79.993	19.996	100.626	20.031	0.092	0.009
6.500	106.780	79.993	19.997	100.628	20.030	0.148	-0.027
7.000	106.777	79.994	19.996	100.628	20.030	0.127	-0.040
7.500	106.781	79.994	19.995	100.628	20.029	0.244	-0.017
8.000	106.791	79.993	19.996	100.631	20.028	0.298	0.008
8.500	106.799	79.995	19.996	100.636	20.029	0.226	0.016
9.000	106.787	79.994	19.997	100.641	20.027	0.356	0.007
9.500	106.787	79.994	19.996	100.645	20.027	0.385	-0.008
10.000	106.777	79.992	19.996	100.650	20.028	0.291	-0.011
10.500	106.784	79.994	19.998	100.650	20.027	0.336	-0.006
11.001	106.789	79.994	19.996	100.651	20.026	0.389	0.004
11.501	106.775	79.995	19.996	100.654	20.025	0.459	0.001
12.001	106.781	79.995	19.995	100.656	20.026	0.431	-0.008
12.501	106.823	79.993	19.996	100.660	20.024	0.541	0.021
13.000	106.813	79.992	19.995	100.666	20.023	0.601	0.040
13.500	106.795	79.993	19.996	100.668	20.026	0.434	0.002
14.000	106.786	79.996	19.997	100.674	20.024	0.586	-0.028
14.500	106.816	79.993	19.997	100.682	20.021	0.760	-0.003
15.000	106.834	79.994	19.997	100.689	20.020	0.818	0.034
15.500	106.842	79.994	19.997	100.694	20.025	0.519	0.037
16.000	106.863	79.994	19.997	100.702	20.022	0.664	0.027
16.500	106.847	79.994	19.996	100.705	20.022	0.697	0.017
17.000	106.902	79.994	19.997	100.710	20.021	0.775	0.022
17.500	106.876	79.994	19.997	100.711	20.019	0.898	0.034
18.000	106.910	79.994	19.995	100.711	20.017	0.994	0.018
18.500	106.916	79.993	19.996	100.711	20.016	1.099	0.024
19.000	106.900	79.995	19.995	100.718	20.014	1.216	0.015
19.500	106.911	79.995	19.996	100.701	20.017	1.030	-0.008
20.000	106.939	79.994	19.996	100.685	20.013	1.314	0.017
20.500	106.976	79.994	19.998	100.678	20.015	1.176	0.052
21.000	107.008	79.994	19.997	100.680	20.015	1.175	0.067
21.500	107.015	79.993	19.996	100.681	20.014	1.202	0.054
22.000	107.057	79.994	19.996	100.705	20.010	1.470	0.044
22.500	107.049	79.994	19.995	100.754	20.013	1.263	0.041
23.000	107.047	79.994	19.996	100.800	20.011	1.430	0.012
23.500	107.118	79.993	19.996	100.822	20.010	1.459	0.030
24.000	107.180	79.993	19.995	100.829	20.010	1.495	0.101
24.500	107.212	79.995	19.995	100.833	20.005	1.795	0.113
25.000	107.235	79.994	19.995	100.819	20.007	1.667	0.075
25.500	107.283	79.995	19.995	100.800	20.010	1.459	0.063
26.000	107.327	79.994	19.995	100.797	20.006	1.763	0.081
26.500	107.357	79.993	19.995	100.803	20.006	1.765	0.083
27.000	107.413	79.994	19.996	100.806	20.007	1.709	0.080
27.500	107.466	79.995	19.996	100.806	20.004	1.881	0.097
28.000	107.491	79.995	19.994	100.806	20.004	1.900	0.094
28.500	107.529	79.995	19.996	100.804	20.004	1.899	0.070
29.000	107.579	79.994	19.996	100.805	20.003	1.949	0.075
29.500	107.662	79.995	19.995	100.809	20.003	1.922	0.111
30.000	107.701	79.995	19.996	100.808	20.002	2.024	0.128
30.500	107.761	79.996	19.995	100.811	20.004	1.909	0.111
31.000	107.825	79.994	19.995	100.813	20.001	2.076	0.111
31.500	107.885	79.995	19.996	100.814	20.002	2.034	0.124
32.001	107.930	79.995	19.996	100.815	19.999	2.195	0.115
32.500	108.000	79.995	19.995	100.819	20.002	2.009	0.110
33.000	108.064	79.995	19.996	100.820	20.001	2.103	0.124
33.500	108.137	79.997	19.995	100.820	19.999	2.246	0.136
34.000	108.207	79.995	19.995	100.820	19.998	2.284	0.140
34.500	108.289	79.996	19.995	100.820	19.997	2.348	0.147
35.000	108.353	79.996	19.995	100.820	20.001	2.089	0.149
35.500	108.470	79.997	19.995	100.820	20.000	2.172	0.164
36.000	108.523	79.996	19.996	100.819	19.998	2.269	0.176
36.500	108.589	79.996	19.995	100.819	20.000	2.124	0.144
37.000	108.663	79.995	19.996	100.818	19.999	2.201	0.130
37.500	108.752	79.996	19.995	100.818	19.999	2.244	0.152
38.000	108.823	79.996	19.995	100.818	19.999	2.230	0.161
38.501	108.931	79.995	19.996	100.819	20.000	2.132	0.170
39.001	109.023	79.997	19.995	100.820	19.999	2.196	0.190
39.500	109.093	79.995	19.996	100.820	19.998	2.290	0.181
40.000	109.214	79.996	19.995	100.821	19.998	2.307	0.176
40.500	109.275	79.995	19.995	100.821	19.997	2.330	0.187
41.000	109.357	79.995	19.995	100.821	19.997	2.343	0.162
41.500	109.454	79.996	19.996	100.818	19.998	2.300	0.161
42.001	109.565	79.996	19.995	100.817	19.998	2.300	0.194
42.501	109.657	79.995	19.995	100.818	19.998	2.298	0.205
43.000	109.707	79.996	19.996	100.817	19.998	2.305	0.172
43.500	109.854	79.996	19.995	100.818	19.995	2.452	0.170
44.000	109.962	79.996	19.995	100.820	19.993	2.636	0.226
44.500	110.071	79.997	19.995	100.822	19.994	2.522	0.236
45.000	110.198	79.996	19.995	100.828	19.992	2.678	0.226
45.500	110.235	79.995	19.996	100.834	19.993	2.624	0.200
46.000	110.357	79.996	19.996	100.814	19.996	2.447	0.162
46.500	110.478	79.996	19.995	100.800	19.994	2.566	0.201
47.000	110.600	79.996	19.996	100.794	19.993	2.650	0.243
47.500	110.686	79.995	19.995	100.789	19.993	2.643	0.225
48.000	110.813	79.995	19.994	100.813	19.992	2.673	0.210
48.500	110.918	79.996	19.995	100.866	19.992	2.688	0.223
49.000	111.022	79.994	19.995	100.897	19.991	2.722	0.220
49.501	111.144	79.995	19.996	100.914	19.993	2.626	0.217
50.001	111.258	79.996	19.995	100.920	19.994	2.528	0.231
50.501	111.387	79.996	19.996	100.899	19.991	2.760	0.239
51.001	111.524	79.996	19.995	100.875	19.991	2.758	0.254
51.500	111.608	79.997	19.996	100.864	19.993	2.590	0.244
52.000	111.768	79.996	19.996	100.863	19.990	2.804	0.233
52.500	111.888	79.997	19.994	100.863	19.992	2.681	0.262
53.000	112.026	79.996	19.995	100.859	19.988	2.952	0.269
53.500	112.127	79.996	19.995	100.859	19.991	2.766	0.249
54.001	112.244	79.997	19.994	100.860	19.990	2.824	0.229
54.501	112.367	79.996	19.995	100.859	19.990	2.811	0.229
55.001	112.492	79.997	19.995	100.861	19.990	2.818	0.244
55.501	112.633	79.998	19.995	100.866	19.989	2.891	0.257
56.000	112.830	79.996	19.994	100.869	19.984	3.228	0.302
56.500	112.933	79.997	19.995	100.875	19.988	2.956	0.319
57.000	113.100	79.996	19.994	100.879	19.989	2.904	0.285
57.500	113.164	79.996	19.995	100.884	19.989	2.884	0.250
58.000	113.344	79.996	19.994	100.889	19.990	2.846	0.237
58.500	113.528	79.996	19.996	100.891	19.988	2.927	0.304
59.000	113.662	79.997	19.995	100.885	19.986	3.059	0.341
59.500	113.780	79.996	19.994	100.880	19.987	3.032	0.285
60.000	113.949	79.996	19.994	100.874	19.989	2.905	0.270
60.500	114.109	79.998	19.995	100.873	19.987	3.039	0.308
61.000	114.227	79.998	19.995	100.874	19.985	3.168	0.303
61.500	114.399	79.998	19.995	100.878	19.987	3.001	0.284
62.001	114.577	79.998	19.994	100.879	19.987	3.032	0.320
62.501	114.700	79.998	19.995	100.885	19.984	3.224	0.325
63.000	114.851	79.998	19.994	100.887	19.984	3.220	0.288
63.500	115.024	79.998	19.995	100.887	19.985	3.141	0.300
64.001	115.173	79.998	19.995	100.889	19.987	3.029	0.323
64.501	115.317	79.998	19.995	100.892	19.986	3.110	0.307
65.000	115.494	79.998	19.995	100.888	19.986	3.106	0.307
65.500	115.672	79.996	19.994	100.884	19.988	2.942	0.338
66.000	115.846	79.997	19.994	100.885	19.989	2.871	0.353
66.500	115.996	79.996	19.996	100.886	19.988	2.934	0.338
67.000	116.120	79.998	19.995	100.889	19.986	3.083	0.299
67.500	116.311	79.996	19.995	100.893	19.986	3.050	0.294
68.000	116.471	79.998	19.995	100.898	19.986	3.074	0.332
68.500	116.664	79.997	19.995	100.898	19.985	3.146	0.352
69.000	116.823	79.996	19.996	100.894	19.987	2.983	0.353
69.501	116.997	79.996	19.995	100.893	19.983	3.277	0.343
70.001	117.139	79.996	19.995	100.892	19.984	3.246	0.324
70.501	117.315	79.996	19.995	100.892	19.984	3.206	0.317
71.001	117.535	79.995	19.995	100.891	19.985	3.121	0.357
71.501	117.662	79.994	19.996	100.893	19.985	3.150	0.372
72.000	117.848	79.995	19.995	100.892	19.987	2.991	0.330
72.500	118.042	79.993	19.996	100.893	19.986	3.099	0.347
73.000	118.228	79.995	19.995	100.893	19.983	3.264	0.380
73.500	118.369	79.996	19.995	100.894	19.986	3.061	0.353
74.000	118.564	79.995	19.995	100.895	19.984	3.206	0.332
74.500	118.736	79.995	19.996	100.897	19.984	3.231	0.352
75.000	118.908	79.995	19.997	100.897	19.981	3.405	0.356
75.500	119.094	79.995	19.995	100.897	19.983	3.271	0.351
76.000	119.279	79.995	19.996	100.898	19.983	3.282	0.365
76.500	119.399	79.997	19.995	100.900	19.984	3.200	0.338
77.000	119.638	79.994	19.996	100.900	19.983	3.278	0.332
77.500	119.830	79.995	19.995	100.898	19.986	3.108	0.394
78.001	120.011	79.995	19.996	100.895	19.983	3.276	0.402
78.501	120.185	79.995	19.996	100.895	19.981	3.405	0.364
79.001	120.406	79.996	19.997	100.896	19.983	3.286	0.375
79.500	120.615	79.995	19.996	100.897	19.981	3.438	0.413
80.001	120.815	79.996	19.997	100.899	19.982	3.371	0.419
80.501	120.984	79.996	19.996	100.902	19.983	3.309	0.389
81.001	121.197	79.995	19.995	100.903	19.983	3.298	0.376
81.501	121.381	79.995	19.995	100.903	19.983	3.264	0.389
82.000	121.551	79.995	19.995	100.902	19.981	3.403	0.375
82.501	121.718	79.993	19.995	100.900	19.982	3.369	0.345
83.001	121.927	79.996	19.996	100.900	19.981	3.421	0.357
83.500	122.129	79.995	19.996	100.899	19.981	3.425	0.394
84.000	122.361	79.995	19.996	100.898	19.984	3.240	0.423
84.500	122.548	79.995	19.996	100.897	19.980	3.460	0.427
85.000	122.761	79.995	19.995	100.899	19.982	3.374	0.410
85.500	122.948	79.996	19.997	100.899	19.982	3.352	0.400
86.000	123.188	79.997	19.994	100.898	19.983	3.311	0.413
86.500	123.351	79.995	19.995	100.897	19.982	3.367	0.415
87.000	123.570	79.998	19.994	100.895	19.980	3.474	0.393
87.500	123.768	79.995	19.995	100.891	19.982	3.356	0.399
88.000	123.969	79.995	19.995	100.890	19.982	3.338	0.408
88.500	124.174	79.996	19.995	100.888	19.980	3.452	0.402
89.000	124.357	79.995	19.996	100.886	19.981	3.402	0.397
89.500	124.568	79.995	19.996	100.887	19.982	3.378	0.391
90.000	124.771	79.995	19.995	100.889	19.980	3.510	0.404
90.500	124.962	79.996	19.996	100.890	19.978	3.625	0.404
91.000	125.171	79.996	19.995	100.892	19.980	3.490	0.397
91.500	125.420	79.995	19.995	100.894	19.980	3.507	0.430
92.000	125.608	79.996	19.995	100.896	19.978	3.594	0.448
92.500	125.799	79.995	19.995	100.891	19.980	3.490	0.408
93.000	126.021	79.995	19.996	100.890	19.978	3.624	0.396
93.500	126.261	79.995	19.996	100.890	19.977	3.688	0.437
94.000	126.450	79.994	19.996	100.889	19.978	3.604	0.445
94.500	126.655	79.995	19.995	100.891	19.978	3.584	0.411
95.000	126.871	79.996	19.995	100.897	19.977	3.655	0.408
95.500	127.098	79.995	19.995	100.897	19.977	3.684	0.432
96.000	127.288	79.994	19.997	100.891	19.976	3.746	0.430
96.500	127.520	79.994	19.995	100.888	19.978	3.635	0.419
97.000	127.744	79.995	19.996	100.886	19.977	3.675	0.439
97.500	127.953	79.995	19.997	100.886	19.974	3.849	0.445
98.000	128.189	79.995	19.997	100.887	19.978	3.630	0.439
98.500	128.411	79.995	19.997	100.893	19.979	3.554	0.451
99.000	128.645	79.995	19.997	100.896	19.978	3.628	0.457
99.500	128.823	79.994	19.997	100.897	19.980	3.485	0.434
100.000	129.050	79.994	19.996	100.897	19.980	3.489	0.408
100.500	129.272	79.993	19.998	100.898	19.978	3.630	0.427
101.000	129.541	79.994	19.997	100.898	19.977	3.659	0.470
101.500	129.718	79.994	19.996	100.898	19.980	3.479	0.469
102.000	129.957	79.993	19.997	100.897	19.979	3.581	0.431
102.500	130.170	79.994	19.996	100.896	19.978	3.635	0.434
103.000	130.393	79.993	19.997	100.895	19.977	3.693	0.444
103.500	130.580	79.993	19.998	100.892	19.979	3.554	0.423
104.000	130.835	79.993	19.995	100.891	19.976	3.740	0.426
104.500	131.071	79.992	19.997	100.892	19.979	3.547	0.466
105.000	131.300	79.994	19.997	100.892	19.980	3.472	0.478
105.500	131.560	79.993	19.997	100.893	19.980	3.505	0.477
106.000	131.778	79.993	19.997	100.896	19.980	3.461	0.484
106.500	132.005	79.993	19.996	100.896	19.982	3.324	0.461
107.000	132.228	79.994	19.997	100.897	19.980	3.499	0.447
107.500	132.464	79.994	19.998	100.897	19.981	3.445	0.455
108.000	132.670	79.994	19.996	100.897	19.981	3.445	0.451
108.500	132.896	79.994	19.996	100.897	19.978	3.646	0.437
109.000	133.150	79.994	19.997	100.898	19.984	3.244	0.456
109.500	133.345	79.995	19.997	100.898	19.980	3.485	0.464
110.000	133.595	79.995	19.996	100.897	19.983	3.303	0.447
110.500	133.833	79.995	19.997	100.897	19.984	3.186	0.467
111.000	134.085	79.994	19.995	100.897	19.981	3.430	0.489
111.500	134.293	79.994	19.998	100.894	19.983	3.313	0.475
112.000	134.545	79.993	19.996	100.891	19.982	3.349	0.460
112.500	134.767	79.992	19.996	100.890	19.984	3.204	0.467
113.000	135.012	79.995	19.998	100.888	19.984	3.195	0.471
113.500	135.224	79.996	19.996	100.886	19.985	3.150	0.462
114.000	135.491	79.994	19.997	100.888	19.985	3.168	0.468
114.500	135.709	79.996	19.997	100.892	19.986	3.079	0.482
115.000	135.965	79.996	19.996	100.892	19.984	3.210	0.480
115.500	136.177	79.996	19.997	100.895	19.984	3.230	0.472
116.000	136.436	79.996	19.996	100.894	19.984	3.188	0.470
116.500	136.698	79.996	19.995	100.892	19.984	3.213	0.496
117.000	136.926	79.996	19.995	100.892	19.983	3.282	0.505
117.500	137.156	79.997	19.996	100.892	19.982	3.335	0.474
118.000	137.390	79.998	19.994	100.892	19.985	3.171	0.461
118.500	137.634	79.996	19.995	100.895	19.984	3.242	0.471
119.000	137.910	79.997	19.994	100.892	19.980	3.452	0.499
119.500	138.090	79.997	19.995	100.889	19.984	3.202	0.488
120.000	138.363	79.997	19.995	100.886	19.984	3.235	0.454
120.500	138.622	79.997	19.995	100.883	19.983	3.284	0.492
121.000	138.870	79.997	19.995	100.883	19.982	3.351	0.520
121.500	139.105	79.997	19.996	100.887	19.980	3.508	0.495
122.000	139.323	79.998	19.995	100.890	19.980	3.510	0.468
122.500	139.587	79.997	19.994	100.895	19.981	3.425	0.467
123.000	139.844	79.996	19.994	100.897	19.978	3.589	0.501
123.500	140.099	79.997	19.994	100.898	19.981	3.435	0.516
124.000	140.342	79.996	19.996	100.897	19.978	3.631	0.505
124.500	140.603	79.997	19.997	100.897	19.978	3.596	0.501
125.001	140.839	79.996	19.996	100.897	19.979	3.555	0.501
125.501	141.132	79.997	19.996	100.895	19.982	3.343	0.513
126.001	141.298	79.996	19.996	100.895	19.979	3.550	0.494
126.501	141.591	79.997	19.995	100.896	19.980	3.503	0.459
127.000	141.832	79.994	19.996	100.897	19.980	3.486	0.496
127.500	142.063	79.996	19.994	100.897	19.981	3.390	0.502
128.000	142.282	79.995	19.995	100.894	19.984	3.224	0.461
128.500	142.566	79.997	19.995	100.895	19.981	3.407	0.476
129.000	142.799	79.996	19.996	100.891	19.982	3.333	0.510
129.500	143.059	79.994	19.995	100.888	19.981	3.445	0.505
130.000	143.295	79.995	19.995	100.889	19.984	3.220	0.495
130.500	143.565	79.997	19.995	100.893	19.982	3.372	0.501
131.000	143.804	79.996	19.995	100.893	19.980	3.503	0.507
131.500	144.050	79.995	19.995	100.896	19.982	3.325	0.497
132.000	144.298	79.996	19.996	100.895	19.983	3.303	0.490
132.500	144.590	79.995	19.995	100.891	19.981	3.448	0.517
133.000	144.819	79.995	19.995	100.887	19.981	3.415	0.531
133.501	145.041	79.995	19.995	100.882	19.981	3.442	0.487
134.001	145.295	79.995	19.996	100.878	19.983	3.292	0.464
134.500	145.557	79.995	19.996	100.873	19.983	3.279	0.496
135.000	145.793	79.995	19.996	100.870	19.982	3.323	0.507
135.500	146.000	79.995	19.996	100.872	19.981	3.439	0.470
136.000	146.295	79.995	19.995	100.873	19.983	3.289	0.473
136.500	146.522	79.995	19.996	100.874	19.981	3.446	0.512
137.000	146.762	79.996	19.994	100.876	19.984	3.196	0.495
137.500	147.005	79.997	19.995	100.883	19.983	3.290	0.475
138.000	147.262	79.996	19.994	100.884	19.979	3.555	0.492
138.500	147.488	79.997	19.996	100.884	19.981	3.446	0.491
139.000	147.749	79.996	19.993	100.890	19.982	3.368	0.485
139.500	147.999	79.996	19.995	100.895	19.982	3.341	0.499
140.000	148.237	79.996	19.995	100.891	19.981	3.424	0.499
140.500	148.517	79.996	19.994	100.889	19.982	3.323	0.503
141.000	148.746	79.996	19.996	100.889	19.983	3.270	0.514
141.500	148.958	79.997	19.995	100.883	19.982	3.350	0.475
142.000	149.262	79.997	19.995	100.882	19.983	3.248	0.479
142.500	149.521	79.998	19.994	100.881	19.986	3.053	0.539
143.000	149.799	79.997	19.995	100.877	19.987	3.047	0.550
143.500	150.038	79.997	19.995	100.874	19.986	3.107	0.527
144.001	150.296	79.997	19.994	100.872	19.982	3.333	0.507
144.501	150.525	79.997	19.994	100.868	19.984	3.194	0.492
145.000	150.774	79.998	19.995	100.867	19.986	3.051	0.483
145.500	151.029	79.997	19.995	100.868	19.983	3.277	0.491
146.000	151.279	79.998	19.996	100.873	19.985	3.158	0.505
146.500	151.539	79.997	19.994	100.874	19.986	3.062	0.508
147.000	151.796	79.997	19.994	100.877	19.986	3.076	0.514
147.500	152.041	79.997	19.994	100.879	19.985	3.181	0.509
148.000	152.289	79.998	19.994	100.878	19.984	3.221	0.497
148.500	152.568	79.997	19.995	100.873	19.983	3.252	0.511
149.000	152.821	79.998	19.994	100.870	19.983	3.303	0.529
149.500	153.035	79.997	19.995	100.865	19.986	3.106	0.499
150.000	153.269	79.997	19.994	100.862	19.986	3.107	0.458
150.500	153.515	79.999	19.995	100.861	19.982	3.346	0.464
151.000	153.826	79.996	19.996	100.861	19.984	3.209	0.519
151.500	154.029	79.997	19.995	100.861	19.984	3.218	0.536
152.000	154.256	79.996	19.995	100.861	19.984	3.241	0.472
152.500	154.549	79.996	19.995	100.862	19.983	3.297	0.475
153.000	154.774	79.996	19.994	100.862	19.985	3.118	0.519
153.500	154.981	79.995	19.995	100.861	19.985	3.176	0.475
154.000	155.277	79.995	19.995	100.862	19.982	3.361	0.468
154.500	155.510	79.996	19.995	100.862	19.985	3.140	0.516
155.000	155.753	79.995	19.995	100.861	19.986	3.100	0.502
155.500	156.033	79.995	19.996	100.861	19.983	3.257	0.500
156.000	156.290	79.997	19.995	100.861	19.984	3.225	0.530
156.500	156.557	79.995	19.995	100.861	19.987	2.997	0.531
157.000	156.758	79.995	19.996	100.860	19.984	3.243	0.496
157.500	157.038	79.994	19.996	100.860	19.985	3.123	0.474
158.000	157.301	79.995	19.994	100.861	19.986	3.114	0.512
158.500	157.530	79.994	19.995	100.863	19.986	3.085	0.517
159.000	157.770	79.996	19.996	100.864	19.986	3.107	0.481
159.500	158.055	79.995	19.996	100.866	19.985	3.132	0.497
160.000	158.305	79.995	19.997	100.867	19.987	3.013	0.530
160.500	158.548	79.994	19.996	100.866	19.989	2.899	0.514
161.000	158.785	79.995	19.996	100.865	19.986	3.062	0.486
161.500	159.059	79.994	19.996	100.865	19.989	2.899	0.495
162.000	159.315	79.995	19.996	100.862	19.986	3.051	0.520
162.500	159.515	79.995	19.995	100.861	19.986	3.053	0.493
163.000	159.776	79.996	19.995	100.861	19.985	3.150	0.459
163.500	160.053	79.995	19.997	100.860	19.986	3.112	0.499
164.000	160.321	79.994	19.996	100.860	19.987	3.027	0.541
164.500	160.558	79.995	19.996	100.861	19.985	3.125	0.525
165.000	160.826	79.995	19.997	100.860	19.987	3.017	0.505
165.500	161.060	79.995	19.996	100.860	19.987	3.026	0.504
166.000	161.296	79.996	19.997	100.860	19.987	2.997	0.486
166.500	161.555	79.994	19.997	100.861	19.988	2.930	0.482
167.000	161.830	79.994	19.997	100.861	19.986	3.096	0.515
167.500	162.036	79.996	19.997	100.862	19.989	2.886	0.508
168.000	162.302	79.994	19.995	100.862	19.986	3.103	0.477
168.500	162.574	79.994	19.996	100.861	19.990	2.848	0.505
169.000	162.822	79.996	19.996	100.859	19.987	3.000	0.529
169.500	163.034	79.995	19.997	100.858	19.987	3.022	0.489
170.000	163.337	79.997	19.997	100.857	19.986	3.078	0.487
170.500	163.549	79.996	19.996	100.857	19.989	2.902	0.515
171.000	163.772	79.996	19.996	100.858	19.986	3.069	0.475
171.500	164.060	79.997	19.996	100.858	19.986	3.053	0.473
172.000	164.314	79.995	19.996	100.858	19.987	2.998	0.527
172.500	164.587	79.995	19.996	100.858	19.985	3.151	0.535
173.000	164.857	79.994	19.996	100.857	19.986	3.105	0.535
173.500	165.056	79.996	19.996	100.857	19.984	3.228	0.506
174.000	165.310	79.996	19.996	100.857	19.985	3.159	0.461
174.500	165.611	79.995	19.995	100.857	19.990	2.805	0.504
175.001	165.830	79.995	19.997	100.858	19.986	3.080	0.538
175.501	166.099	79.995	19.996	100.857	19.987	3.016	0.504
176.000	166.368	79.996	19.996	100.858	19.990	2.846	0.513
176.500	166.622	79.995	19.996	100.858	19.990	2.835	0.530
177.000	166.862	79.995	19.996	100.858	19.986	3.060	0.509
177.500	167.088	79.996	19.995	100.859	19.991	2.767	0.480
178.000	167.373	79.996	19.996	100.859	19.992	2.671	0.488
178.500	167.605	79.996	19.995	100.858	19.991	2.779	0.514
179.000	167.851	79.996	19.995	100.857	19.993	2.615	0.497
179.500	168.111	79.995	19.996	100.857	19.992	2.651	0.492
180.000	168.333	79.995	19.995	100.856	19.992	2.656	0.494
180.500	168.625	79.997	19.996	100.855	19.993	2.622	0.498
181.000	168.858	79.996	19.994	100.853	19.993	2.631	0.520
181.500	169.148	79.996	19.995	100.853	19.993	2.620	0.524
182.000	169.355	79.996	19.996	100.853	19.994	2.533	0.510
182.500	169.629	79.993	19.995	100.854	19.993	2.638	0.490
183.000	169.896	79.995	19.996	100.855	19.997	2.370	0.511
183.500	170.123	79.994	19.995	100.859	19.994	2.556	0.517
184.000	170.358	79.994	19.995	100.859	19.994	2.569	0.478
184.500	170.594	79.995	19.995	100.857	19.993	2.594	0.467
185.000	170.853	79.994	19.995	100.855	19.992	2.680	0.483
185.500	171.127	79.994	19.994	100.853	19.993	2.618	0.514
186.000	171.333	79.995	19.996	100.849	19.992	2.691	0.506
186.500	171.590	79.993	19.996	100.849	19.992	2.665	0.472
187.000	171.845	79.994	19.996	100.851	19.993	2.602	0.488
187.500	172.094	79.993	19.997	100.853	19.991	2.723	0.508
188.000	172.340	79.994	19.997	100.855	19.994	2.580	0.500
188.500	172.593	79.993	19.996	100.859	19.993	2.632	0.497
189.000	172.856	79.994	19.995	100.859	19.996	2.406	0.508
189.500	173.098	79.993	19.997	100.859	19.996	2.433	0.510
190.000	173.368	79.995	19.996	100.859	19.993	2.605	0.508
190.500	173.592	79.993	19.996	100.859	19.996	2.438	0.503
191.000	173.828	79.994	19.996	100.859	19.995	2.462	0.478
191.500	174.123	79.993	19.996	100.859	19.997	2.366	0.495
192.000	174.395	79.995	19.997	100.853	19.997	2.337	0.549
192.501	174.638	79.993	19.996	100.849	19.993	2.591	0.541
193.001	174.888	79.993	19.996	100.844	19.998	2.316	0.504
193.500	175.137	79.995	19.997	100.838	19.998	2.297	0.496
194.000	175.396	79.994	19.997	100.835	20.000	2.136	0.504
194.500	175.634	79.993	19.996	100.842	19.998	2.267	0.503
195.000	175.865	79.994	19.997	100.846	19.997	2.375	0.482
195.500	176.123	79.996	19.997	100.852	19.998	2.296	0.478
196.000	176.370	79.994	19.997	100.858	19.996	2.440	0.497
196.500	176.636	79.995	19.996	100.861	19.997	2.380	0.510
197.000	176.839	79.994	19.996	100.858	19.995	2.475	0.491
197.500	177.130	79.995	19.996	100.854	19.992	2.704	0.481
198.000	177.359	79.996	19.996	100.852	19.990	2.797	0.507
198.500	177.613	79.995	19.997	100.845	19.994	2.554	0.502
199.000	177.863	79.996	19.997	100.840	19.992	2.705	0.494
199.500	178.129	79.996	19.996	100.834	19.991	2.728	0.510
200.000	178.342	79.997	19.996	100.833	19.995	2.504	0.498
200.500	178.622	79.994	19.996	100.831	19.995	2.500	0.486
201.000	178.851	79.995	19.995	100.835	19.996	2.439	0.501
201.500	179.080	79.995	19.995	100.838	19.994	2.545	0.483
202.000	179.318	79.997	19.996	100.845	19.992	2.667	0.462
202.501	179.583	79.997	19.995	100.850	19.992	2.652	0.485
203.000	179.818	79.996	19.997	100.853	19.992	2.666	0.502
203.500	180.079	79.996	19.994	100.851	19.991	2.752	0.498
204.000	180.319	79.995	19.996	100.850	19.995	2.478	0.499
204.500	180.548	79.997	19.997	100.849	19.995	2.507	0.485
205.000	180.839	79.997	19.996	100.849	19.996	2.422	0.494
205.500	181.047	79.995	19.996	100.847	19.991	2.762	0.510
206.000	181.317	79.994	19.996	100.847	19.994	2.569	0.488
206.500	181.573	79.994	19.996	100.844	19.994	2.516	0.502
207.000	181.850	79.996	19.995	100.841	19.993	2.599	0.529
207.500	182.094	79.996	19.995	100.836	19.993	2.618	0.527
208.000	182.343	79.996	19.995	100.837	19.990	2.822	0.507
208.500	182.596	79.996	19.995	100.833	19.993	2.641	0.497
209.000	182.830	79.996	19.994	100.836	19.992	2.706	0.494
209.500	183.070	79.996	19.994	100.839	19.991	2.717	0.481
210.000	183.292	79.996	19.994	100.842	19.994	2.578	0.468
210.500	183.546	79.995	19.994	100.842	19.995	2.498	0.469
211.000	183.763	79.995	19.995	100.847	19.993	2.596	0.473
211.500	184.035	79.994	19.995	100.846	19.994	2.556	0.480
212.000	184.250	79.995	19.996	100.842	19.993	2.625	0.488
212.500	184.466	79.996	19.996	100.840	19.997	2.317	0.459
213.000	184.757	79.996	19.997	100.839	19.993	2.608	0.469
213.500	184.980	79.995	19.996	100.837	19.994	2.528	0.511
214.000	185.256	79.996	19.996	100.835	19.995	2.485	0.506
214.500	185.518	79.995	19.996	100.834	19.993	2.583	0.518
215.000	185.745	79.996	19.994	100.832	19.993	2.603	0.514
215.500	185.966	79.996	19.995	100.829	19.991	2.728	0.469
216.000	186.240	79.995	19.996	100.826	19.994	2.541	0.472
216.500	186.521	79.995	19.994	100.827	19.991	2.719	0.525
217.000	186.769	79.995	19.995	100.829	19.994	2.538	0.542
217.500	186.998	79.996	19.995	100.833	19.993	2.643	0.503
218.000	187.254	79.997	19.995	100.833	19.993	2.606	0.481
218.500	187.513	79.996	19.994	100.832	19.994	2.568	0.500
219.000	187.756	79.997	19.995	100.830	19.993	2.610	0.508
219.500	187.970	79.998	19.996	100.827	19.990	2.798	0.480
220.000	188.262	79.997	19.996	100.826	19.995	2.485	0.482
220.500	188.489	79.996	19.994	100.825	19.993	2.592	0.512
221.000	188.720	79.996	19.996	100.827	19.995	2.496	0.489
221.500	188.999	79.995	19.996	100.832	19.995	2.512	0.484
222.000	189.203	79.997	19.995	100.832	19.994	2.577	0.496
222.500	189.431	79.997	19.996	100.829	19.996	2.400	0.457
223.000	189.680	79.997	19.994	100.829	19.998	2.299	0.455
223.500	189.994	79.997	19.996	100.826	19.994	2.581	0.520
224.000	190.198	79.996	19.995	100.821	19.993	2.601	0.540
224.500	190.496	79.997	19.995	100.818	19.993	2.621	0.510
225.000	190.738	79.997	19.995	100.818	19.995	2.478	0.521
225.500	190.929	79.997	19.995	100.818	19.992	2.670	0.487
226.000	191.191	79.997	19.995	100.819	19.995	2.483	0.443
226.500	191.417	79.995	19.996	100.819	19.992	2.693	0.470
227.000	191.657	79.997	19.996	100.820	19.994	2.523	0.477
227.500	191.884	79.997	19.994	100.820	19.994	2.563	0.467
228.000	192.192	79.997	19.995	100.820	19.994	2.563	0.501
228.500	192.368	79.996	19.995	100.823	19.993	2.641	0.510
229.000	192.665	79.997	19.995	100.826	19.994	2.523	0.478
229.500	192.871	79.997	19.996	100.826	19.995	2.467	0.488
230.000	193.117	79.996	19.995	100.826	19.995	2.498	0.477
230.500	193.352	79.995	19.994	100.827	19.995	2.487	0.466
231.000	193.620	79.996	19.995	100.823	19.993	2.594	0.492
231.500	193.842	79.996	19.995	100.820	19.994	2.523	0.496
232.000	194.134	79.996	19.996	100.821	19.995	2.496	0.502
232.500	194.374	79.997	19.994	100.820	19.998	2.308	0.523
233.000	194.576	79.995	19.994	100.820	19.998	2.284	0.487
233.500	194.858	79.994	19.994	100.820	19.998	2.286	0.463
234.000	195.080	79.996	19.995	100.819	19.996	2.396	0.494
234.500	195.333	79.995	19.994	100.817	19.993	2.646	0.490
235.000	195.589	79.995	19.993	100.818	19.994	2.554	0.492
235.500	195.838	79.996	19.995	100.818	19.992	2.663	0.507
236.000	196.082	79.995	19.995	100.818	19.995	2.451	0.499
236.500	196.336	79.995	19.995	100.818	19.995	2.485	0.496
237.000	196.606	79.995	19.995	100.822	19.995	2.458	0.511
237.500	196.828	79.994	19.994	100.825	19.994	2.538	0.508
238.000	197.069	79.994	19.996	100.829	19.991	2.755	0.478
238.500	197.330	79.996	19.994	100.829	19.995	2.460	0.482
239.000	197.558	79.995	19.995	100.830	19.993	2.617	0.495
239.500	197.808	79.996	19.995	100.827	19.993	2.608	0.484
240.000	198.047	79.995	19.996	100.825	19.990	2.807	0.484
240.500	198.291	79.994	19.995	100.828	19.991	2.757	0.486
241.000	198.530	79.996	19.995	100.829	19.993	2.588	0.483
241.500	198.788	79.994	19.996	100.828	19.993	2.617	0.490
242.000	199.023	79.995	19.997	100.829	19.993	2.626	0.495
242.500	199.272	79.995	19.996	100.828	19.992	2.713	0.489
243.000	199.487	79.995	19.996	100.822	19.995	2.494	0.474
243.500	199.751	79.996	19.996	100.821	19.992	2.668	0.471
244.000	200.014	79.994	19.996	100.822	19.993	2.599	0.503
244.500	200.291	79.994	19.995	100.822	19.995	2.480	0.534
245.000	200.519	79.994	19.996	100.822	19.993	2.606	0.523
245.500	200.759	79.994	19.995	100.822	19.996	2.395	0.487
246.000	201.003	79.995	19.996	100.823	19.994	2.538	0.476
246.500	201.280	79.996	19.995	100.823	19.993	2.628	0.502
247.000	201.502	79.996	19.995	100.822	19.994	2.547	0.510
247.500	201.753	79.996	19.995	100.822	19.993	2.605	0.486
248.001	201.957	79.997	19.995	100.822	19.993	2.598	0.464
248.501	202.204	79.996	19.995	100.822	19.994	2.560	0.454
249.000	202.497	79.995	19.997	100.822	19.993	2.601	0.495
249.500	202.721	79.995	19.996	100.822	19.997	2.317	0.528
250.000	202.983	79.996	19.997	100.823	19.998	2.273	0.501
250.500	203.231	79.996	19.996	100.822	19.996	2.405	0.498
251.000	203.470	79.995	19.996	100.822	19.996	2.431	0.499
251.500	203.672	79.996	19.997	100.822	19.995	2.453	0.464
252.000	203.947	79.995	19.996	100.822	19.994	2.536	0.459
252.500	204.193	79.995	19.995	100.823	19.995	2.500	0.499
253.000	204.438	79.995	19.996	100.824	19.997	2.348	0.506
253.500	204.665	79.995	19.995	100.827	19.995	2.507	0.482
254.000	204.908	79.995	19.995	100.827	19.997	2.342	0.471
254.500	205.143	79.993	19.996	100.827	19.995	2.501	0.474
255.000	205.371	79.995	19.995	100.826	19.995	2.489	0.470
255.500	205.668	79.994	19.996	100.826	19.994	2.554	0.494
256.000	205.884	79.995	19.997	100.824	19.994	2.558	0.519
256.500	206.161	79.994	19.995	100.824	19.997	2.344	0.503
257.000	206.387	79.995	19.996	100.824	19.995	2.505	0.497
257.500	206.636	79.996	19.996	100.828	19.995	2.472	0.489
258.000	206.933	79.995	19.995	100.830	19.996	2.434	0.511
258.500	207.163	79.995	19.996	100.829	19.995	2.456	0.537
259.000	207.412	79.995	19.996	100.829	19.995	2.500	0.503
259.500	207.688	79.995	19.996	100.829	19.995	2.487	0.502
260.000	207.915	79.995	19.997	100.824	19.994	2.559	0.514
260.500	208.151	79.995	19.997	100.823	19.994	2.574	0.483
261.000	208.426	79.996	19.996	100.823	19.991	2.751	0.487
261.500	208.661	79.995	19.995	100.823	19.992	2.681	0.510
262.000	208.893	79.996	19.996	100.822	19.993	2.583	0.489
262.500	209.132	79.996	19.997	100.822	19.992	2.691	0.469
263.000	209.389	79.994	19.996	100.822	19.992	2.690	0.484
263.500	209.682	79.994	19.997	100.822	19.996	2.404	0.523
264.000	209.916	79.994	19.996	100.823	19.996	2.436	0.538
264.500	210.173	79.994	19.996	100.822	19.997	2.353	0.509
265.000	210.397	79.995	19.996	100.823	19.995	2.465	0.486
265.500	210.636	79.995	19.996	100.823	19.996	2.424	0.472
266.000	210.870	79.995	19.996	100.823	19.997	2.353	0.468
266.500	211.088	79.995	19.996	100.823	19.997	2.335	0.462
267.000	211.379	79.994	19.995	100.824	19.999	2.246	0.480
267.500	211.639	79.993	19.995	100.824	19.998	2.313	0.530
268.000	211.854	79.994	19.995	100.824	19.995	2.496	0.514
268.500	212.114	79.993	19.995	100.824	19.997	2.346	0.475
269.000	212.341	79.993	19.995	100.824	20.000	2.170	0.481
269.500	212.590	79.994	19.996	100.824	19.999	2.194	0.481
270.000	212.846	79.994	19.995	100.824	19.993	2.621	0.490
270.500	213.057	79.994	19.996	100.825	19.996	2.443	0.486
271.000	213.342	79.994	19.996	100.824	19.994	2.548	0.482
271.500	213.597	79.993	19.995	100.824	19.992	2.673	0.518
272.000	213.825	79.994	19.995	100.823	19.992	2.681	0.511
272.500	214.076	79.993	19.995	100.823	19.995	2.467	0.481
273.000	214.349	79.994	19.996	100.821	19.994	2.561	0.502
273.500	214.587	79.995	19.995	100.822	19.993	2.632	0.517
274.000	214.803	79.994	19.995	100.821	19.993	2.628	0.482
274.500	215.050	79.995	19.996	100.822	19.993	2.583	0.459
275.001	215.279	79.994	19.995	100.822	19.995	2.514	0.470
275.501	215.543	79.994	19.996	100.823	19.994	2.539	0.484
276.000	215.794	79.994	19.996	100.823	19.993	2.635	0.504
276.500	216.026	79.994	19.994	100.823	19.991	2.747	0.499
277.000	216.282	79.994	19.997	100.822	19.990	2.800	0.485
277.500	216.553	79.995	19.996	100.822	19.991	2.740	0.507
278.000	216.826	79.994	19.997	100.824	19.991	2.731	0.535
278.500	217.051	79.995	19.996	100.825	19.993	2.641	0.521
279.000	217.359	79.996	19.995	100.825	19.993	2.586	0.515
279.500	217.585	79.994	19.997	100.826	19.992	2.697	0.534
280.000	217.806	79.995	19.996	100.824	19.998	2.306	0.491
280.500	218.065	79.995	19.996	100.821	19.995	2.481	0.464
281.000	218.303	79.995	19.996	100.819	19.992	2.688	0.488
281.500	218.552	79.994	19.996	100.819	19.990	2.802	0.492
282.000	218.790	79.995	19.996	100.818	19.994	2.537	0.487
282.500	219.058	79.997	19.996	100.819	19.992	2.686	0.496
283.000	219.314	79.995	19.996	100.819	19.992	2.704	0.515
283.500	219.557	79.995	19.997	100.819	19.993	2.586	0.512
284.000	219.769	79.996	19.996	100.819	19.991	2.758	0.476
284.500	219.985	79.996	19.996	100.819	19.989	2.883	0.441
285.000	220.248	79.995	19.996	100.819	19.992	2.695	0.454
285.500	220.521	79.996	19.996	100.818	19.991	2.769	0.507
286.000	220.744	79.994	19.997	100.818	19.995	2.456	0.516
286.500	220.988	79.995	19.996	100.818	19.991	2.758	0.482
287.000	221.239	79.994	19.996	100.818	19.995	2.449	0.481
287.500	221.517	79.995	19.997	100.818	19.993	2.637	0.512
288.000	221.731	79.995	19.997	100.818	19.993	2.593	0.511
288.500	221.999	79.994	19.996	100.818	19.990	2.820	0.487
289.000	222.269	79.993	19.997	100.818	19.994	2.521	0.510
289.500	222.478	79.993	19.997	100.818	19.991	2.754	0.508
290.000	222.722	79.994	19.997	100.818	19.990	2.820	0.466
290.500	222.976	79.994	19.996	100.818	19.994	2.534	0.476
291.000	223.193	79.994	19.996	100.818	19.993	2.617	0.484
291.500	223.475	79.995	19.997	100.818	19.994	2.537	0.485
292.001	223.697	79.994	19.997	100.817	19.995	2.468	0.501
292.500	223.965	79.994	19.995	100.816	19.992	2.695	0.497
293.000	224.188	79.995	19.996	100.816	19.995	2.497	0.491
293.500	224.457	79.994	19.995	100.814	19.995	2.459	0.492
294.000	224.705	79.995	19.997	100.815	19.995	2.503	0.504
294.500	224.965	79.994	19.997	100.816	19.993	2.630	0.512
295.000	225.217	79.994	19.996	100.817	19.993	2.608	0.510
295.500	225.397	79.994	19.996	100.816	19.994	2.541	0.472
296.000	225.680	79.995	19.995	100.816	19.994	2.516	0.448
296.500	225.927	79.995	19.995	100.815	19.992	2.700	0.497
297.000	226.181	79.996	19.995	100.812	19.994	2.537	0.516
297.500	226.427	79.995	19.996	100.811	19.995	2.499	0.500
298.000	226.703	79.996	19.995	100.812	19.994	2.553	0.511
298.500	226.903	79.995	19.996	100.813	19.996	2.443	0.499
299.000	227.155	79.995	19.996	100.812	19.995	2.449	0.464
299.500	227.444	79.994	19.996	100.813	19.996	2.427	0.497
300.000	227.675	79.995	19.996	100.810	19.996	2.438	0.530
300.500	227.909	79.995	19.996	100.809	19.997	2.367	0.492
301.000	228.183	79.994	19.996	100.810	19.996	2.403	0.487
301.500	228.432	79.996	19.994	100.810	19.993	2.606	0.515
302.000	228.664	79.998	19.996	100.809	19.996	2.390	0.502
302.500	228.948	79.996	19.996	100.811	19.996	2.409	0.499
303.000	229.166	79.996	19.996	100.807	19.995	2.472	0.509
303.500	229.440	79.996	19.994	100.805	19.997	2.349	0.497
304.000	229.637	79.996	19.995	100.805	19.994	2.537	0.481
304.500	229.897	79.998	19.996	100.809	19.994	2.575	0.464
305.000	230.176	79.998	19.995	100.810	19.994	2.523	0.499
305.500	230.445	79.997	19.995	100.815	19.993	2.594	0.543
306.001	230.667	79.996	19.995	100.814	19.993	2.630	0.519
306.500	230.905	79.996	19.995	100.814	19.992	2.664	0.475
307.000	231.162	79.996	19.996	100.813	19.992	2.702	0.478
307.500	231.424	79.996	19.995	100.809	19.993	2.604	0.507
308.000	231.647	79.996	19.995	100.804	19.993	2.648	0.502
308.500	231.910	79.996	19.996	100.805	19.993	2.609	0.486
309.000	232.181	79.996	19.993	100.806	19.997	2.367	0.510
309.500	232.403	79.996	19.995	100.807	19.995	2.492	0.513
310.000	232.648	79.996	19.995	100.812	19.994	2.546	0.480
310.500	232.904	79.995	19.995	100.815	19.994	2.521	0.484
311.000	233.172	79.996	19.995	100.813	19.996	2.407	0.513
311.500	233.376	79.995	19.995	100.807	19.996	2.411	0.498
312.000	233.653	79.994	19.994	100.800	19.998	2.257	0.476
312.500	233.909	79.995	19.995	100.798	19.995	2.492	0.507
313.000	234.149	79.994	19.995	100.798	19.994	2.557	0.514
313.500	234.433	79.995	19.995	100.799	19.991	2.723	0.510
314.000	234.655	79.994	19.994	100.803	19.994	2.542	0.515
314.500	234.945	79.994	19.994	100.810	19.993	2.622	0.509
315.000	235.137	79.995	19.996	100.812	19.990	2.781	0.497
315.500	235.389	79.993	19.995	100.814	19.992	2.663	0.463
316.000	235.645	79.993	19.995	100.817	19.992	2.701	0.476
316.500	235.865	79.994	19.995	100.816	19.995	2.486	0.492
317.000	236.138	79.994	19.996	100.815	19.993	2.611	0.484
317.500	236.377	79.992	19.997	100.811	19.997	2.368	0.502
318.000	236.652	79.993	19.995	100.810	19.999	2.238	0.513
318.500	236.853	79.993	19.995	100.806	19.996	2.399	0.495
319.000	237.083	79.991	19.995	100.802	19.995	2.511	0.453
319.500	237.359	79.993	19.995	100.801	19.998	2.312	0.469
320.000	237.578	79.992	19.995	100.804	19.995	2.493	0.500
320.500	237.865	79.994	19.995	100.806	19.995	2.473	0.501
321.000	238.104	79.994	19.994	100.809	19.997	2.370	0.516
321.500	238.376	79.992	19.996	100.814	19.998	2.269	0.518
322.000	238.597	79.995	19.996	100.815	19.997	2.345	0.502
322.500	238.850	79.993	19.996	100.813	19.995	2.463	0.483
323.000	239.086	79.992	19.995	100.808	19.996	2.441	0.482
323.500	239.334	79.993	19.995	100.804	19.995	2.501	0.487
324.000	239.594	79.994	19.995	100.801	19.995	2.495	0.496
324.500	239.860	79.992	19.995	100.797	19.997	2.322	0.517
325.000	240.103	79.993	19.995	100.793	19.994	2.524	0.518
325.500	240.340	79.993	19.995	100.790	19.997	2.378	0.494
326.000	240.554	79.994	19.996	100.790	19.992	2.680	0.465
326.500	240.820	79.994	19.995	100.786	19.994	2.559	0.466
327.000	241.030	79.992	19.996	100.785	19.996	2.443	0.479
327.500	241.244	79.994	19.996	100.785	19.994	2.517	0.450
328.000	241.514	79.993	19.995	100.785	19.997	2.347	0.454
328.500	241.734	79.995	19.995	100.784	19.997	2.345	0.487
329.000	242.009	79.994	19.995	100.784	19.994	2.548	0.492
329.500	242.257	79.993	19.995	100.785	19.997	2.350	0.509
330.000	242.510	79.994	19.995	100.788	20.002	2.043	0.512
330.500	242.754	79.993	19.994	100.789	19.999	2.206	0.499
331.000	243.017	79.994	19.995	100.790	20.000	2.137	0.502
331.500	243.233	79.995	19.995	100.790	19.997	2.343	0.493
332.000	243.479	79.995	19.995	100.789	19.998	2.300	0.471
332.500	243.728	79.995	19.995	100.789	19.997	2.327	0.478
333.000	243.947	79.994	19.996	100.793	19.996	2.399	0.482
333.500	244.188	79.993	19.995	100.797	19.997	2.341	0.464
334.000	244.435	79.994	19.996	100.798	19.997	2.318	0.474
334.500	244.693	79.994	19.995	100.798	19.997	2.327	0.496
335.000	244.929	79.994	19.994	100.798	19.998	2.309	0.499
335.500	245.162	79.994	19.996	100.795	19.996	2.421	0.482
336.000	245.406	79.994	19.997	100.794	19.995	2.510	0.473
336.500	245.612	79.995	19.996	100.797	19.996	2.426	0.463
337.000	245.871	79.993	19.995	100.798	19.996	2.388	0.458
337.500	246.128	79.994	19.996	100.799	19.995	2.466	0.491
338.000	246.395	79.995	19.995	100.798	19.997	2.332	0.520
338.500	246.620	79.993	19.997	100.795	19.996	2.401	0.508
339.001	246.848	79.993	19.995	100.791	19.998	2.260	0.472
339.500	247.076	79.993	19.995	100.790	19.999	2.213	0.455
340.000	247.335	79.994	19.995	100.787	19.997	2.320	0.472
340.500	247.565	79.993	19.995	100.787	20.000	2.144	0.488
341.000	247.828	79.994	19.995	100.791	19.998	2.253	0.491
341.500	248.057	79.994	19.994	100.794	19.999	2.193	0.493
342.000	248.284	79.994	19.995	100.796	20.000	2.159	0.474
342.500	248.536	79.994	19.995	100.799	19.998	2.254	0.467
343.000	248.789	79.994	19.995	100.798	19.996	2.401	0.492
343.500	249.026	79.994	19.996	100.797	19.998	2.254	0.498
344.000	249.311	79.995	19.995	100.794	19.999	2.206	0.506
344.500	249.597	79.993	19.995	100.793	19.998	2.303	0.547
345.000	249.792	79.994	19.995	100.790	20.000	2.140	0.526
345.500	250.043	79.992	19.995	100.791	19.997	2.354	0.464
346.000	250.284	79.993	19.995	100.790	20.003	1.967	0.469
346.500	250.514	79.993	19.996	100.789	20.000	2.146	0.481
347.000	250.725	79.993	19.996	100.789	20.002	2.017	0.456
347.500	251.031	79.993	19.996	100.789	20.002	2.028	0.479
348.000	251.237	79.993	19.995	100.787	20.003	1.976	0.515
348.500	251.482	79.994	19.996	100.786	20.001	2.084	0.481
349.000	251.740	79.993	19.995	100.788	20.002	2.012	0.477
349.500	251.970	79.993	19.997	100.786	20.003	1.981	0.495
350.000	252.232	79.993	19.997	100.786	20.000	2.166	0.490
350.500	252.426	79.992	19.996	100.785	20.001	2.095	0.474
351.000	252.659	79.993	19.996	100.785	20.002	2.023	0.441
351.500	252.921	79.994	19.995	100.785	20.002	2.032	0.461
352.000	253.169	79.993	19.996	100.785	20.001	2.082	0.503
352.500	253.377	79.994	19.995	100.786	20.000	2.178	0.484
353.000	253.664	79.994	19.996	100.786	20.002	2.044	0.475
353.500	253.844	79.994	19.997	100.786	19.998	2.312	0.481
354.000	254.122	79.993	19.996	100.784	20.000	2.162	0.463
354.500	254.376	79.994	19.995	100.784	19.999	2.242	0.495
355.000	254.590	79.994	19.996	100.783	20.001	2.090	0.500
355.500	254.817	79.994	19.996	100.783	20.002	2.003	0.454
356.000	255.077	79.994	19.996	100.783	19.998	2.262	0.464
356.500	255.294	79.994	19.996	100.782	19.999	2.200	0.482
357.000	255.551	79.995	19.996	100.783	19.999	2.238	0.476
357.500	255.775	79.993	19.995	100.783	19.998	2.283	0.477
358.000	256.024	79.994	19.997	100.783	19.996	2.424	0.477
358.500	256.293	79.994	19.996	100.783	19.999	2.189	0.495
359.000	256.500	79.993	19.997	100.783	20.001	2.061	0.497
359.500	256.733	79.995	19.996	100.783	19.998	2.256	0.458
360.000	256.980	79.996	19.996	100.785	20.001	2.101	0.460
360.500	257.206	79.995	19.996	100.786	19.995	2.477	0.476
361.000	257.432	79.995	19.997	100.786	19.996	2.425	0.462
361.500	257.696	79.995	19.995	100.785	19.996	2.435	0.472
362.000	257.952	79.996	19.997	100.782	19.996	2.408	0.506
362.500	258.181	79.995	19.996	100.780	19.997	2.372	0.503
363.000	258.413	79.996	19.996	100.780	19.996	2.419	0.473
363.500	258.623	79.997	19.995	100.779	19.996	2.444	0.451
364.000	258.867	79.995	19.996	100.780	19.994	2.517	0.448
364.500	259.114	79.996	19.996	100.781	19.993	2.600	0.473
365.000	259.338	79.994	19.995	100.781	19.995	2.499	0.481
365.500	259.581	79.996	19.997	100.780	19.997	2.330	0.469
366.000	259.811	79.995	19.996	100.780	19.997	2.350	0.470
366.500	260.064	79.995	19.995	100.780	19.996	2.421	0.478
367.000	260.264	79.997	19.997	100.780	19.996	2.433	0.468
367.500	260.459	79.995	19.996	100.780	19.997	2.343	0.424
368.000	260.706	79.996	19.996	100.781	19.998	2.310	0.418
368.500	260.947	79.996	19.996	100.780	19.995	2.471	0.465
369.000	261.161	79.995	19.997	100.780	19.997	2.357	0.472
369.500	261.392	79.995	19.996	100.780	19.996	2.397	0.450
370.000	261.642	79.996	19.995	100.782	19.997	2.330	0.463
370.500	261.860	79.994	19.997	100.782	19.998	2.314	0.474
371.000	262.055	79.995	19.995	100.783	19.997	2.334	0.441
371.500	262.282	79.994	19.996	100.785	19.996	2.430	0.418
372.000	262.520	79.994	19.996	100.785	19.996	2.392	0.443
372.500	262.787	79.995	19.997	100.783	19.998	2.258	0.485
373.000	263.036	79.993	19.995	100.784	19.996	2.388	0.510
373.500	263.253	79.994	19.996	100.782	19.996	2.405	0.491
374.000	263.496	79.995	19.996	100.782	19.993	2.611	0.463
374.500	263.715	79.994	19.997	100.782	19.998	2.278	0.461
375.000	263.949	79.995	19.996	100.782	19.996	2.434	0.458
375.500	264.190	79.994	19.996	100.782	19.999	2.188	0.464
376.000	264.408	79.994	19.996	100.782	19.998	2.314	0.466
376.500	264.638	79.994	19.996	100.782	19.998	2.274	0.453
377.000	264.891	79.993	19.996	100.781	19.999	2.247	0.466
377.500	265.077	79.994	19.996	100.781	19.996	2.426	0.461
378.000	265.319	79.993	19.995	100.781	20.000	2.162	0.434
378.500	265.551	79.994	19.997	100.781	19.997	2.381	0.451
379.000	265.809	79.993	19.996	100.782	19.997	2.363	0.481
379.500	266.049	79.993	19.997	100.782	19.997	2.343	0.494
380.000	266.259	79.995	19.996	100.782	19.998	2.265	0.474
380.500	266.510	79.993	19.997	100.783	19.999	2.233	0.456
381.000	266.786	79.994	19.996	100.783	19.995	2.461	0.494
381.500	266.976	79.995	19.995	100.785	19.994	2.519	0.496
382.000	267.227	79.996	19.995	100.785	19.997	2.361	0.454
382.500	267.427	79.995	19.997	100.785	19.995	2.475	0.446
383.001	267.701	79.995	19.996	100.784	19.995	2.484	0.462
383.500	267.976	79.994	19.996	100.784	19.998	2.287	0.511
384.000	268.197	79.996	19.995	100.785	19.998	2.282	0.523
384.500	268.401	79.997	19.996	100.787	19.996	2.423	0.461
385.000	268.663	79.997	19.996	100.787	19.998	2.249	0.445
385.500	268.920	79.995	19.996	100.789	19.997	2.354	0.492
386.000	269.124	79.996	19.995	100.789	20.002	2.043	0.491
386.500	269.374	79.996	19.995	100.787	20.000	2.144	0.458
387.000	269.607	79.995	19.995	100.786	19.998	2.289	0.468
387.500	269.794	79.996	19.996	100.788	20.001	2.104	0.451
388.000	270.079	79.995	19.996	100.786	20.000	2.119	0.446
388.500	270.325	79.996	19.995	100.786	19.999	2.184	0.502
389.000	270.599	79.996	19.995	100.785	20.001	2.113	0.526
389.500	270.829	79.996	19.995	100.782	20.001	2.102	0.512
390.000	271.105	79.997	19.995	100.781	20.000	2.126	0.505
390.500	271.324	79.996	19.995	100.781	20.000	2.137	0.500
391.000	271.532	79.997	19.995	100.781	20.001	2.070	0.460
391.500	271.753	79.997	19.996	100.781	19.998	2.305	0.428
392.000	272.033	79.997	19.996	100.782	20.001	2.081	0.466
392.500	272.268	79.996	19.995	100.783	20.003	1.938	0.508
393.000	272.500	79.996	19.995	100.787	19.999	2.218	0.491
393.500	272.751	79.995	19.996	100.792	19.999	2.238	0.475
394.000	272.945	79.995	19.997	100.793	20.000	2.169	0.464
394.500	273.184	79.994	19.994	100.792	20.002	2.014	0.439
395.000	273.444	79.995	19.995	100.792	20.000	2.151	0.467
395.500	273.631	79.996	19.995	100.788	19.998	2.271	0.473
396.000	273.853	79.993	19.995	100.784	20.001	2.090	0.428
396.500	274.147	79.993	19.994	100.783	19.999	2.193	0.462
397.000	274.337	79.994	19.996	100.785	19.999	2.247	0.500
397.500	274.612	79.995	19.996	100.787	19.999	2.193	0.475
398.000	274.861	79.995	19.996	100.788	20.001	2.086	0.494
398.500	275.085	79.994	19.996	100.790	19.999	2.200	0.498
399.000	275.319	79.993	19.996	100.790	20.001	2.075	0.465
399.500	275.558	79.993	19.995	100.788	20.001	2.070	0.466
400.000	275.826	79.992	19.995	100.785	20.000	2.151	0.491
400.500	276.051	79.994	19.995	100.786	19.997	2.338	0.500
401.000	276.300	79.992	19.995	100.791	19.999	2.226	0.483
401.500	276.574	79.993	19.995	100.793	19.999	2.240	0.498
402.000	276.796	79.993	19.996	100.795	19.998	2.283	0.509
402.500	277.016	79.994	19.996	100.795	20.000	2.148	0.470
403.000	277.282	79.994	19.995	100.794	19.998	2.289	0.464
403.500	277.529	79.994	19.995	100.788	19.997	2.331	0.499
404.000	277.810	79.995	19.995	100.786	19.996	2.425	0.520
404.500	278.017	79.996	19.995	100.785	19.998	2.262	0.508
405.000	278.262	79.995	19.995	100.786	20.001	2.090	0.470
405.500	278.516	79.995	19.996	100.786	19.999	2.246	0.476
406.000	278.741	79.994	19.996	100.787	19.999	2.242	0.489
406.500	278.975	79.995	19.996	100.790	20.000	2.148	0.469
407.000	279.201	79.994	19.997	100.789	19.998	2.256	0.459
407.500	279.429	79.994	19.996	100.789	20.001	2.084	0.457
408.000	279.690	79.995	19.996	100.790	20.001	2.106	0.472
408.500	279.903	79.995	19.995	100.790	19.998	2.249	0.482
409.000	280.157	79.995	19.995	100.788	19.999	2.191	0.471
409.500	280.429	79.994	19.997	100.789	19.998	2.273	0.496
410.000	280.677	79.994	19.997	100.788	19.999	2.197	0.523
410.500	280.896	79.994	19.996	100.789	19.996	2.410	0.493
411.000	281.124	79.994	19.995	100.788	19.999	2.224	0.457
411.501	281.350	79.995	19.997	100.788	19.998	2.282	0.451
412.000	281.617	79.995	19.995	100.788	20.000	2.175	0.474
412.500	281.874	79.995	19.997	100.787	20.001	2.095	0.508
413.000	282.100	79.994	19.997	100.786	20.000	2.180	0.503
413.500	282.334	79.993	19.996	100.785	20.001	2.073	0.472
414.000	282.599	79.994	19.995	100.787	20.002	2.012	0.480
414.500	282.823	79.994	19.996	100.792	20.002	2.016	0.494
415.000	283.052	79.994	19.995	100.794	20.001	2.068	0.471
415.500	283.311	79.993	19.996	100.795	20.002	1.998	0.470
416.000	283.566	79.995	19.997	100.797	19.998	2.260	0.500
416.500	283.783	79.995	19.996	100.792	19.997	2.321	0.493
417.000	284.078	79.995	19.996	100.787	19.999	2.186	0.492
417.500	284.280	79.994	19.997	100.787	19.999	2.200	0.505
418.000	284.481	79.994	19.995	100.787	19.998	2.289	0.450
418.501	284.738	79.994	19.995	100.791	19.999	2.187	0.430
419.000	284.994	79.995	19.997	100.793	20.002	2.028	0.485
419.500	285.262	79.994	19.995	100.793	20.001	2.110	0.518
420.000	285.512	79.994	19.995	100.792	20.003	1.934	0.521
420.500	285.760	79.994	19.995	100.790	20.005	1.845	0.508
421.000	286.003	79.995	19.995	100.784	20.000	2.164	0.494
421.500	286.244	79.994	19.995	100.782	20.002	2.021	0.487
422.000	286.510	79.994	19.996	100.782	20.000	2.149	0.495
422.500	286.762	79.994	19.995	100.782	20.000	2.178	0.513
423.000	287.019	79.995	19.996	100.782	20.001	2.084	0.514
423.500	287.227	79.993	19.995	100.782	19.997	2.341	0.487
424.000	287.499	79.995	19.996	100.782	19.997	2.325	0.473
424.500	287.738	79.994	19.995	100.781	20.001	2.072	0.496
425.000	287.990	79.995	19.996	100.784	20.000	2.135	0.501
425.500	288.253	79.995	19.995	100.787	20.000	2.166	0.503
426.000	288.514	79.994	19.994	100.787	20.003	1.969	0.520
426.500	288.757	79.995	19.995	100.788	19.997	2.377	0.514
427.000	289.033	79.995	19.995	100.789	19.998	2.289	0.511
427.500	289.288	79.995	19.996	100.788	19.996	2.434	0.525
428.000	289.514	79.994	19.995	100.785	19.998	2.256	0.506
428.500	289.767	79.995	19.995	100.786	19.999	2.222	0.480
429.000	290.006	79.994	19.995	100.785	19.997	2.320	0.485
429.500	290.244	79.994	19.994	100.783	19.999	2.231	0.484
430.000	290.515	79.993	19.995	100.782	19.997	2.318	0.493
430.500	290.750	79.993	19.995	100.781	19.995	2.450	0.508
431.000	291.031	79.995	19.996	100.781	19.998	2.298	0.511
431.500	291.268	79.994	19.995	100.781	19.996	2.425	0.517
432.000	291.491	79.995	19.995	100.782	19.998	2.285	0.489
432.500	291.791	79.994	19.996	100.782	19.997	2.354	0.492
433.000	292.081	79.993	19.995	100.783	19.996	2.397	0.557
433.500	292.273	79.994	19.995	100.783	19.996	2.390	0.536
434.000	292.531	79.995	19.996	100.782	19.996	2.426	0.466
434.500	292.764	79.994	19.996	100.782	19.996	2.445	0.471
435.000	293.006	79.994	19.995	100.781	19.996	2.390	0.483
435.500	293.258	79.994	19.995	100.781	19.998	2.267	0.485
436.000	293.514	79.995	19.994	100.781	19.996	2.394	0.501
436.500	293.760	79.996	19.995	100.782	19.998	2.249	0.505
437.000	294.009	79.995	19.997	100.785	19.995	2.477	0.498
437.500	294.221	79.994	19.995	100.786	19.999	2.182	0.478
438.000	294.469	79.994	19.995	100.786	19.997	2.334	0.461
438.500	294.760	79.995	19.996	100.785	19.994	2.519	0.500
439.000	295.018	79.996	19.995	100.785	19.997	2.381	0.544
439.500	295.252	79.995	19.996	100.785	19.995	2.473	0.520
440.000	295.493	79.995	19.996	100.789	19.997	2.376	0.484
440.500	295.768	79.995	19.996	100.796	19.993	2.602	0.495
441.000	295.976	79.995	19.997	100.801	19.995	2.508	0.500
441.500	296.244	79.994	19.995	100.803	19.993	2.582	0.480
442.000	296.471	79.996	19.996	100.799	19.997	2.332	0.485
442.500	296.746	79.995	19.996	100.794	19.994	2.517	0.499
443.000	296.989	79.995	19.995	100.788	19.996	2.441	0.510
443.500	297.242	79.995	19.997	100.783	19.997	2.347	0.507
444.000	297.503	79.995	19.996	100.783	19.996	2.443	0.505
444.500	297.748	79.995	19.997	100.784	19.994	2.567	0.510
445.000	298.038	79.996	19.996	100.789	19.994	2.576	0.520
445.500	298.235	79.995	19.996	100.791	19.997	2.330	0.511
446.000	298.511	79.996	19.997	100.792	19.995	2.470	0.480
446.500	298.786	79.996	19.996	100.791	19.996	2.433	0.512
447.000	299.009	79.994	19.996	100.789	19.997	2.343	0.525
447.500	299.289	79.996	19.995	100.785	19.995	2.488	0.500
448.000	299.515	79.997	19.996	100.782	19.994	2.522	0.504
448.500	299.780	79.995	19.996	100.782	19.995	2.504	0.499
449.000	300.034	79.996	19.996	100.782	19.994	2.531	0.505
449.500	300.307	79.996	19.995	100.782	19.998	2.309	0.523
450.000	300.540	79.995	19.996	100.783	19.999	2.216	0.517
450.500	300.804	79.995	19.996	100.783	19.998	2.251	0.501
451.000	301.070	79.996	19.996	100.782	19.996	2.435	0.513
451.500	301.330	79.995	19.995	100.785	19.999	2.238	0.528
452.000	301.569	79.995	19.996	100.789	20.001	2.110	0.513
452.500	301.808	79.994	19.996	100.788	19.999	2.238	0.489
453.000	302.115	79.995	19.996	100.788	19.997	2.349	0.512
453.500	302.343	79.995	19.995	100.788	19.999	2.242	0.540
454.000	302.618	79.994	19.996	100.786	19.998	2.302	0.519
454.500	302.862	79.995	19.996	100.782	19.999	2.222	0.511
455.000	303.104	79.996	19.996	100.782	19.999	2.188	0.503
455.500	303.366	79.995	19.996	100.782	20.001	2.067	0.495
456.000	303.634	79.994	19.995	100.782	19.999	2.231	0.517
456.500	303.855	79.995	19.996	100.782	20.000	2.155	0.509
457.000	304.119	79.995	19.997	100.781	19.999	2.242	0.487
457.500	304.421	79.996	19.996	100.782	19.998	2.262	0.526
458.000	304.613	79.995	19.996	100.782	19.997	2.349	0.530
458.500	304.856	79.995	19.996	100.782	19.996	2.445	0.465
459.000	305.114	79.995	19.995	100.782	19.999	2.195	0.468
459.500	305.375	79.995	19.996	100.782	19.997	2.338	0.510
460.000	305.635	79.996	19.996	100.781	19.997	2.327	0.520
460.500	305.865	79.997	19.996	100.781	19.998	2.311	0.506
461.000	306.165	79.995	19.996	100.782	19.999	2.219	0.510
461.500	306.415	79.995	19.996	100.783	19.998	2.253	0.540
462.000	306.638	79.994	19.996	100.783	19.996	2.384	0.512
462.500	306.944	79.995	19.995	100.784	20.001	2.058	0.501
463.000	307.197	79.994	19.995	100.784	20.000	2.123	0.543
463.500	307.403	79.995	19.995	100.785	19.998	2.269	0.509
464.000	307.643	79.995	19.996	100.785	19.996	2.392	0.453
464.500	307.951	79.996	19.996	100.787	19.993	2.600	0.497
465.000	308.183	79.996	19.995	100.790	19.997	2.376	0.544
465.500	308.445	79.997	19.996	100.794	19.997	2.356	0.517
466.000	308.752	79.996	19.996	100.797	19.998	2.300	0.532
466.500	308.931	79.996	19.997	100.801	19.997	2.327	0.528
467.000	309.217	79.996	19.996	100.803	20.001	2.056	0.475
467.500	309.490	79.995	19.997	100.806	19.995	2.485	0.512
468.000	309.739	79.996	19.995	100.806	19.999	2.208	0.541
468.500	310.016	79.996	19.996	100.803	19.994	2.539	0.524
469.000	310.286	79.996	19.995	100.799	19.998	2.302	0.537
469.500	310.539	79.996	19.996	100.797	19.996	2.414	0.535
470.000	310.810	79.996	19.994	100.795	19.997	2.358	0.523
470.500	311.047	79.995	19.996	100.797	19.997	2.343	0.516
471.000	311.305	79.995	19.996	100.802	19.995	2.506	0.502
471.500	311.560	79.995	19.996	100.809	19.998	2.253	0.504
472.000	311.780	79.995	19.995	100.811	19.999	2.226	0.494
472.500	312.113	79.996	19.996	100.815	19.997	2.365	0.514
473.001	312.330	79.995	19.996	100.813	19.995	2.452	0.551
473.500	312.644	79.996	19.997	100.814	19.997	2.338	0.540
474.000	312.902	79.996	19.997	100.811	19.997	2.365	0.552
474.500	313.186	79.995	19.996	100.808	19.997	2.338	0.557
475.000	313.425	79.996	19.995	100.801	20.000	2.150	0.533
475.500	313.687	79.995	19.996	100.802	19.996	2.399	0.512
476.000	313.972	79.996	19.998	100.799	19.995	2.457	0.523
476.500	314.285	79.995	19.997	100.796	19.995	2.477	0.572
477.000	314.522	79.995	19.996	100.799	19.993	2.589	0.574
477.500	314.753	79.993	19.996	100.803	19.995	2.454	0.509
478.000	315.046	79.993	19.996	100.800	19.995	2.493	0.496
478.500	315.297	79.993	19.997	100.801	19.993	2.596	0.534
479.000	315.586	79.994	19.996	100.803	19.996	2.444	0.542
479.500	315.887	79.995	19.996	100.799	19.999	2.236	0.565
480.000	316.161	79.993	19.996	100.794	19.997	2.345	0.583
480.500	316.417	79.993	19.996	100.792	19.999	2.217	0.553
481.000	316.672	79.994	19.996	100.787	19.996	2.443	0.520
481.500	316.960	79.994	19.996	100.786	19.993	2.595	0.526
482.000	317.233	79.993	19.995	100.788	19.996	2.419	0.552
482.500	317.472	79.995	19.995	100.789	19.996	2.444	0.537
483.000	317.761	79.994	19.996	100.789	19.993	2.627	0.520
483.500	317.993	79.994	19.996	100.788	19.996	2.437	0.524
484.000	318.278	79.994	19.996	100.788	19.997	2.369	0.519
484.500	318.565	79.994	19.995	100.789	19.995	2.484	0.545
485.000	318.831	79.993	19.996	100.790	19.997	2.379	0.563
485.500	319.097	79.994	19.995	100.790	19.997	2.338	0.542
486.000	319.381	79.994	19.996	100.789	19.998	2.309	0.541
486.500	319.646	79.995	19.995	100.787	19.996	2.424	0.550
487.000	319.906	79.994	19.996	100.789	19.995	2.500	0.537
487.500	320.196	79.995	19.995	100.789	19.993	2.582	0.537
488.000	320.440	79.996	19.996	100.791	19.989	2.859	0.542
488.500	320.723	79.996	19.996	100.791	19.993	2.622	0.531
489.001	321.018	79.995	19.996	100.791	19.993	2.645	0.552
489.501	321.260	79.995	19.995	100.786	19.990	2.783	0.558
490.000	321.512	79.994	19.996	100.785	19.991	2.729	0.516
490.500	321.817	79.995	19.996	100.786	19.994	2.553	0.526
491.000	322.067	79.997	19.995	100.793	19.995	2.512	0.556
491.500	322.385	79.994	19.996	100.795	19.994	2.560	0.561
492.000	322.593	79.994	19.996	100.794	19.987	3.027	0.547
492.500	322.849	79.994	19.996	100.795	19.998	2.280	0.495
493.000	323.152	79.995	19.996	100.791	19.996	2.419	0.511
493.500	323.430	79.994	19.996	100.786	19.993	2.614	0.569
494.000	323.727	79.994	19.997	100.787	19.989	2.904	0.578
494.500	324.010	79.995	19.996	100.791	19.993	2.625	0.578
495.000	324.260	79.994	19.996	100.795	19.993	2.627	0.556
495.500	324.511	79.995	19.997	100.794	19.989	2.879	0.516
496.000	324.826	79.996	19.995	100.793	19.994	2.537	0.534
496.500	325.025	79.997	19.996	100.790	19.991	2.750	0.540
497.000	325.361	79.996	19.996	100.786	19.993	2.644	0.524
497.500	325.616	79.995	19.996	100.781	19.992	2.694	0.563
498.000	325.911	79.996	19.995	100.782	19.993	2.633	0.571
498.500	326.183	79.995	19.996	100.783	19.995	2.466	0.558
499.000	326.405	79.996	19.995	100.782	19.996	2.419	0.530
499.500	326.730	79.996	19.996	100.783	19.992	2.656	0.521
500.000	326.987	79.996	19.996	100.790	19.994	2.540	0.564
500.500	327.248	79.996	19.995	100.790	19.994	2.528	0.550
501.000	327.513	79.997	19.996	100.792	19.995	2.462	0.522
501.500	327.791	79.996	19.997	100.796	19.995	2.477	0.535
502.000	327.968	79.995	19.995	100.798	19.996	2.414	0.499
502.500	328.367	79.995	19.996	100.792	19.996	2.441	0.515
503.000	328.542	79.994	19.995	100.792	19.993	2.594	0.575
503.500	328.819	79.995	19.996	100.790	19.997	2.350	0.513
504.000	329.168	79.995	19.997	100.787	19.995	2.471	0.539
504.500	329.343	79.994	19.997	100.785	19.997	2.376	0.575
505.000	329.668	79.995	19.997	100.784	19.995	2.455	0.512
505.500	330.012	79.995	19.995	100.783	19.995	2.470	0.585
506.000	330.156	79.995	19.996	100.786	19.996	2.439	0.579
506.500	330.719	79.995	19.996	100.785	19.995	2.470	0.597
507.000	331.005	79.994	19.997	100.787	20.000	2.131	0.777
507.500	330.935	79.994	19.997	100.788	19.999	2.193	0.532
508.000	331.410	79.994	19.996	100.788	19.998	2.253	0.311
508.500	331.460	79.994	19.996	100.785	19.998	2.280	0.466
509.000	331.880	79.994	19.995	100.784	19.998	2.278	0.498
509.500	332.133	79.994	19.995	100.785	19.996	2.441	0.571
510.000	332.329	79.993	19.995	100.785	19.998	2.280	0.561
510.500	332.725	79.993	19.996	100.785	19.998	2.291	0.520
511.000	332.879	79.995	19.995	100.786	19.997	2.372	0.571
511.500	333.229	79.995	19.996	100.786	19.996	2.415	0.527
512.000	333.507	79.993	19.996	100.783	19.998	2.265	0.566
512.500	333.771	79.993	19.996	100.784	19.997	2.327	0.585
513.000	334.034	79.994	19.994	100.783	19.996	2.399	0.534
513.500	334.363	79.993	19.996	100.780	19.998	2.300	0.559
514.000	334.544	79.995	19.995	100.780	19.997	2.354	0.551
514.500	334.887	79.994	19.995	100.779	19.994	2.531	0.517
515.000	335.120	79.995	19.996	100.778	19.996	2.424	0.550
515.500	335.412	79.994	19.996	100.779	19.996	2.444	0.551
516.000	335.684	79.994	19.995	100.783	19.996	2.406	0.544
516.500	335.880	79.993	19.994	100.784	19.998	2.298	0.516
517.000	336.207	79.994	19.996	100.784	19.996	2.390	0.496
517.500	336.481	79.995	19.997	100.785	19.996	2.424	0.562
518.000	336.767	79.995	19.996	100.784	19.995	2.484	0.581
518.500	337.020	79.993	19.996	100.784	19.994	2.527	0.550
519.000	337.300	79.996	19.996	100.784	19.993	2.625	0.536
519.500	337.583	79.994	19.996	100.784	19.998	2.278	0.548
520.000	337.870	79.995	19.996	100.783	19.996	2.430	0.566
520.500	338.109	79.996	19.994	100.784	19.995	2.509	0.548
521.000	338.378	79.995	19.995	100.784	19.996	2.414	0.517
521.500	338.619	79.996	19.996	100.784	19.997	2.356	0.509
522.000	338.880	79.995	19.995	100.784	19.997	2.375	0.506
522.500	339.174	79.996	19.996	100.785	19.994	2.529	0.529
523.000	339.410	79.996	19.995	100.784	19.997	2.357	0.542
523.500	339.654	79.997	19.995	100.785	19.997	2.361	0.505
524.000	339.958	79.997	19.995	100.785	19.998	2.294	0.514
524.500	340.169	79.995	19.994	100.785	19.998	2.267	0.532
525.001	340.489	79.996	19.995	100.784	19.995	2.482	0.523
525.500	340.750	79.996	19.995	100.784	19.995	2.459	0.556
526.000	340.982	79.996	19.994	100.783	19.993	2.609	0.537
526.500	341.289	79.996	19.994	100.783	19.997	2.357	0.516
527.000	341.545	79.997	19.996	100.782	19.993	2.585	0.551
527.500	341.798	79.996	19.996	100.782	19.996	2.424	0.536
528.000	342.005	79.996	19.996	100.780	19.996	2.395	0.484
528.500	342.301	79.997	19.996	100.779	19.994	2.518	0.481
529.000	342.564	79.996	19.996	100.778	19.996	2.388	0.531
529.500	342.844	79.995	19.995	100.776	19.996	2.424	0.551
530.000	343.071	79.996	19.995	100.774	19.994	2.542	0.525
530.500	343.400	79.996	19.995	100.776	19.993	2.594	0.531
531.000	343.639	79.996	19.996	100.777	19.994	2.560	0.562
531.500	343.837	79.996	19.997	100.779	19.993	2.631	0.503
532.000	344.098	79.995	19.996	100.781	19.993	2.598	0.448
532.500	344.389	79.995	19.996	100.780	19.995	2.504	0.506
533.000	344.625	79.994	19.996	100.777	19.993	2.582	0.539
533.500	344.890	79.994	19.996	100.777	19.992	2.688	0.514
534.000	345.167	79.995	19.996	100.777	19.991	2.719	0.522
534.500	345.400	79.995	19.996	100.775	19.994	2.565	0.526
535.000	345.704	79.994	19.996	100.776	19.991	2.742	0.523
535.500	345.973	79.995	19.996	100.779	19.993	2.647	0.555
536.000	346.206	79.994	19.997	100.779	19.992	2.659	0.538
536.500	346.470	79.993	19.996	100.779	19.994	2.565	0.499
537.000	346.740	79.995	19.995	100.780	19.991	2.723	0.516
537.500	347.004	79.994	19.995	100.780	19.993	2.636	0.534
538.000	347.249	79.995	19.996	100.781	19.997	2.374	0.521
538.500	347.492	79.995	19.996	100.776	19.997	2.363	0.498
539.000	347.776	79.995	19.996	100.776	19.995	2.486	0.507
539.500	348.035	79.996	19.996	100.775	19.993	2.585	0.535
540.000	348.271	79.995	19.997	100.776	19.993	2.609	0.519
540.500	348.504	79.996	19.997	100.776	19.997	2.377	0.482
541.000	348.794	79.994	19.997	100.780	19.993	2.591	0.496
541.500	349.016	79.996	19.996	100.781	19.997	2.316	0.518
542.000	349.319	79.995	19.997	100.781	19.994	2.536	0.518
542.500	349.574	79.997	19.997	100.781	19.992	2.654	0.541
543.000	349.852	79.995	19.997	100.780	19.993	2.638	0.546
543.500	350.059	79.996	19.995	100.779	19.996	2.439	0.509
544.000	350.334	79.995	19.996	100.777	19.996	2.428	0.484
544.500	350.604	79.997	19.997	100.772	19.995	2.466	0.514
545.000	350.884	79.997	19.995	100.765	19.996	2.402	0.547
545.500	351.119	79.996	19.995	100.764	19.992	2.664	0.533
546.000	351.356	79.996	19.997	100.765	19.995	2.496	0.494
546.500	351.611	79.997	19.996	100.765	19.995	2.507	0.482
547.000	351.837	79.996	19.996	100.767	19.994	2.540	0.486
547.500	352.148	79.998	19.995	100.773	19.993	2.585	0.509
548.001	352.387	79.997	19.995	100.774	19.996	2.399	0.544
548.500	352.648	79.998	19.997	100.773	19.997	2.375	0.525
549.000	352.920	79.997	19.995	100.773	19.995	2.509	0.517
549.500	353.190	79.997	19.996	100.774	19.996	2.419	0.537
550.000	353.492	79.997	19.996	100.771	19.993	2.627	0.557
550.500	353.707	79.996	19.995	100.772	19.996	2.393	0.545
551.000	353.989	79.998	19.996	100.772	19.993	2.609	0.507
551.500	354.238	79.997	19.995	100.773	19.995	2.493	0.514
552.000	354.528	79.998	19.995	100.773	19.992	2.674	0.535
552.500	354.769	79.997	19.997	100.777	19.995	2.470	0.535
553.000	355.013	79.996	19.996	100.777	19.994	2.522	0.508
553.500	355.250	79.998	19.997	100.778	19.993	2.583	0.483
554.000	355.500	79.996	19.995	100.774	19.993	2.581	0.484
554.500	355.782	79.997	19.996	100.767	19.996	2.415	0.509
555.000	356.010	79.997	19.995	100.763	19.997	2.332	0.521
555.500	356.268	79.997	19.995	100.760	19.995	2.469	0.499
556.000	356.525	79.996	19.995	100.756	19.991	2.717	0.501
556.500	356.774	79.997	19.996	100.758	19.995	2.475	0.511
557.000	357.038	79.996	19.996	100.763	19.998	2.285	0.509
557.500	357.298	79.996	19.996	100.766	19.996	2.418	0.518
558.000	357.552	79.996	19.995	100.768	19.996	2.411	0.519
558.500	357.826	79.997	19.996	100.772	19.993	2.587	0.521
559.000	358.073	79.996	19.996	100.774	19.994	2.552	0.524
559.500	358.313	79.994	19.996	100.771	19.996	2.396	0.504
560.000	358.572	79.994	19.995	100.769	19.995	2.458	0.492
560.500	358.808	79.995	19.996	100.768	19.994	2.536	0.497
561.000	359.055	79.995	19.997	100.768	19.995	2.509	0.489
561.500	359.325	79.994	19.997	100.769	19.994	2.527	0.500
562.000	359.605	79.993	19.997	100.775	19.993	2.592	0.534
562.500	359.844	79.996	19.997	100.776	19.997	2.343	0.535
563.000	360.101	79.994	19.997	100.777	19.995	2.475	0.507
563.500	360.353	79.994	19.997	100.777	19.995	2.502	0.502
564.000	360.547	79.994	19.997	100.776	19.996	2.415	0.478
564.500	360.824	79.994	19.997	100.771	19.992	2.701	0.459
565.000	361.083	79.994	19.997	100.768	19.993	2.591	0.503
565.500	361.350	79.994	19.997	100.766	19.993	2.645	0.531
566.000	361.563	79.994	19.996	100.764	19.993	2.612	0.504
566.500	361.838	79.993	19.997	100.758	19.994	2.565	0.484
567.000	362.100	79.995	19.997	100.756	19.995	2.469	0.512
567.500	362.350	79.995	19.998	100.759	19.998	2.261	0.524
568.001	362.597	79.994	19.998	100.762	19.998	2.274	0.504
568.501	362.846	79.994	19.997	100.758	19.998	2.249	0.497
569.000	363.133	79.995	19.996	100.759	20.000	2.162	0.516
569.500	363.384	79.995	19.996	100.758	19.998	2.310	0.537
570.000	363.612	79.994	19.996	100.753	19.998	2.310	0.509
570.500	363.862	79.995	19.996	100.746	19.997	2.363	0.479
571.000	364.132	79.994	19.997	100.745	19.995	2.508	0.499
571.500	364.367	79.995	19.997	100.745	19.998	2.265	0.512
572.000	364.602	79.994	19.996	100.748	19.997	2.330	0.487
572.500	364.859	79.995	19.996	100.752	19.995	2.462	0.481
573.000	365.112	79.996	19.996	100.759	19.997	2.374	0.500
573.500	365.360	79.995	19.997	100.763	19.997	2.381	0.505
574.000	365.593	79.994	19.997	100.766	19.997	2.346	0.491
574.500	365.832	79.995	19.996	100.767	19.996	2.439	0.476
575.000	366.102	79.995	19.996	100.768	19.994	2.540	0.491
575.500	366.363	79.995	19.995	100.768	19.993	2.610	0.520
576.000	366.584	79.995	19.995	100.772	19.993	2.623	0.506
576.500	366.854	79.994	19.995	100.774	19.992	2.701	0.486
577.000	367.108	79.995	19.996	100.772	19.995	2.491	0.507
577.500	367.354	79.995	19.997	100.772	19.994	2.522	0.512
578.000	367.611	79.996	19.996	100.771	19.995	2.486	0.502
578.500	367.819	79.994	19.995	100.771	19.992	2.690	0.484
579.000	368.064	79.996	19.996	100.773	19.993	2.587	0.459
579.500	368.315	79.996	19.996	100.779	19.997	2.354	0.474
580.000	368.587	79.995	19.995	100.780	19.996	2.435	0.509
580.500	368.824	79.996	19.995	100.783	19.996	2.412	0.516
581.000	369.116	79.994	19.996	100.783	19.993	2.585	0.519
581.500	369.347	79.995	19.995	100.783	19.996	2.390	0.526
582.000	369.605	79.996	19.995	100.783	19.996	2.410	0.506
582.500	369.825	79.994	19.995	100.782	19.996	2.401	0.483
583.000	370.093	79.994	19.996	100.782	19.998	2.274	0.483
583.500	370.378	79.996	19.995	100.778	20.000	2.148	0.521
584.000	370.589	79.995	19.996	100.774	20.001	2.113	0.525
584.500	370.854	79.996	19.995	100.770	20.000	2.169	0.486
585.000	371.104	79.995	19.995	100.768	20.000	2.151	0.495
585.500	371.353	79.995	19.996	100.768	20.000	2.165	0.507
586.000	371.620	79.996	19.996	100.769	19.997	2.337	0.507
586.500	371.837	79.994	19.996	100.768	19.999	2.231	0.500
587.000	372.079	79.996	19.994	100.769	19.999	2.242	0.472
587.500	372.341	79.996	19.995	100.767	19.999	2.193	0.482
588.000	372.634	79.995	19.997	100.766	20.001	2.090	0.529
588.500	372.827	79.995	19.995	100.765	20.002	2.046	0.521
589.000	373.117	79.995	19.996	100.767	19.999	2.242	0.485
589.500	373.365	79.995	19.996	100.771	20.002	2.033	0.510
590.000	373.588	79.994	19.996	100.772	20.002	1.997	0.504
590.500	373.784	79.993	19.996	100.770	20.001	2.062	0.445
591.000	374.073	79.995	19.996	100.773	20.001	2.091	0.452
591.500	374.297	79.994	19.996	100.775	19.999	2.202	0.499
592.000	374.596	79.995	19.996	100.776	20.002	2.035	0.518
592.500	374.828	79.995	19.996	100.778	19.999	2.191	0.527
593.000	375.091	79.994	19.996	100.781	19.999	2.245	0.513
593.500	375.333	79.994	19.996	100.782	19.999	2.239	0.500
594.000	375.627	79.994	19.996	100.782	19.999	2.220	0.520
594.500	375.836	79.995	19.997	100.779	19.997	2.321	0.519
595.000	376.100	79.995	19.997	100.773	19.999	2.221	0.488
595.500	376.336	79.994	19.997	100.768	20.002	2.006	0.487
596.000	376.639	79.995	19.996	100.764	20.001	2.073	0.520
596.500	376.878	79.993	19.995	100.764	19.999	2.200	0.541
597.000	377.124	79.995	19.995	100.766	19.997	2.379	0.513
597.500	377.392	79.993	19.997	100.771	20.000	2.160	0.500
598.000	377.630	79.994	19.995	100.777	19.999	2.181	0.510
598.500	377.911	79.995	19.995	100.782	19.999	2.225	0.512
599.000	378.114	79.996	19.996	100.778	20.001	2.062	0.501
599.500	378.378	79.996	19.995	100.775	19.999	2.218	0.475
600.000	378.611	79.995	19.996	100.776	19.996	2.395	0.482
600.500	378.912	79.994	19.996	100.773	19.998	2.294	0.516
601.000	379.149	79.995	19.996	100.772	19.996	2.420	0.536
601.500	379.392	79.995	19.995	100.776	19.999	2.187	0.509
602.000	379.641	79.994	19.996	100.775	19.995	2.449	0.486
602.500	379.898	79.994	19.996	100.772	19.998	2.256	0.499
603.000	380.130	79.996	19.996	100.771	20.000	2.120	0.497
603.500	380.372	79.996	19.995	100.771	20.003	1.937	0.482
604.000	380.641	79.997	19.996	100.766	20.002	2.021	0.493
604.500	380.902	79.996	19.995	100.762	19.999	2.194	0.520
605.000	381.125	79.997	19.995	100.762	20.001	2.093	0.507
605.500	381.355	79.998	19.996	100.760	19.999	2.200	0.469
606.000	381.632	79.997	19.996	100.757	20.003	1.972	0.480
606.500	381.873	79.997	19.996	100.757	19.999	2.203	0.512
607.000	382.150	79.997	19.995	100.760	19.997	2.379	0.518
607.500	382.414	79.996	19.996	100.761	19.998	2.308	0.530
608.000	382.620	79.997	19.995	100.758	20.001	2.053	0.506
608.500	382.876	79.998	19.996	100.755	20.000	2.136	0.466
609.000	383.125	79.997	19.995	100.752	19.997	2.364	0.483
609.500	383.382	79.998	19.995	100.749	20.001	2.066	0.505
610.000	383.663	79.996	19.994	100.749	19.999	2.243	0.522
610.500	383.853	79.998	19.996	100.752	19.999	2.227	0.504
611.000	384.128	79.997	19.995	100.755	20.001	2.091	0.468
611.500	384.370	79.997	19.995	100.757	19.999	2.192	0.491
612.000	384.636	79.998	19.995	100.761	20.001	2.102	0.512
612.500	384.886	79.997	19.995	100.764	19.998	2.290	0.512
613.000	385.120	79.997	19.996	100.764	19.999	2.223	0.500
613.500	385.376	79.997	19.995	100.763	19.998	2.255	0.487
614.000	385.594	79.998	19.997	100.768	20.006	1.734	0.482
614.500	385.873	79.998	19.996	100.768	20.000	2.140	0.486
615.000	386.128	79.997	19.995	100.769	20.002	1.999	0.516
615.500	386.314	79.998	19.994	100.770	20.001	2.066	0.487
616.000	386.608	79.997	19.995	100.770	20.004	1.912	0.461
616.500	386.816	79.996	19.995	100.770	20.004	1.894	0.491
617.000	387.101	79.998	19.995	100.764	20.005	1.829	0.497
617.500	387.387	79.997	19.995	100.757	20.003	1.937	0.532
618.000	387.624	79.997	19.996	100.756	20.002	1.988	0.547
618.500	387.866	79.996	19.997	100.754	20.001	2.055	0.502
619.000	388.109	79.995	19.997	100.747	20.000	2.134	0.482
619.500	388.343	79.997	19.996	100.749	20.003	1.915	0.480
620.000	388.622	79.996	19.997	100.751	20.000	2.149	0.495
620.500	388.871	79.997	19.995	100.751	20.002	2.031	0.521
621.000	389.102	79.997	19.996	100.753	20.002	2.006	0.504
621.500	389.377	79.997	19.996	100.756	20.003	1.951	0.493
622.000	389.596	79.997	19.996	100.756	20.001	2.094	0.500
622.500	389.857	79.997	19.995	100.754	20.002	2.027	0.487
623.000	390.096	79.996	19.996	100.751	20.001	2.069	0.490
623.500	390.351	79.997	19.996	100.748	20.002	1.995	0.497
624.000	390.604	79.998	19.996	100.747	20.003	1.948	0.501
624.500	390.854	79.997	19.995	100.746	19.999	2.189	0.506
625.000	391.116	79.998	19.997	100.747	20.002	2.013	0.507
625.500	391.374	79.998	19.997	100.753	20.000	2.178	0.516
626.000	391.634	79.997	19.997	100.754	20.001	2.111	0.519
626.500	391.854	79.997	19.996	100.754	20.001	2.093	0.499
627.000	392.097	79.997	19.997	100.758	20.003	1.963	0.471
627.500	392.381	79.997	19.996	100.757	20.002	2.037	0.495
628.000	392.629	79.996	19.996	100.753	20.001	2.104	0.530
628.500	392.875	79.998	19.996	100.754	20.001	2.069	0.513
629.000	393.121	79.998	19.996	100.754	20.004	1.901	0.493
629.500	393.406	79.999	19.996	100.750	20.000	2.122	0.512
630.000	393.647	79.999	19.996	100.751	20.001	2.064	0.528
630.500	393.910	79.998	19.996	100.752	19.999	2.183	0.515
631.000	394.172	79.999	19.996	100.749	19.999	2.181	0.514
631.500	394.396	79.999	19.996	100.747	20.000	2.179	0.505
632.001	394.642	79.999	19.996	100.747	19.996	2.389	0.478
632.500	394.906	79.999	19.996	100.745	20.001	2.111	0.490
633.000	395.163	79.998	19.996	100.743	20.000	2.176	0.516
633.500	395.426	79.999	19.997	100.747	19.999	2.235	0.521
634.000	395.621	79.998	19.995	100.751	20.003	1.966	0.489
634.500	395.898	79.998	19.996	100.755	20.002	1.991	0.465
635.000	396.146	79.999	19.996	100.758	20.001	2.069	0.498
635.500	396.386	79.999	19.996	100.759	20.002	1.989	0.506
636.000	396.662	79.999	19.995	100.760	20.005	1.832	0.502
636.500	396.927	79.999	19.995	100.757	20.005	1.829	0.529
637.000	397.126	79.998	19.995	100.754	20.001	2.093	0.503
637.500	397.394	79.998	19.995	100.751	20.001	2.058	0.466
638.000	397.672	79.998	19.995	100.755	19.999	2.181	0.506
638.500	397.917	79.996	19.996	100.753	19.999	2.245	0.534
639.000	398.130	79.997	19.995	100.754	20.001	2.094	0.491
639.500	398.373	79.996	19.996	100.756	20.002	2.000	0.457
640.000	398.634	79.996	19.995	100.756	19.999	2.218	0.480
640.500	398.915	79.996	19.996	100.750	20.000	2.140	0.523
641.000	399.092	79.996	19.996	100.749	20.001	2.077	0.500
641.500	399.375	79.995	19.997	100.747	20.002	1.984	0.459
642.000	399.669	79.995	19.996	100.746	19.999	2.183	0.518
642.500	399.900	79.995	19.997	100.744	19.998	2.252	0.551
643.000	400.149	79.995	19.997	100.745	20.001	2.058	0.503
643.500	400.385	79.995	19.996	100.744	19.998	2.275	0.483
644.000	400.608	79.995	19.996	100.745	20.002	1.982	0.472
644.500	400.856	79.994	19.996	100.744	19.999	2.198	0.464
645.000	401.115	79.993	19.997	100.745	19.997	2.375	0.489
645.500	401.397	79.995	19.996	100.744	20.002	1.991	0.524
646.000	401.581	79.995	19.996	100.745	20.002	2.011	0.504
646.500	401.874	79.994	19.997	100.746	20.003	1.962	0.472
647.000	402.119	79.997	19.997	100.748	20.004	1.887	0.508
647.500	402.360	79.995	19.996	100.751	19.999	2.203	0.512
648.000	402.602	79.995	19.996	100.752	20.001	2.051	0.484
648.500	402.843	79.995	19.998	100.751	19.999	2.208	0.483
649.000	403.093	79.996	19.997	100.753	20.001	2.053	0.487
649.500	403.373	79.996	19.996	100.751	20.002	1.982	0.511
650.000	403.609	79.995	19.996	100.750	20.001	2.109	0.523
650.500	403.901	79.994	19.998	100.754	20.002	2.047	0.521
651.000	404.124	79.995	19.997	100.759	20.000	2.151	0.521
651.500	404.371	79.993	19.996	100.759	20.001	2.051	0.493
652.000	404.624	79.994	19.997	100.760	20.000	2.152	0.485
652.500	404.838	79.994	19.995	100.759	19.999	2.205	0.484
653.000	405.108	79.995	19.996	100.758	19.998	2.256	0.476
653.500	405.377	79.995	19.997	100.754	20.001	2.049	0.511
654.000	405.590	79.994	19.997	100.752	19.997	2.348	0.510
654.500	405.841	79.995	19.996	100.750	19.995	2.471	0.473
655.000	406.123	79.995	19.998	100.751	19.999	2.226	0.498
655.500	406.363	79.995	19.996	100.748	20.000	2.172	0.527
656.000	406.600	79.994	19.997	100.750	19.999	2.200	0.500
656.500	406.861	79.995	19.996	100.753	19.999	2.227	0.488
657.000	407.077	79.994	19.996	100.753	19.998	2.265	0.488
657.500	407.352	79.995	19.997	100.752	20.002	1.992	0.484
658.000	407.616	79.995	19.997	100.753	20.000	2.136	0.515
658.500	407.857	79.994	19.997	100.751	20.000	2.156	0.522
659.000	408.139	79.994	19.997	100.748	20.000	2.120	0.514
659.500	408.395	79.994	19.997	100.747	20.001	2.064	0.530
660.000	408.655	79.995	19.996	100.747	19.999	2.181	0.527
660.500	408.880	79.994	19.997	100.746	19.998	2.302	0.501
661.000	409.152	79.995	19.997	100.745	19.999	2.232	0.491
661.500	409.383	79.995	19.997	100.745	19.999	2.190	0.500
662.000	409.647	79.995	19.997	100.750	20.000	2.179	0.499
662.500	409.855	79.994	19.997	100.751	19.999	2.183	0.484
663.000	410.089	79.994	19.997	100.751	20.002	2.027	0.457
663.500	410.404	79.993	19.997	100.752	19.999	2.217	0.495
664.000	410.627	79.995	19.996	100.753	19.998	2.277	0.543
664.500	410.914	79.994	19.997	100.749	19.998	2.252	0.524
665.000	411.114	79.996	19.996	100.748	20.002	2.047	0.499
665.500	411.415	79.996	19.996	100.748	20.000	2.149	0.494
666.000	411.617	79.995	19.996	100.749	19.999	2.190	0.502
666.500	411.897	79.996	19.996	100.752	20.000	2.174	0.492
667.000	412.112	79.995	19.996	100.756	20.001	2.084	0.489
667.500	412.361	79.996	19.996	100.760	19.999	2.219	0.480
668.000	412.664	79.995	19.995	100.762	20.000	2.165	0.508
668.500	412.882	79.995	19.995	100.763	19.998	2.250	0.536
669.000	413.153	79.996	19.996	100.763	19.999	2.191	0.505
669.500	413.418	79.995	19.995	100.760	19.999	2.238	0.512
670.000	413.668	79.995	19.997	100.756	19.996	2.388	0.526
670.500	413.897	79.996	19.996	100.754	19.996	2.426	0.497
671.000	414.146	79.994	19.995	100.751	19.998	2.310	0.479
671.500	414.387	79.996	19.996	100.746	19.998	2.272	0.484
672.000	414.606	79.995	19.996	100.746	19.998	2.279	0.475
672.500	414.889	79.995	19.997	100.746	19.995	2.456	0.481
673.000	415.114	79.995	19.997	100.746	19.996	2.407	0.505
673.500	415.416	79.995	19.997	100.746	19.998	2.311	0.518
674.000	415.627	79.995	19.997	100.746	20.002	2.040	0.520
674.500	415.895	79.995	19.997	100.746	20.000	2.143	0.495
675.000	416.124	79.995	19.995	100.745	19.999	2.205	0.488
675.500	416.397	79.995	19.997	100.744	20.000	2.154	0.500
676.000	416.641	79.996	19.995	100.743	20.001	2.109	0.510
676.500	416.937	79.995	19.996	100.745	19.998	2.259	0.528
677.000	417.165	79.995	19.996	100.745	20.000	2.161	0.532
677.500	417.436	79.995	19.996	100.746	20.002	2.031	0.512
678.000	417.681	79.995	19.996	100.748	20.000	2.125	0.508
678.500	417.950	79.993	19.995	100.753	20.000	2.138	0.515
679.000	418.162	79.996	19.996	100.755	19.998	2.288	0.498
679.500	418.431	79.996	19.996	100.759	20.002	2.029	0.481
680.000	418.718	79.994	19.996	100.764	19.998	2.259	0.518
680.500	418.951	79.995	19.996	100.770	20.004	1.879	0.538
681.000	419.216	79.995	19.996	100.766	19.999	2.194	0.509
681.500	419.428	79.994	19.996	100.765	20.003	1.966	0.488
682.000	419.709	79.996	19.996	100.762	20.003	1.924	0.485
682.500	419.980	79.996	19.995	100.756	20.001	2.109	0.522
683.000	420.211	79.997	19.996	100.751	20.001	2.080	0.527
683.500	420.447	79.995	19.996	100.750	20.002	2.004	0.484
684.000	420.704	79.995	19.996	100.748	19.999	2.201	0.480
684.500	420.972	79.996	19.996	100.748	20.002	2.039	0.509
685.000	421.219	79.996	19.996	100.749	20.000	2.163	0.520
685.500	421.475	79.998	19.995	100.748	20.000	2.135	0.509
686.000	421.715	79.998	19.995	100.750	20.003	1.946	0.499
686.500	421.994	79.998	19.995	100.750	20.002	1.984	0.508
687.000	422.245	79.997	19.996	100.748	19.999	2.236	0.524
687.500	422.460	79.997	19.996	100.748	20.000	2.131	0.498
688.000	422.745	79.998	19.995	100.748	20.004	1.908	0.483
688.500	423.021	79.996	19.995	100.748	20.002	2.044	0.531
689.000	423.267	79.997	19.996	100.751	20.003	1.963	0.542
689.500	423.512	79.998	19.996	100.753	20.004	1.870	0.507
690.000	423.766	79.995	19.996	100.752	20.004	1.868	0.495
690.500	424.012	79.996	19.996	100.755	20.003	1.946	0.499
691.000	424.288	79.997	19.996	100.755	20.000	2.134	0.511
691.500	424.518	79.995	19.996	100.753	20.004	1.852	0.514
692.000	424.790	79.998	19.997	100.750	20.003	1.937	0.504
692.501	425.035	79.998	19.994	100.750	19.999	2.212	0.509
693.000	425.322	79.998	19.995	100.747	20.001	2.065	0.524
693.500	425.558	79.997	19.996	100.745	20.001	2.056	0.527
694.000	425.817	79.997	19.995	100.745	20.002	1.990	0.509
694.500	426.052	79.996	19.997	100.751	20.004	1.878	0.494
695.000	426.310	79.997	19.996	100.753	20.001	2.107	0.494
695.500	426.570	79.996	19.995	100.755	20.003	1.923	0.506
696.000	426.813	79.996	19.996	100.756	20.003	1.955	0.510
696.500	427.094	79.996	19.995	100.761	20.006	1.776	0.513
697.000	427.313	79.996	19.997	100.757	20.002	1.986	0.512
697.500	427.588	79.996	19.997	100.754	20.003	1.952	0.497
698.000	427.865	79.996	19.997	100.756	20.001	2.062	0.523
698.500	428.092	79.997	19.995	100.760	19.999	2.219	0.528
699.000	428.334	79.996	19.996	100.757	19.999	2.189	0.487
699.500	428.597	79.997	19.995	100.756	19.999	2.196	0.486
700.000	428.815	79.996	19.996	100.755	20.000	2.152	0.493
700.500	429.074	79.995	19.996	100.751	20.001	2.080	0.479
701.000	429.352	79.996	19.996	100.746	20.000	2.141	0.508
701.500	429.593	79.997	19.995	100.744	20.000	2.158	0.528
702.000	429.868	79.997	19.996	100.743	19.997	2.340	0.517
702.500	430.156	79.996	19.995	100.744	20.000	2.122	0.540
703.000	430.357	79.996	19.996	100.744	19.998	2.312	0.526
703.500	430.638	79.998	19.995	100.744	20.003	1.957	0.486
704.000	430.891	79.996	19.997	100.744	20.001	2.058	0.508
704.500	431.155	79.998	19.996	100.747	20.004	1.890	0.525
705.000	431.380	79.998	19.996	100.751	20.002	2.033	0.503
705.500	431.643	79.997	19.995	100.754	20.002	1.988	0.489
706.000	431.863	79.997	19.995	100.755	20.003	1.943	0.486
706.500	432.107	79.997	19.995	100.756	20.002	1.997	0.473
707.000	432.387	79.997	19.996	100.754	20.003	1.981	0.494
707.500	432.627	79.997	19.994	100.753	20.000	2.136	0.522
708.000	432.883	79.997	19.995	100.755	19.998	2.274	0.508
708.500	433.175	79.997	19.996	100.755	20.003	1.959	0.522
709.000	433.436	79.997	19.995	100.755	20.003	1.937	0.551
709.500	433.708	79.996	19.995	100.754	20.001	2.080	0.544
710.000	433.950	79.998	19.995	100.754	20.001	2.069	0.524
710.500	434.171	79.998	19.995	100.749	20.000	2.167	0.488
711.000	434.468	79.999	19.995	100.749	19.999	2.192	0.490
711.500	434.719	79.997	19.994	100.748	20.003	1.979	0.533
712.000	434.956	79.998	19.996	100.750	20.001	2.076	0.518
712.500	435.187	79.998	19.995	100.750	20.001	2.073	0.478
713.000	435.445	79.997	19.995	100.751	19.997	2.355	0.478
713.500	435.713	79.999	19.995	100.751	19.998	2.270	0.507
714.000	435.935	79.998	19.995	100.754	19.998	2.250	0.508
714.500	436.168	79.998	19.996	100.751	19.998	2.257	0.472
715.000	436.451	79.998	19.996	100.749	20.001	2.086	0.485
715.500	436.710	79.998	19.995	100.749	19.999	2.214	0.529
716.000	436.932	79.998	19.996	100.751	19.999	2.225	0.512
716.500	437.206	79.998	19.996	100.751	19.999	2.218	0.489
717.000	437.423	79.998	19.995	100.753	19.999	2.223	0.494
717.500	437.701	79.997	19.996	100.756	19.999	2.183	0.493
718.000	437.954	79.998	19.995	100.757	19.998	2.279	0.513
718.500	438.204	79.998	19.996	100.755	20.000	2.174	0.518
719.000	438.480	79.998	19.995	100.753	19.995	2.510	0.515
719.500	438.715	79.997	19.996	100.754	20.000	2.176	0.518
720.000	439.015	79.998	19.996	100.755	19.995	2.458	0.523
720.500	439.259	79.999	19.996	100.753	19.998	2.261	0.539
721.000	439.465	79.996	19.996	100.753	19.997	2.328	0.497
721.500	439.731	79.997	19.997	100.754	19.996	2.406	0.461
722.000	439.977	79.996	19.995	100.751	19.998	2.297	0.492
722.501	440.259	79.995	19.996	100.747	19.996	2.436	0.520
723.000	440.470	79.995	19.996	100.747	19.997	2.359	0.511
723.500	440.752	79.994	19.996	100.746	19.995	2.476	0.493
724.000	440.994	79.995	19.997	100.748	19.997	2.324	0.508
724.500	441.220	79.995	19.997	100.752	19.996	2.429	0.496
725.000	441.476	79.994	19.996	100.753	19.995	2.453	0.475
725.500	441.741	79.995	19.996	100.757	19.996	2.422	0.501
726.001	441.985	79.995	19.996	100.762	19.996	2.387	0.515
726.500	442.229	79.994	19.996	100.763	19.997	2.337	0.499
727.000	442.455	79.995	19.996	100.761	19.998	2.277	0.479
727.500	442.723	79.995	19.996	100.761	19.999	2.210	0.482
728.000	442.984	79.996	19.996	100.757	20.001	2.060	0.511
728.500	443.216	79.994	19.996	100.753	20.000	2.167	0.511
729.000	443.497	79.996	19.996	100.749	19.999	2.190	0.503
729.500	443.747	79.995	19.996	100.747	19.997	2.319	0.522
730.000	443.988	79.995	19.996	100.748	20.002	1.997	0.511
730.500	444.210	79.995	19.997	100.750	19.997	2.351	0.477
731.000	444.486	79.994	19.996	100.753	20.001	2.083	0.481
731.500	444.702	79.994	19.996	100.755	20.000	2.147	0.495
732.000	444.999	79.996	19.996	100.755	19.996	2.398	0.502
732.500	445.236	79.995	19.995	100.753	19.999	2.246	0.524
733.000	445.450	79.996	19.995	100.755	19.999	2.183	0.493
733.500	445.704	79.996	19.996	100.755	19.997	2.355	0.460
734.000	445.955	79.994	19.995	100.755	20.001	2.058	0.486
734.500	446.173	79.996	19.996	100.755	19.995	2.496	0.487
735.000	446.450	79.995	19.997	100.754	19.998	2.259	0.482
735.500	446.681	79.996	19.996	100.750	19.997	2.362	0.502
736.000	446.944	79.996	19.996	100.746	20.002	2.004	0.501
736.500	447.191	79.996	19.996	100.745	19.998	2.293	0.502
737.000	447.422	79.995	19.996	100.746	19.995	2.476	0.494
737.500	447.657	79.995	19.997	100.745	19.997	2.380	0.472
738.000	447.907	79.995	19.995	100.745	20.000	2.143	0.475
738.500	448.157	79.995	19.996	100.745	20.003	1.973	0.493
739.000	448.432	79.995	19.997	100.744	19.999	2.215	0.513
739.500	448.652	79.995	19.997	100.743	20.000	2.120	0.510
740.000	448.945	79.995	19.997	100.744	19.999	2.192	0.504
740.500	449.185	79.996	19.997	100.745	20.001	2.107	0.523
741.000	449.437	79.996	19.998	100.745	20.000	2.167	0.512
741.500	449.711	79.996	19.995	100.745	19.997	2.331	0.509
742.000	449.921	79.996	19.996	100.744	20.000	2.130	0.505
742.500	450.158	79.995	19.996	100.744	20.000	2.174	0.466
743.000	450.439	79.995	19.997	100.743	19.999	2.244	0.482
743.500	450.662	79.995	19.996	100.743	19.996	2.438	0.511
744.000	450.934	79.996	19.996	100.743	19.999	2.234	0.500
744.500	451.166	79.995	19.996	100.746	19.996	2.433	0.500
745.000	451.425	79.997	19.996	100.746	19.996	2.444	0.498
745.500	451.671	79.996	19.997	100.746	19.996	2.443	0.498
746.000	451.880	79.995	19.997	100.746	20.000	2.131	0.480
746.500	452.132	79.995	19.997	100.745	20.000	2.178	0.458
747.000	452.356	79.994	19.997	100.742	19.998	2.275	0.469
747.500	452.640	79.995	19.996	100.742	19.999	2.217	0.492
748.000	452.824	79.994	19.996	100.742	19.999	2.203	0.488
748.500	453.082	79.993	19.997	100.741	20.001	2.065	0.455
749.000	453.305	79.995	19.998	100.741	20.002	2.040	0.461
749.500	453.580	79.993	19.996	100.741	20.005	1.832	0.489
750.000	453.824	79.994	19.997	100.741	20.001	2.078	0.508
750.500	454.045	79.996	19.998	100.742	19.999	2.235	0.492
751.000	454.319	79.993	19.997	100.742	19.999	2.183	0.480
751.500	454.540	79.994	19.997	100.742	20.000	2.131	0.495
752.000	454.789	79.995	19.997	100.743	19.997	2.349	0.483
752.500	455.023	79.995	19.997	100.742	20.002	2.038	0.476
753.000	455.262	79.995	19.997	100.741	20.000	2.121	0.478
753.500	455.526	79.994	19.997	100.741	20.002	1.991	0.488
754.000	455.762	79.995	19.999	100.745	20.000	2.123	0.502
754.500	456.020	79.995	19.996	100.746	20.000	2.156	0.497
755.000	456.243	79.995	19.996	100.747	20.000	2.116	0.487
755.500	456.461	79.994	19.996	100.747	20.000	2.134	0.461
756.000	456.704	79.994	19.997	100.748	20.003	1.915	0.451
756.500	456.950	79.994	19.996	100.745	20.000	2.156	0.475
757.000	457.174	79.995	19.997	100.744	20.002	2.027	0.480
757.500	457.432	79.995	19.998	100.744	19.999	2.185	0.476
758.000	457.649	79.994	19.997	100.744	19.997	2.342	0.479
758.500	457.896	79.996	19.996	100.743	20.001	2.049	0.469
759.000	458.114	79.995	19.997	100.742	20.001	2.094	0.464
759.500	458.375	79.994	19.995	100.742	20.000	2.147	0.472
760.000	458.622	79.995	19.995	100.742	19.998	2.259	0.493
760.500	458.853	79.995	19.996	100.742	20.000	2.116	0.493
761.000	459.083	79.995	19.996	100.743	19.995	2.478	0.469
761.500	459.334	79.995	19.996	100.743	19.998	2.299	0.471
762.000	459.583	79.995	19.996	100.744	20.000	2.158	0.491
762.500	459.859	79.996	19.997	100.744	19.993	2.588	0.512
763.000	460.058	79.996	19.997	100.744	19.995	2.511	0.499
763.500	460.333	79.996	19.998	100.743	19.998	2.254	0.474
764.000	460.555	79.996	19.995	100.743	19.996	2.391	0.486
764.500	460.756	79.996	19.997	100.743	19.998	2.293	0.460
765.000	460.998	79.997	19.996	100.743	19.998	2.257	0.433
765.500	461.262	79.995	19.996	100.743	20.000	2.163	0.475
766.000	461.491	79.996	19.996	100.744	19.998	2.311	0.500
766.500	461.727	79.996	19.997	100.743	19.996	2.391	0.479
767.000	461.959	79.997	19.997	100.744	19.995	2.494	0.467
767.500	462.237	79.998	19.996	100.745	19.995	2.460	0.489
768.000	462.467	79.998	19.995	100.746	19.997	2.364	0.509
768.500	462.673	79.996	19.996	100.745	19.994	2.536	0.472
769.000	462.950	79.998	19.996	100.745	19.998	2.310	0.459
769.500	463.123	79.996	19.996	100.745	19.998	2.288	0.467
770.000	463.374	79.998	19.995	100.744	19.992	2.691	0.437
770.500	463.676	79.998	19.995	100.744	19.995	2.454	0.488
771.000	463.868	79.997	19.995	100.746	19.996	2.389	0.523
771.500	464.107	79.996	19.995	100.750	19.998	2.302	0.462
772.000	464.359	79.995	19.996	100.754	19.994	2.545	0.461
772.500	464.581	79.997	19.995	100.757	19.997	2.378	0.482
773.000	464.854	79.997	19.995	100.757	19.997	2.348	0.485
773.500	465.079	79.995	19.995	100.756	19.993	2.628	0.497
774.000	465.308	79.995	19.994	100.753	19.994	2.545	0.476
774.500	465.571	79.996	19.995	100.751	19.997	2.319	0.472
775.000	465.778	79.996	19.995	100.750	19.995	2.481	0.481
775.500	466.067	79.999	19.995	100.751	19.997	2.330	0.483
776.000	466.301	79.996	19.995	100.750	19.992	2.668	0.509
776.500	466.514	79.996	19.996	100.750	19.998	2.292	0.485
777.000	466.763	79.995	19.995	100.748	19.997	2.368	0.454
777.500	467.005	79.996	19.995	100.747	19.997	2.364	0.477
778.001	467.264	79.996	19.996	100.747	19.991	2.740	0.496
778.500	467.506	79.996	19.996	100.746	19.994	2.547	0.501
779.000	467.776	79.996	19.994	100.746	19.997	2.371	0.506
779.500	468.004	79.996	19.995	100.746	19.995	2.501	0.505
780.000	468.238	79.996	19.996	100.747	19.994	2.550	0.480
780.500	468.509	79.995	19.995	100.746	19.995	2.478	0.484
781.000	468.737	79.996	19.995	100.746	19.999	2.209	0.501
781.500	468.977	79.996	19.996	100.746	19.995	2.464	0.483
782.000	469.208	79.994	19.995	100.746	19.994	2.552	0.470
782.500	469.480	79.995	19.996	100.745	19.999	2.210	0.487
783.000	469.706	79.996	19.995	100.744	19.997	2.321	0.500
783.500	469.987	79.994	19.995	100.746	19.998	2.283	0.503
784.000	470.232	79.995	19.994	100.747	19.998	2.286	0.517
784.500	470.478	79.995	19.995	100.747	19.997	2.373	0.509
785.000	470.732	79.996	19.996	100.747	19.996	2.424	0.495
785.500	471.007	79.996	19.995	100.748	19.997	2.339	0.515
786.000	471.228	79.995	19.995	100.748	19.994	2.567	0.513
786.500	471.494	79.996	19.995	100.748	19.996	2.440	0.491
787.000	471.727	79.996	19.995	100.748	19.995	2.496	0.493
787.500	471.983	79.996	19.995	100.748	19.997	2.342	0.494
788.000	472.230	79.997	19.994	100.746	19.999	2.203	0.496
788.500	472.472	79.997	19.996	100.745	19.998	2.299	0.496
789.000	472.733	79.997	19.996	100.745	19.994	2.516	0.495
789.500	472.976	79.996	19.995	100.745	20.000	2.136	0.503
790.000	473.250	79.996	19.994	100.746	20.001	2.073	0.511
790.500	473.518	79.997	19.994	100.747	19.995	2.458	0.530
791.000	473.756	79.997	19.995	100.747	19.996	2.431	0.524
791.500	474.040	79.997	19.994	100.751	20.000	2.158	0.514
792.000	474.281	79.997	19.995	100.756	19.995	2.474	0.524
792.500	474.564	79.997	19.995	100.755	19.998	2.272	0.524
793.000	474.787	79.997	19.995	100.756	19.999	2.188	0.515
793.500	475.039	79.997	19.994	100.756	19.996	2.443	0.490
794.000	475.311	79.999	19.994	100.753	20.002	2.044	0.500
794.500	475.572	79.997	19.995	100.748	19.994	2.557	0.529
795.000	475.818	79.997	19.994	100.747	19.997	2.322	0.520
795.500	476.061	79.998	19.995	100.746	19.999	2.225	0.498
796.001	476.283	79.998	19.995	100.748	19.997	2.315	0.477
796.501	476.541	79.998	19.995	100.749	19.995	2.496	0.473
797.001	476.819	79.999	19.995	100.749	19.999	2.208	0.509
797.500	477.052	79.998	19.995	100.749	20.000	2.125	0.524
798.000	477.317	79.998	19.994	100.749	20.001	2.103	0.504
798.500	477.575	79.998	19.995	100.747	19.999	2.205	0.510
799.000	477.840	79.998	19.994	100.748	19.996	2.445	0.523
799.500	478.057	79.999	19.994	100.749	19.996	2.422	0.502
800.000	478.315	79.998	19.995	100.750	19.998	2.290	0.478
800.500	478.580	79.998	19.995	100.751	19.997	2.319	0.499
801.000	478.829	79.997	19.995	100.750	19.998	2.255	0.519
801.500	479.050	79.999	19.995	100.747	19.999	2.206	0.492
802.000	479.339	79.997	19.996	100.745	19.999	2.197	0.490
802.500	479.559	79.998	19.996	100.743	19.997	2.367	0.509
803.000	479.837	79.997	19.995	100.742	19.996	2.396	0.504
803.501	480.057	79.997	19.996	100.741	19.999	2.199	0.498
804.000	480.324	79.995	19.997	100.741	19.997	2.341	0.493
804.500	480.557	79.996	19.995	100.741	19.998	2.250	0.494
805.000	480.841	79.996	19.995	100.741	19.999	2.203	0.509
805.500	481.048	79.995	19.996	100.741	19.998	2.283	0.504
806.000	481.305	79.995	19.996	100.742	20.000	2.154	0.478
806.500	481.532	79.996	19.996	100.745	20.000	2.151	0.474
807.000	481.799	79.995	19.994	100.745	20.000	2.140	0.489
807.500	482.015	79.996	19.995	100.745	19.999	2.205	0.489
808.000	482.281	79.995	19.997	100.745	19.997	2.333	0.482
808.500	482.535	79.995	19.996	100.745	19.995	2.458	0.501
809.000	482.770	79.995	19.996	100.742	20.000	2.147	0.504
809.500	483.000	79.996	19.996	100.742	19.994	2.558	0.477
810.000	483.220	79.996	19.996	100.742	19.996	2.408	0.458
810.500	483.467	79.995	19.995	100.742	19.996	2.420	0.459
811.000	483.734	79.996	19.996	100.740	19.995	2.495	0.491
811.500	483.998	79.997	19.996	100.740	19.994	2.554	0.523
812.000	484.224	79.996	19.997	100.741	19.992	2.654	0.510
812.500	484.469	79.995	19.996	100.741	19.994	2.576	0.480
813.000	484.706	79.996	19.997	100.743	19.997	2.348	0.476
813.500	484.985	79.997	19.996	100.744	19.994	2.543	0.499
814.000	485.202	79.995	19.997	100.745	19.995	2.492	0.506
814.500	485.463	79.996	19.997	100.748	19.993	2.581	0.487
815.000	485.755	79.996	19.996	100.754	19.995	2.491	0.515
815.500	485.941	79.996	19.997	100.759	19.995	2.507	0.515
816.000	486.233	79.997	19.997	100.764	19.995	2.447	0.478
816.500	486.478	79.995	19.995	100.766	19.993	2.616	0.508
817.000	486.739	79.996	19.997	100.764	19.995	2.487	0.522
817.500	487.011	79.995	19.997	100.760	19.996	2.435	0.520
818.000	487.245	79.996	19.997	100.759	19.992	2.650	0.520
818.500	487.502	79.996	19.997	100.759	19.988	2.945	0.498
819.000	487.765	79.995	19.996	100.762	19.989	2.880	0.505
819.500	488.000	79.995	19.996	100.762	19.988	2.914	0.509
820.000	488.284	79.996	19.998	100.764	19.990	2.814	0.508
820.500	488.531	79.996	19.998	100.763	19.990	2.800	0.525
821.000	488.789	79.997	19.996	100.762	19.990	2.789	0.518
821.500	489.057	79.995	19.996	100.762	19.993	2.621	0.516
822.000	489.347	79.995	19.996	100.767	19.991	2.762	0.542
822.500	489.624	79.997	19.997	100.770	19.995	2.509	0.563
823.000	489.876	79.998	19.997	100.771	19.994	2.570	0.548
823.500	490.128	79.997	19.995	100.769	19.988	2.950	0.516
824.000	490.392	79.997	19.998	100.765	19.989	2.849	0.510
824.500	490.639	79.995	19.996	100.758	19.989	2.897	0.513
825.000	490.899	79.996	19.995	100.753	19.988	2.925	0.509
825.500	491.177	79.997	19.996	100.752	19.988	2.972	0.523
826.000	491.445	79.996	19.996	100.756	19.990	2.832	0.542
826.500	491.734	79.996	19.998	100.759	19.987	2.993	0.551
827.000	492.005	79.996	19.996	100.762	19.991	2.726	0.559
827.500	492.257	79.996	19.995	100.763	19.991	2.713	0.542
828.000	492.549	79.996	19.996	100.760	19.988	2.926	0.533
828.500	492.838	79.995	19.997	100.756	19.989	2.847	0.562
829.000	493.114	79.996	19.996	100.756	19.986	3.080	0.573
829.500	493.412	79.996	19.996	100.753	19.991	2.764	0.570
830.000	493.647	79.995	19.996	100.753	19.992	2.659	0.554
830.500	493.934	79.995	19.996	100.756	19.986	3.052	0.527
831.000	494.210	79.994	19.996	100.756	19.987	3.019	0.542
831.500	494.485	79.995	19.996	100.756	19.985	3.178	0.557
832.000	494.775	79.995	19.997	100.760	19.987	2.990	0.558
832.500	495.046	79.995	19.996	100.758	19.988	2.945	0.564
833.000	495.343	79.995	19.996	100.753	19.985	3.115	0.565
833.500	495.643	79.995	19.995	100.751	19.987	2.983	0.582
834.000	495.896	79.994	19.996	100.748	19.985	3.131	0.575
834.500	496.162	79.994	19.996	100.744	19.987	2.985	0.536
835.000	496.471	79.995	19.996	100.744	19.990	2.818	0.547
835.500	496.744	79.994	19.997	100.744	19.990	2.836	0.578
836.000	497.025	79.995	19.996	100.745	19.986	3.093	0.568
836.500	497.302	79.994	19.996	100.745	19.987	2.986	0.556
837.000	497.587	79.995	19.997	100.745	19.988	2.966	0.560
837.500	497.848	79.993	19.996	100.746	19.989	2.907	0.554
838.000	498.108	79.995	19.997	100.745	19.986	3.067	0.534
838.500	498.420	79.993	19.997	100.746	19.986	3.057	0.547
839.000	498.711	79.995	19.998	100.746	19.989	2.905	0.588
839.500	498.980	79.994	19.997	100.748	19.988	2.939	0.582
840.000	499.295	79.995	19.997	100.755	19.985	3.151	0.572
840.500	499.565	79.994	19.997	100.758	19.989	2.896	0.584
841.000	499.832	79.995	19.997	100.760	19.989	2.907	0.561
841.500	500.107	79.994	19.997	100.764	19.987	3.024	0.539
842.000	500.408	79.993	19.997	100.764	19.990	2.823	0.559
842.500	500.664	79.994	19.997	100.759	19.987	3.019	0.567
843.000	500.963	79.994	19.998	100.756	19.989	2.869	0.557
843.500	501.254	79.995	19.999	100.755	19.988	2.934	0.573
844.000	501.570	79.993	19.997	100.751	19.990	2.809	0.598
844.500	501.836	79.995	19.997	100.752	19.986	3.088	0.594
845.000	502.146	79.995	19.996	100.751	19.985	3.126	0.579
845.500	502.405	79.994	19.996	100.756	19.985	3.135	0.573
846.000	502.678	79.994	19.998	100.757	19.988	2.963	0.550
846.500	502.955	79.995	19.997	100.756	19.986	3.057	0.541
847.000	503.260	79.997	19.997	100.755	19.989	2.889	0.566
847.500	503.571	79.995	19.996	100.753	19.987	2.983	0.599
848.000	503.825	79.997	19.997	100.748	19.992	2.662	0.591
848.500	504.149	79.996	19.997	100.747	19.988	2.914	0.572
849.000	504.405	79.996	19.996	100.746	19.986	3.109	0.579
849.500	504.717	79.996	19.997	100.747	19.986	3.109	0.574
850.001	504.978	79.995	19.995	100.749	19.987	2.979	0.570
850.500	505.247	79.996	19.997	100.749	19.987	2.995	0.551
851.000	505.553	79.998	19.996	100.749	19.988	2.919	0.552
851.500	505.847	79.997	19.997	100.750	19.988	2.948	0.587
852.000	506.143	79.996	19.996	100.749	19.985	3.118	0.595
852.500	506.433	79.997	19.995	100.748	19.992	2.677	0.589
853.000	506.708	79.996	19.995	100.753	19.991	2.755	0.576
853.500	506.993	79.998	19.996	100.756	19.990	2.780	0.562
854.000	507.251	79.996	19.995	100.759	19.989	2.856	0.551
854.500	507.574	79.996	19.995	100.761	19.992	2.680	0.562
855.000	507.871	79.997	19.994	100.759	19.989	2.906	0.601
855.500	508.136	79.996	19.995	100.756	19.988	2.932	0.591
856.000	508.439	79.995	19.994	100.753	19.988	2.963	0.565
856.500	508.710	79.996	19.996	100.753	19.991	2.778	0.571
857.000	509.003	79.996	19.995	100.752	19.990	2.802	0.569
857.500	509.297	79.994	19.995	100.752	19.987	3.017	0.575
858.000	509.565	79.996	19.996	100.751	19.989	2.856	0.574
858.501	509.844	79.996	19.994	100.750	19.989	2.867	0.554
859.001	510.160	79.996	19.994	100.748	19.989	2.874	0.571
859.501	510.463	79.994	19.994	100.751	19.985	3.115	0.607
860.000	510.691	79.994	19.994	100.755	19.989	2.907	0.575
860.500	511.023	79.995	19.996	100.756	19.988	2.928	0.546
861.000	511.256	79.995	19.995	100.756	19.991	2.747	0.562
861.500	511.570	79.995	19.996	100.755	19.989	2.852	0.556
862.000	511.823	79.996	19.997	100.754	19.989	2.879	0.557
862.500	512.127	79.995	19.995	100.754	19.993	2.604	0.562
863.000	512.423	79.994	19.995	100.758	19.991	2.742	0.578
863.500	512.701	79.996	19.995	100.758	19.987	3.019	0.587
864.000	512.982	79.995	19.995	100.758	19.991	2.715	0.566
864.500	513.243	79.997	19.996	100.755	19.991	2.722	0.551
865.001	513.533	79.996	19.995	100.751	19.993	2.646	0.547
865.501	513.856	79.996	19.995	100.747	19.992	2.662	0.582
866.001	514.148	79.995	19.996	100.746	19.990	2.800	0.613
866.501	514.452	79.996	19.995	100.749	19.990	2.794	0.605
867.000	514.719	79.996	19.997	100.750	19.989	2.896	0.583
867.500	515.028	79.994	19.995	100.749	19.989	2.894	0.574
868.000	515.285	79.996	19.996	100.749	19.986	3.060	0.571
868.500	515.603	79.995	19.996	100.748	19.989	2.910	0.571
869.000	515.889	79.996	19.995	100.746	19.995	2.492	0.589
869.500	516.150	79.995	19.995	100.745	19.994	2.543	0.575
870.000	516.467	79.997	19.996	100.748	19.989	2.905	0.562
870.500	516.736	79.995	19.995	100.748	19.989	2.890	0.582
871.000	517.049	79.995	19.996	100.750	19.989	2.856	0.584
871.500	517.323	79.996	19.995	100.751	19.985	3.147	0.584
872.000	517.575	79.996	19.995	100.751	19.988	2.962	0.557
872.500	517.906	79.997	19.995	100.747	19.987	2.997	0.555
873.000	518.171	79.998	19.997	100.748	19.989	2.903	0.589
873.500	518.458	79.996	19.995	100.746	19.988	2.935	0.574
874.000	518.732	79.996	19.996	100.746	19.986	3.087	0.556
874.500	519.017	79.997	19.995	100.749	19.989	2.870	0.560
875.000	519.314	79.997	19.997	100.749	19.988	2.939	0.571
875.500	519.603	79.997	19.995	100.748	19.988	2.955	0.584
876.000	519.924	79.999	19.996	100.748	19.989	2.892	0.598
876.500	520.198	79.999	19.995	100.746	19.991	2.765	0.603
877.000	520.460	79.997	19.995	100.744	19.990	2.798	0.566
877.500	520.745	79.997	19.995	100.744	19.992	2.695	0.542
878.000	521.041	79.999	19.994	100.742	19.992	2.653	0.564
878.500	521.343	79.996	19.996	100.742	19.987	2.980	0.589
879.000	521.631	79.998	19.996	100.741	19.990	2.803	0.594
879.500	521.898	79.996	19.995	100.741	19.986	3.060	0.572
880.000	522.151	79.998	19.995	100.741	19.993	2.641	0.538
880.500	522.435	79.997	19.996	100.742	19.997	2.355	0.529
881.000	522.733	79.996	19.996	100.743	19.988	2.919	0.559
881.500	522.979	79.996	19.994	100.743	19.992	2.686	0.563
882.000	523.257	79.997	19.996	100.743	19.993	2.612	0.534
882.500	523.553	79.997	19.995	100.743	19.989	2.865	0.549
883.000	523.834	79.999	19.997	100.743	19.990	2.807	0.575
883.500	524.141	79.997	19.996	100.742	19.991	2.731	0.582
884.000	524.396	79.997	19.995	100.742	19.992	2.666	0.575
884.500	524.695	79.996	19.994	100.741	19.988	2.919	0.558
885.000	524.930	79.995	19.995	100.738	19.994	2.548	0.544
885.500	525.230	79.995	19.995	100.738	19.992	2.651	0.535
886.000	525.508	79.996	19.996	100.738	19.986	3.046	0.557
886.500	525.799	79.995	19.996	100.737	19.989	2.894	0.573
887.000	526.065	79.995	19.996	100.738	19.988	2.957	0.563
887.501	526.340	79.994	19.995	100.741	19.990	2.780	0.549
888.001	526.657	79.994	19.995	100.742	19.988	2.966	0.566
888.500	526.923	79.995	19.995	100.740	19.989	2.881	0.587
889.000	527.162	79.996	19.995	100.741	19.995	2.481	0.544
889.500	527.476	79.996	19.995	100.740	19.987	3.004	0.529
890.000	527.784	79.995	19.996	100.740	19.991	2.771	0.587
890.500	528.062	79.996	19.997	100.740	19.995	2.454	0.604
891.000	528.334	79.995	19.996	100.742	19.991	2.753	0.568
891.500	528.630	79.993	19.995	100.742	19.992	2.691	0.559
892.000	528.919	79.995	19.997	100.743	19.990	2.823	0.576
892.500	529.192	79.994	19.996	100.743	19.995	2.512	0.573
893.000	529.466	79.995	19.996	100.743	19.990	2.802	0.555
893.500	529.732	79.995	19.994	100.743	19.988	2.917	0.544
894.000	530.017	79.994	19.996	100.744	19.990	2.805	0.546
894.500	530.277	79.995	19.997	100.745	19.993	2.633	0.548
895.000	530.599	79.996	19.997	100.745	19.992	2.684	0.564
895.500	530.856	79.995	19.996	100.745	19.991	2.733	0.580
896.000	531.147	79.994	19.996	100.747	19.991	2.762	0.563
896.500	531.373	79.994	19.996	100.746	19.989	2.863	0.533
897.000	531.693	79.995	19.995	100.746	19.990	2.789	0.531
897.500	531.953	79.995	19.995	100.746	19.990	2.839	0.563
898.000	532.244	79.993	19.995	100.746	19.987	2.993	0.566
898.500	532.516	79.996	19.995	100.745	19.988	2.915	0.557
899.000	532.793	79.994	19.996	100.744	19.990	2.798	0.556
899.500	533.091	79.994	19.996	100.744	19.990	2.829	0.562
900.000	533.330	79.993	19.996	100.744	19.987	3.002	0.556
900.500	533.620	79.995	19.996	100.745	19.987	2.993	0.533
901.000	533.844	79.996	19.996	100.745	19.992	2.677	0.522
901.500	534.139	79.996	19.996	100.745	19.992	2.668	0.517
902.000	534.448	79.995	19.995	100.745	19.989	2.887	0.561
902.500	534.711	79.995	19.995	100.745	19.987	3.015	0.588
903.000	535.046	79.995	19.996	100.743	19.987	2.982	0.585
903.500	535.294	79.995	19.995	100.744	19.991	2.756	0.591
904.000	535.556	79.995	19.996	100.744	19.989	2.883	0.547
904.500	535.844	79.995	19.996	100.743	19.989	2.867	0.530
905.000	536.109	79.996	19.996	100.744	19.987	2.995	0.551
905.500	536.397	79.995	19.995	100.746	19.985	3.145	0.553
906.000	536.652	79.995	19.996	100.745	19.990	2.829	0.548
906.500	536.915	79.995	19.996	100.745	19.989	2.896	0.531
907.000	537.203	79.995	19.995	100.745	19.987	2.997	0.535
907.500	537.457	79.995	19.995	100.745	19.988	2.934	0.547
908.000	537.733	79.994	19.996	100.744	19.987	3.040	0.536
908.500	538.000	79.994	19.996	100.744	19.991	2.724	0.536
909.000	538.251	79.995	19.996	100.744	19.990	2.783	0.531
909.500	538.529	79.993	19.996	100.744	19.992	2.673	0.523
910.000	538.841	79.996	19.996	100.744	19.991	2.753	0.559
910.500	539.039	79.996	19.996	100.745	19.989	2.867	0.550
911.000	539.312	79.996	19.995	100.745	19.991	2.729	0.491
911.500	539.601	79.996	19.997	100.744	19.989	2.908	0.517
912.000	539.877	79.995	19.996	100.745	19.991	2.715	0.563
912.500	540.125	79.996	19.996	100.744	19.992	2.684	0.544
913.001	540.400	79.997	19.997	100.744	19.990	2.796	0.524
913.500	540.666	79.996	19.996	100.744	19.991	2.762	0.532
914.000	540.930	79.994	19.996	100.744	19.986	3.067	0.535
914.500	541.207	79.996	19.996	100.744	19.991	2.722	0.535
915.000	541.484	79.995	19.997	100.745	19.992	2.661	0.547
915.500	541.750	79.995	19.996	100.745	19.990	2.818	0.549
916.000	542.016	79.995	19.996	100.745	19.991	2.778	0.538
916.500	542.252	79.995	19.997	100.746	19.989	2.860	0.517
917.000	542.550	79.994	19.997	100.746	19.988	2.934	0.518
917.500	542.813	79.995	19.997	100.745	19.993	2.633	0.547
918.000	543.068	79.995	19.996	100.745	19.987	3.010	0.539
918.500	543.360	79.994	19.996	100.745	19.993	2.624	0.533
919.000	543.603	79.995	19.996	100.745	19.992	2.650	0.541
919.500	543.880	79.995	19.995	100.745	19.989	2.877	0.527
920.000	544.121	79.994	19.997	100.745	19.990	2.796	0.519
920.500	544.406	79.995	19.996	100.745	19.992	2.700	0.522
921.000	544.666	79.994	19.995	100.746	19.987	3.022	0.535
921.500	544.924	79.995	19.996	100.745	19.990	2.832	0.532
922.000	545.210	79.993	19.995	100.745	19.988	2.955	0.531
922.500	545.470	79.995	19.995	100.745	19.989	2.904	0.545
923.000	545.754	79.995	19.996	100.746	19.991	2.727	0.545
923.500	546.003	79.995	19.996	100.745	19.989	2.881	0.538
924.000	546.257	79.994	19.997	100.746	19.997	2.349	0.518
924.500	546.531	79.994	19.996	100.747	19.992	2.687	0.516
925.000	546.815	79.995	19.996	100.747	19.988	2.960	0.543
925.500	547.057	79.996	19.996	100.748	19.988	2.964	0.542
926.000	547.318	79.996	19.996	100.748	19.987	3.022	0.515
926.500	547.590	79.996	19.997	100.748	19.989	2.904	0.519
927.000	547.869	79.994	19.996	100.749	19.990	2.812	0.542
927.500	548.118	79.997	19.997	100.749	19.992	2.684	0.539
928.000	548.385	79.997	19.996	100.747	19.989	2.859	0.522
928.500	548.659	79.994	19.996	100.746	19.992	2.686	0.529
929.000	548.937	79.996	19.997	100.746	19.992	2.695	0.547
929.500	549.208	79.998	19.997	100.745	19.991	2.716	0.550
930.000	549.443	79.996	19.996	100.744	19.997	2.328	0.527
930.500	549.711	79.996	19.998	100.744	19.993	2.595	0.505
931.000	549.978	79.995	19.996	100.743	19.989	2.859	0.519
931.500	550.249	79.996	19.997	100.742	19.990	2.820	0.536
932.001	550.521	79.993	19.995	100.741	19.991	2.724	0.540
932.500	550.785	79.997	19.998	100.741	19.990	2.789	0.540
933.000	551.038	79.997	19.997	100.740	19.994	2.548	0.527
933.500	551.308	79.997	19.996	100.740	19.991	2.769	0.520
934.000	551.533	79.997	19.997	100.737	19.989	2.910	0.509
934.500	551.808	79.996	19.996	100.736	19.990	2.807	0.497
935.000	552.079	79.997	19.996	100.734	19.995	2.479	0.523
935.500	552.292	79.995	19.996	100.730	19.988	2.937	0.515
936.000	552.545	79.996	19.996	100.728	19.989	2.875	0.475
936.500	552.833	79.997	19.996	100.731	19.989	2.873	0.504
937.000	553.101	79.996	19.997	100.732	19.994	2.553	0.549
937.500	553.354	79.996	19.996	100.734	19.992	2.696	0.539
938.000	553.625	79.997	19.997	100.737	19.992	2.655	0.522
938.500	553.900	79.996	19.997	100.740	19.992	2.675	0.535
939.000	554.166	79.995	19.996	100.741	19.990	2.792	0.544
939.500	554.422	79.996	19.997	100.741	19.987	3.024	0.532
940.000	554.677	79.996	19.996	100.740	19.992	2.709	0.517
940.500	554.947	79.997	19.997	100.741	19.989	2.877	0.518
941.000	555.155	79.997	19.997	100.741	19.989	2.863	0.501
941.500	555.435	79.995	19.997	100.741	19.989	2.864	0.482
942.000	555.725	79.996	19.996	100.741	19.992	2.698	0.529
942.500	555.980	79.996	19.995	100.741	19.991	2.723	0.558
943.000	556.249	79.995	19.998	100.740	19.994	2.546	0.534
943.500	556.489	79.997	19.996	100.740	19.994	2.566	0.516
944.000	556.771	79.998	19.997	100.740	19.993	2.619	0.516
944.500	557.000	79.996	19.997	100.741	19.992	2.675	0.516
945.000	557.261	79.997	19.995	100.739	19.991	2.776	0.500
945.500	557.523	79.996	19.996	100.736	19.990	2.837	0.507
946.000	557.797	79.995	19.996	100.733	19.987	2.996	0.529
946.500	558.067	79.996	19.995	100.733	19.990	2.790	0.540
947.000	558.299	79.995	19.995	100.730	19.992	2.660	0.523
947.500	558.576	79.996	19.996	100.728	19.991	2.730	0.505
948.000	558.801	79.996	19.996	100.728	19.990	2.806	0.506
948.500	559.095	79.997	19.996	100.731	19.988	2.958	0.511
949.000	559.365	79.995	19.995	100.730	19.989	2.882	0.541
949.500	559.615	79.994	19.995	100.731	19.987	2.997	0.542
950.000	559.848	79.996	19.996	100.731	19.989	2.903	0.501
950.500	560.090	79.996	19.995	100.731	19.991	2.767	0.479
951.000	560.370	79.997	19.996	100.731	19.988	2.964	0.499
951.500	560.645	79.996	19.997	100.727	19.990	2.821	0.539
952.000	560.884	79.997	19.995	100.726	19.991	2.733	0.534
952.500	561.112	79.997	19.996	100.730	19.990	2.783	0.490
953.000	561.368	79.997	19.998	100.734	19.987	2.984	0.476
953.500	561.646	79.996	19.995	100.734	19.991	2.776	0.509
954.000	561.922	79.997	19.996	100.739	19.992	2.689	0.544
954.500	562.164	79.997	19.995	100.741	19.989	2.857	0.536
955.000	562.428	79.998	19.996	100.741	19.988	2.962	0.511
955.500	562.649	79.997	19.995	100.738	19.988	2.944	0.495
956.000	562.952	79.997	19.995	100.737	19.985	3.112	0.505
956.500	563.178	80.000	19.996	100.736	19.988	2.914	0.527
957.000	563.437	79.998	19.997	100.730	19.987	3.006	0.507
957.500	563.724	79.999	19.996	100.728	19.990	2.807	0.516
958.000	563.960	79.998	19.995	100.727	19.994	2.514	0.534
958.500	564.240	79.999	19.996	100.724	19.991	2.754	0.519
959.000	564.499	79.997	19.996	100.724	19.990	2.807	0.528
959.500	564.705	79.997	19.996	100.727	19.990	2.820	0.503
960.000	564.981	79.999	19.995	100.730	19.989	2.867	0.473
960.500	565.219	79.998	19.995	100.734	19.988	2.926	0.497
961.000	565.523	79.996	19.996	100.735	19.989	2.899	0.528
961.500	565.730	79.998	19.996	100.734	19.987	2.995	0.527
962.000	565.973	79.998	19.996	100.736	19.989	2.861	0.481
962.500	566.209	79.998	19.996	100.737	19.990	2.802	0.465
963.000	566.506	79.997	19.996	100.737	19.986	3.062	0.506
963.500	566.767	79.998	19.995	100.739	19.991	2.778	0.546
964.000	567.034	79.996	19.996	100.741	19.994	2.570	0.543
964.500	567.306	79.998	19.996	100.740	19.993	2.592	0.534
965.000	567.527	79.997	19.996	100.740	19.992	2.707	0.517
965.500	567.742	79.997	19.997	100.740	19.986	3.085	0.465
966.000	568.021	79.996	19.996	100.741	19.992	2.680	0.465
966.500	568.271	79.994	19.995	100.741	19.990	2.831	0.511
967.000	568.500	79.995	19.996	100.740	19.992	2.706	0.504
967.500	568.778	79.993	19.996	100.740	19.989	2.872	0.493
968.001	569.034	79.995	19.997	100.741	19.988	2.937	0.521
968.500	569.286	79.999	19.996	100.741	19.989	2.876	0.521
969.000	569.541	79.992	19.995	100.742	19.990	2.803	0.507
969.500	569.828	79.995	19.995	100.744	19.989	2.894	0.525
970.000	570.084	79.995	19.995	100.744	19.991	2.756	0.543
970.500	570.315	79.996	19.996	100.745	19.991	2.751	0.515
971.000	570.581	79.996	19.996	100.745	19.990	2.798	0.492
971.500	570.868	79.995	19.995	100.746	19.990	2.787	0.525
972.000	571.119	79.995	19.996	100.746	19.992	2.686	0.546
972.500	571.399	79.994	19.995	100.746	19.991	2.715	0.535
973.000	571.660	79.994	19.995	100.747	19.989	2.883	0.536
973.500	571.900	79.996	19.996	100.747	19.994	2.564	0.521
974.000	572.147	79.995	19.997	100.746	19.991	2.727	0.494
974.500	572.390	79.995	19.995	100.745	19.994	2.563	0.489
975.000	572.638	79.995	19.995	100.743	19.997	2.371	0.491
975.500	572.890	79.995	19.996	100.743	19.993	2.637	0.495
976.000	573.179	79.995	19.997	100.743	19.992	2.671	0.520
976.500	573.421	79.994	19.995	100.743	19.995	2.476	0.537
977.000	573.704	79.996	19.996	100.745	19.995	2.465	0.528
977.500	573.953	79.995	19.996	100.746	19.994	2.538	0.528
978.000	574.213	79.994	19.996	100.746	19.994	2.530	0.520
978.501	574.494	79.996	19.996	100.745	19.990	2.845	0.524
979.000	574.721	79.995	19.996	100.745	19.992	2.702	0.524
979.500	574.979	79.995	19.995	100.745	19.990	2.809	0.497
980.000	575.235	79.994	19.996	100.743	19.990	2.780	0.500
980.500	575.513	79.995	19.995	100.742	19.992	2.704	0.523
981.000	575.742	79.997	19.996	100.744	19.986	3.051	0.521
981.500	576.012	79.995	19.995	100.744	19.992	2.697	0.504
982.000	576.263	79.996	19.997	100.745	19.991	2.745	0.510
982.500	576.551	79.996	19.995	100.747	19.986	3.048	0.530
983.000	576.833	79.996	19.995	100.748	19.994	2.561	0.554
983.500	576.991	79.994	19.995	100.746	19.990	2.811	0.505
984.000	577.291	79.995	19.997	100.740	19.989	2.899	0.449
984.501	577.560	79.995	19.996	100.738	19.988	2.957	0.513
985.000	577.791	79.996	19.996	100.738	19.990	2.780	0.535
985.500	578.081	79.995	19.995	100.739	19.989	2.892	0.511
986.000	578.308	79.996	19.996	100.739	19.989	2.888	0.519
986.500	578.595	79.994	19.996	100.745	19.989	2.883	0.515
987.000	578.850	79.995	19.995	100.747	19.989	2.881	0.528
987.500	579.128	79.994	19.997	100.746	19.987	3.031	0.538
988.000	579.376	79.995	19.994	100.747	19.989	2.890	0.530
988.500	579.642	79.994	19.995	100.747	19.988	2.941	0.520
989.000	579.866	79.995	19.996	100.746	19.988	2.926	0.502
989.500	580.123	79.994	19.996	100.746	19.988	2.917	0.485
990.000	580.376	79.994	19.995	100.747	19.991	2.744	0.495
990.500	580.653	79.995	19.995	100.746	19.989	2.912	0.520
991.000	580.914	79.995	19.995	100.746	19.990	2.829	0.534
991.500	581.138	79.995	19.995	100.747	19.988	2.950	0.512
992.001	581.384	79.996	19.997	100.747	19.991	2.713	0.478
992.500	581.618	79.994	19.996	100.746	19.989	2.867	0.475
993.000	581.901	79.996	19.997	100.746	19.991	2.720	0.498
993.500	582.172	79.995	19.996	100.746	19.993	2.610	0.535
994.000	582.447	79.995	19.998	100.746	19.990	2.843	0.550
994.500	582.682	79.997	19.996	100.746	19.993	2.628	0.528
995.000	582.901	79.994	19.995	100.746	19.991	2.742	0.482
995.500	583.137	79.993	19.996	100.745	19.993	2.631	0.454
996.000	583.408	79.996	19.996	100.744	19.990	2.823	0.481
996.500	583.654	79.994	19.996	100.742	19.991	2.715	0.512
997.000	583.941	79.995	19.997	100.741	19.995	2.512	0.525
997.500	584.133	79.994	19.995	100.740	19.991	2.749	0.506
998.000	584.399	79.994	19.998	100.740	19.988	2.964	0.468
998.500	584.655	79.995	19.997	100.740	19.995	2.503	0.490
999.000	584.915	79.993	19.998	100.741	19.987	3.044	0.519
999.500	585.189	79.995	19.998	100.742	19.994	2.550	0.525
1000.000	585.441	79.994	19.997	100.742	19.990	2.820	0.530
1000.500	585.660	79.994	19.997	100.742	19.992	2.682	0.499
1001.000	585.913	79.996	19.998	100.742	19.993	2.606	0.472
1001.500	586.202	79.995	19.996	100.741	19.989	2.894	0.507
1002.000	586.468	79.996	19.997	100.740	19.989	2.847	0.548
1002.500	586.735	79.998	19.997	100.740	19.993	2.604	0.544
1003.000	586.940	79.993	19.998	100.740	19.990	2.845	0.502
1003.500	587.219	79.994	19.996	100.740	19.988	2.968	0.478
1004.000	587.453	79.995	19.997	100.741	19.991	2.720	0.499
1004.500	587.729	79.993	19.998	100.742	19.990	2.791	0.512
1005.000	587.985	79.993	19.997	100.739	19.993	2.628	0.521
1005.500	588.244	79.993	19.997	100.738	19.989	2.890	0.523
1006.000	588.530	79.994	19.996	100.738	19.993	2.612	0.530
1006.500	588.790	79.994	19.997	100.738	19.987	3.009	0.546
1007.000	589.005	79.993	19.997	100.738	19.992	2.695	0.510
1007.500	589.271	79.993	19.996	100.742	19.986	3.060	0.478
1008.000	589.521	79.995	19.998	100.742	19.992	2.659	0.499
1008.500	589.764	79.996	19.997	100.742	19.987	3.037	0.504
1009.000	590.000	79.991	19.997	100.742	19.987	2.988	0.485
1009.501	590.310	79.995	19.997	100.742	19.987	3.027	0.513
1010.000	590.528	79.993	19.996	100.742	19.992	2.682	0.537
1010.500	590.807	79.996	19.997	100.742	19.986	3.100	0.513
1011.000	591.032	79.997	19.997	100.743	19.987	2.993	0.500
1011.500	591.267	79.997	19.997	100.744	19.990	2.807	0.481
1012.000	591.553	79.997	19.997	100.743	19.991	2.776	0.491
1012.500	591.810	79.995	19.997	100.744	19.987	3.042	0.533
1013.000	592.033	79.995	19.996	100.742	19.991	2.749	0.511
1013.501	592.305	79.996	19.995	100.741	19.988	2.930	0.487
1014.000	592.529	79.995	19.996	100.740	19.988	2.959	0.496
1014.500	592.822	79.998	19.998	100.740	19.990	2.845	0.507
1015.000	593.074	79.998	19.997	100.741	19.986	3.058	0.531
1015.500	593.322	80.000	19.996	100.743	19.989	2.872	0.522
1016.000	593.565	79.998	19.995	100.744	19.993	2.617	0.496
1016.500	593.846	79.996	19.995	100.744	19.986	3.060	0.508
1017.000	594.067	79.997	19.996	100.744	19.987	2.997	0.513
1017.500	594.344	79.996	19.995	100.742	19.983	3.304	0.500
1018.000	594.617	79.997	19.996	100.741	19.987	3.042	0.524
1018.500	594.852	79.996	19.996	100.741	19.986	3.103	0.529
1019.000	595.125	79.997	19.996	100.741	19.991	2.747	0.508
1019.500	595.364	79.997	19.996	100.741	19.988	2.948	0.510
1020.000	595.656	79.997	19.997	100.741	19.989	2.879	0.522
1020.500	595.901	79.997	19.997	100.741	19.994	2.561	0.534
1021.000	596.113	79.998	19.996	100.741	19.988	2.959	0.497
1021.500	596.389	79.995	19.997	100.741	19.988	2.928	0.472
1022.000	596.644	79.997	19.996	100.740	19.990	2.791	0.509
1022.500	596.882	79.999	19.996	100.740	19.991	2.751	0.512
1023.000	597.149	79.996	19.996	100.741	19.987	3.042	0.499
1023.500	597.357	79.995	19.995	100.741	19.991	2.753	0.490
1024.000	597.616	79.996	19.996	100.741	19.988	2.943	0.471
1024.500	597.913	79.996	19.997	100.741	19.988	2.921	0.511
1025.000	598.120	79.996	19.996	100.741	19.987	2.988	0.530
1025.500	598.405	79.995	19.998	100.741	19.994	2.557	0.498
1026.000	598.642	79.995	19.996	100.741	19.993	2.642	0.506
1026.500	598.895	79.996	19.996	100.741	19.984	3.187	0.506
1027.000	599.179	79.997	19.997	100.741	19.988	2.931	0.514
1027.500	599.423	79.996	19.997	100.742	19.989	2.883	0.532
1028.000	599.678	79.993	19.997	100.741	19.984	3.179	0.513
1028.500	599.946	79.996	19.997	100.742	19.990	2.781	0.511
1029.000	600.175	79.996	19.998	100.742	19.989	2.858	0.510
1029.500	600.470	79.995	19.996	100.742	19.991	2.747	0.511
1030.000	600.648	79.994	19.998	100.741	19.989	2.872	0.498
1030.501	600.937	79.994	19.996	100.741	19.989	2.861	0.470
1031.001	601.215	79.997	19.997	100.741	19.988	2.937	0.518
1031.500	601.446	79.996	19.996	100.741	19.987	2.995	0.538
1032.000	601.718	79.996	19.997	100.741	19.986	3.105	0.506
1032.500	601.964	79.994	19.997	100.742	19.989	2.865	0.511
1033.000	602.185	79.995	19.996	100.744	19.993	2.592	0.492
1033.500	602.435	79.993	19.996	100.744	19.992	2.691	0.469
1034.000	602.757	79.994	19.996	100.744	19.993	2.646	0.522
1034.500	603.004	79.996	19.996	100.743	19.991	2.740	0.571
1035.000	603.201	79.996	19.995	100.742	19.989	2.887	0.506
1035.500	603.468	79.997	19.996	100.741	19.991	2.729	0.454
1036.000	603.717	79.994	19.995	100.741	19.992	2.648	0.490
1036.500	604.045	79.996	19.996	100.742	19.992	2.666	0.546
1037.000	604.289	79.995	19.995	100.741	19.991	2.726	0.574
1037.500	604.555	79.998	19.996	100.737	19.994	2.563	0.541
1038.000	604.748	79.997	19.996	100.736	19.990	2.793	0.485
1038.500	604.995	79.996	19.995	100.736	19.990	2.796	0.450
1039.001	605.263	79.995	19.994	100.735	19.992	2.657	0.477
1039.501	605.545	79.999	19.996	100.737	19.993	2.624	0.532
1040.000	605.772	79.997	19.995	100.742	19.991	2.725	0.530
1040.500	606.030	79.998	19.995	100.745	19.995	2.472	0.498
1041.000	606.293	79.998	19.995	100.745	19.989	2.870	0.503
1041.500	606.546	79.998	19.996	100.746	19.993	2.606	0.518
1042.000	606.788	79.998	19.994	100.746	19.988	2.939	0.505
1042.500	607.037	79.999	19.997	100.744	19.993	2.630	0.493
1043.000	607.308	79.998	19.994	100.744	19.992	2.657	0.506
1043.500	607.557	79.999	19.995	100.744	19.995	2.501	0.520
1044.000	607.806	79.999	19.996	100.743	19.996	2.386	0.509
1044.501	608.051	79.997	19.994	100.743	19.992	2.697	0.496
1045.001	608.286	79.998	19.994	100.745	19.991	2.718	0.487
1045.500	608.584	79.998	19.995	100.745	19.989	2.901	0.507
1046.000	608.808	79.997	19.994	100.745	19.992	2.664	0.528
1046.500	609.063	79.997	19.996	100.745	19.991	2.760	0.500
1047.000	609.323	79.995	19.997	100.746	19.989	2.870	0.497
1047.500	609.585	79.997	19.997	100.746	19.991	2.724	0.519
1048.000	609.861	79.998	19.995	100.745	19.989	2.906	0.530
1048.501	610.090	79.995	19.996	100.746	19.988	2.955	0.521
1049.001	610.341	79.997	19.995	100.746	19.986	3.046	0.492
1049.500	610.609	79.995	19.996	100.746	19.990	2.782	0.499
1050.000	610.854	79.995	19.994	100.744	19.984	3.212	0.516
1050.500	611.126	79.995	19.995	100.741	19.989	2.879	0.515
1051.000	611.388	79.996	19.996	100.741	19.987	2.984	0.526
1051.500	611.617	79.996	19.996	100.741	19.986	3.060	0.512
1052.000	611.875	79.993	19.995	100.741	19.989	2.874	0.489
1052.501	612.130	79.997	19.996	100.743	19.987	3.011	0.500
1053.001	612.376	79.994	19.996	100.747	19.986	3.046	0.507
1053.500	612.668	79.995	19.995	100.747	19.987	3.017	0.520
1054.000	612.895	79.993	19.996	100.747	19.994	2.577	0.528
1054.500	613.159	79.995	19.995	100.748	19.987	3.002	0.504
1055.000	613.415	79.993	19.995	100.748	19.992	2.706	0.505
1055.500	613.689	79.995	19.996	100.748	19.987	3.024	0.525
1056.000	613.941	79.994	19.996	100.746	19.992	2.669	0.528
1056.500	614.177	79.993	19.996	100.745	19.988	2.953	0.507
1057.000	614.453	79.995	19.997	100.745	19.990	2.832	0.500
1057.500	614.691	79.995	19.996	100.744	19.994	2.570	0.514
1058.000	614.957	79.993	19.997	100.744	19.987	2.982	0.509
1058.500	615.222	79.996	19.997	100.746	19.988	2.915	0.517
1059.000	615.458	79.995	19.997	100.746	19.989	2.856	0.515
1059.500	615.726	79.997	19.995	100.746	19.987	3.004	0.503
1060.000	615.992	79.993	19.996	100.745	19.988	2.953	0.519
1060.500	616.229	79.996	19.997	100.745	19.989	2.899	0.518
1061.000	616.464	79.996	19.997	100.744	19.989	2.895	0.487
1061.500	616.759	79.995	19.997	100.744	19.988	2.928	0.501
1062.000	616.978	79.992	19.997	100.743	19.991	2.749	0.522
1062.501	617.249	79.996	19.996	100.744	19.988	2.932	0.502
1063.001	617.517	79.994	19.997	100.744	19.989	2.885	0.515
1063.501	617.762	79.997	19.996	100.743	19.986	3.084	0.526
1064.000	617.995	79.997	19.996	100.744	19.984	3.230	0.495
1064.500	618.266	79.995	19.997	100.743	19.987	3.024	0.491
1065.000	618.503	79.998	19.997	100.743	19.986	3.047	0.506
1065.501	618.806	79.996	19.997	100.743	19.984	3.217	0.524
1066.001	619.012	79.993	19.996	100.743	19.983	3.306	0.524
1066.501	619.283	79.997	19.995	100.743	19.987	3.019	0.492
1067.001	619.549	79.997	19.997	100.743	19.985	3.160	0.507
1067.501	619.782	79.996	19.995	100.741	19.982	3.360	0.519
1068.001	620.068	79.997	19.998	100.740	19.986	3.096	0.509
1068.500	620.346	79.996	19.997	100.740	19.987	3.008	0.541
1069.000	620.566	79.999	19.995	100.740	19.986	3.096	0.531
1069.500	620.831	79.997	19.997	100.740	19.984	3.189	0.492
1070.000	621.064	79.995	19.996	100.741	19.989	2.850	0.492
1070.500	621.317	79.996	19.997	100.743	19.987	3.031	0.492
1071.000	621.563	79.995	19.997	100.742	19.990	2.843	0.493
1071.500	621.825	79.994	19.995	100.742	19.988	2.914	0.503
1072.000	622.072	79.998	19.996	100.742	19.987	3.020	0.508
1072.500	622.344	79.997	19.995	100.742	19.987	3.013	0.514
1073.000	622.599	79.997	19.995	100.742	19.990	2.818	0.523
1073.500	622.861	79.996	19.994	100.741	19.988	2.939	0.522
1074.000	623.096	79.997	19.996	100.741	19.987	3.004	0.507
1074.500	623.348	79.997	19.996	100.742	19.989	2.899	0.492
1075.000	623.590	79.996	19.995	100.742	19.990	2.825	0.491
1075.500	623.834	79.995	19.996	100.743	19.988	2.937	0.491
1076.000	624.120	79.995	19.996	100.743	19.989	2.870	0.508
1076.501	624.368	79.994	19.995	100.743	19.990	2.816	0.531
1077.001	624.578	79.996	19.997	100.743	19.991	2.763	0.496
1077.501	624.843	79.995	19.995	100.743	19.990	2.789	0.467
1078.001	625.075	79.994	19.995	100.743	19.987	3.040	0.486
1078.500	625.332	79.998	19.996	100.743	19.992	2.689	0.493
1079.000	625.605	79.994	19.995	100.743	19.989	2.847	0.510
1079.500	625.828	79.994	19.995	100.743	19.993	2.590	0.513
1080.000	626.081	79.997	19.996	100.743	19.985	3.169	0.486
1080.501	626.339	79.994	19.996	100.744	19.987	3.033	0.493
1081.001	626.579	79.996	19.995	100.743	19.986	3.055	0.504
1081.500	626.829	79.996	19.997	100.743	19.991	2.776	0.494
1082.000	627.089	79.993	19.997	100.743	19.990	2.798	0.500
1082.501	627.329	79.995	19.995	100.743	19.994	2.570	0.505
1083.001	627.607	79.996	19.996	100.742	19.993	2.595	0.509
1083.500	627.845	79.994	19.995	100.742	19.987	3.022	0.517
1084.000	628.113	79.996	19.996	100.741	19.989	2.859	0.511
1084.500	628.366	79.995	19.996	100.741	19.990	2.843	0.513
1085.000	628.607	79.995	19.997	100.741	19.989	2.885	0.508
1085.500	628.874	79.993	19.996	100.741	19.984	3.190	0.501
1086.001	629.116	79.996	19.998	100.741	19.984	3.194	0.509
1086.501	629.352	79.996	19.998	100.742	19.987	3.042	0.494
1087.000	629.616	79.997	19.998	100.742	19.981	3.416	0.489
1087.500	629.882	79.997	19.997	100.743	19.987	3.040	0.515
1088.001	630.144	79.994	19.997	100.743	19.985	3.125	0.529
1088.501	630.365	79.995	19.997	100.740	19.987	3.033	0.506
1089.000	630.615	79.996	19.998	100.739	19.982	3.328	0.477
1089.501	630.899	79.997	19.996	100.739	19.988	2.939	0.503
1090.001	631.141	79.995	19.996	100.739	19.983	3.262	0.530
1090.500	631.417	79.996	19.999	100.739	19.986	3.082	0.522
1091.000	631.672	79.997	19.997	100.741	19.983	3.245	0.525
1091.500	631.896	79.996	19.997	100.742	19.988	2.961	0.505
1092.000	632.148	79.996	19.996	100.743	19.990	2.834	0.477
1092.500	632.389	79.995	19.998	100.743	19.981	3.391	0.485
1093.000	632.651	79.995	19.997	100.743	19.985	3.147	0.498
1093.500	632.901	79.998	19.997	100.742	19.984	3.232	0.508
1094.000	633.169	79.997	19.996	100.742	19.984	3.205	0.515
1094.500	633.400	79.996	19.996	100.742	19.982	3.328	0.508
1095.000	633.659	79.998	19.996	100.742	19.987	3.009	0.494
1095.500	633.919	79.997	19.997	100.742	19.984	3.181	0.504
1096.000	634.165	79.998	19.996	100.742	19.986	3.111	0.513
1096.500	634.409	79.997	19.997	100.744	19.981	3.406	0.498
1097.000	634.698	79.998	19.996	100.745	19.982	3.369	0.512
1097.500	634.946	79.999	19.997	100.745	19.984	3.228	0.535
1098.000	635.170	79.999	19.996	100.746	19.983	3.248	0.505
1098.500	635.441	79.994	19.997	100.746	19.984	3.198	0.483
1099.000	635.693	79.997	19.996	100.740	19.985	3.142	0.508
1099.500	635.945	79.996	19.997	100.739	19.983	3.297	0.513
1100.000	636.182	79.996	19.995	100.738	19.986	3.062	0.497
1100.500	636.428	79.995	19.995	100.737	19.981	3.425	0.486
1101.000	636.700	79.994	19.995	100.737	19.985	3.167	0.500
1101.500	636.933	79.997	19.997	100.741	19.988	2.932	0.511
1102.000	637.175	79.997	19.996	100.741	19.986	3.082	0.490
1102.500	637.380	79.996	19.996	100.742	19.986	3.096	0.461
1103.000	637.679	79.998	19.996	100.744	19.990	2.789	0.476
1103.500	637.954	79.998	19.996	100.745	19.985	3.176	0.539
1104.000	638.203	79.995	19.995	100.745	19.993	2.617	0.549
1104.500	638.404	79.996	19.997	100.745	19.989	2.859	0.487
1105.000	638.636	79.996	19.997	100.742	19.988	2.977	0.442
1105.500	638.953	79.996	19.995	100.742	19.990	2.807	0.491
1106.000	639.164	79.998	19.997	100.740	19.986	3.048	0.538
1106.500	639.411	79.998	19.996	100.740	19.986	3.089	0.493
1107.000	639.668	79.996	19.997	100.740	19.987	3.024	0.481
1107.500	639.921	79.995	19.995	100.744	19.986	3.075	0.507
1108.001	640.181	79.995	19.996	100.744	19.987	3.026	0.512
1108.501	640.399	79.996	19.997	100.745	19.985	3.143	0.495
1109.000	640.649	79.997	19.997	100.745	19.989	2.906	0.472
1109.500	640.932	79.995	19.996	100.745	19.988	2.928	0.500
1110.000	641.190	79.996	19.996	100.744	19.988	2.939	0.537
1110.500	641.408	79.996	19.996	100.744	19.991	2.753	0.509
1111.000	641.675	79.996	19.996	100.744	19.988	2.923	0.480
1111.500	641.901	79.996	19.996	100.745	19.989	2.896	0.489
1112.000	642.183	79.995	19.994	100.745	19.991	2.751	0.500
1112.500	642.426	79.996	19.996	100.745	19.989	2.859	0.517
1113.000	642.635	79.997	19.997	100.745	19.987	3.002	0.489
1113.500	642.896	79.996	19.997	100.745	19.984	3.207	0.461
1114.000	643.189	79.997	19.997	100.745	19.987	3.044	0.511
1114.500	643.428	79.997	19.997	100.745	19.988	2.966	0.543
1115.000	643.700	79.997	19.996	100.745	19.986	3.046	0.522
1115.500	643.927	79.995	19.995	100.745	19.987	2.990	0.505
1116.000	644.179	79.994	19.997	100.745	19.983	3.277	0.489
1116.500	644.435	79.997	19.996	100.745	19.988	2.933	0.494
1117.000	644.700	79.997	19.997	100.745	19.989	2.905	0.514
1117.500	644.937	79.994	19.997	100.746	19.993	2.637	0.511
1118.001	645.200	79.994	19.996	100.747	19.987	2.991	0.501
1118.501	645.452	79.999	19.996	100.746	19.989	2.854	0.507
1119.000	645.710	79.996	19.996	100.747	19.988	2.975	0.512
1119.500	645.937	79.998	19.996	100.747	19.989	2.865	0.498
1120.000	646.219	79.996	19.996	100.747	19.988	2.935	0.497
1120.501	646.437	79.996	19.995	100.745	19.987	3.024	0.504
1121.001	646.733	79.996	19.997	100.745	19.991	2.771	0.507
1121.500	646.971	79.998	19.996	100.745	19.991	2.747	0.524
1122.000	647.257	79.997	19.996	100.745	19.989	2.854	0.529
1122.500	647.480	79.997	19.996	100.743	19.988	2.921	0.517
1123.000	647.713	80.000	19.996	100.743	19.989	2.910	0.483
1123.501	647.959	79.998	19.996	100.743	19.991	2.744	0.468
1124.001	648.221	79.997	19.994	100.743	19.989	2.863	0.493
1124.501	648.486	80.000	19.996	100.742	19.990	2.816	0.517
1125.001	648.730	79.997	19.997	100.744	19.984	3.241	0.518
1125.501	648.956	79.998	19.998	100.744	19.988	2.943	0.490
1126.000	649.275	80.000	19.998	100.744	19.984	3.192	0.507
1126.501	649.510	79.998	19.998	100.744	19.987	3.002	0.549
1127.001	649.764	79.998	19.995	100.744	19.990	2.818	0.522
1127.500	649.973	79.997	19.996	100.741	19.988	2.939	0.476
1128.000	650.265	79.997	19.995	100.741	19.982	3.362	0.482
1128.500	650.511	79.995	19.996	100.741	19.987	3.033	0.520
1129.000	650.755	79.997	19.996	100.741	19.990	2.829	0.514
1129.501	651.050	79.995	19.995	100.741	19.983	3.297	0.514
1130.001	651.295	79.994	19.995	100.742	19.985	3.152	0.540
1130.501	651.587	79.996	19.996	100.742	19.989	2.903	0.539
1131.001	651.795	79.995	19.995	100.743	19.987	3.015	0.519
1131.500	652.062	79.996	19.996	100.748	19.989	2.901	0.487
1132.000	652.319	79.994	19.996	100.749	19.987	3.011	0.499
1132.500	652.541	79.995	19.996	100.749	19.988	2.966	0.501
1133.000	652.866	79.995	19.995	100.749	19.990	2.785	0.513
1133.500	653.107	79.995	19.995	100.747	19.990	2.789	0.557
1134.000	653.342	79.996	19.996	100.742	19.995	2.470	0.521
1134.500	653.604	79.995	19.995	100.742	19.987	3.028	0.487
1135.000	653.852	79.996	19.997	100.742	19.991	2.740	0.503
1135.500	654.125	79.994	19.996	100.742	19.988	2.937	0.515
1136.000	654.379	79.996	19.996	100.742	19.992	2.700	0.524
1136.500	654.671	79.995	19.997	100.743	19.990	2.823	0.537
1137.000	654.915	79.995	19.995	100.744	19.992	2.670	0.541
1137.500	655.173	79.997	19.998	100.745	19.990	2.834	0.519
1138.000	655.390	79.996	19.997	100.749	19.986	3.093	0.488
1138.500	655.648	79.993	19.996	100.750	19.990	2.786	0.475
1139.000	655.903	79.994	19.994	100.750	19.987	3.008	0.494
1139.501	656.152	79.993	19.995	100.749	19.987	3.044	0.508
1140.001	656.429	79.995	19.995	100.748	19.990	2.811	0.515
1140.500	656.670	79.995	19.996	100.744	19.990	2.843	0.522
1141.000	656.898	79.996	19.996	100.742	19.985	3.175	0.493
1141.500	657.154	79.997	19.995	100.742	19.988	2.976	0.476
1142.000	657.431	79.996	19.996	100.742	19.987	3.028	0.508
1142.500	657.633	79.994	19.994	100.742	19.983	3.310	0.506
1143.000	657.907	79.996	19.996	100.742	19.985	3.142	0.477
1143.500	658.170	79.995	19.996	100.742	19.987	2.997	0.506
1144.001	658.458	79.995	19.996	100.742	19.984	3.223	0.544
1144.501	658.677	79.995	19.996	100.742	19.985	3.129	0.530
1145.000	658.938	79.993	19.996	100.742	19.987	2.979	0.494
1145.500	659.197	79.997	19.997	100.742	19.991	2.731	0.500
1146.001	659.465	79.996	19.995	100.743	19.983	3.279	0.523
1146.501	659.679	79.993	19.996	100.744	19.988	2.975	0.505
1147.001	659.966	79.995	19.997	100.748	19.987	2.990	0.492
1147.501	660.240	79.997	19.997	100.752	19.989	2.877	0.531
1148.000	660.491	79.997	19.997	100.753	19.987	2.997	0.543
1148.500	660.718	79.998	19.997	100.754	19.988	2.968	0.501
1149.000	660.976	79.996	19.996	100.758	19.987	3.037	0.481
1149.500	661.228	79.995	19.995	100.755	19.983	3.297	0.497
1150.000	661.512	79.994	19.995	100.753	19.989	2.867	0.524
1150.500	661.755	79.995	19.996	100.756	19.988	2.919	0.532
1151.000	662.036	79.997	19.996	100.759	19.993	2.588	0.526
1151.500	662.284	79.996	19.996	100.758	19.986	3.060	0.526
1152.000	662.492	79.996	19.995	100.758	19.990	2.827	0.492
1152.500	662.773	79.994	19.995	100.758	19.990	2.820	0.472
1153.001	663.023	79.996	19.995	100.757	19.988	2.930	0.510
1153.501	663.281	79.995	19.995	100.752	19.983	3.281	0.520
1154.000	663.460	79.993	19.997	100.749	19.985	3.145	0.473
1154.500	663.756	79.998	19.996	100.747	19.987	3.001	0.456
1155.000	663.995	79.999	19.995	100.745	19.992	2.662	0.505
1155.500	664.269	79.996	19.996	100.743	19.994	2.520	0.524
1156.000	664.487	79.997	19.997	100.743	19.984	3.189	0.503
1156.500	664.752	79.994	19.995	100.743	19.987	3.024	0.488
1157.000	664.984	79.994	19.996	100.744	19.979	3.511	0.490
1157.500	665.290	79.996	19.997	100.745	19.980	3.493	0.517
1158.000	665.498	79.995	19.996	100.745	19.982	3.377	0.526
1158.500	665.775	79.995	19.996	100.745	19.985	3.167	0.499
1159.000	666.033	79.996	19.996	100.744	19.989	2.889	0.510
1159.501	666.254	79.996	19.996	100.744	19.988	2.959	0.507
1160.001	666.547	79.995	19.995	100.743	19.988	2.943	0.497
1160.500	666.752	79.994	19.996	100.744	19.985	3.120	0.506
1161.000	667.028	79.994	19.995	100.744	19.987	3.010	0.489
1161.500	667.293	79.995	19.996	100.745	19.981	3.395	0.511
1162.000	667.554	79.996	19.995	100.746	19.980	3.487	0.534
1162.500	667.803	79.996	19.996	100.746	19.983	3.272	0.518
1163.000	668.089	79.994	19.997	100.747	19.983	3.310	0.522
1163.500	668.305	79.994	19.995	100.747	19.979	3.560	0.518
1164.000	668.577	79.995	19.995	100.746	19.984	3.201	0.496
1164.500	668.811	79.994	19.995	100.746	19.987	3.017	0.497
1165.000	669.083	79.995	19.996	100.746	19.980	3.482	0.506
1165.500	669.363	79.994	19.994	100.746	19.983	3.268	0.529
1166.000	669.630	79.996	19.997	100.749	19.989	2.869	0.549
1166.500	669.814	79.991	19.996	100.753	19.983	3.306	0.499
1167.000	670.091	79.994	19.996	100.753	19.984	3.227	0.456
1167.500	670.366	79.994	19.995	100.753	19.985	3.178	0.507
1168.000	670.603	79.995	19.995	100.753	19.986	3.053	0.532
1168.500	670.855	79.996	19.996	100.753	19.987	3.044	0.501
1169.000	671.117	79.997	19.995	100.751	19.985	3.120	0.501
1169.500	671.352	79.996	19.996	100.752	19.987	3.026	0.505
1170.000	671.598	79.994	19.995	100.753	19.984	3.230	0.489
1170.500	671.863	79.996	19.996	100.752	19.988	2.925	0.496
1171.001	672.102	79.996	19.996	100.749	19.986	3.084	0.507
1171.501	672.351	79.995	19.995	100.749	19.985	3.134	0.496
1172.000	672.616	79.997	19.996	100.748	19.986	3.078	0.501
1172.500	672.880	79.994	19.995	100.747	19.987	3.017	0.522
1173.000	673.124	79.996	19.994	100.749	19.987	3.001	0.519
1173.500	673.413	79.995	19.996	100.751	19.986	3.046	0.521
1174.000	673.618	79.995	19.995	100.751	19.986	3.066	0.513
1174.500	673.890	79.996	19.996	100.750	19.986	3.069	0.485
1175.000	674.145	79.998	19.996	100.750	19.985	3.163	0.502
1175.500	674.375	79.997	19.996	100.748	19.986	3.046	0.506
1176.000	674.655	79.995	19.996	100.747	19.988	2.937	0.498
1176.500	674.918	79.995	19.995	100.747	19.983	3.299	0.526
1177.000	675.185	79.996	19.997	100.749	19.986	3.066	0.536
1177.500	675.417	79.997	19.996	100.751	19.990	2.829	0.515
1178.000	675.695	79.997	19.997	100.751	19.985	3.178	0.504
1178.500	675.924	79.994	19.996	100.753	19.985	3.138	0.508
1179.000	676.183	79.996	19.994	100.753	19.983	3.250	0.497
1179.500	676.423	79.996	19.997	100.752	19.987	3.024	0.494
1180.000	676.695	79.996	19.996	100.752	19.989	2.897	0.506
1180.500	676.977	79.996	19.995	100.751	19.988	2.966	0.533
1181.001	677.182	79.997	19.997	100.748	19.982	3.344	0.521
1181.501	677.486	79.996	19.995	100.747	19.989	2.858	0.498
1182.000	677.745	79.995	19.996	100.746	19.985	3.124	0.536
1182.501	677.990	79.995	19.996	100.746	19.988	2.926	0.533
1183.001	678.217	79.997	19.995	100.747	19.983	3.279	0.488
1183.501	678.466	79.996	19.996	100.750	19.989	2.897	0.474
1184.001	678.715	79.995	19.995	100.753	19.989	2.899	0.487
1184.500	678.957	79.998	19.998	100.753	19.992	2.677	0.495
1185.001	679.227	79.997	19.996	100.752	19.990	2.838	0.502
1185.501	679.450	79.997	19.995	100.751	19.986	3.100	0.502
1186.000	679.706	79.996	19.996	100.748	19.985	3.163	0.486
1186.500	679.984	79.995	19.995	100.748	19.986	3.080	0.507
1187.000	680.211	79.998	19.998	100.748	19.984	3.210	0.520
1187.500	680.475	79.997	19.996	100.750	19.982	3.330	0.498
1188.000	680.707	79.997	19.997	100.751	19.986	3.104	0.493
1188.500	680.969	79.997	19.996	100.751	19.989	2.869	0.495
1189.000	681.233	79.995	19.997	100.748	19.986	3.057	0.510
1189.500	681.527	79.996	19.998	100.748	19.991	2.762	0.542
1190.000	681.775	79.997	19.995	100.746	19.986	3.069	0.550
1190.500	681.970	79.996	19.996	100.744	19.986	3.062	0.493
1191.000	682.250	79.997	19.996	100.743	19.984	3.187	0.458
1191.500	682.484	79.997	19.996	100.743	19.983	3.277	0.495
1192.000	682.778	79.995	19.996	100.743	19.989	2.865	0.522
1192.500	682.994	79.996	19.996	100.744	19.989	2.901	0.519
1193.001	683.227	79.996	19.995	100.746	19.984	3.185	0.479
1193.501	683.539	79.996	19.995	100.746	19.985	3.138	0.497
1194.001	683.773	79.998	19.996	100.747	19.986	3.102	0.546
1194.501	684.033	79.997	19.996	100.748	19.985	3.127	0.520
1195.000	684.251	79.997	19.996	100.747	19.983	3.244	0.485
1195.500	684.509	79.997	19.996	100.748	19.982	3.353	0.477
1196.000	684.744	79.995	19.996	100.749	19.987	2.986	0.485
1196.500	685.050	79.998	19.997	100.748	19.986	3.053	0.517
1197.000	685.275	79.998	19.996	100.746	19.984	3.199	0.536
1197.500	685.521	79.998	19.996	100.748	19.984	3.208	0.501
1198.000	685.776	79.999	19.997	100.748	19.988	2.975	0.486
1198.500	686.026	79.998	19.996	100.752	19.983	3.288	0.503
1199.000	686.282	79.998	19.995	100.754	19.988	2.972	0.506
1199.500	686.512	79.996	19.996	100.753	19.985	3.127	0.496
1200.000	686.775	79.998	19.997	100.751	19.984	3.232	0.489
1200.500	687.050	80.000	19.996	100.748	19.982	3.340	0.516
1201.000	687.270	79.999	19.995	100.743	19.988	2.943	0.516
1201.500	687.494	79.997	19.995	100.740	19.992	2.707	0.469
1202.000	687.760	79.998	19.995	100.741	19.986	3.069	0.467
1202.500	688.018	79.998	19.995	100.742	19.985	3.123	0.507
1203.000	688.295	80.000	19.995	100.741	19.989	2.865	0.530
1203.501	688.542	79.998	19.997	100.742	19.986	3.098	0.530
1204.001	688.777	79.998	19.997	100.741	19.984	3.188	0.503
1204.500	689.037	79.997	19.994	100.741	19.985	3.113	0.489
1205.000	689.290	79.998	19.996	100.740	19.984	3.189	0.504
1205.500	689.537	79.996	19.996	100.740	19.988	2.946	0.506
1206.000	689.790	79.996	19.997	100.740	19.986	3.051	0.500
1206.501	690.031	79.997	19.996	100.740	19.983	3.310	0.497
1207.001	690.274	79.999	19.997	100.739	19.985	3.169	0.489
1207.501	690.526	79.997	19.997	100.739	19.984	3.232	0.489
1208.000	690.755	79.996	19.998	100.741	19.981	3.431	0.488
1208.500	691.023	79.995	19.996	100.742	19.983	3.275	0.489
1209.000	691.237	79.996	19.996	100.743	19.979	3.543	0.489
1209.500	691.487	79.996	19.996	100.743	19.982	3.373	0.473
1210.000	691.732	79.995	19.997	100.744	19.985	3.170	0.480
1210.500	692.001	79.993	19.997	100.743	19.986	3.051	0.505
1211.000	692.265	79.994	19.996	100.743	19.985	3.147	0.523
1211.500	692.537	79.996	19.997	100.744	19.985	3.127	0.534
1212.000	692.789	79.994	19.998	100.744	19.984	3.199	0.530
1212.500	693.054	79.996	19.998	100.744	19.983	3.310	0.520
1213.000	693.315	79.994	19.997	100.743	19.984	3.200	0.521
1213.500	693.551	79.995	19.997	100.742	19.982	3.357	0.512
1214.000	693.796	79.995	19.998	100.741	19.981	3.406	0.489
1214.500	694.027	79.995	19.997	100.742	19.982	3.373	0.478
1215.000	694.344	79.995	19.998	100.742	19.981	3.382	0.512
1215.500	694.599	79.995	19.997	100.743	19.984	3.192	0.560
1216.000	694.827	79.994	19.997	100.743	19.982	3.337	0.528
1216.500	695.069	79.995	19.997	100.743	19.983	3.266	0.477
1217.000	695.361	79.995	19.994	100.742	19.979	3.543	0.502
1217.500	695.596	79.994	19.997	100.741	19.987	2.999	0.530
1218.001	695.842	79.995	19.996	100.741	19.981	3.408	0.504
1218.501	696.062	79.995	19.998	100.741	19.978	3.616	0.473
1219.000	696.352	79.995	19.996	100.740	19.979	3.540	0.488
1219.500	696.605	79.996	19.997	100.741	19.983	3.250	0.527
1220.000	696.875	79.996	19.996	100.742	19.980	3.451	0.533
1220.500	697.093	79.995	19.995	100.742	19.986	3.055	0.505
1221.000	697.301	79.995	19.995	100.742	19.984	3.239	0.457
1221.500	697.585	79.995	19.995	100.742	19.985	3.160	0.459
1222.000	697.849	79.995	19.995	100.742	19.982	3.350	0.520
1222.500	698.091	79.994	19.994	100.746	19.983	3.292	0.527
1223.000	698.310	79.995	19.996	100.747	19.981	3.378	0.484
1223.500	698.590	79.996	19.994	100.747	19.982	3.333	0.481
1224.001	698.841	79.997	19.996	100.747	19.984	3.187	0.515
1224.501	699.122	79.997	19.997	100.748	19.983	3.254	0.531
1225.000	699.367	79.996	19.996	100.744	19.988	2.966	0.529
1225.500	699.616	79.996	19.995	100.744	19.987	3.028	0.510
1226.000	699.831	79.997	19.995	100.743	19.983	3.290	0.479
1226.500	700.135	79.996	19.996	100.742	19.982	3.359	0.492
1227.000	700.351	79.996	19.995	100.742	19.983	3.274	0.519
1227.501	700.593	79.996	19.996	100.744	19.983	3.245	0.488
1228.001	700.829	79.996	19.996	100.746	19.984	3.183	0.468
1228.501	701.109	79.995	19.995	100.747	19.984	3.196	0.497
1229.000	701.356	79.996	19.997	100.749	19.985	3.149	0.522
1229.500	701.600	79.996	19.996	100.749	19.981	3.413	0.509
1230.000	701.865	79.996	19.997	100.748	19.982	3.351	0.500
1230.500	702.167	79.995	19.996	100.746	19.984	3.236	0.538
1231.001	702.341	79.996	19.997	100.746	19.979	3.513	0.522
1231.501	702.614	79.996	19.994	100.749	19.981	3.399	0.461
1232.001	702.879	79.996	19.995	100.749	19.982	3.344	0.492
1232.500	703.123	79.995	19.994	100.748	19.981	3.415	0.524
1233.000	703.365	79.996	19.995	100.747	19.986	3.084	0.498
1233.500	703.649	79.995	19.994	100.745	19.987	2.979	0.506
1234.000	703.892	79.994	19.996	100.742	19.989	2.883	0.527
1234.500	704.181	79.996	19.995	100.742	19.984	3.205	0.529
1235.000	704.424	79.996	19.996	100.744	19.985	3.151	0.532
1235.500	704.672	79.996	19.996	100.745	19.985	3.153	0.512
1236.000	704.896	79.996	19.995	100.746	19.986	3.080	0.482
1236.500	705.156	79.995	19.996	100.746	19.986	3.046	0.478
1237.000	705.427	79.996	19.997	100.746	19.984	3.209	0.507
1237.500	705.691	79.994	19.995	100.745	19.987	2.997	0.533
1238.000	705.911	79.995	19.995	100.746	19.985	3.162	0.509
1238.500	706.183	79.994	19.996	100.748	19.982	3.348	0.488
1239.000	706.477	79.995	19.995	100.749	19.987	3.031	0.529
1239.500	706.719	79.997	19.997	100.749	19.990	2.789	0.551
1240.000	706.958	79.994	19.994	100.751	19.988	2.917	0.509
1240.500	707.208	79.995	19.995	100.750	19.990	2.841	0.485
1241.000	707.461	79.995	19.996	100.748	19.988	2.975	0.496
1241.500	707.721	79.995	19.998	100.749	19.982	3.375	0.508
1242.000	707.981	79.994	19.996	100.751	19.982	3.359	0.516
1242.501	708.267	79.994	19.997	100.749	19.984	3.223	0.532
1243.001	708.469	79.995	19.995	100.749	19.981	3.411	0.517
1243.500	708.734	79.995	19.996	100.748	19.983	3.245	0.478
1244.001	708.986	79.994	19.996	100.744	19.979	3.532	0.492
1244.501	709.235	79.995	19.996	100.742	19.982	3.342	0.510
1245.001	709.484	79.995	19.996	100.744	19.987	3.042	0.500
1245.501	709.736	79.994	19.995	100.746	19.984	3.228	0.499
1246.000	710.018	79.993	19.996	100.748	19.984	3.223	0.517
1246.500	710.244	79.995	19.996	100.751	19.985	3.131	0.521
1247.001	710.517	79.994	19.996	100.751	19.987	3.004	0.504
1247.501	710.745	79.995	19.995	100.749	19.986	3.056	0.500
1248.001	711.023	79.994	19.994	100.746	19.987	3.011	0.504
1248.501	711.303	79.994	19.995	100.747	19.986	3.098	0.532
1249.001	711.532	79.994	19.996	100.747	19.983	3.257	0.533
1249.500	711.805	79.997	19.995	100.747	19.985	3.169	0.506
1250.000	712.027	79.996	19.997	100.747	19.986	3.087	0.498
1250.500	712.316	79.997	19.996	100.747	19.986	3.055	0.503
1251.000	712.536	79.997	19.995	100.747	19.985	3.136	0.510
1251.500	712.804	79.996	19.995	100.747	19.985	3.116	0.498
1252.000	713.041	79.996	19.995	100.747	19.988	2.971	0.496
1252.501	713.289	79.997	19.995	100.746	19.986	3.109	0.495
1253.001	713.591	79.997	19.995	100.746	19.989	2.912	0.518
1253.500	713.859	79.997	19.995	100.745	19.989	2.912	0.560
1254.000	714.069	79.996	19.996	100.745	19.989	2.861	0.524
1254.500	714.318	79.995	19.997	100.744	19.983	3.308	0.468
1255.000	714.552	79.997	19.996	100.744	19.987	3.000	0.471
1255.500	714.806	79.995	19.994	100.742	19.990	2.843	0.485
1256.000	715.080	79.996	19.996	100.740	19.990	2.785	0.508
1256.500	715.311	79.996	19.995	100.739	19.985	3.118	0.517
1257.000	715.558	79.998	19.996	100.739	19.983	3.254	0.492
1257.500	715.830	79.997	19.996	100.739	19.987	3.011	0.499
1258.000	716.096	79.997	19.996	100.740	19.987	3.015	0.529
1258.500	716.324	79.997	19.995	100.742	19.986	3.096	0.516
1259.000	716.610	79.998	19.996	100.742	19.984	3.208	0.504
1259.501	716.851	79.998	19.995	100.742	19.986	3.078	0.521
1260.001	717.098	79.997	19.995	100.742	19.983	3.299	0.508
1260.500	717.318	79.997	19.995	100.742	19.984	3.219	0.477
1261.000	717.650	79.997	19.995	100.741	19.982	3.362	0.509
1261.500	717.854	79.996	19.996	100.742	19.984	3.217	0.544
1262.000	718.117	79.995	19.995	100.739	19.981	3.411	0.501
1262.500	718.376	79.998	19.997	100.739	19.985	3.165	0.495
1263.001	718.632	79.998	19.996	100.739	19.982	3.330	0.519
1263.501	718.851	79.997	19.997	100.739	19.980	3.469	0.495
1264.000	719.076	79.998	19.997	100.739	19.985	3.170	0.459
1264.500	719.361	79.997	19.995	100.742	19.984	3.226	0.476
1265.000	719.585	79.997	19.997	100.742	19.985	3.145	0.509
1265.500	719.855	79.996	19.996	100.743	19.983	3.244	0.502
1266.000	720.131	79.996	19.995	100.743	19.986	3.058	0.520
1266.500	720.340	79.996	19.995	100.743	19.983	3.308	0.515
1267.000	720.616	79.997	19.997	100.743	19.986	3.065	0.485
1267.500	720.874	79.998	19.996	100.743	19.981	3.409	0.509
1268.001	721.119	79.997	19.996	100.743	19.983	3.272	0.518
1268.501	721.345	79.995	19.995	100.744	19.984	3.208	0.487
1269.000	721.635	79.997	19.997	100.743	19.981	3.389	0.494
1269.500	721.854	79.995	19.996	100.743	19.987	3.000	0.512
1270.000	722.116	79.997	19.997	100.743	19.985	3.148	0.495
1270.500	722.356	79.996	19.997	100.740	19.981	3.383	0.491
1271.000	722.605	79.996	19.995	100.738	19.985	3.175	0.495
1271.500	722.826	79.997	19.996	100.737	19.981	3.418	0.480
1272.000	723.088	79.998	19.998	100.736	19.986	3.058	0.477
1272.500	723.357	79.997	19.997	100.737	19.983	3.302	0.507
1273.000	723.584	79.996	19.997	100.740	19.983	3.280	0.513
1273.500	723.823	79.997	19.998	100.740	19.981	3.403	0.481
1274.000	724.075	79.998	19.995	100.741	19.978	3.591	0.479
1274.500	724.340	79.998	19.996	100.741	19.981	3.400	0.504
1275.000	724.598	79.997	19.996	100.741	19.984	3.232	0.520
1275.500	724.830	79.997	19.997	100.740	19.982	3.331	0.507
1276.000	725.067	79.998	19.996	100.738	19.983	3.281	0.480
1276.500	725.339	79.998	19.996	100.737	19.983	3.279	0.489
1277.000	725.584	79.997	19.996	100.738	19.980	3.487	0.513
1277.500	725.837	79.997	19.997	100.738	19.979	3.534	0.507
1278.000	726.102	79.998	19.996	100.738	19.984	3.232	0.508
1278.500	726.324	79.997	19.994	100.740	19.980	3.472	0.503
1279.000	726.550	79.999	19.996	100.741	19.981	3.391	0.468
1279.500	726.862	79.998	19.997	100.739	19.983	3.246	0.493
1280.000	727.096	79.999	19.997	100.736	19.985	3.149	0.542
1280.500	727.343	79.999	19.996	100.734	19.981	3.393	0.513
1281.000	727.603	79.998	19.996	100.732	19.982	3.351	0.494
1281.500	727.837	79.999	19.996	100.729	19.982	3.328	0.501
1282.000	728.096	80.000	19.995	100.729	19.980	3.478	0.494
1282.500	728.337	79.997	19.995	100.733	19.983	3.286	0.496
1283.000	728.565	79.997	19.997	100.734	19.982	3.375	0.485
1283.500	728.827	79.998	19.996	100.732	19.979	3.547	0.480
1284.000	729.091	79.999	19.996	100.732	19.978	3.641	0.508
1284.500	729.317	79.999	19.995	100.731	19.980	3.469	0.508
1285.000	729.593	79.998	19.996	100.731	19.981	3.391	0.496
1285.500	729.869	79.998	19.996	100.732	19.978	3.579	0.527
1286.000	730.080	79.997	19.997	100.735	19.977	3.659	0.519
1286.500	730.372	79.997	19.996	100.737	19.983	3.245	0.495
1287.000	730.588	79.997	19.995	100.739	19.981	3.384	0.506
1287.500	730.857	79.997	19.996	100.739	19.981	3.429	0.496
1288.000	731.054	79.997	19.995	100.738	19.981	3.425	0.476
1288.500	731.347	79.995	19.994	100.739	19.980	3.445	0.478
1289.001	731.580	79.997	19.997	100.737	19.978	3.585	0.508
1289.501	731.855	79.997	19.997	100.737	19.984	3.230	0.517
1290.000	732.055	79.996	19.996	100.738	19.981	3.384	0.492
1290.500	732.346	79.996	19.995	100.738	19.982	3.360	0.483
1291.000	732.602	79.995	19.995	100.740	19.984	3.179	0.518
1291.501	732.845	79.996	19.998	100.742	19.984	3.214	0.523
1292.001	733.113	79.996	19.995	100.742	19.985	3.152	0.505
1292.500	733.345	79.995	19.996	100.741	19.984	3.192	0.506
1293.000	733.642	79.994	19.996	100.739	19.979	3.576	0.515
1293.500	733.867	79.996	19.998	100.739	19.981	3.406	0.525
1294.000	734.123	79.995	19.996	100.740	19.980	3.487	0.501
1294.500	734.406	79.995	19.996	100.741	19.979	3.517	0.510
1295.000	734.639	79.996	19.998	100.742	19.981	3.416	0.528
1295.500	734.857	79.994	19.996	100.743	19.981	3.411	0.484
1296.000	735.128	79.995	19.996	100.743	19.980	3.454	0.470
1296.500	735.372	79.994	19.996	100.742	19.982	3.356	0.502
1297.000	735.640	79.994	19.996	100.743	19.977	3.651	0.514
1297.500	735.870	79.993	19.997	100.742	19.979	3.557	0.505
1298.000	736.153	79.996	19.996	100.742	19.980	3.497	0.506
1298.500	736.388	79.995	19.997	100.742	19.985	3.172	0.515
1299.000	736.642	79.995	19.997	100.741	19.983	3.293	0.503
1299.501	736.880	79.995	19.998	100.741	19.982	3.329	0.491
1300.001	737.156	79.994	19.996	100.740	19.979	3.510	0.503
1300.500	737.437	79.995	19.996	100.740	19.979	3.566	0.536
1301.000	737.663	79.994	19.996	100.740	19.980	3.480	0.532
1301.500	737.920	79.994	19.998	100.741	19.983	3.275	0.494
1302.000	738.184	79.995	19.997	100.741	19.980	3.506	0.502
1302.500	738.438	79.994	19.997	100.742	19.981	3.392	0.520
1303.000	738.644	79.993	19.996	100.743	19.983	3.246	0.489
1303.500	738.919	79.995	19.996	100.743	19.983	3.282	0.470
1304.001	739.218	79.994	19.997	100.743	19.982	3.347	0.528
1304.501	739.447	79.995	19.996	100.743	19.982	3.317	0.551
1305.000	739.685	79.994	19.997	100.737	19.983	3.292	0.498
1305.500	739.935	79.995	19.996	100.735	19.981	3.440	0.477
1306.001	740.191	79.994	19.997	100.734	19.983	3.274	0.497
1306.501	740.458	79.995	19.997	100.731	19.980	3.473	0.515
1307.000	740.703	79.995	19.997	100.731	19.983	3.292	0.517
1307.500	740.942	79.996	19.997	100.736	19.980	3.507	0.498
1308.000	741.213	79.995	19.997	100.736	19.980	3.449	0.497
1308.501	741.434	79.995	19.996	100.734	19.977	3.646	0.501
1309.001	741.731	79.996	19.997	100.733	19.981	3.427	0.505
1309.500	741.953	79.996	19.998	100.733	19.981	3.400	0.519
1310.000	742.187	79.996	19.997	100.734	19.980	3.487	0.487
1310.500	742.436	79.995	19.996	100.733	19.982	3.367	0.469
1311.000	742.690	79.995	19.996	100.738	19.983	3.257	0.493
1311.500	742.978	79.995	19.994	100.742	19.981	3.408	0.522
1312.000	743.219	79.995	19.995	100.738	19.980	3.459	0.536
1312.500	743.501	79.995	19.995	100.734	19.979	3.521	0.527
