Sample ID:	C:\MCC\MCC Cal\Test\HDPE_MCC_30K_min_210921_R3.txt
Sample Weight (mg):	4.6
Heating Rate (C/s):	0.5
Combustor Temp (C):	900
N2 Flow Rate (cc/min):	80
O2 Flow Rate (cc/min):	20
Calibration File:	C:\MCC\MCC Cal\Coeff1 JN10440_30_210304.txt.txt
T Correction Coefficients:	0	1.024463	0
Time Shift (s):	14
*
Time (s)	Temperature (C)	N2 flow rate (cc/min)	O2 flow rate (cc/min)	Flow Rate (cc/min)	Oxygen (%)	HRR (W/g)	Heating rate (C/s)
0.000	108.614	80.009	19.996	100.243	19.927	0.169	-0.007
0.500	108.608	80.007	19.996	100.245	19.929	0.011	0.009
1.000	108.580	79.997	19.996	100.239	19.928	0.073	-0.008
1.500	108.592	79.994	19.997	100.233	19.929	-0.013	-0.026
2.000	108.610	79.998	19.996	100.226	19.932	-0.180	0.007
2.500	108.598	80.002	19.995	100.224	19.928	0.071	0.018
3.000	108.594	80.004	19.996	100.222	19.929	-0.013	-0.005
3.500	108.572	80.008	19.994	100.221	19.932	-0.176	-0.021
4.000	108.589	79.998	19.996	100.222	19.930	-0.082	-0.016
4.500	108.573	79.999	19.996	100.222	19.928	0.059	-0.003
5.000	108.584	79.991	19.997	100.222	19.930	-0.035	-0.002
5.500	108.577	80.001	19.996	100.219	19.931	-0.117	-0.000
6.000	108.608	80.003	19.995	100.220	19.927	0.125	0.014
6.500	108.604	80.011	19.995	100.221	19.928	0.057	0.025
7.000	108.609	80.006	19.995	100.224	19.929	0.031	0.014
7.500	108.578	80.008	19.994	100.227	19.931	-0.112	-0.012
8.000	108.612	80.001	19.995	100.232	19.933	-0.253	-0.011
8.500	108.579	79.997	19.997	100.231	19.930	-0.071	0.002
9.000	108.551	79.994	19.997	100.228	19.930	-0.049	-0.030
9.500	108.553	80.009	19.996	100.225	19.928	0.071	-0.044
10.000	108.576	80.001	19.996	100.225	19.927	0.147	-0.001
10.500	108.570	80.000	19.996	100.223	19.930	-0.066	0.021
11.000	108.562	79.997	19.996	100.223	19.928	0.068	0.002
11.500	108.540	80.002	19.996	100.224	19.925	0.266	-0.022
12.000	108.583	80.001	19.995	100.227	19.925	0.308	-0.005
12.500	108.570	80.001	19.995	100.224	19.922	0.456	0.026
13.000	108.566	80.000	19.995	100.225	19.927	0.167	0.007
13.500	108.591	80.001	19.995	100.224	19.929	0.000	0.002
14.000	108.541	80.003	19.995	100.226	19.932	-0.213	-0.002
14.500	108.584	80.000	19.996	100.227	19.928	0.084	-0.016
15.000	108.558	79.997	19.995	100.226	19.930	-0.035	0.005
15.500	108.531	80.001	19.996	100.225	19.931	-0.148	-0.018
16.000	108.563	80.007	19.994	100.224	19.929	0.038	-0.024
16.500	108.542	80.001	19.995	100.225	19.927	0.119	0.008
17.000	108.538	80.003	19.995	100.225	19.927	0.126	-0.007
17.500	108.575	80.012	19.994	100.226	19.926	0.242	0.004
18.000	108.524	79.994	19.997	100.230	19.930	-0.088	0.010
18.500	108.527	79.999	19.994	100.229	19.933	-0.247	-0.031
19.000	108.541	80.004	19.995	100.227	19.928	0.101	-0.016
19.500	108.525	80.018	19.993	100.231	19.930	-0.044	0.007
20.000	108.559	79.999	19.995	100.236	19.926	0.233	0.007
20.500	108.521	79.987	19.997	100.233	19.927	0.143	0.007
21.000	108.562	79.993	19.996	100.232	19.926	0.193	0.000
21.500	108.524	80.002	19.995	100.232	19.924	0.350	0.003
22.000	108.538	80.000	19.996	100.234	19.927	0.134	-0.011
22.500	108.529	79.999	19.996	100.235	19.924	0.321	-0.010
23.000	108.488	80.003	19.995	100.241	19.926	0.194	-0.022
23.500	108.538	80.001	19.994	100.252	19.928	0.106	-0.020
24.000	108.558	80.001	19.996	100.260	19.926	0.209	0.040
24.500	108.514	79.999	19.995	100.263	19.922	0.510	0.023
25.000	108.545	80.008	19.994	100.267	19.920	0.648	-0.019
25.500	108.538	80.000	19.995	100.270	19.921	0.560	0.006
26.000	108.546	80.009	19.994	100.274	19.919	0.681	0.013
26.500	108.505	79.999	19.996	100.284	19.922	0.477	-0.017
27.000	108.542	79.990	19.996	100.288	19.921	0.528	-0.019
27.500	108.557	80.003	19.995	100.287	19.919	0.675	0.024
28.000	108.566	79.998	19.996	100.287	19.919	0.672	0.038
28.500	108.585	79.999	19.995	100.286	19.921	0.552	0.026
29.000	108.589	80.001	19.995	100.284	19.917	0.822	0.026
29.500	108.633	80.002	19.995	100.288	19.920	0.633	0.036
30.000	108.636	80.004	19.995	100.295	19.914	1.048	0.048
30.500	108.630	80.000	19.995	100.308	19.914	1.061	0.022
31.000	108.650	79.996	19.996	100.320	19.915	0.993	0.005
31.500	108.661	79.997	19.996	100.328	19.912	1.154	0.022
32.000	108.647	79.998	19.997	100.334	19.911	1.208	0.014
32.500	108.701	79.999	19.996	100.342	19.914	1.030	0.019
33.000	108.747	79.999	19.996	100.347	19.912	1.178	0.070
33.500	108.757	80.002	19.996	100.353	19.913	1.101	0.078
34.000	108.757	79.998	19.997	100.360	19.908	1.419	0.033
34.500	108.820	80.000	19.996	100.369	19.907	1.540	0.036
35.000	108.827	80.000	19.996	100.375	19.905	1.672	0.066
35.500	108.853	80.001	19.996	100.378	19.907	1.523	0.052
36.000	108.892	79.998	19.995	100.380	19.905	1.630	0.049
36.500	108.907	80.001	19.996	100.382	19.903	1.769	0.059
37.000	108.972	80.001	19.995	100.384	19.904	1.705	0.067
37.500	109.044	80.005	19.996	100.384	19.899	2.034	0.109
38.000	109.057	79.998	19.995	100.388	19.901	1.940	0.111
38.500	109.078	79.997	19.996	100.394	19.901	1.896	0.059
39.000	109.146	79.996	19.996	100.398	19.901	1.940	0.061
39.500	109.196	79.997	19.995	100.400	19.901	1.933	0.104
40.000	109.227	79.992	19.996	100.407	19.900	1.993	0.099
40.500	109.316	80.010	19.993	100.409	19.899	2.065	0.100
41.001	109.359	80.010	19.994	100.415	19.897	2.170	0.126
41.501	109.355	79.997	19.995	100.420	19.896	2.272	0.086
42.001	109.454	79.996	19.995	100.424	19.897	2.214	0.067
42.500	109.526	79.997	19.995	100.425	19.897	2.216	0.133
43.000	109.598	79.999	19.996	100.426	19.896	2.238	0.157
43.500	109.630	80.001	19.995	100.422	19.896	2.241	0.124
44.000	109.699	79.994	19.995	100.421	19.894	2.362	0.103
44.500	109.744	79.998	19.995	100.420	19.896	2.241	0.107
45.000	109.812	80.008	19.993	100.421	19.894	2.366	0.113
45.500	109.905	80.005	19.993	100.423	19.892	2.527	0.137
46.000	109.969	79.994	19.995	100.425	19.895	2.353	0.159
46.500	110.078	79.995	19.996	100.424	19.893	2.492	0.165
47.000	110.149	80.006	19.994	100.424	19.893	2.445	0.177
47.500	110.206	80.003	19.995	100.426	19.892	2.500	0.154
48.000	110.311	79.994	19.995	100.425	19.893	2.441	0.145
48.500	110.363	79.997	19.994	100.423	19.892	2.527	0.159
49.001	110.426	80.000	19.994	100.425	19.893	2.491	0.135
49.501	110.530	79.998	19.994	100.427	19.889	2.759	0.141
50.001	110.657	79.999	19.994	100.426	19.888	2.803	0.199
50.501	110.698	79.999	19.994	100.425	19.886	2.951	0.200
51.001	110.786	80.001	19.995	100.425	19.893	2.465	0.149
51.500	110.866	79.999	19.996	100.427	19.891	2.628	0.148
52.000	110.971	80.001	19.995	100.430	19.891	2.570	0.176
52.500	111.067	79.999	19.995	100.435	19.891	2.570	0.193
53.000	111.176	80.001	19.996	100.435	19.889	2.715	0.203
53.500	111.279	80.000	19.994	100.435	19.891	2.619	0.208
54.000	111.386	80.000	19.995	100.433	19.890	2.645	0.211
54.500	111.459	80.000	19.995	100.428	19.895	2.337	0.195
55.000	111.554	80.001	19.995	100.421	19.891	2.568	0.174
55.500	111.659	80.002	19.994	100.421	19.895	2.359	0.184
56.000	111.742	79.999	19.995	100.420	19.892	2.551	0.194
56.500	111.848	79.999	19.994	100.423	19.891	2.570	0.188
57.000	111.975	80.000	19.995	100.424	19.891	2.594	0.211
57.500	112.078	80.001	19.995	100.425	19.891	2.601	0.232
58.000	112.169	80.003	19.994	100.424	19.893	2.467	0.212
58.500	112.298	80.001	19.995	100.424	19.891	2.621	0.207
59.000	112.404	80.000	19.996	100.421	19.891	2.633	0.228
59.500	112.515	80.001	19.995	100.420	19.894	2.390	0.226
60.000	112.642	80.001	19.995	100.423	19.892	2.519	0.228
60.501	112.739	80.000	19.994	100.427	19.893	2.478	0.231
61.001	112.841	80.000	19.995	100.429	19.894	2.427	0.211
61.500	113.042	80.002	19.993	100.430	19.893	2.441	0.251
62.000	113.065	79.999	19.995	100.431	19.893	2.456	0.263
62.500	113.211	80.002	19.994	100.428	19.894	2.364	0.196
63.000	113.319	79.997	19.994	100.427	19.893	2.448	0.212
63.500	113.436	80.001	19.995	100.424	19.893	2.430	0.240
64.000	113.537	79.996	19.996	100.427	19.895	2.314	0.221
64.501	113.690	80.001	19.996	100.425	19.893	2.478	0.236
65.001	113.790	80.000	19.996	100.426	19.891	2.579	0.254
65.500	113.915	80.003	19.994	100.427	19.894	2.386	0.239
66.000	114.084	80.004	19.996	100.429	19.891	2.608	0.259
66.500	114.243	79.997	19.995	100.426	19.891	2.579	0.311
67.000	114.388	79.999	19.995	100.428	19.892	2.560	0.316
67.501	114.456	80.000	19.994	100.433	19.892	2.524	0.259
68.001	114.597	79.999	19.995	100.437	19.892	2.507	0.212
68.500	114.747	80.000	19.995	100.440	19.888	2.793	0.250
69.000	114.863	80.001	19.995	100.443	19.891	2.579	0.278
69.500	114.980	79.999	19.995	100.446	19.892	2.514	0.249
70.000	115.171	79.998	19.995	100.446	19.890	2.658	0.271
70.500	115.277	79.999	19.995	100.442	19.892	2.540	0.302
71.000	115.405	79.998	19.995	100.442	19.890	2.639	0.266
71.500	115.571	79.998	19.996	100.443	19.891	2.614	0.264
72.001	115.702	79.998	19.996	100.440	19.891	2.595	0.295
72.501	115.875	79.999	19.995	100.434	19.894	2.368	0.301
73.000	115.984	80.001	19.995	100.433	19.891	2.604	0.293
73.500	116.140	80.000	19.995	100.431	19.892	2.542	0.274
74.000	116.233	80.001	19.995	100.426	19.893	2.476	0.257
74.500	116.389	80.000	19.996	100.426	19.892	2.524	0.249
75.000	116.558	80.001	19.995	100.425	19.893	2.436	0.287
75.500	116.719	80.001	19.995	100.423	19.889	2.750	0.327
76.000	116.866	80.003	19.995	100.421	19.891	2.607	0.318
76.500	117.008	80.000	19.994	100.421	19.891	2.592	0.298
77.000	117.139	79.997	19.995	100.421	19.891	2.566	0.282
77.500	117.302	80.002	19.995	100.420	19.892	2.551	0.284
78.001	117.448	80.000	19.996	100.421	19.895	2.310	0.301
78.501	117.613	80.000	19.997	100.421	19.893	2.473	0.310
79.000	117.772	80.002	19.994	100.420	19.896	2.257	0.318
79.500	117.920	80.002	19.995	100.421	19.893	2.445	0.316
80.000	118.057	80.003	19.995	100.421	19.894	2.388	0.296
80.500	118.229	80.001	19.994	100.421	19.894	2.375	0.297
81.000	118.352	80.001	19.995	100.421	19.893	2.447	0.302
81.500	118.503	80.002	19.995	100.420	19.894	2.385	0.285
82.000	118.607	80.002	19.995	100.420	19.894	2.427	0.264
82.500	118.783	80.003	19.995	100.422	19.893	2.438	0.267
83.000	118.991	80.010	19.993	100.422	19.893	2.451	0.332
83.500	119.113	80.005	19.994	100.425	19.890	2.678	0.357
84.000	119.279	80.001	19.994	100.426	19.890	2.657	0.309
84.500	119.452	80.003	19.994	100.427	19.891	2.583	0.313
85.000	119.556	80.003	19.995	100.427	19.892	2.537	0.308
85.500	119.748	80.000	19.994	100.431	19.894	2.412	0.287
86.000	119.882	80.003	19.994	100.429	19.892	2.559	0.311
86.500	120.035	80.002	19.994	100.440	19.892	2.545	0.307
87.001	120.216	80.000	19.994	100.460	19.890	2.697	0.310
87.501	120.384	80.002	19.994	100.445	19.892	2.539	0.341
88.000	120.552	80.001	19.994	100.422	19.889	2.706	0.343
88.500	120.743	80.002	19.995	100.419	19.889	2.734	0.348
89.001	120.872	80.003	19.995	100.410	19.888	2.818	0.339
89.501	121.015	80.002	19.994	100.396	19.890	2.679	0.296
90.000	121.140	80.001	19.995	100.414	19.891	2.605	0.270
90.500	121.355	80.000	19.994	100.435	19.891	2.569	0.304
91.000	121.510	80.000	19.995	100.446	19.886	2.927	0.355
91.500	121.631	80.000	19.994	100.446	19.886	2.923	0.324
92.000	121.824	80.000	19.995	100.444	19.886	2.918	0.295
92.501	122.045	79.999	19.995	100.446	19.889	2.739	0.364
93.001	122.200	79.999	19.995	100.446	19.887	2.870	0.395
93.500	122.397	79.998	19.995	100.443	19.887	2.901	0.364
94.000	122.530	80.000	19.996	100.446	19.886	2.906	0.341
94.500	122.734	80.000	19.996	100.450	19.886	2.927	0.333
95.000	122.925	79.999	19.996	100.453	19.887	2.851	0.366
95.500	123.095	80.001	19.995	100.458	19.885	3.013	0.378
96.000	123.216	79.997	19.996	100.457	19.885	3.020	0.327
96.500	123.413	80.001	19.996	100.454	19.886	2.941	0.305
97.000	123.579	79.999	19.996	100.452	19.887	2.905	0.341
97.500	123.789	80.000	19.995	100.451	19.888	2.795	0.369
98.000	123.952	79.998	19.996	100.449	19.888	2.810	0.374
98.500	124.128	79.999	19.996	100.450	19.884	3.050	0.356
99.000	124.306	80.001	19.996	100.455	19.885	3.008	0.347
99.500	124.502	79.998	19.995	100.456	19.885	2.984	0.364
100.000	124.669	80.000	19.995	100.456	19.884	3.095	0.368
100.501	124.846	80.001	19.995	100.458	19.887	2.905	0.353
101.001	125.031	79.998	19.995	100.460	19.884	3.066	0.353
101.500	125.228	80.002	19.995	100.461	19.885	3.000	0.372
102.000	125.409	80.001	19.995	100.461	19.884	3.069	0.380
102.501	125.581	80.003	19.994	100.461	19.883	3.113	0.366
103.001	125.736	79.997	19.995	100.462	19.889	2.729	0.341
103.501	125.980	80.000	19.995	100.462	19.881	3.298	0.363
104.000	126.143	80.001	19.994	100.462	19.883	3.161	0.403
104.500	126.344	80.000	19.995	100.462	19.880	3.321	0.386
105.000	126.519	80.001	19.994	100.462	19.886	2.932	0.370
105.500	126.714	79.999	19.995	100.462	19.885	3.017	0.373
106.000	126.897	79.995	19.996	100.462	19.885	3.031	0.374
106.500	127.072	80.001	19.995	100.461	19.886	2.929	0.368
107.000	127.288	79.998	19.995	100.461	19.888	2.837	0.375
107.500	127.499	80.002	19.995	100.461	19.883	3.154	0.409
108.000	127.663	80.001	19.994	100.460	19.886	2.906	0.401
108.500	127.832	80.001	19.995	100.465	19.887	2.864	0.354
109.000	128.035	80.003	19.993	100.480	19.886	2.960	0.352
109.500	128.255	80.001	19.995	100.487	19.886	2.921	0.397
110.000	128.439	79.994	19.995	100.488	19.888	2.829	0.414
110.500	128.662	80.003	19.994	100.487	19.886	2.930	0.405
111.000	128.864	80.002	19.995	100.492	19.885	2.982	0.415
111.500	129.051	80.003	19.994	100.476	19.883	3.140	0.407
112.000	129.268	80.001	19.995	100.465	19.884	3.066	0.397
112.500	129.442	80.001	19.996	100.454	19.883	3.149	0.398
113.000	129.675	80.002	19.995	100.447	19.883	3.141	0.399
113.500	129.859	79.999	19.995	100.431	19.887	2.846	0.412
114.000	130.060	80.002	19.994	100.425	19.885	3.040	0.400
114.500	130.248	80.002	19.995	100.429	19.886	2.932	0.386
115.000	130.469	80.002	19.995	100.440	19.886	2.950	0.399
115.500	130.647	80.002	19.995	100.448	19.883	3.132	0.404
116.000	130.893	80.001	19.995	100.454	19.888	2.814	0.412
116.500	131.042	80.001	19.995	100.461	19.886	2.939	0.409
117.000	131.268	80.000	19.996	100.463	19.886	2.923	0.385
117.500	131.469	80.002	19.996	100.461	19.887	2.899	0.402
118.000	131.678	80.000	19.996	100.463	19.885	2.982	0.419
118.500	131.906	79.997	19.996	100.462	19.884	3.064	0.423
119.000	132.096	80.001	19.995	100.462	19.885	2.987	0.427
119.501	132.331	80.000	19.995	100.463	19.886	2.960	0.421
120.001	132.546	79.999	19.995	100.464	19.882	3.241	0.438
120.500	132.757	80.000	19.995	100.463	19.888	2.837	0.438
121.000	132.957	79.998	19.996	100.462	19.885	2.974	0.419
121.500	133.166	79.996	19.995	100.463	19.887	2.890	0.410
122.000	133.392	79.999	19.996	100.460	19.883	3.134	0.422
122.500	133.589	79.999	19.996	100.459	19.886	2.950	0.429
123.000	133.795	79.998	19.996	100.458	19.884	3.050	0.413
123.500	134.031	79.999	19.996	100.458	19.886	2.950	0.423
124.000	134.259	79.999	19.996	100.458	19.887	2.895	0.453
124.500	134.460	79.999	19.997	100.458	19.887	2.866	0.447
125.000	134.673	80.000	19.996	100.459	19.884	3.072	0.421
125.500	134.906	79.995	19.996	100.459	19.885	3.038	0.430
126.000	135.088	79.991	19.997	100.458	19.889	2.748	0.430
126.500	135.319	79.996	19.996	100.456	19.886	2.934	0.414
127.000	135.532	79.990	19.997	100.455	19.886	2.950	0.429
127.500	135.710	79.998	19.996	100.454	19.889	2.769	0.418
128.000	135.950	80.001	19.995	100.453	19.889	2.736	0.405
128.500	136.171	79.998	19.996	100.453	19.887	2.846	0.439
129.000	136.392	80.001	19.995	100.455	19.888	2.835	0.451
129.500	136.635	79.993	19.997	100.456	19.889	2.767	0.453
130.000	136.847	79.994	19.996	100.457	19.886	2.906	0.460
130.500	137.084	80.011	19.995	100.457	19.886	2.930	0.452
131.000	137.289	80.008	19.995	100.459	19.887	2.848	0.445
131.500	137.514	79.988	19.997	100.460	19.889	2.714	0.436
132.000	137.734	80.008	19.995	100.457	19.890	2.635	0.438
132.500	137.943	79.996	19.997	100.460	19.886	2.921	0.437
133.000	138.157	79.998	19.996	100.459	19.889	2.765	0.426
133.500	138.414	80.002	19.995	100.457	19.888	2.791	0.447
134.000	138.618	79.994	19.996	100.458	19.886	2.925	0.466
134.500	138.838	79.999	19.995	100.460	19.885	3.026	0.443
135.000	139.075	79.995	19.995	100.458	19.887	2.886	0.441
135.500	139.309	79.994	19.997	100.459	19.886	2.934	0.464
136.000	139.519	79.981	19.997	100.459	19.887	2.848	0.457
136.500	139.760	79.998	19.995	100.453	19.888	2.782	0.448
137.000	139.985	79.998	19.996	100.455	19.886	2.919	0.459
137.500	140.199	79.994	19.996	100.454	19.889	2.726	0.452
138.000	140.408	80.002	19.994	100.454	19.887	2.864	0.430
138.500	140.670	80.003	19.995	100.455	19.885	2.998	0.447
139.000	140.897	79.988	19.995	100.460	19.884	3.081	0.481
139.500	141.152	79.998	19.995	100.458	19.888	2.785	0.486
140.000	141.340	79.999	19.996	100.458	19.887	2.851	0.463
140.500	141.605	80.001	19.995	100.459	19.885	2.991	0.448
141.000	141.822	79.999	19.995	100.458	19.888	2.798	0.467
141.500	142.059	80.001	19.995	100.458	19.886	2.965	0.468
142.000	142.331	80.003	19.995	100.460	19.887	2.864	0.482
142.500	142.523	79.994	19.996	100.461	19.885	3.041	0.487
143.000	142.760	80.000	19.995	100.460	19.888	2.776	0.446
143.500	143.012	79.997	19.995	100.460	19.888	2.776	0.459
144.000	143.185	80.001	19.995	100.458	19.885	3.017	0.457
144.500	143.455	79.999	19.995	100.458	19.883	3.129	0.434
145.000	143.673	79.997	19.996	100.457	19.886	2.942	0.465
145.500	143.908	80.000	19.995	100.457	19.884	3.088	0.470
146.000	144.147	80.005	19.995	100.457	19.887	2.885	0.463
146.500	144.368	79.994	19.996	100.459	19.887	2.894	0.467
147.000	144.598	79.994	19.995	100.458	19.885	2.991	0.456
147.500	144.797	79.998	19.996	100.458	19.887	2.885	0.440
148.000	145.056	79.999	19.995	100.458	19.888	2.776	0.443
148.500	145.326	79.994	19.996	100.460	19.887	2.870	0.493
149.000	145.526	80.000	19.995	100.457	19.888	2.815	0.499
149.500	145.776	79.998	19.995	100.459	19.887	2.895	0.460
150.000	146.019	80.002	19.995	100.458	19.886	2.972	0.472
150.500	146.267	80.002	19.995	100.458	19.884	3.088	0.492
151.000	146.444	79.998	19.995	100.458	19.885	3.012	0.458
151.500	146.766	79.998	19.995	100.460	19.883	3.163	0.462
152.000	146.983	79.997	19.995	100.459	19.886	2.949	0.519
152.500	147.217	80.005	19.995	100.460	19.885	2.978	0.495
153.000	147.454	80.002	19.994	100.462	19.886	2.919	0.461
153.500	147.719	80.013	19.992	100.463	19.886	2.939	0.487
154.000	147.925	80.002	19.996	100.467	19.886	2.941	0.486
154.500	148.153	80.006	19.995	100.468	19.890	2.664	0.452
155.000	148.419	80.002	19.995	100.470	19.888	2.833	0.464
155.500	148.642	80.006	19.994	100.469	19.887	2.881	0.492
156.000	148.861	80.001	19.995	100.470	19.885	3.037	0.465
156.500	149.113	80.002	19.995	100.466	19.887	2.846	0.456
157.000	149.321	80.006	19.995	100.466	19.885	2.985	0.465
157.500	149.594	80.004	19.994	100.465	19.886	2.934	0.471
158.000	149.809	79.996	19.996	100.466	19.888	2.809	0.485
158.500	150.073	79.999	19.994	100.468	19.884	3.066	0.483
159.000	150.325	80.004	19.995	100.468	19.886	2.952	0.497
159.500	150.515	79.991	19.996	100.463	19.885	2.974	0.479
160.000	150.788	80.006	19.995	100.458	19.886	2.960	0.453
160.500	150.987	80.002	19.994	100.453	19.889	2.747	0.468
161.000	151.240	80.002	19.994	100.445	19.889	2.712	0.463
161.500	151.524	79.999	19.994	100.440	19.888	2.796	0.495
162.000	151.759	80.004	19.995	100.444	19.886	2.967	0.528
162.500	151.995	80.002	19.995	100.452	19.890	2.644	0.495
163.000	152.204	79.995	19.996	100.454	19.888	2.783	0.458
163.500	152.462	80.003	19.995	100.457	19.888	2.783	0.456
164.000	152.717	79.998	19.995	100.458	19.889	2.723	0.490
164.500	152.957	80.000	19.994	100.458	19.888	2.791	0.504
165.000	153.168	79.998	19.995	100.457	19.887	2.862	0.473
165.500	153.401	80.002	19.995	100.455	19.884	3.073	0.448
166.000	153.682	79.996	19.995	100.457	19.887	2.842	0.479
166.500	153.910	80.002	19.995	100.459	19.887	2.880	0.511
167.000	154.150	80.001	19.994	100.456	19.886	2.924	0.488
167.500	154.422	79.998	19.994	100.450	19.886	2.915	0.490
168.000	154.642	79.995	19.996	100.450	19.887	2.884	0.502
168.500	154.869	80.002	19.994	100.446	19.888	2.794	0.469
169.000	155.121	80.002	19.994	100.445	19.886	2.952	0.463
169.500	155.375	80.002	19.995	100.448	19.889	2.733	0.492
170.000	155.618	80.007	19.993	100.454	19.887	2.849	0.502
170.500	155.863	80.009	19.991	100.453	19.889	2.728	0.493
171.000	156.105	80.002	19.994	100.459	19.890	2.678	0.487
171.500	156.305	79.984	19.997	100.460	19.887	2.871	0.464
172.000	156.591	80.004	19.994	100.452	19.890	2.693	0.464
172.500	156.824	79.995	19.995	100.452	19.888	2.812	0.502
173.000	157.121	79.996	19.994	100.453	19.888	2.810	0.524
173.500	157.327	79.992	19.995	100.448	19.887	2.880	0.517
174.000	157.577	80.000	19.994	100.446	19.885	3.027	0.480
174.500	157.820	80.000	19.994	100.454	19.884	3.100	0.474
175.000	158.092	80.001	19.995	100.452	19.883	3.161	0.503
175.500	158.324	79.994	19.995	100.452	19.891	2.581	0.509
176.000	158.558	80.003	19.994	100.450	19.891	2.573	0.485
176.500	158.847	79.989	19.994	100.445	19.888	2.784	0.495
177.000	159.046	79.998	19.995	100.438	19.893	2.474	0.506
177.500	159.297	80.007	19.994	100.438	19.886	2.959	0.469
178.000	159.539	80.008	19.994	100.437	19.883	3.117	0.471
178.500	159.751	79.993	19.997	100.438	19.885	2.983	0.474
179.000	160.076	79.996	19.994	100.436	19.889	2.748	0.496
179.500	160.300	79.996	19.995	100.439	19.889	2.726	0.543
180.000	160.554	80.011	19.993	100.438	19.885	2.988	0.513
180.500	160.817	79.998	19.994	100.441	19.887	2.865	0.498
181.000	161.066	80.003	19.994	100.441	19.888	2.770	0.515
181.500	161.288	79.996	19.995	100.445	19.887	2.884	0.492
182.000	161.536	79.999	19.995	100.445	19.890	2.663	0.470
182.500	161.732	79.999	19.996	100.442	19.889	2.737	0.456
183.000	162.037	79.994	19.996	100.434	19.893	2.441	0.473
183.500	162.287	80.003	19.995	100.429	19.891	2.627	0.529
184.000	162.520	79.998	19.996	100.428	19.891	2.588	0.519
184.500	162.744	79.999	19.996	100.426	19.892	2.561	0.469
185.000	163.042	80.010	19.995	100.428	19.890	2.645	0.489
185.500	163.264	79.998	19.995	100.430	19.892	2.526	0.521
186.000	163.571	80.005	19.995	100.431	19.892	2.527	0.525
186.500	163.738	80.008	19.995	100.430	19.891	2.599	0.502
187.000	163.994	79.989	19.998	100.430	19.890	2.634	0.449
187.500	164.326	80.002	19.995	100.424	19.892	2.551	0.506
188.000	164.421	80.012	19.992	100.422	19.893	2.447	0.507
188.500	164.742	79.992	19.996	100.426	19.889	2.755	0.421
189.000	165.002	80.004	19.995	100.426	19.892	2.514	0.499
189.500	165.473	79.993	19.996	100.427	19.894	2.423	0.657
190.000	165.739	79.999	19.995	100.431	19.894	2.415	0.734
190.500	165.955	80.001	19.995	100.433	19.896	2.268	0.609
191.000	166.314	80.010	19.995	100.428	19.892	2.498	0.528
191.500	166.327	79.998	19.997	100.433	19.889	2.713	0.473
192.000	166.573	80.005	19.995	100.431	19.893	2.450	0.315
192.500	166.841	79.996	19.996	100.435	19.893	2.456	0.387
193.000	166.939	80.013	19.995	100.433	19.893	2.478	0.440
193.500	167.353	80.001	19.996	100.436	19.892	2.540	0.439
194.000	167.556	79.995	19.996	100.437	19.890	2.693	0.565
194.500	167.772	80.002	19.996	100.436	19.892	2.502	0.518
195.000	168.100	79.999	19.997	100.435	19.887	2.878	0.482
195.500	168.300	79.994	19.995	100.435	19.895	2.300	0.536
196.000	168.577	80.006	19.996	100.430	19.892	2.555	0.502
196.500	168.802	80.004	19.996	100.425	19.892	2.500	0.489
197.000	169.062	80.015	19.995	100.424	19.894	2.362	0.494
197.500	169.302	80.012	19.995	100.423	19.892	2.531	0.493
198.000	169.585	80.003	19.995	100.425	19.893	2.496	0.511
198.500	169.827	80.000	19.995	100.426	19.895	2.338	0.524
199.000	170.061	79.999	19.995	100.426	19.893	2.474	0.501
199.500	170.371	79.994	19.996	100.425	19.897	2.223	0.510
200.000	170.578	80.000	19.996	100.420	19.894	2.388	0.530
200.500	170.841	80.004	19.996	100.417	19.894	2.401	0.494
201.000	171.121	79.999	19.995	100.418	19.896	2.281	0.507
201.500	171.359	80.000	19.996	100.417	19.894	2.393	0.531
202.000	171.599	79.987	19.997	100.419	19.894	2.364	0.498
202.500	171.871	80.004	19.995	100.420	19.897	2.184	0.494
203.000	172.073	79.996	19.997	100.424	19.896	2.235	0.493
203.500	172.337	80.004	19.995	100.422	19.897	2.221	0.470
204.000	172.578	80.008	19.995	100.422	19.893	2.435	0.485
204.500	172.882	80.009	19.995	100.422	19.896	2.278	0.525
205.000	173.136	80.005	19.993	100.425	19.896	2.283	0.551
205.500	173.409	80.002	19.994	100.426	19.897	2.215	0.543
206.000	173.631	80.009	19.994	100.429	19.892	2.498	0.511
206.500	173.875	79.995	19.997	100.432	19.897	2.175	0.481
207.001	174.127	80.002	19.996	100.428	19.895	2.329	0.481
207.500	174.390	79.996	19.996	100.425	19.892	2.529	0.506
208.000	174.610	79.997	19.996	100.420	19.892	2.521	0.499
208.500	174.892	80.005	19.995	100.418	19.894	2.424	0.493
209.000	175.095	79.997	19.995	100.418	19.894	2.373	0.493
209.500	175.403	80.016	19.994	100.421	19.891	2.602	0.498
210.000	175.663	80.001	19.995	100.426	19.895	2.301	0.540
210.500	175.881	80.002	19.995	100.427	19.894	2.412	0.523
211.000	176.127	80.002	19.996	100.428	19.895	2.334	0.470
211.500	176.363	80.006	19.995	100.426	19.893	2.478	0.473
212.000	176.635	79.993	19.996	100.427	19.894	2.402	0.495
212.500	176.879	80.000	19.996	100.422	19.897	2.197	0.513
213.000	177.144	79.990	19.997	100.421	19.891	2.599	0.512
213.500	177.399	79.998	19.997	100.419	19.891	2.577	0.514
214.000	177.668	80.009	19.995	100.418	19.891	2.584	0.522
214.500	177.907	79.993	19.995	100.418	19.891	2.632	0.516
215.000	178.153	79.988	19.998	100.419	19.894	2.367	0.496
215.500	178.452	79.997	19.997	100.416	19.891	2.584	0.515
216.000	178.668	80.000	19.996	100.418	19.895	2.296	0.530
216.500	178.914	80.004	19.995	100.419	19.896	2.268	0.489
217.000	179.162	79.994	19.996	100.418	19.897	2.176	0.478
217.500	179.448	79.995	19.999	100.415	19.897	2.217	0.514
218.000	179.659	79.990	19.998	100.412	19.895	2.332	0.515
218.500	179.897	79.989	19.997	100.408	19.896	2.233	0.473
219.000	180.189	80.000	19.995	100.403	19.896	2.265	0.489
219.500	180.406	79.993	19.998	100.402	19.896	2.266	0.519
220.000	180.648	79.983	19.998	100.405	19.899	2.072	0.484
220.500	180.917	80.013	19.994	100.407	19.895	2.309	0.485
221.000	181.177	80.003	19.995	100.411	19.895	2.349	0.520
221.500	181.391	79.996	19.995	100.417	19.896	2.235	0.502
222.000	181.645	80.007	19.994	100.414	19.894	2.400	0.471
222.500	181.936	79.999	19.996	100.419	19.892	2.523	0.507
223.000	182.166	80.002	19.995	100.423	19.896	2.261	0.534
223.500	182.378	79.997	19.996	100.423	19.893	2.435	0.482
224.000	182.662	80.001	19.995	100.419	19.896	2.235	0.469
224.500	182.862	80.001	19.996	100.420	19.896	2.266	0.490
225.000	183.122	79.998	19.996	100.413	19.895	2.327	0.472
225.500	183.377	79.997	19.997	100.410	19.897	2.156	0.487
226.000	183.628	80.000	19.995	100.405	19.898	2.147	0.510
226.500	183.897	79.998	19.995	100.405	19.898	2.092	0.513
227.000	184.143	80.004	19.994	100.402	19.894	2.371	0.518
227.500	184.371	80.003	19.995	100.406	19.896	2.279	0.494
228.000	184.585	79.996	19.996	100.405	19.899	2.083	0.458
228.500	184.845	79.996	19.995	100.406	19.896	2.226	0.458
229.000	185.151	80.001	19.995	100.406	19.894	2.373	0.520
229.500	185.373	79.997	19.994	100.412	19.895	2.343	0.547
230.000	185.646	79.989	19.997	100.411	19.894	2.382	0.511
230.500	185.890	80.007	19.994	100.410	19.897	2.165	0.506
231.000	186.167	79.996	19.995	100.415	19.899	2.048	0.519
231.500	186.401	79.997	19.995	100.415	19.898	2.152	0.516
232.000	186.657	79.999	19.995	100.411	19.895	2.356	0.501
232.500	186.974	80.001	19.994	100.410	19.899	2.061	0.532
233.000	187.164	79.993	19.995	100.415	19.899	2.052	0.540
233.500	187.419	79.989	19.995	100.410	19.898	2.119	0.476
234.000	187.707	79.994	19.995	100.408	19.899	2.022	0.494
234.500	187.926	80.003	19.994	100.411	19.897	2.180	0.525
235.000	188.136	79.998	19.995	100.414	19.899	2.053	0.468
235.500	188.379	79.999	19.995	100.409	19.898	2.088	0.441
236.000	188.643	80.002	19.994	100.412	19.895	2.307	0.480
236.500	188.860	79.994	19.995	100.417	19.895	2.352	0.494
237.000	189.096	79.996	19.995	100.416	19.895	2.327	0.467
237.500	189.349	80.001	19.996	100.413	19.897	2.167	0.471
238.000	189.608	79.999	19.995	100.414	19.899	2.062	0.501
238.500	189.887	79.998	19.994	100.410	19.899	2.062	0.524
239.000	190.120	80.012	19.994	100.402	19.900	2.015	0.525
239.500	190.380	79.993	19.995	100.404	19.899	2.064	0.503
240.000	190.648	79.999	19.995	100.398	19.901	1.949	0.511
240.500	190.892	80.008	19.994	100.394	19.901	1.930	0.520
241.000	191.106	79.996	19.995	100.396	19.901	1.947	0.485
241.500	191.358	80.003	19.995	100.399	19.901	1.888	0.462
242.000	191.644	80.009	19.995	100.397	19.903	1.767	0.502
242.500	191.797	79.994	19.995	100.404	19.901	1.899	0.488
243.000	192.085	79.999	19.994	100.406	19.902	1.879	0.440
243.500	192.344	79.995	19.995	100.405	19.900	2.016	0.494
244.000	192.540	79.987	19.997	100.402	19.900	1.983	0.501
244.500	192.813	80.008	19.995	100.397	19.900	1.958	0.462
245.000	193.097	80.004	19.995	100.395	19.902	1.833	0.513
245.500	193.339	80.000	19.995	100.400	19.903	1.781	0.542
246.000	193.588	79.999	19.995	100.399	19.902	1.840	0.509
246.500	193.830	79.999	19.996	100.400	19.900	1.959	0.491
247.000	194.070	79.998	19.996	100.404	19.903	1.791	0.486
247.500	194.304	79.993	19.996	100.401	19.906	1.561	0.478
248.000	194.529	80.010	19.994	100.396	19.902	1.881	0.467
248.500	194.798	80.008	19.995	100.395	19.899	2.051	0.477
249.000	195.056	80.004	19.995	100.397	19.899	2.049	0.510
249.500	195.267	80.001	19.996	100.397	19.901	1.884	0.498
250.001	195.530	80.000	19.995	100.395	19.900	2.013	0.471
250.500	195.756	80.000	19.996	100.394	19.904	1.697	0.481
251.000	195.997	80.003	19.996	100.391	19.904	1.725	0.478
251.500	196.255	79.997	19.996	100.386	19.905	1.677	0.484
252.000	196.501	80.005	19.996	100.381	19.908	1.414	0.502
252.500	196.741	80.002	19.996	100.383	19.907	1.530	0.495
253.000	196.970	80.001	19.995	100.384	19.906	1.593	0.477
253.500	197.256	79.998	19.997	100.387	19.905	1.657	0.492
254.000	197.467	80.003	19.996	100.390	19.905	1.642	0.506
254.500	197.746	80.002	19.996	100.393	19.903	1.807	0.494
255.000	197.976	80.001	19.995	100.391	19.903	1.749	0.499
255.500	198.197	80.010	19.996	100.387	19.903	1.811	0.480
256.000	198.454	80.013	19.994	100.385	19.900	1.970	0.464
256.500	198.677	80.002	19.994	100.385	19.903	1.787	0.479
257.000	198.979	80.002	19.995	100.383	19.906	1.561	0.503
257.500	199.211	79.999	19.996	100.383	19.905	1.659	0.530
258.000	199.432	80.008	19.994	100.384	19.904	1.721	0.493
258.500	199.688	80.002	19.994	100.387	19.902	1.831	0.465
259.000	199.944	80.007	19.995	100.386	19.906	1.607	0.494
259.500	200.165	80.009	19.994	100.388	19.903	1.761	0.495
260.000	200.455	79.998	19.995	100.392	19.903	1.754	0.494
260.500	200.676	80.004	19.995	100.393	19.904	1.704	0.511
261.000	200.878	79.986	19.996	100.388	19.905	1.668	0.467
261.500	201.154	80.016	19.994	100.384	19.900	1.969	0.450
262.000	201.398	79.997	19.995	100.386	19.904	1.732	0.499
262.500	201.632	79.985	19.996	100.385	19.901	1.943	0.499
263.000	201.897	79.998	19.996	100.383	19.905	1.649	0.489
263.500	202.141	80.012	19.994	100.387	19.902	1.814	0.504
264.000	202.363	80.005	19.995	100.392	19.904	1.721	0.487
264.500	202.606	80.002	19.995	100.393	19.902	1.831	0.465
265.000	202.870	80.002	19.995	100.392	19.906	1.548	0.486
265.500	203.111	80.003	19.995	100.393	19.907	1.486	0.505
266.000	203.373	80.008	19.995	100.390	19.909	1.402	0.504
266.500	203.613	80.002	19.995	100.388	19.904	1.710	0.503
267.000	203.835	80.004	19.995	100.385	19.902	1.842	0.482
267.500	204.076	80.000	19.995	100.385	19.907	1.499	0.462
268.000	204.274	80.002	19.995	100.384	19.903	1.763	0.451
268.500	204.567	80.005	19.994	100.385	19.903	1.769	0.465
269.000	204.824	80.002	19.994	100.386	19.903	1.783	0.520
269.500	205.043	80.003	19.994	100.385	19.903	1.778	0.513
270.000	205.277	80.003	19.993	100.385	19.904	1.699	0.464
270.500	205.483	80.002	19.994	100.387	19.905	1.668	0.446
271.000	205.790	79.998	19.995	100.387	19.902	1.842	0.477
271.500	206.035	80.002	19.994	100.385	19.905	1.655	0.533
272.000	206.274	80.004	19.995	100.385	19.900	2.011	0.518
272.500	206.501	80.001	19.996	100.385	19.903	1.776	0.474
273.000	206.754	80.006	19.994	100.382	19.905	1.649	0.473
273.500	207.004	80.000	19.995	100.381	19.906	1.574	0.492
274.000	207.243	80.004	19.994	100.382	19.905	1.664	0.496
274.500	207.534	80.000	19.995	100.383	19.901	1.919	0.509
275.000	207.733	80.005	19.995	100.384	19.902	1.820	0.510
275.500	208.020	80.003	19.995	100.384	19.902	1.877	0.488
276.000	208.251	80.005	19.994	100.383	19.903	1.750	0.502
276.500	208.455	79.999	19.996	100.384	19.908	1.448	0.476
277.000	208.703	80.001	19.995	100.384	19.905	1.640	0.444
277.500	208.994	80.011	19.994	100.383	19.904	1.728	0.496
278.000	209.212	80.003	19.996	100.385	19.906	1.548	0.524
278.500	209.447	80.014	19.994	100.385	19.904	1.704	0.481
279.000	209.683	80.000	19.996	100.388	19.903	1.772	0.462
279.500	209.925	80.018	19.995	100.391	19.905	1.638	0.475
280.000	210.187	80.009	19.995	100.396	19.906	1.554	0.490
280.500	210.456	80.000	19.995	100.396	19.905	1.640	0.517
281.000	210.681	79.989	19.997	100.396	19.907	1.541	0.513
281.500	210.959	80.002	19.995	100.391	19.904	1.681	0.498
282.000	211.177	80.001	19.996	100.387	19.905	1.647	0.500
282.500	211.402	80.000	19.996	100.384	19.904	1.686	0.470
283.000	211.610	79.995	19.996	100.382	19.905	1.640	0.438
283.500	211.899	80.006	19.994	100.382	19.902	1.877	0.465
284.000	212.125	79.998	19.996	100.386	19.904	1.714	0.506
284.500	212.377	80.001	19.995	100.385	19.904	1.686	0.497
285.000	212.616	80.006	19.995	100.385	19.905	1.649	0.485
285.500	212.884	80.004	19.995	100.388	19.910	1.336	0.499
286.000	213.129	79.996	19.996	100.391	19.908	1.451	0.510
286.500	213.323	79.999	19.995	100.388	19.907	1.475	0.477
287.000	213.618	80.000	19.997	100.388	19.904	1.714	0.464
287.500	213.851	79.999	19.997	100.387	19.906	1.580	0.508
288.000	214.104	79.998	19.995	100.383	19.903	1.776	0.507
288.500	214.338	79.996	19.996	100.382	19.906	1.569	0.486
289.000	214.556	80.004	19.995	100.382	19.908	1.466	0.469
289.500	214.803	79.980	19.998	100.383	19.907	1.492	0.459
290.000	215.053	79.997	19.995	100.380	19.908	1.435	0.481
290.500	215.293	79.996	19.997	100.381	19.908	1.409	0.493
291.000	215.549	79.997	19.995	100.381	19.906	1.594	0.493
291.500	215.795	80.000	19.996	100.381	19.908	1.437	0.499
292.000	216.058	79.999	19.996	100.381	19.909	1.341	0.506
292.500	216.296	79.997	19.996	100.383	19.909	1.369	0.505
293.000	216.526	79.996	19.996	100.383	19.910	1.319	0.484
293.500	216.761	80.002	19.996	100.384	19.909	1.398	0.466
294.000	216.993	79.996	19.995	100.385	19.906	1.569	0.467
294.500	217.269	79.996	19.997	100.383	19.910	1.303	0.488
295.000	217.472	80.001	19.995	100.384	19.909	1.374	0.494
295.500	217.749	79.997	19.996	100.383	19.908	1.416	0.479
296.000	218.027	80.009	19.994	100.383	19.907	1.537	0.517
296.500	218.273	80.005	19.994	100.386	19.907	1.536	0.540
297.000	218.469	80.000	19.996	100.389	19.909	1.369	0.483
297.500	218.712	79.987	19.996	100.388	19.907	1.504	0.440
298.000	218.955	79.990	19.997	100.388	19.909	1.383	0.463
298.500	219.183	79.992	19.996	100.385	19.906	1.558	0.479
299.000	219.442	80.004	19.995	100.380	19.908	1.413	0.479
299.500	219.694	80.006	19.996	100.379	19.913	1.071	0.499
300.000	219.946	80.003	19.994	100.381	19.911	1.255	0.507
300.500	220.145	80.002	19.995	100.384	19.909	1.345	0.478
301.000	220.421	79.996	19.995	100.387	19.912	1.183	0.463
301.500	220.669	80.005	19.995	100.389	19.909	1.343	0.499
302.000	220.891	79.997	19.996	100.388	19.906	1.602	0.497
302.500	221.144	79.994	19.996	100.387	19.908	1.449	0.473
303.000	221.384	80.001	19.994	100.385	19.906	1.576	0.484
303.500	221.627	80.005	19.995	100.385	19.909	1.372	0.488
304.000	221.888	79.999	19.995	100.385	19.909	1.341	0.493
304.500	222.115	80.000	19.996	100.383	19.909	1.400	0.496
305.000	222.410	80.000	19.995	100.383	19.909	1.394	0.505
305.500	222.673	79.995	19.997	100.384	19.908	1.409	0.540
306.000	222.897	79.988	19.997	100.382	19.909	1.356	0.522
306.500	223.129	79.998	19.996	100.380	19.905	1.612	0.472
307.000	223.357	80.004	19.996	100.381	19.907	1.522	0.458
307.500	223.678	79.997	19.997	100.381	19.909	1.361	0.504
308.000	223.881	80.006	19.996	100.378	19.905	1.664	0.536
308.500	224.117	79.999	19.997	100.381	19.906	1.594	0.482
309.000	224.337	79.995	19.997	100.383	19.907	1.530	0.448
309.500	224.617	80.007	19.995	100.381	19.904	1.693	0.478
310.000	224.829	79.990	19.998	100.382	19.903	1.763	0.496
310.500	225.087	79.995	19.998	100.381	19.907	1.491	0.481
311.000	225.346	79.994	19.998	100.378	19.904	1.691	0.494
311.500	225.544	80.010	19.996	100.377	19.906	1.556	0.487
312.000	225.800	79.994	19.998	100.379	19.904	1.743	0.455
312.500	226.062	79.994	19.997	100.375	19.904	1.712	0.486
313.000	226.348	79.997	19.997	100.376	19.906	1.554	0.533
313.500	226.590	80.001	19.996	100.376	19.905	1.655	0.538
314.000	226.840	80.007	19.995	100.378	19.904	1.714	0.510
314.500	227.077	80.001	19.996	100.380	19.907	1.512	0.489
315.000	227.297	80.001	19.996	100.383	19.905	1.657	0.472
315.500	227.552	79.998	19.997	100.384	19.904	1.690	0.466
316.000	227.793	79.991	19.997	100.383	19.907	1.526	0.486
316.500	228.024	79.996	19.998	100.377	19.907	1.519	0.484
317.000	228.274	79.994	19.997	100.371	19.905	1.635	0.476
317.500	228.574	80.004	19.997	100.367	19.906	1.602	0.516
318.000	228.776	79.995	19.997	100.365	19.905	1.677	0.526
318.500	229.035	80.001	19.997	100.367	19.902	1.822	0.482
319.000	229.289	79.994	19.997	100.372	19.902	1.840	0.487
319.500	229.557	80.000	19.995	100.373	19.908	1.425	0.517
320.000	229.751	79.998	19.996	100.377	19.907	1.517	0.492
320.500	230.016	79.989	19.996	100.376	19.904	1.725	0.461
321.000	230.267	79.998	19.996	100.375	19.905	1.638	0.487
321.500	230.523	79.998	19.996	100.375	19.904	1.712	0.511
322.000	230.747	80.004	19.994	100.377	19.905	1.620	0.493
322.500	231.023	79.994	19.997	100.378	19.907	1.488	0.491
323.000	231.230	80.013	19.994	100.380	19.906	1.548	0.492
323.500	231.485	79.992	19.995	100.384	19.910	1.273	0.472
324.000	231.725	80.001	19.995	100.384	19.906	1.605	0.478
324.500	231.967	80.000	19.995	100.385	19.909	1.381	0.489
325.000	232.233	79.996	19.995	100.383	19.906	1.589	0.495
325.500	232.466	80.005	19.995	100.382	19.905	1.677	0.504
326.000	232.700	80.002	19.996	100.380	19.907	1.536	0.482
326.500	232.953	79.994	19.995	100.380	19.905	1.664	0.477
327.000	233.220	80.004	19.994	100.379	19.906	1.596	0.504
327.500	233.437	80.000	19.995	100.379	19.905	1.614	0.502
328.000	233.717	79.997	19.997	100.379	19.906	1.570	0.491
328.500	233.956	80.002	19.996	100.377	19.909	1.394	0.508
329.000	234.200	80.001	19.994	100.377	19.911	1.231	0.501
329.500	234.440	80.006	19.994	100.377	19.908	1.418	0.483
330.000	234.737	80.011	19.994	100.378	19.908	1.436	0.511
330.500	234.916	80.007	19.993	100.378	19.910	1.330	0.507
331.000	235.143	80.004	19.994	100.382	19.908	1.413	0.441
331.500	235.421	80.005	19.995	100.382	19.910	1.330	0.455
332.000	235.622	79.998	19.995	100.382	19.906	1.561	0.491
332.500	235.879	79.995	19.995	100.380	19.908	1.455	0.469
333.000	236.128	80.000	19.995	100.381	19.907	1.539	0.483
333.500	236.398	80.005	19.995	100.379	19.908	1.468	0.513
334.000	236.642	79.993	19.996	100.378	19.907	1.478	0.516
334.500	236.904	80.002	19.994	100.375	19.910	1.328	0.510
335.000	237.123	80.005	19.995	100.377	19.907	1.488	0.493
335.500	237.394	80.003	19.994	100.377	19.910	1.313	0.486
336.000	237.607	80.000	19.995	100.378	19.909	1.387	0.487
336.500	237.891	80.002	19.995	100.378	19.910	1.293	0.490
337.000	238.089	80.002	19.995	100.378	19.910	1.326	0.489
337.500	238.363	80.006	19.995	100.373	19.910	1.323	0.477
338.000	238.619	80.002	19.995	100.373	19.910	1.310	0.501
338.500	238.845	79.997	19.996	100.371	19.909	1.339	0.506
339.000	239.087	80.000	19.996	100.371	19.914	1.040	0.475
339.500	239.311	79.994	19.995	100.372	19.910	1.324	0.467
340.000	239.562	80.004	19.995	100.373	19.906	1.557	0.470
340.500	239.820	80.003	19.995	100.372	19.909	1.366	0.492
341.000	240.040	80.000	19.994	100.372	19.910	1.277	0.494
341.500	240.255	79.998	19.995	100.373	19.912	1.163	0.456
342.000	240.504	80.001	19.995	100.374	19.910	1.282	0.450
342.500	240.786	79.998	19.996	100.379	19.911	1.227	0.497
343.000	241.067	80.001	19.996	100.377	19.910	1.310	0.546
343.500	241.273	79.996	19.996	100.374	19.908	1.464	0.525
344.000	241.555	80.000	19.994	100.370	19.909	1.376	0.488
344.500	241.768	79.997	19.996	100.370	19.909	1.376	0.491
345.000	242.049	79.999	19.996	100.369	19.911	1.247	0.494
345.500	242.263	79.998	19.995	100.371	19.910	1.291	0.495
346.000	242.533	80.004	19.995	100.369	19.909	1.343	0.490
346.500	242.784	80.000	19.996	100.369	19.912	1.190	0.503
347.000	242.983	79.999	19.996	100.371	19.909	1.365	0.486
347.500	243.256	79.999	19.995	100.372	19.909	1.370	0.461
348.000	243.496	80.000	19.996	100.370	19.910	1.291	0.493
348.500	243.729	80.000	19.995	100.375	19.912	1.172	0.493
349.000	243.951	80.001	19.995	100.376	19.912	1.194	0.464
349.500	244.214	80.001	19.995	100.373	19.911	1.260	0.470
350.000	244.440	80.001	19.996	100.369	19.910	1.278	0.487
350.500	244.704	80.004	19.995	100.365	19.910	1.315	0.490
351.000	244.990	80.000	19.994	100.364	19.914	1.046	0.520
351.500	245.205	80.003	19.995	100.361	19.911	1.201	0.525
352.000	245.464	80.001	19.994	100.358	19.911	1.251	0.487
352.500	245.708	80.005	19.995	100.361	19.912	1.139	0.488
353.000	245.949	80.001	19.996	100.366	19.910	1.282	0.494
353.500	246.200	80.004	19.994	100.368	19.913	1.080	0.489
354.000	246.458	80.001	19.995	100.371	19.912	1.181	0.501
354.500	246.690	80.006	19.994	100.372	19.911	1.227	0.500
355.000	246.929	80.003	19.993	100.368	19.908	1.438	0.480
355.500	247.205	80.004	19.993	100.363	19.908	1.420	0.493
356.000	247.452	80.003	19.994	100.363	19.909	1.405	0.519
356.500	247.661	80.003	19.996	100.360	19.910	1.275	0.490
357.000	247.901	80.002	19.994	100.362	19.912	1.135	0.452
357.500	248.170	80.003	19.993	100.368	19.911	1.256	0.479
358.000	248.402	80.000	19.995	100.370	19.910	1.276	0.505
358.500	248.618	80.000	19.996	100.369	19.910	1.313	0.474
359.000	248.883	80.003	19.995	100.371	19.908	1.431	0.465
359.500	249.133	80.001	19.994	100.369	19.911	1.234	0.498
360.000	249.405	79.999	19.996	100.366	19.911	1.266	0.518
360.500	249.619	80.004	19.993	100.363	19.914	1.000	0.504
361.000	249.906	80.000	19.994	100.362	19.915	0.978	0.493
361.500	250.142	80.001	19.994	100.361	19.914	1.057	0.512
362.000	250.443	79.999	19.995	100.365	19.910	1.319	0.530
362.500	250.677	80.001	19.994	100.361	19.911	1.203	0.536
363.000	250.927	80.002	19.994	100.364	19.911	1.260	0.509
363.500	251.150	80.002	19.993	100.363	19.916	0.926	0.478
364.000	251.374	80.001	19.995	100.363	19.912	1.159	0.460
364.500	251.638	80.000	19.995	100.363	19.910	1.306	0.468
365.000	251.857	79.993	19.996	100.369	19.912	1.181	0.486
365.500	252.129	80.000	19.994	100.369	19.911	1.212	0.487
366.000	252.387	80.000	19.994	100.373	19.913	1.132	0.510
366.500	252.628	79.994	19.996	100.372	19.911	1.220	0.515
367.000	252.907	79.994	19.994	100.368	19.912	1.143	0.509
367.500	253.133	79.998	19.995	100.360	19.914	1.051	0.512
368.000	253.367	80.001	19.995	100.357	19.913	1.073	0.482
368.500	253.605	80.000	19.994	100.349	19.911	1.234	0.466
369.000	253.849	80.001	19.995	100.348	19.910	1.280	0.478
369.500	254.075	80.002	19.994	100.349	19.910	1.309	0.476
370.000	254.316	79.999	19.994	100.356	19.909	1.352	0.468
370.500	254.561	79.997	19.995	100.360	19.915	0.983	0.477
371.000	254.823	80.000	19.994	100.365	19.909	1.352	0.497
371.500	255.101	79.999	19.994	100.366	19.908	1.431	0.524
372.000	255.305	79.994	19.997	100.369	19.910	1.335	0.511
372.500	255.558	80.000	19.994	100.365	19.914	1.064	0.469
373.000	255.797	80.001	19.994	100.363	19.910	1.335	0.475
373.500	256.084	80.008	19.995	100.360	19.913	1.101	0.509
374.000	256.287	79.999	19.996	100.365	19.916	0.866	0.508
374.500	256.523	79.998	19.996	100.367	19.913	1.115	0.465
375.000	256.787	80.002	19.995	100.366	19.909	1.346	0.470
375.500	257.030	80.000	19.995	100.368	19.911	1.262	0.504
376.000	257.246	80.001	19.996	100.371	19.913	1.102	0.483
376.500	257.495	80.002	19.995	100.364	19.912	1.198	0.462
377.000	257.739	79.999	19.997	100.358	19.912	1.148	0.479
377.500	258.008	80.000	19.995	100.356	19.914	1.029	0.503
378.000	258.279	80.001	19.996	100.353	19.913	1.089	0.527
378.500	258.478	80.000	19.997	100.350	19.913	1.110	0.506
379.001	258.731	80.007	19.995	100.350	19.913	1.095	0.461
379.500	259.017	79.996	19.995	100.350	19.911	1.220	0.495
380.000	259.227	79.999	19.997	100.350	19.917	0.845	0.518
380.500	259.461	80.002	19.996	100.350	19.913	1.071	0.470
381.000	259.702	80.003	19.995	100.348	19.915	0.983	0.460
381.500	259.949	79.990	19.997	100.349	19.915	0.981	0.481
382.000	260.199	80.000	19.996	100.352	19.915	0.934	0.492
382.500	260.402	80.001	19.996	100.356	19.915	0.981	0.475
383.000	260.614	79.999	19.996	100.358	19.917	0.816	0.434
383.500	260.899	79.999	19.996	100.362	19.913	1.097	0.456
384.000	261.156	80.001	19.995	100.365	19.912	1.137	0.520
384.500	261.373	79.997	19.995	100.365	19.911	1.253	0.508
385.000	261.626	80.001	19.996	100.365	19.915	0.974	0.472
385.500	261.841	80.002	19.997	100.362	19.914	1.064	0.469
386.000	262.114	80.000	19.995	100.357	19.914	1.025	0.478
386.500	262.357	79.998	19.997	100.353	19.915	0.934	0.502
387.000	262.601	79.999	19.996	100.350	19.913	1.095	0.502
387.500	262.830	80.001	19.996	100.346	19.915	0.948	0.480
388.000	263.104	80.001	19.995	100.347	19.913	1.071	0.488
388.500	263.301	79.999	19.995	100.348	19.913	1.075	0.488
389.000	263.528	80.000	19.996	100.348	19.915	0.935	0.448
389.500	263.843	80.001	19.996	100.349	19.915	0.966	0.482
390.000	264.089	80.000	19.996	100.350	19.916	0.871	0.551
390.500	264.327	79.998	19.995	100.349	19.917	0.853	0.522
391.000	264.523	80.001	19.996	100.349	19.915	0.979	0.459
391.500	264.789	79.999	19.996	100.350	19.915	0.948	0.449
392.000	265.045	79.996	19.996	100.351	19.916	0.880	0.492
392.500	265.270	80.004	19.995	100.350	19.919	0.662	0.501
393.000	265.573	80.006	19.995	100.352	19.915	0.950	0.505
393.500	265.793	79.998	19.995	100.353	19.916	0.871	0.526
394.000	266.006	80.001	19.997	100.353	19.915	0.961	0.478
394.500	266.313	79.995	19.997	100.352	19.918	0.737	0.476
395.000	266.492	80.001	19.996	100.355	19.915	0.946	0.503
395.500	266.774	79.999	19.995	100.354	19.917	0.838	0.474
396.000	266.994	79.996	19.996	100.356	19.916	0.866	0.482
396.500	267.309	80.015	19.995	100.354	19.919	0.662	0.519
397.000	267.512	80.000	19.997	100.356	19.920	0.591	0.526
397.500	267.786	79.995	19.996	100.356	19.919	0.704	0.497
398.000	267.979	79.998	19.997	100.354	19.918	0.756	0.472
398.500	268.231	80.006	19.995	100.350	19.916	0.888	0.456
399.000	268.488	79.997	19.997	100.351	19.915	0.943	0.477
399.500	268.733	79.998	19.996	100.346	19.917	0.818	0.506
400.000	268.949	80.002	19.996	100.344	19.917	0.845	0.482
400.500	269.222	80.001	19.996	100.345	19.919	0.699	0.475
401.000	269.455	79.999	19.996	100.346	19.921	0.552	0.497
401.500	269.741	79.997	19.995	100.345	19.923	0.400	0.512
402.000	269.953	79.999	19.996	100.346	19.919	0.671	0.508
402.500	270.230	79.996	19.996	100.345	19.918	0.765	0.494
403.000	270.463	79.999	19.996	100.344	19.920	0.644	0.500
403.500	270.729	80.000	19.996	100.346	19.919	0.706	0.504
404.000	270.964	79.999	19.997	100.346	19.921	0.587	0.500
404.500	271.214	79.997	19.997	100.346	19.920	0.624	0.493
405.000	271.470	80.000	19.997	100.346	19.917	0.805	0.496
405.500	271.763	79.996	19.998	100.346	19.921	0.581	0.528
406.000	271.953	79.998	19.996	100.343	19.921	0.563	0.516
406.500	272.253	80.000	19.997	100.343	19.918	0.770	0.486
407.000	272.496	79.999	19.996	100.342	19.916	0.919	0.516
407.500	272.696	80.000	19.996	100.343	19.919	0.697	0.493
408.000	272.996	79.999	19.997	100.345	19.919	0.693	0.471
408.500	273.174	79.999	19.996	100.345	19.919	0.669	0.489
409.000	273.462	80.001	19.997	100.344	19.916	0.884	0.472
409.500	273.732	80.002	19.996	100.344	19.917	0.812	0.512
410.000	273.946	80.000	19.997	100.344	19.920	0.609	0.521
410.500	274.179	80.002	19.996	100.343	19.922	0.484	0.465
411.000	274.457	80.000	19.995	100.343	19.920	0.629	0.479
411.500	274.700	80.001	19.996	100.344	19.921	0.558	0.516
412.000	274.954	80.003	19.995	100.344	19.922	0.493	0.509
412.500	275.185	79.999	19.995	100.344	19.922	0.501	0.491
413.000	275.418	80.001	19.996	100.345	19.920	0.646	0.474
413.500	275.680	80.001	19.996	100.345	19.921	0.528	0.479
414.000	275.898	80.002	19.996	100.344	19.920	0.602	0.487
414.500	276.146	80.001	19.995	100.346	19.915	0.930	0.473
415.000	276.420	80.001	19.995	100.345	19.918	0.739	0.495
415.500	276.648	80.001	19.997	100.345	19.918	0.789	0.512
416.000	276.883	80.002	19.995	100.345	19.917	0.840	0.482
416.500	277.124	80.001	19.995	100.345	19.917	0.836	0.470
417.000	277.360	80.003	19.993	100.346	19.919	0.660	0.477
417.500	277.637	79.999	19.995	100.347	19.918	0.741	0.495
418.000	277.867	80.001	19.995	100.347	19.918	0.768	0.510
418.500	278.092	80.002	19.994	100.346	19.920	0.618	0.481
419.000	278.347	80.002	19.995	100.347	19.921	0.534	0.468
419.500	278.581	80.001	19.995	100.346	19.922	0.506	0.484
420.000	278.831	80.002	19.995	100.346	19.922	0.466	0.486
420.500	279.104	79.998	19.996	100.346	19.917	0.805	0.503
421.000	279.291	80.000	19.995	100.345	19.920	0.594	0.492
421.500	279.579	79.999	19.996	100.345	19.918	0.745	0.468
422.000	279.815	80.002	19.994	100.344	19.921	0.545	0.500
422.500	280.050	79.995	19.996	100.343	19.922	0.453	0.498
423.000	280.351	80.001	19.995	100.342	19.920	0.592	0.504
423.500	280.546	80.001	19.996	100.343	19.924	0.376	0.516
424.000	280.813	80.000	19.995	100.343	19.920	0.647	0.478
424.500	281.034	80.000	19.996	100.345	19.919	0.702	0.475
425.000	281.267	80.001	19.995	100.345	19.920	0.618	0.471
425.500	281.516	80.000	19.995	100.346	19.922	0.495	0.468
426.000	281.768	80.001	19.994	100.345	19.920	0.594	0.491
426.500	282.017	80.000	19.995	100.346	19.918	0.737	0.501
427.000	282.254	79.999	19.996	100.344	19.922	0.512	0.494
427.500	282.514	80.001	19.996	100.343	19.920	0.592	0.492
428.000	282.732	80.002	19.995	100.343	19.920	0.635	0.487
428.500	282.946	80.000	19.996	100.344	19.919	0.686	0.455
429.000	283.231	80.001	19.995	100.344	19.920	0.624	0.466
429.500	283.458	80.001	19.994	100.346	19.919	0.686	0.505
430.000	283.706	80.001	19.995	100.346	19.918	0.737	0.493
430.500	283.962	79.999	19.996	100.346	19.919	0.660	0.490
431.000	284.229	80.001	19.995	100.346	19.921	0.568	0.513
431.500	284.457	80.001	19.994	100.346	19.922	0.480	0.509
432.000	284.696	80.002	19.994	100.346	19.923	0.409	0.482
432.500	284.960	80.002	19.994	100.346	19.922	0.484	0.485
433.000	285.206	80.000	19.994	100.346	19.923	0.427	0.506
433.500	285.430	80.000	19.996	100.346	19.921	0.546	0.490
434.000	285.676	80.000	19.995	100.346	19.917	0.811	0.470
434.500	285.931	80.001	19.995	100.346	19.920	0.657	0.486
435.000	286.168	80.003	19.993	100.347	19.920	0.605	0.496
435.500	286.404	80.002	19.993	100.346	19.918	0.785	0.482
436.000	286.646	80.002	19.996	100.346	19.918	0.785	0.475
436.500	286.895	80.001	19.996	100.345	19.919	0.675	0.485
437.000	287.160	80.002	19.994	100.343	19.918	0.774	0.503
437.500	287.404	80.002	19.995	100.343	19.919	0.724	0.512
438.000	287.667	80.001	19.995	100.343	19.920	0.611	0.508
438.500	287.890	80.001	19.997	100.342	19.919	0.680	0.496
439.000	288.128	80.002	19.995	100.343	19.919	0.664	0.474
439.500	288.413	80.001	19.994	100.343	19.920	0.638	0.492
440.000	288.595	80.004	19.995	100.342	19.919	0.679	0.495
440.500	288.882	80.002	19.995	100.341	19.920	0.655	0.468
441.000	289.138	80.005	19.995	100.340	19.918	0.745	0.506
441.500	289.357	80.002	19.995	100.340	19.920	0.635	0.509
442.000	289.604	80.001	19.994	100.341	19.919	0.658	0.470
442.500	289.844	80.003	19.996	100.341	19.918	0.756	0.477
443.000	290.081	80.000	19.996	100.342	19.919	0.682	0.482
443.500	290.336	80.003	19.994	100.342	19.918	0.761	0.484
444.000	290.584	80.001	19.995	100.342	19.918	0.787	0.498
444.500	290.839	80.002	19.995	100.342	19.916	0.895	0.503
445.000	291.119	80.000	19.996	100.342	19.921	0.563	0.519
445.500	291.353	79.999	19.996	100.342	19.917	0.825	0.524
446.000	291.599	79.999	19.994	100.342	19.920	0.636	0.497
446.500	291.835	80.002	19.994	100.342	19.919	0.701	0.482
447.000	292.085	79.999	19.997	100.342	19.923	0.429	0.484
447.500	292.316	80.000	19.995	100.342	19.921	0.554	0.484
448.000	292.552	80.002	19.995	100.342	19.923	0.433	0.474
448.500	292.793	80.003	19.995	100.342	19.923	0.402	0.471
449.000	293.031	80.002	19.995	100.341	19.923	0.438	0.478
449.500	293.280	79.999	19.996	100.340	19.921	0.567	0.483
450.000	293.540	80.001	19.994	100.341	19.921	0.539	0.498
450.500	293.762	80.001	19.994	100.342	19.921	0.539	0.496
451.000	294.001	80.000	19.996	100.342	19.920	0.600	0.472
451.500	294.258	80.001	19.994	100.343	19.923	0.409	0.478
452.000	294.487	80.002	19.994	100.341	19.923	0.385	0.491
452.500	294.735	79.999	19.994	100.341	19.924	0.378	0.482
453.000	295.023	80.002	19.995	100.337	19.923	0.409	0.506
453.500	295.253	80.000	19.994	100.337	19.923	0.409	0.526
454.000	295.472	80.001	19.995	100.337	19.923	0.418	0.483
454.500	295.741	80.000	19.995	100.337	19.922	0.457	0.469
455.000	295.944	79.998	19.993	100.337	19.919	0.710	0.481
455.500	296.191	80.000	19.996	100.340	19.928	0.081	0.461
456.000	296.458	80.001	19.994	100.340	19.923	0.403	0.481
456.500	296.723	80.000	19.995	100.340	19.923	0.413	0.523
457.000	296.970	80.002	19.994	100.340	19.924	0.336	0.522
457.500	297.182	79.999	19.996	100.341	19.923	0.447	0.485
458.000	297.432	80.001	19.994	100.341	19.923	0.442	0.460
458.500	297.709	80.004	19.995	100.341	19.926	0.240	0.495
459.000	297.982	80.000	19.996	100.338	19.924	0.370	0.539
459.500	298.206	80.001	19.994	100.337	19.922	0.471	0.524
460.000	298.501	80.001	19.996	100.336	19.927	0.150	0.508
460.500	298.715	80.002	19.993	100.333	19.925	0.268	0.513
461.000	298.972	80.003	19.994	100.334	19.923	0.433	0.490
461.500	299.217	80.000	19.995	100.334	19.924	0.345	0.487
462.000	299.483	80.002	19.996	100.334	19.926	0.229	0.507
462.500	299.736	79.999	19.996	100.334	19.925	0.264	0.515
463.000	299.946	80.001	19.996	100.335	19.923	0.429	0.491
463.500	300.219	80.002	19.995	100.336	19.923	0.411	0.473
464.000	300.465	79.999	19.996	100.339	19.922	0.499	0.501
464.500	300.725	79.998	19.996	100.336	19.922	0.479	0.512
465.000	300.965	80.004	19.996	100.334	19.923	0.403	0.503
465.500	301.183	80.000	19.996	100.335	19.924	0.358	0.479
466.000	301.416	80.001	19.995	100.334	19.922	0.458	0.454
466.500	301.710	79.999	19.996	100.334	19.924	0.383	0.489
467.000	301.959	80.001	19.996	100.338	19.924	0.380	0.535
467.500	302.186	80.002	19.995	100.341	19.924	0.321	0.509
468.000	302.426	79.992	19.996	100.342	19.922	0.508	0.471
468.500	302.686	80.000	19.996	100.341	19.926	0.246	0.484
469.000	302.936	80.001	19.995	100.339	19.925	0.299	0.505
469.500	303.208	80.010	19.996	100.336	19.926	0.240	0.516
470.000	303.439	79.999	19.997	100.334	19.925	0.282	0.512
470.500	303.663	80.000	19.996	100.332	19.925	0.270	0.479
471.000	303.926	79.998	19.997	100.333	19.922	0.473	0.472
471.500	304.148	80.001	19.995	100.334	19.924	0.378	0.486
472.000	304.412	80.001	19.995	100.338	19.923	0.424	0.485
472.500	304.652	80.002	19.996	100.339	19.924	0.321	0.495
473.000	304.890	80.001	19.995	100.339	19.922	0.491	0.491
473.500	305.184	80.000	19.996	100.337	19.924	0.339	0.505
474.000	305.425	80.000	19.996	100.337	19.922	0.491	0.534
474.500	305.699	79.999	19.997	100.337	19.922	0.462	0.525
475.000	305.922	79.999	19.995	100.336	19.924	0.328	0.506
475.500	306.169	79.999	19.997	100.337	19.922	0.482	0.483
476.000	306.427	79.997	19.996	100.339	19.923	0.402	0.488
476.500	306.695	79.999	19.996	100.337	19.925	0.303	0.516
477.000	306.936	79.998	19.996	100.337	19.921	0.581	0.518
477.500	307.203	79.999	19.996	100.337	19.924	0.332	0.509
478.000	307.398	80.000	19.994	100.337	19.923	0.420	0.485
478.500	307.684	79.999	19.996	100.335	19.925	0.268	0.471
479.000	307.947	79.999	19.996	100.339	19.922	0.493	0.515
479.500	308.136	79.997	19.993	100.340	19.923	0.396	0.501
480.000	308.403	80.000	19.996	100.339	19.924	0.328	0.455
480.500	308.657	80.000	19.994	100.340	19.924	0.358	0.488
481.000	308.926	80.001	19.995	100.342	19.924	0.378	0.521
481.500	309.166	80.000	19.997	100.339	19.924	0.378	0.516
482.000	309.431	79.999	19.994	100.337	19.923	0.387	0.507
482.500	309.671	80.000	19.995	100.336	19.925	0.308	0.505
483.000	309.962	80.001	19.992	100.335	19.921	0.581	0.518
483.500	310.216	79.997	19.995	100.336	19.920	0.631	0.538
484.000	310.464	80.000	19.996	100.338	19.923	0.427	0.523
484.500	310.671	79.998	19.995	100.340	19.920	0.649	0.478
485.000	310.917	79.998	19.996	100.342	19.922	0.453	0.454
485.500	311.183	80.000	19.996	100.342	19.922	0.488	0.483
486.000	311.440	80.000	19.995	100.342	19.923	0.414	0.517
486.500	311.635	80.001	19.996	100.341	19.922	0.457	0.487
487.000	311.968	80.000	19.996	100.341	19.924	0.374	0.490
487.500	312.213	79.999	19.996	100.342	19.924	0.334	0.553
488.000	312.474	80.002	19.996	100.342	19.921	0.524	0.542
488.500	312.746	80.002	19.994	100.341	19.924	0.378	0.519
489.000	312.965	80.000	19.995	100.340	19.926	0.227	0.512
489.500	313.251	80.006	19.996	100.336	19.924	0.332	0.498
490.000	313.451	80.000	19.996	100.336	19.922	0.464	0.496
490.500	313.766	80.001	19.995	100.336	19.925	0.251	0.501
491.000	314.000	80.000	19.996	100.336	19.922	0.458	0.532
491.500	314.227	80.002	19.995	100.335	19.923	0.444	0.505
492.000	314.502	79.999	19.996	100.339	19.921	0.541	0.481
492.500	314.797	80.001	19.997	100.339	19.922	0.504	0.536
493.000	315.037	79.999	19.995	100.340	19.922	0.506	0.552
493.500	315.290	80.000	19.997	100.339	19.923	0.427	0.514
494.000	315.526	80.000	19.996	100.340	19.922	0.497	0.491
494.500	315.766	80.000	19.998	100.336	19.923	0.407	0.482
495.000	316.014	80.002	19.996	100.336	19.924	0.381	0.482
495.500	316.315	80.000	19.996	100.336	19.922	0.458	0.518
496.000	316.550	80.002	19.996	100.337	19.924	0.378	0.543
496.500	316.794	80.001	19.997	100.339	19.922	0.510	0.508
497.000	317.037	80.000	19.997	100.341	19.924	0.378	0.483
497.500	317.260	79.998	19.994	100.339	19.923	0.418	0.476
498.000	317.524	80.000	19.995	100.337	19.925	0.262	0.476
498.500	317.796	79.999	19.996	100.335	19.923	0.444	0.511
499.000	318.046	79.999	19.997	100.333	19.924	0.358	0.529
499.500	318.313	80.000	19.995	100.331	19.922	0.515	0.519
500.000	318.550	79.999	19.997	100.332	19.922	0.466	0.511
500.500	318.835	79.999	19.996	100.335	19.926	0.235	0.513
501.000	319.058	80.001	19.996	100.336	19.924	0.345	0.515
501.500	319.321	79.999	19.994	100.339	19.923	0.396	0.497
502.000	319.614	80.000	19.996	100.338	19.925	0.277	0.521
502.500	319.843	80.001	19.996	100.337	19.926	0.229	0.539
503.000	320.100	79.999	19.996	100.338	19.926	0.246	0.503
503.500	320.343	80.001	19.996	100.336	19.921	0.533	0.493
504.000	320.616	80.002	19.995	100.335	19.923	0.434	0.508
504.500	320.852	80.002	19.996	100.333	19.925	0.264	0.512
505.000	321.109	79.999	19.996	100.331	19.924	0.343	0.501
505.500	321.347	79.999	19.997	100.327	19.924	0.334	0.495
506.000	321.598	80.000	19.996	100.328	19.924	0.372	0.492
506.500	321.864	80.003	19.995	100.322	19.922	0.491	0.503
507.000	322.129	79.999	19.996	100.320	19.925	0.264	0.524
507.500	322.360	80.001	19.996	100.318	19.922	0.462	0.513
508.000	322.624	79.999	19.997	100.317	19.922	0.513	0.496
508.500	322.894	80.001	19.995	100.311	19.923	0.444	0.514
509.000	323.130	80.003	19.994	100.312	19.923	0.394	0.520
509.500	323.356	80.001	19.994	100.313	19.921	0.555	0.484
510.000	323.659	80.001	19.995	100.313	19.923	0.431	0.496
510.500	323.911	80.003	19.995	100.313	19.921	0.544	0.542
511.000	324.115	79.996	20.001	100.314	19.922	0.464	0.505
511.500	324.420	80.006	19.994	100.315	19.922	0.504	0.482
512.000	324.686	80.000	19.994	100.315	19.922	0.489	0.540
512.500	324.916	80.003	19.994	100.315	19.922	0.466	0.534
513.000	325.159	80.002	19.994	100.314	19.922	0.467	0.485
513.500	325.431	80.002	19.994	100.314	19.919	0.704	0.494
514.000	325.662	80.004	19.992	100.313	19.922	0.471	0.509
514.500	325.958	80.001	20.000	100.311	19.920	0.614	0.515
515.000	326.209	80.004	19.989	100.311	19.922	0.508	0.537
515.500	326.482	79.998	19.993	100.313	19.923	0.434	0.536
516.000	326.743	80.006	19.993	100.316	19.925	0.290	0.529
516.500	326.988	80.002	19.994	100.316	19.923	0.412	0.520
517.000	327.226	80.002	19.995	100.319	19.924	0.361	0.495
517.500	327.460	80.002	19.996	100.323	19.925	0.297	0.478
518.000	327.733	80.003	19.996	100.324	19.927	0.147	0.489
518.500	327.984	80.001	19.996	100.324	19.923	0.392	0.515
519.000	328.248	80.004	19.994	100.322	19.922	0.466	0.519
519.500	328.500	80.001	19.995	100.319	19.923	0.434	0.516
520.000	328.736	80.004	19.996	100.314	19.922	0.493	0.502
520.500	329.038	80.005	19.995	100.309	19.923	0.405	0.513
521.000	329.251	80.000	19.998	100.305	19.923	0.438	0.527
521.500	329.489	80.003	19.993	100.303	19.923	0.389	0.483
522.000	329.749	80.002	19.995	100.303	19.921	0.526	0.474
522.500	329.986	80.001	19.995	100.302	19.920	0.607	0.497
523.000	330.239	80.004	19.994	100.303	19.923	0.431	0.494
523.500	330.516	80.004	19.993	100.303	19.923	0.434	0.510
524.000	330.753	80.003	19.994	100.304	19.921	0.535	0.522
524.500	331.048	80.003	19.994	100.305	19.926	0.218	0.523
525.000	331.286	80.001	19.994	100.306	19.925	0.258	0.532
525.500	331.529	80.002	19.992	100.306	19.923	0.392	0.507
526.000	331.788	80.001	19.995	100.307	19.924	0.328	0.491
526.500	332.042	80.000	19.996	100.308	19.926	0.211	0.507
527.000	332.298	80.000	19.995	100.306	19.923	0.385	0.512
527.500	332.550	80.002	19.995	100.306	19.927	0.130	0.509
528.000	332.812	80.000	19.995	100.308	19.926	0.240	0.511
528.500	333.011	80.000	19.995	100.308	19.925	0.304	0.488
529.000	333.321	80.000	19.994	100.309	19.923	0.403	0.485
529.500	333.566	80.001	19.996	100.310	19.926	0.222	0.532
530.000	333.822	80.002	19.995	100.310	19.921	0.522	0.528
530.500	334.082	80.000	19.994	100.309	19.925	0.264	0.508
531.000	334.404	80.000	19.995	100.309	19.924	0.374	0.549
531.500	334.606	80.000	19.995	100.307	19.922	0.457	0.553
532.000	334.841	80.000	19.997	100.307	19.922	0.477	0.481
532.500	335.096	80.001	19.996	100.305	19.923	0.423	0.463
533.000	335.360	79.999	19.997	100.305	19.925	0.280	0.505
533.500	335.609	80.000	19.996	100.303	19.926	0.227	0.517
534.000	335.838	80.002	19.995	100.303	19.926	0.213	0.496
534.500	336.088	80.000	19.994	100.303	19.925	0.266	0.478
535.000	336.364	79.999	19.996	100.303	19.923	0.401	0.502
535.500	336.610	80.003	19.997	100.303	19.926	0.213	0.524
536.000	336.855	80.002	19.995	100.304	19.926	0.247	0.507
536.500	337.122	79.998	19.993	100.305	19.925	0.266	0.501
537.000	337.389	80.001	19.996	100.306	19.925	0.268	0.523
537.500	337.653	80.000	19.995	100.308	19.926	0.218	0.532
538.000	337.878	80.003	19.993	100.309	19.923	0.427	0.510
538.500	338.167	80.000	19.997	100.310	19.927	0.170	0.502
539.000	338.435	79.999	19.995	100.309	19.927	0.156	0.535
539.500	338.691	80.000	19.995	100.308	19.924	0.378	0.540
540.000	338.948	80.002	19.995	100.308	19.921	0.543	0.519
540.500	339.210	80.002	19.991	100.309	19.923	0.412	0.516
541.000	339.428	80.002	19.993	100.312	19.925	0.299	0.500
541.500	339.668	79.999	19.996	100.313	19.925	0.290	0.469
542.000	339.959	80.001	19.992	100.314	19.924	0.326	0.494
542.500	340.187	79.992	20.002	100.314	19.924	0.345	0.525
543.000	340.428	80.000	19.995	100.312	19.925	0.257	0.494
543.500	340.690	79.998	19.993	100.310	19.924	0.317	0.486
544.000	340.951	80.002	19.993	100.310	19.922	0.488	0.513
544.500	341.225	79.995	19.993	100.310	19.924	0.352	0.529
545.000	341.433	79.999	19.996	100.309	19.924	0.378	0.508
545.500	341.714	80.001	19.995	100.310	19.922	0.468	0.486
546.000	341.980	80.004	19.993	100.310	19.924	0.325	0.518
546.500	342.223	80.000	19.995	100.310	19.927	0.161	0.529
547.000	342.461	79.999	19.995	100.309	19.927	0.174	0.495
547.500	342.714	80.001	19.998	100.310	19.925	0.269	0.485
548.000	342.969	80.001	19.997	100.309	19.926	0.182	0.499
548.500	343.244	80.002	19.992	100.307	19.926	0.209	0.520
549.000	343.466	80.001	19.996	100.307	19.926	0.205	0.514
549.500	343.758	80.003	19.995	100.308	19.924	0.363	0.505
550.000	344.006	80.002	19.994	100.307	19.929	0.026	0.526
550.500	344.240	80.000	19.994	100.310	19.923	0.394	0.511
551.000	344.521	79.995	20.000	100.310	19.929	0.038	0.499
551.500	344.781	80.003	19.989	100.309	19.927	0.126	0.528
552.000	345.012	80.001	19.992	100.309	19.923	0.420	0.516
552.500	345.260	80.001	20.000	100.309	19.926	0.236	0.485
553.000	345.580	80.000	19.992	100.307	19.926	0.233	0.523
553.500	345.772	80.000	19.996	100.308	19.924	0.359	0.540
554.000	346.035	80.000	19.997	100.315	19.925	0.271	0.484
554.500	346.287	80.000	19.996	100.319	19.928	0.088	0.485
555.000	346.578	79.998	19.996	100.323	19.928	0.086	0.529
555.500	346.809	79.999	19.996	100.328	19.926	0.211	0.532
556.000	347.069	79.999	19.998	100.329	19.926	0.183	0.506
556.500	347.369	79.999	19.996	100.321	19.927	0.152	0.525
557.000	347.596	79.999	19.995	100.316	19.926	0.233	0.544
557.500	347.858	79.998	19.999	100.311	19.924	0.363	0.509
558.000	348.128	80.000	19.996	100.310	19.925	0.268	0.511
558.500	348.372	80.000	19.996	100.312	19.926	0.203	0.523
559.000	348.611	79.996	19.995	100.314	19.929	0.038	0.498
559.500	348.846	79.997	19.997	100.314	19.927	0.148	0.478
560.000	349.130	79.996	19.998	100.314	19.928	0.046	0.497
560.500	349.394	79.999	19.995	100.310	19.927	0.117	0.533
561.000	349.640	80.001	19.996	100.308	19.925	0.258	0.529
561.500	349.897	79.999	19.995	100.308	19.922	0.517	0.507
562.000	350.158	79.996	19.998	100.308	19.927	0.123	0.511
562.500	350.414	80.001	19.991	100.309	19.925	0.288	0.518
563.000	350.677	80.003	19.997	100.310	19.929	-0.005	0.518
563.500	350.900	79.999	19.990	100.309	19.925	0.275	0.502
564.000	351.170	79.996	20.001	100.310	19.927	0.128	0.489
564.500	351.375	79.996	19.994	100.307	19.927	0.150	0.484
565.000	351.649	79.996	19.998	100.307	19.928	0.075	0.477
565.500	351.950	80.004	19.998	100.306	19.928	0.071	0.527
566.000	352.206	79.995	19.992	100.306	19.929	0.011	0.566
566.500	352.443	79.999	19.996	100.306	19.930	-0.027	0.525
567.000	352.674	80.001	19.996	100.308	19.929	0.037	0.480
567.500	352.922	79.998	19.994	100.308	19.927	0.119	0.473
568.000	353.223	79.999	19.994	100.308	19.927	0.121	0.514
568.500	353.460	80.000	19.995	100.309	19.925	0.251	0.544
569.000	353.713	79.999	19.996	100.309	19.929	-0.011	0.514
569.500	353.960	80.002	19.997	100.308	19.928	0.081	0.495
570.000	354.224	80.001	19.996	100.307	19.929	-0.009	0.506
570.500	354.469	80.006	19.994	100.305	19.926	0.187	0.510
571.000	354.732	80.000	19.995	100.305	19.928	0.104	0.508
571.500	355.007	80.000	19.994	100.303	19.928	0.108	0.523
572.000	355.205	80.001	19.996	100.303	19.929	0.009	0.506
572.500	355.491	80.000	19.994	100.303	19.926	0.216	0.479
573.000	355.715	80.002	19.995	100.304	19.926	0.213	0.497
573.500	355.957	80.001	19.998	100.303	19.927	0.152	0.488
574.000	356.226	80.000	19.995	100.302	19.929	0.020	0.488
574.500	356.458	80.002	19.994	100.302	19.930	-0.042	0.506
575.000	356.746	80.001	19.994	100.302	19.931	-0.115	0.511
575.500	356.977	80.003	19.994	100.303	19.929	-0.005	0.520
576.000	357.218	79.998	20.002	100.303	19.928	0.092	0.495
576.500	357.478	80.004	19.992	100.303	19.928	0.068	0.486
577.000	357.703	79.999	19.989	100.304	19.929	0.002	0.493
577.500	357.975	79.998	19.996	100.304	19.926	0.222	0.491
578.000	358.231	80.004	19.992	100.304	19.926	0.238	0.513
578.500	358.484	80.001	19.999	100.304	19.928	0.110	0.519
579.000	358.730	80.003	19.996	100.304	19.928	0.101	0.504
579.500	358.946	80.000	19.999	100.303	19.929	0.038	0.480
580.000	359.202	80.004	19.997	100.301	19.930	-0.044	0.467
580.500	359.470	80.009	19.998	100.301	19.927	0.136	0.498
581.000	359.736	79.999	19.995	100.300	19.931	-0.139	0.530
581.500	359.918	80.001	20.000	100.301	19.927	0.119	0.491
582.000	360.241	80.001	19.994	100.300	19.926	0.194	0.476
582.500	360.457	80.000	19.996	100.301	19.926	0.211	0.522
583.000	360.686	79.996	19.999	100.301	19.926	0.185	0.492
583.500	360.958	80.002	19.993	100.299	19.928	0.068	0.473
584.000	361.227	79.996	19.997	100.300	19.925	0.288	0.521
584.500	361.478	80.002	19.997	100.301	19.927	0.123	0.531
585.000	361.655	80.001	20.001	100.301	19.927	0.130	0.474
585.500	361.936	80.002	19.996	100.300	19.924	0.372	0.443
586.000	362.224	80.003	19.997	100.301	19.928	0.071	0.514
586.500	362.472	80.003	19.991	100.300	19.927	0.178	0.552
587.000	362.672	80.005	19.996	100.301	19.926	0.198	0.492
587.500	362.953	80.000	19.997	100.301	19.928	0.095	0.465
588.000	363.213	79.999	19.996	100.302	19.929	-0.011	0.511
588.500	363.466	80.005	19.996	100.303	19.929	0.016	0.527
589.000	363.740	80.001	19.995	100.304	19.930	-0.037	0.520
589.500	363.968	80.000	19.993	100.304	19.930	-0.062	0.514
590.000	364.202	80.003	19.989	100.305	19.928	0.108	0.482
590.500	364.418	79.995	19.993	100.307	19.931	-0.097	0.456
591.000	364.655	79.999	20.000	100.307	19.931	-0.121	0.451
591.500	364.916	79.999	20.000	100.305	19.928	0.066	0.476
592.000	365.182	79.992	20.002	100.303	19.929	0.004	0.512
592.500	365.456	80.001	19.997	100.300	19.926	0.225	0.533
593.000	365.694	80.005	19.994	100.298	19.929	0.020	0.526
593.500	365.929	79.998	20.000	100.298	19.928	0.079	0.493
594.000	366.227	80.002	19.991	100.299	19.923	0.418	0.503
594.500	366.425	79.999	19.995	100.300	19.926	0.200	0.515
595.000	366.679	80.002	19.994	100.301	19.925	0.308	0.474
595.500	366.940	80.002	19.999	100.302	19.927	0.134	0.483
596.000	367.141	80.005	19.994	100.300	19.927	0.145	0.488
596.500	367.365	80.002	19.994	100.301	19.925	0.279	0.444
597.000	367.673	80.002	19.991	100.301	19.929	0.013	0.479
597.500	367.929	79.999	19.998	100.301	19.928	0.079	0.548
598.000	368.180	80.004	19.998	100.298	19.928	0.112	0.535
598.500	368.427	80.000	19.995	100.298	19.927	0.119	0.502
599.000	368.689	80.002	19.995	100.298	19.925	0.286	0.504
599.500	368.961	80.000	19.996	100.298	19.924	0.352	0.521
600.000	369.183	80.007	19.993	100.297	19.926	0.236	0.514
600.500	369.420	80.000	19.996	100.301	19.924	0.365	0.477
601.000	369.673	80.004	19.994	100.302	19.925	0.264	0.475
601.500	369.913	80.006	19.995	100.301	19.926	0.246	0.492
602.000	370.189	80.008	19.991	100.302	19.931	-0.097	0.504
602.500	370.454	80.006	19.996	100.303	19.929	-0.013	0.529
603.000	370.696	80.003	19.995	100.302	19.925	0.286	0.524
603.500	370.955	79.997	20.010	100.303	19.926	0.202	0.504
604.000	371.184	80.000	19.995	100.299	19.929	-0.009	0.494
604.500	371.418	79.994	20.005	100.298	19.926	0.218	0.475
605.000	371.705	80.006	19.995	100.295	19.929	0.031	0.492
605.500	371.923	79.999	19.994	100.295	19.926	0.209	0.513
606.000	372.201	79.997	19.999	100.296	19.928	0.082	0.501
606.500	372.452	79.998	19.997	100.297	19.926	0.227	0.513
607.000	372.664	80.001	19.999	100.299	19.925	0.301	0.496
607.500	372.959	80.001	19.995	100.302	19.928	0.093	0.485
608.000	373.202	80.001	19.993	100.303	19.926	0.183	0.522
608.500	373.455	80.000	19.998	100.304	19.928	0.077	0.517
609.000	373.705	80.002	19.994	100.306	19.925	0.264	0.500
609.500	373.979	80.000	19.993	100.306	19.926	0.189	0.514
610.000	374.234	79.998	19.998	100.307	19.925	0.275	0.526
610.500	374.458	79.998	19.995	100.306	19.925	0.286	0.504
611.000	374.693	80.002	19.997	100.305	19.926	0.244	0.469
611.500	374.991	79.996	19.994	100.306	19.925	0.304	0.496
612.000	375.250	80.002	19.993	100.306	19.924	0.363	0.545
612.500	375.514	79.999	19.996	100.306	19.926	0.187	0.540
613.000	375.724	79.998	19.997	100.306	19.930	-0.051	0.498
613.500	375.989	80.000	19.996	100.305	19.925	0.275	0.474
614.000	376.272	80.000	19.995	100.306	19.926	0.229	0.511
614.500	376.520	79.999	19.994	100.306	19.921	0.524	0.539
615.000	376.763	80.001	19.991	100.305	19.927	0.159	0.511
615.500	376.999	79.999	19.994	100.307	19.925	0.301	0.485
616.000	377.258	80.000	19.989	100.308	19.925	0.313	0.487
616.500	377.518	80.002	19.994	100.309	19.924	0.370	0.507
617.000	377.802	79.996	19.993	100.308	19.924	0.367	0.532
617.500	378.026	80.000	19.992	100.308	19.927	0.161	0.526
618.000	378.253	80.001	19.994	100.308	19.927	0.126	0.480
618.500	378.497	79.996	20.005	100.308	19.927	0.167	0.461
619.000	378.778	80.002	19.991	100.305	19.925	0.284	0.497
619.500	379.049	79.995	19.993	100.305	19.926	0.242	0.538
620.000	379.257	80.001	19.994	100.305	19.926	0.244	0.516
620.500	379.522	79.999	19.994	100.305	19.927	0.161	0.476
621.000	379.807	80.002	19.996	100.305	19.926	0.229	0.511
621.500	380.023	80.003	19.993	100.307	19.927	0.178	0.526
622.000	380.316	79.996	19.996	100.307	19.924	0.348	0.505
622.500	380.539	80.001	19.989	100.302	19.925	0.257	0.512
623.000	380.790	79.999	19.999	100.303	19.924	0.335	0.495
623.500	381.043	79.999	19.994	100.302	19.926	0.236	0.489
624.000	381.307	79.999	19.992	100.302	19.927	0.148	0.510
624.500	381.508	80.002	19.995	100.303	19.921	0.550	0.491
625.000	381.787	79.999	20.001	100.307	19.925	0.253	0.472
625.500	382.029	79.997	19.989	100.306	19.925	0.301	0.500
626.000	382.272	80.004	19.989	100.309	19.926	0.198	0.503
626.500	382.550	79.999	19.992	100.311	19.926	0.211	0.504
627.000	382.809	80.004	19.994	100.311	19.926	0.207	0.529
627.500	383.052	80.001	19.995	100.311	19.926	0.200	0.519
628.000	383.290	80.006	19.995	100.312	19.927	0.123	0.491
628.500	383.531	80.001	19.992	100.310	19.928	0.103	0.480
629.000	383.791	80.005	19.995	100.310	19.926	0.242	0.490
629.500	384.050	80.000	19.994	100.311	19.927	0.158	0.510
630.000	384.288	79.999	19.996	100.311	19.923	0.392	0.508
630.500	384.537	80.000	19.993	100.310	19.927	0.174	0.492
631.000	384.839	80.002	19.990	100.310	19.923	0.390	0.519
631.500	385.099	79.999	19.990	100.310	19.925	0.282	0.556
632.000	385.338	80.000	19.997	100.310	19.924	0.328	0.530
632.500	385.594	80.002	19.993	100.308	19.922	0.506	0.497
633.000	385.830	79.999	20.005	100.309	19.923	0.451	0.494
633.500	386.099	79.996	20.001	100.306	19.924	0.326	0.499
634.000	386.343	80.000	19.989	100.304	19.922	0.464	0.509
634.500	386.616	80.002	19.998	100.303	19.923	0.440	0.515
635.000	386.845	80.003	19.992	100.303	19.920	0.629	0.510
635.500	387.139	80.001	19.996	100.303	19.926	0.191	0.513
636.000	387.367	79.999	20.001	100.305	19.925	0.255	0.522
636.500	387.620	80.003	19.994	100.305	19.923	0.445	0.501
637.000	387.931	79.999	19.989	100.304	19.926	0.231	0.523
637.500	388.135	80.001	19.995	100.305	19.922	0.515	0.539
638.000	388.372	80.005	19.998	100.305	19.923	0.401	0.478
638.500	388.682	80.001	19.991	100.305	19.921	0.550	0.494
639.000	388.945	80.001	19.994	100.306	19.926	0.231	0.560
639.500	389.185	80.004	19.994	100.307	19.924	0.337	0.538
640.000	389.444	80.003	19.993	100.306	19.925	0.291	0.501
640.500	389.724	79.998	19.999	100.306	19.925	0.258	0.519
641.000	390.001	80.002	19.992	100.307	19.923	0.436	0.548
641.500	390.213	79.994	20.003	100.307	19.920	0.621	0.523
642.000	390.499	79.998	20.003	100.305	19.920	0.642	0.494
642.500	390.761	80.001	19.997	100.303	19.922	0.455	0.523
643.000	391.015	80.000	19.994	100.301	19.919	0.675	0.531
643.500	391.306	79.996	19.998	100.301	19.920	0.649	0.530
644.000	391.575	79.995	20.003	100.299	19.923	0.440	0.553
644.500	391.787	80.001	19.997	100.299	19.921	0.552	0.521
645.000	392.077	79.997	20.000	100.301	19.920	0.647	0.491
645.500	392.327	79.999	19.996	100.301	19.920	0.634	0.521
646.000	392.565	79.995	20.002	100.300	19.918	0.772	0.514
646.500	392.869	80.001	19.990	100.300	19.921	0.546	0.515
647.000	393.137	79.998	19.994	100.302	19.920	0.631	0.557
647.500	393.389	79.999	20.003	100.302	19.918	0.770	0.546
648.000	393.663	80.003	19.993	100.302	19.921	0.543	0.522
648.500	393.964	79.998	19.994	100.303	19.918	0.790	0.550
649.000	394.181	79.999	19.991	100.305	19.918	0.768	0.547
649.500	394.448	80.000	19.996	100.305	19.913	1.074	0.502
650.000	394.726	80.000	19.999	100.302	19.916	0.902	0.515
650.500	395.011	80.002	19.996	100.299	19.916	0.911	0.554
651.000	395.288	80.001	19.996	100.298	19.917	0.799	0.563
651.500	395.530	79.999	19.997	100.295	19.916	0.871	0.540
652.000	395.815	80.008	19.995	100.292	19.918	0.783	0.522
652.500	396.058	80.001	19.994	100.295	19.914	0.999	0.527
653.000	396.299	80.005	19.994	100.299	19.912	1.144	0.506
653.500	396.584	80.001	20.000	100.299	19.916	0.911	0.505
654.000	396.865	80.002	19.997	100.295	19.914	1.054	0.546
654.500	397.169	80.000	19.998	100.293	19.915	0.984	0.576
655.000	397.407	80.004	19.997	100.286	19.915	0.993	0.563
655.500	397.629	80.003	19.991	100.283	19.911	1.248	0.500
656.000	397.872	80.000	20.003	100.282	19.911	1.228	0.462
656.500	398.147	80.003	19.987	100.284	19.913	1.131	0.492
657.000	398.410	80.004	19.994	100.286	19.913	1.081	0.528
657.500	398.641	80.001	19.998	100.292	19.911	1.211	0.516
658.000	398.901	80.003	20.000	100.293	19.915	0.984	0.493
658.500	399.191	80.001	19.989	100.284	19.912	1.164	0.520
659.000	399.472	80.003	19.993	100.283	19.913	1.070	0.560
659.500	399.691	80.002	19.999	100.278	19.911	1.265	0.535
660.000	399.938	79.995	19.999	100.271	19.909	1.362	0.483
660.500	400.202	80.002	19.994	100.267	19.913	1.069	0.489
661.000	400.467	80.003	19.995	100.269	19.914	1.036	0.521
661.500	400.715	79.998	19.998	100.275	19.912	1.136	0.521
662.000	400.959	80.002	20.000	100.281	19.912	1.164	0.502
662.500	401.227	80.002	19.992	100.287	19.912	1.190	0.502
663.000	401.447	80.001	19.992	100.293	19.912	1.144	0.500
663.500	401.677	79.999	19.998	100.295	19.910	1.292	0.469
664.000	401.925	79.999	20.000	100.289	19.912	1.133	0.464
664.500	402.232	80.001	20.000	100.285	19.908	1.422	0.517
665.000	402.486	80.004	19.991	100.280	19.911	1.269	0.558
665.500	402.705	80.002	19.997	100.278	19.910	1.307	0.517
666.000	402.943	79.999	19.999	100.275	19.910	1.322	0.465
666.500	403.274	80.000	19.994	100.276	19.907	1.510	0.513
667.000	403.481	79.999	20.001	100.278	19.908	1.415	0.554
667.500	403.744	80.006	19.994	100.277	19.907	1.523	0.504
668.000	403.991	80.003	19.989	100.277	19.906	1.606	0.490
668.500	404.247	80.002	19.992	100.280	19.905	1.648	0.506
669.000	404.463	79.997	20.002	100.284	19.906	1.547	0.487
669.500	404.744	80.000	19.998	100.284	19.908	1.419	0.485
670.000	404.991	80.002	19.993	100.286	19.906	1.554	0.513
670.500	405.230	80.009	19.994	100.287	19.905	1.655	0.507
671.000	405.466	80.002	19.991	100.287	19.903	1.800	0.480
671.500	405.729	79.998	19.995	100.287	19.907	1.540	0.487
672.000	405.969	80.003	19.996	100.288	19.901	1.899	0.501
672.500	406.255	80.000	20.000	100.291	19.903	1.778	0.514
673.000	406.500	79.996	20.003	100.293	19.903	1.778	0.529
673.500	406.749	80.002	19.992	100.293	19.901	1.901	0.513
674.000	407.025	80.004	19.995	100.292	19.900	1.965	0.509
674.500	407.277	80.002	19.997	100.294	19.900	2.009	0.526
675.000	407.532	80.002	19.993	100.295	19.902	1.813	0.518
675.500	407.798	79.999	19.993	100.297	19.902	1.848	0.514
676.000	408.034	79.998	19.992	100.303	19.898	2.128	0.511
676.500	408.285	79.999	19.997	100.302	19.899	2.033	0.494
677.000	408.537	80.003	20.000	100.294	19.895	2.322	0.495
677.500	408.826	80.004	19.990	100.287	19.898	2.088	0.522
678.000	409.074	80.003	19.993	100.286	19.900	2.009	0.539
678.500	409.311	80.002	19.997	100.283	19.897	2.188	0.511
679.000	409.534	80.003	19.993	100.283	19.896	2.227	0.473
679.500	409.836	80.003	19.994	100.289	19.896	2.267	0.493
680.000	410.110	80.000	19.995	100.292	19.895	2.326	0.550
680.500	410.361	79.997	19.993	100.291	19.896	2.263	0.550
681.000	410.623	80.001	19.994	100.292	19.898	2.141	0.519
681.500	410.874	80.000	19.992	100.293	19.894	2.377	0.514
682.000	411.132	79.996	19.997	100.294	19.895	2.304	0.511
682.500	411.378	79.999	19.998	100.294	19.893	2.461	0.506
683.000	411.642	80.001	19.997	100.294	19.894	2.357	0.507
683.500	411.919	80.004	19.993	100.292	19.893	2.450	0.526
684.000	412.126	79.998	20.002	100.291	19.891	2.593	0.512
684.500	412.421	80.004	19.996	100.286	19.893	2.441	0.493
685.000	412.679	80.004	19.991	100.288	19.892	2.540	0.528
685.500	412.939	80.004	19.995	100.290	19.890	2.644	0.536
686.000	413.152	79.998	19.996	100.293	19.890	2.655	0.495
686.500	413.407	80.000	19.996	100.295	19.891	2.588	0.470
687.000	413.683	80.002	19.997	100.296	19.889	2.741	0.499
687.500	413.897	80.000	19.995	100.295	19.889	2.727	0.511
688.000	414.130	79.999	19.999	100.292	19.887	2.864	0.469
688.500	414.406	80.001	19.998	100.289	19.888	2.780	0.478
689.000	414.671	80.002	19.995	100.284	19.887	2.890	0.525
689.500	414.914	79.999	19.996	100.283	19.886	2.901	0.524
690.000	415.128	79.997	19.994	100.279	19.884	3.086	0.483
690.500	415.388	79.999	19.996	100.276	19.881	3.306	0.466
691.000	415.627	80.000	19.995	100.276	19.882	3.191	0.486
691.500	415.938	79.997	19.994	100.276	19.882	3.227	0.524
692.000	416.144	80.001	19.991	100.274	19.879	3.383	0.533
692.500	416.413	80.000	19.992	100.275	19.877	3.526	0.495
693.000	416.668	79.998	19.996	100.275	19.881	3.280	0.500
693.500	416.944	80.001	19.996	100.274	19.880	3.335	0.528
694.000	417.184	80.001	19.995	100.275	19.876	3.619	0.523
694.500	417.429	80.003	19.992	100.275	19.874	3.760	0.500
695.000	417.676	80.000	19.997	100.276	19.874	3.736	0.489
695.500	417.923	80.001	19.996	100.273	19.871	3.925	0.494
696.000	418.156	79.999	19.996	100.272	19.873	3.804	0.487
696.500	418.430	80.001	19.994	100.271	19.874	3.722	0.493
697.000	418.676	80.001	19.995	100.270	19.871	3.931	0.513
697.500	418.937	80.000	19.994	100.269	19.869	4.083	0.513
698.000	419.171	79.999	19.996	100.269	19.866	4.301	0.501
698.500	419.431	80.001	19.994	100.269	19.863	4.466	0.495
699.000	419.669	80.000	19.994	100.269	19.863	4.466	0.496
699.500	419.901	80.001	19.992	100.269	19.861	4.612	0.483
700.000	420.178	80.000	19.995	100.269	19.863	4.501	0.490
700.500	420.428	80.002	19.994	100.270	19.863	4.490	0.518
701.000	420.660	79.998	19.995	100.270	19.862	4.563	0.504
701.500	420.881	79.999	19.995	100.270	19.861	4.662	0.467
702.000	421.127	80.001	19.996	100.271	19.857	4.893	0.461
702.500	421.405	80.001	19.995	100.274	19.858	4.814	0.496
703.000	421.674	80.001	19.995	100.274	19.856	4.990	0.535
703.500	421.886	80.000	19.995	100.273	19.854	5.109	0.513
704.000	422.120	80.000	19.994	100.272	19.852	5.217	0.464
704.500	422.346	80.004	19.995	100.270	19.851	5.336	0.454
705.000	422.572	80.000	19.997	100.267	19.849	5.457	0.456
705.500	422.823	80.000	19.996	100.266	19.848	5.551	0.464
706.000	423.088	80.001	19.995	100.266	19.845	5.730	0.497
706.500	423.347	80.000	19.995	100.266	19.840	6.075	0.520
707.000	423.582	80.002	19.995	100.265	19.843	5.862	0.509
707.500	423.807	80.001	19.995	100.265	19.842	5.926	0.477
708.000	424.051	79.999	19.996	100.266	19.837	6.285	0.464
708.500	424.307	79.999	19.996	100.266	19.837	6.258	0.485
709.000	424.569	80.000	19.995	100.266	19.838	6.214	0.509
709.500	424.811	79.997	19.995	100.266	19.834	6.476	0.511
710.000	425.075	80.000	19.995	100.265	19.831	6.682	0.505
710.500	425.262	80.000	19.995	100.266	19.833	6.557	0.479
711.000	425.542	79.999	19.996	100.266	19.830	6.729	0.459
711.500	425.768	79.999	19.995	100.265	19.827	6.927	0.487
712.000	426.008	80.002	19.994	100.265	19.826	7.033	0.486
712.500	426.244	80.001	19.996	100.265	19.823	7.240	0.471
713.000	426.477	80.000	19.994	100.264	19.822	7.312	0.472
713.500	426.737	80.001	19.994	100.264	19.820	7.436	0.481
714.000	426.985	80.000	19.996	100.265	19.819	7.462	0.501
714.500	427.251	80.001	19.992	100.266	19.813	7.887	0.511
715.000	427.488	80.001	19.995	100.267	19.808	8.208	0.508
715.500	427.714	80.000	19.995	100.268	19.806	8.391	0.483
716.000	428.003	79.999	19.996	100.269	19.805	8.409	0.489
716.500	428.257	80.001	19.995	100.269	19.801	8.732	0.529
717.000	428.443	79.999	19.995	100.267	19.801	8.721	0.492
717.500	428.723	80.001	19.994	100.267	19.796	9.084	0.453
718.000	428.987	80.002	19.995	100.266	19.792	9.346	0.505
718.500	429.241	80.001	19.996	100.265	19.792	9.338	0.531
719.000	429.489	80.000	19.996	100.264	19.786	9.705	0.510
719.500	429.738	80.001	19.995	100.267	19.784	9.886	0.499
720.000	429.984	80.000	19.995	100.268	19.783	9.943	0.495
720.500	430.200	79.999	19.994	100.270	19.778	10.286	0.478
721.000	430.485	80.000	19.995	100.272	19.774	10.555	0.481
721.500	430.713	80.000	19.995	100.272	19.772	10.657	0.507
722.000	430.992	79.999	19.996	100.270	19.767	11.042	0.510
722.500	431.172	79.999	19.997	100.269	19.764	11.247	0.483
723.000	431.461	80.001	19.997	100.269	19.762	11.372	0.464
723.500	431.703	80.001	19.993	100.267	19.759	11.594	0.500
724.000	431.983	80.000	19.996	100.268	19.758	11.623	0.527
724.500	432.266	80.000	19.996	100.267	19.755	11.865	0.542
725.000	432.464	80.000	19.996	100.268	19.751	12.148	0.522
725.500	432.743	79.999	19.995	100.267	19.745	12.523	0.479
726.000	433.002	80.001	19.996	100.268	19.743	12.635	0.508
726.500	433.224	79.999	19.993	100.267	19.738	13.027	0.509
727.000	433.488	80.000	19.995	100.268	19.738	13.024	0.483
727.500	433.791	79.999	19.994	100.266	19.735	13.232	0.527
728.000	434.034	80.000	19.994	100.266	19.731	13.509	0.556
728.500	434.324	80.001	19.994	100.266	19.727	13.723	0.539
729.000	434.566	80.002	19.995	100.266	19.722	14.086	0.532
729.500	434.806	79.998	19.997	100.267	19.718	14.366	0.507
730.000	435.026	80.000	19.995	100.266	19.718	14.365	0.471
730.500	435.290	80.000	19.996	100.266	19.714	14.660	0.472
731.000	435.540	80.000	19.994	100.266	19.710	14.934	0.499
731.500	435.791	79.997	19.998	100.264	19.707	15.107	0.508
732.000	436.024	80.000	19.996	100.261	19.700	15.570	0.492
732.500	436.329	80.001	19.995	100.260	19.701	15.525	0.511
733.000	436.521	80.001	19.995	100.260	19.699	15.641	0.518
733.500	436.779	79.999	19.995	100.260	19.693	16.087	0.474
734.000	437.036	79.999	19.996	100.260	19.690	16.259	0.483
734.500	437.286	80.005	19.991	100.263	19.690	16.257	0.511
735.000	437.538	80.001	19.995	100.265	19.684	16.666	0.505
735.500	437.787	80.001	19.994	100.266	19.682	16.822	0.501
736.000	438.026	80.001	19.994	100.266	19.677	17.161	0.494
736.500	438.271	80.002	19.994	100.267	19.674	17.375	0.486
737.000	438.515	80.000	19.994	100.268	19.671	17.583	0.487
737.500	438.764	80.001	19.996	100.268	19.663	18.081	0.491
738.000	439.029	80.001	19.997	100.266	19.665	17.979	0.503
738.500	439.283	80.001	19.995	100.265	19.660	18.328	0.516
739.000	439.518	80.001	19.994	100.264	19.657	18.532	0.504
739.500	439.755	80.000	19.997	100.264	19.653	18.746	0.481
740.000	440.000	80.001	19.994	100.263	19.649	19.043	0.477
740.500	440.284	79.999	19.996	100.263	19.645	19.347	0.505
741.000	440.510	80.001	19.994	100.264	19.643	19.433	0.519
741.500	440.777	80.001	19.995	100.264	19.638	19.798	0.502
742.000	441.028	80.002	19.994	100.264	19.632	20.208	0.506
742.500	441.304	80.000	19.997	100.265	19.626	20.615	0.522
743.000	441.546	80.002	19.994	100.265	19.621	20.976	0.523
743.500	441.742	80.000	20.000	100.265	19.618	21.176	0.478
744.000	441.994	80.001	19.995	100.262	19.613	21.489	0.443
744.500	442.245	79.999	19.996	100.261	19.607	21.901	0.476
745.000	442.508	80.000	19.996	100.260	19.605	22.035	0.509
745.500	442.731	80.001	19.995	100.259	19.599	22.460	0.500
746.000	442.973	79.999	19.996	100.260	19.594	22.791	0.475
746.500	443.230	79.999	19.997	100.264	19.589	23.093	0.482
747.000	443.483	80.000	19.996	100.265	19.583	23.523	0.504
747.500	443.723	80.000	19.997	100.265	19.577	23.918	0.502
748.000	443.956	79.999	19.995	100.265	19.573	24.196	0.483
748.500	444.209	80.000	19.996	100.265	19.565	24.771	0.479
749.000	444.482	79.997	19.994	100.260	19.562	24.973	0.506
749.500	444.706	80.000	19.996	100.255	19.554	25.485	0.511
750.000	444.950	80.001	19.996	100.248	19.548	25.938	0.482
750.500	445.246	80.001	19.997	100.243	19.547	25.985	0.504
751.000	445.412	79.999	19.995	100.238	19.538	26.601	0.501
751.500	445.680	80.000	19.996	100.235	19.534	26.899	0.448
752.000	445.947	80.001	19.996	100.235	19.527	27.319	0.485
752.500	446.236	80.001	19.996	100.239	19.522	27.677	0.546
753.000	446.437	80.001	19.995	100.242	19.514	28.248	0.523
753.500	446.709	80.001	19.995	100.244	19.507	28.674	0.482
754.000	446.957	79.999	19.995	100.247	19.497	29.350	0.497
754.500	447.244	80.002	19.995	100.248	19.490	29.838	0.528
755.000	447.449	80.001	19.994	100.248	19.481	30.443	0.513
755.500	447.748	80.000	19.995	100.247	19.478	30.652	0.498
756.000	447.956	80.002	19.995	100.248	19.469	31.251	0.505
756.500	448.178	80.001	19.996	100.246	19.462	31.782	0.468
757.000	448.488	80.003	19.993	100.245	19.453	32.375	0.481
757.500	448.726	80.002	19.993	100.243	19.447	32.788	0.540
758.000	448.975	80.001	19.993	100.239	19.438	33.408	0.517
758.500	449.169	80.003	19.995	100.236	19.430	33.937	0.465
759.000	449.456	80.001	19.996	100.235	19.418	34.717	0.462
759.500	449.676	80.002	19.995	100.234	19.412	35.144	0.494
760.000	449.942	80.001	19.994	100.230	19.402	35.842	0.497
760.500	450.199	80.000	19.995	100.232	19.394	36.399	0.505
761.000	450.434	80.003	19.994	100.233	19.383	37.142	0.507
761.500	450.693	80.002	19.994	100.238	19.373	37.803	0.493
762.000	450.944	80.002	19.995	100.240	19.360	38.669	0.503
762.500	451.177	80.004	19.996	100.244	19.354	39.101	0.497
763.000	451.389	80.002	19.996	100.246	19.343	39.867	0.465
763.500	451.665	80.000	19.995	100.243	19.332	40.592	0.467
764.000	451.901	80.004	19.995	100.240	19.323	41.197	0.500
764.500	452.195	80.003	19.995	100.239	19.310	42.087	0.520
765.000	452.418	80.002	19.993	100.238	19.298	42.932	0.523
765.500	452.669	80.002	19.995	100.235	19.286	43.692	0.496
766.000	452.905	80.001	19.995	100.236	19.277	44.340	0.481
766.500	453.173	80.003	19.996	100.237	19.266	45.092	0.496
767.000	453.411	80.001	19.995	100.237	19.252	46.031	0.505
767.500	453.631	80.001	19.996	100.235	19.242	46.733	0.482
768.000	453.931	80.001	19.995	100.234	19.229	47.569	0.489
768.500	454.123	80.001	19.995	100.232	19.213	48.662	0.506
769.000	454.358	80.001	19.996	100.228	19.198	49.725	0.460
769.500	454.642	79.999	19.995	100.226	19.185	50.619	0.473
770.000	454.883	80.001	19.996	100.226	19.173	51.445	0.522
770.500	455.107	80.000	19.997	100.226	19.158	52.425	0.495
771.000	455.369	79.999	19.995	100.226	19.141	53.585	0.476
771.500	455.648	79.998	19.995	100.227	19.126	54.628	0.514
772.000	455.898	80.000	19.996	100.226	19.112	55.528	0.536
772.500	456.171	80.000	19.996	100.224	19.093	56.860	0.526
773.000	456.385	79.999	19.996	100.223	19.074	58.137	0.505
773.500	456.663	79.998	19.995	100.223	19.059	59.124	0.490
774.000	456.912	79.999	19.995	100.223	19.040	60.441	0.509
774.500	457.129	79.997	19.997	100.223	19.023	61.583	0.496
775.000	457.368	79.998	19.996	100.223	19.005	62.831	0.461
775.500	457.646	80.002	19.996	100.224	18.987	64.053	0.487
776.000	457.893	79.995	19.996	100.224	18.967	65.389	0.521
776.500	458.118	79.998	19.998	100.224	18.944	66.976	0.498
777.000	458.412	80.001	19.995	100.223	18.925	68.255	0.495
777.500	458.650	79.999	19.995	100.225	18.903	69.761	0.526
778.000	458.894	80.001	19.997	100.225	18.877	71.530	0.507
778.500	459.196	79.999	19.997	100.225	18.853	73.160	0.514
779.000	459.402	79.998	19.997	100.226	18.827	74.887	0.527
779.500	459.637	79.998	19.997	100.226	18.795	77.066	0.474
780.000	459.873	80.000	19.997	100.231	18.767	78.950	0.456
780.500	460.177	79.998	19.996	100.238	18.739	80.879	0.506
781.000	460.439	80.000	19.996	100.244	18.711	82.806	0.553
781.500	460.706	79.998	19.996	100.251	18.683	84.665	0.547
782.000	460.999	80.000	19.996	100.258	18.650	86.914	0.544
782.500	461.248	80.000	19.997	100.256	18.623	88.736	0.552
783.000	461.457	80.001	19.993	100.249	18.591	90.887	0.500
783.500	461.703	79.999	19.997	100.243	18.561	92.923	0.456
784.000	461.964	79.999	19.997	100.236	18.532	94.898	0.481
784.500	462.247	80.000	19.995	100.229	18.497	97.291	0.525
785.000	462.512	80.001	19.995	100.227	18.466	99.354	0.546
785.500	462.773	80.000	19.998	100.226	18.430	101.790	0.537
786.000	463.018	79.997	20.000	100.223	18.395	104.194	0.516
786.500	463.243	80.002	19.991	100.218	18.357	106.737	0.487
787.000	463.522	80.000	19.995	100.216	18.321	109.249	0.487
787.500	463.767	80.003	19.995	100.212	18.280	112.009	0.514
788.000	464.054	79.999	19.990	100.207	18.245	114.417	0.528
788.500	464.289	80.000	19.996	100.206	18.205	117.090	0.527
789.000	464.555	80.000	19.996	100.205	18.165	119.824	0.512
789.500	464.807	80.000	19.995	100.200	18.130	122.169	0.510
790.000	465.076	80.001	19.995	100.196	18.090	124.928	0.519
790.500	465.311	80.000	19.994	100.194	18.049	127.681	0.512
791.000	465.578	80.000	19.995	100.190	18.012	130.163	0.503
791.500	465.819	80.000	19.995	100.187	17.973	132.829	0.505
792.000	466.095	80.001	19.997	100.186	17.935	135.361	0.513
792.500	466.336	80.000	19.996	100.180	17.896	138.009	0.517
793.000	466.590	79.999	19.995	100.172	17.855	140.813	0.506
793.500	466.858	79.999	19.996	100.164	17.815	143.514	0.508
794.000	467.104	80.002	19.995	100.155	17.777	146.065	0.518
794.500	467.401	80.000	19.996	100.147	17.737	148.760	0.528
795.000	467.651	80.000	19.996	100.141	17.694	151.719	0.545
795.500	467.876	80.000	19.996	100.135	17.649	154.724	0.511
796.000	468.159	80.000	19.996	100.128	17.605	157.710	0.491
796.500	468.399	80.001	19.995	100.124	17.554	161.165	0.516
797.000	468.670	80.000	19.996	100.124	17.513	163.965	0.517
797.500	468.947	80.001	19.996	100.127	17.459	167.569	0.529
798.000	469.224	80.000	19.995	100.133	17.413	170.721	0.550
798.500	469.452	79.999	19.996	100.139	17.359	174.357	0.530
799.000	469.715	79.999	19.996	100.143	17.308	177.856	0.498
799.500	469.983	79.999	19.994	100.148	17.255	181.419	0.511
800.000	470.202	80.000	19.996	100.142	17.201	185.041	0.509
800.500	470.481	80.000	19.996	100.132	17.146	188.774	0.492
801.000	470.745	80.001	19.996	100.133	17.089	192.603	0.521
801.500	470.973	79.999	19.994	100.125	17.029	196.673	0.517
802.000	471.280	79.998	19.995	100.107	16.969	200.715	0.513
802.500	471.497	79.998	19.996	100.111	16.906	204.972	0.530
803.000	471.749	79.998	19.995	100.101	16.850	208.779	0.497
803.500	471.975	80.000	19.995	100.099	16.787	213.011	0.474
804.000	472.241	79.999	19.995	100.089	16.727	217.085	0.485
804.500	472.491	79.999	19.996	100.089	16.660	221.595	0.504
805.000	472.768	79.999	19.995	100.079	16.591	226.247	0.521
805.500	473.059	79.999	19.996	100.068	16.523	230.878	0.547
806.000	473.272	79.998	19.996	100.058	16.455	235.441	0.536
806.500	473.540	79.999	19.995	100.058	16.386	240.096	0.493
807.000	473.793	79.999	19.996	100.042	16.313	245.031	0.501
807.500	474.076	79.998	19.995	100.028	16.240	249.912	0.528
808.000	474.324	80.000	19.996	100.039	16.168	254.793	0.534
808.500	474.621	79.999	19.996	100.032	16.095	259.684	0.538
809.000	474.876	80.000	19.996	100.029	16.020	264.769	0.548
809.500	475.100	80.000	19.996	100.034	15.947	269.652	0.515
810.000	475.345	79.999	19.995	100.037	15.874	274.609	0.474
810.500	475.597	79.999	19.997	100.026	15.804	279.284	0.483
811.000	475.895	79.999	19.996	100.013	15.730	284.263	0.524
811.500	476.135	79.998	19.995	100.003	15.657	289.142	0.544
812.000	476.393	80.001	19.995	99.999	15.585	294.005	0.518
812.500	476.642	80.001	19.995	99.990	15.508	299.187	0.503
813.000	476.884	80.000	19.995	99.983	15.432	304.491	0.499
813.500	477.137	80.000	19.995	99.975	15.352	309.942	0.493
814.000	477.360	80.001	19.996	99.962	15.273	315.246	0.486
814.500	477.642	80.000	19.995	99.950	15.189	320.916	0.490
815.000	477.924	80.001	19.995	99.946	15.103	326.673	0.534
815.500	478.124	80.000	19.995	99.937	15.020	332.035	0.523
816.000	478.455	80.003	19.995	99.926	14.930	337.934	0.506
816.500	478.706	80.002	19.994	99.929	14.842	343.793	0.557
817.000	478.910	80.002	19.995	99.923	14.749	350.049	0.519
817.500	479.189	80.000	19.995	99.903	14.654	356.408	0.469
818.000	479.436	80.002	19.995	99.899	14.562	362.540	0.504
818.500	479.679	80.002	19.993	99.881	14.467	368.900	0.508
819.000	479.914	80.002	19.995	99.872	14.369	375.405	0.484
819.500	480.168	80.003	19.994	99.851	14.269	382.009	0.484
820.000	480.463	80.001	19.995	99.852	14.171	388.442	0.518
820.500	480.696	80.002	19.993	99.830	14.072	395.012	0.538
821.000	480.951	80.002	19.991	99.833	13.972	401.572	0.508
821.500	481.172	80.002	19.995	99.816	13.869	408.326	0.483
822.000	481.452	80.003	19.994	99.803	13.768	414.997	0.489
822.500	481.728	80.002	19.994	99.789	13.663	421.915	0.528
823.000	481.961	80.001	19.994	99.781	13.557	428.919	0.533
823.500	482.223	80.001	19.993	99.773	13.449	436.050	0.502
824.000	482.474	80.000	19.994	99.816	13.342	443.251	0.504
824.500	482.694	80.001	19.995	99.842	13.229	450.808	0.492
825.000	482.936	80.003	19.995	99.833	13.114	458.444	0.466
825.500	483.255	80.001	19.994	99.819	12.998	466.201	0.512
826.000	483.466	80.000	19.995	99.792	12.886	473.663	0.546
826.500	483.694	80.001	19.995	99.715	12.772	481.289	0.485
827.000	483.945	80.001	19.998	99.668	12.656	489.022	0.459
827.500	484.217	80.002	19.995	99.641	12.540	496.765	0.501
828.000	484.447	80.001	19.994	99.627	12.427	504.239	0.512
828.500	484.695	80.002	19.995	99.616	12.309	512.021	0.490
829.000	484.938	80.000	19.995	99.598	12.197	519.357	0.485
829.500	485.219	80.000	19.995	99.572	12.081	526.968	0.508
830.000	485.469	80.001	19.995	99.537	11.967	534.397	0.528
830.500	485.709	80.001	19.996	99.498	11.852	541.939	0.510
831.000	485.952	80.001	19.994	99.463	11.739	549.335	0.486
831.500	486.200	80.001	19.995	99.428	11.629	556.515	0.487
832.000	486.440	80.002	19.995	99.388	11.516	563.836	0.489
832.500	486.705	80.000	19.995	99.348	11.399	571.515	0.497
833.000	487.005	80.002	19.996	99.310	11.283	579.187	0.535
833.500	487.244	80.005	19.997	99.270	11.168	586.875	0.552
834.000	487.492	79.999	19.998	99.236	11.050	594.835	0.513
834.500	487.713	80.003	19.994	99.217	10.942	602.247	0.478
835.000	487.985	80.002	19.993	99.207	10.829	610.041	0.480
835.500	488.241	80.002	19.997	99.198	10.716	617.755	0.510
836.000	488.523	79.999	19.996	99.181	10.603	625.587	0.534
836.500	488.723	80.000	19.996	99.168	10.497	632.706	0.510
837.000	488.974	80.001	19.996	99.155	10.390	639.664	0.466
837.500	489.254	80.001	19.996	99.144	10.285	646.285	0.491
838.000	489.529	80.001	19.996	99.134	10.183	652.415	0.543
838.500	489.735	80.002	19.995	99.122	10.085	658.155	0.518
839.000	490.014	80.001	19.997	99.099	9.985	663.938	0.483
839.500	490.274	80.004	19.996	99.070	9.892	669.432	0.512
840.000	490.520	80.003	19.993	99.036	9.800	675.074	0.523
840.500	490.794	80.001	19.996	98.997	9.711	680.713	0.513
841.000	491.050	80.001	19.996	98.961	9.626	686.279	0.525
841.500	491.293	80.001	19.996	98.929	9.541	691.954	0.515
842.000	491.520	80.003	19.996	98.892	9.456	697.889	0.484
842.500	491.752	80.003	19.996	98.851	9.367	704.240	0.464
843.000	492.049	80.002	19.994	98.814	9.280	710.490	0.494
843.500	492.260	80.002	19.996	98.784	9.187	717.147	0.519
844.000	492.492	80.003	19.994	98.765	9.097	723.589	0.476
844.500	492.753	80.002	19.993	98.760	9.011	729.577	0.468
845.000	493.008	80.004	19.995	98.775	8.928	735.336	0.505
845.500	493.267	80.001	19.995	98.800	8.859	740.164	0.515
846.000	493.517	80.002	19.995	98.831	8.805	744.030	0.511
846.500	493.803	80.003	19.994	98.863	8.765	746.882	0.522
847.000	494.050	80.003	19.995	98.894	8.743	748.493	0.535
847.500	494.324	80.004	19.994	98.900	8.732	749.380	0.527
848.000	494.544	80.004	19.996	98.870	8.737	749.108	0.507
848.500	494.807	80.002	19.996	98.798	8.750	748.240	0.488
849.000	495.050	80.002	19.993	98.694	8.767	747.167	0.495
849.500	495.333	80.001	19.995	98.568	8.798	745.211	0.516
850.000	495.559	80.006	19.994	98.442	8.832	743.044	0.517
850.500	495.855	80.003	19.993	98.337	8.885	739.605	0.516
851.000	496.114	80.003	19.996	98.260	8.942	736.005	0.539
851.500	496.364	80.001	19.996	98.215	9.014	731.387	0.532
852.000	496.641	80.000	19.993	98.201	9.093	726.308	0.518
852.500	496.908	80.006	19.992	98.212	9.185	720.354	0.535
853.000	497.132	80.002	19.992	98.246	9.280	714.099	0.517
853.500	497.405	80.001	19.997	98.306	9.388	706.907	0.494
854.000	497.662	80.000	19.995	98.371	9.499	699.586	0.514
854.500	497.934	80.000	19.997	98.433	9.618	691.934	0.530
855.000	498.163	80.001	19.993	98.483	9.748	683.516	0.515
855.500	498.443	80.003	19.994	98.524	9.884	674.774	0.505
856.000	498.696	80.000	19.996	98.552	10.027	665.778	0.521
856.500	498.944	79.998	19.997	98.578	10.182	655.805	0.517
857.000	499.208	80.000	19.997	98.608	10.342	645.369	0.506
857.500	499.483	79.999	19.996	98.636	10.504	634.731	0.525
858.000	499.748	80.001	19.995	98.656	10.677	623.317	0.540
858.500	499.980	80.000	19.996	98.674	10.865	610.887	0.519
859.000	500.239	79.999	19.997	98.684	11.051	598.560	0.494
859.500	500.557	80.000	19.996	98.685	11.250	585.353	0.534
860.000	500.794	80.001	19.995	98.691	11.451	572.035	0.566
860.500	501.074	80.000	19.997	98.706	11.659	558.190	0.535
861.000	501.303	80.000	19.997	98.720	11.872	543.992	0.513
861.500	501.537	80.002	19.995	98.737	12.091	529.454	0.486
862.000	501.833	79.999	19.997	98.761	12.308	514.975	0.497
862.500	502.115	79.995	19.997	98.788	12.533	499.998	0.554
863.000	502.353	80.000	19.998	98.818	12.759	485.005	0.549
863.500	502.691	79.998	19.997	98.848	12.987	469.782	0.548
864.000	502.889	80.000	19.996	98.870	13.217	454.475	0.556
864.500	503.250	80.000	19.997	98.870	13.445	439.183	0.548
865.000	503.428	80.000	19.996	98.893	13.676	423.734	0.549
865.500	503.732	79.999	19.997	98.938	13.902	408.589	0.511
866.000	503.951	79.998	19.996	98.981	14.126	393.491	0.502
866.500	504.225	80.000	19.997	99.044	14.356	378.062	0.508
867.000	504.501	79.998	19.995	99.133	14.581	362.894	0.521
867.500	504.774	79.999	19.996	99.200	14.804	347.832	0.549
868.000	505.046	80.001	19.995	99.245	15.025	332.919	0.547
868.500	505.357	79.999	19.997	99.295	15.243	318.208	0.564
869.000	505.619	80.001	19.996	99.330	15.452	304.121	0.578
869.500	505.867	80.000	19.996	99.367	15.664	289.770	0.542
870.000	506.127	79.999	19.996	99.404	15.868	275.907	0.509
870.500	506.421	80.000	19.997	99.440	16.064	262.652	0.531
871.000	506.704	80.000	19.997	99.476	16.259	249.449	0.566
871.500	506.977	80.000	19.997	99.515	16.449	236.559	0.567
872.000	507.212	80.000	19.995	99.549	16.630	224.231	0.532
872.500	507.513	80.000	19.995	99.587	16.809	212.096	0.522
873.000	507.766	80.000	19.995	99.632	16.980	200.478	0.545
873.500	508.037	80.000	19.996	99.677	17.144	189.311	0.539
874.000	508.307	80.002	19.996	99.723	17.302	178.599	0.532
874.500	508.582	80.001	19.996	99.773	17.452	168.433	0.543
875.000	508.840	80.000	19.996	99.821	17.598	158.530	0.539
875.500	509.138	80.000	19.997	99.865	17.737	149.051	0.545
876.000	509.374	80.002	19.995	99.905	17.871	139.937	0.545
876.500	509.664	79.999	19.995	99.944	17.997	131.397	0.530
877.000	509.942	80.001	19.995	99.977	18.117	123.231	0.547
877.500	510.213	80.001	19.994	100.008	18.235	115.221	0.559
878.000	510.464	80.000	19.996	100.035	18.347	107.620	0.535
878.500	510.748	80.001	19.995	100.064	18.452	100.450	0.529
879.000	511.029	79.998	19.994	100.092	18.553	93.619	0.550
879.500	511.242	80.000	19.993	100.116	18.645	87.338	0.529
880.000	511.489	80.000	19.994	100.141	18.736	81.143	0.477
880.500	511.760	80.000	19.994	100.161	18.819	75.534	0.489
881.000	512.022	80.000	19.993	100.177	18.898	70.145	0.525
881.500	512.305	80.000	19.995	100.191	18.970	65.223	0.538
882.000	512.559	79.999	19.996	100.205	19.042	60.331	0.541
882.500	512.828	80.003	19.994	100.213	19.109	55.747	0.530
883.000	513.078	80.000	19.996	100.221	19.171	51.561	0.521
883.500	513.338	80.001	19.996	100.226	19.230	47.545	0.515
884.000	513.628	80.001	19.995	100.228	19.282	43.964	0.530
884.500	513.912	79.999	19.995	100.229	19.330	40.759	0.562
885.000	514.204	80.000	19.990	100.232	19.381	37.270	0.575
885.500	514.447	80.000	19.994	100.237	19.422	34.489	0.555
886.000	514.713	80.000	19.996	100.245	19.463	31.696	0.522
886.500	514.996	79.999	19.996	100.253	19.503	28.977	0.529
887.000	515.264	80.000	19.994	100.260	19.534	26.854	0.550
887.500	515.513	80.000	19.995	100.266	19.568	24.554	0.535
888.000	515.809	79.999	19.996	100.269	19.599	22.384	0.531
888.500	516.033	80.002	19.993	100.269	19.622	20.748	0.532
889.000	516.305	80.000	19.995	100.273	19.649	18.883	0.507
889.500	516.586	80.000	19.996	100.276	19.677	16.973	0.525
890.000	516.858	80.001	19.991	100.275	19.697	15.618	0.553
890.500	517.099	79.996	19.996	100.276	19.718	14.261	0.533
891.000	517.361	79.997	19.993	100.276	19.737	12.995	0.508
891.500	517.626	80.000	19.997	100.273	19.754	11.835	0.515
892.000	517.892	79.999	19.996	100.268	19.769	10.839	0.529
892.500	518.179	80.000	19.997	100.267	19.783	9.927	0.542
893.000	518.419	80.003	19.996	100.264	19.795	9.098	0.540
893.500	518.688	79.999	19.995	100.257	19.807	8.303	0.518
894.000	518.973	80.000	19.996	100.249	19.816	7.655	0.531
894.500	519.230	80.001	19.994	100.242	19.828	6.895	0.548
895.000	519.487	80.000	19.997	100.234	19.836	6.317	0.528
895.500	519.723	80.001	19.995	100.228	19.843	5.845	0.503
896.000	519.988	79.999	19.993	100.225	19.849	5.424	0.497
896.500	520.276	80.001	19.996	100.218	19.859	4.733	0.527
897.000	520.519	80.003	19.994	100.206	19.867	4.200	0.542
897.500	520.783	80.003	19.992	100.190	19.872	3.887	0.519
898.000	521.077	80.005	19.993	100.165	19.879	3.426	0.532
898.500	521.311	80.002	19.994	100.120	19.881	3.289	0.543
899.000	521.518	80.003	19.996	99.980	19.882	3.198	0.485
899.500	521.838	80.002	19.994	99.733	19.889	2.756	0.484
900.000	522.090	80.003	19.995	99.527	19.891	2.585	0.549
900.500	522.367	80.002	19.994	99.390	19.891	2.621	0.551
901.000	522.629	80.003	19.996	99.299	19.898	2.148	0.534
901.500	522.898	80.003	19.995	99.350	19.899	2.033	0.535
902.000	523.161	80.003	19.995	99.545	19.903	1.779	0.532
902.500	523.384	80.002	19.997	99.719	19.904	1.678	0.509
903.000	523.681	80.003	19.996	99.846	19.905	1.625	0.503
903.500	523.892	80.004	19.995	99.954	19.907	1.502	0.514
904.000	524.154	80.003	19.996	100.024	19.908	1.467	0.490
904.500	524.417	80.002	19.995	100.063	19.909	1.341	0.499
905.000	524.653	80.002	19.996	100.088	19.913	1.114	0.512
905.500	524.893	80.001	19.996	100.096	19.913	1.075	0.488
906.000	525.168	80.004	19.996	100.099	19.915	0.929	0.495
906.500	525.405	80.001	19.994	100.100	19.917	0.802	0.513
907.000	525.657	80.001	19.996	100.101	19.918	0.765	0.501
907.500	525.912	80.002	19.995	100.102	19.921	0.553	0.498
908.000	526.207	80.002	19.995	100.091	19.920	0.639	0.528
908.500	526.420	80.001	19.995	100.075	19.920	0.610	0.529
909.000	526.671	80.001	19.995	100.073	19.921	0.535	0.486
909.500	526.940	80.002	19.994	100.085	19.924	0.353	0.493
910.000	527.224	80.002	19.996	100.102	19.924	0.375	0.537
910.500	527.447	80.002	19.993	100.139	19.925	0.293	0.530
911.000	527.688	80.001	19.994	100.180	19.926	0.231	0.485
911.500	527.963	80.001	19.994	100.204	19.925	0.273	0.490
912.000	528.244	80.003	19.995	100.215	19.928	0.110	0.536
912.500	528.510	80.001	19.995	100.222	19.924	0.333	0.551
913.000	528.706	80.001	19.994	100.222	19.926	0.240	0.504
913.500	528.976	80.002	19.995	100.223	19.927	0.132	0.465
914.000	529.239	80.002	19.995	100.224	19.930	-0.042	0.500
914.500	529.518	80.002	19.995	100.224	19.931	-0.093	0.537
915.000	529.743	80.004	19.994	100.224	19.927	0.161	0.523
915.500	529.958	80.002	19.995	100.224	19.930	-0.053	0.472
916.000	530.231	80.004	19.994	100.221	19.931	-0.135	0.464
916.500	530.515	80.005	19.994	100.218	19.927	0.115	0.523
917.000	530.707	80.003	19.994	100.210	19.931	-0.132	0.517
917.500	530.953	80.004	19.993	100.203	19.929	-0.024	0.456
918.000	531.213	80.003	19.994	100.196	19.930	-0.046	0.472
918.500	531.478	80.002	19.995	100.191	19.931	-0.104	0.516
919.000	531.736	80.001	19.995	100.187	19.931	-0.139	0.524
919.500	531.938	80.002	19.995	100.187	19.935	-0.412	0.491
920.000	532.249	80.003	19.994	100.187	19.930	-0.082	0.487
920.500	532.469	80.004	19.994	100.187	19.934	-0.326	0.523
921.000	532.718	80.004	19.995	100.187	19.930	-0.073	0.500
921.500	532.997	80.003	19.995	100.186	19.928	0.073	0.498
922.000	533.199	80.002	19.994	100.185	19.932	-0.205	0.504
922.500	533.470	80.004	19.995	100.184	19.932	-0.178	0.477
923.000	533.682	80.004	19.994	100.184	19.934	-0.302	0.478
923.500	533.962	80.004	19.995	100.184	19.933	-0.269	0.488
924.000	534.208	80.003	19.998	100.185	19.932	-0.187	0.509
924.500	534.479	80.004	19.994	100.186	19.933	-0.236	0.521
925.000	534.735	80.003	19.995	100.186	19.931	-0.108	0.522
925.500	534.982	80.004	19.995	100.186	19.932	-0.163	0.515
926.000	535.238	80.003	19.994	100.187	19.934	-0.339	0.503
926.500	535.457	80.003	19.995	100.187	19.933	-0.255	0.489
927.000	535.722	80.002	19.995	100.186	19.933	-0.251	0.479
927.500	535.930	80.001	19.995	100.186	19.934	-0.357	0.478
928.000	536.220	80.003	19.995	100.187	19.933	-0.275	0.485
928.500	536.454	80.002	19.994	100.189	19.934	-0.346	0.512
929.000	536.692	80.001	19.995	100.192	19.934	-0.341	0.498
929.500	536.936	80.002	19.995	100.195	19.930	-0.082	0.477
930.000	537.158	80.002	19.994	100.196	19.934	-0.352	0.474
930.500	537.461	80.000	19.996	100.195	19.934	-0.328	0.496
931.000	537.652	80.002	19.994	100.197	19.936	-0.469	0.509
931.500	537.919	80.000	19.995	100.194	19.936	-0.432	0.475
932.000	538.188	80.001	19.996	100.192	19.932	-0.167	0.497
932.500	538.359	80.001	19.994	100.194	19.936	-0.440	0.488
933.000	538.632	80.001	19.995	100.201	19.935	-0.399	0.442
933.500	538.889	80.001	19.995	100.206	19.936	-0.474	0.487
934.000	539.133	79.998	19.995	100.210	19.934	-0.361	0.516
934.500	539.401	79.999	19.996	100.216	19.938	-0.603	0.507
935.000	539.633	80.000	19.996	100.217	19.938	-0.594	0.506
935.500	539.881	80.001	19.995	100.216	19.937	-0.540	0.490
936.000	540.136	80.000	19.996	100.214	19.940	-0.758	0.492
936.500	540.375	80.000	19.995	100.215	19.936	-0.443	0.498
937.000	540.594	80.002	19.995	100.216	19.935	-0.407	0.476
937.500	540.860	79.999	19.996	100.216	19.934	-0.344	0.471
938.000	541.074	80.000	19.996	100.218	19.937	-0.513	0.482
938.500	541.373	80.002	19.994	100.220	19.937	-0.544	0.497
939.000	541.629	79.999	19.996	100.222	19.936	-0.491	0.535
939.500	541.845	79.999	19.995	100.223	19.939	-0.671	0.514
940.000	542.115	80.000	19.995	100.226	19.940	-0.762	0.479
940.500	542.344	80.001	19.995	100.226	19.940	-0.762	0.493
941.000	542.610	80.002	19.996	100.227	19.938	-0.628	0.497
941.500	542.880	80.001	19.996	100.227	19.940	-0.715	0.515
942.000	543.100	80.000	19.995	100.227	19.939	-0.674	0.513
942.500	543.386	80.001	19.997	100.227	19.938	-0.634	0.498
943.000	543.615	80.000	19.996	100.227	19.938	-0.636	0.510
943.500	543.839	80.000	19.994	100.227	19.938	-0.605	0.484
944.000	544.129	80.001	19.995	100.227	19.940	-0.738	0.483
944.500	544.367	80.002	19.995	100.228	19.939	-0.640	0.521
945.000	544.600	80.002	19.994	100.230	19.939	-0.645	0.500
945.500	544.845	79.999	19.995	100.230	19.942	-0.881	0.475
946.000	545.124	80.000	19.995	100.231	19.942	-0.850	0.501
946.500	545.345	80.000	19.996	100.232	19.941	-0.819	0.512
947.000	545.626	80.000	19.995	100.233	19.939	-0.687	0.501
947.500	545.852	80.000	19.995	100.233	19.943	-0.973	0.504
948.000	546.115	80.000	19.995	100.233	19.942	-0.843	0.498
948.500	546.352	80.000	19.995	100.234	19.941	-0.781	0.494
949.000	546.649	80.000	19.996	100.235	19.944	-0.995	0.517
949.500	546.884	80.000	19.995	100.238	19.942	-0.850	0.533
950.000	547.174	80.002	19.995	100.240	19.936	-0.486	0.529
950.500	547.398	80.001	19.994	100.247	19.943	-0.922	0.520
951.000	547.648	80.000	19.995	100.248	19.939	-0.652	0.494
951.500	547.917	80.002	19.996	100.252	19.940	-0.735	0.496
952.000	548.171	80.000	19.996	100.254	19.936	-0.464	0.521
952.500	548.396	80.000	19.995	100.257	19.937	-0.513	0.501
953.000	548.645	79.999	19.996	100.256	19.935	-0.394	0.477
953.500	548.888	80.001	19.995	100.260	19.939	-0.643	0.483
954.000	549.198	80.000	19.995	100.262	19.939	-0.682	0.522
954.500	549.455	80.001	19.997	100.263	19.941	-0.777	0.560
955.000	549.677	79.999	19.996	100.263	19.937	-0.515	0.523
955.500	549.901	80.000	19.996	100.264	19.937	-0.542	0.463
956.000	550.186	80.000	19.996	100.263	19.940	-0.771	0.478
956.500	550.407	80.000	19.997	100.262	19.941	-0.779	0.507
957.000	550.699	80.001	19.996	100.260	19.940	-0.764	0.509
957.500	550.894	80.000	19.996	100.260	19.940	-0.751	0.500
958.000	551.158	80.000	19.997	100.261	19.941	-0.786	0.473
958.500	551.457	80.000	19.997	100.260	19.943	-0.953	0.511
959.000	551.676	80.000	19.997	100.257	19.940	-0.746	0.540
959.500	551.925	80.000	19.997	100.256	19.942	-0.841	0.493
960.000	552.206	80.001	19.997	100.254	19.944	-1.024	0.499
960.500	552.424	80.002	19.996	100.254	19.941	-0.793	0.515
961.000	552.724	80.000	19.997	100.253	19.940	-0.744	0.509
961.500	552.970	79.999	19.996	100.256	19.940	-0.724	0.532
962.000	553.237	80.001	19.996	100.259	19.941	-0.792	0.530
962.500	553.484	80.000	19.997	100.261	19.942	-0.869	0.514
963.000	553.733	79.999	19.997	100.261	19.942	-0.903	0.505
963.500	553.994	80.000	19.996	100.263	19.940	-0.755	0.503
964.000	554.235	79.999	19.997	100.262	19.941	-0.777	0.506
964.500	554.519	80.001	19.996	100.261	19.941	-0.799	0.513
965.000	554.761	79.998	19.995	100.259	19.941	-0.808	0.526
965.500	555.026	80.000	19.996	100.258	19.941	-0.792	0.516
966.000	555.252	80.000	19.996	100.259	19.942	-0.883	0.498
966.500	555.521	79.999	19.996	100.260	19.938	-0.601	0.493
967.000	555.790	79.999	19.996	100.260	19.939	-0.702	0.517
967.500	556.024	80.000	19.996	100.262	19.943	-0.920	0.521
968.000	556.288	79.999	19.996	100.262	19.940	-0.720	0.501
968.500	556.559	80.000	19.996	100.261	19.940	-0.731	0.517
969.000	556.789	80.001	19.996	100.261	19.941	-0.823	0.518
969.500	557.039	80.001	19.995	100.262	19.941	-0.790	0.490
970.000	557.321	80.002	19.996	100.262	19.942	-0.876	0.506
970.500	557.570	80.001	19.996	100.260	19.943	-0.920	0.532
971.000	557.811	80.001	19.996	100.259	19.944	-1.039	0.510
971.501	558.114	80.001	19.996	100.260	19.943	-0.955	0.517
972.000	558.363	80.000	19.994	100.260	19.943	-0.916	0.548
972.500	558.647	80.000	19.996	100.260	19.943	-0.955	0.543
973.000	558.849	80.000	19.995	100.264	19.942	-0.878	0.509
973.500	559.121	80.001	19.996	100.265	19.942	-0.898	0.479
974.000	559.424	80.001	19.994	100.265	19.942	-0.861	0.524
974.500	559.641	80.001	19.995	100.265	19.945	-1.065	0.548
975.000	559.888	80.003	19.996	100.265	19.945	-1.101	0.492
975.500	560.174	80.002	19.996	100.264	19.944	-1.008	0.499
976.000	560.428	80.001	19.996	100.264	19.943	-0.938	0.536
976.500	560.691	80.001	19.995	100.264	19.942	-0.885	0.528
977.000	560.989	80.002	19.995	100.264	19.943	-0.933	0.539
977.500	561.231	80.002	19.995	100.264	19.943	-0.924	0.551
978.000	561.456	80.002	19.996	100.264	19.944	-1.033	0.504
978.500	561.730	80.004	19.995	100.264	19.946	-1.132	0.483
979.000	561.993	80.003	19.995	100.264	19.944	-1.033	0.518
979.500	562.255	80.003	19.995	100.263	19.944	-0.993	0.531
980.000	562.527	80.003	19.995	100.264	19.945	-1.057	0.529
980.500	562.769	80.002	19.996	100.264	19.942	-0.878	0.524
981.000	563.028	80.003	19.995	100.264	19.943	-0.927	0.507
981.500	563.308	80.004	19.995	100.264	19.942	-0.880	0.520
982.000	563.586	80.002	19.996	100.264	19.943	-0.969	0.549
982.500	563.776	80.003	19.995	100.263	19.942	-0.898	0.513
983.000	564.062	80.003	19.995	100.263	19.941	-0.812	0.472
983.500	564.323	80.002	19.995	100.263	19.944	-1.019	0.511
984.000	564.585	80.004	19.996	100.263	19.942	-0.876	0.536
984.500	564.863	80.003	19.996	100.263	19.941	-0.839	0.532
985.000	565.143	80.002	19.994	100.262	19.942	-0.861	0.549
985.500	565.398	80.003	19.995	100.262	19.940	-0.770	0.546
986.000	565.648	80.004	19.995	100.262	19.942	-0.881	0.520
986.500	565.906	80.001	19.995	100.262	19.943	-0.940	0.506
987.000	566.170	80.002	19.996	100.262	19.944	-1.002	0.515
987.500	566.424	80.000	19.996	100.263	19.943	-0.971	0.521
988.000	566.704	80.004	19.995	100.263	19.942	-0.874	0.526
988.500	566.976	80.002	19.995	100.263	19.945	-1.085	0.543
989.000	567.214	80.000	19.994	100.263	19.942	-0.907	0.531
989.500	567.497	80.001	19.995	100.263	19.943	-0.953	0.515
990.000	567.752	80.002	19.995	100.263	19.947	-1.191	0.529
990.500	567.966	80.002	19.995	100.264	19.945	-1.070	0.503
991.000	568.270	80.002	19.995	100.264	19.944	-0.993	0.493
991.500	568.492	80.000	19.995	100.264	19.942	-0.891	0.522
992.000	568.736	80.001	19.995	100.264	19.940	-0.771	0.496
992.500	569.040	80.002	19.995	100.264	19.943	-0.975	0.508
993.000	569.277	80.002	19.995	100.264	19.941	-0.834	0.544
993.500	569.575	80.001	19.995	100.264	19.944	-0.986	0.537
994.000	569.818	80.001	19.994	100.265	19.943	-0.936	0.538
994.500	570.092	80.002	19.994	100.265	19.944	-1.037	0.529
995.000	570.343	80.003	19.995	100.266	19.942	-0.859	0.521
995.500	570.572	80.001	19.996	100.266	19.944	-0.999	0.502
996.000	570.851	80.002	19.994	100.266	19.945	-1.083	0.494
996.500	571.094	80.001	19.994	100.266	19.942	-0.891	0.515
997.000	571.338	80.001	19.995	100.267	19.945	-1.045	0.504
997.500	571.619	80.001	19.995	100.267	19.942	-0.900	0.506
998.000	571.861	80.003	19.995	100.267	19.945	-1.045	0.524
998.500	572.135	80.002	19.995	100.267	19.942	-0.889	0.519
999.000	572.384	80.003	19.994	100.267	19.945	-1.050	0.519
999.500	572.658	80.001	19.994	100.267	19.944	-0.980	0.523
1000.000	572.909	80.004	19.994	100.267	19.942	-0.850	0.524
1000.500	573.162	80.003	19.994	100.267	19.941	-0.803	0.514
1001.000	573.416	80.003	19.995	100.267	19.940	-0.735	0.505
1001.500	573.752	80.004	19.995	100.267	19.943	-0.911	0.549
1002.000	573.943	80.004	19.994	100.267	19.940	-0.746	0.559
1002.500	574.252	80.002	19.994	100.267	19.941	-0.825	0.514
1003.000	574.513	80.003	19.995	100.267	19.941	-0.810	0.535
1003.500	574.770	80.001	19.995	100.267	19.943	-0.925	0.544
1004.000	575.082	80.003	19.995	100.267	19.943	-0.944	0.543
1004.500	575.283	80.003	19.994	100.267	19.944	-1.013	0.541
1005.000	575.545	80.003	19.994	100.268	19.942	-0.905	0.488
1005.500	575.838	80.003	19.994	100.267	19.943	-0.936	0.509
1006.000	576.090	80.003	19.993	100.268	19.943	-0.962	0.550
1006.500	576.350	80.003	19.994	100.268	19.944	-0.982	0.529
1007.000	576.603	80.004	19.994	100.267	19.947	-1.188	0.513
1007.500	576.852	80.003	19.995	100.267	19.945	-1.094	0.508
1008.000	577.102	80.005	19.995	100.266	19.945	-1.085	0.500
1008.500	577.371	80.004	19.994	100.266	19.943	-0.947	0.509
1009.000	577.609	80.003	19.995	100.267	19.943	-0.916	0.513
1009.500	577.872	80.003	19.994	100.268	19.945	-1.085	0.504
1010.000	578.125	80.004	19.995	100.268	19.946	-1.176	0.508
1010.500	578.370	80.004	19.995	100.269	19.945	-1.072	0.507
1011.000	578.613	80.002	19.994	100.269	19.942	-0.903	0.493
1011.500	578.876	80.002	19.994	100.268	19.941	-0.815	0.497
1012.000	579.124	80.002	19.995	100.267	19.945	-1.079	0.509
1012.500	579.420	80.001	19.995	100.268	19.947	-1.231	0.528
1013.000	579.644	80.001	19.994	100.268	19.944	-1.010	0.532
1013.500	579.884	80.000	19.994	100.268	19.948	-1.263	0.492
1014.000	580.136	80.002	19.995	100.268	19.946	-1.140	0.478
1014.500	580.372	80.001	19.995	100.268	19.944	-0.988	0.490
1015.000	580.615	80.000	19.994	100.268	19.947	-1.242	0.483
1015.500	580.905	80.000	19.993	100.268	19.946	-1.145	0.506
1016.000	581.167	80.000	19.995	100.269	19.944	-0.990	0.543
1016.500	581.384	79.999	19.995	100.272	19.944	-1.012	0.515
1017.000	581.646	80.000	19.995	100.275	19.946	-1.160	0.479
1017.500	581.893	80.000	19.996	100.274	19.943	-0.942	0.494
1018.000	582.156	79.999	19.995	100.274	19.941	-0.812	0.510
1018.500	582.424	80.000	19.996	100.274	19.942	-0.894	0.521
1019.000	582.689	80.000	19.995	100.273	19.943	-0.968	0.532
1019.500	582.950	80.000	19.996	100.271	19.945	-1.094	0.529
1020.000	583.185	80.001	19.995	100.271	19.945	-1.076	0.511
1020.500	583.425	80.000	19.996	100.271	19.943	-0.946	0.485
1021.000	583.687	80.000	19.995	100.270	19.946	-1.167	0.489
1021.500	583.974	80.000	19.996	100.268	19.945	-1.068	0.526
1022.000	584.161	80.000	19.996	100.266	19.943	-0.975	0.511
1022.500	584.432	80.002	19.995	100.266	19.945	-1.083	0.466
1023.000	584.692	80.000	19.996	100.266	19.942	-0.896	0.495
1023.500	584.936	80.001	19.995	100.265	19.944	-1.004	0.518
1024.000	585.191	80.001	19.995	100.265	19.945	-1.096	0.501
1024.500	585.435	80.001	19.996	100.265	19.945	-1.096	0.499
1025.000	585.676	80.000	19.996	100.264	19.945	-1.056	0.492
1025.501	585.942	80.000	19.997	100.264	19.944	-0.997	0.496
1026.001	586.185	80.001	19.996	100.264	19.945	-1.107	0.508
1026.500	586.442	80.001	19.995	100.265	19.944	-1.041	0.504
1027.000	586.718	80.003	19.996	100.266	19.944	-1.035	0.516
1027.500	586.949	80.000	19.995	100.266	19.944	-1.043	0.520
1028.000	587.216	80.001	19.996	100.266	19.944	-1.010	0.503
1028.500	587.425	80.001	19.996	100.266	19.945	-1.083	0.487
1029.000	587.727	80.000	19.995	100.266	19.946	-1.147	0.493
1029.500	587.963	80.001	19.996	100.266	19.943	-0.924	0.525
1030.000	588.224	80.001	19.996	100.265	19.946	-1.176	0.518
1030.500	588.454	80.000	19.995	100.266	19.947	-1.244	0.494
1031.000	588.712	80.002	19.996	100.266	19.942	-0.876	0.489
1031.500	588.943	80.002	19.995	100.266	19.947	-1.193	0.488
1032.000	589.188	80.001	19.995	100.266	19.944	-1.035	0.482
1032.500	589.422	80.001	19.995	100.266	19.943	-0.968	0.478
1033.000	589.660	80.002	19.996	100.270	19.948	-1.297	0.476
1033.500	589.922	80.001	19.995	100.272	19.947	-1.186	0.486
1034.000	590.193	80.001	19.996	100.275	19.947	-1.241	0.516
1034.500	590.407	80.002	19.995	100.274	19.947	-1.193	0.509
1035.000	590.705	80.001	19.995	100.275	19.944	-1.030	0.498
1035.500	590.935	80.002	19.995	100.271	19.947	-1.195	0.520
1036.000	591.169	80.000	19.996	100.269	19.946	-1.118	0.496
1036.500	591.449	80.002	19.995	100.267	19.946	-1.155	0.489
1037.000	591.654	80.001	19.994	100.266	19.944	-1.006	0.499
1037.500	591.932	80.001	19.996	100.265	19.945	-1.068	0.484
1038.000	592.174	80.002	19.996	100.266	19.945	-1.070	0.502
1038.500	592.429	80.000	19.995	100.265	19.946	-1.136	0.509
1039.000	592.649	80.000	19.996	100.265	19.947	-1.182	0.486
1039.500	592.944	80.002	19.995	100.266	19.948	-1.297	0.495
1040.000	593.176	80.001	19.996	100.267	19.948	-1.253	0.521
1040.500	593.400	80.002	19.995	100.268	19.944	-1.041	0.492
1041.000	593.660	80.001	19.996	100.269	19.948	-1.255	0.470
1041.500	593.947	80.001	19.996	100.270	19.946	-1.149	0.516
1042.000	594.172	80.002	19.995	100.269	19.947	-1.232	0.530
1042.500	594.455	80.000	19.995	100.268	19.948	-1.268	0.510
1043.000	594.743	80.000	19.996	100.273	19.948	-1.294	0.539
1043.500	594.949	80.001	19.995	100.273	19.951	-1.463	0.532
1044.000	595.217	80.000	19.996	100.272	19.948	-1.307	0.484
1044.500	595.469	80.002	19.995	100.273	19.946	-1.156	0.497
1045.000	595.730	80.000	19.996	100.272	19.947	-1.237	0.517
1045.500	595.973	80.000	19.997	100.267	19.947	-1.237	0.508
1046.000	596.230	80.000	19.997	100.266	19.946	-1.155	0.502
1046.500	596.459	79.999	19.996	100.267	19.947	-1.217	0.493
1047.000	596.689	80.000	19.996	100.267	19.948	-1.250	0.472
1047.500	596.966	80.001	19.996	100.271	19.945	-1.070	0.484
1048.000	597.252	79.999	19.997	100.270	19.944	-1.017	0.535
1048.500	597.510	80.001	19.996	100.270	19.947	-1.199	0.554
1049.000	597.717	79.999	19.996	100.270	19.947	-1.199	0.504
1049.500	597.971	79.999	19.998	100.269	19.945	-1.056	0.463
1050.000	598.217	80.000	19.997	100.266	19.946	-1.166	0.481
1050.500	598.459	79.999	19.997	100.268	19.946	-1.114	0.494
1051.001	598.740	80.000	19.996	100.272	19.948	-1.285	0.505
1051.501	598.996	80.000	19.997	100.272	19.948	-1.274	0.530
1052.000	599.223	79.999	19.996	100.271	19.947	-1.189	0.510
1052.500	599.498	80.001	19.997	100.278	19.947	-1.224	0.492
1053.000	599.757	80.000	19.997	100.283	19.946	-1.169	0.518
1053.500	599.994	80.000	19.996	100.281	19.946	-1.112	0.515
1054.000	600.232	79.998	19.997	100.280	19.945	-1.094	0.486
1054.500	600.467	80.000	19.996	100.279	19.946	-1.162	0.474
1055.000	600.742	80.000	19.997	100.274	19.945	-1.080	0.491
1055.500	601.022	79.999	19.996	100.267	19.942	-0.850	0.532
1056.000	601.254	80.001	19.996	100.265	19.946	-1.140	0.534
1056.500	601.521	80.001	19.996	100.268	19.945	-1.092	0.506
1057.000	601.747	80.001	19.996	100.270	19.947	-1.190	0.496
1057.500	601.969	80.002	19.996	100.273	19.946	-1.149	0.470
1058.000	602.267	80.002	19.996	100.273	19.944	-0.997	0.485
1058.500	602.506	80.003	19.996	100.278	19.945	-1.091	0.529
1059.000	602.769	80.001	19.996	100.276	19.947	-1.201	0.519
1059.500	603.014	80.002	19.996	100.278	19.944	-0.986	0.505
1060.000	603.274	80.001	19.996	100.283	19.946	-1.153	0.506
1060.500	603.504	80.002	19.995	100.286	19.944	-1.003	0.497
1061.000	603.754	80.002	19.995	100.285	19.944	-0.997	0.485
1061.500	604.005	80.003	19.995	100.284	19.945	-1.061	0.491
1062.000	604.246	80.002	19.994	100.282	19.946	-1.179	0.497
1062.500	604.487	80.003	19.996	100.278	19.944	-1.003	0.487
1063.000	604.777	80.003	19.996	100.279	19.946	-1.138	0.506
1063.500	604.978	80.002	19.995	100.280	19.946	-1.124	0.511
1064.000	605.211	80.003	19.996	100.282	19.946	-1.175	0.463
1064.500	605.536	80.003	19.995	100.280	19.944	-1.017	0.496
1065.000	605.773	80.002	19.995	100.278	19.945	-1.067	0.559
1065.500	606.015	80.002	19.994	100.280	19.944	-0.995	0.521
1066.000	606.232	80.002	19.995	100.283	19.947	-1.236	0.469
1066.500	606.508	80.001	19.995	100.286	19.945	-1.093	0.476
1067.000	606.766	80.002	19.995	100.292	19.946	-1.127	0.514
1067.501	606.980	80.002	19.994	100.294	19.943	-0.951	0.503
1068.001	607.247	80.001	19.994	100.295	19.949	-1.366	0.476
1068.500	607.506	80.000	19.995	100.295	19.948	-1.314	0.503
1069.000	607.769	80.001	19.995	100.298	19.946	-1.126	0.524
1069.500	608.030	80.002	19.996	100.299	19.946	-1.131	0.523
1070.000	608.255	80.001	19.996	100.303	19.947	-1.237	0.505
1070.500	608.511	80.001	19.994	100.299	19.948	-1.276	0.484
1071.000	608.757	80.002	19.994	100.295	19.946	-1.166	0.492
1071.500	609.046	80.001	19.995	100.290	19.947	-1.226	0.519
1072.000	609.271	80.001	19.995	100.287	19.946	-1.118	0.524
1072.500	609.548	80.001	19.995	100.284	19.948	-1.252	0.508
1073.001	609.799	80.002	19.995	100.287	19.948	-1.302	0.515
1073.501	610.013	80.001	19.994	100.290	19.945	-1.085	0.496
1074.000	610.292	80.001	19.995	100.293	19.943	-0.957	0.479
1074.500	610.523	80.002	19.995	100.297	19.948	-1.252	0.502
1075.000	610.812	80.002	19.995	100.301	19.950	-1.434	0.515
1075.500	611.074	80.002	19.995	100.303	19.945	-1.045	0.536
1076.000	611.321	80.001	19.994	100.304	19.949	-1.333	0.530
1076.500	611.573	80.003	19.995	100.306	19.950	-1.419	0.504
1077.000	611.844	80.001	19.995	100.307	19.947	-1.236	0.511
1077.500	612.120	80.001	19.995	100.307	19.951	-1.520	0.535
1078.001	612.356	80.001	19.994	100.307	19.948	-1.298	0.529
1078.501	612.600	80.002	19.996	100.306	19.949	-1.362	0.496
1079.000	612.905	80.001	19.994	100.304	19.947	-1.197	0.514
1079.500	613.164	80.003	19.995	100.302	19.947	-1.188	0.556
1080.000	613.399	80.002	19.995	100.301	19.948	-1.283	0.529
1080.500	613.648	80.002	19.995	100.301	19.947	-1.219	0.489
1081.000	613.936	80.003	19.996	100.302	19.944	-1.034	0.511
1081.500	614.205	80.003	19.995	100.304	19.946	-1.175	0.547
1082.000	614.466	80.002	19.995	100.306	19.949	-1.331	0.543
1082.500	614.723	80.003	19.995	100.306	19.950	-1.395	0.524
1083.000	614.978	80.003	19.995	100.306	19.949	-1.331	0.515
1083.500	615.226	80.002	19.995	100.306	19.949	-1.347	0.507
1084.000	615.496	80.003	19.995	100.304	19.947	-1.219	0.510
1084.500	615.762	80.003	19.995	100.303	19.946	-1.135	0.527
1085.001	615.977	80.003	19.994	100.304	19.945	-1.054	0.509
1085.501	616.267	80.003	19.995	100.304	19.948	-1.302	0.493
1086.000	616.533	80.004	19.995	100.304	19.948	-1.287	0.530
1086.500	616.821	80.003	19.995	100.304	19.946	-1.129	0.555
1087.000	617.049	80.004	19.995	100.305	19.944	-1.025	0.535
1087.500	617.298	80.004	19.995	100.304	19.946	-1.166	0.496
1088.000	617.502	80.003	19.995	100.304	19.945	-1.087	0.465
1088.500	617.779	80.004	19.996	100.304	19.945	-1.091	0.467
1089.000	618.045	80.004	19.995	100.304	19.947	-1.217	0.512
1089.500	618.299	80.003	19.995	100.303	19.945	-1.060	0.532
1090.000	618.583	80.003	19.995	100.303	19.946	-1.160	0.529
1090.500	618.848	80.003	19.996	100.305	19.947	-1.192	0.543
1091.000	619.091	80.004	19.994	100.306	19.946	-1.177	0.529
1091.500	619.372	80.003	19.995	100.305	19.945	-1.091	0.516
1092.000	619.609	80.004	19.994	100.306	19.944	-1.027	0.521
1092.500	619.852	80.002	19.994	100.306	19.945	-1.076	0.499
1093.000	620.125	80.003	19.994	100.306	19.947	-1.243	0.498
1093.500	620.386	80.001	19.995	100.305	19.946	-1.120	0.525
1094.000	620.644	80.002	19.996	100.305	19.945	-1.082	0.526
1094.500	620.857	80.001	19.995	100.305	19.945	-1.095	0.495
1095.000	621.154	80.002	19.996	100.304	19.947	-1.239	0.491
1095.500	621.386	80.003	19.995	100.304	19.945	-1.052	0.519
1096.000	621.650	80.002	19.995	100.304	19.946	-1.153	0.512
1096.500	621.959	80.002	19.994	100.306	19.946	-1.168	0.535
1097.000	622.176	80.001	19.994	100.306	19.947	-1.234	0.550
1097.500	622.417	80.002	19.995	100.307	19.949	-1.358	0.492
1098.000	622.697	80.001	19.995	100.309	19.945	-1.080	0.489
1098.500	622.952	80.001	19.995	100.311	19.948	-1.254	0.528
1099.000	623.216	80.001	19.995	100.309	19.946	-1.113	0.527
1099.500	623.496	80.002	19.994	100.310	19.947	-1.184	0.532
1100.001	623.747	80.002	19.996	100.311	19.944	-0.983	0.537
1100.501	624.004	80.002	19.995	100.309	19.947	-1.212	0.520
1101.000	624.254	80.002	19.995	100.310	19.942	-0.860	0.508
1101.500	624.534	80.001	19.994	100.311	19.943	-0.955	0.519
1102.000	624.755	80.002	19.996	100.312	19.942	-0.858	0.515
1102.500	625.051	80.001	19.994	100.315	19.944	-1.003	0.509
1103.000	625.309	80.001	19.995	100.316	19.947	-1.182	0.536
1103.500	625.567	80.000	19.995	100.317	19.944	-0.990	0.535
1104.000	625.774	80.001	19.996	100.319	19.944	-1.027	0.491
1104.500	626.072	80.001	19.995	100.318	19.944	-0.995	0.485
1105.000	626.318	80.000	19.996	100.318	19.943	-0.944	0.524
1105.500	626.588	80.001	19.996	100.321	19.943	-0.970	0.530
1106.000	626.861	80.000	19.995	100.322	19.942	-0.854	0.530
1106.500	627.098	80.001	19.995	100.320	19.943	-0.975	0.527
1107.000	627.391	80.002	19.994	100.318	19.944	-1.015	0.520
1107.500	627.634	80.001	19.996	100.316	19.947	-1.246	0.532
1108.000	627.893	80.001	19.996	100.311	19.944	-0.984	0.519
1108.500	628.145	80.001	19.996	100.308	19.945	-1.100	0.506
1109.000	628.385	79.999	19.996	100.309	19.944	-1.016	0.501
1109.500	628.689	80.001	19.995	100.314	19.943	-0.966	0.518
1110.000	628.992	80.001	19.995	100.317	19.945	-1.102	0.575
1110.500	629.212	80.000	19.996	100.319	19.946	-1.164	0.565
1111.000	629.492	80.001	19.996	100.318	19.944	-1.003	0.512
1111.500	629.729	80.002	19.996	100.317	19.946	-1.161	0.508
1112.000	629.987	80.002	19.995	100.314	19.945	-1.095	0.506
1112.500	630.244	80.001	19.996	100.311	19.945	-1.062	0.505
1113.000	630.489	80.001	19.995	100.311	19.948	-1.254	0.509
1113.500	630.730	80.002	19.996	100.310	19.943	-0.957	0.494
1114.000	630.978	80.001	19.995	100.310	19.946	-1.120	0.488
1114.500	631.255	80.000	19.995	100.312	19.943	-0.966	0.507
1115.000	631.482	80.002	19.996	100.306	19.942	-0.876	0.514
1115.500	631.783	80.001	19.995	100.296	19.946	-1.148	0.516
1116.000	631.996	80.002	19.997	100.288	19.943	-0.939	0.521
1116.500	632.278	80.001	19.996	100.283	19.945	-1.089	0.505
1117.000	632.512	80.001	19.996	100.279	19.942	-0.902	0.505
1117.500	632.781	80.001	19.995	100.284	19.943	-0.944	0.510
1118.000	633.050	80.002	19.995	100.291	19.945	-1.107	0.520
1118.500	633.284	80.001	19.996	100.299	19.945	-1.063	0.520
1119.000	633.563	80.001	19.996	100.311	19.940	-0.763	0.508
1119.500	633.814	80.000	19.996	100.317	19.942	-0.882	0.522
1120.000	634.062	80.000	19.995	100.323	19.942	-0.895	0.514
1120.500	634.350	80.001	19.996	100.320	19.941	-0.827	0.517
1121.000	634.629	80.002	19.995	100.319	19.942	-0.856	0.551
1121.500	634.865	80.001	19.996	100.317	19.942	-0.884	0.541
1122.000	635.132	80.000	19.996	100.321	19.944	-1.039	0.510
1122.500	635.401	80.001	19.996	100.316	19.941	-0.797	0.519
1123.000	635.664	80.000	19.995	100.313	19.942	-0.871	0.534
1123.500	635.932	79.999	19.995	100.313	19.941	-0.823	0.532
1124.000	636.184	80.001	19.995	100.313	19.944	-1.034	0.525
1124.500	636.427	80.001	19.995	100.316	19.941	-0.836	0.507
1125.000	636.701	80.000	19.996	100.323	19.941	-0.820	0.506
1125.500	636.917	80.000	19.995	100.328	19.945	-1.082	0.504
1126.000	637.212	80.000	19.996	100.328	19.944	-1.043	0.501
1126.500	637.464	80.001	19.996	100.323	19.945	-1.093	0.529
1127.000	637.757	80.002	19.995	100.310	19.945	-1.106	0.546
1127.500	637.956	80.002	19.996	100.303	19.941	-0.832	0.519
1128.000	638.261	80.000	19.995	100.304	19.943	-0.957	0.498
1128.500	638.515	79.999	19.995	100.306	19.941	-0.781	0.531
1129.000	638.770	80.001	19.995	100.309	19.944	-0.990	0.534
1129.500	639.035	79.999	19.995	100.311	19.944	-0.994	0.514
1130.000	639.302	80.002	19.996	100.310	19.944	-0.977	0.526
1130.500	639.505	80.000	19.996	100.311	19.943	-0.950	0.501
1131.000	639.817	80.001	19.995	100.312	19.943	-0.954	0.493
1131.500	640.071	80.000	19.995	100.311	19.940	-0.752	0.540
1132.000	640.329	80.000	19.995	100.310	19.945	-1.100	0.539
1132.500	640.573	80.001	19.996	100.310	19.946	-1.162	0.507
1133.000	640.838	80.000	19.995	100.311	19.943	-0.963	0.506
1133.500	641.099	80.001	19.996	100.310	19.945	-1.104	0.517
1134.000	641.373	80.001	19.996	100.308	19.945	-1.069	0.530
1134.500	641.643	80.001	19.996	100.309	19.944	-1.025	0.539
1135.000	641.904	80.000	19.996	100.310	19.945	-1.067	0.538
1135.500	642.161	80.001	19.996	100.312	19.945	-1.100	0.525
1136.000	642.407	80.002	19.996	100.313	19.943	-0.921	0.510
1136.500	642.648	79.999	19.996	100.318	19.945	-1.080	0.495
1137.000	642.950	80.000	19.996	100.322	19.943	-0.919	0.515
1137.501	643.215	80.001	19.996	100.323	19.943	-0.966	0.555
1138.001	643.491	79.999	19.997	100.324	19.940	-0.759	0.554
1138.500	643.725	80.001	19.995	100.325	19.943	-0.948	0.525
1139.000	643.994	80.000	19.996	100.323	19.946	-1.137	0.506
1139.500	644.213	80.001	19.996	100.323	19.948	-1.280	0.495
1140.001	644.494	80.001	19.996	100.327	19.943	-0.961	0.494
1140.501	644.777	80.002	19.996	100.327	19.947	-1.205	0.532
1141.000	645.010	80.001	19.996	100.327	19.944	-1.009	0.540
1141.500	645.271	80.002	19.996	100.329	19.945	-1.110	0.505
1142.000	645.565	80.001	19.996	100.331	19.947	-1.214	0.524
1142.500	645.779	80.003	19.995	100.329	19.942	-0.877	0.531
1143.000	646.065	80.002	19.995	100.326	19.946	-1.122	0.504
1143.500	646.301	80.003	19.995	100.326	19.943	-0.952	0.511
1144.000	646.566	80.002	19.996	100.327	19.943	-0.921	0.511
1144.500	646.854	80.002	19.997	100.323	19.942	-0.875	0.527
1145.000	647.107	80.002	19.995	100.326	19.938	-0.613	0.548
1145.500	647.351	80.003	19.996	100.332	19.941	-0.825	0.519
1146.000	647.620	80.002	19.996	100.341	19.943	-0.944	0.505
1146.500	647.920	80.001	19.996	100.344	19.942	-0.897	0.540
1147.000	648.152	80.002	19.995	100.348	19.941	-0.814	0.550
1147.500	648.404	80.003	19.997	100.346	19.941	-0.831	0.509
1148.000	648.648	80.003	19.996	100.344	19.941	-0.833	0.490
1148.500	648.931	80.002	19.997	100.341	19.942	-0.869	0.511
1149.000	649.232	80.003	19.996	100.338	19.944	-1.011	0.556
1149.500	649.511	80.002	19.996	100.338	19.941	-0.790	0.582
1150.000	649.759	80.002	19.995	100.342	19.942	-0.880	0.553
1150.500	650.023	80.002	19.996	100.343	19.943	-0.926	0.519
1151.001	650.290	80.001	19.995	100.343	19.941	-0.811	0.522
1151.501	650.509	80.004	19.995	100.344	19.939	-0.640	0.509
1152.000	650.760	80.002	19.996	100.344	19.939	-0.704	0.478
1152.500	651.082	80.002	19.996	100.343	19.938	-0.635	0.521
1153.000	651.310	80.002	19.996	100.343	19.938	-0.594	0.562
1153.500	651.601	80.003	19.997	100.342	19.938	-0.622	0.535
1154.000	651.811	80.003	19.995	100.345	19.936	-0.449	0.510
1154.500	652.063	80.003	19.996	100.346	19.937	-0.539	0.481
1155.000	652.373	80.002	19.995	100.345	19.935	-0.431	0.512
1155.500	652.615	80.003	19.995	100.344	19.936	-0.490	0.557
1156.001	652.886	80.003	19.995	100.344	19.937	-0.565	0.532
1156.501	653.154	80.004	19.996	100.341	19.937	-0.526	0.526
1157.000	653.434	80.003	19.996	100.340	19.939	-0.660	0.543
1157.500	653.680	80.002	19.996	100.342	19.939	-0.647	0.537
1158.000	653.922	80.002	19.995	100.346	19.940	-0.770	0.507
1158.500	654.233	80.002	19.996	100.346	19.939	-0.671	0.521
1159.001	654.461	80.003	19.995	100.346	19.938	-0.613	0.546
1159.501	654.720	80.004	19.995	100.347	19.941	-0.787	0.513
1160.000	655.007	80.002	19.995	100.347	19.939	-0.640	0.516
1160.500	655.245	80.002	19.994	100.346	19.938	-0.625	0.535
1161.000	655.453	80.003	19.995	100.350	19.942	-0.862	0.486
1161.500	655.789	80.003	19.994	100.355	19.938	-0.594	0.495
1162.001	656.028	80.002	19.995	100.361	19.937	-0.528	0.559
1162.501	656.289	80.003	19.995	100.364	19.941	-0.829	0.538
1163.000	656.535	80.003	19.995	100.367	19.938	-0.613	0.504
1163.500	656.813	80.004	19.995	100.369	19.938	-0.618	0.515
1164.000	657.069	80.004	19.996	100.369	19.937	-0.521	0.529
1164.500	657.329	80.004	19.995	100.366	19.938	-0.629	0.525
1165.000	657.603	80.003	19.995	100.367	19.938	-0.609	0.525
1165.500	657.848	80.004	19.995	100.366	19.938	-0.607	0.526
1166.000	658.080	80.004	19.995	100.362	19.937	-0.550	0.498
1166.500	658.349	80.005	19.995	100.357	19.937	-0.521	0.489
1167.000	658.563	80.004	19.995	100.356	19.936	-0.455	0.492
1167.500	658.821	80.003	19.995	100.355	19.939	-0.657	0.478
1168.000	659.075	80.004	19.995	100.355	19.940	-0.706	0.492
1168.500	659.365	80.004	19.995	100.358	19.938	-0.627	0.528
1169.000	659.596	80.005	19.995	100.362	19.939	-0.677	0.532
1169.500	659.866	80.004	19.995	100.363	19.940	-0.706	0.511
1170.000	660.117	80.004	19.995	100.361	19.936	-0.499	0.511
1170.500	660.431	80.004	19.994	100.360	19.935	-0.372	0.543
1171.000	660.685	80.005	19.995	100.359	19.938	-0.615	0.567
1171.500	660.917	80.005	19.995	100.356	19.934	-0.349	0.527
1172.000	661.203	80.004	19.995	100.356	19.933	-0.255	0.502
1172.500	661.455	80.003	19.995	100.362	19.936	-0.442	0.528
1173.000	661.739	80.004	19.995	100.372	19.937	-0.556	0.537
1173.500	661.988	80.003	19.996	100.387	19.935	-0.427	0.535
1174.000	662.223	80.004	19.996	100.391	19.933	-0.277	0.509
1174.500	662.475	80.003	19.995	100.391	19.934	-0.301	0.485
1175.000	662.727	80.002	19.996	100.389	19.934	-0.306	0.496
1175.500	662.974	80.002	19.995	100.383	19.934	-0.360	0.502
1176.000	663.230	80.001	19.995	100.370	19.934	-0.327	0.501
1176.500	663.493	80.002	19.995	100.367	19.937	-0.549	0.511
1177.000	663.729	80.002	19.995	100.370	19.939	-0.657	0.509
1177.500	664.017	80.002	19.995	100.372	19.937	-0.512	0.511
1178.000	664.215	80.001	19.996	100.372	19.934	-0.347	0.505
1178.500	664.492	80.002	19.995	100.374	19.934	-0.363	0.480
1179.000	664.728	80.000	19.996	100.379	19.936	-0.457	0.494
1179.500	664.994	80.001	19.995	100.381	19.934	-0.360	0.508
1180.000	665.240	80.002	19.996	100.381	19.940	-0.712	0.507
1180.500	665.490	80.000	19.996	100.381	19.935	-0.393	0.504
1181.000	665.754	80.001	19.995	100.381	19.934	-0.325	0.505
1181.500	666.039	80.000	19.995	100.381	19.939	-0.666	0.532
1182.000	666.241	80.001	19.995	100.382	19.933	-0.281	0.518
1182.500	666.486	80.002	19.995	100.383	19.938	-0.571	0.467
1183.000	666.785	80.002	19.995	100.384	19.937	-0.551	0.495
1183.500	667.004	80.000	19.995	100.384	19.938	-0.571	0.531
1184.000	667.242	80.001	19.995	100.387	19.937	-0.556	0.487
1184.500	667.494	80.000	19.995	100.390	19.935	-0.415	0.474
1185.000	667.772	80.001	19.995	100.390	19.936	-0.461	0.510
1185.500	667.993	80.001	19.996	100.390	19.932	-0.206	0.514
1186.000	668.274	80.000	19.994	100.390	19.935	-0.374	0.501
1186.500	668.512	80.001	19.996	100.388	19.933	-0.294	0.511
1187.000	668.752	80.001	19.995	100.386	19.934	-0.356	0.498
1187.500	668.979	80.000	19.995	100.389	19.937	-0.562	0.472
1188.000	669.223	80.001	19.994	100.394	19.931	-0.136	0.470
1188.500	669.492	80.001	19.994	100.400	19.936	-0.475	0.492
1189.001	669.787	80.001	19.995	100.407	19.933	-0.266	0.538
1189.501	670.015	80.000	19.995	100.410	19.934	-0.316	0.544
1190.000	670.307	80.000	19.995	100.408	19.934	-0.340	0.522
1190.500	670.530	80.000	19.996	100.410	19.934	-0.358	0.518
1191.000	670.777	80.001	19.995	100.404	19.935	-0.417	0.492
1191.500	671.029	80.000	19.994	100.398	19.933	-0.239	0.484
1192.000	671.286	80.002	19.995	100.397	19.936	-0.481	0.504
1192.500	671.491	80.000	19.995	100.399	19.934	-0.329	0.485
1193.000	671.754	80.000	19.995	100.396	19.935	-0.380	0.465
1193.500	672.004	80.001	19.995	100.400	19.935	-0.398	0.490
1194.001	672.247	80.001	19.996	100.405	19.933	-0.286	0.503
1194.501	672.518	80.002	19.995	100.409	19.935	-0.422	0.504
1195.000	672.800	80.003	19.994	100.412	19.931	-0.099	0.534
1195.500	672.993	80.001	19.995	100.417	19.937	-0.503	0.514
1196.000	673.233	80.002	19.995	100.417	19.937	-0.523	0.454
1196.500	673.506	80.000	19.996	100.413	19.934	-0.327	0.473
1197.000	673.786	80.001	19.995	100.413	19.934	-0.314	0.533
1197.500	674.037	80.003	19.995	100.414	19.936	-0.481	0.542
1198.000	674.243	80.002	19.995	100.414	19.937	-0.565	0.494
1198.500	674.495	80.002	19.996	100.416	19.936	-0.439	0.457
1199.000	674.751	80.002	19.996	100.419	19.936	-0.448	0.483
1199.500	674.960	80.001	19.995	100.420	19.936	-0.448	0.487
1200.000	675.244	80.000	19.996	100.420	19.936	-0.499	0.479
1200.500	675.491	80.000	19.996	100.420	19.931	-0.119	0.512
1201.000	675.793	80.000	19.995	100.421	19.932	-0.215	0.540
1201.500	676.003	80.000	19.995	100.423	19.934	-0.305	0.530
1202.000	676.192	79.999	19.995	100.424	19.933	-0.235	0.455
1202.500	676.498	80.000	19.996	100.424	19.932	-0.193	0.447
1203.001	676.748	80.000	19.995	100.424	19.932	-0.185	0.526
1203.501	676.968	79.999	19.995	100.424	19.931	-0.099	0.513
1204.000	677.212	80.000	19.996	100.424	19.934	-0.316	0.467
1204.500	677.461	80.002	19.995	100.424	19.934	-0.319	0.478
1205.001	677.723	80.000	19.996	100.424	19.931	-0.140	0.502
1205.501	678.009	80.000	19.995	100.423	19.930	-0.062	0.530
1206.000	678.219	79.999	19.995	100.424	19.931	-0.156	0.522
1206.500	678.470	80.000	19.996	100.424	19.932	-0.180	0.478
1207.000	678.716	80.000	19.996	100.426	19.930	-0.090	0.479
1207.500	678.928	80.000	19.995	100.428	19.929	0.033	0.478
1208.000	679.192	80.001	19.995	100.428	19.925	0.285	0.467
1208.500	679.445	79.999	19.995	100.429	19.928	0.050	0.496
1209.000	679.662	79.999	19.996	100.430	19.929	0.040	0.493
1209.500	679.902	79.999	19.995	100.429	19.926	0.196	0.463
1210.000	680.174	79.999	19.996	100.429	19.930	-0.057	0.485
1210.500	680.435	79.999	19.996	100.433	19.928	0.075	0.523
1211.000	680.694	80.001	19.996	100.436	19.925	0.272	0.526
1211.500	680.934	79.999	19.997	100.436	19.926	0.207	0.510
1212.000	681.164	80.001	19.996	100.439	19.928	0.079	0.484
1212.500	681.439	80.001	19.997	100.440	19.928	0.099	0.487
1213.000	681.699	80.000	19.995	100.437	19.928	0.072	0.520
1213.500	681.904	80.000	19.996	100.435	19.926	0.184	0.500
1214.000	682.181	80.000	19.996	100.436	19.927	0.123	0.473
1214.500	682.407	80.001	19.995	100.435	19.929	0.022	0.492
1215.001	682.666	80.001	19.995	100.433	19.927	0.158	0.494
1215.501	682.922	80.002	19.997	100.434	19.925	0.286	0.500
1216.000	683.162	80.000	19.995	100.437	19.925	0.263	0.505
1216.500	683.397	80.001	19.996	100.437	19.924	0.354	0.485
1217.000	683.670	80.002	19.996	100.435	19.926	0.189	0.491
1217.500	683.857	80.002	19.996	100.440	19.926	0.184	0.484
1218.000	684.142	80.001	19.995	100.442	19.925	0.288	0.466
1218.500	684.387	80.002	19.997	100.442	19.925	0.296	0.501
1219.000	684.656	80.002	19.996	100.442	19.924	0.319	0.522
1219.500	684.890	80.002	19.997	100.448	19.922	0.505	0.508
1220.001	685.110	80.001	19.996	100.450	19.923	0.386	0.478
1220.501	685.353	80.001	19.995	100.451	19.923	0.446	0.458
1221.000	685.610	80.003	19.997	100.451	19.920	0.617	0.481
1221.500	685.867	80.003	19.996	100.453	19.926	0.200	0.507
1222.000	686.115	80.002	19.996	100.451	19.923	0.391	0.510
1222.500	686.356	80.002	19.996	100.451	19.923	0.435	0.497
1223.000	686.611	80.003	19.996	100.451	19.923	0.448	0.493
1223.500	686.865	80.004	19.995	100.453	19.924	0.332	0.503
1224.000	687.123	80.003	19.995	100.455	19.925	0.266	0.511
1224.500	687.359	80.002	19.995	100.457	19.922	0.454	0.503
1225.001	687.585	80.003	19.995	100.457	19.923	0.417	0.478
1225.501	687.821	80.004	19.995	100.458	19.922	0.461	0.461
1226.000	688.067	80.003	19.995	100.459	19.923	0.448	0.472
1226.500	688.316	80.002	19.995	100.459	19.920	0.652	0.489
1227.000	688.581	80.002	19.995	100.459	19.923	0.433	0.505
1227.500	688.815	80.002	19.996	100.459	19.923	0.439	0.507
1228.000	689.064	80.002	19.995	100.459	19.920	0.630	0.491
1228.500	689.325	80.001	19.996	100.459	19.922	0.488	0.496
1229.000	689.581	80.002	19.996	100.459	19.922	0.496	0.513
1229.500	689.837	80.002	19.997	100.459	19.921	0.547	0.515
1230.001	690.047	80.003	19.995	100.459	19.920	0.630	0.489
1230.501	690.330	80.002	19.996	100.459	19.922	0.518	0.480
1231.000	690.504	80.002	19.996	100.459	19.920	0.643	0.475
1231.501	690.729	80.003	19.996	100.459	19.923	0.421	0.428
1232.001	691.024	80.002	19.996	100.459	19.922	0.472	0.459
1232.500	691.243	80.002	19.996	100.459	19.924	0.365	0.517
1233.000	691.493	80.004	19.996	100.459	19.929	0.026	0.491
1233.500	691.721	80.002	19.996	100.459	19.924	0.325	0.474
1234.000	691.995	80.002	19.996	100.460	19.923	0.406	0.491
1234.500	692.234	80.002	19.996	100.460	19.924	0.342	0.507
1235.000	692.441	80.001	19.996	100.461	19.924	0.356	0.479
1235.500	692.733	80.001	19.996	100.462	19.923	0.415	0.473
1236.000	692.966	80.001	19.997	100.463	19.926	0.233	0.512
1236.500	693.199	80.001	19.997	100.462	19.923	0.415	0.496
1237.000	693.428	80.002	19.996	100.463	19.922	0.470	0.464
1237.500	693.657	80.002	19.996	100.463	19.925	0.287	0.460
1238.001	693.904	80.001	19.996	100.462	19.923	0.433	0.467
1238.501	694.135	80.002	19.996	100.461	19.920	0.593	0.477
1239.000	694.427	80.003	19.997	100.462	19.920	0.619	0.500
1239.500	694.662	80.002	19.996	100.462	19.918	0.764	0.525
1240.000	694.931	80.001	19.997	100.463	19.923	0.452	0.516
1240.500	695.174	80.002	19.996	100.464	19.920	0.634	0.508
1241.000	695.413	80.002	19.997	100.470	19.915	0.931	0.497
1241.500	695.657	80.002	19.996	100.472	19.919	0.685	0.483
1242.000	695.887	80.002	19.996	100.475	19.916	0.869	0.479
1242.501	696.147	80.001	19.996	100.477	19.918	0.759	0.482
1243.001	696.399	80.002	19.995	100.481	19.917	0.852	0.501
1243.500	696.617	80.002	19.996	100.479	19.917	0.801	0.491
1244.000	696.836	80.003	19.996	100.481	19.917	0.832	0.454
1244.500	697.102	80.002	19.995	100.482	19.916	0.900	0.461
1245.000	697.378	80.003	19.996	100.483	19.919	0.692	0.514
1245.500	697.651	80.002	19.996	100.484	19.917	0.832	0.546
1246.000	697.905	80.003	19.995	100.487	19.920	0.652	0.538
1246.500	698.161	80.003	19.995	100.488	19.919	0.680	0.519
1247.000	698.398	80.004	19.995	100.490	19.919	0.691	0.501
1247.500	698.624	80.004	19.995	100.492	19.918	0.744	0.478
1248.000	698.845	80.004	19.996	100.494	19.920	0.636	0.455
1248.500	699.106	80.004	19.995	100.492	19.920	0.612	0.464
1249.000	699.331	80.003	19.994	100.492	19.916	0.904	0.484
1249.500	699.594	80.004	19.995	100.493	19.917	0.827	0.487
1250.000	699.828	80.004	19.995	100.493	19.919	0.703	0.492
1250.500	700.091	80.004	19.995	100.493	19.917	0.832	0.497
1251.000	700.344	80.003	19.994	100.496	19.917	0.797	0.507
1251.500	700.583	80.004	19.995	100.497	19.916	0.924	0.504
1252.001	700.830	80.004	19.995	100.497	19.918	0.773	0.490
1252.501	701.063	80.003	19.995	100.498	19.916	0.876	0.483
1253.000	701.289	80.002	19.995	100.498	19.917	0.821	0.469
1253.500	701.517	80.004	19.994	100.499	19.913	1.091	0.456
1254.000	701.764	80.003	19.995	100.501	19.917	0.843	0.464
1254.500	701.990	80.003	19.994	100.501	19.916	0.896	0.474
1255.000	702.244	80.003	19.995	100.502	19.915	0.996	0.477
1255.501	702.492	80.002	19.995	100.502	19.913	1.091	0.491
1256.001	702.728	80.003	19.995	100.501	19.914	1.045	0.493
1256.500	702.978	80.001	19.995	100.501	19.914	1.007	0.485
1257.000	703.232	80.003	19.995	100.502	19.915	0.983	0.495
1257.500	703.445	80.002	19.995	100.502	19.914	1.016	0.485
1258.000	703.723	80.002	19.994	100.502	19.912	1.165	0.479
1258.500	703.962	80.001	19.995	100.502	19.915	0.964	0.504
1259.000	704.198	80.001	19.995	100.502	19.914	1.065	0.497
1259.500	704.457	80.002	19.996	100.501	19.915	0.939	0.485
1260.000	704.717	80.001	19.995	100.501	19.913	1.113	0.507
1260.500	704.946	80.001	19.995	100.501	19.914	1.062	0.503
1261.000	705.217	80.000	19.995	100.501	19.913	1.071	0.494
1261.500	705.443	80.000	19.995	100.501	19.913	1.123	0.499
1262.000	705.662	80.001	19.996	100.501	19.914	1.025	0.471
1262.500	705.922	80.000	19.995	100.501	19.913	1.095	0.462
1263.000	706.164	80.001	19.995	100.501	19.911	1.233	0.491
1263.501	706.432	79.999	19.995	100.501	19.914	1.009	0.506
1264.001	706.652	80.001	19.995	100.501	19.912	1.163	0.499
1264.500	706.914	80.000	19.995	100.500	19.912	1.169	0.485
1265.000	707.122	80.000	19.995	100.502	19.912	1.165	0.476
1265.500	707.406	80.000	19.995	100.503	19.913	1.068	0.481
1266.000	707.649	79.999	19.996	100.504	19.911	1.211	0.509
1266.500	707.882	80.001	19.995	100.504	19.912	1.176	0.501
1267.000	708.108	80.001	19.995	100.505	19.911	1.218	0.467
1267.500	708.361	80.001	19.995	100.505	19.912	1.180	0.469
1268.000	708.624	80.002	19.996	100.504	19.907	1.520	0.498
1268.500	708.864	80.001	19.995	100.504	19.910	1.281	0.509
1269.000	709.105	80.001	19.995	100.507	19.908	1.420	0.492
1269.500	709.351	80.002	19.995	100.511	19.910	1.275	0.485
1270.000	709.594	80.002	19.995	100.515	19.911	1.244	0.488
1270.500	709.847	79.999	19.996	100.518	19.913	1.088	0.492
1271.000	710.076	80.000	19.995	100.524	19.910	1.294	0.489
1271.500	710.324	79.999	19.995	100.529	19.912	1.169	0.479
1272.000	710.584	80.001	19.994	100.532	19.909	1.343	0.492
1272.500	710.853	80.001	19.995	100.534	19.907	1.542	0.519
1273.000	711.080	80.000	19.994	100.536	19.909	1.362	0.512
1273.500	711.345	80.001	19.995	100.534	19.909	1.363	0.493
1274.000	711.592	80.000	19.995	100.533	19.910	1.290	0.502
1274.500	711.865	80.001	19.996	100.533	19.912	1.163	0.516
1275.000	712.092	80.001	19.995	100.533	19.907	1.543	0.510
1275.500	712.332	80.001	19.995	100.534	19.907	1.523	0.483
1276.000	712.573	80.003	19.995	100.537	19.907	1.512	0.474
1276.500	712.806	80.000	19.995	100.538	19.908	1.435	0.477
1277.000	713.090	80.000	19.994	100.537	19.908	1.455	0.495
1277.500	713.309	80.000	19.995	100.535	19.910	1.312	0.510
1278.000	713.583	80.003	19.994	100.535	19.910	1.305	0.498
1278.500	713.863	80.002	19.995	100.534	19.910	1.338	0.523
1279.000	714.104	80.003	19.994	100.534	19.910	1.316	0.537
1279.500	714.323	80.001	19.995	100.537	19.911	1.207	0.490
1280.000	714.568	80.003	19.996	100.540	19.911	1.231	0.462
1280.500	714.834	80.002	19.995	100.539	19.911	1.224	0.488
1281.000	715.087	80.002	19.995	100.537	19.910	1.283	0.515
1281.500	715.324	80.003	19.996	100.537	19.909	1.347	0.505
1282.000	715.616	80.003	19.995	100.536	19.911	1.215	0.509
1282.500	715.883	80.003	19.994	100.535	19.910	1.290	0.544
1283.000	716.133	80.001	19.995	100.536	19.909	1.365	0.538
1283.500	716.372	80.000	19.997	100.538	19.914	1.060	0.503
1284.000	716.613	80.001	19.995	100.538	19.909	1.369	0.484
1284.500	716.904	80.001	19.995	100.539	19.907	1.536	0.506
1285.000	717.137	80.003	19.996	100.539	19.907	1.534	0.528
1285.500	717.392	80.001	19.996	100.539	19.907	1.498	0.506
1286.000	717.630	80.002	19.995	100.539	19.909	1.399	0.490
1286.500	717.860	80.001	19.994	100.539	19.906	1.557	0.480
1287.000	718.147	80.002	19.995	100.539	19.909	1.408	0.493
1287.500	718.417	80.002	19.995	100.539	19.909	1.386	0.537
1288.001	718.641	80.003	19.995	100.539	19.910	1.336	0.525
1288.501	718.938	80.000	19.996	100.538	19.907	1.531	0.508
1289.000	719.167	80.000	19.995	100.539	19.908	1.439	0.524
1289.500	719.468	80.001	19.995	100.541	19.910	1.299	0.527
1290.000	719.674	80.002	19.996	100.543	19.909	1.349	0.518
1290.500	719.912	80.001	19.995	100.543	19.908	1.415	0.476
1291.000	720.183	79.999	19.996	100.545	19.910	1.305	0.476
1291.500	720.444	80.001	19.996	100.544	19.910	1.316	0.520
1292.000	720.680	80.001	19.996	100.544	19.907	1.481	0.515
1292.500	720.948	80.001	19.996	100.542	19.906	1.571	0.501
1293.000	721.220	80.001	19.996	100.542	19.907	1.492	0.522
1293.500	721.469	79.999	19.995	100.541	19.909	1.351	0.530
1294.000	721.721	80.000	19.996	100.544	19.907	1.507	0.511
1294.500	722.008	80.000	19.996	100.544	19.909	1.395	0.520
1295.000	722.278	79.999	19.996	100.546	19.905	1.650	0.548
1295.500	722.524	80.000	19.995	100.547	19.908	1.441	0.536
1296.000	722.781	80.000	19.995	100.550	19.907	1.516	0.509
1296.500	723.053	80.000	19.997	100.551	19.907	1.522	0.516
1297.000	723.338	80.001	19.996	100.556	19.908	1.430	0.543
1297.500	723.602	80.000	19.997	100.561	19.910	1.327	0.553
1298.000	723.817	80.000	19.996	100.564	19.908	1.425	0.514
1298.500	724.062	80.000	19.996	100.562	19.905	1.676	0.469
1299.000	724.323	80.001	19.996	100.558	19.906	1.550	0.483
1299.500	724.574	80.003	19.995	100.555	19.907	1.494	0.509
1300.000	724.846	80.002	19.995	100.550	19.909	1.379	0.517
1300.500	725.091	80.000	19.996	100.549	19.913	1.094	0.520
1301.000	725.366	80.003	19.997	100.550	19.909	1.380	0.518
1301.501	725.624	80.002	19.996	100.555	19.910	1.290	0.527
1302.001	725.877	80.001	19.996	100.558	19.915	0.965	0.522
1302.500	726.123	80.003	19.997	100.560	19.909	1.355	0.505
1303.000	726.405	80.001	19.996	100.563	19.909	1.379	0.514
1303.500	726.654	80.003	19.995	100.566	19.907	1.489	0.530
1304.000	726.960	80.003	19.996	100.568	19.911	1.226	0.543
1304.500	727.196	80.004	19.995	100.566	19.905	1.619	0.549
1305.000	727.437	80.002	19.996	100.568	19.913	1.116	0.509
1305.500	727.731	80.002	19.995	100.565	19.908	1.439	0.506
1306.000	727.963	80.003	19.996	100.561	19.910	1.300	0.530
1306.500	728.207	80.003	19.996	100.559	19.906	1.551	0.501
1307.000	728.501	80.003	19.996	100.561	19.909	1.362	0.507
1307.500	728.734	80.003	19.997	100.563	19.909	1.392	0.533
1308.000	729.007	80.003	19.995	100.567	19.907	1.513	0.517
1308.500	729.253	80.004	19.996	100.570	19.909	1.368	0.512
1309.000	729.524	80.003	19.996	100.573	19.911	1.244	0.518
1309.500	729.744	80.004	19.995	100.574	19.907	1.544	0.504
1310.000	730.055	80.004	19.995	100.574	19.906	1.546	0.511
1310.500	730.350	80.002	19.995	100.571	19.906	1.553	0.569
1311.000	730.560	80.003	19.996	100.569	19.906	1.590	0.556
1311.500	730.856	80.002	19.996	100.568	19.907	1.528	0.506
1312.000	731.103	80.003	19.995	100.567	19.910	1.283	0.524
1312.500	731.390	80.002	19.996	100.568	19.907	1.478	0.539
1313.001	731.625	80.003	19.995	100.570	19.901	1.921	0.528
1313.501	731.897	80.003	19.995	100.574	19.903	1.767	0.514
1314.000	732.194	80.001	19.996	100.575	19.903	1.778	0.538
1314.500	732.413	80.001	19.995	100.576	19.905	1.618	0.542
1315.000	732.661	80.001	19.996	100.576	19.901	1.917	0.491
1315.500	732.967	80.001	19.996	100.576	19.901	1.915	0.510
1316.000	733.224	80.002	19.996	100.577	19.901	1.930	0.559
1316.500	733.529	80.002	19.995	100.578	19.901	1.936	0.563
1317.000	733.786	80.002	19.995	100.578	19.900	1.971	0.562
1317.500	734.025	80.001	19.995	100.579	19.902	1.858	0.529
1318.000	734.328	80.003	19.996	100.579	19.903	1.757	0.519
1318.500	734.691	80.003	19.995	100.579	19.902	1.835	0.604
1319.000	734.830	80.002	19.997	100.579	19.900	1.991	0.584
1319.500	735.081	80.002	19.996	100.580	19.903	1.816	0.446
1320.000	735.358	80.003	19.996	100.580	19.900	1.974	0.459
1320.500	735.628	80.001	19.995	100.580	19.902	1.862	0.537
1321.000	735.803	80.003	19.996	100.580	19.900	1.969	0.496
1321.500	736.148	80.001	19.996	100.580	19.898	2.149	0.483
1322.000	736.358	80.002	19.996	100.580	19.901	1.888	0.537
1322.500	736.603	80.003	19.996	100.580	19.899	2.068	0.505
1323.000	736.894	80.001	19.996	100.580	19.900	1.980	0.496
1323.500	737.154	80.001	19.996	100.580	19.903	1.781	0.544
1324.000	737.366	80.002	19.996	100.579	19.901	1.921	0.511
1324.500	737.696	80.003	19.996	100.579	19.902	1.833	0.507
1325.000	737.871	80.001	19.996	100.579	19.903	1.763	0.524
1325.500	738.166	80.002	19.996	100.580	19.903	1.767	0.487
1326.000	738.382	80.004	19.996	100.579	19.901	1.914	0.490
1326.500	738.700	80.002	19.996	100.579	19.901	1.888	0.522
1327.000	738.960	80.004	19.996	100.579	19.902	1.824	0.556
1327.500	739.205	80.003	19.996	100.579	19.902	1.879	0.542
1328.000	739.475	80.003	19.996	100.578	19.902	1.877	0.510
1328.500	739.726	80.003	19.996	100.579	19.897	2.177	0.518
1329.000	739.958	80.003	19.995	100.579	19.896	2.289	0.502
1329.500	740.266	80.002	19.996	100.580	19.897	2.206	0.512
1330.001	740.535	80.004	19.997	100.584	19.898	2.147	0.559
1330.501	740.762	80.003	19.996	100.585	19.897	2.212	0.536
1331.001	741.007	80.003	19.995	100.584	19.901	1.928	0.484
1331.501	741.241	80.003	19.996	100.585	19.897	2.167	0.476
1332.000	741.540	80.003	19.996	100.585	19.900	1.998	0.506
1332.500	741.781	80.005	19.996	100.581	19.900	1.971	0.536
1333.000	742.060	80.003	19.995	100.580	19.902	1.871	0.530
1333.500	742.303	80.003	19.996	100.580	19.901	1.940	0.521
1334.000	742.559	80.004	19.997	100.580	19.900	1.971	0.511
1334.500	742.855	80.004	19.995	100.579	19.900	2.015	0.526
1335.000	743.112	80.002	19.997	100.579	19.900	1.962	0.553
1335.500	743.322	80.002	19.994	100.578	19.899	2.039	0.509
