Sample ID:	C:\MCC\MCC Cal\Test\Nylon_Carpet_HighPile_MCC_30K_min_211027_R1.txt
Sample Weight (mg):	4.31
Heating Rate (C/s):	1
Combustor Temp (C):	900
N2 Flow Rate (cc/min):	80
O2 Flow Rate (cc/min):	20
Calibration File:	C:\MCC\MCC Cal\Coeff1 JN10440_30_210304.txt.txt
T Correction Coefficients:	0	1.024463	0
Time Shift (s):	14
*
Time (s)	Temperature (C)	N2 flow rate (cc/min)	O2 flow rate (cc/min)	Flow Rate (cc/min)	Oxygen (%)	HRR (W/g)	Heating rate (C/s)
0.000	105.115	80.000	19.997	102.997	20.013	0.074	-0.008
0.500	105.130	80.000	19.995	102.994	20.010	0.227	-0.013
1.000	105.115	80.000	19.995	102.993	20.014	-0.006	0.002
1.500	105.111	80.000	19.995	102.992	20.011	0.176	-0.010
2.000	105.098	80.002	19.995	102.989	20.012	0.102	-0.018
2.500	105.099	80.001	19.993	102.988	20.008	0.420	-0.015
3.000	105.113	80.001	19.996	102.992	20.012	0.115	0.001
3.500	105.108	80.001	19.995	102.994	20.007	0.461	0.012
4.000	105.142	80.001	19.995	102.995	20.012	0.084	0.019
4.500	105.102	80.000	19.995	102.996	20.011	0.193	0.012
5.000	105.101	80.002	19.995	102.997	20.011	0.160	-0.023
5.500	105.082	80.000	19.995	102.998	20.005	0.619	-0.030
6.000	105.112	80.002	19.995	102.997	20.006	0.554	-0.005
6.500	105.091	80.003	19.996	102.997	20.007	0.459	0.010
7.000	105.087	80.003	19.996	102.999	20.002	0.824	-0.008
7.500	105.114	80.002	19.993	103.004	20.003	0.757	-0.001
8.000	105.110	80.003	19.996	103.012	20.004	0.749	0.023
8.501	105.103	80.004	19.996	103.019	20.005	0.650	0.006
9.001	105.074	80.003	19.995	103.027	20.006	0.564	-0.023
9.501	105.113	80.002	19.994	103.034	19.998	1.136	-0.013
10.001	105.123	80.003	19.995	103.043	20.000	0.985	0.029
10.501	105.114	80.003	19.994	103.054	19.997	1.264	0.025
11.000	105.130	80.004	19.995	103.070	19.996	1.278	0.004
11.500	105.111	80.004	19.994	103.088	19.992	1.625	0.001
12.000	105.141	80.003	19.994	103.110	19.995	1.391	0.004
12.500	105.156	80.005	19.995	103.127	19.991	1.705	0.028
13.000	105.176	80.003	19.995	103.143	19.991	1.662	0.040
13.501	105.233	80.005	19.995	103.159	19.987	1.969	0.056
14.001	105.190	80.004	19.995	103.174	19.990	1.766	0.046
14.500	105.255	80.005	19.996	103.190	19.982	2.353	0.018
15.000	105.264	80.004	19.993	103.201	19.983	2.259	0.048
15.500	105.277	80.003	19.994	103.213	19.980	2.501	0.048
16.000	105.366	80.005	19.995	103.221	19.977	2.711	0.062
16.500	105.362	80.003	19.995	103.232	19.978	2.670	0.093
17.000	105.406	80.003	19.994	103.241	19.976	2.808	0.063
17.500	105.459	80.004	19.995	103.252	19.973	3.029	0.069
18.000	105.502	80.003	19.995	103.260	19.969	3.313	0.097
18.500	105.564	80.003	19.995	103.268	19.969	3.315	0.101
19.000	105.622	80.003	19.995	103.271	19.965	3.645	0.113
19.500	105.684	80.002	19.996	103.277	19.963	3.791	0.120
20.000	105.733	80.002	19.995	103.285	19.964	3.681	0.115
20.500	105.801	80.004	19.996	103.292	19.957	4.260	0.114
21.000	105.883	80.003	19.996	103.299	19.960	4.020	0.134
21.500	105.935	80.002	19.996	103.307	19.959	4.106	0.142
22.000	106.021	80.001	19.995	103.309	19.955	4.400	0.136
22.500	106.101	80.002	19.995	103.310	19.957	4.209	0.151
23.000	106.202	80.003	19.996	103.310	19.952	4.589	0.173
23.500	106.292	80.003	19.996	103.309	19.950	4.735	0.186
24.000	106.366	80.002	19.996	103.309	19.952	4.577	0.178
24.500	106.507	80.001	19.995	103.308	19.953	4.495	0.189
25.000	106.576	80.002	19.995	103.310	19.948	4.913	0.212
25.500	106.717	80.003	19.996	103.317	19.947	4.971	0.210
26.000	106.841	80.002	19.995	103.325	19.949	4.850	0.238
26.500	106.902	80.001	19.995	103.332	19.952	4.632	0.225
27.000	107.001	80.003	19.996	103.340	19.946	5.064	0.173
27.500	107.129	80.002	19.995	103.347	19.942	5.386	0.194
28.000	107.196	80.000	19.995	103.348	19.946	5.037	0.211
28.500	107.362	80.002	19.996	103.354	19.945	5.140	0.214
29.001	107.477	80.002	19.996	103.358	19.944	5.170	0.257
29.500	107.634	80.002	19.995	103.360	19.946	5.086	0.276
30.000	107.743	80.004	19.996	103.364	19.941	5.460	0.269
30.500	107.863	80.003	19.996	103.370	19.939	5.551	0.247
31.000	108.015	80.003	19.996	103.370	19.937	5.713	0.251
31.500	108.197	80.004	19.996	103.373	19.939	5.590	0.303
32.000	108.257	80.001	19.997	103.380	19.935	5.902	0.288
32.500	108.449	80.003	19.996	103.389	19.937	5.715	0.247
33.000	108.586	80.003	19.996	103.391	19.935	5.847	0.290
33.500	108.743	80.003	19.995	103.398	19.934	5.962	0.311
34.000	108.896	80.004	19.996	103.402	19.933	6.034	0.302
34.500	109.092	80.005	19.996	103.403	19.938	5.629	0.330
35.000	109.234	80.003	19.997	103.398	19.932	6.116	0.344
35.500	109.385	80.004	19.995	103.398	19.933	6.016	0.315
36.000	109.574	80.003	19.995	103.395	19.934	5.988	0.316
36.500	109.739	80.004	19.995	103.395	19.932	6.117	0.347
37.000	109.913	80.005	19.996	103.396	19.930	6.270	0.347
37.500	110.111	80.005	19.997	103.402	19.930	6.237	0.355
38.000	110.295	80.005	19.997	103.405	19.932	6.094	0.377
38.500	110.478	80.004	19.995	103.404	19.931	6.188	0.374
39.000	110.691	80.003	19.996	103.404	19.929	6.310	0.382
39.500	110.834	80.005	19.996	103.404	19.930	6.219	0.377
40.000	111.102	80.004	19.996	103.400	19.929	6.361	0.384
40.500	111.260	80.004	19.995	103.403	19.930	6.246	0.418
41.000	111.431	80.004	19.996	103.409	19.932	6.088	0.377
41.500	111.679	80.004	19.995	103.412	19.926	6.564	0.375
42.000	111.861	80.005	19.995	103.416	19.930	6.275	0.425
42.500	112.105	80.004	19.996	103.421	19.926	6.522	0.428
43.001	112.271	80.004	19.995	103.419	19.929	6.349	0.417
43.501	112.534	80.003	19.996	103.416	19.925	6.631	0.419
44.000	112.733	80.004	19.995	103.415	19.925	6.610	0.446
44.500	112.928	80.004	19.997	103.415	19.923	6.801	0.428
45.000	113.196	80.003	19.994	103.417	19.924	6.727	0.428
45.500	113.422	80.003	19.995	103.419	19.926	6.542	0.478
46.000	113.642	80.003	19.995	103.424	19.926	6.567	0.470
46.500	113.910	80.002	19.995	103.431	19.924	6.702	0.467
47.000	114.141	80.001	19.996	103.434	19.927	6.481	0.493
47.500	114.371	80.001	19.996	103.438	19.926	6.571	0.480
48.000	114.626	80.001	19.996	103.447	19.927	6.444	0.474
48.500	114.876	80.002	19.997	103.454	19.924	6.715	0.495
49.000	115.104	80.002	19.996	103.457	19.927	6.462	0.492
49.500	115.399	80.001	19.995	103.462	19.921	6.893	0.500
50.000	115.653	80.002	19.997	103.465	19.923	6.760	0.535
50.500	115.907	80.001	19.996	103.464	19.924	6.734	0.529
51.000	116.155	80.001	19.996	103.463	19.921	6.913	0.505
51.500	116.420	80.001	19.995	103.463	19.927	6.445	0.508
52.000	116.689	80.000	19.995	103.463	19.925	6.624	0.524
52.501	116.962	79.999	19.996	103.463	19.924	6.682	0.538
53.001	117.258	80.001	19.996	103.463	19.925	6.661	0.555
53.500	117.489	80.000	19.997	103.466	19.919	7.081	0.548
54.000	117.820	80.001	19.997	103.467	19.924	6.744	0.545
54.500	118.077	80.001	19.996	103.467	19.927	6.448	0.575
55.000	118.368	80.000	19.997	103.468	19.922	6.871	0.568
55.500	118.646	80.000	19.997	103.466	19.923	6.764	0.558
56.000	118.947	80.000	19.995	103.464	19.925	6.635	0.574
56.501	119.246	80.001	19.996	103.464	19.924	6.717	0.590
57.001	119.519	80.000	19.996	103.464	19.916	7.270	0.587
57.500	119.818	80.001	19.997	103.465	19.918	7.132	0.572
58.000	120.118	80.002	19.996	103.469	19.922	6.889	0.586
58.500	120.411	80.001	19.997	103.469	19.918	7.152	0.596
59.001	120.740	80.002	19.995	103.469	19.917	7.216	0.608
59.501	121.051	80.002	19.996	103.468	19.919	7.054	0.631
60.000	121.358	80.002	19.997	103.466	19.916	7.290	0.629
60.500	121.668	80.001	19.996	103.465	19.920	6.976	0.617
61.000	121.991	80.001	19.997	103.466	19.917	7.268	0.625
61.500	122.325	80.000	19.996	103.472	19.923	6.746	0.645
62.000	122.652	80.002	19.998	103.479	19.923	6.789	0.659
62.501	123.011	80.000	19.996	103.485	19.918	7.155	0.673
63.001	123.310	80.001	19.995	103.493	19.920	7.044	0.672
63.501	123.648	80.003	19.996	103.499	19.922	6.867	0.647
64.001	123.956	80.001	19.996	103.499	19.916	7.307	0.642
64.501	124.251	80.003	19.997	103.501	19.917	7.210	0.625
65.001	124.627	80.001	19.995	103.503	19.917	7.202	0.637
65.501	124.990	80.003	19.995	103.503	19.915	7.346	0.705
66.000	125.351	80.002	19.997	103.502	19.913	7.545	0.732
66.500	125.699	80.002	19.997	103.501	19.916	7.282	0.716
67.000	126.008	80.001	19.995	103.502	19.915	7.349	0.683
67.500	126.376	80.002	19.996	103.502	19.917	7.209	0.667
68.000	126.750	80.003	19.994	103.498	19.916	7.283	0.710
68.501	127.077	80.002	19.995	103.498	19.915	7.359	0.722
69.001	127.428	80.003	19.995	103.496	19.911	7.665	0.689
69.500	127.823	80.001	19.995	103.496	19.914	7.480	0.712
70.000	128.153	80.002	19.994	103.497	19.916	7.316	0.736
70.501	128.507	80.002	19.996	103.500	19.916	7.322	0.704
71.001	128.899	80.002	19.994	103.500	19.911	7.692	0.715
71.501	129.262	80.002	19.996	103.504	19.917	7.246	0.751
72.000	129.669	80.002	19.995	103.503	19.914	7.491	0.762
72.500	130.047	80.002	19.995	103.503	19.914	7.430	0.777
73.001	130.394	80.003	19.995	103.503	19.911	7.701	0.755
73.501	130.760	80.003	19.995	103.503	19.913	7.565	0.720
74.000	131.135	80.001	19.995	103.503	19.914	7.493	0.727
74.500	131.540	80.003	19.994	103.503	19.909	7.810	0.760
75.000	131.934	80.002	19.995	103.503	19.916	7.316	0.790
75.500	132.341	80.002	19.994	103.503	19.914	7.435	0.800
76.000	132.706	80.002	19.996	103.502	19.915	7.365	0.786
76.500	133.091	80.003	19.996	103.501	19.912	7.632	0.761
77.000	133.494	80.002	19.995	103.497	19.908	7.877	0.769
77.500	133.903	80.001	19.995	103.496	19.913	7.515	0.800
78.000	134.256	80.004	19.996	103.489	19.912	7.568	0.787
78.501	134.663	80.003	19.997	103.484	19.916	7.317	0.761
79.001	135.070	80.003	19.996	103.480	19.918	7.124	0.787
79.501	135.515	80.004	19.995	103.479	19.914	7.467	0.833
80.001	135.901	80.004	19.997	103.475	19.913	7.528	0.841
80.501	136.308	80.002	19.995	103.479	19.905	8.126	0.812
81.001	136.717	80.003	19.995	103.482	19.912	7.578	0.805
81.501	137.127	80.002	19.995	103.485	19.910	7.771	0.818
82.001	137.526	80.003	19.996	103.488	19.912	7.627	0.814
82.500	137.965	80.002	19.995	103.490	19.912	7.605	0.823
83.000	138.367	80.003	19.996	103.491	19.916	7.338	0.839
83.500	138.759	80.002	19.995	103.494	19.916	7.326	0.817
84.000	139.239	80.002	19.996	103.493	19.916	7.342	0.834
84.500	139.615	80.002	19.996	103.490	19.918	7.159	0.864
85.000	140.056	80.002	19.995	103.488	19.918	7.165	0.836
85.500	140.489	80.003	19.995	103.490	19.917	7.213	0.846
86.000	140.907	80.001	19.997	103.485	19.914	7.474	0.862
86.500	141.348	80.002	19.995	103.480	19.921	6.967	0.855
87.000	141.791	80.001	19.996	103.480	19.920	7.035	0.871
87.500	142.180	80.002	19.996	103.483	19.917	7.230	0.858
88.000	142.644	80.002	19.994	103.481	19.922	6.825	0.843
88.500	143.036	80.002	19.995	103.479	19.915	7.355	0.854
89.000	143.477	80.004	19.995	103.481	19.920	7.010	0.844
89.501	143.955	80.003	19.996	103.478	19.918	7.150	0.876
90.001	144.362	80.000	19.996	103.473	19.921	6.922	0.902
90.500	144.826	80.001	19.995	103.467	19.923	6.751	0.878
91.000	145.275	80.001	19.996	103.467	19.923	6.777	0.892
91.500	145.651	80.002	19.995	103.465	19.920	6.972	0.869
92.000	146.137	80.003	19.996	103.465	19.918	7.173	0.843
92.500	146.590	80.003	19.995	103.467	19.920	7.033	0.900
93.000	147.045	80.004	19.996	103.470	19.918	7.188	0.924
93.500	147.449	80.003	19.996	103.476	19.919	7.058	0.884
94.000	147.935	80.003	19.996	103.484	19.919	7.111	0.874
94.501	148.345	80.004	19.995	103.485	19.920	6.988	0.893
95.001	148.816	80.003	19.995	103.481	19.920	6.974	0.889
95.500	149.304	80.003	19.995	103.477	19.921	6.935	0.920
96.000	149.719	80.004	19.995	103.470	19.921	6.894	0.931
96.500	150.218	80.003	19.996	103.460	19.921	6.892	0.908
97.000	150.683	80.003	19.996	103.458	19.916	7.268	0.939
97.500	151.094	80.003	19.996	103.459	19.914	7.420	0.920
98.000	151.552	80.003	19.994	103.459	19.919	7.081	0.872
98.500	152.055	80.005	19.995	103.460	19.917	7.252	0.915
99.000	152.497	80.003	19.995	103.463	19.917	7.262	0.953
99.501	152.941	80.003	19.994	103.462	19.916	7.315	0.915
100.001	153.419	80.005	19.995	103.458	19.920	6.976	0.904
100.500	153.857	80.003	19.995	103.457	19.920	6.970	0.919
101.000	154.327	80.004	19.995	103.457	19.918	7.137	0.912
101.500	154.787	80.003	19.995	103.455	19.916	7.304	0.919
102.000	155.251	80.004	19.996	103.452	19.922	6.842	0.927
102.501	155.681	80.004	19.995	103.450	19.920	6.986	0.909
103.001	156.172	80.004	19.995	103.446	19.915	7.384	0.908
103.500	156.675	80.003	19.993	103.441	19.923	6.787	0.958
104.001	157.126	80.003	19.996	103.440	19.916	7.341	0.974
104.501	157.596	80.004	19.994	103.442	19.921	6.893	0.937
105.000	158.077	80.003	19.995	103.440	19.920	7.041	0.936
105.500	158.545	80.004	19.995	103.439	19.918	7.135	0.950
106.000	159.005	80.005	19.994	103.440	19.918	7.166	0.939
106.500	159.460	80.003	19.996	103.441	19.921	6.923	0.922
107.000	159.916	80.002	19.996	103.442	19.919	7.071	0.912
107.501	160.387	80.003	19.995	103.447	19.923	6.754	0.919
108.001	160.876	80.003	19.995	103.448	19.919	7.060	0.944
108.501	161.313	80.003	19.994	103.448	19.920	6.996	0.943
109.001	161.805	80.002	19.994	103.447	19.921	6.924	0.927
109.500	162.313	80.003	19.995	103.446	19.920	7.020	0.965
110.000	162.775	80.002	19.995	103.446	19.924	6.712	0.985
110.500	163.271	80.004	19.995	103.446	19.925	6.642	0.964
111.000	163.711	80.003	19.995	103.449	19.928	6.400	0.947
111.500	164.200	80.005	19.995	103.450	19.928	6.412	0.932
112.001	164.697	80.005	19.996	103.453	19.923	6.764	0.958
112.501	165.165	80.004	19.994	103.456	19.924	6.694	0.975
113.000	165.664	80.003	19.994	103.462	19.923	6.762	0.966
113.500	166.150	80.003	19.995	103.463	19.926	6.579	0.977
114.000	166.636	80.002	19.995	103.465	19.921	6.920	0.979
114.501	167.120	80.003	19.994	103.465	19.921	6.946	0.970
115.001	167.605	80.005	19.996	103.466	19.928	6.392	0.969
115.500	168.072	80.005	19.996	103.464	19.926	6.590	0.961
116.000	168.596	80.004	19.995	103.463	19.927	6.489	0.972
116.500	169.096	80.004	19.996	103.460	19.928	6.436	1.007
117.001	169.558	80.004	19.996	103.457	19.924	6.678	0.992
117.501	170.033	80.004	19.995	103.453	19.921	6.897	0.950
118.000	170.558	80.006	19.996	103.449	19.916	7.269	0.969
118.500	171.040	80.004	19.996	103.443	19.924	6.697	1.003
119.000	171.555	80.005	19.996	103.437	19.927	6.479	1.002
119.500	172.039	80.004	19.995	103.433	19.923	6.779	0.998
120.000	172.520	80.003	19.994	103.428	19.922	6.826	0.982
120.500	173.013	80.005	19.995	103.427	19.920	7.013	0.970
121.000	173.527	80.004	19.995	103.428	19.924	6.689	0.991
121.500	174.012	80.004	19.996	103.429	19.923	6.786	1.003
122.000	174.488	80.005	19.996	103.428	19.921	6.891	0.980
122.500	175.001	80.005	19.996	103.431	19.917	7.244	0.975
123.000	175.531	80.005	19.996	103.430	19.922	6.882	1.016
123.500	175.964	80.005	19.996	103.429	19.923	6.763	1.003
124.000	176.475	80.003	19.996	103.429	19.923	6.767	0.953
124.500	177.004	80.005	19.997	103.430	19.921	6.919	0.992
125.001	177.520	80.004	19.996	103.429	19.921	6.924	1.043
125.501	178.018	80.005	19.995	103.430	19.921	6.926	1.030
126.000	178.506	80.003	19.995	103.437	19.922	6.827	1.000
126.500	179.006	80.003	19.995	103.440	19.924	6.679	0.987
127.000	179.500	80.004	19.997	103.441	19.922	6.846	0.991
127.500	180.007	80.003	19.996	103.439	19.925	6.618	0.998
128.000	180.468	80.004	19.995	103.439	19.925	6.634	0.985
128.500	180.980	80.003	19.996	103.430	19.921	6.900	0.970
129.000	181.481	80.003	19.996	103.424	19.926	6.532	0.993
129.500	181.963	80.002	19.995	103.420	19.923	6.753	0.998
130.000	182.468	80.002	19.995	103.418	19.924	6.695	0.985
130.500	182.985	80.001	19.995	103.417	19.927	6.469	1.005
131.000	183.506	80.002	19.995	103.417	19.927	6.441	1.030
131.500	183.971	80.000	19.995	103.419	19.927	6.486	1.012
132.000	184.476	80.002	19.995	103.420	19.922	6.864	0.978
132.500	184.997	79.999	19.995	103.421	19.927	6.438	0.998
133.000	185.487	80.001	19.996	103.423	19.930	6.264	1.018
133.500	186.033	80.000	19.995	103.424	19.929	6.332	1.024
134.000	186.571	80.001	19.996	103.423	19.929	6.340	1.060
134.500	187.090	80.002	19.994	103.425	19.928	6.402	1.070
135.001	187.590	80.001	19.996	103.426	19.927	6.478	1.038
135.500	188.128	80.001	19.996	103.426	19.927	6.439	1.028
136.000	188.570	80.000	19.996	103.426	19.930	6.232	1.009
136.501	189.080	80.001	19.996	103.426	19.933	6.047	0.966
137.001	189.567	80.000	19.997	103.427	19.935	5.909	0.975
137.501	190.113	80.001	19.996	103.427	19.929	6.314	1.015
138.000	190.608	80.001	19.995	103.426	19.931	6.170	1.037
138.500	191.141	80.001	19.996	103.426	19.932	6.110	1.035
139.000	191.635	80.002	19.996	103.421	19.933	6.022	1.027
139.500	192.180	80.001	19.996	103.414	19.933	6.005	1.033
140.000	192.687	80.002	19.997	103.406	19.929	6.307	1.045
140.500	193.223	80.003	19.997	103.398	19.929	6.348	1.048
141.000	193.698	80.003	19.997	103.390	19.929	6.319	1.027
141.500	194.197	80.002	19.996	103.387	19.934	5.956	0.993
142.000	194.716	80.002	19.996	103.386	19.932	6.095	0.996
142.500	195.228	80.002	19.996	103.387	19.926	6.527	1.025
143.000	195.764	80.001	19.997	103.387	19.928	6.420	1.040
143.500	196.245	80.002	19.996	103.387	19.931	6.140	1.032
144.001	196.770	80.003	19.996	103.388	19.930	6.257	1.011
144.500	197.298	80.000	19.997	103.391	19.932	6.113	1.030
145.000	197.789	80.002	19.995	103.392	19.927	6.499	1.035
145.500	198.303	80.000	19.996	103.392	19.929	6.332	1.012
146.000	198.808	80.002	19.996	103.393	19.930	6.246	1.013
146.500	199.334	80.001	19.997	103.393	19.930	6.259	1.026
147.000	199.860	80.002	19.995	103.393	19.927	6.456	1.042
147.500	200.364	80.002	19.996	103.393	19.929	6.306	1.041
148.000	200.857	80.003	19.997	103.392	19.926	6.518	1.013
148.500	201.406	80.002	19.996	103.392	19.931	6.198	1.019
149.000	201.888	80.002	19.996	103.390	19.930	6.286	1.037
149.500	202.441	80.002	19.995	103.387	19.923	6.773	1.033
150.000	202.950	80.002	19.996	103.384	19.928	6.436	1.048
150.500	203.468	80.001	19.997	103.384	19.930	6.282	1.045
151.000	203.967	80.001	19.997	103.384	19.930	6.218	1.022
151.500	204.472	80.002	19.997	103.384	19.931	6.162	1.010
152.000	204.978	80.003	19.997	103.384	19.930	6.216	1.008
152.500	205.513	80.002	19.997	103.384	19.934	5.933	1.026
153.000	206.001	80.002	19.997	103.384	19.930	6.214	1.032
153.500	206.516	80.001	19.998	103.384	19.932	6.093	1.013
154.000	207.035	80.001	19.996	103.381	19.931	6.177	1.019
154.500	207.575	80.002	19.997	103.376	19.935	5.912	1.046
155.000	208.075	80.000	19.998	103.371	19.932	6.076	1.049
155.500	208.631	80.003	19.998	103.367	19.932	6.087	1.048
156.000	209.126	80.000	19.997	103.362	19.929	6.311	1.054
156.501	209.612	80.000	19.997	103.358	19.930	6.259	1.016
157.001	210.158	80.001	19.997	103.362	19.934	5.978	1.007
157.500	210.657	80.001	19.997	103.366	19.932	6.128	1.039
158.000	211.149	80.003	19.997	103.370	19.929	6.287	1.018
158.500	211.663	80.000	19.997	103.375	19.932	6.105	0.998
159.000	212.168	80.002	19.997	103.379	19.928	6.367	1.012
159.500	212.698	80.001	19.996	103.380	19.929	6.302	1.027
160.000	213.193	80.003	19.997	103.380	19.932	6.127	1.030
160.500	213.718	80.002	19.996	103.379	19.932	6.094	1.022
161.000	214.238	80.003	19.997	103.375	19.932	6.115	1.032
161.500	214.739	80.001	19.996	103.372	19.931	6.154	1.033
162.000	215.255	80.003	19.996	103.372	19.928	6.367	1.020
162.500	215.777	80.002	19.997	103.372	19.932	6.081	1.027
163.000	216.310	80.002	19.995	103.373	19.927	6.440	1.046
163.500	216.818	80.001	19.996	103.376	19.935	5.886	1.048
164.000	217.304	80.000	19.996	103.376	19.926	6.545	1.018
164.500	217.844	80.002	19.997	103.373	19.930	6.245	1.011
165.001	218.361	80.002	19.996	103.372	19.929	6.309	1.042
165.501	218.905	80.002	19.996	103.372	19.934	5.970	1.059
166.000	219.454	80.001	19.996	103.373	19.929	6.290	1.077
166.500	219.924	80.002	19.995	103.378	19.931	6.153	1.055
167.000	220.451	80.002	19.996	103.381	19.930	6.278	1.008
167.500	220.944	80.002	19.996	103.379	19.932	6.085	1.009
168.000	221.471	80.002	19.995	103.375	19.936	5.835	1.020
168.500	221.994	80.002	19.996	103.372	19.933	6.050	1.035
169.000	222.541	80.003	19.995	103.365	19.930	6.218	1.060
169.500	223.055	80.003	19.995	103.363	19.932	6.079	1.065
170.000	223.538	80.002	19.995	103.361	19.934	5.941	1.029
170.500	224.092	80.003	19.997	103.364	19.938	5.685	1.017
171.000	224.637	80.002	19.997	103.364	19.936	5.806	1.069
171.500	225.159	80.003	19.996	103.367	19.936	5.771	1.083
172.000	225.640	80.003	19.995	103.363	19.935	5.857	1.035
172.500	226.163	80.003	19.995	103.362	19.933	5.997	1.004
173.000	226.650	80.002	19.996	103.360	19.933	5.999	1.007
173.500	227.198	80.002	19.996	103.355	19.934	5.953	1.022
174.000	227.705	80.003	19.995	103.352	19.936	5.828	1.045
174.500	228.229	80.002	19.995	103.352	19.934	5.945	1.043
175.000	228.760	80.004	19.996	103.352	19.932	6.078	1.043
175.500	229.276	80.002	19.996	103.350	19.933	5.988	1.052
176.000	229.823	80.003	19.995	103.350	19.937	5.699	1.055
176.500	230.360	80.003	19.995	103.349	19.931	6.200	1.073
177.000	230.871	80.003	19.995	103.349	19.931	6.163	1.066
177.500	231.372	80.003	19.996	103.350	19.933	6.060	1.030
178.000	231.931	80.005	19.996	103.350	19.930	6.274	1.036
178.500	232.440	80.004	19.995	103.350	19.930	6.251	1.064
179.000	232.902	80.002	19.995	103.350	19.932	6.062	1.019
179.500	233.420	80.004	19.995	103.348	19.935	5.869	0.975
180.000	233.997	80.005	19.996	103.346	19.935	5.871	1.038
180.500	234.512	80.004	19.995	103.345	19.932	6.126	1.094
181.000	234.994	80.003	19.995	103.346	19.932	6.062	1.045
181.500	235.523	80.003	19.994	103.347	19.932	6.082	1.004
182.000	236.010	80.002	19.995	103.347	19.937	5.760	1.014
182.500	236.557	80.003	19.994	103.348	19.938	5.670	1.025
183.000	237.046	80.004	19.997	103.348	19.934	5.930	1.035
183.500	237.590	80.002	19.995	103.347	19.930	6.221	1.034
184.000	238.117	80.004	19.995	103.343	19.936	5.790	1.052
184.500	238.663	80.002	19.996	103.340	19.934	5.934	1.072
185.000	239.143	80.003	19.996	103.338	19.936	5.788	1.049
185.500	239.661	80.003	19.996	103.337	19.936	5.817	1.012
186.000	240.145	80.003	19.996	103.338	19.936	5.774	1.000
186.500	240.640	80.002	19.995	103.339	19.936	5.772	0.991
187.000	241.226	80.003	19.997	103.342	19.936	5.821	1.030
187.500	241.705	80.003	19.996	103.344	19.932	6.116	1.073
188.000	242.215	80.002	19.996	103.344	19.933	6.036	1.027
188.500	242.713	80.002	19.996	103.344	19.933	6.038	0.998
189.000	243.219	80.003	19.995	103.345	19.937	5.724	1.006
189.500	243.723	80.004	19.995	103.340	19.934	5.956	1.007
190.000	244.250	80.003	19.995	103.339	19.931	6.202	1.021
190.500	244.738	80.003	19.996	103.340	19.933	6.036	1.023
191.000	245.258	80.003	19.995	103.340	19.932	6.099	1.011
191.500	245.742	80.003	19.996	103.340	19.930	6.214	1.006
192.000	246.300	80.003	19.995	103.340	19.934	5.984	1.023
192.500	246.787	80.002	19.996	103.337	19.934	5.952	1.043
193.000	247.298	80.004	19.995	103.333	19.933	6.023	1.021
193.500	247.816	80.003	19.995	103.331	19.940	5.474	1.014
194.000	248.337	80.004	19.995	103.326	19.940	5.490	1.035
194.500	248.821	80.002	19.995	103.324	19.937	5.699	1.022
195.000	249.365	80.002	19.995	103.321	19.931	6.142	1.016
195.500	249.840	80.002	19.995	103.321	19.932	6.091	1.024
196.000	250.406	80.003	19.996	103.320	19.935	5.906	1.031
196.500	250.923	80.003	19.995	103.324	19.933	6.045	1.062
197.000	251.420	80.004	19.996	103.324	19.935	5.855	1.049
197.500	251.928	80.005	19.995	103.327	19.930	6.234	1.009
198.000	252.469	80.003	19.995	103.325	19.927	6.437	1.027
198.500	252.957	80.004	19.994	103.323	19.933	6.050	1.039
199.000	253.474	80.004	19.995	103.318	19.938	5.629	1.017
199.500	254.017	80.005	19.996	103.317	19.938	5.680	1.032
200.001	254.460	80.002	19.995	103.314	19.932	6.117	1.023
200.501	254.991	80.003	19.996	103.313	19.925	6.606	0.980
201.000	255.463	80.004	19.993	103.312	19.932	6.060	0.988
201.500	255.994	80.006	19.993	103.311	19.934	5.957	1.003
202.000	256.442	80.004	19.995	103.310	19.937	5.735	0.992
202.500	256.987	80.003	19.996	103.310	19.932	6.125	0.986
203.000	257.466	80.004	19.995	103.310	19.933	5.994	1.008
203.500	258.023	80.005	19.993	103.310	19.933	6.039	1.030
204.000	258.450	80.005	19.994	103.310	19.932	6.060	1.011
204.500	259.048	80.006	19.995	103.309	19.932	6.113	1.005
205.001	259.452	80.005	19.995	103.309	19.932	6.111	1.013
205.501	260.000	80.004	19.994	103.305	19.934	5.957	0.977
206.001	260.660	80.005	19.995	103.304	19.933	6.017	1.080
206.500	260.928	80.006	19.995	103.301	19.933	6.041	1.068
207.000	261.506	80.006	19.996	103.300	19.931	6.162	0.887
207.500	262.171	80.006	19.995	103.299	19.932	6.092	1.044
208.000	262.415	80.005	19.995	103.302	19.934	5.926	1.076
208.500	263.098	80.004	19.996	103.303	19.932	6.118	0.918
209.000	263.797	80.004	19.995	103.304	19.928	6.367	1.155
209.500	263.823	80.005	19.995	103.304	19.926	6.533	1.053
210.000	264.535	80.005	19.995	103.303	19.932	6.110	0.731
210.500	264.997	80.002	19.996	103.303	19.933	6.008	0.956
211.000	265.562	80.004	19.996	103.302	19.927	6.482	1.101
211.500	265.932	80.005	19.995	103.302	19.929	6.306	0.981
212.001	266.514	80.003	19.995	103.297	19.932	6.119	0.943
212.501	267.051	80.002	19.996	103.294	19.930	6.263	1.036
213.001	267.512	80.002	19.996	103.294	19.928	6.369	1.058
213.500	267.969	80.002	19.996	103.295	19.927	6.453	0.958
214.000	268.487	80.003	19.996	103.295	19.926	6.562	0.946
214.500	268.979	80.003	19.998	103.299	19.926	6.533	0.992
215.000	269.437	80.003	19.995	103.303	19.930	6.268	0.980
215.500	270.029	80.003	19.997	103.301	19.929	6.301	1.001
216.000	270.512	80.003	19.997	103.300	19.927	6.484	1.063
216.500	270.989	80.003	19.995	103.300	19.928	6.398	1.017
217.000	271.526	80.003	19.997	103.300	19.929	6.336	0.987
217.500	272.031	80.003	19.996	103.297	19.931	6.201	1.027
218.000	272.545	80.001	19.996	103.296	19.928	6.424	1.030
218.500	272.979	80.002	19.997	103.293	19.929	6.303	0.984
219.000	273.507	80.003	19.997	103.291	19.929	6.315	0.956
219.500	273.933	80.002	19.997	103.287	19.924	6.661	0.958
220.000	274.470	80.002	19.997	103.285	19.930	6.240	0.958
220.500	274.993	80.002	19.996	103.288	19.923	6.792	1.011
221.000	275.474	80.002	19.997	103.289	19.926	6.558	1.032
221.500	275.990	80.002	19.997	103.290	19.924	6.680	1.001
222.000	276.464	80.002	19.997	103.295	19.927	6.487	0.994
222.500	276.945	80.001	19.996	103.300	19.925	6.609	0.973
223.000	277.436	80.002	19.996	103.298	19.926	6.558	0.963
223.500	277.926	80.001	19.996	103.299	19.922	6.810	0.976
224.000	278.444	80.001	19.996	103.298	19.925	6.617	0.994
224.500	278.925	80.004	19.997	103.293	19.920	7.021	1.004
225.000	279.443	80.002	19.995	103.290	19.919	7.044	0.999
225.500	279.915	80.003	19.995	103.287	19.920	6.976	0.994
226.000	280.460	80.003	19.997	103.285	19.921	6.947	1.003
226.500	280.867	80.002	19.997	103.285	19.922	6.873	0.985
227.000	281.413	80.003	19.997	103.289	19.919	7.086	0.952
227.500	281.894	80.004	19.996	103.290	19.920	6.961	0.990
228.000	282.361	80.002	19.998	103.292	19.920	6.975	0.987
228.500	282.820	80.003	19.997	103.290	19.919	7.078	0.937
229.000	283.317	80.001	19.995	103.284	19.916	7.293	0.942
229.500	283.836	80.002	19.996	103.279	19.914	7.460	0.986
230.000	284.332	80.002	19.996	103.275	19.916	7.265	1.015
230.500	284.782	80.002	19.995	103.272	19.922	6.850	0.980
231.000	285.303	80.002	19.996	103.269	19.915	7.371	0.958
231.500	285.782	80.002	19.995	103.270	19.918	7.127	0.985
232.000	286.299	80.003	19.995	103.271	19.921	6.891	0.998
232.500	286.803	80.002	19.996	103.274	19.918	7.108	1.009
233.000	287.305	80.003	19.996	103.278	19.918	7.155	1.013
233.500	287.765	80.003	19.997	103.285	19.914	7.471	0.984
234.000	288.270	80.002	19.997	103.290	19.918	7.110	0.963
234.500	288.749	80.003	19.997	103.291	19.920	6.975	0.975
235.000	289.227	80.003	19.996	103.290	19.923	6.777	0.971
235.501	289.709	80.000	19.995	103.293	19.915	7.359	0.959
236.000	290.168	80.002	19.997	103.290	19.918	7.162	0.951
236.500	290.691	80.002	19.996	103.288	19.917	7.207	0.961
237.000	291.189	80.002	19.996	103.288	19.914	7.443	1.001
237.500	291.683	80.001	19.996	103.289	19.916	7.320	1.007
238.000	292.172	80.002	19.996	103.282	19.914	7.441	0.988
238.500	292.686	80.003	19.996	103.281	19.915	7.349	0.993
239.000	293.161	80.003	19.996	103.278	19.912	7.626	0.996
239.500	293.615	80.001	19.996	103.277	19.910	7.728	0.959
240.000	294.110	80.001	19.996	103.280	19.909	7.780	0.940
240.500	294.584	80.001	19.997	103.282	19.911	7.699	0.959
241.000	295.106	80.001	19.996	103.280	19.909	7.820	0.982
241.500	295.618	80.001	19.997	103.279	19.910	7.773	1.015
242.000	296.080	80.002	19.997	103.278	19.914	7.443	1.004
242.500	296.555	80.001	19.998	103.274	19.907	7.993	0.956
243.000	297.024	80.002	19.997	103.274	19.909	7.808	0.941
243.500	297.480	80.000	19.996	103.274	19.910	7.765	0.934
244.000	297.997	80.001	19.998	103.275	19.911	7.661	0.949
244.500	298.526	80.001	19.996	103.275	19.904	8.214	1.010
245.000	299.037	80.000	19.996	103.276	19.909	7.824	1.043
245.500	299.521	79.999	19.997	103.280	19.905	8.142	1.018
246.000	300.003	80.001	19.996	103.284	19.905	8.150	0.980
246.500	300.503	80.000	19.998	103.285	19.903	8.263	0.974
247.000	300.988	80.001	19.997	103.285	19.903	8.286	0.984
247.500	301.476	80.000	19.997	103.283	19.906	8.021	0.979
248.000	301.980	79.998	19.997	103.277	19.904	8.181	0.982
248.500	302.453	80.000	19.997	103.275	19.901	8.388	0.985
249.000	302.965	80.000	19.997	103.281	19.903	8.300	0.981
249.500	303.424	80.000	19.997	103.284	19.898	8.663	0.978
250.000	303.891	80.000	19.996	103.284	19.897	8.678	0.949
250.500	304.442	80.000	19.997	103.285	19.900	8.485	0.972
251.000	304.860	80.000	19.997	103.283	19.896	8.762	0.993
251.500	305.387	80.000	19.997	103.277	19.898	8.647	0.957
252.000	305.864	80.001	19.996	103.274	19.889	9.276	0.974
252.500	306.331	80.000	19.997	103.274	19.893	9.001	0.974
253.000	306.881	80.000	19.996	103.278	19.894	8.970	0.980
253.500	307.344	80.000	19.996	103.284	19.888	9.350	1.015
254.000	307.802	80.002	19.996	103.285	19.889	9.332	0.967
254.500	308.245	80.002	19.996	103.285	19.886	9.556	0.911
255.000	308.767	80.003	19.996	103.283	19.883	9.724	0.932
255.500	309.285	80.002	19.995	103.279	19.877	10.215	1.003
256.000	309.785	80.002	19.997	103.273	19.881	9.945	1.030
256.500	310.297	80.001	19.995	103.273	19.876	10.290	1.015
257.000	310.760	80.002	19.996	103.277	19.877	10.229	0.994
257.500	311.257	80.001	19.995	103.277	19.875	10.352	0.967
258.000	311.754	80.003	19.996	103.278	19.870	10.766	0.976
258.500	312.249	80.003	19.995	103.278	19.867	10.939	0.993
259.000	312.759	80.002	19.995	103.280	19.865	11.093	0.999
259.500	313.237	80.002	19.995	103.277	19.865	11.127	0.997
260.000	313.748	80.004	19.995	103.279	19.860	11.505	0.989
260.500	314.238	80.004	19.995	103.282	19.855	11.835	0.995
261.000	314.734	80.003	19.993	103.282	19.856	11.767	0.993
261.500	315.181	80.003	19.995	103.279	19.857	11.710	0.964
262.000	315.690	80.003	19.995	103.278	19.855	11.878	0.950
262.500	316.176	80.003	19.995	103.276	19.851	12.169	0.976
263.000	316.676	80.004	19.995	103.272	19.846	12.522	0.990
263.500	317.184	80.004	19.995	103.272	19.846	12.534	0.996
264.000	317.666	80.004	19.994	103.272	19.842	12.850	0.999
264.500	318.156	80.003	19.994	103.275	19.837	13.222	0.981
265.000	318.635	80.002	19.993	103.279	19.839	13.038	0.971
265.500	319.115	80.002	19.995	103.282	19.832	13.598	0.964
266.000	319.580	80.005	19.998	103.288	19.826	14.010	0.952
266.500	320.124	80.020	19.997	103.295	19.823	14.216	0.977
267.000	320.594	80.021	20.000	103.299	19.822	14.306	1.011
267.500	321.110	80.023	20.001	103.300	19.819	14.516	1.000
268.000	321.582	80.021	20.000	103.305	19.815	14.832	0.987
268.500	322.059	80.021	20.003	103.306	19.815	14.812	0.968
269.000	322.561	80.021	20.002	103.305	19.813	15.009	0.964
269.500	323.006	80.021	20.003	103.306	19.808	15.396	0.963
270.000	323.524	80.022	20.003	103.308	19.806	15.484	0.955
270.500	324.008	80.021	20.002	103.306	19.799	16.079	0.982
271.000	324.477	80.020	20.002	103.306	19.797	16.219	0.978
271.500	324.945	80.021	20.003	103.307	19.794	16.393	0.945
272.000	325.453	80.022	20.002	103.306	19.792	16.578	0.956
272.500	325.964	80.022	20.002	103.306	19.790	16.695	0.997
273.000	326.464	80.022	20.003	103.308	19.784	17.163	1.015
273.500	326.935	80.022	20.002	103.306	19.778	17.589	0.991
274.000	327.403	80.021	20.003	103.303	19.775	17.811	0.955
274.500	327.873	80.022	20.004	103.300	19.771	18.152	0.938
275.000	328.394	80.022	20.003	103.299	19.768	18.349	0.964
275.500	328.864	80.022	20.002	103.293	19.764	18.625	0.991
276.000	329.372	80.021	20.002	103.293	19.755	19.343	0.985
276.500	329.855	80.022	20.002	103.296	19.757	19.195	0.985
277.000	330.348	80.022	20.003	103.296	19.749	19.785	0.984
277.500	330.833	80.021	20.002	103.297	19.745	20.109	0.977
278.000	331.331	80.021	20.002	103.302	19.743	20.239	0.981
278.500	331.764	80.021	20.003	103.304	19.734	20.916	0.957
279.000	332.272	80.023	20.003	103.304	19.731	21.113	0.936
279.500	332.760	80.023	20.002	103.306	19.724	21.615	0.968
280.000	333.288	80.022	20.002	103.306	19.726	21.482	1.006
280.500	333.711	80.022	20.004	103.304	19.714	22.383	0.983
281.000	334.261	80.024	20.002	103.303	19.713	22.440	0.962
281.500	334.716	80.023	20.003	103.303	19.707	22.949	0.989
282.000	335.259	80.023	20.002	103.303	19.702	23.269	1.002
282.500	335.739	80.021	20.003	103.303	19.697	23.657	1.010
283.000	336.204	80.024	20.003	103.305	19.694	23.909	0.984
283.500	336.699	80.024	20.003	103.305	19.685	24.582	0.952
284.000	337.215	80.023	20.003	103.305	19.679	24.990	0.985
284.500	337.698	80.024	20.002	103.305	19.675	25.281	1.005
285.000	338.162	80.023	20.004	103.305	19.666	25.981	0.973
285.500	338.666	80.024	20.003	103.306	19.659	26.526	0.958
286.000	339.193	80.023	20.001	103.307	19.656	26.697	1.000
286.500	339.633	80.024	19.999	103.304	19.647	27.426	0.999
287.000	340.150	80.012	19.998	103.303	19.645	27.555	0.962
287.500	340.631	80.005	19.997	103.302	19.637	28.175	0.978
288.000	341.121	80.005	19.997	103.299	19.631	28.587	0.985
288.500	341.591	80.005	19.996	103.298	19.624	29.159	0.965
289.000	342.107	80.005	19.996	103.299	19.618	29.586	0.973
289.500	342.613	80.006	19.996	103.300	19.609	30.218	1.004
290.000	343.090	80.005	19.995	103.301	19.604	30.640	1.003
290.500	343.566	80.005	19.997	103.301	19.599	31.017	0.968
291.000	344.065	80.004	19.996	103.300	19.591	31.618	0.964
291.500	344.571	80.005	19.995	103.301	19.584	32.101	0.990
292.000	345.024	80.004	19.995	103.300	19.577	32.625	0.981
292.500	345.506	80.004	19.995	103.301	19.570	33.183	0.947
293.001	345.975	80.004	19.995	103.302	19.560	33.889	0.944
293.500	346.486	80.004	19.996	103.303	19.552	34.521	0.966
294.000	346.992	80.003	19.995	103.302	19.546	34.994	0.998
294.500	347.467	80.003	19.994	103.302	19.537	35.662	0.999
295.000	347.979	80.003	19.994	103.302	19.533	35.961	0.984
295.501	348.459	80.003	19.995	103.301	19.521	36.866	0.989
296.000	348.986	80.003	19.996	103.300	19.512	37.474	1.000
296.500	349.458	80.002	19.995	103.299	19.505	38.046	1.003
297.000	349.965	80.003	19.996	103.295	19.493	38.947	0.989
297.500	350.425	80.003	19.994	103.295	19.486	39.484	0.972
298.000	350.942	80.004	19.995	103.297	19.480	39.926	0.972
298.500	351.433	80.003	19.995	103.300	19.469	40.691	0.992
299.000	351.927	80.003	19.996	103.304	19.460	41.424	0.997
299.500	352.402	80.002	19.996	103.309	19.452	41.992	0.977
300.000	352.911	80.003	19.995	103.311	19.440	42.866	0.977
300.500	353.422	80.003	19.993	103.311	19.432	43.496	1.002
301.000	353.894	80.002	19.995	103.310	19.420	44.375	1.002
301.500	354.396	80.002	19.995	103.308	19.411	45.082	0.978
302.000	354.908	80.002	19.995	103.308	19.398	46.032	0.994
302.500	355.399	80.003	19.995	103.310	19.391	46.570	1.009
303.000	355.901	80.002	19.996	103.312	19.377	47.606	0.998
303.500	356.385	80.002	19.995	103.313	19.368	48.305	0.989
304.000	356.938	80.002	19.996	103.312	19.353	49.388	1.012
304.500	357.395	80.003	19.996	103.312	19.342	50.228	1.024
305.000	357.901	80.002	19.997	103.310	19.327	51.357	0.986
305.500	358.405	80.002	19.995	103.309	19.323	51.656	0.986
306.000	358.878	80.002	19.996	103.308	19.307	52.869	0.994
306.500	359.390	80.001	19.995	103.309	19.294	53.798	0.981
307.000	359.904	80.003	19.996	103.309	19.285	54.539	1.005
307.500	360.363	80.003	19.994	103.310	19.275	55.271	1.000
308.000	360.890	80.001	19.996	103.310	19.254	56.786	0.979
308.500	361.378	80.003	19.996	103.314	19.248	57.251	1.000
309.000	361.866	80.003	19.995	103.317	19.230	58.642	0.996
309.500	362.362	80.003	19.996	103.316	19.217	59.554	0.980
310.000	362.895	80.004	19.996	103.316	19.202	60.685	1.007
310.500	363.362	80.001	19.997	103.322	19.186	61.907	1.015
311.000	363.902	80.002	19.996	103.325	19.174	62.810	1.004
311.500	364.375	80.003	19.996	103.327	19.158	63.996	1.009
312.000	364.903	80.003	19.995	103.334	19.149	64.724	1.007
312.500	365.359	80.002	19.995	103.340	19.130	66.103	0.993
313.000	365.879	80.002	19.996	103.341	19.118	66.979	0.980
313.500	366.360	80.001	19.995	103.341	19.100	68.356	0.988
314.000	366.889	80.002	19.995	103.345	19.086	69.420	1.006
314.500	367.420	80.001	19.996	103.348	19.072	70.450	1.035
315.000	367.927	80.001	19.995	103.350	19.054	71.814	1.049
315.500	368.405	80.001	19.995	103.351	19.037	73.043	1.012
316.000	368.920	80.002	19.996	103.351	19.024	74.066	0.989
316.500	369.432	80.002	19.995	103.351	19.005	75.508	1.010
317.000	369.918	80.001	19.996	103.350	18.984	77.079	1.012
317.500	370.416	80.002	19.996	103.349	18.969	78.176	0.991
318.000	370.889	80.003	19.996	103.349	18.951	79.540	0.977
318.500	371.385	80.003	19.996	103.348	18.935	80.702	0.970
319.000	371.903	80.003	19.996	103.349	18.915	82.207	0.992
319.500	372.405	80.004	19.996	103.348	18.901	83.234	1.017
320.000	372.941	80.003	19.996	103.347	18.882	84.724	1.029
320.500	373.440	80.003	19.996	103.347	18.861	86.290	1.037
321.000	373.938	80.002	19.995	103.351	18.845	87.472	1.016
321.500	374.470	80.003	19.996	103.352	18.825	88.969	1.014
322.000	374.945	80.002	19.995	103.356	18.803	90.630	1.018
322.500	375.446	80.002	19.995	103.362	18.785	91.951	0.991
323.000	375.950	80.002	19.995	103.370	18.766	93.383	0.990
323.500	376.470	80.002	19.995	103.373	18.744	95.043	1.015
324.000	377.004	80.002	19.997	103.375	18.722	96.687	1.039
324.500	377.464	80.001	19.995	103.375	18.699	98.387	1.024
325.000	377.960	80.001	19.995	103.376	18.674	100.275	0.975
325.500	378.490	80.001	19.996	103.376	18.651	101.986	0.991
326.000	378.950	80.003	19.996	103.376	18.631	103.481	1.008
326.500	379.457	80.002	19.995	103.381	18.606	105.364	0.979
327.000	379.969	80.003	19.997	103.385	18.582	107.143	0.993
327.500	380.511	80.002	19.994	103.386	18.560	108.849	1.036
328.000	381.007	80.001	19.995	103.387	18.535	110.673	1.046
328.500	381.478	80.002	19.994	103.388	18.511	112.462	1.002
329.000	381.989	80.002	19.995	103.388	18.488	114.218	0.975
329.500	382.466	80.001	19.995	103.388	18.460	116.275	0.985
330.000	382.989	80.002	19.995	103.388	18.439	117.913	0.994
330.500	383.481	80.002	19.993	103.389	18.415	119.636	1.008
331.000	383.983	80.002	19.996	103.393	18.390	121.563	1.005
331.500	384.508	80.002	19.995	103.395	18.361	123.696	1.010
332.000	384.990	80.000	19.996	103.396	18.335	125.665	1.017
332.500	385.487	80.002	19.995	103.397	18.308	127.699	0.994
333.000	386.007	80.002	19.996	103.397	18.281	129.697	0.998
333.500	386.525	80.002	19.997	103.393	18.253	131.789	1.027
334.000	387.012	80.002	19.995	103.394	18.228	133.641	1.021
334.500	387.529	80.003	19.996	103.395	18.199	135.824	1.004
335.000	388.022	80.003	19.996	103.394	18.171	137.920	1.007
335.500	388.557	80.002	19.995	103.401	18.141	140.204	1.019
336.000	389.041	80.003	19.996	103.408	18.112	142.360	1.024
336.500	389.574	80.002	19.994	103.413	18.083	144.533	1.019
337.000	390.091	80.002	19.995	103.417	18.055	146.610	1.034
337.500	390.592	80.002	19.996	103.422	18.028	148.640	1.034
338.000	391.074	80.003	19.995	103.422	17.996	151.007	1.000
338.500	391.612	80.003	19.997	103.423	17.966	153.279	1.001
339.000	392.134	80.003	19.997	103.422	17.932	155.800	1.040
339.501	392.623	80.002	19.997	103.420	17.906	157.775	1.036
340.001	393.131	80.004	19.996	103.420	17.875	160.100	1.004
340.500	393.663	80.003	19.995	103.419	17.843	162.467	1.018
341.000	394.183	80.003	19.996	103.419	17.810	164.903	1.046
341.500	394.735	80.004	19.996	103.419	17.779	167.225	1.062
342.000	395.208	80.003	19.996	103.421	17.751	169.345	1.049
342.500	395.763	80.004	19.995	103.422	17.716	171.948	1.027
343.000	396.256	80.003	19.996	103.422	17.683	174.411	1.038
343.500	396.759	80.003	19.996	103.422	17.652	176.755	1.022
344.000	397.312	80.004	19.996	103.422	17.621	179.005	1.026
344.500	397.807	80.003	19.996	103.421	17.592	181.202	1.052
345.000	398.334	80.003	19.996	103.421	17.558	183.717	1.035
345.500	398.864	80.004	19.997	103.421	17.524	186.227	1.040
346.000	399.386	80.004	19.997	103.420	17.491	188.740	1.055
346.500	399.937	80.004	19.996	103.419	17.457	191.238	1.063
347.000	400.455	80.003	19.997	103.417	17.426	193.550	1.071
347.500	400.967	80.004	19.996	103.417	17.393	196.023	1.050
348.000	401.491	80.005	19.997	103.416	17.362	198.329	1.033
348.500	402.042	80.004	19.996	103.415	17.328	200.864	1.055
349.000	402.563	80.004	19.995	103.415	17.297	203.130	1.074
349.500	403.054	80.004	19.996	103.417	17.260	205.852	1.042
350.000	403.585	80.003	19.996	103.415	17.234	207.798	1.017
350.500	404.119	80.003	19.996	103.409	17.200	210.288	1.043
351.000	404.644	80.005	19.996	103.403	17.169	212.611	1.062
351.500	405.158	80.003	19.996	103.397	17.136	215.038	1.049
352.000	405.713	80.004	19.995	103.388	17.103	217.498	1.054
352.500	406.225	80.004	19.995	103.383	17.076	219.468	1.068
353.000	406.801	80.005	19.995	103.382	17.048	221.609	1.078
353.500	407.307	80.002	19.995	103.381	17.018	223.801	1.085
354.000	407.839	80.004	19.996	103.379	16.982	226.435	1.060
354.500	408.383	80.003	19.995	103.375	16.957	228.327	1.057
355.000	408.871	80.003	19.995	103.367	16.925	230.702	1.054
355.500	409.461	80.004	19.995	103.360	16.895	232.908	1.055
356.000	409.966	80.003	19.995	103.352	16.870	234.794	1.087
356.500	410.497	80.004	19.995	103.347	16.839	237.046	1.066
357.000	411.034	80.003	19.996	103.344	16.810	239.216	1.052
357.500	411.583	80.004	19.995	103.340	16.782	241.253	1.077
358.000	412.098	80.002	19.994	103.333	16.759	242.976	1.075
358.500	412.609	80.003	19.995	103.326	16.732	244.960	1.046
359.000	413.129	80.003	19.996	103.318	16.711	246.519	1.029
359.500	413.661	80.004	19.994	103.307	16.688	248.219	1.041
360.000	414.203	80.004	19.995	103.294	16.665	249.934	1.063
360.500	414.697	80.005	19.995	103.286	16.645	251.382	1.055
361.000	415.248	80.004	19.996	103.277	16.623	253.066	1.040
361.500	415.767	80.003	19.995	103.265	16.602	254.561	1.058
362.000	416.311	80.004	19.995	103.255	16.585	255.823	1.067
362.500	416.844	80.004	19.995	103.247	16.573	256.729	1.070
363.000	417.360	80.004	19.995	103.238	16.556	257.978	1.063
363.500	417.908	80.006	19.995	103.225	16.542	258.963	1.056
364.000	418.424	80.005	19.995	103.214	16.530	259.846	1.064
364.500	418.984	80.005	19.996	103.205	16.518	260.728	1.070
365.000	419.518	80.004	19.994	103.195	16.513	261.134	1.085
365.500	420.057	80.005	19.996	103.187	16.507	261.559	1.083
366.000	420.612	80.004	19.995	103.179	16.500	262.082	1.084
366.500	421.134	80.006	19.994	103.172	16.499	262.155	1.086
367.000	421.663	80.006	19.995	103.164	16.493	262.544	1.064
367.500	422.176	80.006	19.995	103.156	16.495	262.389	1.046
368.000	422.714	80.006	19.997	103.150	16.498	262.183	1.047
368.500	423.258	80.005	19.995	103.145	16.504	261.742	1.067
369.001	423.737	80.006	19.994	103.137	16.507	261.443	1.053
369.501	424.307	80.006	19.996	103.129	16.516	260.778	1.036
370.000	424.826	80.006	19.995	103.121	16.529	259.804	1.069
370.500	425.371	80.007	19.995	103.111	16.538	259.169	1.076
371.000	425.932	80.006	19.996	103.103	16.552	258.098	1.085
371.500	426.481	80.006	19.995	103.100	16.571	256.712	1.108
372.000	426.951	80.007	19.996	103.097	16.590	255.247	1.064
372.500	427.493	80.006	19.995	103.090	16.609	253.840	1.016
373.000	428.038	80.006	19.995	103.080	16.636	251.868	1.050
373.500	428.553	80.006	19.995	103.074	16.660	250.073	1.074
374.000	429.126	80.005	19.994	103.065	16.688	247.990	1.074
374.500	429.622	80.006	19.995	103.053	16.717	245.837	1.078
375.000	430.130	80.006	19.995	103.046	16.754	243.118	1.036
375.500	430.679	80.003	19.994	103.043	16.789	240.466	1.030
376.000	431.212	80.005	19.996	103.037	16.831	237.367	1.070
376.500	431.776	80.003	19.997	103.034	16.871	234.417	1.090
377.000	432.273	80.004	19.996	103.033	16.919	230.818	1.079
377.500	432.808	80.003	19.995	103.033	16.962	227.667	1.046
378.000	433.375	80.004	19.995	103.029	17.012	223.932	1.067
378.500	433.907	80.002	19.994	103.028	17.062	220.225	1.101
379.000	434.451	80.003	19.995	103.023	17.116	216.257	1.088
379.500	434.989	80.003	19.995	103.016	17.170	212.185	1.079
380.000	435.512	80.002	19.997	103.009	17.224	208.239	1.072
380.500	436.058	80.002	19.995	103.005	17.286	203.629	1.065
381.000	436.572	80.003	19.994	103.000	17.341	199.519	1.064
381.500	437.124	80.002	19.995	102.998	17.404	194.826	1.063
382.000	437.637	80.002	19.996	102.998	17.467	190.192	1.065
382.500	438.188	80.002	19.995	103.002	17.527	185.663	1.065
383.000	438.711	80.002	19.995	103.007	17.589	181.114	1.069
383.500	439.238	80.003	19.995	103.012	17.650	176.516	1.062
384.001	439.780	80.003	19.995	103.017	17.712	171.897	1.060
384.500	440.320	80.002	19.996	103.024	17.780	166.877	1.076
385.000	440.858	80.002	19.995	103.027	17.842	162.226	1.080
385.500	441.363	80.002	19.994	103.029	17.898	157.998	1.060
386.000	441.903	80.002	19.995	103.031	17.960	153.437	1.043
386.500	442.416	80.002	19.994	103.034	18.021	148.847	1.049
387.000	442.950	80.002	19.995	103.035	18.084	144.165	1.050
387.500	443.499	80.001	19.995	103.043	18.136	140.219	1.065
388.000	444.014	80.002	19.995	103.052	18.190	136.255	1.074
388.500	444.489	80.001	19.994	103.060	18.246	132.053	1.027
389.000	445.011	80.003	19.995	103.071	18.294	128.436	0.993
389.500	445.583	80.003	19.995	103.082	18.346	124.589	1.045
390.000	446.088	80.002	19.995	103.091	18.391	121.200	1.085
390.500	446.627	80.002	19.995	103.099	18.436	117.818	1.061
391.001	447.152	80.002	19.995	103.109	18.479	114.630	1.055
391.500	447.675	80.002	19.995	103.119	18.517	111.765	1.056
392.000	448.184	80.003	19.996	103.132	18.555	108.903	1.040
392.500	448.723	80.003	19.994	103.140	18.594	106.034	1.040
393.000	449.225	80.003	19.994	103.154	18.626	103.602	1.044
393.501	449.776	80.002	19.995	103.167	18.661	101.020	1.047
394.000	450.296	80.002	19.995	103.176	18.692	98.707	1.062
394.500	450.838	80.003	19.995	103.183	18.721	96.553	1.066
395.000	451.367	80.004	19.995	103.191	18.748	94.465	1.066
395.500	451.888	80.002	19.995	103.193	18.772	92.708	1.061
396.000	452.388	80.002	19.995	103.193	18.794	91.076	1.035
396.500	452.896	80.003	19.994	103.194	18.819	89.224	1.014
397.000	453.422	80.004	19.995	103.194	18.837	87.840	1.022
397.500	453.928	80.003	19.995	103.195	18.858	86.291	1.033
398.000	454.462	80.003	19.995	103.195	18.872	85.211	1.036
398.501	455.004	80.003	19.995	103.194	18.888	84.016	1.058
399.000	455.533	80.003	19.995	103.194	18.907	82.627	1.074
399.500	456.043	80.003	19.995	103.193	18.916	81.911	1.055
400.000	456.549	80.003	19.995	103.193	18.933	80.696	1.027
400.500	457.113	80.003	19.995	103.192	18.944	79.868	1.043
401.000	457.601	80.003	19.995	103.188	18.950	79.424	1.061
401.500	458.142	80.004	19.995	103.183	18.962	78.478	1.041
402.000	458.665	80.001	19.994	103.180	18.969	77.983	1.047
402.501	459.167	80.003	19.995	103.173	18.980	77.153	1.044
403.001	459.656	80.002	19.995	103.166	18.987	76.646	1.008
403.500	460.205	80.002	19.995	103.163	18.993	76.202	1.015
404.000	460.708	80.002	19.995	103.159	19.002	75.525	1.045
404.500	461.228	80.003	19.995	103.153	19.005	75.264	1.037
405.000	461.728	80.003	19.995	103.151	19.009	74.980	1.022
405.500	462.254	80.003	19.996	103.155	19.016	74.453	1.023
406.000	462.775	80.002	19.996	103.156	19.021	74.087	1.036
406.500	463.327	80.003	19.995	103.157	19.025	73.817	1.060
407.000	463.819	80.003	19.996	103.157	19.029	73.508	1.059
407.500	464.354	80.002	19.996	103.157	19.033	73.226	1.035
408.000	464.836	80.002	19.995	103.152	19.035	73.016	1.022
408.500	465.344	80.003	19.996	103.146	19.034	73.088	1.003
409.000	465.842	80.002	19.995	103.140	19.037	72.869	0.998
409.500	466.367	80.001	19.995	103.137	19.039	72.770	1.015
410.000	466.943	80.002	19.995	103.136	19.044	72.374	1.062
410.500	467.433	80.001	19.996	103.137	19.042	72.521	1.083
411.000	467.930	80.002	19.996	103.136	19.042	72.535	1.026
411.500	468.424	80.003	19.996	103.139	19.044	72.378	0.989
412.000	468.963	80.002	19.996	103.134	19.041	72.556	1.012
412.500	469.455	80.002	19.996	103.126	19.044	72.354	1.032
413.000	469.988	80.002	19.996	103.121	19.042	72.506	1.028
413.500	470.488	80.001	19.996	103.124	19.044	72.329	1.029
414.000	471.033	80.001	19.996	103.119	19.044	72.382	1.039
414.500	471.514	80.002	19.996	103.119	19.042	72.478	1.036
415.000	472.034	80.002	19.996	103.126	19.044	72.384	1.014
415.500	472.533	80.002	19.996	103.125	19.040	72.662	1.010
416.000	473.039	80.001	19.994	103.122	19.041	72.599	1.012
416.500	473.543	80.002	19.995	103.121	19.042	72.528	1.008
417.000	474.095	80.002	19.996	103.120	19.041	72.606	1.033
417.500	474.598	80.003	19.996	103.114	19.038	72.824	1.055
418.000	475.125	80.002	19.995	103.114	19.037	72.881	1.042
418.500	475.641	80.002	19.995	103.113	19.034	73.082	1.037
419.000	476.109	80.002	19.996	103.114	19.034	73.099	1.013
419.500	476.611	80.002	19.995	103.114	19.029	73.491	0.977
420.000	477.141	80.004	19.996	103.114	19.028	73.540	1.001
420.500	477.653	80.003	19.996	103.113	19.028	73.525	1.037
421.000	478.156	80.003	19.995	103.112	19.026	73.715	1.028
421.500	478.666	80.003	19.995	103.112	19.023	73.875	1.014
422.000	479.179	80.003	19.996	103.109	19.022	74.005	1.018
422.500	479.662	80.003	19.995	103.109	19.021	74.052	1.009
423.000	480.155	80.004	19.995	103.109	19.020	74.154	0.986
423.500	480.688	80.004	19.996	103.107	19.016	74.396	1.001
424.000	481.213	80.003	19.996	103.105	19.014	74.601	1.041
424.500	481.723	80.004	19.994	103.107	19.014	74.570	1.046
425.000	482.190	80.004	19.995	103.107	19.008	75.010	1.006
425.500	482.669	80.003	19.996	103.106	19.006	75.147	0.962
426.000	483.173	80.003	19.996	103.106	19.006	75.186	0.964
426.500	483.680	80.004	19.996	103.108	19.004	75.303	0.996
427.000	484.177	80.003	19.995	103.106	19.002	75.421	1.007
427.501	484.715	80.002	19.995	103.102	19.001	75.549	1.020
428.000	485.199	80.004	19.996	103.096	19.001	75.549	1.029
428.500	485.686	80.003	19.995	103.089	19.002	75.467	0.997
429.000	486.188	80.003	19.996	103.082	18.998	75.757	0.980
429.500	486.682	80.004	19.996	103.077	18.998	75.738	0.992
430.000	487.205	80.003	19.996	103.075	18.998	75.703	1.007
430.501	487.733	80.004	19.996	103.074	19.000	75.563	1.034
431.000	488.195	80.003	19.996	103.074	18.999	75.655	1.020
431.500	488.707	80.004	19.996	103.073	19.000	75.609	0.982
432.000	489.224	80.002	19.996	103.073	19.003	75.333	1.002
432.500	489.713	80.003	19.996	103.072	19.006	75.141	1.017
433.001	490.227	80.003	19.996	103.072	19.009	74.933	1.005
433.500	490.715	80.003	19.997	103.071	19.011	74.730	1.003
434.000	491.227	80.003	19.995	103.071	19.017	74.278	1.001
434.500	491.724	80.002	19.997	103.066	19.023	73.839	1.005
435.000	492.246	80.002	19.996	103.063	19.029	73.397	1.014
435.500	492.733	80.002	19.995	103.062	19.038	72.754	1.014
436.000	493.254	80.002	19.997	103.057	19.042	72.472	1.009
436.500	493.764	80.001	19.997	103.054	19.055	71.516	1.019
437.000	494.258	80.002	19.996	103.052	19.066	70.660	1.017
437.500	494.763	80.002	19.996	103.046	19.077	69.830	1.002
438.000	495.318	80.001	19.996	103.039	19.090	68.925	1.030
438.500	495.768	80.002	19.997	103.036	19.105	67.791	1.033
439.000	496.300	80.002	19.996	103.033	19.118	66.813	0.994
439.500	496.768	80.003	19.996	103.033	19.138	65.371	0.991
440.000	497.290	80.002	19.996	103.032	19.158	63.884	0.995
440.500	497.778	80.003	19.996	103.026	19.175	62.576	1.000
441.000	498.276	80.003	19.996	103.019	19.194	61.168	0.998
441.500	498.785	80.002	19.996	103.012	19.216	59.568	0.997
442.000	499.305	80.003	19.996	103.010	19.237	57.974	1.018
442.500	499.809	80.002	19.996	103.003	19.266	55.791	1.026
443.000	500.320	80.003	19.996	103.001	19.292	53.851	1.019
443.500	500.816	80.004	19.996	103.000	19.317	51.996	1.011
444.000	501.320	80.004	19.996	103.002	19.347	49.790	1.004
444.500	501.813	80.003	19.996	103.001	19.371	47.965	0.999
445.000	502.315	80.003	19.995	103.006	19.399	45.894	0.996
445.500	502.814	80.004	19.996	103.014	19.426	43.852	0.998
446.000	503.325	80.003	19.996	103.023	19.456	41.669	1.006
446.500	503.807	80.003	19.995	103.028	19.483	39.660	1.001
447.000	504.319	80.003	19.995	103.033	19.510	37.649	0.993
447.500	504.825	80.003	19.995	103.038	19.536	35.673	1.006
448.000	505.308	80.004	19.995	103.043	19.560	33.868	1.003
448.500	505.829	80.005	19.995	103.051	19.588	31.759	0.997
449.000	506.299	80.002	19.995	103.059	19.611	30.050	0.997
449.500	506.834	80.005	19.995	103.069	19.633	28.394	0.998
450.000	507.296	80.005	19.995	103.082	19.654	26.878	1.001
450.500	507.808	80.004	19.995	103.093	19.680	24.940	0.986
451.000	508.329	80.005	19.996	103.106	19.697	23.649	1.004
451.500	508.804	80.005	19.995	103.119	19.717	22.158	1.015
452.000	509.283	80.005	19.994	103.131	19.735	20.827	0.975
452.500	509.805	80.005	19.995	103.141	19.753	19.464	0.977
453.000	510.298	80.005	19.994	103.155	19.768	18.337	1.008
453.500	510.804	80.005	19.994	103.163	19.782	17.323	1.007
454.000	511.288	80.004	19.995	103.172	19.798	16.112	0.995
454.500	511.772	80.005	19.995	103.181	19.808	15.374	0.979
455.000	512.261	80.005	19.995	103.187	19.819	14.519	0.971
455.500	512.742	80.005	19.995	103.189	19.829	13.746	0.972
456.000	513.302	80.003	19.994	103.192	19.844	12.671	1.006
456.500	513.818	80.005	19.995	103.193	19.851	12.169	1.058
457.000	514.318	80.005	19.995	103.193	19.858	11.610	1.046
457.500	514.819	80.003	19.995	103.191	19.865	11.113	1.008
458.000	515.332	80.003	19.995	103.188	19.874	10.400	1.008
458.500	515.879	80.003	19.995	103.186	19.881	9.901	1.037
459.000	516.363	80.004	19.996	103.182	19.885	9.632	1.046
459.500	516.856	80.003	19.995	103.178	19.892	9.092	1.004
460.000	517.398	80.001	19.995	103.178	19.892	9.090	1.006
460.500	517.861	80.003	19.995	103.177	19.901	8.369	1.020
461.000	518.384	80.002	19.995	103.176	19.905	8.133	0.996
461.500	518.881	80.002	19.995	103.179	19.906	8.014	1.003
462.000	519.373	80.002	19.995	103.177	19.912	7.551	1.005
462.500	519.920	80.003	19.994	103.172	19.914	7.449	1.014
463.000	520.374	80.002	19.995	103.173	19.918	7.168	1.020
463.500	520.942	80.002	19.996	103.173	19.923	6.740	1.011
464.000	521.424	80.001	19.995	103.172	19.922	6.832	1.036
464.500	521.927	80.002	19.995	103.173	19.926	6.518	1.018
465.000	522.443	80.003	19.995	103.175	19.929	6.315	1.002
465.500	522.936	80.002	19.995	103.170	19.934	5.969	1.014
466.000	523.483	80.002	19.995	103.165	19.933	6.012	1.024
466.500	523.949	80.002	19.996	103.162	19.935	5.900	1.026
467.000	524.483	80.001	19.996	103.160	19.937	5.732	1.006
467.500	524.967	80.002	19.996	103.163	19.936	5.787	1.009
468.001	525.498	80.003	19.996	103.168	19.936	5.813	1.017
468.501	525.973	80.003	19.995	103.170	19.939	5.565	1.011
469.000	526.476	80.001	19.995	103.175	19.941	5.436	0.992
469.500	526.978	80.003	19.996	103.181	19.943	5.262	0.992
470.000	527.514	80.001	19.995	103.181	19.944	5.188	1.021
470.500	528.010	80.002	19.995	103.182	19.944	5.219	1.034
471.000	528.515	80.001	19.996	103.188	19.945	5.111	1.016
471.500	529.022	80.003	19.996	103.187	19.947	4.971	1.007
472.000	529.518	80.002	19.994	103.187	19.945	5.152	1.008
472.500	530.047	80.003	19.995	103.188	19.948	4.865	1.014
473.000	530.561	80.003	19.995	103.188	19.946	5.074	1.034
473.500	531.081	80.002	19.995	103.188	19.947	4.984	1.038
474.000	531.566	80.003	19.996	103.188	19.949	4.838	1.019
474.500	532.095	80.002	19.995	103.187	19.949	4.846	1.010
475.000	532.592	80.002	19.995	103.188	19.950	4.730	1.021
475.500	533.059	80.002	19.994	103.188	19.949	4.811	0.995
476.000	533.596	80.004	19.995	103.188	19.952	4.570	0.984
476.500	534.120	80.003	19.996	103.188	19.948	4.912	1.032
477.000	534.643	80.002	19.996	103.189	19.951	4.697	1.054
477.500	535.173	80.003	19.995	103.189	19.953	4.518	1.050
478.000	535.708	80.002	19.995	103.189	19.951	4.684	1.059
478.500	536.178	80.002	19.994	103.189	19.953	4.551	1.035
479.000	536.727	80.003	19.995	103.189	19.953	4.498	1.012
479.500	537.200	80.003	19.994	103.188	19.952	4.617	1.020
480.000	537.719	80.004	19.995	103.187	19.953	4.539	1.007
480.500	538.197	80.003	19.995	103.187	19.950	4.738	0.995
481.000	538.697	80.003	19.994	103.188	19.953	4.545	0.988
481.500	539.215	80.002	19.994	103.188	19.956	4.281	0.998
482.000	539.712	80.003	19.995	103.189	19.954	4.471	1.017
482.500	540.231	80.003	19.994	103.191	19.954	4.414	1.016
483.000	540.762	80.003	19.995	103.191	19.959	4.055	1.033
483.500	541.292	80.002	19.994	103.191	19.951	4.658	1.055
484.000	541.782	80.002	19.994	103.191	19.954	4.461	1.040
484.500	542.307	80.004	19.995	103.191	19.951	4.641	1.017
485.000	542.799	80.002	19.994	103.190	19.952	4.570	1.016
485.500	543.326	80.004	19.995	103.190	19.959	4.088	1.018
486.000	543.821	80.003	19.994	103.190	19.955	4.402	1.021
486.500	544.297	80.004	19.994	103.190	19.953	4.494	0.997
487.000	544.785	80.003	19.995	103.191	19.957	4.190	0.967
487.500	545.320	80.003	19.996	103.191	19.958	4.180	0.993
488.000	545.791	80.004	19.995	103.191	19.958	4.180	1.014
488.500	546.332	80.002	19.994	103.190	19.958	4.117	1.009
489.000	546.834	80.002	19.996	103.190	19.958	4.143	1.028
489.500	547.343	80.002	19.994	103.188	19.956	4.334	1.027
490.000	547.830	80.002	19.995	103.188	19.957	4.194	1.004
490.501	548.371	80.003	19.996	103.188	19.960	4.010	1.012
491.000	548.901	80.002	19.995	103.189	19.958	4.172	1.050
491.500	549.364	80.003	19.995	103.190	19.960	3.988	1.032
492.000	549.910	80.001	19.996	103.191	19.960	3.986	1.001
492.500	550.435	80.002	19.994	103.191	19.958	4.139	1.040
493.000	550.930	80.002	19.996	103.192	19.961	3.939	1.045
493.500	551.407	80.003	19.995	103.191	19.960	3.982	0.996
494.000	551.890	80.002	19.996	103.191	19.962	3.834	0.966
494.500	552.440	80.004	19.996	103.189	19.960	3.973	0.996
495.000	552.943	80.001	19.995	103.189	19.962	3.885	1.043
495.500	553.447	80.001	19.995	103.189	19.963	3.781	1.030
496.000	553.957	80.001	19.996	103.189	19.963	3.748	1.010
496.500	554.469	80.002	19.996	103.190	19.959	4.037	1.018
497.000	555.054	80.002	19.995	103.191	19.961	3.889	1.060
497.500	555.500	80.000	19.996	103.190	19.960	3.979	1.063
498.000	556.001	80.002	19.995	103.187	19.964	3.719	0.989
498.500	556.525	80.001	19.996	103.187	19.964	3.713	0.986
499.000	556.996	80.001	19.995	103.186	19.962	3.857	1.010
499.500	557.558	80.001	19.995	103.186	19.960	4.006	1.014
500.000	558.049	80.000	19.995	103.186	19.962	3.838	1.043
500.500	558.541	80.000	19.995	103.186	19.963	3.799	1.018
501.000	559.056	80.001	19.995	103.185	19.961	3.924	0.995
501.500	559.570	80.001	19.995	103.185	19.961	3.893	1.018
502.000	560.104	80.001	19.995	103.186	19.961	3.941	1.038
502.500	560.596	80.002	19.995	103.187	19.961	3.949	1.037
503.000	561.092	80.001	19.995	103.189	19.962	3.852	1.007
503.500	561.636	80.002	19.996	103.190	19.960	3.971	1.014
504.000	562.154	80.002	19.996	103.190	19.960	4.022	1.051
504.500	562.643	80.002	19.996	103.189	19.963	3.789	1.035
505.000	563.169	80.003	19.995	103.189	19.961	3.900	1.011
505.500	563.656	80.002	19.995	103.189	19.961	3.910	1.014
506.000	564.168	80.002	19.995	103.188	19.960	4.000	1.006
506.500	564.654	80.002	19.995	103.186	19.960	4.025	0.999
507.000	565.198	80.003	19.996	103.183	19.962	3.834	1.014
507.500	565.709	80.002	19.995	103.182	19.963	3.750	1.042
508.000	566.212	80.002	19.996	103.183	19.961	3.887	1.034
508.500	566.683	80.001	19.995	103.184	19.961	3.930	0.994
509.000	567.186	80.003	19.996	103.185	19.960	3.982	0.974
509.500	567.735	80.002	19.996	103.188	19.961	3.910	1.013
510.000	568.217	80.003	19.995	103.190	19.963	3.758	1.042
510.500	568.724	80.004	19.996	103.190	19.959	4.059	1.010
511.000	569.248	80.002	19.995	103.189	19.960	4.008	1.010
511.500	569.743	80.004	19.994	103.190	19.963	3.799	1.025
512.000	570.261	80.004	19.995	103.190	19.961	3.918	1.016
512.500	570.750	80.003	19.995	103.189	19.959	4.045	1.010
513.000	571.247	80.003	19.995	103.188	19.964	3.692	0.996
513.500	571.777	80.003	19.995	103.187	19.961	3.932	1.007
514.000	572.293	80.002	19.996	103.187	19.962	3.836	1.036
514.500	572.768	80.002	19.995	103.187	19.964	3.717	1.018
515.000	573.288	80.002	19.995	103.187	19.962	3.842	0.993
515.500	573.823	80.002	19.995	103.188	19.965	3.609	1.025
516.000	574.342	80.002	19.995	103.188	19.962	3.859	1.055
516.500	574.870	80.002	19.995	103.188	19.962	3.865	1.051
517.000	575.373	80.001	19.995	103.189	19.961	3.949	1.039
517.500	575.863	80.002	19.995	103.190	19.963	3.740	1.011
518.000	576.385	80.003	19.995	103.190	19.966	3.555	1.002
518.500	576.911	80.002	19.994	103.191	19.963	3.783	1.030
519.000	577.413	80.003	19.995	103.191	19.962	3.842	1.038
519.500	577.901	80.001	19.995	103.191	19.964	3.715	1.009
520.000	578.388	80.002	19.995	103.190	19.963	3.807	0.982
520.500	578.903	80.002	19.996	103.190	19.962	3.860	0.989
521.000	579.412	80.001	19.995	103.190	19.964	3.705	1.013
521.500	579.915	80.003	19.995	103.191	19.965	3.619	1.018
522.001	580.386	80.002	19.996	103.190	19.963	3.750	0.994
522.500	580.892	80.003	19.995	103.190	19.963	3.752	0.976
523.000	581.415	80.001	19.995	103.188	19.965	3.592	1.003
523.500	581.922	80.002	19.995	103.186	19.964	3.725	1.029
524.000	582.429	80.001	19.996	103.184	19.964	3.732	1.022
524.500	582.918	80.003	19.995	103.183	19.964	3.707	1.005
525.000	583.416	80.000	19.995	103.185	19.963	3.750	0.991
525.500	583.931	80.001	19.996	103.187	19.961	3.928	1.000
526.000	584.451	80.002	19.996	103.190	19.961	3.936	1.024
526.501	584.967	80.001	19.995	103.191	19.966	3.572	1.036
527.000	585.484	80.002	19.996	103.192	19.963	3.740	1.035
527.500	585.976	80.001	19.995	103.190	19.961	3.926	1.021
528.000	586.512	80.003	19.996	103.190	19.963	3.807	1.019
528.500	586.973	80.002	19.996	103.190	19.962	3.852	1.012
529.000	587.485	80.003	19.996	103.190	19.964	3.725	0.985
529.500	588.014	80.002	19.995	103.190	19.960	3.969	1.007
530.000	588.491	80.003	19.995	103.189	19.963	3.752	1.023
530.500	589.027	80.002	19.996	103.186	19.961	3.893	1.010
531.000	589.527	80.002	19.995	103.184	19.966	3.535	1.024
531.500	590.012	80.004	19.997	103.185	19.964	3.682	1.010
532.000	590.505	80.002	19.996	103.185	19.964	3.705	0.982
532.500	591.059	80.003	19.996	103.185	19.964	3.729	1.013
533.000	591.514	80.004	19.995	103.188	19.963	3.774	1.028
533.500	592.021	80.004	19.996	103.188	19.963	3.778	0.985
534.000	592.574	80.004	19.996	103.188	19.964	3.713	1.011
534.500	593.058	80.003	19.996	103.188	19.964	3.690	1.049
535.000	593.562	80.003	19.995	103.189	19.965	3.641	1.012
535.500	594.118	80.004	19.996	103.188	19.964	3.731	1.024
536.000	594.591	80.005	19.996	103.187	19.962	3.848	1.044
536.500	595.105	80.005	19.996	103.185	19.961	3.928	1.008
537.000	595.624	80.005	19.996	103.184	19.958	4.112	1.010
537.500	596.136	80.003	19.995	103.183	19.961	3.901	1.032
538.000	596.633	80.003	19.996	103.184	19.964	3.674	1.020
538.500	597.141	80.005	19.996	103.184	19.959	4.108	1.007
539.000	597.649	80.004	19.995	103.186	19.963	3.786	1.011
539.500	598.155	80.003	19.996	103.184	19.963	3.754	1.015
540.000	598.641	80.002	19.995	103.184	19.962	3.859	1.003
540.500	599.171	80.002	19.995	103.183	19.965	3.645	1.004
541.000	599.651	80.003	19.996	103.181	19.966	3.518	1.013
541.500	600.176	80.002	19.995	103.181	19.965	3.627	1.007
542.000	600.663	80.004	19.994	103.182	19.964	3.664	1.009
542.500	601.160	80.002	19.995	103.183	19.962	3.818	0.998
543.000	601.688	80.002	19.995	103.184	19.962	3.885	1.004
543.500	602.169	80.002	19.995	103.184	19.963	3.773	1.017
544.000	602.646	80.002	19.995	103.184	19.967	3.492	0.984
544.500	603.192	80.002	19.994	103.181	19.965	3.633	0.990
545.000	603.737	80.002	19.995	103.180	19.966	3.547	1.057
545.500	604.211	80.002	19.994	103.180	19.965	3.617	1.055
546.000	604.725	80.002	19.995	103.182	19.964	3.730	1.003
546.500	605.193	80.002	19.994	103.183	19.966	3.543	0.985
547.000	605.700	80.002	19.996	103.187	19.965	3.601	0.978
547.500	606.240	80.002	19.995	103.186	19.963	3.810	1.011
548.000	606.748	80.002	19.994	103.179	19.966	3.566	1.048
548.500	607.263	80.002	19.995	103.175	19.964	3.732	1.035
549.000	607.716	80.001	19.995	103.175	19.963	3.738	0.995
549.500	608.261	80.002	19.995	103.174	19.967	3.498	0.983
550.000	608.712	80.002	19.994	103.176	19.962	3.836	0.997
550.500	609.252	80.000	19.995	103.185	19.962	3.850	0.994
551.000	609.714	80.001	19.995	103.188	19.962	3.867	0.996
551.500	610.253	80.000	19.995	103.189	19.964	3.734	1.001
552.000	610.734	80.002	19.995	103.189	19.966	3.533	1.011
552.500	611.261	80.001	19.995	103.190	19.964	3.725	1.014
553.000	611.749	80.002	19.995	103.190	19.966	3.547	1.011
553.500	612.275	80.002	19.996	103.190	19.965	3.639	1.014
554.000	612.768	80.001	19.995	103.189	19.966	3.525	1.016
554.500	613.291	80.002	19.995	103.189	19.964	3.715	1.018
555.000	613.794	80.002	19.995	103.189	19.962	3.840	1.022
555.500	614.304	80.001	19.995	103.189	19.962	3.830	1.020
556.000	614.831	80.003	19.996	103.192	19.964	3.705	1.025
556.500	615.321	80.002	19.996	103.196	19.968	3.412	1.027
557.000	615.833	80.002	19.995	103.202	19.960	3.984	1.009
557.500	616.334	80.003	19.995	103.202	19.965	3.656	1.007
558.000	616.880	80.002	19.995	103.202	19.963	3.783	1.030
558.500	617.385	80.002	19.995	103.200	19.963	3.740	1.049
559.000	617.862	80.003	19.995	103.196	19.965	3.640	1.017
559.500	618.399	80.002	19.995	103.191	19.962	3.853	0.998
560.000	618.876	80.002	19.994	103.190	19.963	3.789	1.014
560.500	619.374	80.003	19.995	103.191	19.964	3.664	0.994
561.000	619.889	80.002	19.995	103.191	19.963	3.750	0.994
561.500	620.393	80.002	19.995	103.191	19.960	3.980	1.016
562.000	620.872	80.003	19.995	103.190	19.961	3.960	1.001
562.500	621.419	80.002	19.994	103.190	19.963	3.792	1.004
563.000	621.915	80.003	19.995	103.190	19.962	3.820	1.035
563.500	622.382	80.002	19.995	103.190	19.963	3.755	1.003
564.000	622.907	80.004	19.995	103.190	19.965	3.650	0.978
564.500	623.406	80.003	19.996	103.193	19.959	4.052	1.008
565.000	623.854	80.003	19.995	103.194	19.962	3.873	0.985
565.500	624.383	80.001	19.995	103.194	19.963	3.804	0.962
566.000	624.905	80.003	19.995	103.193	19.963	3.788	1.014
566.500	625.411	80.001	19.994	103.193	19.962	3.849	1.040
567.000	625.892	80.002	19.995	103.191	19.962	3.872	1.008
567.500	626.400	80.003	19.996	103.190	19.964	3.669	0.988
568.000	626.909	80.003	19.996	103.192	19.961	3.927	1.003
568.500	627.407	80.001	19.995	103.195	19.964	3.689	1.012
569.000	627.915	80.003	19.995	103.199	19.962	3.849	1.007
569.500	628.424	80.001	19.995	103.202	19.964	3.664	1.012
570.000	628.957	80.001	19.995	103.204	19.961	3.939	1.029
570.500	629.424	80.001	19.995	103.203	19.965	3.644	1.021
571.000	629.945	80.002	19.996	103.203	19.965	3.605	0.994
571.500	630.424	80.003	19.995	103.200	19.961	3.935	0.994
572.001	630.979	80.002	19.995	103.198	19.962	3.880	1.017
572.500	631.462	80.001	19.994	103.198	19.963	3.761	1.036
573.000	631.958	80.001	19.995	103.204	19.962	3.852	1.009
573.500	632.433	80.001	19.994	103.208	19.965	3.663	0.975
574.000	632.955	80.001	19.995	103.208	19.962	3.870	0.984
574.500	633.454	80.002	19.995	103.209	19.961	3.905	1.008
575.000	633.969	80.002	19.995	103.208	19.961	3.907	1.017
575.500	634.483	80.000	19.995	103.203	19.964	3.702	1.022
576.000	634.964	80.001	19.995	103.197	19.960	3.989	1.012
576.500	635.493	80.001	19.994	103.201	19.963	3.803	1.003
577.000	636.019	80.001	19.995	103.208	19.962	3.885	1.033
577.500	636.483	80.001	19.994	103.211	19.960	3.981	1.022
578.000	636.996	80.001	19.994	103.213	19.961	3.891	0.983
578.500	637.509	80.001	19.994	103.215	19.966	3.542	1.001
579.000	638.018	80.001	19.994	103.212	19.960	4.026	1.024
579.500	638.518	80.001	19.995	103.206	19.960	3.965	1.015
580.000	639.024	80.002	19.994	103.200	19.960	4.016	1.007
580.500	639.528	80.002	19.995	103.204	19.957	4.260	1.008
581.000	640.015	80.002	19.995	103.206	19.957	4.233	1.001
581.500	640.533	80.002	19.995	103.207	19.958	4.176	0.998
582.000	641.016	80.002	19.995	103.209	19.957	4.258	1.003
582.500	641.530	80.001	19.994	103.215	19.958	4.127	0.999
583.000	642.058	80.003	19.995	103.217	19.958	4.123	1.020
583.500	642.549	80.002	19.994	103.219	19.959	4.108	1.031
584.000	643.069	80.002	19.995	103.220	19.960	4.035	1.015
584.500	643.534	80.003	19.994	103.226	19.957	4.250	0.998
585.000	644.042	80.001	19.994	103.228	19.956	4.277	0.979
585.500	644.539	80.003	19.995	103.228	19.957	4.213	0.989
586.000	645.033	80.002	19.995	103.227	19.956	4.275	0.998
586.500	645.586	80.002	19.995	103.230	19.958	4.115	1.019
587.000	646.047	80.002	19.994	103.230	19.958	4.180	1.031
587.500	646.557	80.002	19.995	103.229	19.956	4.330	0.992
588.000	647.026	80.002	19.994	103.229	19.958	4.139	0.975
588.500	647.523	80.002	19.994	103.231	19.962	3.875	0.972
589.000	648.070	80.002	19.995	103.230	19.960	3.996	1.005
589.500	648.531	80.003	19.995	103.227	19.960	3.969	1.026
590.000	649.052	80.003	19.995	103.227	19.959	4.068	0.995
590.500	649.554	80.002	19.995	103.228	19.959	4.061	1.003
591.000	650.026	80.003	19.994	103.228	19.959	4.094	0.999
591.500	650.528	80.002	19.995	103.229	19.957	4.246	0.974
592.000	651.084	80.003	19.994	103.232	19.960	4.027	1.016
592.500	651.604	80.004	19.994	103.233	19.957	4.211	1.066
593.000	652.020	80.004	19.994	103.234	19.958	4.166	1.006
593.500	652.538	80.003	19.994	103.235	19.958	4.129	0.935
594.000	653.031	80.003	19.995	103.236	19.959	4.080	0.973
594.500	653.548	80.002	19.994	103.235	19.955	4.394	1.011
595.000	654.021	80.004	19.996	103.235	19.955	4.343	1.000
595.500	654.511	80.002	19.995	103.237	19.956	4.327	0.977
596.000	655.031	80.004	19.996	103.238	19.956	4.335	0.986
596.500	655.539	80.003	19.994	103.240	19.956	4.319	1.018
597.000	656.063	80.002	19.995	103.243	19.957	4.214	1.030
597.500	656.536	80.002	19.994	103.243	19.959	4.089	1.015
598.000	657.040	80.002	19.995	103.239	19.956	4.278	0.987
598.500	657.566	80.003	19.995	103.237	19.955	4.364	1.003
599.000	658.032	80.002	19.995	103.235	19.958	4.179	1.011
599.500	658.507	80.003	19.995	103.231	19.956	4.300	0.967
600.000	659.046	80.002	19.995	103.233	19.954	4.477	0.978
600.500	659.523	80.003	19.995	103.235	19.952	4.587	1.015
601.000	660.049	80.003	19.995	103.239	19.952	4.618	1.009
601.500	660.565	80.002	19.995	103.241	19.953	4.493	1.022
602.000	661.022	80.003	19.995	103.244	19.953	4.508	1.007
602.500	661.562	80.004	19.996	103.247	19.956	4.290	0.985
603.000	662.089	80.003	19.995	103.244	19.957	4.220	1.032
603.500	662.585	80.001	19.995	103.241	19.955	4.368	1.045
604.000	663.060	80.002	19.996	103.241	19.952	4.606	0.997
604.500	663.545	80.002	19.995	103.243	19.957	4.241	0.966
605.000	664.059	80.002	19.995	103.244	19.953	4.534	0.980
605.500	664.539	80.003	19.995	103.250	19.957	4.261	0.996
606.000	665.045	80.003	19.996	103.255	19.951	4.663	0.989
606.500	665.520	80.003	19.996	103.260	19.953	4.522	0.984
607.000	666.001	80.002	19.995	103.261	19.950	4.725	0.969
607.500	666.527	80.003	19.997	103.264	19.950	4.762	0.981
608.000	667.030	80.003	19.995	103.264	19.950	4.785	1.018
608.500	667.546	80.003	19.995	103.263	19.952	4.609	1.024
609.000	667.993	80.004	19.995	103.263	19.950	4.743	0.991
609.500	668.526	80.003	19.995	103.263	19.952	4.613	0.972
610.000	669.003	80.003	19.995	103.263	19.950	4.757	0.995
610.500	669.502	80.003	19.995	103.264	19.954	4.438	0.992
611.000	670.019	80.004	19.995	103.265	19.952	4.576	0.996
611.500	670.558	80.004	19.996	103.266	19.950	4.777	1.037
612.000	671.055	80.004	19.996	103.266	19.950	4.755	1.046
612.500	671.529	80.005	19.996	103.267	19.951	4.693	1.003
613.000	671.974	80.005	19.995	103.268	19.952	4.570	0.945
613.500	672.512	80.004	19.995	103.269	19.951	4.669	0.951
614.000	672.967	80.006	19.995	103.269	19.949	4.816	0.988
614.500	673.514	80.007	19.995	103.269	19.950	4.751	0.997
615.000	673.988	80.006	19.995	103.268	19.947	4.989	1.011
615.500	674.535	80.005	19.995	103.266	19.950	4.786	1.021
616.000	675.024	80.006	19.995	103.266	19.947	4.946	1.029
616.500	675.530	80.004	19.995	103.266	19.950	4.735	1.016
617.000	676.005	80.005	19.996	103.267	19.951	4.653	0.988
617.500	676.504	80.003	19.995	103.267	19.948	4.878	0.977
618.000	677.048	80.004	19.995	103.270	19.951	4.661	1.008
618.500	677.508	80.006	19.996	103.277	19.949	4.823	1.023
619.000	677.992	80.004	19.995	103.284	19.951	4.704	0.974
619.500	678.497	80.004	19.995	103.288	19.949	4.823	0.967
620.000	678.986	80.003	19.995	103.295	19.945	5.088	0.991
620.500	679.485	80.003	19.996	103.294	19.947	4.987	0.991
621.000	680.010	80.004	19.995	103.287	19.944	5.217	1.006
621.500	680.437	80.004	19.996	103.284	19.945	5.141	0.988
622.000	680.915	80.004	19.995	103.287	19.946	5.035	0.929
622.500	681.452	80.004	19.996	103.287	19.943	5.269	0.961
623.000	681.921	80.005	19.996	103.291	19.945	5.154	1.010
623.500	682.392	80.002	19.996	103.296	19.944	5.169	0.972
624.000	682.922	80.004	19.997	103.295	19.945	5.132	0.970
624.500	683.415	80.003	19.997	103.293	19.944	5.202	1.013
625.000	683.879	80.002	19.996	103.292	19.942	5.344	0.990
625.500	684.359	80.002	19.996	103.294	19.944	5.178	0.950
626.000	684.903	80.002	19.996	103.296	19.944	5.178	0.984
626.500	685.354	80.001	19.996	103.300	19.942	5.346	1.009
627.000	685.861	80.002	19.996	103.302	19.942	5.354	0.976
627.500	686.350	80.003	19.996	103.304	19.941	5.419	0.977
628.000	686.823	80.003	19.998	103.304	19.940	5.512	0.979
628.500	687.287	80.002	19.997	103.304	19.940	5.516	0.949
629.000	687.832	80.003	19.996	103.304	19.936	5.797	0.973
629.500	688.331	80.002	19.996	103.304	19.939	5.594	1.027
630.000	688.804	80.002	19.996	103.304	19.938	5.623	1.008
630.500	689.285	80.002	19.996	103.304	19.936	5.769	0.963
631.000	689.769	80.001	19.996	103.304	19.938	5.642	0.959
631.500	690.267	80.003	19.996	103.305	19.939	5.588	0.974
632.000	690.758	80.001	19.995	103.308	19.937	5.703	0.985
632.500	691.236	80.002	19.995	103.310	19.942	5.315	0.979
633.000	691.702	80.002	19.995	103.311	19.942	5.326	0.957
633.500	692.226	80.002	19.996	103.317	19.938	5.619	0.967
634.000	692.716	80.002	19.996	103.324	19.938	5.613	1.002
634.500	693.187	80.002	19.995	103.327	19.939	5.576	0.988
635.000	693.672	80.002	19.996	103.332	19.935	5.882	0.959
635.500	694.147	80.001	19.995	103.339	19.940	5.531	0.958
636.000	694.681	80.002	19.995	103.342	19.936	5.808	0.984
636.500	695.135	80.001	19.995	103.341	19.934	5.948	0.998
637.000	695.635	80.001	19.996	103.340	19.935	5.875	0.971
637.500	696.136	80.001	19.995	103.340	19.940	5.477	0.978
638.000	696.618	80.001	19.995	103.336	19.938	5.657	0.992
638.500	697.127	80.004	19.995	103.333	19.934	5.949	0.987
639.000	697.599	80.001	19.995	103.335	19.936	5.803	0.986
639.500	698.103	80.002	19.995	103.338	19.934	5.961	0.979
640.000	698.571	80.001	19.995	103.341	19.934	5.959	0.974
640.500	699.048	80.003	19.995	103.345	19.935	5.902	0.958
641.000	699.557	80.002	19.995	103.348	19.932	6.118	0.966
641.500	700.075	80.001	19.995	103.349	19.933	6.038	1.007
642.000	700.530	80.002	19.996	103.348	19.932	6.081	1.000
642.500	701.011	80.002	19.995	103.348	19.929	6.290	0.955
643.000	701.526	80.002	19.995	103.347	19.932	6.100	0.966
643.500	702.001	80.003	19.995	103.347	19.927	6.453	0.993
644.000	702.476	80.003	19.994	103.347	19.932	6.127	0.970
644.500	702.967	80.002	19.995	103.348	19.932	6.137	0.958
645.000	703.471	80.002	19.995	103.348	19.930	6.240	0.980
645.500	703.960	80.001	19.994	103.350	19.931	6.201	0.994
646.000	704.478	80.002	19.995	103.351	19.926	6.542	1.001
646.500	704.991	80.003	19.996	103.351	19.928	6.410	1.020
647.000	705.476	80.004	19.994	103.352	19.929	6.330	1.014
647.500	705.968	80.001	19.996	103.359	19.928	6.367	0.987
648.000	706.442	80.002	19.994	103.362	19.930	6.271	0.972
648.500	706.936	80.002	19.995	103.367	19.932	6.119	0.967
649.000	707.413	80.003	19.996	103.370	19.932	6.099	0.969
649.500	707.911	80.002	19.995	103.372	19.931	6.179	0.973
650.000	708.406	80.002	19.995	103.371	19.929	6.311	0.984
650.500	708.874	80.001	19.995	103.373	19.930	6.279	0.978
651.000	709.411	80.001	19.994	103.376	19.929	6.332	0.984
651.500	709.853	80.001	19.995	103.374	19.928	6.427	0.992
652.000	710.357	80.002	19.994	103.377	19.928	6.423	0.963
652.500	710.850	80.002	19.995	103.379	19.928	6.433	0.972
653.000	711.360	80.002	19.995	103.380	19.928	6.382	1.000
653.500	711.847	80.001	19.995	103.380	19.928	6.400	1.000
654.000	712.331	80.002	19.994	103.386	19.925	6.631	0.984
654.500	712.783	80.001	19.996	103.387	19.926	6.588	0.953
655.000	713.287	80.003	19.994	103.388	19.926	6.557	0.946
655.500	713.811	80.001	19.995	103.388	19.925	6.603	0.993
656.000	714.268	80.001	19.994	103.391	19.926	6.529	1.004
656.500	714.783	80.001	19.995	103.391	19.926	6.539	0.976
657.000	715.233	80.000	19.994	103.393	19.928	6.373	0.969
657.500	715.768	80.001	19.994	103.396	19.924	6.710	0.975
658.000	716.253	80.001	19.995	103.397	19.924	6.741	1.003
658.500	716.784	80.002	19.994	103.397	19.921	6.936	1.018
659.000	717.268	80.000	19.994	103.400	19.921	6.910	1.015
659.500	717.790	80.002	19.995	103.406	19.921	6.912	1.010
660.000	718.276	80.001	19.994	103.409	19.923	6.807	1.007
660.500	718.745	80.002	19.995	103.415	19.924	6.741	0.982
661.000	719.250	80.001	19.994	103.420	19.922	6.879	0.965
661.500	719.755	80.002	19.995	103.426	19.918	7.130	0.992
662.000	720.245	80.001	19.996	103.429	19.918	7.147	1.002
662.500	720.761	80.002	19.995	103.430	19.919	7.092	1.000
663.000	721.247	80.002	19.995	103.432	19.918	7.125	1.004
663.500	721.755	80.003	19.995	103.433	19.915	7.387	0.998
664.000	722.254	80.003	19.995	103.434	19.915	7.368	1.001
664.500	722.763	80.003	19.995	103.435	19.917	7.216	1.008
665.000	723.244	80.001	19.995	103.436	19.916	7.290	0.999
665.500	723.741	80.002	19.995	103.438	19.916	7.317	0.984
666.000	724.213	80.002	19.995	103.444	19.916	7.313	0.974
666.500	724.720	80.002	19.995	103.449	19.914	7.438	0.974
667.000	725.199	80.004	19.994	103.453	19.914	7.428	0.982
667.500	725.705	80.003	19.995	103.457	19.912	7.570	0.985
668.000	726.234	80.003	19.995	103.462	19.914	7.486	1.010
668.500	726.718	80.003	19.995	103.462	19.911	7.646	1.025
669.000	727.203	80.003	19.994	103.462	19.911	7.679	0.991
669.500	727.712	80.002	19.995	103.462	19.913	7.500	0.981
670.000	728.217	80.003	19.994	103.462	19.913	7.496	1.004
670.500	728.723	80.003	19.994	103.464	19.911	7.681	1.012
671.000	729.198	80.004	19.994	103.465	19.913	7.562	0.996
671.500	729.679	80.005	19.994	103.467	19.911	7.671	0.969
672.000	730.207	80.005	19.995	103.468	19.907	7.971	0.983
672.500	730.666	80.003	19.994	103.472	19.910	7.771	0.999
673.000	731.184	80.004	19.995	103.479	19.907	7.955	0.982
673.500	731.693	80.005	19.994	103.484	19.905	8.117	1.002
674.000	732.185	80.004	19.994	103.489	19.907	7.953	1.014
674.500	732.672	80.004	19.994	103.496	19.905	8.114	0.990
675.000	733.198	80.005	19.995	103.500	19.906	8.069	0.996
675.500	733.663	80.003	19.993	103.501	19.904	8.176	1.002
676.000	734.172	80.005	19.995	103.501	19.905	8.123	0.983
676.500	734.683	80.005	19.994	103.501	19.906	8.069	0.997
677.000	735.184	80.004	19.994	103.502	19.905	8.145	1.016
677.500	735.654	80.005	19.995	103.502	19.902	8.324	0.992
678.000	736.180	80.004	19.995	103.502	19.905	8.163	0.983
678.500	736.646	80.004	19.994	103.502	19.905	8.153	0.994
679.000	737.159	80.005	19.995	103.502	19.905	8.130	0.986
679.500	737.638	80.003	19.995	103.503	19.900	8.517	0.986
680.000	738.130	80.004	19.994	103.504	19.905	8.134	0.981
680.500	738.650	80.004	19.995	103.505	19.902	8.350	0.991
681.000	739.101	80.005	19.995	103.505	19.901	8.412	0.991
681.500	739.574	80.004	19.994	103.505	19.900	8.511	0.947
682.000	740.073	80.002	19.994	103.504	19.902	8.349	0.948
682.500	740.590	80.004	19.995	103.504	19.900	8.483	0.994
683.000	741.091	80.003	19.995	103.502	19.900	8.510	1.017
