Sample ID:	C:\MCC\MCC Cal\Test\LW_GypBoard_Painted_Paper_MCC_30K_min_211130_R1.txt
Sample Weight (mg):	4.49
Heating Rate (C/s):	0.5
Combustor Temp (C):	900
N2 Flow Rate (cc/min):	80
O2 Flow Rate (cc/min):	20
Calibration File:	C:\MCC\MCC Cal\Coeff1 JN10440_30_210304.txt.txt
T Correction Coefficients:	0	1.024463	0
Time Shift (s):	14
*
Time (s)	Temperature (C)	N2 flow rate (cc/min)	O2 flow rate (cc/min)	Flow Rate (cc/min)	Oxygen (%)	HRR (W/g)	Heating rate (C/s)
0.000	110.761	80.012	19.996	103.071	20.200	-0.100	0.002
0.500	110.757	80.011	19.995	103.074	20.198	0.012	-0.012
1.000	110.734	79.985	19.995	103.074	20.197	0.069	-0.022
1.500	110.728	80.001	19.995	103.070	20.199	-0.037	-0.028
2.000	110.746	80.011	19.993	103.068	20.202	-0.273	-0.009
2.500	110.774	80.012	19.992	103.064	20.199	-0.035	0.029
3.000	110.769	80.009	19.993	103.063	20.198	0.004	0.035
3.500	110.763	79.995	19.995	103.065	20.198	0.035	0.006
4.000	110.700	80.014	19.994	103.064	20.197	0.092	-0.040
4.500	110.726	80.002	19.994	103.068	20.196	0.130	-0.053
5.000	110.700	80.000	19.993	103.066	20.197	0.067	-0.019
5.500	110.740	80.005	19.993	103.064	20.195	0.206	0.007
6.000	110.755	79.997	19.994	103.063	20.198	0.033	0.034
6.500	110.776	80.007	19.994	103.062	20.197	0.100	0.046
7.000	110.754	79.997	19.996	103.062	20.198	0.008	0.018
7.500	110.743	80.002	19.995	103.063	20.199	-0.083	-0.017
8.000	110.758	80.003	19.994	103.063	20.198	0.024	-0.014
8.501	110.726	80.000	19.994	103.062	20.198	0.049	-0.006
9.001	110.755	80.009	19.995	103.062	20.197	0.055	-0.010
9.500	110.731	80.001	19.994	103.059	20.195	0.208	0.001
10.001	110.743	80.001	19.996	103.058	20.195	0.204	-0.003
10.501	110.754	80.004	19.995	103.057	20.197	0.124	0.006
11.000	110.781	80.000	19.995	103.057	20.195	0.220	0.031
11.500	110.787	80.004	19.995	103.061	20.194	0.299	0.035
12.000	110.779	80.002	19.996	103.069	20.191	0.505	0.016
12.500	110.803	79.998	19.996	103.076	20.189	0.655	0.007
13.000	110.804	80.002	19.994	103.084	20.191	0.513	0.020
13.501	110.767	80.006	19.993	103.091	20.189	0.627	-0.005
14.001	110.758	80.004	19.995	103.095	20.192	0.480	-0.040
14.500	110.781	80.001	19.995	103.096	20.189	0.637	-0.016
15.000	110.768	79.999	19.996	103.098	20.189	0.665	0.011
15.500	110.740	80.003	19.995	103.099	20.191	0.529	-0.016
16.000	110.795	80.001	19.995	103.104	20.190	0.610	-0.007
16.500	110.806	80.002	19.994	103.112	20.183	1.066	0.047
17.000	110.808	80.000	19.997	103.119	20.184	1.007	0.040
17.500	110.813	79.999	19.996	103.123	20.185	0.972	0.010
18.000	110.825	80.004	19.994	103.128	20.183	1.088	0.012
18.500	110.837	80.002	19.995	103.131	20.186	0.905	0.020
19.000	110.824	79.998	19.995	103.130	20.184	1.013	0.012
19.500	110.843	80.003	19.994	103.129	20.181	1.210	0.003
20.000	110.869	80.001	19.996	103.131	20.183	1.084	0.025
20.500	110.904	80.000	19.996	103.135	20.181	1.220	0.053
21.000	110.896	80.000	19.994	103.138	20.180	1.277	0.044
21.500	110.928	80.006	19.995	103.145	20.180	1.323	0.026
22.000	110.962	80.003	19.993	103.155	20.179	1.382	0.045
22.500	110.968	80.002	19.996	103.162	20.179	1.350	0.053
23.000	110.993	80.002	19.994	103.168	20.178	1.437	0.036
23.500	110.998	80.004	19.996	103.174	20.178	1.454	0.030
24.000	111.007	80.000	19.996	103.179	20.178	1.458	0.021
24.502	111.034	80.004	19.996	103.179	20.171	1.925	0.025
25.001	111.084	80.003	19.996	103.183	20.173	1.828	0.057
25.500	111.097	80.003	19.995	103.190	20.173	1.846	0.070
26.000	111.126	79.999	19.995	103.198	20.169	2.102	0.052
26.500	111.119	80.005	19.994	103.202	20.172	1.887	0.032
27.000	111.167	80.005	19.994	103.212	20.168	2.151	0.031
27.500	111.254	80.001	19.994	103.220	20.167	2.218	0.088
28.000	111.252	80.004	19.993	103.224	20.167	2.275	0.111
28.500	111.272	80.001	19.994	103.228	20.169	2.118	0.051
29.000	111.345	80.001	19.994	103.233	20.166	2.317	0.055
29.500	111.340	80.020	19.993	103.239	20.161	2.657	0.080
30.000	111.432	80.005	19.994	103.246	20.163	2.525	0.078
30.500	111.448	79.993	19.994	103.249	20.166	2.344	0.098
31.000	111.502	80.014	19.993	103.252	20.162	2.594	0.089
31.500	111.549	80.005	19.994	103.258	20.163	2.539	0.085
32.000	111.594	79.998	19.995	103.255	20.160	2.709	0.097
32.500	111.677	80.008	19.994	103.252	20.162	2.600	0.110
33.000	111.750	80.010	19.994	103.254	20.161	2.703	0.142
33.500	111.809	80.006	19.995	103.255	20.162	2.624	0.143
34.000	111.873	80.000	19.994	103.254	20.161	2.689	0.127
34.500	111.919	80.002	19.994	103.256	20.161	2.640	0.117
35.000	111.965	79.999	19.994	103.260	20.158	2.896	0.101
35.500	112.065	80.001	19.994	103.258	20.157	2.951	0.119
36.000	112.151	80.011	19.992	103.257	20.158	2.868	0.166
36.500	112.208	80.004	19.994	103.258	20.158	2.856	0.164
37.000	112.280	79.999	19.994	103.256	20.156	3.038	0.136
37.500	112.394	80.003	19.993	103.254	20.159	2.847	0.158
38.001	112.417	80.003	19.995	103.255	20.157	2.985	0.162
38.501	112.497	80.001	19.995	103.257	20.157	2.965	0.120
39.001	112.625	80.007	19.994	103.255	20.153	3.213	0.155
39.501	112.667	80.004	19.994	103.260	20.157	2.985	0.189
40.000	112.795	79.999	19.994	103.265	20.155	3.124	0.170
40.500	112.901	80.005	19.993	103.267	20.156	3.026	0.202
41.001	112.948	79.994	19.994	103.268	20.155	3.093	0.193
41.501	113.035	80.008	19.994	103.269	20.158	2.900	0.143
42.001	113.136	80.004	19.995	103.272	20.153	3.266	0.161
42.500	113.233	80.001	19.994	103.270	20.155	3.087	0.193
43.000	113.295	80.001	19.995	103.269	20.157	2.983	0.179
43.500	113.416	79.998	19.995	103.271	20.157	2.926	0.171
44.000	113.505	79.999	19.996	103.275	20.157	2.926	0.197
44.500	113.634	80.008	19.994	103.272	20.155	3.115	0.214
45.000	113.711	80.003	19.994	103.272	20.156	3.056	0.212
45.500	113.786	79.984	19.995	103.270	20.154	3.174	0.179
46.000	113.909	80.011	19.992	103.270	20.155	3.111	0.175
46.500	114.015	80.013	19.991	103.270	20.155	3.097	0.214
47.000	114.123	80.004	19.994	103.269	20.155	3.095	0.221
47.500	114.218	80.004	19.994	103.274	20.155	3.111	0.209
48.000	114.343	80.000	19.996	103.281	20.152	3.341	0.212
48.501	114.435	79.998	19.995	103.285	20.156	3.003	0.219
49.001	114.581	80.004	19.993	103.285	20.155	3.072	0.227
49.501	114.662	80.001	19.995	103.289	20.155	3.070	0.232
50.001	114.811	80.001	19.994	103.289	20.154	3.182	0.228
50.500	114.898	79.999	19.994	103.287	20.154	3.187	0.233
51.000	115.044	80.001	19.995	103.288	20.153	3.273	0.235
51.501	115.157	80.001	19.996	103.289	20.154	3.188	0.246
52.001	115.259	79.999	19.994	103.289	20.153	3.212	0.237
52.500	115.364	79.996	19.993	103.290	20.152	3.289	0.211
53.000	115.510	80.004	19.993	103.290	20.152	3.348	0.229
53.500	115.647	80.002	19.997	103.291	20.152	3.298	0.267
54.001	115.767	80.002	19.992	103.290	20.151	3.393	0.270
54.501	115.881	80.004	19.994	103.293	20.150	3.456	0.245
55.001	116.007	80.004	19.995	103.294	20.152	3.334	0.237
55.501	116.113	80.000	19.994	103.294	20.150	3.486	0.236
56.000	116.262	80.002	19.993	103.293	20.149	3.515	0.243
56.500	116.406	80.002	19.993	103.294	20.150	3.445	0.274
57.000	116.502	79.999	19.993	103.292	20.149	3.519	0.267
57.500	116.702	80.008	19.993	103.291	20.150	3.435	0.268
58.000	116.814	80.003	19.994	103.293	20.153	3.275	0.304
58.500	116.943	80.006	19.993	103.293	20.150	3.482	0.277
59.000	117.095	80.006	19.993	103.293	20.149	3.524	0.261
59.500	117.187	80.005	19.993	103.297	20.147	3.668	0.263
60.000	117.342	80.018	19.992	103.305	20.151	3.376	0.246
60.500	117.524	80.012	19.993	103.311	20.150	3.480	0.292
61.000	117.664	80.001	19.992	103.317	20.146	3.734	0.329
61.500	117.806	80.011	19.992	103.323	20.151	3.388	0.301
62.000	117.928	80.004	19.993	103.324	20.150	3.466	0.273
62.500	118.121	80.009	19.992	103.321	20.149	3.514	0.290
63.000	118.264	80.006	19.993	103.317	20.146	3.725	0.326
63.500	118.410	79.987	19.995	103.318	20.148	3.614	0.313
64.000	118.541	79.999	19.993	103.315	20.146	3.750	0.283
64.500	118.696	79.989	19.994	103.312	20.146	3.781	0.282
65.000	118.875	80.000	19.993	103.313	20.147	3.661	0.310
65.500	119.017	80.019	19.991	103.317	20.148	3.596	0.328
66.000	119.181	80.010	19.995	103.315	20.146	3.768	0.314
66.501	119.326	80.015	19.994	103.316	20.147	3.673	0.307
67.001	119.462	80.000	19.996	103.322	20.145	3.839	0.295
67.500	119.687	79.995	19.996	103.325	20.144	3.860	0.321
68.000	119.798	79.995	19.993	103.323	20.147	3.665	0.349
68.500	119.941	79.998	19.994	103.325	20.145	3.805	0.295
69.000	120.131	80.017	19.991	103.328	20.148	3.616	0.294
69.500	120.297	80.012	19.991	103.328	20.147	3.683	0.344
70.000	120.484	80.014	19.993	103.331	20.144	3.866	0.354
70.500	120.659	80.002	19.994	103.335	20.145	3.821	0.357
71.000	120.809	80.004	19.995	103.333	20.145	3.799	0.344
71.501	121.015	79.997	19.994	103.332	20.142	4.053	0.341
72.001	121.195	80.016	19.993	103.330	20.142	4.032	0.371
72.501	121.351	80.010	19.993	103.330	20.145	3.813	0.361
73.001	121.516	80.004	19.993	103.331	20.143	3.951	0.328
73.501	121.675	79.981	19.997	103.333	20.143	3.963	0.322
74.000	121.865	80.011	19.994	103.332	20.143	3.971	0.337
74.501	122.054	80.003	19.995	103.331	20.142	4.022	0.364
75.001	122.230	80.002	19.992	103.325	20.144	3.902	0.373
75.500	122.426	80.009	19.993	103.323	20.145	3.819	0.369
76.000	122.575	79.995	19.994	103.324	20.141	4.119	0.358
76.500	122.796	80.015	19.992	103.326	20.138	4.355	0.357
77.001	122.995	79.992	19.992	103.329	20.141	4.105	0.395
77.501	123.150	79.995	19.996	103.335	20.139	4.280	0.387
78.001	123.348	79.997	19.994	103.330	20.139	4.270	0.354
78.500	123.515	79.976	20.002	103.329	20.139	4.240	0.359
79.000	123.731	80.004	19.996	103.326	20.141	4.094	0.373
79.500	123.878	79.994	19.996	103.323	20.138	4.313	0.373
80.000	124.087	79.993	19.995	103.319	20.137	4.408	0.360
80.500	124.304	80.016	19.993	103.320	20.138	4.303	0.392
81.000	124.490	80.008	19.992	103.324	20.135	4.532	0.415
81.500	124.646	79.979	19.997	103.330	20.138	4.333	0.372
82.000	124.846	80.002	19.995	103.323	20.137	4.396	0.349
82.500	125.061	80.001	19.995	103.323	20.135	4.508	0.386
83.001	125.315	80.014	19.992	103.326	20.138	4.341	0.442
83.501	125.521	80.011	19.992	103.324	20.136	4.493	0.465
84.000	125.641	80.004	19.993	103.328	20.139	4.242	0.393
84.500	125.833	80.014	19.993	103.336	20.138	4.359	0.320
85.000	126.070	80.006	19.994	103.338	20.138	4.296	0.371
85.500	126.281	80.006	19.993	103.339	20.140	4.148	0.438
86.001	126.465	80.010	19.991	103.339	20.139	4.242	0.421
86.501	126.655	80.028	19.994	103.336	20.141	4.077	0.384
87.001	126.880	80.010	19.991	103.337	20.137	4.386	0.395
87.500	127.069	80.003	19.995	103.339	20.138	4.359	0.415
88.000	127.252	79.999	19.993	103.340	20.140	4.199	0.393
88.500	127.514	79.991	19.994	103.337	20.141	4.102	0.408
89.000	127.686	79.999	19.996	103.333	20.140	4.146	0.439
89.500	127.908	79.999	19.996	103.327	20.139	4.228	0.414
90.000	128.101	80.006	19.993	103.323	20.135	4.534	0.405
90.500	128.320	79.999	19.995	103.323	20.139	4.272	0.413
91.000	128.542	80.000	20.000	103.324	20.138	4.313	0.426
91.500	128.740	80.001	19.993	103.324	20.140	4.179	0.430
92.000	128.955	80.002	19.995	103.329	20.143	3.959	0.416
92.500	129.159	79.992	19.994	103.330	20.142	4.047	0.416
93.000	129.431	80.001	19.997	103.328	20.142	4.020	0.447
93.500	129.615	80.004	19.995	103.329	20.140	4.179	0.466
94.001	129.822	79.997	19.992	103.329	20.143	3.967	0.423
94.501	130.053	80.006	19.994	103.329	20.138	4.296	0.414
95.001	130.266	80.000	19.995	103.329	20.142	4.047	0.441
95.501	130.467	80.004	19.995	103.329	20.139	4.282	0.430
96.000	130.690	80.009	19.993	103.330	20.139	4.229	0.419
96.500	130.916	80.002	19.995	103.332	20.140	4.207	0.436
97.000	131.152	79.990	19.994	103.330	20.140	4.179	0.456
97.500	131.418	80.001	19.994	103.329	20.138	4.306	0.482
98.000	131.616	79.993	19.994	103.331	20.140	4.191	0.483
98.500	131.823	80.002	19.994	103.330	20.143	3.973	0.434
99.001	132.059	79.998	19.995	103.329	20.139	4.240	0.424
99.501	132.287	79.991	19.995	103.326	20.140	4.171	0.453
100.000	132.511	80.001	19.994	103.324	20.139	4.260	0.458
100.500	132.721	80.004	19.996	103.323	20.139	4.223	0.443
101.000	132.932	80.000	19.998	103.324	20.139	4.229	0.428
101.500	133.160	80.005	19.997	103.321	20.139	4.221	0.430
102.001	133.448	79.994	19.995	103.325	20.137	4.368	0.477
102.501	133.645	79.999	19.995	103.326	20.139	4.280	0.500
103.000	133.903	80.012	19.994	103.326	20.138	4.294	0.471
103.500	134.101	79.980	19.998	103.327	20.143	3.951	0.456
104.001	134.363	80.004	19.996	103.326	20.141	4.081	0.458
104.501	134.580	79.998	19.994	103.325	20.143	3.996	0.469
105.001	134.833	80.003	19.993	103.326	20.140	4.154	0.475
105.501	135.030	79.987	19.998	103.328	20.140	4.162	0.460
106.001	135.281	79.996	19.996	103.322	20.147	3.715	0.449
106.500	135.530	80.004	19.993	103.324	20.139	4.266	0.474
107.000	135.749	80.002	19.997	103.328	20.141	4.144	0.484
107.501	135.995	80.012	19.995	103.329	20.141	4.095	0.467
108.001	136.203	80.004	19.994	103.329	20.141	4.144	0.459
108.501	136.436	79.989	19.997	103.333	20.140	4.173	0.448
109.001	136.644	80.009	19.997	103.334	20.140	4.193	0.442
109.501	136.901	79.993	19.995	103.330	20.142	4.037	0.453
110.000	137.185	79.994	19.996	103.328	20.140	4.158	0.502
110.500	137.388	80.004	19.996	103.329	20.139	4.288	0.514
111.000	137.609	80.028	19.992	103.327	20.138	4.333	0.456
111.500	137.849	79.988	19.996	103.334	20.141	4.132	0.443
112.000	138.090	80.000	19.997	103.331	20.142	4.004	0.471
112.501	138.349	80.006	19.995	103.330	20.141	4.095	0.491
113.001	138.601	80.013	19.992	103.328	20.143	3.985	0.505
113.500	138.795	79.995	19.996	103.333	20.142	4.057	0.478
114.000	138.997	79.992	19.997	103.327	20.145	3.858	0.421
114.500	139.328	79.997	19.995	103.330	20.138	4.290	0.465
115.000	139.553	80.011	19.992	103.333	20.142	4.059	0.544
115.500	139.768	79.999	19.996	103.335	20.140	4.193	0.498
116.001	140.023	80.001	19.997	103.332	20.139	4.221	0.455
116.501	140.276	79.988	19.996	103.331	20.142	4.042	0.489
117.001	140.505	79.990	19.995	103.330	20.138	4.290	0.495
117.501	140.801	80.000	19.996	103.330	20.141	4.115	0.504
118.000	141.006	80.006	19.994	103.325	20.139	4.243	0.513
118.501	141.232	79.988	19.996	103.327	20.140	4.162	0.465
119.001	141.485	79.998	19.995	103.325	20.137	4.386	0.455
119.500	141.765	79.997	19.994	103.328	20.140	4.193	0.506
120.000	142.005	80.003	19.995	103.327	20.141	4.101	0.527
120.500	142.221	80.001	19.992	103.325	20.136	4.440	0.488
121.001	142.490	80.000	19.995	103.326	20.136	4.487	0.471
121.501	142.714	80.007	19.994	103.330	20.136	4.485	0.490
122.000	142.989	80.001	19.994	103.331	20.136	4.435	0.496
122.500	143.227	80.005	19.993	103.330	20.141	4.126	0.505
123.001	143.506	79.997	19.993	103.335	20.137	4.374	0.515
123.501	143.769	80.002	19.994	103.334	20.137	4.393	0.530
124.000	144.013	80.011	19.993	103.333	20.140	4.210	0.524
124.500	144.202	80.000	19.997	103.332	20.137	4.405	0.470
125.001	144.479	80.012	19.991	103.331	20.136	4.498	0.450
125.501	144.730	79.990	19.996	103.330	20.139	4.234	0.498
126.001	144.994	80.003	19.993	103.328	20.134	4.583	0.522
126.501	145.274	80.015	19.992	103.328	20.138	4.350	0.529
127.000	145.517	80.004	19.993	103.328	20.138	4.311	0.533
127.500	145.750	80.005	19.994	103.331	20.137	4.429	0.499
128.000	146.024	80.006	19.993	103.330	20.138	4.295	0.492
128.500	146.279	80.008	19.993	103.334	20.138	4.319	0.518
129.000	146.530	79.998	19.993	103.334	20.143	3.960	0.517
129.500	146.779	80.001	19.992	103.335	20.136	4.448	0.503
130.000	146.971	79.997	19.992	103.337	20.141	4.137	0.471
130.500	147.280	80.021	19.992	103.335	20.137	4.417	0.471
131.000	147.523	80.000	19.995	103.337	20.138	4.291	0.526
131.500	147.775	80.013	19.993	103.335	20.140	4.183	0.523
132.000	147.995	79.990	19.996	103.334	20.138	4.348	0.483
132.500	148.296	80.011	19.993	103.328	20.139	4.285	0.497
133.000	148.522	80.005	19.992	103.326	20.138	4.297	0.524
133.500	148.751	80.006	19.996	103.320	20.138	4.309	0.491
134.001	149.020	80.013	19.993	103.313	20.143	3.954	0.476
134.501	149.261	80.006	19.996	103.315	20.141	4.090	0.504
135.000	149.524	79.975	19.998	103.318	20.140	4.167	0.507
135.500	149.744	79.991	19.997	103.314	20.139	4.281	0.493
136.000	149.988	80.010	19.995	103.313	20.139	4.263	0.474
136.501	150.318	80.015	19.994	103.319	20.136	4.448	0.519
137.000	150.517	79.996	19.995	103.317	20.142	4.011	0.551
137.500	150.808	80.003	19.995	103.316	20.141	4.088	0.509
138.000	151.012	80.000	19.995	103.320	20.142	4.050	0.493
138.500	151.302	80.006	19.995	103.321	20.141	4.111	0.495
139.000	151.568	79.987	19.993	103.318	20.143	3.952	0.525
139.500	151.834	80.005	19.993	103.314	20.140	4.164	0.543
140.000	152.084	80.002	19.993	103.309	20.140	4.150	0.524
140.500	152.358	80.008	19.993	103.310	20.143	3.983	0.520
141.000	152.609	80.008	19.993	103.311	20.142	4.071	0.525
141.500	152.847	80.004	19.994	103.312	20.141	4.101	0.508
142.000	153.093	80.000	19.992	103.311	20.142	4.072	0.487
142.500	153.334	79.997	19.995	103.315	20.139	4.227	0.485
143.000	153.640	80.013	19.992	103.311	20.141	4.121	0.517
143.500	153.876	79.991	19.994	103.310	20.135	4.513	0.544
144.000	154.142	80.005	19.994	103.311	20.141	4.097	0.522
144.500	154.340	80.001	19.994	103.316	20.138	4.291	0.483
145.000	154.643	80.006	19.994	103.315	20.140	4.172	0.483
145.500	154.896	80.000	19.992	103.316	20.140	4.157	0.528
146.000	155.147	80.000	19.995	103.313	20.138	4.293	0.530
146.500	155.356	80.008	19.995	103.309	20.139	4.281	0.482
147.000	155.683	80.006	19.994	103.308	20.138	4.316	0.498
147.500	155.897	80.001	19.994	103.306	20.145	3.804	0.538
148.000	156.169	80.002	19.996	103.304	20.140	4.162	0.514
148.500	156.434	80.018	19.993	103.300	20.140	4.176	0.512
149.000	156.647	80.012	19.992	103.301	20.138	4.327	0.507
149.500	156.931	80.004	19.995	103.298	20.137	4.363	0.487
150.000	157.167	80.011	19.993	103.294	20.139	4.265	0.508
150.501	157.447	80.000	19.993	103.294	20.138	4.304	0.518
151.001	157.708	80.009	19.994	103.293	20.139	4.249	0.529
151.500	157.971	80.008	19.993	103.292	20.138	4.310	0.532
152.000	158.186	80.002	19.994	103.290	20.139	4.276	0.501
152.500	158.462	80.009	19.994	103.293	20.141	4.095	0.485
153.000	158.713	80.010	19.990	103.292	20.140	4.203	0.509
153.500	158.980	79.996	19.993	103.296	20.138	4.296	0.522
154.000	159.215	80.004	19.994	103.297	20.140	4.172	0.510
154.500	159.479	80.014	19.991	103.296	20.135	4.524	0.500
155.000	159.728	80.003	19.994	103.299	20.141	4.137	0.506
155.501	159.978	80.005	19.992	103.304	20.140	4.200	0.506
156.000	160.228	80.009	19.992	103.303	20.139	4.286	0.499
156.500	160.504	79.993	19.994	103.301	20.137	4.371	0.513
157.000	160.694	80.017	19.992	103.303	20.136	4.442	0.496
157.500	160.985	79.997	19.996	103.299	20.139	4.231	0.473
158.000	161.245	80.001	19.994	103.292	20.141	4.141	0.516
158.500	161.470	80.009	19.993	103.292	20.135	4.519	0.518
159.001	161.755	80.003	19.992	103.292	20.140	4.205	0.497
159.500	162.000	80.008	19.994	103.290	20.137	4.387	0.520
160.000	162.263	80.015	19.989	103.290	20.136	4.452	0.519
160.500	162.493	79.994	19.994	103.295	20.139	4.237	0.501
161.000	162.761	79.998	19.994	103.293	20.138	4.288	0.496
161.500	162.989	80.009	19.995	103.290	20.138	4.296	0.497
162.000	163.263	80.009	19.992	103.288	20.139	4.274	0.499
162.500	163.546	80.008	19.994	103.290	20.138	4.331	0.529
163.001	163.752	79.987	19.997	103.288	20.138	4.310	0.523
163.500	164.029	79.997	19.994	103.286	20.136	4.442	0.486
164.000	164.305	80.014	19.992	103.289	20.140	4.168	0.518
164.500	164.548	79.997	19.994	103.293	20.137	4.393	0.537
165.000	164.794	80.013	19.994	103.288	20.140	4.186	0.504
165.500	165.114	80.017	19.992	103.289	20.137	4.412	0.527
166.000	165.320	80.033	19.989	103.296	20.140	4.154	0.546
166.500	165.588	79.999	19.995	103.302	20.143	3.999	0.500
167.000	165.855	80.005	19.995	103.298	20.140	4.207	0.504
167.500	166.078	80.004	19.993	103.302	20.141	4.093	0.512
168.000	166.371	80.009	19.994	103.306	20.142	4.032	0.503
168.501	166.615	79.985	19.995	103.302	20.140	4.148	0.527
169.001	166.857	80.005	19.994	103.294	20.140	4.160	0.512
169.500	167.110	80.000	19.998	103.298	20.139	4.223	0.490
170.000	167.376	80.009	19.992	103.293	20.136	4.439	0.507
170.500	167.615	80.003	19.992	103.294	20.141	4.116	0.512
171.000	167.861	80.007	19.994	103.292	20.140	4.205	0.495
171.500	168.119	79.996	19.992	103.295	20.139	4.274	0.494
172.000	168.363	79.986	19.996	103.291	20.138	4.317	0.503
172.500	168.633	79.986	19.995	103.292	20.138	4.317	0.508
173.000	168.882	80.017	19.994	103.287	20.140	4.213	0.517
173.500	169.076	80.000	19.997	103.290	20.137	4.390	0.481
174.000	169.366	80.004	19.995	103.289	20.140	4.212	0.464
174.500	169.691	79.998	19.993	103.289	20.138	4.324	0.550
175.000	169.887	80.010	19.993	103.291	20.139	4.257	0.568
175.500	170.126	80.000	19.995	103.293	20.143	3.962	0.478
176.000	170.379	80.006	19.996	103.289	20.140	4.175	0.463
176.500	170.633	80.008	19.993	103.288	20.141	4.088	0.500
177.000	170.899	80.014	19.996	103.289	20.140	4.183	0.514
177.500	171.149	79.990	19.995	103.289	20.144	3.890	0.518
178.000	171.369	80.002	19.998	103.284	20.141	4.087	0.493
178.500	171.653	80.000	19.998	103.282	20.138	4.340	0.487
179.000	171.876	80.004	19.995	103.281	20.140	4.165	0.506
179.500	172.159	79.987	19.994	103.278	20.142	4.041	0.506
180.000	172.425	80.005	19.994	103.276	20.141	4.126	0.527
180.500	172.674	80.004	19.994	103.279	20.140	4.171	0.532
181.000	172.908	80.008	19.996	103.279	20.140	4.169	0.499
181.500	173.212	80.003	19.995	103.280	20.138	4.357	0.511
182.000	173.430	79.992	20.000	103.283	20.141	4.134	0.530
182.500	173.678	79.993	19.999	103.283	20.141	4.130	0.494
183.000	173.924	79.997	19.995	103.279	20.141	4.095	0.480
183.500	174.179	80.006	19.996	103.281	20.142	4.034	0.497
184.000	174.396	80.000	19.995	103.276	20.141	4.113	0.486
184.500	174.684	80.004	19.995	103.271	20.144	3.917	0.489
185.000	174.921	79.998	20.000	103.266	20.139	4.242	0.515
185.500	175.135	79.983	19.999	103.261	20.141	4.133	0.488
186.000	175.406	80.018	19.990	103.253	20.140	4.171	0.468
186.500	175.662	80.009	19.993	103.260	20.141	4.100	0.507
187.000	175.896	80.002	19.996	103.265	20.141	4.139	0.508
187.500	176.181	79.994	19.995	103.271	20.144	3.907	0.504
188.000	176.407	80.006	19.995	103.276	20.142	4.047	0.515
188.500	176.665	80.015	19.991	103.278	20.142	4.060	0.497
189.000	176.867	79.982	19.996	103.276	20.140	4.202	0.472
189.500	177.182	79.999	20.000	103.273	20.141	4.090	0.488
190.000	177.433	80.004	19.995	103.272	20.140	4.200	0.542
190.500	177.701	79.981	19.996	103.274	20.144	3.884	0.543
191.000	177.923	80.004	19.991	103.276	20.140	4.147	0.504
191.500	178.147	80.013	19.993	103.275	20.143	3.956	0.467
192.000	178.425	80.009	19.993	103.277	20.139	4.277	0.473
192.500	178.663	80.017	19.991	103.280	20.140	4.196	0.509
193.000	178.885	79.997	19.994	103.283	20.139	4.226	0.489
193.500	179.173	80.016	19.993	103.286	20.140	4.206	0.485
194.000	179.383	79.993	19.995	103.290	20.141	4.080	0.504
194.500	179.655	80.001	19.990	103.287	20.138	4.291	0.490
195.000	179.906	79.999	19.998	103.285	20.140	4.194	0.502
195.500	180.140	79.986	19.994	103.279	20.141	4.135	0.504
196.000	180.388	80.005	19.993	103.271	20.138	4.353	0.484
196.500	180.660	80.000	19.990	103.263	20.137	4.418	0.501
197.000	180.937	79.998	19.995	103.262	20.140	4.172	0.534
197.500	181.102	80.003	19.996	103.259	20.141	4.105	0.495
198.000	181.393	80.008	19.994	103.259	20.139	4.225	0.449
198.500	181.630	80.012	19.996	103.263	20.139	4.218	0.492
199.000	181.873	80.007	19.992	103.261	20.140	4.143	0.504
199.500	182.119	80.002	19.993	103.261	20.136	4.495	0.484
200.000	182.381	80.005	19.996	103.264	20.139	4.237	0.499
200.500	182.578	80.013	19.992	103.267	20.139	4.243	0.484
201.000	182.854	80.002	19.995	103.266	20.136	4.448	0.466
201.500	183.109	80.006	19.991	103.265	20.139	4.263	0.502
202.000	183.369	80.003	19.994	103.266	20.134	4.625	0.523
202.500	183.591	79.998	19.998	103.261	20.137	4.397	0.498
203.000	183.808	79.997	20.000	103.256	20.136	4.485	0.460
203.500	184.060	80.000	19.997	103.255	20.135	4.511	0.454
204.000	184.336	80.004	19.994	103.260	20.134	4.607	0.499
204.500	184.588	80.017	19.991	103.260	20.133	4.666	0.528
205.000	184.838	80.012	19.995	103.261	20.133	4.658	0.515
205.500	185.081	80.002	19.998	103.263	20.131	4.798	0.498
206.000	185.292	80.006	19.997	103.260	20.134	4.623	0.473
206.500	185.569	80.000	19.995	103.253	20.134	4.645	0.471
207.000	185.868	79.984	19.999	103.249	20.135	4.568	0.532
207.500	186.066	79.993	19.995	103.246	20.133	4.647	0.536
208.000	186.329	80.001	19.996	103.242	20.134	4.574	0.479
208.500	186.620	79.996	19.994	103.248	20.132	4.771	0.508
209.000	186.809	79.993	19.996	103.250	20.133	4.708	0.517
209.501	187.075	80.012	19.996	103.250	20.133	4.702	0.467
210.000	187.322	79.984	19.997	103.251	20.130	4.887	0.484
210.500	187.540	79.983	20.004	103.253	20.137	4.377	0.490
211.000	187.764	80.010	19.996	103.248	20.132	4.767	0.454
211.500	188.070	80.000	19.996	103.247	20.134	4.621	0.486
212.000	188.310	79.987	19.997	103.248	20.131	4.796	0.538
212.500	188.585	80.014	19.993	103.245	20.131	4.838	0.531
213.000	188.803	80.003	19.996	103.247	20.134	4.629	0.504
213.500	189.051	79.995	19.995	103.251	20.135	4.543	0.479
214.000	189.295	80.002	19.995	103.251	20.133	4.690	0.479
214.500	189.515	80.015	19.993	103.252	20.134	4.616	0.479
215.000	189.728	79.997	19.996	103.257	20.135	4.564	0.449
215.500	190.040	80.011	19.996	103.250	20.137	4.381	0.478
216.001	190.245	80.004	19.994	103.251	20.131	4.808	0.521
216.500	190.498	79.995	19.995	103.254	20.135	4.566	0.488
217.000	190.747	80.011	19.991	103.256	20.132	4.777	0.481
217.500	190.970	80.014	19.992	103.255	20.135	4.523	0.487
218.000	191.180	80.010	19.990	103.261	20.134	4.594	0.452
218.500	191.471	80.013	19.996	103.262	20.137	4.409	0.467
219.000	191.712	80.002	19.993	103.262	20.134	4.582	0.517
219.500	191.957	80.005	19.991	103.259	20.130	4.865	0.509
220.000	192.168	79.997	19.995	103.260	20.132	4.771	0.471
220.500	192.430	80.005	19.992	103.258	20.132	4.737	0.465
221.000	192.718	80.003	19.992	103.256	20.133	4.688	0.511
221.500	192.968	80.000	19.995	103.255	20.133	4.686	0.544
222.000	193.176	80.012	19.992	103.255	20.134	4.619	0.498
222.500	193.407	79.991	19.994	103.256	20.128	5.056	0.449
223.000	193.675	80.012	19.991	103.255	20.128	5.040	0.469
223.500	193.927	79.999	19.996	103.257	20.132	4.781	0.510
224.000	194.139	79.995	19.994	103.257	20.127	5.096	0.492
224.500	194.431	80.013	19.990	103.257	20.131	4.808	0.484
225.000	194.645	80.002	19.996	103.260	20.126	5.161	0.504
225.500	194.895	80.000	19.997	103.262	20.127	5.114	0.485
226.000	195.138	80.002	20.000	103.259	20.125	5.245	0.479
226.500	195.386	80.016	19.985	103.257	20.126	5.177	0.492
227.000	195.672	80.011	19.994	103.261	20.128	5.011	0.513
227.500	195.871	80.010	19.995	103.260	20.126	5.181	0.509
228.000	196.141	79.994	19.997	103.260	20.124	5.342	0.477
228.501	196.366	80.004	19.995	103.262	20.128	5.059	0.482
229.000	196.575	80.002	19.996	103.264	20.128	5.063	0.464
229.500	196.866	80.012	19.996	103.258	20.128	5.009	0.467
230.000	197.091	80.005	19.993	103.254	20.126	5.151	0.508
230.500	197.359	80.002	19.993	103.253	20.125	5.249	0.504
231.000	197.604	80.007	19.992	103.252	20.129	4.964	0.503
231.500	197.773	79.986	19.996	103.254	20.126	5.170	0.464
232.000	198.114	80.014	19.990	103.251	20.126	5.164	0.462
232.500	198.325	80.018	19.995	103.255	20.128	5.064	0.531
233.000	198.555	80.002	19.995	103.255	20.127	5.105	0.496
233.500	198.866	80.014	19.990	103.252	20.124	5.320	0.491
234.000	199.046	79.993	19.994	103.252	20.124	5.298	0.516
234.500	199.326	80.010	19.998	103.258	20.128	5.017	0.475
235.000	199.540	80.009	19.994	103.256	20.127	5.137	0.477
235.500	199.785	80.005	19.993	103.258	20.128	5.027	0.477
236.000	200.043	80.024	19.993	103.262	20.125	5.232	0.481
236.500	200.280	80.013	19.994	103.262	20.125	5.279	0.499
237.000	200.545	80.003	19.994	103.262	20.125	5.267	0.499
237.500	200.774	80.013	19.995	103.264	20.124	5.342	0.498
238.000	201.051	80.007	19.996	103.264	20.125	5.277	0.500
238.500	201.239	80.033	19.992	103.266	20.123	5.383	0.485
239.000	201.530	80.009	19.994	103.268	20.123	5.375	0.471
239.500	201.769	79.990	19.995	103.270	20.126	5.208	0.505
240.000	202.012	79.986	19.997	103.268	20.126	5.164	0.506
240.500	202.179	79.997	19.994	103.264	20.125	5.290	0.446
241.000	202.479	80.004	19.995	103.260	20.124	5.358	0.439
241.500	202.744	80.007	19.989	103.255	20.126	5.194	0.516
242.000	202.963	79.991	19.995	103.255	20.124	5.359	0.524
242.500	203.192	80.006	19.995	103.255	20.125	5.245	0.466
243.000	203.458	80.004	19.994	103.257	20.123	5.427	0.472
243.500	203.701	79.989	20.000	103.259	20.123	5.373	0.502
244.001	203.951	79.998	19.992	103.255	20.122	5.499	0.501
244.501	204.180	79.993	19.993	103.252	20.125	5.257	0.486
245.001	204.454	80.022	19.993	103.252	20.119	5.655	0.491
245.500	204.692	80.010	19.994	103.256	20.122	5.483	0.508
246.000	204.959	80.008	19.990	103.258	20.122	5.462	0.509
246.500	205.194	80.007	20.000	103.263	20.122	5.470	0.503
247.000	205.473	79.994	19.999	103.262	20.122	5.438	0.508
247.500	205.681	79.998	19.993	103.262	20.120	5.580	0.500
248.000	205.936	80.009	19.995	103.259	20.121	5.576	0.475
248.500	206.183	80.007	19.996	103.260	20.121	5.526	0.483
249.000	206.468	80.003	19.993	103.256	20.121	5.560	0.517
249.500	206.673	80.024	19.989	103.257	20.124	5.345	0.511
250.001	206.910	79.994	20.000	103.261	20.123	5.428	0.466
250.500	207.176	80.007	19.993	103.257	20.124	5.302	0.473
251.000	207.425	80.002	19.995	103.256	20.121	5.529	0.509
251.500	207.727	80.018	19.992	103.257	20.119	5.686	0.533
252.000	207.952	80.000	19.994	103.260	20.123	5.428	0.539
252.500	208.201	80.006	19.993	103.255	20.122	5.501	0.501
253.000	208.424	79.994	19.994	103.259	20.125	5.282	0.472
253.500	208.718	80.012	19.989	103.259	20.122	5.465	0.494
254.000	208.945	79.999	19.994	103.264	20.122	5.492	0.519
254.500	209.150	79.998	20.000	103.261	20.121	5.530	0.476
255.000	209.407	80.008	19.993	103.260	20.124	5.349	0.447
255.500	209.677	80.012	19.991	103.261	20.118	5.766	0.495
256.000	209.910	80.003	19.995	103.260	20.121	5.521	0.515
256.500	210.153	80.007	19.991	103.256	20.122	5.448	0.490
257.000	210.397	80.004	19.994	103.259	20.119	5.710	0.482
257.500	210.632	80.013	19.989	103.259	20.117	5.861	0.483
258.000	210.874	79.993	19.995	103.259	20.119	5.671	0.478
258.500	211.135	80.002	19.998	103.255	20.119	5.672	0.490
259.000	211.369	80.003	19.994	103.252	20.118	5.731	0.499
259.500	211.618	80.005	19.993	103.248	20.114	6.050	0.490
260.000	211.856	80.013	19.992	103.252	20.113	6.145	0.485
260.500	212.149	80.001	19.995	103.251	20.117	5.812	0.508
261.000	212.347	80.002	19.991	103.253	20.116	5.912	0.511
261.500	212.647	80.007	19.992	103.258	20.119	5.682	0.494
262.000	212.945	79.993	19.993	103.262	20.115	5.961	0.548
262.500	213.139	79.991	19.997	103.263	20.118	5.746	0.545
263.000	213.379	79.997	20.002	103.259	20.117	5.837	0.463
263.500	213.612	80.000	19.997	103.256	20.116	5.904	0.453
264.000	213.863	80.003	19.995	103.251	20.118	5.780	0.478
264.500	214.121	80.006	19.996	103.248	20.119	5.705	0.496
265.000	214.379	80.011	19.994	103.243	20.120	5.615	0.513
265.500	214.607	79.990	19.993	103.245	20.118	5.723	0.501
266.001	214.890	80.000	19.996	103.246	20.119	5.681	0.498
266.500	215.102	80.030	19.990	103.248	20.118	5.786	0.502
267.000	215.400	80.021	19.992	103.254	20.116	5.865	0.502
267.500	215.579	80.001	19.999	103.259	20.115	5.977	0.494
268.000	215.906	80.002	19.994	103.257	20.118	5.747	0.492
268.500	216.102	80.009	19.991	103.260	20.116	5.893	0.514
269.000	216.342	80.011	19.996	103.262	20.116	5.891	0.480
269.500	216.588	79.994	19.991	103.256	20.117	5.822	0.461
270.000	216.823	80.008	19.995	103.252	20.116	5.871	0.483
270.500	217.101	80.011	19.992	103.256	20.117	5.853	0.497
271.000	217.351	79.996	19.999	103.258	20.114	6.042	0.520
271.500	217.584	79.981	19.999	103.252	20.115	6.003	0.506
272.000	217.854	80.004	19.989	103.252	20.113	6.130	0.493
272.500	218.057	80.004	19.998	103.253	20.116	5.914	0.488
273.000	218.326	80.002	19.991	103.248	20.116	5.888	0.472
273.500	218.534	80.003	19.993	103.247	20.114	6.048	0.474
274.000	218.791	80.004	19.994	103.250	20.116	5.898	0.471
274.500	219.079	79.983	19.996	103.251	20.115	5.992	0.505
275.000	219.324	80.001	19.998	103.250	20.114	6.033	0.539
275.500	219.555	80.004	19.994	103.252	20.116	5.921	0.505
276.000	219.820	79.995	19.996	103.250	20.114	6.038	0.486
276.500	220.052	80.005	19.995	103.248	20.117	5.815	0.496
277.000	220.326	80.017	19.994	103.245	20.117	5.800	0.501
277.500	220.605	80.001	19.994	103.249	20.111	6.286	0.530
278.000	220.856	79.996	20.000	103.249	20.116	5.879	0.542
278.500	221.083	80.004	19.995	103.251	20.114	6.038	0.504
279.000	221.302	80.011	19.992	103.252	20.114	6.070	0.462
279.500	221.560	79.994	19.999	103.256	20.115	5.991	0.461
280.000	221.866	80.011	19.987	103.253	20.114	6.054	0.520
280.500	222.087	80.003	19.994	103.255	20.112	6.204	0.546
281.000	222.340	79.994	19.998	103.254	20.115	5.979	0.500
281.500	222.606	79.999	19.995	103.254	20.112	6.174	0.496
282.000	222.827	79.998	19.995	103.252	20.114	6.053	0.503
282.500	223.093	80.007	19.989	103.250	20.117	5.847	0.487
283.000	223.293	80.007	19.999	103.250	20.115	5.976	0.476
283.500	223.540	79.988	19.992	103.250	20.117	5.862	0.456
284.000	223.809	79.994	19.994	103.249	20.115	5.949	0.481
284.500	224.035	79.996	19.996	103.247	20.120	5.636	0.506
285.000	224.288	79.991	20.000	103.246	20.117	5.831	0.487
285.500	224.521	79.995	19.998	103.243	20.115	5.963	0.482
286.001	224.782	80.005	19.991	103.240	20.119	5.662	0.490
286.500	225.018	80.009	19.994	103.242	20.113	6.089	0.496
287.000	225.289	80.003	19.997	103.246	20.115	5.955	0.502
287.500	225.553	79.998	19.999	103.247	20.112	6.207	0.521
288.000	225.766	80.007	19.997	103.247	20.119	5.715	0.506
288.500	226.071	80.007	19.994	103.250	20.113	6.087	0.497
289.001	226.358	80.014	19.990	103.250	20.115	5.967	0.555
289.501	226.589	80.000	19.996	103.252	20.117	5.863	0.555
290.000	226.823	80.006	19.994	103.255	20.110	6.324	0.492
290.500	227.051	80.022	19.992	103.258	20.115	5.950	0.464
291.000	227.345	80.008	19.994	103.261	20.115	5.946	0.492
291.500	227.547	79.989	19.991	103.259	20.113	6.136	0.509
292.000	227.834	79.994	20.000	103.256	20.118	5.733	0.492
292.500	228.058	79.997	20.000	103.250	20.113	6.103	0.500
293.000	228.341	80.007	19.994	103.245	20.115	5.959	0.509
293.500	228.581	80.001	19.994	103.242	20.117	5.861	0.515
294.000	228.862	79.996	19.997	103.241	20.114	6.016	0.522
294.500	229.046	79.994	19.997	103.242	20.117	5.843	0.493
295.000	229.376	79.998	20.000	103.242	20.116	5.929	0.489
295.500	229.596	80.002	19.995	103.243	20.119	5.691	0.531
296.000	229.861	80.005	19.992	103.244	20.117	5.803	0.517
296.500	230.105	79.983	19.999	103.245	20.118	5.750	0.498
297.000	230.411	79.995	19.996	103.241	20.117	5.848	0.530
297.500	230.634	79.995	19.996	103.244	20.112	6.152	0.539
298.000	230.892	80.013	19.996	103.242	20.113	6.081	0.505
298.500	231.148	80.004	19.998	103.244	20.112	6.180	0.498
299.000	231.381	80.007	19.995	103.242	20.111	6.245	0.502
299.500	231.647	80.005	19.991	103.244	20.116	5.877	0.494
300.000	231.899	80.024	19.994	103.248	20.116	5.882	0.509
300.500	232.114	79.997	19.995	103.254	20.115	5.986	0.492
301.000	232.384	80.014	19.993	103.253	20.117	5.847	0.476
301.500	232.569	79.987	19.999	103.257	20.115	6.006	0.470
302.000	232.868	80.020	19.996	103.253	20.117	5.800	0.470
302.500	233.111	79.998	19.995	103.252	20.116	5.935	0.513
303.000	233.362	80.001	19.996	103.249	20.118	5.759	0.518
303.500	233.639	80.011	19.994	103.246	20.117	5.851	0.511
304.000	233.898	80.021	19.990	103.243	20.117	5.822	0.532
304.500	234.146	80.000	19.994	103.254	20.117	5.808	0.521
305.000	234.399	79.995	19.999	103.252	20.115	5.981	0.504
305.500	234.626	79.988	19.997	103.251	20.116	5.875	0.491
306.000	234.894	80.009	19.990	103.245	20.117	5.857	0.487
306.500	235.113	79.982	19.995	103.242	20.120	5.583	0.491
307.000	235.452	80.009	19.990	103.231	20.117	5.811	0.523
307.500	235.669	80.014	19.995	103.233	20.118	5.722	0.557
308.000	235.871	80.009	19.990	103.238	20.114	6.053	0.488
308.500	236.150	80.007	19.993	103.249	20.116	5.870	0.450
309.000	236.388	79.999	19.992	103.251	20.115	6.006	0.499
309.500	236.635	80.004	19.995	103.257	20.120	5.599	0.501
310.000	236.904	80.017	19.992	103.252	20.117	5.849	0.501
310.500	237.146	80.006	19.996	103.252	20.120	5.619	0.513
311.000	237.344	80.000	19.995	103.248	20.116	5.886	0.475
311.500	237.662	80.012	19.986	103.243	20.120	5.577	0.478
312.000	237.885	80.007	19.994	103.243	20.114	6.062	0.528
312.500	238.120	79.998	19.993	103.247	20.114	6.052	0.500
313.000	238.353	80.003	19.990	103.245	20.119	5.705	0.463
313.500	238.633	80.017	19.988	103.245	20.118	5.768	0.491
314.000	238.854	80.015	19.992	103.252	20.117	5.839	0.507
314.500	239.101	80.009	19.993	103.251	20.114	6.022	0.484
315.000	239.369	80.004	19.991	103.251	20.114	6.038	0.491
315.500	239.612	79.989	19.992	103.256	20.111	6.235	0.513
316.000	239.909	80.005	19.994	103.255	20.115	5.997	0.525
316.500	240.101	80.003	19.994	103.252	20.112	6.200	0.514
317.000	240.389	80.006	19.996	103.246	20.114	6.029	0.484
317.500	240.636	80.007	19.993	103.243	20.116	5.932	0.508
318.000	240.861	80.002	19.994	103.235	20.119	5.652	0.504
318.500	241.122	79.995	19.998	103.236	20.117	5.826	0.479
319.000	241.385	79.990	19.993	103.236	20.116	5.914	0.504
319.500	241.677	80.008	19.991	103.242	20.116	5.934	0.539
320.000	241.915	80.006	19.989	103.245	20.113	6.132	0.542
320.500	242.136	80.012	19.994	103.251	20.113	6.093	0.495
321.000	242.389	79.992	19.994	103.253	20.113	6.096	0.467
321.500	242.672	80.016	19.994	103.251	20.115	5.959	0.505
322.000	242.916	79.991	19.994	103.250	20.113	6.139	0.531
322.500	243.159	80.001	19.993	103.249	20.111	6.246	0.506
323.000	243.404	79.986	19.997	103.251	20.113	6.108	0.487
323.500	243.671	79.992	19.997	103.246	20.111	6.226	0.500
324.000	243.894	80.004	19.994	103.250	20.116	5.923	0.501
324.500	244.146	80.009	19.997	103.251	20.113	6.091	0.483
325.000	244.402	80.008	19.990	103.251	20.111	6.225	0.492
325.500	244.658	80.013	19.995	103.250	20.115	5.984	0.510
326.000	244.926	80.003	19.986	103.257	20.113	6.081	0.518
326.500	245.126	79.998	19.993	103.260	20.112	6.176	0.496
327.000	245.414	80.009	19.988	103.259	20.114	6.036	0.478
327.500	245.639	79.989	19.994	103.261	20.114	6.067	0.500
328.000	245.886	80.013	19.990	103.257	20.111	6.260	0.493
328.500	246.105	80.000	19.997	103.256	20.108	6.475	0.469
329.000	246.369	80.004	19.998	103.254	20.114	6.009	0.474
329.500	246.627	79.992	19.991	103.254	20.116	5.893	0.502
330.000	246.903	80.005	19.988	103.252	20.116	5.904	0.528
330.500	247.124	79.987	19.990	103.255	20.110	6.335	0.516
331.000	247.351	80.000	19.998	103.249	20.111	6.256	0.473
331.500	247.630	80.002	19.995	103.244	20.112	6.166	0.476
332.000	247.888	80.008	19.992	103.240	20.112	6.158	0.521
332.500	248.107	79.990	19.999	103.238	20.111	6.264	0.507
333.000	248.333	80.002	19.995	103.232	20.113	6.091	0.461
333.500	248.648	80.000	19.995	103.235	20.103	6.806	0.493
334.000	248.851	80.004	19.991	103.236	20.110	6.326	0.529
334.500	249.158	79.991	19.999	103.239	20.112	6.184	0.514
335.000	249.398	80.003	19.992	103.240	20.110	6.349	0.529
335.500	249.685	80.001	19.994	103.244	20.111	6.248	0.537
336.000	249.900	79.994	19.992	103.244	20.107	6.530	0.514
336.500	250.214	79.991	19.994	103.244	20.109	6.417	0.515
337.000	250.463	80.008	19.992	103.243	20.107	6.563	0.546
337.500	250.701	79.981	19.993	103.247	20.106	6.603	0.525
338.000	250.947	80.005	19.993	103.245	20.110	6.322	0.486
338.501	251.170	79.998	19.996	103.249	20.107	6.542	0.476
339.000	251.429	80.004	19.992	103.250	20.108	6.479	0.476
339.500	251.731	80.007	19.993	103.253	20.107	6.544	0.522
340.000	251.989	80.006	19.992	103.252	20.107	6.579	0.560
340.500	252.166	80.008	19.991	103.254	20.105	6.695	0.497
341.000	252.435	80.002	19.994	103.251	20.105	6.657	0.441
341.500	252.706	80.006	19.990	103.251	20.105	6.667	0.493
342.000	252.922	80.000	19.994	103.249	20.103	6.852	0.513
342.500	253.210	80.007	19.992	103.246	20.105	6.696	0.496
343.000	253.460	80.012	19.992	103.249	20.101	6.952	0.521
343.500	253.738	80.022	19.992	103.249	20.100	7.016	0.533
344.000	253.962	80.017	19.993	103.255	20.099	7.151	0.515
344.500	254.216	80.004	19.994	103.257	20.103	6.801	0.490
345.000	254.445	79.990	19.995	103.260	20.102	6.884	0.480
345.501	254.697	79.995	19.994	103.251	20.099	7.100	0.482
346.001	254.931	80.000	19.994	103.248	20.101	6.985	0.484
346.500	255.223	79.994	19.989	103.244	20.106	6.593	0.506
347.000	255.515	80.013	19.995	103.245	20.102	6.927	0.555
347.500	255.693	79.982	19.991	103.244	20.101	6.996	0.527
348.000	255.955	80.003	19.989	103.251	20.103	6.863	0.456
348.500	256.204	80.013	19.994	103.254	20.098	7.172	0.476
349.001	256.455	80.013	19.994	103.255	20.100	7.058	0.505
349.501	256.709	80.007	19.998	103.256	20.100	7.038	0.502
350.000	256.943	80.001	19.993	103.255	20.094	7.494	0.497
350.500	257.170	79.996	19.995	103.254	20.095	7.439	0.475
351.000	257.402	79.990	19.993	103.253	20.100	7.071	0.460
351.500	257.650	79.978	19.997	103.245	20.097	7.295	0.470
352.000	257.940	80.015	19.995	103.238	20.100	7.051	0.509
352.500	258.191	80.000	19.995	103.239	20.096	7.358	0.539
353.000	258.429	80.001	19.995	103.237	20.091	7.675	0.515
353.500	258.698	79.999	19.994	103.237	20.096	7.355	0.498
354.000	258.990	80.001	19.993	103.241	20.096	7.337	0.534
354.500	259.189	80.005	19.993	103.245	20.100	7.014	0.526
355.000	259.424	79.999	19.995	103.244	20.094	7.446	0.462
355.500	259.703	80.002	19.998	103.245	20.094	7.483	0.474
356.000	259.936	80.000	19.998	103.245	20.093	7.554	0.512
356.500	260.151	80.017	19.994	103.247	20.093	7.571	0.480
357.000	260.404	79.991	20.001	103.249	20.093	7.558	0.458
357.500	260.668	80.005	19.993	103.245	20.092	7.650	0.493
358.000	260.923	79.981	19.994	103.248	20.089	7.817	0.518
358.500	261.169	80.017	19.991	103.249	20.089	7.829	0.510
359.000	261.401	80.005	19.992	103.251	20.090	7.792	0.489
359.500	261.682	80.001	19.995	103.250	20.091	7.717	0.496
360.000	261.943	80.000	20.000	103.254	20.087	7.995	0.528
360.500	262.192	79.996	19.996	103.250	20.091	7.703	0.526
361.000	262.460	79.993	19.994	103.251	20.088	7.904	0.513
361.500	262.696	79.994	19.995	103.249	20.087	8.004	0.511
362.000	262.930	80.006	19.994	103.246	20.084	8.170	0.487
362.500	263.190	80.000	19.997	103.245	20.087	7.955	0.482
363.000	263.444	79.998	19.996	103.247	20.085	8.120	0.503
363.500	263.713	80.010	19.991	103.248	20.087	7.953	0.518
364.000	263.912	80.006	19.994	103.250	20.086	8.075	0.496
364.500	264.202	79.984	19.996	103.254	20.082	8.368	0.479
365.000	264.441	80.005	19.994	103.253	20.085	8.124	0.509
365.500	264.728	79.991	19.999	103.254	20.083	8.246	0.527
366.000	264.921	80.007	19.999	103.257	20.081	8.388	0.503
366.500	265.172	80.000	19.997	103.256	20.079	8.585	0.462
367.000	265.432	79.984	19.997	103.254	20.080	8.455	0.478
367.500	265.714	80.011	19.992	103.253	20.080	8.449	0.527
368.000	265.950	80.004	19.993	103.255	20.084	8.199	0.530
368.500	266.194	80.008	19.994	103.252	20.080	8.471	0.499
369.000	266.480	80.008	19.991	103.252	20.078	8.644	0.505
369.500	266.676	80.001	19.996	103.254	20.078	8.610	0.506
370.000	266.946	80.001	19.995	103.257	20.080	8.496	0.474
370.500	267.191	80.007	19.993	103.255	20.079	8.522	0.491
371.000	267.453	80.003	19.994	103.254	20.081	8.429	0.511
371.500	267.668	80.006	19.993	103.254	20.073	8.957	0.492
372.000	267.961	79.998	20.003	103.255	20.076	8.770	0.492
372.500	268.170	80.009	19.996	103.254	20.078	8.648	0.505
373.000	268.442	79.995	19.996	103.254	20.075	8.824	0.492
373.500	268.690	80.000	19.995	103.254	20.076	8.755	0.500
374.000	268.940	80.004	19.996	103.253	20.074	8.920	0.509
374.500	269.213	80.006	19.997	103.252	20.076	8.770	0.511
375.000	269.472	79.997	19.993	103.254	20.074	8.909	0.528
375.500	269.733	80.006	20.000	103.253	20.073	9.010	0.526
376.000	269.984	80.001	19.992	103.254	20.071	9.148	0.516
376.500	270.227	80.013	19.994	103.254	20.070	9.167	0.503
377.000	270.463	80.012	19.994	103.255	20.067	9.412	0.486
377.500	270.755	80.007	19.992	103.254	20.068	9.310	0.503
378.000	270.981	79.991	19.996	103.257	20.069	9.278	0.523
378.500	271.231	79.992	19.993	103.254	20.070	9.176	0.498
379.000	271.507	80.002	19.993	103.252	20.067	9.400	0.501
379.500	271.775	79.995	19.995	103.251	20.067	9.404	0.535
380.000	272.003	79.994	19.996	103.250	20.065	9.577	0.520
380.500	272.240	79.989	19.997	103.247	20.064	9.631	0.480
381.000	272.522	80.002	19.993	103.247	20.060	9.918	0.492
381.500	272.752	79.997	19.993	103.249	20.060	9.921	0.515
382.000	273.054	80.003	19.995	103.249	20.062	9.772	0.522
382.500	273.257	80.003	19.998	103.251	20.060	9.884	0.519
383.000	273.551	80.007	19.987	103.253	20.056	10.181	0.501
383.500	273.810	80.007	19.994	103.259	20.058	10.053	0.525
384.000	274.023	80.011	19.992	103.260	20.063	9.679	0.513
384.500	274.295	80.008	19.995	103.261	20.056	10.181	0.478
385.000	274.511	79.990	19.999	103.261	20.056	10.173	0.486
385.500	274.778	79.995	19.992	103.256	20.057	10.147	0.486
386.000	275.017	80.000	19.991	103.252	20.053	10.439	0.495
386.500	275.301	80.003	19.994	103.253	20.051	10.541	0.514
387.000	275.516	79.997	19.998	103.252	20.052	10.489	0.511
387.500	275.807	79.991	20.000	103.252	20.051	10.597	0.503
388.000	276.009	80.001	19.994	103.259	20.049	10.737	0.499
388.500	276.276	79.996	20.003	103.261	20.045	11.025	0.481
389.000	276.531	80.006	19.997	103.255	20.049	10.738	0.496
389.500	276.783	80.007	19.994	103.257	20.048	10.767	0.515
390.000	277.029	79.997	19.995	103.261	20.045	10.970	0.502
390.500	277.308	80.007	19.997	103.262	20.045	11.025	0.511
391.000	277.526	79.997	19.993	103.260	20.039	11.413	0.511
391.500	277.833	80.006	19.987	103.262	20.042	11.210	0.511
392.000	278.023	80.014	19.992	103.259	20.044	11.086	0.511
392.500	278.287	80.005	19.992	103.255	20.043	11.147	0.476
393.000	278.501	80.002	19.992	103.254	20.041	11.304	0.466
393.500	278.763	80.020	19.998	103.251	20.040	11.368	0.477
394.000	279.054	80.005	19.992	103.253	20.043	11.164	0.515
394.500	279.278	80.010	19.994	103.253	20.039	11.432	0.534
395.000	279.518	79.992	19.995	103.255	20.036	11.626	0.489
395.500	279.810	80.009	19.992	103.251	20.035	11.690	0.498
396.000	280.028	79.987	19.999	103.252	20.038	11.503	0.522
396.500	280.291	80.014	19.992	103.252	20.035	11.728	0.496
397.000	280.547	79.993	19.995	103.257	20.035	11.707	0.500
397.500	280.753	80.004	19.993	103.256	20.034	11.795	0.490
398.000	281.078	80.017	19.993	103.259	20.028	12.182	0.496
398.500	281.282	79.979	19.994	103.262	20.030	12.092	0.530
399.000	281.577	80.010	19.991	103.259	20.028	12.216	0.514
399.500	281.781	80.005	19.992	103.255	20.028	12.214	0.499
400.000	282.004	79.987	19.994	103.255	20.025	12.399	0.463
400.500	282.249	80.010	19.989	103.252	20.029	12.165	0.447
401.000	282.503	80.010	19.999	103.251	20.022	12.613	0.484
401.500	282.777	79.996	19.998	103.254	20.027	12.321	0.514
402.000	283.021	79.988	19.995	103.255	20.022	12.674	0.523
402.500	283.254	79.998	19.997	103.251	20.022	12.619	0.498
403.000	283.527	79.996	20.002	103.252	20.018	12.915	0.491
403.501	283.778	80.003	19.995	103.247	20.018	12.949	0.515
404.001	284.033	80.011	19.994	103.249	20.019	12.877	0.516
404.501	284.284	80.008	19.987	103.253	20.018	12.945	0.506
405.000	284.519	79.995	19.996	103.262	20.017	12.980	0.496
405.500	284.810	80.022	19.992	103.264	20.014	13.222	0.506
406.000	285.062	79.990	19.999	103.277	20.013	13.307	0.534
406.500	285.284	80.013	19.991	103.282	20.014	13.207	0.508
407.000	285.519	79.988	20.000	103.282	20.013	13.299	0.466
407.500	285.783	80.009	19.989	103.273	20.013	13.278	0.478
408.000	286.033	80.017	19.991	103.277	20.009	13.611	0.506
408.500	286.292	79.998	20.000	103.271	20.009	13.595	0.512
409.000	286.560	79.995	19.995	103.268	20.008	13.684	0.518
409.500	286.793	79.999	19.998	103.267	20.006	13.816	0.514
410.000	287.053	80.004	19.998	103.273	20.006	13.779	0.496
410.500	287.302	79.998	19.996	103.273	20.005	13.843	0.501
411.000	287.532	79.989	19.995	103.269	20.004	13.912	0.494
411.500	287.834	80.003	19.994	103.268	20.001	14.139	0.506
412.000	288.053	79.992	19.992	103.264	20.001	14.120	0.527
412.500	288.293	80.002	19.997	103.262	19.999	14.292	0.490
413.000	288.534	80.007	19.992	103.262	20.001	14.181	0.470
413.500	288.796	80.002	19.992	103.267	20.001	14.140	0.492
414.000	289.069	79.999	19.995	103.273	19.995	14.585	0.519
414.500	289.296	79.998	19.993	103.277	19.993	14.747	0.517
415.000	289.554	80.004	20.000	103.279	19.996	14.503	0.492
415.500	289.787	80.008	19.995	103.277	19.994	14.657	0.488
416.000	290.073	80.006	19.991	103.273	19.990	14.945	0.505
416.500	290.268	79.996	19.998	103.268	19.990	14.959	0.500
417.000	290.562	79.990	19.997	103.262	19.987	15.126	0.485
417.500	290.846	80.003	19.994	103.261	19.988	15.064	0.534
418.000	291.090	79.998	19.993	103.261	19.986	15.232	0.553
418.500	291.375	80.010	19.990	103.263	19.983	15.471	0.529
419.000	291.618	80.006	19.990	103.268	19.986	15.242	0.528
419.500	291.854	80.002	19.994	103.277	19.985	15.277	0.504
420.000	292.134	80.001	19.996	103.283	19.981	15.560	0.497
420.500	292.328	79.997	19.998	103.285	19.982	15.550	0.495
421.000	292.600	80.007	19.993	103.285	19.979	15.748	0.470
421.500	292.880	80.002	19.996	103.281	19.975	15.996	0.510
422.000	293.078	80.000	19.993	103.275	19.978	15.840	0.515
422.500	293.353	79.994	19.992	103.272	19.976	15.946	0.475
423.000	293.601	80.007	19.993	103.272	19.972	16.256	0.498
423.500	293.892	79.991	19.995	103.276	19.971	16.310	0.532
424.000	294.108	79.988	19.999	103.276	19.973	16.160	0.523
424.500	294.353	80.011	19.994	103.273	19.968	16.522	0.484
425.000	294.592	79.999	19.997	103.278	19.967	16.571	0.472
425.500	294.891	80.004	19.993	103.282	19.968	16.536	0.511
426.000	295.136	80.006	19.992	103.281	19.966	16.683	0.541
426.500	295.363	79.997	19.999	103.286	19.966	16.681	0.508
427.000	295.621	80.005	19.994	103.292	19.962	16.930	0.478
427.500	295.891	80.004	19.993	103.292	19.960	17.122	0.507
428.000	296.113	80.006	19.993	103.291	19.960	17.072	0.511
428.500	296.364	79.995	19.998	103.292	19.956	17.366	0.483
429.000	296.650	80.001	19.993	103.289	19.958	17.255	0.504
429.501	296.879	80.001	19.992	103.289	19.955	17.463	0.525
430.000	297.126	79.993	19.996	103.286	19.952	17.696	0.496
430.500	297.318	80.008	19.994	103.281	19.951	17.718	0.458
431.000	297.623	80.006	19.990	103.279	19.953	17.615	0.468
431.500	297.858	79.999	19.998	103.279	19.952	17.708	0.518
432.000	298.119	80.000	19.994	103.276	19.953	17.583	0.518
432.500	298.384	80.002	19.994	103.277	19.949	17.873	0.511
433.000	298.656	79.983	19.999	103.282	19.950	17.844	0.531
433.500	298.896	80.005	19.993	103.282	19.945	18.163	0.524
434.000	299.101	80.002	19.994	103.285	19.944	18.257	0.479
434.500	299.407	80.002	19.998	103.291	19.945	18.191	0.478
435.000	299.613	79.993	19.994	103.290	19.942	18.405	0.512
435.500	299.860	79.986	19.998	103.289	19.938	18.643	0.483
436.000	300.090	80.004	19.998	103.289	19.938	18.647	0.465
436.500	300.390	80.014	19.994	103.288	19.938	18.678	0.503
437.001	300.622	80.009	19.989	103.285	19.936	18.840	0.530
437.500	300.893	80.014	19.994	103.289	19.932	19.101	0.517
438.000	301.132	80.005	19.992	103.293	19.933	19.056	0.507
438.500	301.370	79.995	19.995	103.297	19.933	19.005	0.494
439.000	301.617	79.999	19.992	103.294	19.931	19.155	0.481
439.500	301.901	80.005	19.995	103.296	19.928	19.386	0.508
440.000	302.159	80.005	19.994	103.294	19.925	19.632	0.537
440.500	302.391	80.007	19.993	103.291	19.929	19.313	0.517
441.000	302.596	79.994	19.996	103.292	19.922	19.835	0.464
441.500	302.858	79.998	19.993	103.293	19.919	20.012	0.452
442.000	303.121	79.996	19.993	103.293	19.922	19.818	0.495
442.500	303.420	79.996	19.993	103.291	19.918	20.106	0.543
443.000	303.642	80.001	19.990	103.290	19.919	20.027	0.541
443.500	303.890	80.000	19.990	103.289	19.920	19.993	0.496
444.000	304.128	80.004	19.990	103.292	19.914	20.435	0.479
444.500	304.383	80.006	19.994	103.292	19.914	20.393	0.490
445.000	304.652	80.003	19.994	103.295	19.912	20.559	0.509
445.500	304.887	79.999	19.997	103.296	19.913	20.442	0.514
446.000	305.121	80.009	19.996	103.294	19.909	20.776	0.486
446.500	305.405	80.009	19.994	103.292	19.905	21.022	0.493
447.000	305.656	80.001	19.993	103.292	19.905	21.066	0.526
447.500	305.907	80.013	19.987	103.291	19.902	21.257	0.519
448.000	306.177	80.010	19.992	103.294	19.898	21.579	0.512
448.500	306.405	80.003	19.995	103.299	19.896	21.687	0.509
449.000	306.652	80.002	19.992	103.301	19.895	21.746	0.486
449.500	306.913	80.001	19.996	103.301	19.896	21.706	0.492
450.000	307.186	80.002	19.995	103.301	19.897	21.626	0.521
450.500	307.421	80.003	19.993	103.298	19.895	21.751	0.521
451.000	307.690	80.000	19.994	103.294	19.895	21.750	0.506
451.500	307.878	79.998	19.996	103.294	19.893	21.949	0.480
452.000	308.205	80.002	19.997	103.298	19.887	22.321	0.486
452.500	308.424	80.004	19.995	103.297	19.886	22.435	0.531
453.000	308.727	80.006	19.992	103.299	19.884	22.532	0.534
453.501	308.967	80.004	19.993	103.301	19.882	22.672	0.532
454.000	309.184	80.001	19.995	103.301	19.881	22.794	0.500
454.500	309.475	80.003	19.993	103.300	19.881	22.810	0.482
455.000	309.714	80.000	19.995	103.303	19.880	22.841	0.519
455.500	309.945	80.004	19.996	103.302	19.879	22.914	0.501
456.000	310.220	80.004	19.995	103.303	19.875	23.239	0.488
456.500	310.480	80.003	19.996	103.302	19.872	23.418	0.520
457.000	310.708	80.000	19.996	103.305	19.870	23.556	0.512
457.500	310.950	80.003	19.994	103.306	19.872	23.430	0.479
458.000	311.187	80.004	19.993	103.308	19.868	23.745	0.474
458.500	311.484	80.001	19.998	103.307	19.867	23.802	0.506
459.000	311.689	80.006	19.993	103.305	19.870	23.563	0.518
459.500	312.019	80.005	19.991	103.303	19.863	24.050	0.519
460.000	312.293	80.002	19.996	103.304	19.864	24.025	0.569
460.500	312.519	80.001	19.994	103.307	19.864	24.017	0.552
461.000	312.779	80.004	19.992	103.310	19.861	24.194	0.493
461.500	313.018	80.002	19.993	103.318	19.860	24.269	0.493
462.000	313.241	80.004	19.994	103.320	19.855	24.636	0.480
462.500	313.520	80.002	19.994	103.320	19.855	24.660	0.482
463.000	313.769	80.008	19.992	103.322	19.849	25.080	0.515
463.500	314.039	80.000	19.994	103.322	19.850	24.970	0.523
464.000	314.300	80.003	19.994	103.321	19.845	25.381	0.525
464.500	314.580	80.004	19.996	103.321	19.845	25.332	0.536
465.000	314.832	80.006	19.992	103.322	19.843	25.485	0.537
465.500	315.094	80.004	19.995	103.321	19.839	25.814	0.523
466.000	315.320	79.998	19.994	103.323	19.841	25.668	0.501
466.500	315.568	80.000	19.998	103.322	19.839	25.796	0.481
467.000	315.825	80.006	19.997	103.323	19.837	25.942	0.489
467.500	316.082	80.002	19.993	103.321	19.834	26.121	0.510
468.000	316.335	80.008	19.995	103.323	19.833	26.194	0.512
468.500	316.589	80.002	20.002	103.322	19.832	26.279	0.509
469.000	316.848	80.005	19.995	103.323	19.830	26.420	0.510
469.500	317.119	80.004	19.995	103.322	19.829	26.499	0.522
470.000	317.337	79.995	20.002	103.324	19.826	26.726	0.509
470.500	317.610	79.998	20.000	103.322	19.825	26.797	0.490
471.000	317.898	80.005	19.994	103.321	19.826	26.761	0.526
471.500	318.130	80.005	19.994	103.322	19.820	27.163	0.540
472.000	318.366	80.005	19.995	103.323	19.816	27.411	0.494
472.500	318.620	80.004	19.995	103.323	19.818	27.279	0.479
473.000	318.917	80.006	19.993	103.326	19.815	27.494	0.520
473.500	319.184	80.004	19.996	103.327	19.811	27.837	0.557
474.000	319.402	80.005	19.994	103.327	19.809	27.918	0.525
474.500	319.667	80.003	19.995	103.328	19.809	27.941	0.484
475.000	319.921	80.001	19.999	103.328	19.807	28.090	0.501
475.500	320.163	80.005	19.993	103.326	19.807	28.084	0.507
476.000	320.442	80.005	19.997	103.325	19.803	28.375	0.508
476.500	320.677	80.004	19.997	103.325	19.800	28.584	0.518
477.000	320.914	80.005	19.995	103.324	19.800	28.569	0.494
477.500	321.151	80.002	19.999	103.324	19.795	28.964	0.473
478.000	321.415	79.999	19.993	103.325	19.791	29.217	0.488
478.500	321.678	80.001	19.995	103.324	19.790	29.291	0.514
479.000	321.936	80.007	19.997	103.324	19.789	29.406	0.524
479.500	322.167	80.000	19.999	103.325	19.789	29.423	0.505
480.000	322.447	80.000	20.001	103.324	19.787	29.550	0.500
480.500	322.717	80.010	19.994	103.325	19.785	29.693	0.530
481.000	322.956	80.003	19.991	103.325	19.779	30.100	0.529
481.500	323.175	79.999	20.000	103.326	19.780	30.062	0.484
482.000	323.418	80.002	19.998	103.325	19.776	30.341	0.460
482.500	323.706	79.999	19.996	103.325	19.775	30.412	0.496
483.000	323.935	79.998	19.996	103.325	19.773	30.554	0.524
483.500	324.236	80.006	19.992	103.324	19.770	30.746	0.524
484.000	324.475	80.005	19.993	103.325	19.767	30.952	0.535
484.500	324.732	80.003	19.997	103.326	19.766	31.073	0.517
485.000	324.990	80.000	19.998	103.327	19.762	31.306	0.505
485.500	325.256	80.002	19.994	103.327	19.765	31.090	0.520
486.000	325.485	80.004	19.992	103.330	19.756	31.794	0.510
486.500	325.722	79.997	20.000	103.330	19.758	31.589	0.480
487.000	325.994	80.001	19.997	103.329	19.752	32.031	0.487
487.500	326.219	80.001	19.998	103.330	19.748	32.320	0.503
488.001	326.502	80.001	19.993	103.332	19.743	32.673	0.502
488.500	326.774	80.000	19.998	103.335	19.744	32.639	0.532
489.000	326.980	80.002	19.996	103.339	19.740	32.882	0.517
489.500	327.256	80.003	19.994	103.343	19.742	32.764	0.480
490.000	327.509	79.997	19.997	103.346	19.737	33.139	0.505
490.500	327.744	80.003	19.993	103.348	19.737	33.107	0.509
491.000	327.971	79.999	19.996	103.351	19.732	33.509	0.475
491.500	328.237	80.005	19.995	103.351	19.732	33.461	0.477
492.000	328.515	80.001	19.997	103.352	19.729	33.697	0.518
492.500	328.760	80.002	19.997	103.352	19.724	34.093	0.534
493.000	329.040	80.002	19.992	103.356	19.720	34.348	0.524
493.500	329.258	79.992	19.999	103.357	19.722	34.225	0.511
494.000	329.523	79.995	19.997	103.357	19.716	34.622	0.490
494.500	329.796	80.004	19.994	103.359	19.714	34.786	0.511
495.000	330.027	79.999	19.991	103.365	19.713	34.865	0.521
495.500	330.331	80.008	19.993	103.366	19.706	35.388	0.520
496.000	330.529	79.994	19.994	103.367	19.707	35.286	0.519
496.500	330.780	80.002	19.997	103.370	19.702	35.620	0.475
497.001	331.040	80.016	19.993	103.371	19.704	35.493	0.480
497.500	331.312	80.002	19.995	103.374	19.700	35.793	0.522
498.000	331.563	79.996	19.995	103.373	19.695	36.184	0.528
498.500	331.779	80.001	19.993	103.372	19.694	36.222	0.495
499.000	332.112	79.997	19.996	103.372	19.693	36.303	0.508
499.500	332.311	80.009	19.998	103.373	19.688	36.633	0.540
500.000	332.581	79.998	19.993	103.367	19.684	36.980	0.500
500.500	332.816	80.009	19.994	103.368	19.682	37.108	0.487
501.000	333.057	79.996	19.996	103.369	19.678	37.382	0.490
501.500	333.318	80.002	19.987	103.368	19.675	37.603	0.489
502.000	333.560	80.006	19.988	103.370	19.669	37.996	0.502
502.500	333.807	79.996	19.995	103.373	19.669	38.017	0.496
503.000	334.095	80.009	19.990	103.371	19.666	38.221	0.513
503.500	334.361	80.002	19.995	103.372	19.663	38.488	0.545
504.000	334.600	80.004	19.994	103.373	19.658	38.841	0.529
504.500	334.877	80.004	19.993	103.371	19.655	39.011	0.510
505.000	335.105	79.998	19.994	103.373	19.654	39.124	0.510
505.500	335.353	80.004	19.993	103.376	19.653	39.205	0.491
506.000	335.642	80.001	19.992	103.377	19.651	39.293	0.507
506.500	335.859	79.995	19.996	103.377	19.647	39.625	0.522
507.000	336.088	80.002	19.996	103.379	19.641	40.065	0.476
507.500	336.370	80.003	19.996	103.376	19.641	40.016	0.478
508.001	336.602	80.003	19.993	103.375	19.637	40.342	0.513
508.500	336.837	79.998	19.993	103.375	19.637	40.333	0.491
509.000	337.087	80.002	19.992	103.378	19.631	40.757	0.476
509.500	337.384	80.006	19.992	103.381	19.628	41.000	0.516
510.000	337.663	80.022	19.990	103.385	19.625	41.205	0.562
510.500	337.868	79.999	19.995	103.394	19.623	41.349	0.530
511.000	338.142	80.002	19.994	103.395	19.619	41.636	0.481
511.500	338.427	80.009	19.993	103.395	19.614	41.946	0.520
512.000	338.631	80.003	19.994	103.399	19.610	42.300	0.524
512.500	338.943	80.006	19.988	103.401	19.610	42.304	0.502
513.000	339.149	79.999	19.995	103.398	19.604	42.726	0.517
513.500	339.385	80.001	19.995	103.401	19.600	42.995	0.480
514.000	339.633	80.003	19.993	103.402	19.598	43.106	0.463
514.500	339.877	80.002	19.998	103.401	19.593	43.485	0.488
515.000	340.133	79.999	19.996	103.400	19.591	43.607	0.496
515.500	340.377	80.000	19.993	103.398	19.588	43.866	0.500
516.000	340.663	79.998	19.996	103.399	19.585	44.090	0.515
516.500	340.899	80.007	19.994	103.400	19.582	44.317	0.525
517.000	341.165	79.999	19.996	103.403	19.575	44.781	0.512
517.500	341.398	80.000	19.995	103.405	19.574	44.852	0.501
518.000	341.673	80.000	19.996	103.406	19.569	45.197	0.504
518.500	341.941	80.003	19.994	103.407	19.566	45.401	0.526
519.000	342.186	80.003	19.994	103.408	19.559	45.925	0.528
519.500	342.436	80.004	19.995	103.407	19.557	46.080	0.504
520.000	342.689	80.004	19.995	103.407	19.554	46.283	0.498
520.500	342.934	80.002	19.995	103.407	19.550	46.597	0.501
521.000	343.184	80.002	19.995	103.408	19.547	46.833	0.497
521.500	343.466	80.003	19.995	103.409	19.545	46.966	0.514
522.000	343.674	79.999	19.995	103.408	19.540	47.326	0.511
522.500	343.933	80.004	19.992	103.408	19.536	47.595	0.478
523.000	344.187	80.002	19.993	103.410	19.532	47.867	0.490
523.500	344.440	80.003	19.994	103.411	19.528	48.196	0.510
524.000	344.717	80.002	19.994	103.411	19.524	48.441	0.518
524.500	344.938	80.003	19.994	103.414	19.522	48.581	0.514
525.000	345.211	80.002	19.996	103.416	19.518	48.884	0.496
525.500	345.464	80.002	19.996	103.418	19.515	49.076	0.510
526.000	345.705	80.002	19.995	103.422	19.513	49.243	0.510
526.500	345.949	80.004	19.994	103.423	19.508	49.584	0.490
527.000	346.214	79.998	19.998	103.421	19.506	49.772	0.497
527.500	346.476	80.002	19.994	103.421	19.501	50.140	0.518
528.000	346.721	80.005	19.993	103.418	19.498	50.335	0.517
528.500	346.983	80.005	19.995	103.414	19.492	50.798	0.507
529.000	347.247	80.006	19.994	103.415	19.488	51.057	0.517
529.500	347.470	80.004	19.994	103.416	19.488	51.076	0.506
530.000	347.728	80.004	19.996	103.419	19.483	51.426	0.484
530.500	347.964	80.002	19.995	103.427	19.476	51.888	0.488
531.000	348.260	80.004	19.994	103.433	19.475	52.019	0.513
531.500	348.465	80.002	19.994	103.437	19.471	52.289	0.516
532.000	348.718	80.007	19.994	103.441	19.467	52.589	0.480
532.500	349.007	80.002	19.995	103.442	19.460	53.069	0.500
533.000	349.224	80.002	19.996	103.441	19.459	53.162	0.524
533.500	349.492	80.003	19.995	103.438	19.454	53.514	0.495
534.000	349.738	80.004	19.992	103.438	19.451	53.678	0.499
534.500	350.006	80.004	19.991	103.441	19.446	54.102	0.514
535.000	350.262	80.005	19.993	103.442	19.441	54.427	0.519
535.500	350.501	80.002	19.995	103.443	19.439	54.582	0.509
536.000	350.760	80.004	19.994	103.446	19.434	54.915	0.497
536.500	351.026	80.004	19.994	103.443	19.429	55.270	0.512
537.000	351.261	80.004	19.993	103.442	19.425	55.608	0.513
537.500	351.535	80.005	19.993	103.442	19.421	55.879	0.505
538.000	351.767	80.003	19.997	103.439	19.423	55.737	0.508
538.500	352.055	80.001	19.997	103.438	19.415	56.293	0.513
539.000	352.283	80.005	19.993	103.441	19.416	56.249	0.518
539.500	352.564	80.010	19.992	103.440	19.413	56.409	0.513
540.000	352.838	80.006	19.995	103.442	19.409	56.765	0.532
540.500	353.055	80.000	19.996	103.445	19.406	56.940	0.523
541.000	353.334	80.011	19.990	103.445	19.402	57.260	0.493
541.500	353.530	80.002	19.991	103.448	19.397	57.600	0.485
542.000	353.837	79.997	20.005	103.448	19.392	57.923	0.489
542.500	354.081	80.009	19.995	103.445	19.390	58.065	0.527
543.000	354.349	80.003	19.995	103.445	19.390	58.105	0.532
543.500	354.605	80.010	19.996	103.444	19.389	58.179	0.518
544.000	354.851	80.011	19.991	103.443	19.382	58.693	0.512
544.500	355.095	80.001	19.999	103.443	19.380	58.844	0.496
545.001	355.335	80.003	19.991	103.446	19.377	59.014	0.487
545.500	355.603	80.000	19.997	103.446	19.375	59.191	0.496
546.000	355.812	80.001	19.996	103.446	19.374	59.250	0.493
546.500	356.071	80.007	19.992	103.444	19.372	59.368	0.472
547.001	356.320	80.003	19.993	103.444	19.366	59.820	0.488
547.500	356.580	80.003	19.999	103.444	19.365	59.909	0.508
548.000	356.869	80.003	19.994	103.442	19.362	60.097	0.529
548.500	357.109	80.001	19.997	103.445	19.360	60.217	0.539
549.000	357.328	80.002	19.998	103.445	19.360	60.210	0.494
549.500	357.619	80.001	19.998	103.444	19.356	60.517	0.485
550.000	357.828	80.006	19.995	103.443	19.355	60.581	0.505
550.500	358.078	80.005	19.995	103.444	19.354	60.677	0.479
551.000	358.334	80.002	19.997	103.442	19.353	60.743	0.482
551.500	358.573	80.003	19.995	103.441	19.349	61.026	0.500
552.000	358.877	80.004	19.995	103.441	19.353	60.732	0.519
552.500	359.102	80.001	19.991	103.440	19.352	60.820	0.536
553.000	359.355	80.000	20.000	103.439	19.347	61.160	0.503
553.500	359.588	80.005	19.995	103.439	19.348	61.079	0.482
554.000	359.837	80.004	19.996	103.440	19.349	61.048	0.484
554.501	360.068	80.004	19.992	103.439	19.347	61.128	0.481
555.000	360.332	80.004	19.997	103.441	19.348	61.055	0.488
555.500	360.611	80.005	19.994	103.443	19.348	61.088	0.519
556.000	360.840	80.000	19.997	103.443	19.348	61.103	0.525
556.500	361.100	80.006	19.995	103.440	19.347	61.162	0.498
557.000	361.343	80.002	19.995	103.439	19.345	61.282	0.496
557.500	361.612	80.006	19.994	103.433	19.340	61.650	0.508
558.000	361.852	80.005	19.993	103.425	19.344	61.350	0.511
558.500	362.089	80.005	19.994	103.421	19.345	61.263	0.493
559.000	362.353	80.004	19.994	103.418	19.344	61.395	0.489
559.500	362.616	80.003	19.995	103.414	19.347	61.171	0.514
560.000	362.871	80.005	19.995	103.413	19.345	61.305	0.522
560.500	363.153	80.002	19.993	103.411	19.345	61.278	0.527
561.000	363.348	80.004	19.994	103.410	19.346	61.211	0.507
561.500	363.611	80.002	19.994	103.408	19.347	61.141	0.467
562.000	363.857	80.000	19.996	103.407	19.350	60.913	0.484
562.500	364.131	80.000	19.994	103.405	19.353	60.662	0.515
563.000	364.367	80.002	19.995	103.405	19.353	60.673	0.514
563.500	364.623	80.004	19.988	103.404	19.355	60.519	0.501
564.000	364.859	80.001	19.999	103.404	19.360	60.205	0.492
564.500	365.139	80.006	19.988	103.405	19.361	60.115	0.504
565.000	365.348	79.999	19.995	103.406	19.365	59.799	0.502
565.500	365.640	80.002	19.994	103.401	19.365	59.847	0.495
566.000	365.888	79.999	20.000	103.398	19.370	59.503	0.521
566.500	366.130	80.002	19.994	103.389	19.373	59.280	0.515
567.000	366.394	79.999	19.996	103.383	19.375	59.070	0.498
567.500	366.663	80.006	19.994	103.375	19.379	58.817	0.519
568.000	366.902	80.003	19.993	103.376	19.386	58.336	0.520
568.500	367.121	80.001	19.998	103.375	19.388	58.155	0.483
569.000	367.391	80.003	19.995	103.374	19.391	57.982	0.474
569.500	367.660	80.001	19.994	103.373	19.393	57.820	0.514
570.000	367.905	80.001	19.997	103.373	19.399	57.344	0.526
570.500	368.168	79.997	19.996	103.370	19.405	56.909	0.511
571.000	368.409	80.002	19.997	103.367	19.408	56.684	0.506
571.501	368.659	79.999	19.995	103.365	19.413	56.323	0.498
572.000	368.898	80.000	19.993	103.361	19.416	56.148	0.490
572.500	369.141	80.002	19.992	103.356	19.427	55.367	0.486
573.001	369.388	80.000	19.997	103.350	19.429	55.205	0.486
573.500	369.629	80.001	19.996	103.343	19.435	54.780	0.489
574.000	369.872	80.003	19.995	103.338	19.440	54.397	0.486
574.500	370.139	79.989	19.998	103.334	19.446	53.994	0.496
575.000	370.371	80.000	19.996	103.330	19.450	53.654	0.504
575.500	370.604	79.997	19.996	103.329	19.457	53.174	0.482
576.000	370.872	79.999	19.998	103.328	19.466	52.549	0.483
576.500	371.132	80.004	19.993	103.327	19.467	52.484	0.515
577.000	371.391	80.001	19.995	103.327	19.473	52.028	0.524
577.500	371.641	79.999	19.992	103.324	19.479	51.626	0.514
578.000	371.860	80.004	19.994	103.320	19.483	51.284	0.489
578.500	372.146	80.001	19.996	103.319	19.489	50.904	0.487
579.000	372.461	80.002	19.996	103.312	19.494	50.549	0.553
579.500	372.668	80.001	19.995	103.308	19.505	49.733	0.561
580.000	372.944	80.001	19.996	103.305	19.512	49.219	0.502
580.500	373.201	80.001	19.997	103.300	19.516	48.903	0.508
581.000	373.399	80.004	19.996	103.295	19.523	48.411	0.494
581.500	373.675	80.004	19.996	103.294	19.531	47.892	0.464
582.000	373.924	80.004	19.995	103.291	19.534	47.634	0.499
582.500	374.210	79.998	19.999	103.290	19.541	47.104	0.530
583.000	374.444	80.002	19.996	103.286	19.551	46.435	0.528
583.500	374.691	80.006	19.994	103.279	19.555	46.112	0.500
584.000	374.977	80.004	19.995	103.272	19.564	45.496	0.507
584.500	375.198	80.001	19.995	103.269	19.570	45.044	0.520
585.000	375.472	80.001	19.996	103.262	19.578	44.465	0.501
585.500	375.716	80.004	19.994	103.260	19.585	43.983	0.507
586.000	375.995	80.002	19.994	103.260	19.593	43.393	0.520
586.500	376.205	80.002	19.995	103.260	19.601	42.864	0.506
587.000	376.506	80.001	19.995	103.255	19.605	42.522	0.500
587.500	376.753	80.003	19.996	103.254	19.613	42.009	0.530
588.000	377.006	80.002	19.996	103.252	19.619	41.533	0.524
588.500	377.225	80.002	19.997	103.251	19.626	41.066	0.486
589.000	377.505	80.002	19.996	103.249	19.631	40.666	0.485
589.500	377.765	80.003	19.995	103.243	19.638	40.200	0.520
590.000	377.976	80.005	19.996	103.238	19.646	39.591	0.505
590.500	378.214	80.004	19.993	103.236	19.653	39.082	0.460
591.000	378.535	80.005	19.991	103.230	19.657	38.800	0.504
591.500	378.727	79.999	19.996	103.229	19.668	37.995	0.536
592.000	378.998	80.000	19.998	103.228	19.674	37.623	0.488
592.500	379.243	80.004	19.996	103.224	19.677	37.399	0.489
593.000	379.485	80.002	19.994	103.219	19.682	37.030	0.501
593.500	379.720	80.000	19.996	103.217	19.689	36.523	0.482
594.000	379.967	80.006	19.996	103.212	19.697	35.964	0.479
594.500	380.209	80.001	19.995	103.212	19.699	35.769	0.486
595.001	380.510	80.002	19.995	103.212	19.705	35.355	0.516
595.500	380.733	80.000	19.997	103.212	19.712	34.875	0.534
596.000	380.981	80.001	19.998	103.212	19.715	34.665	0.498
596.500	381.230	80.004	19.995	103.212	19.722	34.174	0.484
597.000	381.505	80.004	19.994	103.212	19.725	33.926	0.511
597.500	381.802	80.004	19.994	103.213	19.730	33.584	0.548
598.000	382.006	79.999	19.996	103.214	19.739	32.947	0.537
598.500	382.257	80.001	19.994	103.213	19.740	32.849	0.478
599.000	382.530	80.003	19.993	103.214	19.744	32.604	0.489
599.500	382.814	80.004	19.996	103.213	19.748	32.262	0.541
600.000	383.021	80.002	19.996	103.210	19.754	31.876	0.524
600.500	383.298	80.003	19.994	103.208	19.756	31.730	0.487
601.000	383.527	80.003	19.996	103.203	19.763	31.225	0.495
601.500	383.767	80.002	19.996	103.200	19.764	31.122	0.488
602.000	384.017	80.003	19.995	103.199	19.771	30.658	0.480
602.500	384.282	80.001	19.997	103.201	19.771	30.676	0.502
603.000	384.555	80.003	19.996	103.202	19.776	30.310	0.526
603.500	384.806	80.001	19.994	103.207	19.776	30.277	0.531
604.000	385.051	80.001	19.996	103.209	19.779	30.038	0.510
604.500	385.318	80.002	19.994	103.210	19.780	30.010	0.504
605.000	385.561	79.997	19.997	103.211	19.783	29.786	0.511
605.500	385.815	80.004	19.996	103.209	19.782	29.882	0.504
606.000	386.051	80.001	19.996	103.208	19.784	29.734	0.494
606.500	386.300	80.003	19.995	103.206	19.789	29.369	0.487
607.000	386.573	80.005	19.994	103.204	19.788	29.436	0.503
607.500	386.819	80.006	19.994	103.201	19.789	29.318	0.521
608.000	387.059	80.012	19.997	103.204	19.791	29.176	0.503
608.500	387.309	80.006	19.998	103.205	19.793	29.052	0.488
609.000	387.561	80.003	19.997	103.207	19.792	29.115	0.496
609.500	387.825	80.004	19.994	103.209	19.795	28.893	0.509
610.000	388.087	80.003	19.994	103.212	19.794	29.007	0.521
610.500	388.335	80.002	19.995	103.211	19.796	28.865	0.518
611.000	388.602	80.006	19.996	103.210	19.796	28.848	0.513
611.500	388.842	80.004	19.997	103.210	19.795	28.887	0.511
612.000	389.079	80.013	19.998	103.211	19.793	29.076	0.492
612.500	389.345	80.005	19.995	103.209	19.794	28.997	0.490
613.000	389.580	80.006	19.996	103.209	19.793	29.080	0.502
613.500	389.830	80.008	19.994	103.210	19.794	28.982	0.493
614.000	390.090	80.007	19.995	103.211	19.790	29.285	0.497
614.500	390.365	80.004	19.995	103.212	19.790	29.295	0.523
615.000	390.607	80.005	19.995	103.214	19.790	29.310	0.526
615.501	390.834	80.008	19.994	103.214	19.788	29.407	0.493
616.000	391.144	80.004	19.995	103.215	19.789	29.349	0.504
616.500	391.397	80.006	19.994	103.214	19.786	29.544	0.550
617.000	391.643	80.008	19.992	103.213	19.784	29.698	0.531
617.500	391.887	80.003	19.990	103.214	19.783	29.798	0.494
618.000	392.127	80.008	19.993	103.215	19.780	30.028	0.487
618.500	392.402	80.002	19.994	103.215	19.776	30.257	0.499
619.000	392.650	80.005	19.994	103.215	19.773	30.483	0.519
619.500	392.879	80.001	19.995	103.215	19.773	30.518	0.500
620.000	393.158	80.010	19.993	103.214	19.774	30.458	0.492
620.500	393.373	80.004	19.993	103.215	19.770	30.700	0.501
621.000	393.651	80.002	19.995	103.216	19.768	30.887	0.494
621.500	393.943	80.002	19.993	103.216	19.765	31.087	0.532
622.000	394.192	80.002	19.994	103.216	19.763	31.225	0.556
622.500	394.426	80.004	19.994	103.216	19.758	31.558	0.512
623.000	394.707	80.004	19.993	103.215	19.760	31.419	0.499
623.500	394.991	80.002	19.995	103.215	19.755	31.783	0.540
624.000	395.265	80.002	19.989	103.216	19.754	31.826	0.561
624.500	395.480	79.998	19.993	103.217	19.753	31.962	0.524
625.000	395.738	80.002	19.996	103.217	19.750	32.147	0.481
625.500	396.002	80.003	19.996	103.217	19.745	32.543	0.497
626.000	396.246	80.002	19.992	103.216	19.739	32.972	0.515
626.500	396.475	80.011	19.996	103.217	19.741	32.831	0.491
627.001	396.785	80.009	19.990	103.215	19.735	33.257	0.506
627.500	397.004	79.999	19.996	103.217	19.732	33.422	0.534
628.000	397.305	80.010	19.992	103.216	19.731	33.508	0.524
628.500	397.526	80.003	19.995	103.217	19.729	33.641	0.521
629.000	397.802	79.994	19.995	103.216	19.723	34.113	0.509
629.500	398.009	80.005	19.994	103.217	19.725	33.921	0.490
630.000	398.331	80.002	19.998	103.216	19.716	34.619	0.506
630.500	398.543	80.007	19.996	103.217	19.716	34.550	0.531
631.000	398.808	80.006	19.993	103.217	19.711	34.921	0.505
631.500	399.058	80.005	19.993	103.219	19.708	35.151	0.496
632.000	399.323	80.003	19.994	103.218	19.708	35.127	0.515
632.500	399.554	80.003	19.991	103.218	19.705	35.383	0.506
633.000	399.819	79.998	19.995	103.219	19.703	35.541	0.496
633.500	400.023	80.002	19.995	103.218	19.701	35.636	0.483
634.000	400.313	80.005	19.991	103.216	19.699	35.837	0.481
634.500	400.584	80.009	19.995	103.217	19.697	35.964	0.528
635.000	400.846	80.004	19.996	103.216	19.694	36.168	0.547
635.500	401.081	80.004	19.995	103.215	19.689	36.522	0.515
636.000	401.330	80.005	19.994	103.215	19.686	36.725	0.490
636.500	401.588	80.005	19.995	103.218	19.683	36.953	0.495
637.000	401.857	80.004	19.994	103.219	19.680	37.137	0.517
637.500	402.078	80.001	19.994	103.218	19.680	37.141	0.509
638.000	402.377	80.004	19.993	103.217	19.676	37.475	0.505
638.500	402.613	80.005	19.994	103.216	19.675	37.494	0.528
639.000	402.863	80.005	19.995	103.214	19.672	37.725	0.511
639.500	403.133	80.002	19.996	103.212	19.671	37.820	0.503
640.000	403.379	80.000	19.997	103.213	19.670	37.857	0.518
640.500	403.669	79.997	19.996	103.213	19.666	38.176	0.526
641.000	403.869	79.994	19.997	103.214	19.664	38.317	0.513
641.500	404.139	80.012	19.989	103.212	19.659	38.669	0.480
642.000	404.363	80.006	19.994	103.215	19.662	38.461	0.481
642.500	404.613	79.999	19.997	103.214	19.661	38.512	0.484
643.000	404.860	80.005	19.992	103.213	19.660	38.633	0.486
643.500	405.117	80.006	19.997	103.213	19.660	38.598	0.500
644.000	405.385	79.997	19.996	103.215	19.659	38.672	0.514
644.500	405.620	80.003	19.995	103.213	19.659	38.650	0.514
645.000	405.883	80.003	19.991	103.214	19.659	38.699	0.501
645.500	406.146	80.007	19.997	103.215	19.654	39.018	0.512
646.000	406.335	80.001	19.997	103.215	19.654	39.001	0.489
646.500	406.644	80.007	19.993	103.215	19.656	38.880	0.475
647.000	406.909	80.001	19.999	103.215	19.651	39.221	0.536
647.500	407.201	80.000	19.999	103.214	19.653	39.128	0.565
648.000	407.472	80.002	19.995	103.213	19.654	39.042	0.560
648.500	407.682	79.999	20.001	103.212	19.650	39.334	0.522
649.000	407.953	80.002	19.997	103.211	19.656	38.889	0.481
649.500	408.200	80.006	19.995	103.210	19.654	39.043	0.499
650.000	408.414	80.003	19.993	103.211	19.654	39.001	0.490
650.501	408.712	79.996	20.001	103.212	19.658	38.757	0.486
651.000	408.955	80.003	19.991	103.211	19.658	38.767	0.526
651.500	409.206	80.000	20.001	103.213	19.657	38.841	0.518
652.000	409.441	80.004	19.995	103.212	19.659	38.678	0.490
652.500	409.716	80.005	19.994	103.211	19.661	38.544	0.497
653.000	409.980	80.000	19.993	103.211	19.661	38.543	0.524
653.500	410.244	80.000	20.000	103.212	19.664	38.284	0.534
654.000	410.487	80.001	19.998	103.210	19.668	37.997	0.517
654.500	410.722	80.004	19.992	103.210	19.674	37.579	0.493
655.000	411.004	79.999	19.998	103.209	19.672	37.715	0.498
655.500	411.226	79.995	19.998	103.207	19.678	37.325	0.510
656.000	411.502	80.002	19.994	103.206	19.680	37.136	0.501
656.500	411.765	80.005	19.995	103.207	19.680	37.126	0.518
657.000	412.033	80.002	19.996	103.204	19.684	36.880	0.535
657.500	412.273	80.004	19.994	103.201	19.687	36.667	0.520
658.000	412.522	80.004	19.995	103.197	19.689	36.485	0.499
658.500	412.768	80.004	19.997	103.192	19.697	35.962	0.492
659.000	413.026	80.002	19.996	103.187	19.698	35.867	0.500
659.500	413.274	80.005	19.996	103.185	19.701	35.622	0.505
660.000	413.540	80.003	19.996	103.184	19.706	35.291	0.510
660.500	413.796	80.002	19.996	103.184	19.709	35.060	0.518
661.000	414.028	80.000	19.997	103.183	19.714	34.696	0.505
661.500	414.258	80.002	19.994	103.184	19.720	34.303	0.475
662.000	414.508	80.002	19.996	103.184	19.724	33.994	0.471
662.500	414.751	80.003	19.994	103.182	19.732	33.430	0.486
663.000	414.981	80.003	19.994	103.182	19.735	33.209	0.483
663.500	415.271	80.004	19.996	103.182	19.740	32.847	0.496
664.000	415.539	80.001	19.997	103.178	19.744	32.585	0.539
664.500	415.777	80.002	19.994	103.175	19.752	31.978	0.532
665.000	416.033	80.001	19.995	103.175	19.760	31.394	0.500
665.500	416.259	80.002	19.994	103.174	19.764	31.107	0.488
666.000	416.512	80.001	19.996	103.173	19.772	30.582	0.481
666.500	416.777	80.001	19.995	103.172	19.777	30.167	0.498
667.000	417.032	80.004	19.996	103.172	19.784	29.670	0.519
667.500	417.282	80.002	19.996	103.170	19.790	29.237	0.512
668.000	417.568	80.005	19.995	103.170	19.797	28.734	0.520
668.500	417.826	80.002	19.998	103.169	19.802	28.402	0.540
669.000	418.094	80.002	19.995	103.170	19.806	28.091	0.535
669.500	418.294	80.000	19.993	103.170	19.816	27.419	0.497
670.001	418.561	80.002	19.996	103.170	19.820	27.124	0.467
670.500	418.831	79.999	19.996	103.170	19.829	26.506	0.501
671.000	419.106	80.006	19.993	103.170	19.837	25.896	0.541
671.500	419.300	80.002	19.995	103.172	19.843	25.468	0.507
672.000	419.570	80.002	19.994	103.172	19.849	25.029	0.467
672.500	419.804	79.998	19.998	103.173	19.857	24.490	0.484
673.000	420.060	80.001	19.996	103.172	19.864	23.959	0.497
673.500	420.339	80.004	19.997	103.172	19.867	23.714	0.513
674.000	420.593	80.001	19.997	103.172	19.878	22.994	0.534
674.500	420.858	80.003	19.994	103.172	19.883	22.636	0.526
675.000	421.108	80.003	19.997	103.171	19.887	22.331	0.517
675.500	421.343	80.003	19.995	103.171	19.897	21.626	0.500
676.000	421.599	80.004	19.995	103.172	19.899	21.479	0.488
676.500	421.868	80.002	19.995	103.172	19.906	20.979	0.508
677.000	422.080	80.004	19.995	103.172	19.912	20.535	0.503
677.500	422.349	80.001	19.993	103.173	19.918	20.120	0.481
678.000	422.603	80.002	19.994	103.173	19.927	19.461	0.502
678.500	422.850	80.005	19.992	103.173	19.934	18.974	0.512
679.000	423.110	80.001	19.993	103.175	19.940	18.537	0.504
679.500	423.396	79.999	19.996	103.176	19.945	18.136	0.526
680.000	423.623	80.005	19.993	103.176	19.950	17.816	0.529
680.500	423.870	80.000	19.997	103.176	19.958	17.188	0.494
681.000	424.120	80.003	19.993	103.176	19.963	16.897	0.486
681.500	424.384	79.997	19.993	103.175	19.962	16.921	0.506
682.000	424.659	80.004	19.994	103.174	19.969	16.401	0.526
682.500	424.875	80.002	19.993	103.175	19.974	16.079	0.514
683.000	425.111	79.999	19.996	103.175	19.976	15.914	0.471
683.500	425.373	80.004	19.992	103.176	19.983	15.449	0.475
684.000	425.621	80.000	19.996	103.176	19.984	15.329	0.504
684.500	425.894	80.003	19.994	103.177	19.988	15.084	0.516
685.000	426.130	80.005	19.996	103.176	19.994	14.616	0.515
685.500	426.396	80.000	19.998	103.175	19.995	14.565	0.506
686.000	426.675	79.999	19.997	103.173	20.002	14.071	0.523
686.500	426.929	80.004	19.997	103.173	20.002	14.044	0.539
687.000	427.142	80.006	19.996	103.172	20.006	13.804	0.500
687.500	427.431	79.999	19.991	103.172	20.008	13.664	0.485
688.000	427.653	80.003	19.993	103.172	20.011	13.451	0.506
688.500	427.937	79.998	20.002	103.173	20.010	13.471	0.508
689.000	428.201	80.001	19.999	103.174	20.017	13.001	0.527
689.500	428.448	80.000	19.995	103.174	20.020	12.773	0.530
690.000	428.697	80.005	19.994	103.175	20.025	12.454	0.503
690.500	428.955	80.003	19.994	103.175	20.025	12.453	0.501
691.000	429.186	80.001	19.996	103.175	20.030	12.097	0.498
691.500	429.470	80.005	19.989	103.175	20.029	12.110	0.502
692.000	429.732	80.009	19.995	103.175	20.032	11.888	0.530
692.500	429.959	79.993	19.996	103.175	20.034	11.792	0.517
693.000	430.204	80.005	19.995	103.173	20.038	11.495	0.481
693.500	430.503	80.007	19.994	103.172	20.039	11.442	0.508
694.000	430.800	80.001	19.995	103.173	20.039	11.448	0.570
694.500	430.996	80.004	19.994	103.171	20.042	11.169	0.544
695.000	431.270	80.006	19.994	103.172	20.047	10.828	0.482
695.500	431.501	80.002	19.993	103.175	20.047	10.864	0.487
696.000	431.796	80.006	19.993	103.175	20.048	10.754	0.515
696.500	432.017	80.004	19.996	103.175	20.051	10.587	0.521
697.000	432.263	80.007	19.994	103.175	20.051	10.582	0.492
697.500	432.512	80.006	19.997	103.176	20.052	10.508	0.481
698.000	432.789	80.001	19.996	103.175	20.054	10.333	0.510
698.500	433.034	80.004	19.994	103.174	20.054	10.325	0.524
699.000	433.264	80.003	19.994	103.173	20.057	10.124	0.499
699.500	433.538	80.004	19.994	103.174	20.055	10.293	0.490
700.000	433.796	80.002	19.994	103.173	20.060	9.920	0.518
700.500	434.033	80.000	19.994	103.173	20.062	9.776	0.513
701.000	434.316	80.002	19.994	103.174	20.062	9.795	0.508
701.500	434.539	80.002	19.993	103.176	20.064	9.634	0.513
702.000	434.801	80.001	19.996	103.176	20.065	9.575	0.495
702.500	435.043	80.000	19.997	103.176	20.066	9.514	0.494
703.000	435.313	79.999	19.995	103.176	20.068	9.367	0.508
703.500	435.540	80.001	19.999	103.176	20.068	9.355	0.505
704.000	435.784	80.005	19.996	103.174	20.067	9.422	0.484
704.501	436.077	80.004	19.994	103.175	20.069	9.266	0.504
705.000	436.316	80.008	19.993	103.175	20.070	9.166	0.534
705.500	436.550	80.000	19.995	103.177	20.073	9.001	0.502
706.000	436.825	80.005	19.993	103.178	20.072	9.040	0.491
706.500	437.077	80.004	19.991	103.179	20.075	8.840	0.518
707.000	437.337	80.001	19.996	103.179	20.074	8.905	0.519
707.500	437.573	80.001	19.998	103.178	20.076	8.741	0.504
708.000	437.825	80.002	19.999	103.176	20.078	8.586	0.492
708.500	438.067	80.006	19.994	103.176	20.078	8.598	0.491
709.000	438.306	80.003	19.995	103.177	20.079	8.513	0.487
709.500	438.617	80.003	19.996	103.176	20.079	8.572	0.515
710.000	438.816	80.003	19.996	103.176	20.079	8.578	0.530
710.500	439.056	80.002	19.996	103.175	20.079	8.561	0.474
711.000	439.328	80.000	19.994	103.174	20.080	8.452	0.475
711.500	439.558	80.002	19.994	103.172	20.083	8.242	0.507
712.000	439.795	80.003	19.995	103.172	20.083	8.297	0.485
712.500	440.059	80.000	19.996	103.172	20.082	8.303	0.484
713.000	440.335	80.008	19.992	103.171	20.085	8.120	0.520
713.500	440.551	80.006	19.995	103.172	20.088	7.888	0.516
714.000	440.837	80.010	19.992	103.172	20.086	8.057	0.497
714.500	441.059	80.004	19.997	103.174	20.086	8.053	0.504
715.000	441.334	80.008	19.995	103.173	20.087	8.008	0.502
715.500	441.587	80.005	19.994	103.173	20.086	8.043	0.513
716.000	441.804	80.005	19.993	103.172	20.089	7.833	0.499
716.500	442.036	80.006	19.992	103.171	20.090	7.774	0.459
717.000	442.308	80.004	19.994	103.170	20.087	7.996	0.476
717.500	442.562	80.005	19.994	103.171	20.087	7.978	0.515
718.000	442.804	80.002	19.995	103.172	20.090	7.762	0.511
718.500	443.067	80.006	19.993	103.171	20.090	7.760	0.501
719.000	443.339	80.007	19.994	103.171	20.090	7.746	0.520
719.500	443.568	80.010	19.990	103.171	20.088	7.919	0.518
720.000	443.805	80.005	19.993	103.172	20.091	7.693	0.484
720.500	444.071	80.006	19.992	103.171	20.095	7.414	0.485
721.000	444.302	80.006	19.994	103.172	20.094	7.486	0.499
721.500	444.580	79.998	19.994	103.174	20.095	7.388	0.503
722.000	444.777	80.005	19.996	103.172	20.096	7.294	0.492
722.500	445.052	80.013	19.992	103.171	20.094	7.453	0.473
723.000	445.293	80.007	19.994	103.171	20.095	7.412	0.494
723.500	445.543	79.999	19.998	103.170	20.095	7.432	0.504
724.000	445.797	80.002	19.998	103.168	20.097	7.249	0.497
724.500	446.088	80.005	19.988	103.169	20.096	7.353	0.525
725.000	446.283	80.001	19.996	103.172	20.095	7.410	0.516
725.500	446.558	80.004	19.996	103.171	20.096	7.311	0.478
726.000	446.797	80.002	19.994	103.171	20.094	7.490	0.492
726.500	447.008	80.003	19.993	103.172	20.096	7.337	0.482
727.001	447.335	79.998	19.998	103.173	20.100	7.048	0.494
727.500	447.587	80.001	19.997	103.170	20.102	6.924	0.559
728.000	447.824	80.002	19.993	103.170	20.100	7.060	0.534
728.500	448.070	80.003	19.994	103.171	20.103	6.812	0.486
729.000	448.309	80.005	19.995	103.172	20.101	6.969	0.484
729.500	448.564	80.002	19.995	103.172	20.103	6.820	0.489
730.000	448.807	80.003	19.994	103.173	20.103	6.851	0.496
730.501	449.076	80.005	19.993	103.174	20.101	6.995	0.505
731.000	449.297	79.996	19.997	103.174	20.101	6.985	0.501
731.500	449.546	80.003	19.997	103.171	20.101	6.938	0.480
732.000	449.801	80.005	19.994	103.169	20.102	6.897	0.487
732.500	450.052	80.001	19.995	103.169	20.104	6.753	0.505
733.000	450.319	80.003	19.995	103.169	20.105	6.679	0.512
733.500	450.560	79.999	19.995	103.169	20.105	6.655	0.513
734.000	450.825	80.004	19.997	103.171	20.106	6.631	0.507
734.500	451.105	80.002	19.996	103.172	20.105	6.653	0.525
735.000	451.323	80.004	19.996	103.170	20.107	6.566	0.522
735.500	451.598	80.006	19.994	103.170	20.107	6.506	0.496
736.000	451.852	80.002	19.994	103.170	20.105	6.700	0.511
736.500	452.106	80.005	19.993	103.169	20.102	6.907	0.519
737.000	452.333	80.003	19.995	103.169	20.108	6.452	0.495
737.500	452.617	80.003	19.996	103.171	20.107	6.517	0.496
738.000	452.839	79.998	19.998	103.170	20.107	6.527	0.508
738.500	453.088	80.001	19.994	103.169	20.108	6.439	0.488
739.000	453.313	80.004	19.994	103.169	20.109	6.423	0.472
739.500	453.584	80.006	19.995	103.170	20.108	6.494	0.485
740.000	453.849	80.001	19.993	103.169	20.109	6.385	0.516
740.500	454.086	80.003	19.994	103.169	20.112	6.179	0.519
741.000	454.335	79.993	19.997	103.170	20.111	6.289	0.495
741.500	454.612	80.003	19.995	103.168	20.106	6.627	0.506
742.000	454.866	80.008	19.990	103.169	20.110	6.358	0.528
742.500	455.123	80.003	19.994	103.170	20.111	6.269	0.521
743.000	455.385	80.003	19.993	103.171	20.112	6.197	0.515
743.500	455.642	80.008	19.996	103.172	20.111	6.250	0.519
744.000	455.904	80.003	19.996	103.176	20.110	6.344	0.519
744.500	456.151	80.003	19.995	103.176	20.110	6.297	0.514
745.000	456.372	80.002	19.995	103.175	20.115	5.990	0.488
745.500	456.601	80.001	19.996	103.175	20.112	6.159	0.459
746.000	456.862	80.006	19.994	103.174	20.114	6.012	0.470
746.500	457.147	80.004	19.996	103.175	20.111	6.285	0.518
747.000	457.402	80.001	19.995	103.175	20.112	6.204	0.543
747.500	457.656	80.002	19.997	103.175	20.115	5.996	0.525
748.000	457.919	80.002	19.994	103.175	20.115	5.966	0.513
748.500	458.154	80.001	19.995	103.174	20.114	6.008	0.508
749.000	458.418	80.004	19.995	103.173	20.111	6.255	0.499
749.500	458.661	79.996	19.996	103.172	20.114	6.004	0.503
750.000	458.932	80.000	19.993	103.172	20.112	6.163	0.511
750.500	459.200	80.003	19.995	103.172	20.112	6.193	0.527
751.000	459.428	80.005	19.995	103.173	20.112	6.169	0.518
751.500	459.666	80.002	20.001	103.173	20.114	6.057	0.481
752.000	459.927	80.004	19.995	103.172	20.114	6.008	0.483
752.500	460.202	80.004	19.988	103.172	20.110	6.352	0.518
753.000	460.427	80.002	19.995	103.172	20.113	6.084	0.518
753.500	460.716	80.000	19.993	103.172	20.115	5.945	0.507
754.000	460.986	80.004	19.992	103.173	20.115	5.957	0.536
754.500	461.197	79.996	20.002	103.174	20.117	5.839	0.520
755.000	461.468	80.001	19.996	103.173	20.116	5.890	0.481
755.500	461.714	79.995	19.999	103.172	20.118	5.717	0.499
756.000	461.985	80.004	19.998	103.171	20.120	5.609	0.517
756.500	462.243	80.005	19.996	103.170	20.120	5.587	0.523
757.000	462.470	79.998	19.997	103.169	20.118	5.748	0.507
757.500	462.751	79.997	19.996	103.171	20.118	5.738	0.496
758.000	462.989	80.000	20.000	103.170	20.117	5.790	0.514
758.500	463.235	79.998	20.001	103.169	20.116	5.900	0.502
759.000	463.481	80.000	20.000	103.169	20.120	5.593	0.488
759.500	463.762	80.000	19.996	103.169	20.118	5.782	0.509
760.000	464.005	79.999	19.999	103.169	20.120	5.628	0.526
760.500	464.245	80.002	19.994	103.169	20.115	5.984	0.504
761.001	464.523	80.003	19.993	103.170	20.116	5.892	0.500
761.501	464.773	80.000	19.994	103.171	20.119	5.677	0.523
762.000	464.997	79.995	20.003	103.172	20.118	5.787	0.501
762.500	465.299	80.001	19.994	103.170	20.114	6.055	0.500
763.000	465.536	80.002	19.994	103.172	20.117	5.789	0.532
763.500	465.759	80.000	19.998	103.173	20.119	5.670	0.500
764.000	466.019	79.998	19.998	103.171	20.117	5.827	0.472
764.500	466.272	79.998	19.996	103.170	20.117	5.819	0.498
765.000	466.522	80.003	19.991	103.172	20.113	6.077	0.508
765.500	466.774	80.004	19.997	103.173	20.115	5.967	0.503
766.000	467.026	80.003	19.996	103.170	20.114	6.026	0.503
766.500	467.280	80.004	19.993	103.170	20.120	5.624	0.504
767.000	467.526	80.002	19.994	103.170	20.118	5.788	0.503
767.500	467.803	80.004	19.995	103.171	20.119	5.668	0.512
768.000	468.059	80.001	19.998	103.170	20.119	5.667	0.528
768.500	468.304	80.004	20.001	103.172	20.121	5.556	0.517
769.000	468.584	80.000	19.995	103.172	20.118	5.740	0.513
769.500	468.816	80.001	19.997	103.172	20.120	5.619	0.518
770.000	469.078	80.004	19.996	103.171	20.120	5.632	0.503
770.500	469.362	80.009	19.996	103.171	20.121	5.506	0.520
771.000	469.591	80.003	19.992	103.171	20.119	5.656	0.530
771.500	469.833	80.004	19.993	103.169	20.119	5.693	0.492
772.000	470.099	80.002	19.992	103.169	20.120	5.600	0.489
772.500	470.356	80.001	19.996	103.170	20.121	5.539	0.515
773.000	470.607	80.004	19.997	103.167	20.121	5.561	0.516
773.500	470.868	80.007	19.993	103.168	20.123	5.390	0.510
774.000	471.119	80.001	19.995	103.171	20.121	5.551	0.512
774.500	471.372	79.998	19.994	103.171	20.120	5.598	0.508
775.000	471.637	80.006	19.991	103.171	20.121	5.531	0.511
775.500	471.879	80.004	19.996	103.173	20.122	5.437	0.513
776.000	472.161	80.012	19.988	103.173	20.121	5.557	0.515
776.500	472.380	79.998	19.997	103.175	20.123	5.370	0.512
777.000	472.626	80.001	19.995	103.173	20.122	5.469	0.483
777.500	472.920	80.009	19.990	103.172	20.122	5.439	0.502
778.000	473.114	80.008	19.990	103.172	20.123	5.416	0.514
778.500	473.409	79.998	19.998	103.174	20.121	5.520	0.489
779.000	473.671	80.006	19.990	103.169	20.119	5.665	0.523
779.500	473.954	80.003	19.992	103.172	20.122	5.469	0.551
780.000	474.203	80.005	19.989	103.174	20.122	5.439	0.538
780.500	474.463	80.006	19.997	103.174	20.125	5.278	0.520
781.000	474.725	80.002	19.991	103.172	20.125	5.262	0.516
781.500	474.988	80.004	19.992	103.171	20.125	5.239	0.524
782.000	475.242	80.003	19.989	103.168	20.124	5.294	0.521
782.500	475.484	79.999	19.995	103.168	20.125	5.259	0.506
783.000	475.758	79.997	19.994	103.166	20.126	5.176	0.506
783.500	476.024	80.003	19.993	103.166	20.124	5.325	0.528
784.000	476.280	80.002	20.000	103.168	20.125	5.225	0.531
784.500	476.489	79.997	20.003	103.167	20.123	5.376	0.493
785.000	476.767	80.005	19.994	103.163	20.127	5.131	0.476
785.500	477.018	80.007	19.994	103.163	20.125	5.215	0.508
786.000	477.251	80.002	19.995	103.162	20.126	5.179	0.506
786.500	477.523	80.003	19.998	103.161	20.127	5.085	0.494
787.000	477.802	80.014	19.990	103.162	20.124	5.316	0.528
787.500	478.042	80.007	19.995	103.168	20.124	5.299	0.535
788.000	478.304	80.001	19.998	103.170	20.124	5.340	0.511
788.500	478.560	79.999	19.995	103.171	20.127	5.110	0.510
789.000	478.799	80.006	19.996	103.170	20.123	5.368	0.507
789.500	479.059	80.001	19.999	103.169	20.125	5.272	0.497
790.000	479.328	80.006	19.996	103.166	20.127	5.109	0.514
790.500	479.589	80.006	19.993	103.166	20.126	5.152	0.530
791.000	479.848	80.001	19.994	103.166	20.126	5.170	0.525
791.500	480.110	80.006	19.992	103.168	20.125	5.217	0.521
792.000	480.348	80.008	19.991	103.170	20.127	5.089	0.510
792.500	480.624	80.006	19.994	103.172	20.124	5.292	0.507
793.000	480.870	80.003	19.992	103.171	20.127	5.117	0.518
793.500	481.123	80.005	19.992	103.171	20.126	5.203	0.511
794.000	481.356	80.006	19.994	103.170	20.127	5.133	0.492
794.500	481.645	80.005	19.994	103.170	20.127	5.091	0.504
795.000	481.919	80.003	19.995	103.170	20.129	4.952	0.543
795.500	482.141	80.004	19.994	103.169	20.127	5.097	0.530
796.000	482.415	80.004	19.992	103.169	20.127	5.109	0.496
796.500	482.671	80.004	19.997	103.166	20.126	5.164	0.513
797.000	482.925	80.004	19.996	103.160	20.127	5.132	0.520
797.500	483.147	80.004	19.994	103.152	20.129	4.956	0.493
798.000	483.407	80.008	19.996	103.149	20.127	5.107	0.479
798.500	483.686	80.003	19.996	103.148	20.129	4.993	0.511
799.000	483.959	80.005	19.993	103.152	20.129	4.954	0.546
799.500	484.184	80.008	19.993	103.158	20.126	5.174	0.525
800.000	484.454	80.007	19.994	103.165	20.128	5.030	0.497
800.500	484.697	80.006	19.993	103.168	20.128	5.010	0.504
801.000	484.958	80.009	19.993	103.167	20.130	4.863	0.508
801.500	485.200	80.003	19.994	103.167	20.130	4.881	0.503
802.000	485.460	80.008	19.994	103.167	20.131	4.812	0.503
802.500	485.698	80.007	19.993	103.167	20.129	4.938	0.500
803.000	485.938	80.002	19.994	103.169	20.128	5.006	0.488
803.500	486.242	80.008	19.991	103.170	20.129	4.934	0.511
804.000	486.464	80.009	19.992	103.170	20.131	4.851	0.534
804.500	486.732	80.005	19.993	103.172	20.132	4.763	0.508
805.000	487.014	80.006	19.994	103.172	20.130	4.879	0.520
805.501	487.242	80.005	19.993	103.172	20.133	4.655	0.530
806.000	487.499	80.002	19.995	103.171	20.130	4.889	0.497
806.500	487.774	80.006	19.989	103.167	20.134	4.637	0.509
807.000	488.024	80.006	19.990	103.166	20.132	4.714	0.529
807.500	488.268	80.003	19.994	103.167	20.131	4.816	0.510
808.000	488.516	80.001	19.995	103.166	20.131	4.796	0.493
808.500	488.791	80.004	19.993	103.168	20.132	4.724	0.507
809.000	489.032	79.997	19.993	103.171	20.132	4.773	0.519
809.500	489.303	80.007	19.994	103.168	20.133	4.663	0.514
810.000	489.563	80.001	19.996	103.167	20.133	4.647	0.522
810.500	489.824	80.000	19.995	103.167	20.131	4.804	0.526
811.000	490.077	80.009	19.990	103.163	20.131	4.788	0.518
811.500	490.350	80.003	19.995	103.161	20.134	4.578	0.520
812.000	490.600	80.002	19.993	103.163	20.129	4.953	0.524
812.500	490.858	80.003	19.994	103.162	20.130	4.873	0.515
813.000	491.108	80.002	19.994	103.160	20.132	4.737	0.508
813.500	491.393	80.003	19.990	103.164	20.133	4.706	0.521
814.000	491.639	80.001	19.998	103.164	20.133	4.694	0.533
814.500	491.908	80.006	19.991	103.165	20.133	4.698	0.523
815.000	492.133	80.004	19.993	103.167	20.133	4.692	0.505
815.500	492.409	80.007	19.991	103.171	20.134	4.631	0.498
816.000	492.674	80.004	19.994	103.173	20.133	4.706	0.521
816.500	492.941	80.003	19.995	103.174	20.134	4.590	0.537
817.000	493.189	80.003	19.995	103.173	20.134	4.627	0.523
817.500	493.454	80.002	19.994	103.171	20.131	4.838	0.514
818.000	493.694	80.001	19.995	103.169	20.132	4.781	0.509
818.500	493.975	80.002	19.996	103.168	20.135	4.551	0.513
819.000	494.252	80.001	19.994	103.169	20.134	4.623	0.539
819.500	494.524	80.006	19.994	103.170	20.138	4.330	0.553
820.000	494.725	80.001	19.994	103.171	20.133	4.674	0.511
820.500	495.055	80.001	19.997	103.169	20.136	4.486	0.502
821.000	495.317	80.006	19.994	103.164	20.135	4.499	0.561
821.500	495.544	80.000	19.995	103.163	20.133	4.676	0.541
822.000	495.794	80.001	19.995	103.162	20.133	4.686	0.483
822.500	496.054	80.005	19.994	103.161	20.132	4.737	0.493
823.000	496.338	80.010	19.988	103.165	20.134	4.572	0.527
823.500	496.573	80.006	19.999	103.171	20.131	4.790	0.532
824.000	496.848	80.003	19.994	103.171	20.136	4.476	0.514
824.500	497.124	80.001	19.994	103.174	20.134	4.613	0.531
825.000	497.356	80.005	19.993	103.175	20.133	4.660	0.530
825.500	497.629	80.001	19.994	103.175	20.132	4.719	0.507
826.000	497.903	80.003	19.996	103.173	20.132	4.735	0.526
826.500	498.116	80.001	19.995	103.173	20.135	4.530	0.516
827.000	498.381	79.999	20.000	103.172	20.134	4.578	0.482
827.500	498.663	80.002	19.994	103.172	20.135	4.519	0.513
828.001	498.928	80.007	19.993	103.172	20.132	4.769	0.547
828.500	499.197	80.002	20.000	103.173	20.137	4.401	0.541
829.000	499.441	80.002	19.996	103.171	20.138	4.320	0.524
829.500	499.711	80.000	19.995	103.171	20.134	4.591	0.514
830.000	499.986	80.008	19.993	103.170	20.131	4.835	0.529
830.500	500.240	80.004	19.994	103.171	20.134	4.583	0.537
831.000	500.525	80.002	19.995	103.169	20.135	4.552	0.534
831.500	500.784	80.002	19.992	103.171	20.134	4.639	0.542
832.000	500.986	79.996	19.998	103.170	20.136	4.459	0.503
832.500	501.284	80.009	19.994	103.168	20.134	4.629	0.480
833.000	501.529	80.006	19.994	103.168	20.135	4.554	0.521
833.500	501.790	80.005	19.998	103.170	20.134	4.576	0.524
834.000	502.085	80.005	19.992	103.166	20.133	4.662	0.531
834.500	502.325	80.001	19.995	103.167	20.135	4.521	0.546
835.000	502.610	79.998	19.994	103.166	20.135	4.542	0.530
835.500	502.851	80.003	19.995	103.158	20.134	4.631	0.525
836.001	503.110	80.005	19.993	103.155	20.133	4.678	0.513
836.500	503.349	80.005	19.993	103.159	20.133	4.647	0.500
837.000	503.605	80.004	19.993	103.159	20.133	4.708	0.497
837.500	503.906	79.998	19.999	103.161	20.134	4.623	0.526
838.000	504.128	80.003	19.996	103.166	20.134	4.629	0.539
838.500	504.425	80.000	19.996	103.167	20.136	4.457	0.521
839.000	504.674	80.000	19.990	103.165	20.135	4.516	0.533
839.500	504.938	80.000	19.993	103.163	20.134	4.632	0.529
840.000	505.178	80.004	19.992	103.161	20.135	4.554	0.509
840.500	505.481	80.001	19.994	103.162	20.133	4.644	0.524
841.000	505.737	80.001	19.994	103.160	20.134	4.632	0.551
841.500	505.975	80.006	19.993	103.160	20.133	4.666	0.526
842.000	506.245	79.999	19.995	103.161	20.133	4.689	0.501
842.500	506.498	80.001	20.000	103.162	20.133	4.650	0.516
843.000	506.751	80.003	19.996	103.156	20.136	4.485	0.515
843.500	507.019	80.004	19.995	103.158	20.137	4.410	0.513
844.001	507.251	79.999	19.996	103.161	20.133	4.709	0.510
844.500	507.526	80.001	19.995	103.158	20.136	4.483	0.504
845.000	507.793	80.004	19.995	103.156	20.134	4.627	0.524
845.500	508.033	80.002	19.997	103.160	20.139	4.245	0.524
846.000	508.323	80.007	19.988	103.161	20.136	4.446	0.519
846.500	508.561	80.005	19.994	103.163	20.136	4.456	0.529
847.000	508.818	80.004	19.995	103.166	20.136	4.448	0.512
847.500	509.095	80.000	19.993	103.168	20.136	4.469	0.515
848.000	509.348	80.002	19.994	103.168	20.134	4.618	0.532
848.500	509.557	80.003	19.994	103.167	20.136	4.461	0.496
849.000	509.809	80.003	19.991	103.160	20.136	4.447	0.461
849.500	510.067	80.002	19.995	103.154	20.136	4.426	0.485
850.000	510.348	80.005	19.996	103.151	20.136	4.451	0.524
850.500	510.557	80.003	19.995	103.150	20.140	4.186	0.514
851.000	510.854	80.002	19.997	103.149	20.137	4.410	0.498
851.500	511.066	80.004	19.995	103.149	20.134	4.581	0.508
852.000	511.352	80.004	19.995	103.150	20.137	4.394	0.504
852.500	511.570	80.003	19.995	103.150	20.136	4.477	0.501
853.000	511.847	80.004	19.995	103.149	20.136	4.469	0.499
853.500	512.079	80.001	19.999	103.151	20.135	4.549	0.502
854.000	512.365	80.003	19.995	103.154	20.138	4.298	0.514
854.500	512.596	80.004	19.993	103.155	20.137	4.410	0.518
855.000	512.850	80.006	19.998	103.159	20.137	4.365	0.501
855.500	513.099	80.003	19.992	103.158	20.137	4.400	0.494
856.000	513.354	80.003	19.993	103.159	20.138	4.322	0.503
856.500	513.608	80.005	19.996	103.160	20.134	4.579	0.506
857.000	513.893	80.005	19.995	103.162	20.140	4.138	0.524
857.500	514.154	80.004	19.995	103.157	20.140	4.182	0.543
858.000	514.369	80.002	19.999	103.155	20.142	4.066	0.511
858.500	514.652	80.004	19.997	103.152	20.138	4.298	0.487
859.000	514.915	80.002	19.997	103.148	20.139	4.231	0.522
859.500	515.176	80.008	19.995	103.147	20.139	4.253	0.535
860.000	515.412	80.001	19.995	103.147	20.137	4.421	0.510
860.500	515.701	80.003	20.000	103.147	20.139	4.278	0.511
861.000	515.949	80.002	19.998	103.149	20.135	4.524	0.531
861.500	516.191	80.004	19.997	103.153	20.138	4.309	0.514
862.000	516.419	80.002	19.998	103.154	20.138	4.309	0.480
862.500	516.728	80.003	19.995	103.152	20.135	4.541	0.504
863.000	516.975	80.003	19.994	103.151	20.135	4.565	0.546
863.500	517.204	80.006	19.995	103.147	20.137	4.369	0.516
864.000	517.486	80.001	19.998	103.145	20.134	4.593	0.494
864.500	517.759	80.007	19.994	103.146	20.137	4.398	0.533
865.000	518.046	80.003	19.994	103.151	20.137	4.375	0.558
865.500	518.263	79.999	19.995	103.153	20.136	4.493	0.532
866.000	518.548	80.007	19.996	103.154	20.138	4.341	0.502
866.500	518.769	80.001	20.000	103.155	20.136	4.477	0.504
867.000	519.041	80.003	19.996	103.150	20.137	4.404	0.500
867.500	519.288	80.002	19.995	103.145	20.139	4.256	0.506
868.000	519.537	80.002	19.996	103.143	20.139	4.242	0.507
868.500	519.809	80.001	19.995	103.145	20.140	4.148	0.509
869.000	520.062	80.004	19.995	103.144	20.138	4.353	0.523
869.500	520.303	80.005	19.994	103.145	20.138	4.343	0.509
870.000	520.574	80.006	19.991	103.146	20.139	4.263	0.503
870.500	520.831	80.004	19.994	103.145	20.139	4.233	0.520
871.000	521.086	80.008	19.997	103.142	20.140	4.170	0.521
871.500	521.391	79.999	20.000	103.140	20.139	4.267	0.536
872.000	521.608	80.003	19.998	103.139	20.138	4.318	0.541
872.500	521.861	79.999	19.999	103.140	20.141	4.090	0.496
873.000	522.154	80.005	19.998	103.139	20.140	4.210	0.508
873.500	522.393	80.012	19.990	103.140	20.141	4.094	0.539
874.000	522.623	80.002	19.996	103.144	20.138	4.342	0.501
874.500	522.858	80.007	19.994	103.145	20.140	4.149	0.467
875.000	523.120	80.006	19.994	103.144	20.140	4.169	0.481
875.500	523.402	80.004	19.991	103.147	20.141	4.126	0.520
876.000	523.658	80.006	19.994	103.149	20.142	4.002	0.541
876.500	523.890	80.004	19.994	103.148	20.140	4.205	0.513
877.000	524.139	80.002	19.993	103.146	20.144	3.880	0.484
877.500	524.423	80.003	19.996	103.148	20.143	3.972	0.507
878.000	524.640	80.005	19.994	103.144	20.144	3.910	0.518
878.500	524.886	80.008	19.994	103.142	20.142	4.026	0.482
879.001	525.151	80.005	19.993	103.139	20.142	4.055	0.487
879.500	525.421	80.001	19.997	103.140	20.143	3.964	0.523
880.000	525.625	80.005	19.994	103.142	20.144	3.923	0.504
880.501	525.920	80.005	19.996	103.146	20.145	3.842	0.487
881.000	526.155	80.006	19.994	103.149	20.144	3.899	0.515
881.500	526.423	80.011	19.987	103.151	20.148	3.616	0.516
882.000	526.682	80.006	19.994	103.156	20.147	3.691	0.514
882.500	526.909	80.004	19.995	103.160	20.150	3.453	0.507
883.000	527.208	80.005	19.993	103.162	20.150	3.423	0.507
883.500	527.412	80.006	19.992	103.165	20.150	3.480	0.515
884.000	527.679	80.000	19.995	103.170	20.153	3.256	0.487
884.500	527.907	80.013	19.992	103.170	20.152	3.337	0.483
885.000	528.242	80.008	19.988	103.171	20.149	3.551	0.529
885.500	528.459	80.005	19.988	103.173	20.151	3.364	0.557
886.000	528.691	79.999	19.998	103.175	20.152	3.335	0.501
886.500	528.942	79.998	19.999	103.175	20.150	3.463	0.466
887.000	529.208	80.004	19.995	103.174	20.150	3.431	0.500
887.500	529.477	80.005	19.994	103.172	20.148	3.612	0.526
888.000	529.727	80.004	19.994	103.172	20.149	3.516	0.528
888.500	529.987	80.003	19.994	103.172	20.148	3.603	0.514
889.000	530.229	80.001	19.994	103.172	20.150	3.471	0.506
889.500	530.517	80.003	19.993	103.173	20.150	3.461	0.516
890.000	530.708	80.001	19.996	103.173	20.150	3.476	0.504
890.500	530.995	80.001	19.996	103.166	20.149	3.504	0.478
891.000	531.260	80.004	19.996	103.163	20.149	3.563	0.515
891.500	531.486	80.002	19.994	103.160	20.146	3.738	0.522
892.000	531.739	80.005	19.994	103.159	20.146	3.749	0.485
892.500	532.012	80.002	19.995	103.157	20.146	3.746	0.502
893.000	532.260	80.003	19.994	103.159	20.145	3.789	0.523
893.500	532.523	80.002	19.994	103.157	20.142	3.997	0.516
894.000	532.775	80.006	19.992	103.159	20.146	3.710	0.513
894.500	533.028	80.005	19.996	103.159	20.145	3.850	0.510
895.000	533.293	79.999	19.992	103.159	20.145	3.836	0.512
895.500	533.535	80.008	19.992	103.161	20.146	3.777	0.512
896.000	533.779	79.997	20.000	103.160	20.142	4.009	0.496
896.500	534.035	80.005	19.995	103.156	20.144	3.881	0.493
897.000	534.302	80.001	19.995	103.154	20.146	3.756	0.512
897.500	534.537	80.002	19.994	103.158	20.145	3.781	0.513
898.000	534.800	80.005	19.996	103.158	20.143	3.984	0.500
898.500	535.036	80.002	19.997	103.162	20.145	3.846	0.498
899.000	535.321	80.000	19.997	103.169	20.145	3.824	0.510
899.500	535.539	80.006	19.992	103.169	20.145	3.820	0.512
900.000	535.775	80.009	19.988	103.166	20.146	3.747	0.479
900.501	536.070	80.003	19.998	103.162	20.144	3.875	0.492
901.000	536.316	79.998	19.997	103.157	20.141	4.127	0.536
901.500	536.550	80.003	19.993	103.151	20.143	3.983	0.511
902.000	536.794	80.002	19.995	103.152	20.141	4.072	0.479
902.500	537.056	80.005	19.992	103.151	20.143	3.980	0.492
903.000	537.330	80.004	19.993	103.149	20.142	3.995	0.521
903.500	537.591	80.001	19.996	103.151	20.143	3.970	0.536
904.000	537.804	80.005	19.994	103.152	20.143	3.992	0.505
904.500	538.071	80.004	19.994	103.147	20.138	4.316	0.477
905.000	538.368	80.001	19.995	103.148	20.145	3.829	0.522
905.500	538.607	80.002	19.995	103.151	20.143	3.943	0.550
906.000	538.867	80.003	19.993	103.153	20.142	4.006	0.518
906.500	539.107	80.002	19.993	103.156	20.144	3.880	0.499
907.000	539.356	80.000	19.994	103.156	20.141	4.068	0.494
907.500	539.596	80.001	19.997	103.157	20.143	3.966	0.489
908.000	539.852	80.004	19.993	103.157	20.144	3.921	0.493
908.500	540.141	80.003	19.996	103.155	20.143	3.985	0.521
909.000	540.376	80.002	19.994	103.155	20.143	3.956	0.534
909.500	540.633	80.006	19.994	103.156	20.143	3.946	0.508
910.000	540.905	80.004	19.993	103.154	20.142	3.997	0.511
910.500	541.167	80.001	19.998	103.150	20.143	3.954	0.532
911.000	541.404	80.006	19.991	103.149	20.142	4.046	0.516
911.500	541.632	80.002	19.994	103.147	20.140	4.172	0.482
912.000	541.895	80.003	19.997	103.148	20.141	4.131	0.478
912.500	542.207	80.006	19.994	103.149	20.139	4.231	0.533
913.000	542.445	80.004	19.995	103.150	20.137	4.391	0.563
913.500	542.690	80.009	19.991	103.152	20.140	4.171	0.516
914.000	542.938	80.004	19.991	103.158	20.141	4.082	0.488
914.500	543.167	80.001	19.998	103.157	20.139	4.216	0.485
915.000	543.429	80.005	19.993	103.158	20.139	4.243	0.485
915.500	543.677	80.003	19.996	103.163	20.141	4.070	0.501
916.000	543.887	80.003	19.996	103.166	20.141	4.103	0.484
916.500	544.195	80.003	19.995	103.163	20.141	4.127	0.488
917.000	544.448	80.004	19.990	103.163	20.142	4.066	0.540
917.500	544.687	80.006	19.993	103.165	20.143	3.930	0.527
918.000	544.911	80.004	19.994	103.161	20.141	4.101	0.478
918.501	545.169	80.003	19.993	103.157	20.142	4.031	0.472
919.000	545.406	80.002	19.999	103.156	20.142	4.023	0.488
919.500	545.661	80.003	19.998	103.151	20.141	4.080	0.494
920.000	545.936	80.004	19.994	103.144	20.141	4.078	0.511
920.500	546.172	80.003	19.994	103.144	20.140	4.186	0.520
921.000	546.428	80.003	19.988	103.144	20.142	3.995	0.502
921.500	546.727	80.002	19.996	103.143	20.144	3.909	0.524
922.000	546.919	80.001	19.994	103.144	20.141	4.127	0.523
922.500	547.200	80.000	19.996	103.148	20.140	4.145	0.481
923.000	547.493	80.005	19.993	103.151	20.141	4.117	0.524
923.500	547.656	80.002	19.997	103.153	20.142	4.046	0.516
924.000	547.949	80.003	19.993	103.154	20.141	4.093	0.456
924.500	548.218	80.005	19.992	103.160	20.142	4.046	0.509
925.000	548.456	80.003	19.994	103.158	20.144	3.897	0.534
925.500	548.699	80.002	19.996	103.158	20.144	3.918	0.494
926.000	548.978	80.003	19.993	103.159	20.145	3.834	0.502
926.500	549.211	79.999	19.998	103.161	20.145	3.814	0.517
927.000	549.431	79.997	19.993	103.154	20.144	3.889	0.482
927.500	549.729	80.002	19.998	103.155	20.146	3.712	0.485
928.000	549.974	80.002	19.997	103.153	20.146	3.718	0.531
928.500	550.242	80.002	19.995	103.153	20.148	3.594	0.528
929.000	550.454	80.002	19.996	103.148	20.140	4.147	0.496
929.500	550.732	80.003	19.997	103.151	20.146	3.710	0.485
930.000	550.972	80.002	19.994	103.149	20.144	3.867	0.504
930.500	551.258	80.004	19.996	103.146	20.145	3.834	0.522
931.000	551.517	80.001	19.992	103.145	20.148	3.630	0.536
931.500	551.754	79.998	20.001	103.147	20.143	3.942	0.520
932.000	551.987	80.009	19.990	103.150	20.142	4.005	0.483
932.500	552.250	80.003	19.995	103.154	20.148	3.618	0.483
933.000	552.491	79.999	19.999	103.155	20.144	3.895	0.500
933.501	552.776	80.001	19.997	103.157	20.145	3.838	0.515
934.001	553.014	80.004	19.990	103.156	20.140	4.149	0.525
934.501	553.276	80.004	19.989	103.152	20.147	3.703	0.512
935.000	553.519	80.002	19.995	103.148	20.144	3.911	0.502
935.500	553.783	80.009	19.987	103.145	20.147	3.679	0.505
936.000	553.995	79.999	19.998	103.148	20.144	3.864	0.491
936.500	554.309	80.006	19.995	103.146	20.144	3.905	0.501
937.000	554.579	80.004	19.992	103.149	20.142	4.063	0.555
937.500	554.855	80.005	19.996	103.148	20.143	3.957	0.565
938.000	555.104	80.005	19.995	103.151	20.144	3.858	0.536
938.500	555.358	80.008	19.988	103.150	20.141	4.123	0.514
939.000	555.611	79.998	19.999	103.155	20.143	3.938	0.505
939.500	555.853	80.002	19.995	103.152	20.143	3.934	0.501
940.001	556.090	80.002	19.991	103.153	20.142	4.015	0.487
940.500	556.339	80.002	19.995	103.152	20.147	3.651	0.483
941.000	556.636	80.002	19.994	103.149	20.145	3.824	0.516
941.500	556.891	80.005	19.995	103.148	20.143	3.940	0.549
942.000	557.151	80.002	19.997	103.153	20.145	3.799	0.533
942.500	557.400	80.003	19.999	103.155	20.143	3.954	0.512
943.000	557.625	80.005	19.992	103.154	20.145	3.846	0.492
943.500	557.927	80.006	19.991	103.158	20.141	4.134	0.501
944.000	558.167	80.002	19.997	103.160	20.144	3.854	0.534
944.500	558.470	80.003	19.997	103.157	20.144	3.856	0.542
945.000	558.693	80.002	19.993	103.158	20.143	3.964	0.535
945.500	558.994	80.002	19.999	103.161	20.143	3.958	0.525
946.000	559.231	80.001	19.998	103.161	20.144	3.919	0.531
946.500	559.488	80.001	19.996	103.163	20.142	4.066	0.516
947.000	559.736	79.998	20.001	103.166	20.144	3.875	0.500
947.500	560.056	80.002	19.992	103.168	20.142	4.037	0.536
948.000	560.269	80.000	19.999	103.171	20.143	3.978	0.550
948.500	560.525	80.006	19.997	103.169	20.143	3.931	0.501
949.000	560.784	80.002	19.996	103.165	20.141	4.117	0.492
949.500	561.045	80.002	19.999	103.161	20.143	3.948	0.518
950.001	561.327	80.003	19.996	103.156	20.143	3.980	0.532
950.501	561.568	80.004	19.994	103.152	20.144	3.872	0.533
951.000	561.834	80.002	19.995	103.148	20.143	3.941	0.515
951.500	562.100	80.002	19.993	103.149	20.145	3.809	0.520
952.000	562.392	80.003	19.993	103.151	20.141	4.080	0.545
952.500	562.639	79.997	19.997	103.156	20.144	3.870	0.549
953.000	562.884	80.003	19.993	103.158	20.141	4.070	0.516
953.500	563.135	80.004	19.998	103.166	20.142	4.017	0.494
954.000	563.415	80.002	19.993	103.168	20.139	4.218	0.513
954.500	563.703	80.002	19.995	103.169	20.141	4.112	0.550
955.000	563.934	80.002	19.996	103.170	20.139	4.216	0.544
955.500	564.200	80.005	19.994	103.171	20.141	4.137	0.508
956.000	564.441	80.005	19.994	103.167	20.141	4.080	0.502
956.500	564.701	80.000	19.996	103.161	20.142	4.062	0.504
957.000	564.967	80.006	19.991	103.156	20.144	3.911	0.514
957.500	565.242	80.004	19.994	103.153	20.143	3.966	0.534
958.000	565.502	80.007	19.991	103.150	20.144	3.895	0.538
958.500	565.754	80.003	19.995	103.151	20.141	4.114	0.524
959.000	566.010	80.004	19.996	103.154	20.142	4.002	0.510
959.500	566.279	80.002	19.995	103.157	20.143	3.960	0.516
960.000	566.530	80.003	19.995	103.159	20.140	4.178	0.522
960.500	566.829	80.008	19.990	103.162	20.141	4.125	0.535
961.000	567.069	80.000	19.998	103.164	20.140	4.152	0.544
961.500	567.316	80.004	19.990	103.165	20.139	4.247	0.513
962.000	567.572	80.006	19.994	103.168	20.137	4.398	0.495
962.500	567.855	80.008	19.991	103.165	20.143	3.989	0.521
963.000	568.115	80.004	19.991	103.163	20.140	4.180	0.541
963.500	568.345	80.006	19.990	103.161	20.142	4.035	0.517
964.000	568.617	80.006	19.991	103.162	20.142	4.051	0.496
964.500	568.898	80.005	19.993	103.160	20.141	4.127	0.527
965.000	569.147	80.007	19.993	103.161	20.141	4.129	0.541
965.500	569.403	80.003	19.997	103.162	20.142	4.001	0.518
966.000	569.662	80.006	19.991	103.157	20.143	3.976	0.511
966.500	569.904	80.007	19.996	103.153	20.145	3.824	0.508
967.000	570.156	80.006	19.995	103.152	20.142	4.017	0.497
967.500	570.412	80.006	19.995	103.152	20.146	3.772	0.501
968.000	570.678	80.005	19.991	103.154	20.142	4.008	0.515
968.500	570.936	80.010	19.990	103.159	20.144	3.905	0.522
969.000	571.153	80.003	19.994	103.165	20.142	4.049	0.499
969.500	571.460	80.006	19.992	103.164	20.142	4.005	0.499
970.000	571.706	80.003	19.997	103.162	20.144	3.868	0.539
970.500	571.992	80.004	19.990	103.158	20.140	4.188	0.543
971.000	572.256	79.999	20.000	103.155	20.143	3.956	0.542
971.500	572.509	80.006	19.993	103.149	20.144	3.893	0.534
972.000	572.744	80.004	19.994	103.149	20.144	3.887	0.503
972.500	573.024	79.999	19.996	103.150	20.144	3.907	0.502
973.000	573.261	80.006	19.995	103.151	20.143	3.968	0.516
973.500	573.558	80.001	19.994	103.151	20.144	3.917	0.525
974.000	573.814	80.007	19.991	103.155	20.144	3.854	0.544
974.500	574.030	79.995	19.995	103.157	20.145	3.836	0.512
975.000	574.316	80.005	19.995	103.158	20.142	4.029	0.487
975.500	574.583	80.001	19.994	103.159	20.143	3.940	0.528
976.000	574.853	79.997	19.989	103.159	20.143	3.942	0.545
976.500	575.151	80.003	19.992	103.156	20.143	3.985	0.552
977.000	575.415	80.001	19.995	103.157	20.144	3.881	0.565
977.500	575.635	80.003	19.992	103.159	20.144	3.910	0.523
978.000	575.913	80.005	19.992	103.162	20.142	4.019	0.491
978.500	576.178	80.002	19.995	103.166	20.144	3.897	0.521
979.000	576.431	80.001	19.993	103.167	20.139	4.213	0.530
979.500	576.684	80.003	19.995	103.164	20.144	3.920	0.512
980.000	576.941	80.002	19.994	103.161	20.144	3.873	0.508
980.500	577.223	80.005	19.993	103.157	20.146	3.746	0.524
981.000	577.493	80.001	19.999	103.153	20.145	3.822	0.545
981.500	577.709	80.003	19.996	103.152	20.145	3.803	0.519
982.000	578.005	79.998	19.990	103.150	20.147	3.706	0.499
982.500	578.243	79.999	19.993	103.147	20.144	3.881	0.523
983.000	578.509	80.004	19.993	103.145	20.144	3.899	0.519
983.500	578.759	80.004	19.993	103.148	20.142	4.025	0.510
984.000	579.007	80.006	19.993	103.153	20.144	3.916	0.507
984.500	579.250	80.003	19.993	103.157	20.143	3.964	0.494
985.000	579.528	80.003	19.994	103.160	20.143	3.946	0.505
985.500	579.783	80.003	19.995	103.160	20.143	3.926	0.527
986.000	580.042	80.002	19.995	103.155	20.142	4.003	0.524
986.500	580.312	80.001	19.996	103.147	20.144	3.881	0.522
987.001	580.590	80.005	19.996	103.142	20.144	3.905	0.539
987.501	580.814	80.005	19.994	103.141	20.141	4.076	0.525
988.000	581.084	80.003	19.994	103.140	20.141	4.067	0.498
988.500	581.337	80.002	19.995	103.141	20.142	4.040	0.508
989.000	581.598	80.004	19.994	103.143	20.141	4.113	0.518
989.500	581.866	80.000	19.998	103.145	20.140	4.170	0.521
990.000	582.127	80.002	19.996	103.143	20.143	3.993	0.529
990.500	582.353	80.003	19.998	103.146	20.142	4.058	0.508
991.000	582.626	80.006	19.992	103.148	20.139	4.239	0.493
991.500	582.867	79.999	19.996	103.152	20.141	4.109	0.507
992.000	583.087	80.003	19.994	103.155	20.139	4.225	0.488
992.500	583.382	80.005	19.992	103.160	20.140	4.184	0.488
993.000	583.652	79.999	19.992	103.159	20.139	4.245	0.540
993.500	583.924	80.005	19.993	103.158	20.140	4.203	0.553
994.000	584.184	80.005	19.988	103.154	20.142	4.064	0.537
994.500	584.429	80.007	19.992	103.150	20.143	3.989	0.519
995.000	584.684	79.999	19.998	103.146	20.139	4.252	0.503
995.500	584.939	80.002	19.997	103.145	20.143	3.932	0.505
996.001	585.225	80.005	19.993	103.143	20.142	4.066	0.525
996.500	585.463	80.005	19.992	103.148	20.144	3.905	0.532
997.000	585.682	80.008	19.991	103.148	20.142	4.066	0.491
997.500	585.921	80.002	19.996	103.148	20.146	3.750	0.458
998.000	586.210	80.002	19.996	103.146	20.144	3.915	0.493
998.500	586.459	79.997	19.998	103.145	20.137	4.355	0.533
999.000	586.688	80.000	19.995	103.138	20.142	4.035	0.508
999.500	586.966	80.005	19.993	103.137	20.144	3.897	0.493
1000.000	587.236	79.992	19.997	103.140	20.140	4.143	0.527
1000.500	587.490	80.003	19.994	103.139	20.142	4.060	0.536
1001.000	587.707	80.001	19.993	103.142	20.141	4.100	0.497
1001.500	587.999	80.004	19.992	103.147	20.141	4.108	0.490
1002.000	588.216	80.002	19.992	103.149	20.141	4.105	0.509
1002.500	588.456	80.003	19.996	103.147	20.141	4.113	0.483
1003.000	588.742	80.000	19.996	103.148	20.142	4.035	0.492
1003.500	589.009	80.000	19.993	103.148	20.140	4.182	0.539
1004.000	589.241	80.004	19.995	103.145	20.143	3.940	0.526
1004.500	589.537	80.001	19.996	103.145	20.139	4.214	0.514
1005.000	589.793	79.999	19.994	103.143	20.143	3.956	0.540
1005.500	590.064	80.000	19.994	103.143	20.143	3.978	0.540
1006.000	590.307	80.001	19.994	103.142	20.142	4.041	0.521
1006.500	590.534	80.000	19.994	103.142	20.140	4.190	0.492
1007.000	590.800	80.000	19.996	103.144	20.141	4.097	0.481
1007.500	591.060	80.000	19.997	103.147	20.140	4.194	0.510
1008.000	591.355	80.004	19.996	103.149	20.142	4.007	0.541
1008.500	591.583	80.005	19.994	103.154	20.141	4.100	0.539
1009.000	591.873	80.001	19.996	103.157	20.141	4.102	0.520
1009.500	592.147	80.001	19.993	103.155	20.141	4.113	0.541
1010.000	592.403	80.002	19.995	103.157	20.139	4.273	0.547
1010.500	592.653	80.003	19.994	103.156	20.138	4.302	0.519
1011.000	592.911	80.003	19.995	103.153	20.142	4.017	0.507
1011.500	593.194	80.003	19.996	103.154	20.141	4.078	0.524
1012.000	593.438	80.002	19.996	103.158	20.141	4.070	0.534
1012.500	593.732	79.997	19.997	103.157	20.142	4.002	0.533
1013.000	593.963	80.006	19.995	103.155	20.146	3.779	0.531
1013.500	594.235	80.007	19.996	103.156	20.142	3.998	0.514
1014.000	594.490	80.001	19.998	103.154	20.145	3.827	0.515
1014.500	594.787	80.003	19.994	103.151	20.145	3.793	0.540
1015.000	595.032	80.002	19.995	103.152	20.144	3.895	0.548
1015.500	595.327	80.003	19.994	103.157	20.142	4.003	0.541
1016.000	595.565	80.002	19.994	103.158	20.143	3.972	0.536
1016.500	595.879	80.004	19.995	103.157	20.140	4.164	0.542
1017.000	596.086	80.007	19.994	103.156	20.144	3.911	0.536
1017.500	596.396	80.004	19.987	103.150	20.144	3.920	0.519
1018.000	596.637	80.006	19.992	103.148	20.140	4.176	0.534
1018.500	596.907	80.005	19.992	103.149	20.140	4.164	0.531
1019.000	597.190	80.005	19.996	103.152	20.143	3.950	0.532
1019.500	597.461	80.004	19.992	103.157	20.142	4.039	0.554
1020.000	597.684	80.003	19.996	103.161	20.140	4.170	0.524
1020.500	597.975	80.005	19.986	103.157	20.139	4.220	0.504
1021.000	598.254	80.005	19.994	103.157	20.141	4.074	0.542
1021.500	598.482	80.002	19.990	103.156	20.142	4.060	0.539
1022.000	598.805	80.007	19.994	103.154	20.143	3.980	0.529
1022.500	599.001	80.005	19.995	103.155	20.143	3.960	0.535
1023.000	599.336	80.004	19.993	103.160	20.140	4.187	0.525
1023.500	599.536	80.001	19.992	103.161	20.142	4.008	0.533
1024.000	599.887	80.000	19.991	103.163	20.141	4.088	0.543
1024.500	600.097	79.998	19.994	103.164	20.139	4.257	0.556
1025.000	600.340	80.004	19.992	103.162	20.141	4.098	0.507
1025.500	600.655	80.003	19.993	103.161	20.142	4.055	0.506
1026.001	600.936	80.003	19.994	103.158	20.142	4.037	0.577
1026.501	601.188	80.001	19.997	103.154	20.141	4.106	0.565
1027.000	601.502	80.002	19.994	103.150	20.143	3.952	0.550
1027.500	601.739	80.002	19.996	103.149	20.142	4.017	0.558
1028.000	601.977	80.004	19.995	103.148	20.141	4.086	0.513
1028.501	602.273	80.003	19.994	103.146	20.141	4.133	0.504
1029.001	602.550	80.005	19.995	103.145	20.141	4.127	0.554
1029.500	602.762	80.004	19.992	103.151	20.143	3.946	0.531
1030.000	603.085	80.002	19.996	103.156	20.140	4.156	0.512
1030.500	603.330	80.006	19.993	103.155	20.139	4.233	0.552
1031.000	603.659	80.003	19.995	103.156	20.141	4.103	0.571
1031.500	603.846	80.005	19.989	103.157	20.140	4.176	0.545
1032.000	604.152	80.004	19.996	103.155	20.140	4.206	0.505
1032.500	604.426	80.000	19.995	103.154	20.141	4.076	0.537
1033.000	604.709	80.005	19.993	103.156	20.142	4.064	0.569
1033.500	604.920	80.000	19.996	103.162	20.142	4.047	0.526
1034.001	605.163	80.000	19.996	103.165	20.143	3.992	0.474
1034.501	605.518	80.001	19.992	103.166	20.141	4.080	0.526
1035.000	605.717	79.999	19.999	103.168	20.143	3.952	0.576
1035.500	606.075	80.003	19.993	103.169	20.141	4.111	0.555
1036.000	606.262	80.001	19.997	103.166	20.147	3.647	0.551
1036.500	606.593	80.003	19.995	103.162	20.139	4.253	0.532
1037.000	606.812	79.999	19.996	103.158	20.139	4.257	0.534
1037.500	607.074	80.005	19.997	103.156	20.154	3.173	0.516
1038.000	607.340	80.002	19.991	103.156	20.133	4.652	0.504
1038.500	607.663	80.003	19.994	103.156	20.148	3.602	0.558
1039.000	607.836	80.004	19.997	103.156	20.151	3.366	0.543
1039.500	608.210	80.001	19.995	103.157	20.144	3.856	0.522
1040.000	608.404	80.003	19.995	103.152	20.127	5.092	0.557
1040.500	608.674	80.004	19.994	103.149	20.130	4.915	0.516
1041.000	608.937	80.004	20.000	103.144	20.132	4.726	0.498
1041.500	609.236	80.005	19.998	103.143	20.145	3.832	0.547
1042.001	609.586	80.005	19.996	103.145	20.141	4.090	0.606
1042.501	609.672	80.004	19.993	103.151	20.135	4.512	0.543
1043.000	609.975	80.004	19.997	103.153	20.141	4.119	0.412
1043.500	610.369	80.004	19.999	103.159	20.145	3.809	0.543
1044.000	610.502	80.003	19.992	103.162	20.143	3.978	0.612
1044.500	610.818	79.995	19.999	103.163	20.139	4.255	0.488
1045.000	611.090	80.006	19.992	103.157	20.144	3.915	0.519
1045.500	611.385	80.003	19.994	103.159	20.140	4.194	0.578
1046.001	611.637	80.005	19.995	103.155	20.141	4.108	0.557
1046.501	611.956	80.004	19.995	103.150	20.141	4.086	0.559
1047.000	612.147	80.002	19.996	103.146	20.140	4.156	0.541
1047.500	612.354	80.004	19.995	103.148	20.145	3.806	0.454
1048.000	612.703	80.002	19.998	103.149	20.141	4.084	0.477
1048.500	613.068	80.004	19.994	103.151	20.142	4.036	0.635
1049.000	613.193	80.001	19.994	103.155	20.138	4.315	0.602
1049.500	613.400	80.005	19.992	103.155	20.143	3.932	0.411
1050.001	613.975	80.003	19.996	103.154	20.142	4.031	0.557
1050.501	614.049	80.006	19.994	103.149	20.141	4.088	0.715
1051.001	614.203	80.006	19.995	103.146	20.141	4.078	0.438
1051.501	614.558	80.005	19.994	103.145	20.143	3.966	0.368
1052.000	614.395	80.006	19.990	103.147	20.142	4.012	0.351
1052.500	615.761	80.004	19.996	103.147	20.142	4.045	0.698
1053.001	616.054	80.004	20.001	103.150	20.136	4.450	1.431
1053.501	616.293	80.002	19.995	103.153	20.141	4.126	1.095
1054.000	615.661	80.006	19.992	103.157	20.142	4.045	0.070
1054.501	615.692	80.005	19.991	103.160	20.141	4.131	-0.497
1055.001	616.055	80.006	19.992	103.165	20.141	4.107	-0.103
1055.500	616.573	79.997	19.997	103.165	20.143	3.976	0.637
1056.001	617.025	80.000	19.995	103.165	20.139	4.251	0.925
1056.501	617.039	80.006	19.993	103.162	20.143	3.962	0.718
1057.001	617.409	80.006	19.992	103.160	20.142	4.047	0.425
1057.500	617.909	80.001	19.996	103.157	20.144	3.911	0.627
1058.000	617.975	80.006	19.989	103.151	20.143	3.962	0.718
1058.500	618.264	80.000	19.996	103.150	20.141	4.084	0.460
1059.000	618.697	80.001	19.993	103.147	20.143	3.986	0.539
1059.500	618.853	80.002	19.994	103.145	20.144	3.921	0.656
1060.000	619.020	80.002	19.995	103.144	20.144	3.905	0.456
1060.500	619.447	80.000	19.995	103.149	20.143	3.954	0.458
1061.000	619.682	80.003	19.995	103.152	20.146	3.728	0.628
1061.500	619.921	80.009	19.990	103.158	20.141	4.094	0.568
1062.000	620.122	80.005	19.995	103.163	20.140	4.141	0.457
1062.500	620.515	79.998	19.997	103.166	20.142	4.027	0.517
1063.000	620.678	79.998	19.997	103.167	20.145	3.791	0.575
1063.500	620.970	80.005	19.993	103.169	20.143	3.938	0.506
1064.001	621.337	80.009	19.989	103.168	20.143	3.933	0.557
1064.501	621.461	80.003	19.995	103.165	20.142	4.058	0.575
1065.000	621.736	79.999	19.994	103.160	20.143	3.942	0.445
1065.501	622.094	80.001	19.995	103.159	20.143	3.972	0.516
1066.001	622.255	80.006	19.993	103.155	20.145	3.781	0.576
1066.500	622.594	80.002	19.995	103.153	20.144	3.893	0.509
1067.000	622.809	80.002	19.988	103.150	20.142	4.038	0.527
1067.501	623.091	79.999	19.999	103.156	20.140	4.172	0.525
1068.001	623.341	80.002	19.996	103.156	20.143	3.971	0.514
1068.501	623.591	80.004	19.995	103.161	20.143	3.960	0.516
1069.001	623.882	80.003	19.994	103.162	20.142	4.007	0.521
1069.501	624.151	80.003	19.996	103.164	20.142	4.060	0.551
1070.000	624.393	80.002	19.994	103.163	20.141	4.076	0.535
1070.500	624.639	80.001	19.999	103.164	20.143	3.927	0.500
1071.001	624.840	80.001	19.999	103.162	20.145	3.817	0.468
1071.501	625.198	80.001	19.994	103.158	20.145	3.789	0.503
1072.000	625.408	80.003	19.995	103.155	20.145	3.852	0.564
1072.500	625.673	80.005	19.994	103.153	20.143	3.989	0.521
1073.000	625.996	80.000	19.996	103.152	20.143	3.985	0.531
1073.500	626.211	80.006	19.994	103.152	20.144	3.910	0.563
1074.000	626.499	80.004	19.994	103.156	20.143	3.963	0.521
1074.500	626.762	80.003	19.991	103.158	20.139	4.221	0.527
1075.000	627.024	80.003	19.996	103.157	20.140	4.209	0.538
1075.500	627.309	80.003	19.990	103.155	20.139	4.249	0.536
1076.000	627.507	80.005	19.994	103.155	20.142	4.062	0.515
1076.500	627.817	80.000	19.994	103.152	20.139	4.212	0.496
1077.000	628.057	80.000	19.997	103.148	20.144	3.905	0.529
1077.500	628.335	79.999	19.998	103.146	20.143	3.974	0.534
1078.000	628.551	80.003	19.997	103.148	20.141	4.123	0.506
1078.500	628.846	80.006	19.992	103.144	20.139	4.222	0.502
1079.000	629.092	80.000	19.992	103.146	20.139	4.222	0.526
1079.500	629.355	80.005	19.993	103.150	20.142	4.033	0.525
1080.000	629.603	80.002	19.998	103.153	20.141	4.129	0.510
1080.500	629.864	80.004	19.992	103.152	20.140	4.166	0.510
1081.000	630.128	80.000	19.996	103.158	20.138	4.325	0.517
1081.501	630.377	79.996	19.993	103.158	20.143	3.975	0.519
1082.001	630.636	80.000	19.995	103.158	20.140	4.152	0.510
1082.501	630.877	80.002	19.994	103.156	20.136	4.497	0.504
1083.001	631.155	80.001	19.996	103.156	20.136	4.432	0.510
1083.500	631.428	80.001	19.994	103.149	20.138	4.286	0.535
1084.000	631.672	80.002	19.995	103.145	20.139	4.231	0.534
1084.500	631.981	80.000	19.996	103.141	20.135	4.542	0.535
1085.000	632.231	80.002	19.994	103.142	20.137	4.412	0.556
1085.501	632.449	80.001	19.993	103.142	20.137	4.366	0.513
1086.001	632.692	80.004	19.993	103.145	20.137	4.400	0.464
1086.500	632.974	80.002	19.995	103.147	20.135	4.540	0.493
1087.000	633.254	80.002	19.997	103.150	20.139	4.260	0.544
1087.501	633.487	80.003	19.991	103.152	20.141	4.131	0.538
1088.001	633.755	80.002	19.997	103.156	20.138	4.320	0.507
1088.500	633.998	79.999	19.994	103.157	20.137	4.424	0.506
1089.000	634.245	80.000	19.994	103.158	20.135	4.503	0.500
1089.500	634.503	80.007	19.993	103.160	20.138	4.310	0.498
1090.000	634.804	80.009	19.992	103.157	20.138	4.353	0.532
1090.501	635.040	79.998	19.996	103.153	20.137	4.398	0.548
1091.001	635.285	80.002	19.995	103.148	20.137	4.359	0.509
1091.501	635.579	80.000	19.995	103.148	20.137	4.414	0.510
1092.000	635.829	80.005	19.995	103.145	20.138	4.286	0.541
1092.500	636.086	80.004	19.995	103.145	20.141	4.107	0.525
1093.000	636.369	80.001	19.997	103.145	20.134	4.577	0.524
1093.500	636.660	80.002	19.997	103.149	20.136	4.479	0.558
1094.000	636.855	80.002	19.995	103.147	20.134	4.615	0.530
1094.501	637.114	80.004	19.994	103.146	20.138	4.289	0.469
1095.001	637.379	80.001	19.999	103.144	20.139	4.251	0.488
1095.501	637.625	80.001	19.996	103.144	20.133	4.642	0.518
1096.001	637.883	80.006	19.996	103.142	20.135	4.512	0.508
1096.500	638.090	79.999	19.998	103.142	20.136	4.487	0.485
1097.000	638.396	80.005	19.992	103.143	20.130	4.878	0.489
1097.500	638.620	80.000	19.999	103.144	20.133	4.669	0.521
1098.000	638.854	80.003	19.999	103.143	20.131	4.805	0.494
1098.500	639.107	80.004	19.994	103.145	20.136	4.475	0.473
1099.000	639.361	80.003	19.996	103.148	20.134	4.583	0.497
1099.500	639.641	80.003	19.995	103.149	20.133	4.676	0.520
1100.000	639.893	80.003	19.998	103.153	20.137	4.375	0.533
1100.501	640.171	80.005	19.992	103.157	20.140	4.206	0.531
1101.002	640.399	80.005	19.996	103.156	20.134	4.636	0.518
1101.502	640.687	80.001	20.000	103.153	20.132	4.762	0.511
1102.001	640.912	80.001	19.997	103.152	20.135	4.541	0.514
1102.500	641.171	80.008	19.991	103.151	20.134	4.585	0.499
1103.000	641.430	79.997	19.998	103.151	20.133	4.660	0.501
1103.500	641.678	80.000	19.997	103.153	20.136	4.497	0.512
1104.000	641.937	80.003	19.996	103.157	20.132	4.776	0.507
1104.500	642.190	80.003	19.996	103.161	20.133	4.680	0.509
1105.000	642.486	80.004	19.995	103.160	20.130	4.914	0.531
1105.500	642.705	80.005	19.997	103.161	20.134	4.591	0.532
1106.000	642.955	80.003	19.997	103.158	20.136	4.479	0.492
1106.501	643.200	80.007	19.996	103.155	20.137	4.406	0.482
1107.001	643.502	80.004	19.997	103.151	20.136	4.473	0.521
1107.500	643.710	80.007	19.991	103.149	20.133	4.673	0.529
1108.000	643.967	80.001	19.997	103.145	20.132	4.778	0.488
1108.500	644.245	80.002	19.997	103.144	20.134	4.609	0.500
1109.000	644.506	80.007	19.996	103.149	20.134	4.577	0.536
1109.501	644.745	80.008	19.993	103.154	20.138	4.326	0.519
1110.001	644.952	80.007	19.988	103.158	20.137	4.424	0.473
1110.500	645.232	80.003	19.996	103.162	20.136	4.452	0.467
1111.001	645.477	79.999	19.994	103.165	20.134	4.613	0.506
1111.501	645.689	80.002	19.994	103.159	20.136	4.434	0.491
1112.000	645.972	80.002	19.994	103.154	20.134	4.603	0.476
1112.500	646.226	80.008	19.996	103.148	20.133	4.662	0.516
1113.000	646.457	80.004	19.993	103.144	20.136	4.479	0.511
1113.500	646.728	80.002	19.996	103.143	20.132	4.750	0.493
1114.000	646.986	80.009	19.989	103.147	20.133	4.644	0.515
1114.500	647.286	80.002	19.995	103.153	20.132	4.734	0.544
1115.000	647.496	80.004	19.996	103.157	20.135	4.500	0.534
1115.500	647.764	80.004	19.995	103.159	20.133	4.674	0.494
1116.001	648.007	80.002	19.997	103.157	20.134	4.619	0.495
1116.501	648.262	80.005	19.995	103.152	20.134	4.627	0.504
1117.000	648.494	80.005	19.993	103.146	20.137	4.395	0.492
1117.500	648.740	80.005	19.999	103.148	20.136	4.472	0.482
1118.000	648.974	80.000	20.000	103.149	20.136	4.440	0.479
1118.500	649.268	80.001	19.996	103.149	20.137	4.375	0.504
1119.000	649.497	80.002	19.992	103.149	20.135	4.518	0.526
1119.500	649.800	80.004	19.992	103.150	20.135	4.565	0.528
1120.000	650.025	80.003	19.996	103.150	20.138	4.302	0.530
1120.500	650.299	80.006	19.996	103.151	20.135	4.506	0.513
1121.000	650.567	80.003	19.999	103.153	20.133	4.652	0.521
1121.500	650.778	80.003	19.995	103.156	20.133	4.670	0.511
1122.000	651.046	80.002	19.995	103.160	20.135	4.532	0.479
1122.500	651.300	80.006	19.995	103.153	20.132	4.717	0.500
1123.000	651.597	80.005	19.993	103.152	20.135	4.554	0.537
1123.500	651.819	80.003	19.998	103.149	20.133	4.658	0.535
1124.001	652.071	80.013	19.990	103.146	20.134	4.595	0.496
1124.501	652.309	80.009	19.990	103.144	20.135	4.500	0.482
1125.000	652.589	80.002	19.995	103.149	20.127	5.136	0.504
1125.501	652.820	80.004	20.000	103.150	20.128	5.055	0.515
1126.001	653.074	80.008	19.991	103.150	20.131	4.849	0.498
1126.500	653.351	80.006	19.996	103.158	20.133	4.686	0.508
1127.000	653.589	80.005	19.999	103.158	20.135	4.539	0.523
1127.500	653.866	79.998	19.996	103.160	20.132	4.757	0.515
1128.000	654.093	80.006	19.992	103.160	20.135	4.509	0.509
1128.500	654.362	79.998	19.997	103.163	20.132	4.722	0.500
1129.000	654.589	80.001	20.001	103.159	20.130	4.869	0.496
1129.500	654.844	80.001	19.998	103.157	20.132	4.741	0.489
1130.000	655.101	79.999	20.000	103.154	20.135	4.535	0.497
1130.500	655.393	80.000	20.003	103.153	20.133	4.692	0.531
1131.000	655.613	80.001	19.998	103.150	20.132	4.769	0.531
1131.500	655.831	79.999	19.996	103.150	20.134	4.631	0.475
1132.000	656.170	80.004	19.994	103.154	20.133	4.690	0.497
1132.500	656.381	80.001	19.997	103.155	20.132	4.772	0.554
1133.000	656.620	80.001	19.995	103.153	20.134	4.623	0.500
1133.500	656.893	80.001	19.996	103.152	20.132	4.778	0.481
1134.000	657.137	80.001	19.996	103.149	20.132	4.759	0.514
1134.500	657.400	80.003	19.996	103.146	20.133	4.676	0.512
1135.000	657.629	80.000	19.991	103.143	20.131	4.841	0.500
1135.500	657.910	79.996	19.997	103.147	20.133	4.655	0.501
1136.001	658.099	80.000	19.997	103.152	20.131	4.826	0.490
1136.501	658.362	80.003	19.996	103.158	20.134	4.594	0.461
1137.001	658.709	80.000	19.997	103.161	20.134	4.584	0.531
1137.501	658.927	80.001	19.998	103.166	20.131	4.841	0.587
1138.001	659.216	80.000	19.997	103.167	20.131	4.796	0.536
1138.501	659.012	80.005	19.992	103.169	20.132	4.757	0.296
1139.000	659.489	80.001	19.994	103.171	20.131	4.820	0.179
1139.500	659.757	80.003	19.993	103.171	20.129	4.975	0.509
1140.000	660.122	80.003	19.994	103.173	20.134	4.590	0.689
1140.500	660.398	80.000	19.998	103.174	20.131	4.824	0.637
1141.001	660.644	79.998	19.998	103.174	20.132	4.743	0.581
1141.501	660.929	79.997	19.997	103.170	20.133	4.710	0.526
1142.000	661.211	80.004	19.994	103.166	20.132	4.769	0.549
1142.501	661.416	80.003	19.992	103.162	20.131	4.814	0.527
1143.001	661.658	79.998	19.999	103.160	20.128	5.062	0.467
1143.500	661.946	79.999	19.995	103.158	20.131	4.855	0.488
1144.001	662.208	80.000	19.993	103.157	20.133	4.688	0.540
1144.501	662.451	80.006	19.991	103.160	20.128	5.003	0.527
1145.000	662.702	80.004	19.987	103.164	20.135	4.564	0.500
1145.501	662.960	79.999	19.998	103.166	20.131	4.824	0.501
1146.001	663.183	80.005	19.993	103.169	20.133	4.643	0.495
1146.500	663.476	80.002	19.996	103.171	20.132	4.725	0.499
1147.000	663.708	79.997	19.999	103.168	20.133	4.704	0.521
1147.500	663.943	80.001	19.993	103.166	20.131	4.784	0.496
1148.000	664.219	80.002	19.998	103.163	20.129	4.954	0.489
1148.501	664.502	80.001	19.996	103.163	20.130	4.859	0.535
1149.001	664.724	80.003	19.995	103.163	20.132	4.718	0.532
1149.500	665.022	80.003	19.996	103.167	20.132	4.755	0.513
1150.000	665.270	80.000	19.992	103.168	20.132	4.766	0.534
1150.500	665.540	80.004	19.993	103.170	20.133	4.701	0.532
1151.000	665.777	80.003	19.993	103.169	20.128	5.051	0.512
1151.501	666.037	80.003	19.991	103.167	20.131	4.790	0.502
1152.001	666.308	80.003	19.992	103.165	20.130	4.866	0.514
1152.500	666.553	80.004	19.990	103.166	20.130	4.921	0.523
1153.000	666.849	79.997	19.996	103.166	20.127	5.108	0.528
1153.500	667.059	80.003	19.996	103.168	20.131	4.842	0.523
1154.000	667.328	80.003	19.995	103.170	20.129	4.986	0.493
1154.500	667.612	80.002	19.993	103.168	20.128	5.065	0.517
1155.000	667.852	80.001	19.995	103.165	20.127	5.093	0.539
1155.500	668.109	80.002	19.994	103.164	20.128	5.016	0.510
1156.000	668.362	80.006	19.995	103.165	20.132	4.750	0.503
1156.500	668.643	80.005	19.994	103.164	20.130	4.882	0.522
1157.000	668.856	80.002	19.997	103.166	20.129	4.986	0.514
1157.501	669.110	80.003	19.994	103.167	20.129	4.949	0.480
1158.001	669.430	80.003	19.994	103.168	20.129	4.933	0.520
1158.500	669.660	80.002	19.995	103.168	20.130	4.911	0.562
1159.000	669.956	80.002	20.002	103.169	20.129	4.931	0.538
1159.501	670.191	80.001	19.996	103.168	20.128	5.051	0.529
1160.001	670.470	80.005	19.993	103.167	20.129	4.996	0.523
1160.501	670.756	80.003	19.995	103.165	20.131	4.831	0.539
1161.001	670.986	80.002	19.994	103.161	20.135	4.520	0.540
1161.501	671.228	80.001	19.997	103.160	20.128	5.022	0.494
1162.001	671.494	79.998	19.993	103.157	20.130	4.886	0.490
1162.500	671.761	79.997	20.000	103.155	20.132	4.778	0.521
1163.000	672.026	79.999	19.998	103.148	20.131	4.841	0.533
1163.500	672.294	80.002	19.996	103.144	20.133	4.703	0.533
1164.000	672.534	79.999	19.994	103.141	20.131	4.812	0.521
1164.500	672.800	80.003	19.992	103.144	20.133	4.697	0.507
1165.000	673.070	79.997	19.996	103.148	20.131	4.792	0.521
1165.500	673.323	80.004	19.993	103.155	20.131	4.849	0.529
1166.001	673.580	80.002	19.993	103.160	20.133	4.658	0.516
1166.501	673.867	80.004	19.994	103.159	20.132	4.729	0.527
1167.001	674.118	79.993	20.002	103.157	20.131	4.800	0.541
1167.500	674.375	80.002	19.996	103.150	20.134	4.609	0.523
1168.000	674.645	80.001	19.995	103.148	20.133	4.711	0.518
1168.501	674.862	80.002	19.994	103.146	20.132	4.742	0.507
1169.001	675.132	80.002	19.994	103.149	20.131	4.785	0.487
1169.500	675.412	80.004	19.995	103.149	20.131	4.795	0.519
1170.000	675.675	80.006	19.994	103.153	20.132	4.732	0.546
1170.501	675.930	80.006	19.995	103.151	20.132	4.725	0.530
1171.001	676.194	80.004	19.993	103.154	20.134	4.584	0.519
1171.500	676.466	80.001	19.996	103.155	20.130	4.863	0.528
1172.000	676.752	80.003	19.995	103.153	20.130	4.857	0.547
1172.500	676.994	80.000	19.998	103.152	20.129	4.939	0.543
1173.000	677.268	80.011	19.993	103.155	20.133	4.711	0.522
1173.500	677.505	80.004	19.994	103.152	20.133	4.648	0.513
1174.000	677.788	79.999	19.998	103.150	20.132	4.778	0.515
1174.500	678.060	80.005	19.990	103.154	20.128	5.000	0.537
1175.000	678.306	80.002	19.996	103.159	20.131	4.829	0.537
1175.500	678.596	80.002	19.995	103.156	20.132	4.748	0.527
1176.000	678.839	80.002	19.993	103.156	20.126	5.211	0.534
1176.500	679.118	80.006	19.996	103.160	20.119	5.651	0.528
1177.000	679.367	79.999	19.995	103.162	20.126	5.185	0.525
1177.500	679.637	80.001	19.996	103.158	20.132	4.721	0.523
1178.000	679.893	80.004	19.994	103.157	20.133	4.702	0.522
1178.500	680.133	79.999	19.997	103.153	20.129	4.951	0.511
1179.000	680.433	80.004	19.994	103.146	20.132	4.770	0.519
1179.500	680.682	80.003	19.995	103.140	20.129	4.937	0.545
1180.000	680.953	80.006	19.995	103.138	20.128	5.036	0.535
1180.500	681.201	80.007	19.992	103.141	20.132	4.729	0.520
1181.000	681.509	80.009	19.991	103.147	20.130	4.862	0.537
1181.500	681.800	80.009	19.990	103.153	20.131	4.839	0.578
1182.000	682.067	80.008	19.993	103.161	20.133	4.695	0.579
1182.501	682.247	80.002	19.995	103.162	20.130	4.866	0.502
1183.001	682.524	80.009	19.994	103.162	20.130	4.856	0.452
1183.500	682.759	80.004	19.995	103.161	20.127	5.087	0.485
1184.001	683.022	80.002	20.003	103.158	20.130	4.904	0.505
1184.501	683.270	80.005	19.993	103.154	20.132	4.772	0.504
1185.001	683.548	80.006	19.993	103.156	20.131	4.848	0.518
1185.501	683.810	80.007	19.987	103.151	20.130	4.898	0.533
1186.001	684.084	80.004	19.996	103.151	20.131	4.801	0.538
1186.500	684.352	80.006	19.994	103.154	20.132	4.715	0.539
1187.000	684.595	80.005	19.997	103.155	20.131	4.791	0.526
1187.500	684.869	79.999	19.998	103.158	20.131	4.829	0.514
1188.000	685.139	80.003	19.994	103.163	20.130	4.886	0.530
1188.500	685.373	80.002	19.992	103.162	20.131	4.797	0.524
1189.000	685.681	80.004	19.996	103.161	20.131	4.836	0.523
1189.500	685.925	80.003	19.993	103.160	20.133	4.646	0.547
1190.000	685.949	80.000	19.999	103.157	20.131	4.811	0.410
1190.500	685.836	80.003	19.996	103.158	20.132	4.713	0.089
1191.000	686.194	80.002	19.996	103.160	20.134	4.581	0.078
1191.501	686.944	80.004	19.999	103.156	20.134	4.589	0.677
1192.001	687.223	80.003	19.992	103.153	20.134	4.624	1.069
1192.500	687.408	79.999	19.989	103.157	20.131	4.785	0.747
1193.001	687.711	80.002	19.995	103.157	20.134	4.618	0.476
1193.501	687.942	80.002	19.992	103.153	20.135	4.510	0.511
1194.001	688.252	80.001	19.991	103.152	20.136	4.482	0.538
1194.500	688.482	80.006	19.995	103.153	20.131	4.846	0.540
1195.000	688.746	80.004	19.993	103.150	20.133	4.701	0.517
1195.500	689.037	80.003	19.995	103.147	20.131	4.854	0.525
1196.000	689.298	80.005	19.994	103.148	20.136	4.486	0.553
1196.500	689.542	80.004	19.996	103.152	20.131	4.836	0.528
1197.000	689.792	80.002	19.994	103.152	20.134	4.622	0.500
1197.500	690.033	80.004	19.995	103.151	20.131	4.783	0.493
1198.000	690.326	80.008	19.994	103.150	20.133	4.689	0.513
1198.500	690.579	80.006	19.995	103.148	20.126	5.166	0.540
1199.001	690.801	80.004	19.993	103.143	20.133	4.653	0.510
1199.501	691.101	80.004	19.996	103.143	20.133	4.695	0.498
1200.001	691.354	80.008	19.995	103.141	20.134	4.602	0.537
1200.500	691.626	80.004	19.995	103.140	20.131	4.793	0.539
1201.000	691.908	80.004	19.995	103.142	20.133	4.700	0.539
1201.500	692.143	80.005	19.995	103.144	20.132	4.759	0.535
1202.000	692.386	80.004	19.994	103.144	20.135	4.561	0.497
1202.500	692.659	80.006	19.994	103.143	20.131	4.836	0.497
1203.000	692.943	80.004	19.994	103.141	20.137	4.396	0.537
1203.500	693.196	80.004	19.999	103.140	20.135	4.516	0.547
1204.000	693.440	80.002	19.997	103.139	20.134	4.624	0.517
1204.501	693.731	80.004	19.994	103.136	20.137	4.413	0.516
1205.001	693.992	80.009	19.991	103.135	20.135	4.537	0.544
1205.501	694.234	80.004	19.995	103.139	20.134	4.624	0.528
1206.001	694.485	79.999	19.997	103.140	20.130	4.866	0.498
1206.501	694.749	80.006	19.992	103.139	20.138	4.309	0.504
1207.001	695.020	80.003	19.996	103.142	20.136	4.433	0.525
1207.501	695.288	80.002	19.996	103.141	20.134	4.634	0.537
1208.001	695.544	80.006	19.991	103.138	20.134	4.596	0.531
1208.500	695.848	80.003	19.994	103.138	20.132	4.779	0.542
1209.000	696.059	80.001	19.997	103.138	20.131	4.834	0.537
1209.500	696.337	80.009	19.985	103.134	20.134	4.620	0.502
1210.000	696.595	80.002	19.995	103.137	20.135	4.519	0.513
1210.500	696.832	80.001	19.993	103.137	20.135	4.518	0.516
1211.000	697.097	80.007	19.994	103.135	20.131	4.785	0.499
1211.501	697.346	80.004	19.992	103.136	20.136	4.451	0.508
1212.001	697.592	80.002	19.996	103.137	20.135	4.567	0.504
1212.500	697.861	79.998	19.987	103.136	20.135	4.543	0.504
1213.000	698.107	79.999	20.003	103.136	20.134	4.584	0.515
1213.500	698.385	80.004	19.992	103.135	20.135	4.553	0.520
1214.001	698.649	80.001	19.991	103.135	20.136	4.480	0.533
1214.501	698.889	80.002	19.994	103.135	20.138	4.301	0.524
1215.000	699.154	80.002	19.989	103.135	20.135	4.561	0.505
1215.500	699.384	80.003	19.996	103.136	20.138	4.285	0.499
1216.000	699.664	80.003	19.993	103.137	20.138	4.323	0.502
1216.500	699.930	80.002	19.996	103.138	20.138	4.344	0.528
1217.000	700.209	80.005	19.996	103.138	20.137	4.372	0.546
1217.500	700.442	80.002	19.993	103.138	20.140	4.177	0.529
1218.000	700.704	80.007	19.992	103.137	20.141	4.126	0.503
1218.500	700.922	80.000	20.000	103.137	20.139	4.248	0.488
1219.000	701.185	80.002	19.993	103.136	20.138	4.313	0.481
1219.500	701.472	80.001	19.994	103.135	20.138	4.301	0.516
1220.000	701.686	80.003	19.991	103.135	20.137	4.399	0.525
1220.500	701.934	80.004	19.997	103.135	20.139	4.258	0.481
1221.000	702.228	80.002	19.995	103.135	20.139	4.246	0.502
1221.500	702.495	80.002	19.994	103.136	20.137	4.389	0.551
1222.000	702.743	80.002	19.995	103.136	20.142	3.998	0.538
1222.500	703.015	79.999	19.999	103.136	20.140	4.173	0.518
1223.000	703.254	80.001	19.998	103.133	20.139	4.242	0.515
1223.500	703.520	80.002	19.997	103.132	20.139	4.242	0.508
1224.000	703.762	80.001	19.997	103.131	20.137	4.362	0.507
1224.500	704.041	80.002	19.995	103.130	20.137	4.415	0.514
1225.000	704.290	80.002	19.995	103.130	20.137	4.405	0.524
1225.500	704.529	80.000	19.995	103.131	20.138	4.325	0.508
1226.000	704.830	80.002	19.996	103.132	20.137	4.386	0.514
1226.500	705.080	80.004	19.992	103.133	20.136	4.435	0.545
1227.001	705.303	80.003	19.998	103.134	20.138	4.321	0.513
1227.501	705.550	80.003	19.997	103.133	20.136	4.480	0.472
1228.000	705.840	80.000	19.998	103.132	20.137	4.413	0.503
1228.500	706.093	80.001	19.995	103.132	20.135	4.559	0.540
1229.000	706.322	80.000	19.997	103.133	20.138	4.333	0.512
1229.500	706.600	79.999	20.002	103.131	20.135	4.514	0.495
1230.000	706.850	80.001	19.997	103.132	20.137	4.354	0.517
1230.500	707.126	80.003	19.995	103.132	20.136	4.455	0.527
1231.000	707.381	80.001	19.999	103.132	20.135	4.533	0.529
1231.500	707.626	79.996	20.003	103.130	20.135	4.541	0.516
1232.000	707.870	80.002	19.997	103.129	20.135	4.513	0.495
1232.501	708.128	80.002	19.997	103.128	20.136	4.445	0.496
1233.001	708.422	80.002	19.993	103.128	20.135	4.555	0.527
1233.501	708.635	80.001	20.001	103.129	20.133	4.710	0.529
1234.000	708.888	80.004	19.991	103.129	20.136	4.472	0.486
1234.500	709.148	80.003	19.992	103.131	20.135	4.535	0.489
1235.000	709.408	80.002	19.994	103.132	20.134	4.608	0.516
1235.501	709.678	79.999	20.000	103.132	20.136	4.427	0.525
1236.001	709.951	80.003	19.996	103.131	20.138	4.309	0.537
1236.500	710.199	80.003	19.996	103.133	20.135	4.531	0.532
1237.001	710.441	80.001	19.994	103.132	20.136	4.429	0.505
1237.501	710.683	80.005	19.997	103.132	20.136	4.427	0.487
1238.001	710.937	80.004	19.993	103.131	20.134	4.600	0.490
1238.501	711.209	80.003	19.996	103.132	20.135	4.498	0.511
1239.000	711.502	80.004	19.994	103.132	20.135	4.506	0.546
1239.501	711.701	80.003	19.994	103.132	20.137	4.384	0.528
1240.001	711.956	80.004	19.994	103.133	20.135	4.565	0.473
1240.501	712.245	80.003	19.994	103.133	20.136	4.425	0.499
1241.000	712.495	80.005	19.993	103.133	20.136	4.455	0.541
1241.500	712.704	80.001	19.990	103.134	20.136	4.441	0.499
1242.000	712.963	79.998	19.995	103.134	20.133	4.655	0.464
1242.501	713.234	80.002	19.995	103.133	20.137	4.360	0.500
1243.001	713.506	80.005	19.995	103.133	20.137	4.356	0.537
1243.500	713.764	80.004	19.989	103.134	20.138	4.321	0.536
1244.000	713.975	80.004	19.997	103.135	20.134	4.626	0.499
1244.500	714.257	80.002	19.995	103.134	20.135	4.543	0.481
1245.000	714.511	80.004	19.992	103.134	20.134	4.571	0.515
1245.501	714.782	79.999	19.998	103.135	20.133	4.673	0.530
1246.001	715.009	79.997	19.996	103.134	20.137	4.364	0.511
1246.500	715.301	80.000	19.994	103.132	20.136	4.496	0.509
1247.001	715.551	79.999	20.000	103.132	20.137	4.354	0.531
1247.501	715.804	79.997	19.999	103.133	20.137	4.374	0.523
1248.001	716.042	80.002	19.995	103.132	20.135	4.537	0.497
1248.500	716.309	80.002	19.995	103.132	20.136	4.443	0.498
1249.000	716.578	80.003	19.992	103.133	20.134	4.602	0.521
1249.500	716.866	80.000	19.995	103.133	20.134	4.606	0.546
1250.000	717.117	80.003	19.998	103.133	20.133	4.685	0.547
1250.500	717.304	79.997	19.994	103.133	20.138	4.341	0.488
1251.001	717.580	80.003	19.996	103.133	20.136	4.439	0.451
1251.501	717.878	80.000	19.998	103.134	20.135	4.508	0.519
1252.000	718.088	80.002	20.001	103.134	20.133	4.649	0.541
1252.501	718.367	79.999	19.999	103.134	20.132	4.712	0.499
1253.001	718.610	80.004	19.994	103.134	20.134	4.616	0.505
1253.500	718.845	80.004	19.994	103.135	20.140	4.209	0.500
1254.000	719.100	80.007	19.996	103.136	20.134	4.637	0.484
1254.500	719.356	80.004	19.996	103.135	20.132	4.769	0.501
1255.000	719.613	80.002	19.997	103.135	20.135	4.512	0.512
1255.500	719.870	80.001	19.993	103.135	20.134	4.600	0.514
1256.000	720.102	80.001	19.996	103.135	20.136	4.464	0.502
1256.500	720.379	80.003	19.996	103.134	20.136	4.453	0.499
1257.001	720.584	80.003	19.997	103.134	20.136	4.494	0.495
1257.501	720.858	80.002	19.995	103.133	20.135	4.553	0.480
1258.000	721.087	80.002	19.997	103.134	20.133	4.647	0.491
1258.500	721.360	79.998	19.999	103.133	20.135	4.523	0.503
1259.001	721.593	80.003	19.988	103.132	20.132	4.712	0.504
1259.501	721.857	80.002	19.993	103.134	20.134	4.608	0.501
1260.000	722.081	79.998	20.001	103.135	20.133	4.671	0.493
1260.500	722.355	80.003	19.992	103.134	20.137	4.398	0.493
1261.001	722.573	80.005	19.998	103.135	20.132	4.738	0.495
1261.501	722.838	80.003	19.999	103.137	20.133	4.667	0.488
1262.000	723.056	80.002	19.994	103.136	20.135	4.537	0.483
1262.500	723.335	80.004	19.994	103.135	20.131	4.810	0.490
1263.000	723.613	80.002	19.991	103.137	20.129	4.926	0.527
1263.500	723.817	79.998	19.997	103.137	20.134	4.588	0.519
1264.000	724.095	80.004	19.992	103.134	20.132	4.732	0.482
1264.500	724.307	80.007	19.995	103.135	20.132	4.728	0.486
1265.000	724.591	80.003	19.996	103.134	20.134	4.606	0.493
1265.500	724.838	80.002	19.991	103.134	20.133	4.653	0.514
1266.000	725.029	80.001	19.993	103.134	20.135	4.545	0.484
1266.500	725.320	79.997	19.995	103.136	20.134	4.594	0.460
1267.001	725.576	80.004	19.991	103.135	20.134	4.626	0.515
1267.501	725.758	80.003	20.000	103.136	20.133	4.705	0.492
1268.001	726.031	80.003	19.995	103.135	20.133	4.653	0.446
1268.501	726.292	80.003	19.999	103.134	20.136	4.484	0.495
1269.000	726.525	80.004	19.995	103.133	20.135	4.563	0.514
1269.500	726.787	80.002	19.997	103.133	20.131	4.793	0.494
1270.000	727.036	80.004	19.994	103.132	20.132	4.746	0.503
1270.500	727.263	80.006	19.994	103.134	20.134	4.575	0.494
1271.000	727.514	80.002	19.995	103.134	20.133	4.661	0.478
1271.500	727.767	80.001	19.995	103.135	20.136	4.429	0.491
1272.000	728.013	80.002	19.995	103.134	20.135	4.551	0.501
1272.500	728.242	80.007	19.992	103.135	20.135	4.529	0.487
1273.001	728.505	80.003	19.994	103.135	20.136	4.437	0.484
1273.501	728.742	80.001	19.996	103.135	20.136	4.461	0.496
1274.000	728.965	79.999	19.998	103.136	20.135	4.527	0.480
1274.500	729.266	80.006	19.992	103.135	20.133	4.655	0.492
1275.001	729.502	80.003	19.991	103.136	20.135	4.508	0.531
1275.501	729.766	80.003	19.993	103.136	20.135	4.502	0.518
1276.000	729.975	80.008	19.990	103.137	20.135	4.500	0.486
1276.500	730.209	80.002	19.991	103.138	20.133	4.657	0.458
1277.000	730.452	80.002	19.993	103.140	20.132	4.712	0.460
1277.501	730.717	80.004	19.996	103.140	20.137	4.382	0.493
1278.001	730.967	80.003	19.990	103.139	20.135	4.513	0.512
1278.501	731.186	80.005	19.996	103.140	20.134	4.570	0.492
1279.001	731.431	80.000	19.998	103.139	20.135	4.559	0.467
1279.500	731.682	80.007	19.993	103.137	20.133	4.645	0.480
1280.000	731.932	80.004	19.995	103.138	20.135	4.541	0.498
1280.501	732.209	80.008	19.992	103.138	20.133	4.682	0.514
1281.001	732.470	80.007	19.992	103.137	20.134	4.639	0.533
1281.500	732.718	80.004	19.993	103.138	20.136	4.429	0.524
1282.000	732.939	80.003	19.993	103.139	20.138	4.293	0.489
1282.500	733.173	80.003	19.996	103.138	20.137	4.372	0.462
1283.000	733.426	80.004	19.994	103.138	20.136	4.437	0.471
1283.500	733.678	80.001	19.997	103.137	20.133	4.655	0.495
1284.000	733.944	80.006	19.995	103.137	20.136	4.482	0.512
1284.500	734.199	80.005	19.997	103.136	20.134	4.596	0.520
1285.000	734.450	80.004	19.996	103.135	20.134	4.604	0.513
1285.500	734.688	80.005	19.996	103.134	20.136	4.458	0.497
1286.000	734.918	80.006	19.997	103.133	20.137	4.376	0.479
1286.501	735.160	80.005	19.996	103.132	20.138	4.333	0.470
1287.001	735.436	80.004	19.997	103.131	20.139	4.221	0.495
1287.501	735.656	80.003	19.995	103.130	20.136	4.496	0.507
1288.000	735.898	80.004	19.995	103.130	20.134	4.628	0.479
1288.501	736.166	80.002	19.999	103.130	20.134	4.598	0.486
1289.001	736.428	80.005	19.993	103.129	20.135	4.535	0.520
1289.500	736.644	80.005	19.995	103.130	20.136	4.437	0.504
1290.000	736.900	80.004	19.994	103.130	20.134	4.604	0.475
1290.500	737.118	80.005	19.994	103.130	20.136	4.476	0.473
1291.000	737.367	80.005	19.993	103.130	20.135	4.516	0.470
1291.501	737.577	80.007	19.989	103.130	20.133	4.685	0.463
1292.001	737.864	80.004	19.998	103.131	20.132	4.781	0.478
1292.500	738.117	80.005	19.994	103.131	20.132	4.732	0.519
1293.000	738.349	80.001	19.997	103.130	20.133	4.653	0.513
1293.501	738.586	79.999	20.000	103.130	20.133	4.647	0.477
1294.001	738.867	80.000	19.994	103.129	20.134	4.596	0.493
1294.500	739.084	80.001	19.988	103.127	20.133	4.665	0.508
1295.000	739.339	80.001	19.999	103.128	20.132	4.742	0.485
1295.500	739.608	80.004	19.993	103.127	20.133	4.704	0.498
1296.000	739.848	80.004	19.995	103.129	20.130	4.867	0.517
1296.500	740.106	80.008	19.992	103.129	20.134	4.582	0.503
1297.000	740.317	80.007	19.995	103.132	20.133	4.706	0.484
1297.500	740.570	80.003	19.993	103.131	20.133	4.704	0.467
1298.000	740.818	80.004	19.989	103.133	20.134	4.586	0.482
1298.500	741.054	80.002	19.997	103.134	20.133	4.710	0.493
1299.001	741.324	80.002	19.995	103.134	20.133	4.681	0.495
1299.501	741.570	79.996	20.000	103.134	20.133	4.645	0.511
1300.000	741.823	80.003	19.993	103.133	20.132	4.720	0.508
1300.500	742.072	80.008	19.995	103.134	20.133	4.671	0.500
1301.000	742.357	80.007	19.990	103.133	20.133	4.706	0.518
1301.500	742.546	80.003	19.995	103.135	20.132	4.767	0.504
1302.000	742.823	80.002	19.994	103.135	20.129	4.928	0.470
1302.500	743.081	80.002	19.996	103.136	20.134	4.618	0.500
1303.000	743.330	80.001	19.994	103.134	20.134	4.616	0.521
1303.500	743.570	80.005	19.996	103.133	20.135	4.563	0.498
