Sample ID:	C:\MCC\MCC Cal\Test\LatexPillow_B_Inner_Fabric_MCC_30K_min_211213_R2.txt
Sample Weight (mg):	4.75
Heating Rate (C/s):	0.5
Combustor Temp (C):	900
N2 Flow Rate (cc/min):	80
O2 Flow Rate (cc/min):	20
Calibration File:	C:\MCC\MCC Cal\Coeff1 JN10440_30_210304.txt.txt
T Correction Coefficients:	0	1.024463	0
Time Shift (s):	14
*
Time (s)	Temperature (C)	N2 flow rate (cc/min)	O2 flow rate (cc/min)	Flow Rate (cc/min)	Oxygen (%)	HRR (W/g)	Heating rate (C/s)
0.000	107.838	80.014	19.992	103.055	19.981	0.105	-0.004
0.500	107.865	80.012	19.996	103.059	19.982	0.007	-0.001
1.001	107.868	80.015	19.996	103.060	19.984	-0.137	0.017
1.501	107.876	80.014	19.997	103.065	19.986	-0.238	0.021
2.000	107.874	80.008	19.996	103.066	19.979	0.218	0.009
2.500	107.888	80.014	19.995	103.062	19.984	-0.135	0.009
3.000	107.916	80.007	19.995	103.060	19.983	-0.018	0.027
3.500	107.888	80.010	19.995	103.062	19.984	-0.083	0.021
4.000	107.901	80.011	19.994	103.055	19.983	-0.017	-0.007
4.500	107.922	80.013	19.993	103.056	19.983	-0.048	0.009
5.000	107.901	80.013	19.994	103.062	19.983	-0.013	0.017
5.500	107.897	80.013	19.994	103.067	19.983	-0.044	-0.012
6.000	107.876	80.013	19.993	103.068	19.981	0.126	-0.025
6.500	107.851	80.008	19.994	103.071	19.982	0.017	-0.036
7.000	107.882	80.003	19.996	103.073	19.980	0.142	-0.020
7.500	107.921	80.011	19.996	103.072	19.981	0.116	0.037
8.000	107.894	80.013	19.994	103.070	19.980	0.187	0.041
8.501	107.922	80.010	19.995	103.071	19.980	0.152	0.007
9.001	107.873	80.007	19.994	103.074	19.979	0.244	-0.010
9.500	107.875	80.010	19.994	103.075	19.981	0.092	-0.034
10.000	107.872	80.010	19.994	103.079	19.982	0.055	-0.024
10.500	107.865	80.005	19.994	103.083	19.980	0.159	-0.005
11.000	107.890	80.007	19.993	103.086	19.979	0.250	0.004
11.500	107.886	80.011	19.994	103.089	19.978	0.272	0.019
12.000	107.899	80.009	19.993	103.092	19.979	0.242	0.015
12.500	107.934	80.006	19.993	103.093	19.977	0.364	0.028
13.000	107.920	80.010	19.995	103.094	19.979	0.220	0.035
13.500	107.948	79.998	19.995	103.093	19.979	0.240	0.018
14.000	107.919	80.005	19.993	103.091	19.979	0.259	0.006
14.500	107.945	80.003	19.996	103.092	19.976	0.412	-0.002
15.000	107.919	80.011	19.994	103.090	19.979	0.261	-0.002
15.501	107.929	80.007	19.996	103.091	19.980	0.142	-0.008
16.001	107.942	80.013	19.995	103.097	19.975	0.525	0.003
16.500	107.967	80.008	19.995	103.109	19.976	0.447	0.030
17.000	107.958	80.007	19.996	103.115	19.975	0.475	0.027
17.500	107.946	80.012	19.994	103.125	19.970	0.865	-0.002
18.000	108.000	80.007	19.994	103.134	19.972	0.680	0.011
18.500	108.030	80.010	19.994	103.141	19.966	1.119	0.063
19.000	108.024	80.003	19.996	103.144	19.965	1.198	0.053
19.500	108.013	80.009	19.995	103.144	19.968	0.951	0.004
20.000	108.051	80.009	19.995	103.150	19.970	0.832	0.005
20.500	108.085	80.011	19.994	103.156	19.967	1.060	0.049
21.000	108.091	80.008	19.995	103.158	19.967	1.045	0.056
21.500	108.044	80.005	19.995	103.158	19.970	0.853	-0.000
22.000	108.079	80.006	19.994	103.164	19.966	1.099	-0.026
22.501	108.113	80.017	19.995	103.164	19.969	0.901	0.028
23.001	108.117	80.007	19.996	103.164	19.966	1.132	0.053
23.500	108.126	80.009	19.994	103.166	19.966	1.110	0.026
24.000	108.141	80.007	19.995	103.171	19.965	1.206	0.019
24.500	108.228	80.007	19.996	103.175	19.967	1.023	0.063
25.000	108.234	80.008	19.995	103.178	19.968	0.986	0.097
25.500	108.236	80.007	19.995	103.181	19.964	1.261	0.050
26.000	108.288	80.009	19.995	103.184	19.961	1.456	0.031
26.500	108.285	80.007	19.994	103.185	19.962	1.350	0.052
27.000	108.332	80.007	19.994	103.186	19.963	1.320	0.047
27.500	108.329	80.007	19.994	103.186	19.964	1.243	0.044
28.000	108.373	80.006	19.994	103.187	19.964	1.271	0.042
28.500	108.393	80.005	19.995	103.190	19.960	1.550	0.052
29.000	108.439	80.007	19.995	103.194	19.954	1.914	0.065
29.500	108.475	80.007	19.994	103.200	19.957	1.703	0.074
30.000	108.539	80.007	19.994	103.212	19.958	1.625	0.091
30.500	108.539	80.008	19.994	103.226	19.956	1.773	0.082
31.000	108.566	80.007	19.995	103.238	19.962	1.417	0.046
31.501	108.614	80.009	19.995	103.247	19.956	1.783	0.051
32.001	108.635	80.007	19.995	103.254	19.956	1.768	0.072
32.500	108.720	80.008	19.994	103.255	19.951	2.116	0.087
33.000	108.744	80.007	19.994	103.253	19.954	1.942	0.107
33.500	108.800	80.010	19.994	103.253	19.953	1.995	0.095
34.000	108.868	80.008	19.994	103.253	19.957	1.747	0.102
34.500	108.907	79.999	19.995	103.253	19.951	2.097	0.115
35.000	108.945	80.006	19.993	103.251	19.954	1.892	0.092
35.500	109.012	80.011	19.994	103.250	19.954	1.927	0.091
36.000	109.066	80.007	19.995	103.247	19.950	2.197	0.113
36.500	109.172	80.007	19.995	103.239	19.954	1.905	0.141
37.001	109.225	80.008	19.993	103.231	19.953	1.990	0.160
37.501	109.307	80.002	19.994	103.231	19.953	1.983	0.147
38.000	109.324	80.007	19.993	103.229	19.952	2.062	0.117
38.500	109.393	80.012	19.994	103.227	19.951	2.103	0.093
39.000	109.470	80.013	19.995	103.227	19.952	2.070	0.116
39.500	109.517	80.008	19.993	103.225	19.952	2.057	0.135
40.000	109.596	80.005	19.994	103.219	19.953	1.981	0.125
40.500	109.672	80.008	19.995	103.217	19.955	1.859	0.140
41.000	109.750	80.011	19.994	103.218	19.955	1.850	0.154
41.500	109.783	80.001	19.994	103.224	19.949	2.238	0.132
42.000	109.851	80.009	19.995	103.227	19.951	2.114	0.106
42.500	109.927	80.005	19.995	103.228	19.949	2.283	0.123
43.000	110.024	80.000	19.995	103.225	19.948	2.301	0.159
43.500	110.038	80.002	19.994	103.220	19.952	2.050	0.142
44.000	110.162	80.006	19.994	103.213	19.952	2.088	0.125
44.500	110.239	80.008	19.994	103.212	19.954	1.902	0.170
45.000	110.306	80.003	19.994	103.211	19.951	2.127	0.172
45.500	110.376	80.009	19.995	103.209	19.948	2.349	0.140
46.000	110.442	80.007	19.993	103.212	19.951	2.127	0.137
46.500	110.529	80.005	19.994	103.215	19.951	2.151	0.145
47.000	110.608	80.011	19.994	103.216	19.949	2.240	0.159
47.500	110.676	80.009	19.995	103.221	19.952	2.048	0.157
48.000	110.736	80.007	19.994	103.230	19.953	1.974	0.138
48.500	110.848	80.006	19.995	103.236	19.950	2.196	0.150
49.000	110.924	80.008	19.995	103.241	19.949	2.268	0.180
49.501	110.984	80.007	19.994	103.248	19.950	2.183	0.162
50.001	111.069	80.006	19.995	103.251	19.949	2.292	0.140
50.501	111.160	80.012	19.995	103.250	19.950	2.216	0.160
51.000	111.278	80.005	19.996	103.250	19.950	2.201	0.192
51.500	111.350	80.018	19.995	103.250	19.953	2.016	0.200
52.000	111.436	80.012	19.994	103.252	19.952	2.072	0.175
52.500	111.506	80.007	19.996	103.253	19.953	2.007	0.157
53.000	111.605	80.007	19.995	103.254	19.950	2.212	0.162
53.500	111.722	80.012	19.995	103.254	19.951	2.153	0.192
54.000	111.800	80.009	19.995	103.254	19.958	1.624	0.205
54.500	111.905	80.010	19.995	103.253	19.954	1.959	0.189
55.000	112.012	80.011	19.994	103.254	19.954	1.900	0.198
55.500	112.094	80.009	19.994	103.255	19.955	1.865	0.201
56.000	112.168	80.009	19.994	103.257	19.950	2.168	0.172
56.500	112.326	80.012	19.995	103.257	19.946	2.450	0.194
57.000	112.377	80.009	19.994	103.256	19.947	2.369	0.221
57.500	112.470	80.006	19.995	103.255	19.951	2.154	0.177
58.000	112.602	80.006	19.994	103.253	19.949	2.276	0.184
58.500	112.723	80.009	19.994	103.251	19.950	2.169	0.239
59.001	112.778	80.011	19.995	103.251	19.954	1.922	0.215
59.501	112.898	80.010	19.995	103.252	19.951	2.117	0.175
60.000	112.987	80.010	19.995	103.252	19.949	2.260	0.192
60.500	113.131	80.011	19.995	103.252	19.950	2.186	0.221
61.000	113.244	80.010	19.994	103.253	19.950	2.165	0.245
61.501	113.349	80.010	19.994	103.253	19.947	2.402	0.238
62.001	113.456	80.010	19.993	103.252	19.949	2.278	0.216
62.500	113.562	80.009	19.995	103.251	19.948	2.337	0.212
63.001	113.710	80.010	19.995	103.251	19.949	2.283	0.233
63.501	113.830	80.011	19.995	103.251	19.947	2.370	0.261
64.000	113.895	80.011	19.995	103.251	19.949	2.244	0.226
64.500	114.036	80.010	19.995	103.253	19.950	2.220	0.195
65.000	114.153	80.010	19.994	103.256	19.950	2.194	0.232
65.500	114.269	80.011	19.994	103.255	19.949	2.237	0.246
66.000	114.376	80.010	19.994	103.254	19.948	2.342	0.228
66.500	114.536	80.011	19.995	103.258	19.947	2.426	0.245
67.000	114.635	80.009	19.995	103.251	19.945	2.561	0.263
67.500	114.729	80.011	19.994	103.226	19.945	2.568	0.226
68.000	114.878	80.010	19.994	103.212	19.945	2.566	0.218
68.500	114.973	80.011	19.995	103.205	19.939	2.947	0.243
69.000	115.103	80.009	19.995	103.193	19.944	2.616	0.234
69.500	115.241	80.011	19.993	103.195	19.945	2.546	0.247
70.001	115.340	80.010	19.995	103.232	19.947	2.423	0.253
70.501	115.481	80.009	19.994	103.275	19.943	2.677	0.238
71.000	115.598	80.009	19.994	103.294	19.948	2.363	0.249
71.500	115.717	80.011	19.994	103.305	19.945	2.570	0.247
72.001	115.826	80.010	19.994	103.309	19.945	2.535	0.232
72.501	115.995	80.013	19.994	103.294	19.945	2.529	0.253
73.000	116.065	80.009	19.995	103.273	19.946	2.490	0.258
73.500	116.213	80.009	19.993	103.267	19.948	2.329	0.228
74.000	116.330	80.011	19.993	103.267	19.943	2.683	0.242
74.500	116.464	80.009	19.994	103.272	19.942	2.718	0.258
75.000	116.644	80.010	19.994	103.274	19.949	2.298	0.283
75.500	116.744	80.009	19.994	103.272	19.945	2.546	0.297
76.000	116.821	80.006	19.994	103.274	19.948	2.332	0.228
76.500	116.966	80.008	19.994	103.277	19.949	2.296	0.199
77.000	117.102	80.007	19.995	103.278	19.948	2.335	0.252
77.500	117.238	80.006	19.993	103.283	19.948	2.367	0.277
78.000	117.347	80.010	19.995	103.286	19.946	2.446	0.259
78.500	117.500	80.007	19.995	103.280	19.948	2.324	0.254
79.000	117.662	80.010	19.993	103.272	19.949	2.263	0.289
79.500	117.778	80.015	19.993	103.266	19.946	2.437	0.296
80.000	117.943	80.011	19.993	103.262	19.949	2.252	0.279
80.501	118.058	80.018	19.994	103.259	19.942	2.772	0.280
81.001	118.188	79.999	19.995	103.262	19.948	2.348	0.262
81.500	118.326	80.011	19.994	103.268	19.949	2.250	0.257
82.000	118.471	80.013	19.992	103.269	19.947	2.385	0.276
82.500	118.604	80.005	19.994	103.270	19.946	2.465	0.281
83.000	118.682	80.011	19.993	103.272	19.951	2.141	0.244
83.500	118.823	80.018	19.994	103.270	19.949	2.234	0.215
84.000	118.976	80.010	19.995	103.271	19.945	2.546	0.256
84.500	119.126	80.014	19.994	103.274	19.946	2.454	0.298
85.000	119.279	80.010	19.995	103.276	19.945	2.531	0.303
85.500	119.432	80.015	19.994	103.280	19.943	2.694	0.305
86.000	119.589	80.015	19.994	103.285	19.947	2.381	0.308
86.500	119.710	80.016	19.993	103.286	19.942	2.755	0.294
87.000	119.851	80.010	19.995	103.286	19.944	2.605	0.270
87.501	119.985	80.014	19.994	103.287	19.946	2.480	0.268
88.001	120.147	80.010	19.994	103.287	19.943	2.642	0.285
88.500	120.280	80.013	19.994	103.287	19.943	2.698	0.295
89.001	120.473	80.011	19.994	103.290	19.941	2.794	0.311
89.501	120.637	80.012	19.994	103.292	19.944	2.635	0.341
90.000	120.768	80.007	19.995	103.293	19.941	2.796	0.326
90.500	120.916	80.016	19.993	103.289	19.944	2.606	0.287
91.000	121.078	80.002	19.996	103.288	19.945	2.539	0.294
91.500	121.256	80.007	19.995	103.283	19.943	2.657	0.325
92.000	121.409	80.011	19.995	103.284	19.945	2.565	0.335
92.500	121.567	80.010	19.996	103.283	19.943	2.672	0.320
93.000	121.688	80.011	19.995	103.287	19.944	2.595	0.295
93.500	121.847	80.008	19.996	103.287	19.942	2.769	0.280
94.000	122.014	80.010	19.994	103.290	19.943	2.658	0.304
94.500	122.183	80.007	19.994	103.290	19.944	2.626	0.331
95.000	122.307	80.009	19.994	103.292	19.941	2.832	0.315
95.501	122.504	80.009	19.993	103.288	19.941	2.810	0.307
96.001	122.659	80.009	19.994	103.287	19.942	2.741	0.336
96.500	122.797	80.008	19.996	103.288	19.944	2.634	0.322
97.000	122.958	80.005	19.995	103.285	19.938	3.036	0.296
97.500	123.135	80.006	19.996	103.284	19.940	2.852	0.319
98.000	123.278	80.009	19.994	103.286	19.944	2.573	0.329
98.500	123.458	80.008	19.994	103.287	19.941	2.793	0.321
99.000	123.583	80.005	19.995	103.288	19.940	2.875	0.314
99.500	123.779	80.020	19.994	103.289	19.941	2.806	0.313
100.000	123.962	80.000	19.994	103.293	19.941	2.841	0.350
100.500	124.117	80.007	19.995	103.293	19.939	2.956	0.359
101.000	124.289	80.010	19.993	103.294	19.940	2.845	0.333
101.500	124.437	80.010	19.994	103.296	19.941	2.814	0.324
102.000	124.577	80.007	19.995	103.299	19.941	2.801	0.304
102.500	124.747	80.004	19.995	103.296	19.943	2.647	0.299
103.000	124.909	80.007	19.994	103.296	19.940	2.904	0.321
103.500	125.067	80.010	19.995	103.296	19.945	2.556	0.326
104.000	125.259	80.007	19.994	103.295	19.939	2.938	0.335
104.500	125.422	80.008	19.995	103.297	19.938	3.027	0.353
105.000	125.620	80.008	19.996	103.299	19.941	2.836	0.358
105.500	125.765	80.005	19.994	103.304	19.940	2.886	0.352
106.000	125.915	80.005	19.994	103.306	19.938	3.019	0.319
106.500	126.090	80.005	19.994	103.307	19.942	2.767	0.310
107.000	126.317	80.007	19.994	103.311	19.939	2.915	0.364
107.500	126.481	80.009	19.996	103.317	19.943	2.686	0.396
108.000	126.656	80.009	19.996	103.316	19.940	2.864	0.365
108.500	126.850	80.011	19.994	103.318	19.936	3.115	0.354
109.000	126.991	80.008	19.994	103.322	19.940	2.860	0.352
109.500	127.115	80.007	19.995	103.322	19.939	2.978	0.299
110.000	127.302	80.006	19.995	103.317	19.939	2.934	0.288
110.500	127.523	80.008	19.994	103.315	19.941	2.778	0.360
111.000	127.730	80.008	19.995	103.317	19.939	2.958	0.419
111.500	127.905	80.008	19.996	103.317	19.939	2.923	0.405
112.001	128.057	80.010	19.996	103.317	19.938	3.021	0.354
112.501	128.252	80.008	19.993	103.321	19.936	3.162	0.337
113.000	128.416	80.008	19.995	103.326	19.936	3.173	0.353
113.500	128.620	80.009	19.996	103.327	19.938	2.988	0.364
114.000	128.809	80.007	19.995	103.327	19.933	3.325	0.380
114.500	129.016	80.010	19.995	103.327	19.937	3.108	0.394
115.000	129.200	80.008	19.995	103.328	19.937	3.077	0.394
115.500	129.418	80.008	19.995	103.328	19.935	3.195	0.397
116.000	129.625	80.008	19.996	103.327	19.937	3.084	0.413
116.500	129.780	80.008	19.996	103.325	19.937	3.080	0.393
117.000	129.957	80.009	19.994	103.325	19.934	3.260	0.347
117.500	130.162	80.009	19.995	103.324	19.933	3.361	0.357
118.000	130.312	80.009	19.996	103.322	19.939	2.975	0.369
118.501	130.500	80.009	19.994	103.323	19.936	3.141	0.347
119.001	130.682	80.012	19.995	103.324	19.938	3.038	0.354
119.500	130.906	80.010	19.995	103.322	19.937	3.106	0.388
120.000	131.100	80.008	19.995	103.316	19.937	3.086	0.412
120.500	131.294	80.010	19.994	103.315	19.937	3.112	0.403
121.000	131.506	80.009	19.995	103.315	19.936	3.125	0.397
121.500	131.705	80.007	19.995	103.315	19.936	3.140	0.409
122.000	131.906	80.009	19.995	103.317	19.936	3.141	0.405
122.500	132.094	80.006	19.995	103.323	19.936	3.151	0.395
123.000	132.298	80.008	19.995	103.326	19.941	2.843	0.391
123.500	132.523	80.005	19.995	103.326	19.940	2.890	0.410
124.000	132.673	80.008	19.996	103.326	19.935	3.230	0.402
124.501	132.916	80.007	19.996	103.327	19.932	3.445	0.384
125.001	133.078	80.010	19.996	103.327	19.936	3.149	0.399
125.500	133.311	80.008	19.995	103.326	19.935	3.214	0.400
126.000	133.515	80.006	19.996	103.326	19.937	3.103	0.416
126.500	133.685	80.008	19.995	103.322	19.935	3.193	0.405
127.001	133.874	80.006	19.995	103.318	19.933	3.352	0.366
127.501	134.109	80.008	19.996	103.319	19.935	3.232	0.392
128.000	134.306	80.006	19.995	103.320	19.935	3.184	0.428
128.500	134.517	80.007	19.996	103.320	19.934	3.267	0.420
129.000	134.757	80.006	19.995	103.323	19.934	3.252	0.430
129.500	134.958	80.008	19.995	103.327	19.938	2.995	0.446
130.000	135.193	80.007	19.995	103.327	19.935	3.229	0.438
130.500	135.389	80.009	19.994	103.327	19.933	3.336	0.434
131.000	135.552	80.007	19.995	103.328	19.934	3.293	0.395
131.500	135.772	80.008	19.996	103.327	19.934	3.290	0.371
132.000	136.003	80.007	19.995	103.327	19.934	3.262	0.417
132.500	136.226	80.008	19.996	103.327	19.933	3.332	0.453
133.000	136.417	80.007	19.994	103.327	19.939	2.936	0.434
133.501	136.650	80.009	19.995	103.326	19.937	3.093	0.419
134.000	136.887	80.004	19.995	103.326	19.931	3.497	0.447
134.500	137.097	80.009	19.994	103.325	19.933	3.378	0.459
135.000	137.300	80.007	19.994	103.326	19.934	3.314	0.430
135.500	137.532	80.009	19.995	103.326	19.934	3.277	0.424
136.000	137.704	80.008	19.995	103.327	19.937	3.080	0.420
136.500	137.978	80.009	19.994	103.328	19.933	3.378	0.425
137.000	138.194	80.008	19.995	103.329	19.932	3.427	0.468
137.500	138.404	80.008	19.995	103.328	19.936	3.179	0.458
138.000	138.593	80.008	19.993	103.324	19.935	3.186	0.413
138.500	138.800	80.009	19.994	103.322	19.932	3.421	0.397
139.000	139.036	80.010	19.994	103.323	19.935	3.223	0.420
139.500	139.283	80.010	19.994	103.323	19.934	3.288	0.463
140.000	139.482	80.009	19.993	103.324	19.932	3.406	0.464
140.500	139.672	80.009	19.993	103.328	19.934	3.284	0.417
141.000	139.945	80.009	19.994	103.331	19.936	3.167	0.426
141.500	140.155	80.006	19.995	103.330	19.935	3.236	0.473
142.000	140.358	80.009	19.995	103.329	19.933	3.362	0.448
142.500	140.583	80.007	19.994	103.329	19.933	3.319	0.420
143.000	140.838	80.010	19.994	103.328	19.932	3.423	0.454
143.500	141.073	80.010	19.994	103.328	19.935	3.236	0.485
144.000	141.273	80.011	19.994	103.328	19.933	3.367	0.463
144.500	141.535	80.011	19.994	103.329	19.933	3.373	0.449
145.000	141.730	80.008	19.993	103.330	19.935	3.245	0.459
145.500	141.992	80.005	19.994	103.331	19.934	3.299	0.457
146.000	142.148	80.007	19.995	103.331	19.934	3.260	0.437
146.500	142.409	80.008	19.994	103.330	19.937	3.079	0.418
147.000	142.664	80.008	19.994	103.330	19.939	2.966	0.467
147.500	142.863	80.008	19.994	103.330	19.938	3.018	0.485
148.000	143.111	80.009	19.994	103.330	19.937	3.066	0.451
148.500	143.329	80.009	19.994	103.330	19.938	3.034	0.456
149.000	143.566	80.010	19.995	103.330	19.941	2.810	0.460
149.500	143.816	80.008	19.994	103.331	19.942	2.738	0.471
150.000	144.038	80.009	19.995	103.330	19.936	3.130	0.479
150.500	144.268	80.008	19.995	103.330	19.938	2.990	0.462
151.000	144.513	80.009	19.994	103.329	19.939	2.934	0.464
151.500	144.757	80.007	19.993	103.328	19.939	2.936	0.482
152.000	145.007	80.009	19.994	103.326	19.937	3.055	0.491
152.500	145.238	80.010	19.994	103.326	19.939	2.930	0.487
153.000	145.437	80.010	19.994	103.327	19.937	3.080	0.456
153.500	145.685	80.008	19.994	103.328	19.935	3.203	0.439
154.000	145.956	80.010	19.994	103.330	19.935	3.221	0.483
154.500	146.157	80.009	19.994	103.329	19.934	3.301	0.495
155.000	146.398	80.008	19.994	103.328	19.938	3.014	0.457
155.500	146.616	80.008	19.995	103.326	19.934	3.277	0.450
156.000	146.871	80.011	19.993	103.326	19.939	2.971	0.466
156.500	147.101	80.009	19.994	103.327	19.935	3.205	0.479
157.000	147.344	80.010	19.993	103.329	19.936	3.116	0.479
157.500	147.578	80.007	19.994	103.331	19.936	3.127	0.475
158.000	147.839	80.007	19.994	103.332	19.937	3.114	0.486
158.500	148.031	80.008	19.994	103.332	19.939	2.956	0.474
159.000	148.284	80.006	19.994	103.332	19.937	3.053	0.449
159.500	148.574	80.008	19.995	103.331	19.939	2.958	0.494
160.000	148.781	80.008	19.996	103.331	19.936	3.140	0.520
160.500	149.035	80.009	19.992	103.332	19.940	2.901	0.478
161.000	149.275	80.009	19.995	103.333	19.939	2.918	0.477
161.500	149.489	80.009	19.994	103.332	19.941	2.781	0.474
162.000	149.771	80.007	19.996	103.333	19.944	2.634	0.475
162.500	149.980	80.008	19.995	103.333	19.938	3.034	0.494
163.000	150.255	80.011	19.993	103.331	19.940	2.875	0.487
163.500	150.480	80.008	19.994	103.330	19.940	2.893	0.491
164.000	150.746	80.010	19.994	103.329	19.940	2.884	0.495
164.500	150.961	80.008	19.995	103.328	19.942	2.738	0.486
165.000	151.209	80.010	19.994	103.327	19.937	3.095	0.472
165.500	151.479	80.010	19.994	103.328	19.939	2.919	0.490
166.000	151.691	80.011	19.994	103.329	19.937	3.054	0.500
166.500	151.973	80.008	19.993	103.330	19.940	2.854	0.488
167.000	152.185	80.009	19.995	103.331	19.937	3.069	0.494
167.500	152.450	80.008	19.995	103.333	19.938	2.990	0.485
168.000	152.647	80.010	19.993	103.333	19.942	2.760	0.469
168.500	152.913	80.011	19.993	103.331	19.937	3.065	0.462
169.000	153.133	80.009	19.994	103.330	19.941	2.776	0.475
169.500	153.395	80.012	19.993	103.328	19.940	2.863	0.484
170.000	153.651	80.010	19.993	103.327	19.945	2.543	0.500
170.500	153.877	80.013	19.995	103.326	19.941	2.788	0.500
171.000	154.138	80.011	19.993	103.327	19.939	2.919	0.485
171.500	154.351	80.011	19.992	103.329	19.937	3.089	0.481
172.000	154.617	80.011	19.993	103.330	19.940	2.909	0.476
172.500	154.858	80.010	19.994	103.330	19.939	2.932	0.493
173.000	155.137	80.012	19.993	103.331	19.943	2.665	0.514
173.500	155.362	80.011	19.994	103.330	19.943	2.680	0.511
174.000	155.640	80.010	19.994	103.329	19.941	2.835	0.503
174.500	155.885	80.010	19.994	103.327	19.941	2.791	0.513
175.000	156.100	80.011	19.995	103.325	19.944	2.637	0.492
175.500	156.327	80.011	19.994	103.325	19.942	2.721	0.451
176.000	156.602	80.010	19.996	103.325	19.944	2.639	0.472
176.500	156.859	80.010	19.995	103.324	19.944	2.624	0.517
177.000	157.090	80.011	19.994	103.324	19.947	2.378	0.510
177.500	157.357	80.012	19.994	103.326	19.943	2.680	0.493
178.000	157.603	80.009	19.994	103.325	19.940	2.891	0.505
178.500	157.810	80.012	19.995	103.325	19.941	2.804	0.483
179.000	158.100	80.011	19.995	103.326	19.941	2.807	0.475
179.500	158.352	80.008	19.994	103.322	19.943	2.669	0.520
180.000	158.581	80.007	19.994	103.316	19.944	2.620	0.512
180.500	158.836	80.007	19.995	103.316	19.944	2.576	0.482
181.000	159.095	80.014	19.996	103.316	19.943	2.663	0.499
181.500	159.344	80.008	19.995	103.316	19.942	2.752	0.511
182.000	159.585	80.009	19.994	103.314	19.944	2.630	0.499
182.500	159.823	80.008	19.996	103.313	19.941	2.779	0.484
183.000	160.078	80.009	19.995	103.307	19.941	2.810	0.486
183.501	160.357	80.008	19.995	103.304	19.940	2.853	0.514
184.001	160.612	80.010	19.994	103.301	19.941	2.797	0.534
184.500	160.882	80.008	19.995	103.304	19.942	2.764	0.529
185.000	161.079	80.009	19.995	103.309	19.941	2.776	0.496
185.500	161.341	80.008	19.995	103.311	19.942	2.745	0.463
186.000	161.555	80.006	19.995	103.309	19.945	2.565	0.468
186.500	161.836	80.009	19.995	103.307	19.943	2.650	0.486
187.000	162.113	80.008	19.995	103.305	19.946	2.500	0.526
187.500	162.347	80.008	19.995	103.304	19.943	2.676	0.535
188.000	162.598	80.008	19.995	103.304	19.948	2.332	0.498
188.500	162.870	80.007	19.995	103.304	19.944	2.622	0.504
189.000	163.123	80.008	19.995	103.303	19.946	2.448	0.524
189.500	163.383	80.009	19.996	103.301	19.945	2.515	0.518
190.000	163.637	80.008	19.995	103.297	19.942	2.724	0.513
190.500	163.887	80.008	19.995	103.297	19.949	2.234	0.509
191.000	164.144	80.007	19.996	103.296	19.947	2.396	0.506
191.500	164.424	80.009	19.995	103.295	19.947	2.396	0.522
192.000	164.653	80.009	19.995	103.295	19.951	2.113	0.523
192.500	164.902	80.008	19.995	103.296	19.949	2.298	0.493
193.000	165.130	80.010	19.995	103.289	19.949	2.247	0.478
193.500	165.421	80.008	19.994	103.278	19.951	2.152	0.498
194.000	165.676	80.009	19.995	103.270	19.953	2.017	0.532
194.500	165.956	80.008	19.996	103.267	19.952	2.056	0.540
195.000	166.161	80.007	19.995	103.263	19.951	2.121	0.510
195.500	166.415	80.008	19.995	103.273	19.951	2.108	0.472
196.000	166.678	80.008	19.995	103.290	19.951	2.141	0.488
196.500	166.912	80.009	19.995	103.302	19.952	2.041	0.506
197.000	167.177	80.010	19.995	103.307	19.951	2.154	0.498
197.501	167.405	80.008	19.995	103.313	19.949	2.298	0.496
198.001	167.673	80.007	19.995	103.308	19.946	2.467	0.495
198.500	167.973	80.008	19.995	103.298	19.949	2.276	0.532
199.000	168.182	80.009	19.995	103.292	19.949	2.254	0.539
199.501	168.432	80.009	19.994	103.291	19.952	2.087	0.484
200.000	168.669	80.008	19.995	103.288	19.948	2.322	0.473
200.500	168.942	80.008	19.994	103.288	19.949	2.258	0.498
201.000	169.226	80.009	19.995	103.289	19.952	2.087	0.534
201.500	169.476	80.009	19.995	103.290	19.950	2.206	0.546
202.000	169.713	80.008	19.995	103.290	19.952	2.089	0.510
202.500	169.975	80.007	19.995	103.290	19.951	2.150	0.492
203.000	170.240	80.009	19.995	103.290	19.949	2.242	0.513
203.500	170.513	80.010	19.995	103.290	19.951	2.143	0.533
204.000	170.755	80.009	19.996	103.291	19.949	2.276	0.527
204.500	171.001	80.008	19.995	103.291	19.951	2.152	0.501
205.000	171.274	80.008	19.995	103.291	19.954	1.945	0.503
205.500	171.525	80.008	19.996	103.290	19.948	2.302	0.521
206.000	171.776	80.009	19.995	103.286	19.949	2.274	0.513
206.500	172.003	80.008	19.996	103.280	19.950	2.209	0.490
207.000	172.315	80.006	19.994	103.282	19.951	2.115	0.508
207.500	172.566	80.009	19.995	103.285	19.951	2.108	0.551
208.000	172.796	80.007	19.994	103.285	19.953	2.021	0.522
208.500	173.080	80.008	19.995	103.289	19.953	1.989	0.498
209.000	173.306	80.007	19.994	103.295	19.955	1.876	0.512
209.500	173.565	80.008	19.995	103.293	19.953	1.987	0.498
210.000	173.822	80.006	19.995	103.291	19.950	2.196	0.501
210.500	174.122	80.008	19.996	103.292	19.952	2.039	0.537
211.000	174.314	80.007	19.996	103.292	19.957	1.722	0.525
211.500	174.552	80.007	19.995	103.292	19.955	1.857	0.461
212.000	174.760	80.007	19.996	103.290	19.955	1.878	0.438
212.500	175.071	80.007	19.995	103.287	19.958	1.650	0.483
213.000	175.328	80.007	19.994	103.279	19.955	1.842	0.544
213.500	175.597	80.006	19.995	103.267	19.955	1.829	0.547
214.000	175.814	80.006	19.995	103.265	19.955	1.870	0.505
214.500	176.088	80.006	19.996	103.274	19.958	1.667	0.488
215.000	176.336	80.006	19.995	103.276	19.959	1.580	0.507
215.500	176.584	80.006	19.995	103.276	19.955	1.863	0.509
216.000	176.808	80.005	19.996	103.284	19.956	1.783	0.484
216.500	177.089	80.006	19.996	103.286	19.957	1.689	0.488
217.000	177.354	80.006	19.995	103.280	19.955	1.837	0.526
217.500	177.584	80.006	19.996	103.281	19.960	1.491	0.521
218.000	177.853	80.006	19.996	103.289	19.954	1.952	0.497
218.500	178.098	80.007	19.997	103.292	19.955	1.888	0.506
219.000	178.341	80.007	19.997	103.292	19.956	1.802	0.501
219.500	178.599	80.007	19.996	103.291	19.959	1.621	0.494
220.000	178.822	80.006	19.995	103.285	19.960	1.526	0.490
220.500	179.095	80.008	19.997	103.282	19.961	1.480	0.489
221.000	179.386	80.007	19.995	103.281	19.960	1.506	0.531
221.500	179.594	80.007	19.996	103.276	19.958	1.636	0.532
222.000	179.864	80.008	19.996	103.264	19.962	1.371	0.488
222.500	180.118	80.006	19.995	103.258	19.961	1.469	0.501
223.000	180.337	80.009	19.996	103.250	19.962	1.371	0.498
223.500	180.594	80.008	19.996	103.243	19.960	1.489	0.474
224.000	180.851	80.008	19.997	103.240	19.961	1.439	0.495
224.500	181.109	80.007	19.995	103.246	19.964	1.263	0.515
225.000	181.342	80.008	19.995	103.249	19.963	1.326	0.503
225.500	181.587	80.008	19.995	103.253	19.963	1.319	0.484
226.000	181.857	80.008	19.994	103.252	19.962	1.350	0.497
226.500	182.102	80.008	19.995	103.251	19.964	1.262	0.515
227.000	182.389	80.008	19.996	103.252	19.961	1.460	0.523
227.500	182.578	80.009	19.996	103.263	19.961	1.482	0.504
228.000	182.832	80.008	19.994	103.274	19.965	1.192	0.460
228.500	183.119	80.008	19.993	103.282	19.961	1.482	0.492
229.000	183.363	80.010	19.994	103.291	19.956	1.765	0.535
229.500	183.601	80.010	19.994	103.293	19.961	1.460	0.506
230.000	183.866	80.009	19.994	103.287	19.960	1.525	0.493
230.500	184.124	80.010	19.994	103.279	19.957	1.713	0.513
231.000	184.329	80.010	19.994	103.276	19.957	1.691	0.493
231.500	184.584	80.009	19.994	103.275	19.960	1.547	0.461
232.000	184.811	80.009	19.993	103.278	19.962	1.362	0.471
232.500	185.099	80.009	19.994	103.281	19.963	1.299	0.499
233.000	185.338	80.008	19.994	103.280	19.963	1.312	0.521
233.500	185.609	80.010	19.994	103.276	19.964	1.269	0.518
234.000	185.874	80.008	19.994	103.264	19.964	1.245	0.523
234.500	186.152	80.009	19.994	103.253	19.963	1.282	0.539
235.000	186.379	80.009	19.994	103.246	19.964	1.223	0.524
235.500	186.653	80.009	19.995	103.244	19.962	1.369	0.503
236.000	186.890	80.009	19.994	103.244	19.961	1.465	0.506
236.500	187.152	80.011	19.994	103.251	19.964	1.223	0.506
237.000	187.360	80.006	19.994	103.254	19.963	1.326	0.484
237.500	187.637	80.008	19.994	103.262	19.965	1.203	0.477
238.000	187.866	80.008	19.993	103.270	19.958	1.623	0.496
238.500	188.110	80.007	19.994	103.278	19.959	1.586	0.490
239.000	188.361	80.009	19.995	103.285	19.962	1.402	0.484
239.500	188.615	80.007	19.995	103.291	19.961	1.463	0.500
240.000	188.900	80.008	19.995	103.287	19.964	1.267	0.522
240.500	189.114	80.008	19.994	103.283	19.960	1.523	0.519
241.000	189.391	80.008	19.993	103.282	19.961	1.465	0.495
241.500	189.629	80.007	19.995	103.280	19.959	1.607	0.503
242.000	189.867	80.008	19.995	103.278	19.957	1.713	0.495
242.500	190.112	80.009	19.995	103.277	19.959	1.602	0.479
243.000	190.381	80.009	19.994	103.275	19.963	1.343	0.498
243.500	190.621	80.010	19.994	103.268	19.962	1.374	0.512
244.000	190.873	80.009	19.994	103.262	19.964	1.271	0.501
244.500	191.091	80.010	19.995	103.263	19.963	1.337	0.481
245.000	191.364	80.010	19.995	103.266	19.964	1.245	0.480
245.500	191.624	80.009	19.994	103.269	19.965	1.165	0.512
246.000	191.868	80.010	19.995	103.271	19.964	1.245	0.519
246.500	192.059	80.010	19.995	103.276	19.966	1.123	0.469
247.000	192.365	80.009	19.995	103.273	19.961	1.435	0.466
247.500	192.603	80.009	19.994	103.267	19.961	1.465	0.520
248.000	192.863	80.009	19.995	103.264	19.964	1.272	0.521
248.500	193.073	80.011	19.994	103.266	19.963	1.306	0.484
249.000	193.369	80.010	19.994	103.266	19.965	1.174	0.488
249.500	193.581	80.011	19.995	103.269	19.965	1.158	0.507
250.000	193.822	80.012	19.995	103.272	19.961	1.474	0.481
250.500	194.079	80.011	19.995	103.271	19.963	1.295	0.476
251.000	194.324	80.009	19.996	103.265	19.965	1.210	0.500
251.500	194.586	80.012	19.995	103.260	19.969	0.882	0.505
252.000	194.822	80.012	19.994	103.254	19.969	0.929	0.502
252.500	195.101	80.010	19.995	103.242	19.969	0.929	0.507
253.000	195.301	80.010	19.995	103.234	19.968	0.945	0.497
253.500	195.559	80.010	19.994	103.226	19.969	0.897	0.468
254.000	195.809	80.009	19.996	103.223	19.971	0.768	0.483
254.500	196.019	80.012	19.994	103.224	19.970	0.829	0.484
255.000	196.267	80.009	19.994	103.231	19.971	0.762	0.459
255.500	196.495	80.011	19.994	103.236	19.969	0.937	0.467
256.000	196.730	80.011	19.993	103.235	19.972	0.723	0.469
256.500	197.042	80.009	19.994	103.233	19.968	0.995	0.505
257.001	197.270	80.010	19.994	103.228	19.967	1.041	0.544
257.501	197.521	80.010	19.994	103.224	19.969	0.910	0.509
258.000	197.777	80.011	19.995	103.225	19.971	0.788	0.493
258.500	198.030	80.010	19.994	103.230	19.969	0.904	0.509
259.000	198.235	80.010	19.993	103.231	19.971	0.793	0.484
259.500	198.523	80.012	19.994	103.233	19.974	0.571	0.475
260.000	198.759	80.009	19.994	103.234	19.972	0.719	0.508
260.500	198.991	80.011	19.994	103.230	19.971	0.777	0.496
261.000	199.255	80.009	19.994	103.232	19.969	0.899	0.482
261.500	199.502	80.009	19.994	103.239	19.973	0.666	0.504
262.001	199.761	80.009	19.994	103.243	19.970	0.828	0.509
262.500	199.977	80.008	19.993	103.252	19.969	0.919	0.491
263.000	200.239	80.008	19.994	103.265	19.972	0.688	0.476
263.500	200.478	80.011	19.994	103.269	19.970	0.838	0.489
264.000	200.717	80.011	19.995	103.266	19.969	0.934	0.489
264.500	200.948	80.009	19.994	103.254	19.967	1.028	0.474
265.000	201.215	80.008	19.994	103.241	19.970	0.818	0.484
265.500	201.422	80.010	19.993	103.227	19.973	0.609	0.486
266.000	201.708	80.007	19.994	103.217	19.972	0.696	0.483
266.500	201.965	80.009	19.994	103.213	19.970	0.830	0.518
267.000	202.192	80.007	19.995	103.218	19.972	0.727	0.514
267.500	202.455	80.010	19.995	103.222	19.974	0.553	0.487
268.000	202.671	80.008	19.995	103.225	19.972	0.706	0.485
268.500	202.914	80.009	19.994	103.230	19.971	0.780	0.469
269.000	203.142	80.008	19.994	103.233	19.974	0.579	0.465
269.500	203.366	80.006	19.994	103.238	19.974	0.558	0.462
270.000	203.660	80.008	19.996	103.234	19.972	0.671	0.485
270.500	203.866	80.008	19.996	103.235	19.975	0.483	0.509
271.001	204.130	80.007	19.995	103.232	19.977	0.398	0.485
271.500	204.362	80.008	19.994	103.227	19.976	0.448	0.483
272.000	204.620	80.008	19.995	103.221	19.975	0.492	0.493
272.500	204.869	80.007	19.994	103.222	19.977	0.353	0.499
273.000	205.102	80.009	19.994	103.221	19.974	0.571	0.495
273.500	205.344	80.006	19.994	103.219	19.974	0.575	0.479
274.000	205.603	80.007	19.994	103.220	19.977	0.353	0.488
274.500	205.859	80.007	19.995	103.222	19.975	0.533	0.508
275.000	206.086	80.008	19.995	103.227	19.970	0.810	0.499
275.500	206.321	80.006	19.993	103.231	19.975	0.507	0.472
276.000	206.580	80.007	19.995	103.238	19.976	0.435	0.478
276.500	206.792	80.008	19.995	103.247	19.974	0.544	0.483
277.000	207.090	80.008	19.994	103.249	19.976	0.418	0.491
277.500	207.344	80.007	19.995	103.242	19.976	0.416	0.531
278.000	207.562	80.006	19.994	103.235	19.975	0.507	0.512
278.500	207.785	80.006	19.994	103.228	19.974	0.536	0.456
279.000	208.058	80.006	19.995	103.218	19.974	0.588	0.469
279.500	208.347	80.009	19.994	103.214	19.973	0.625	0.529
280.000	208.571	80.007	19.994	103.219	19.979	0.248	0.537
280.500	208.817	80.007	19.995	103.220	19.976	0.401	0.491
281.001	209.069	80.008	19.994	103.221	19.973	0.627	0.484
281.500	209.303	80.006	19.995	103.222	19.975	0.501	0.492
282.000	209.569	80.008	19.994	103.222	19.978	0.296	0.493
282.500	209.792	80.005	19.994	103.219	19.976	0.418	0.495
283.000	210.037	80.008	19.996	103.218	19.979	0.253	0.479
283.500	210.239	80.008	19.995	103.217	19.978	0.294	0.458
284.000	210.513	80.009	19.995	103.216	19.978	0.320	0.461
284.500	210.741	80.007	19.994	103.217	19.980	0.185	0.489
285.000	211.053	80.009	19.994	103.218	19.980	0.163	0.521
285.500	211.247	80.009	19.995	103.220	19.979	0.215	0.523
286.000	211.469	80.008	19.994	103.221	19.980	0.178	0.461
286.500	211.746	80.007	19.997	103.220	19.977	0.366	0.458
287.000	211.980	80.007	19.996	103.225	19.977	0.392	0.505
287.500	212.254	80.008	19.996	103.230	19.978	0.270	0.509
288.000	212.463	80.007	19.995	103.234	19.980	0.192	0.495
288.500	212.714	80.007	19.996	103.234	19.978	0.296	0.471
289.000	212.912	80.009	19.996	103.236	19.978	0.311	0.455
289.501	213.224	80.008	19.995	103.230	19.978	0.325	0.480
290.001	213.447	80.007	19.996	103.228	19.974	0.597	0.523
290.501	213.675	80.009	19.995	103.227	19.977	0.396	0.493
291.000	213.913	80.004	19.995	103.225	19.977	0.333	0.458
291.500	214.216	80.007	19.994	103.225	19.977	0.366	0.503
292.000	214.426	80.006	19.995	103.226	19.979	0.224	0.527
292.500	214.663	80.006	19.995	103.225	19.979	0.246	0.481
293.000	214.942	80.006	19.995	103.228	19.980	0.159	0.482
293.500	215.172	80.008	19.996	103.233	19.979	0.240	0.512
294.000	215.414	80.009	19.995	103.237	19.977	0.342	0.490
294.500	215.644	80.006	19.995	103.241	19.980	0.153	0.472
295.000	215.902	80.007	19.995	103.237	19.981	0.087	0.480
295.500	216.148	80.006	19.995	103.231	19.978	0.270	0.496
296.000	216.410	80.008	19.995	103.226	19.978	0.294	0.506
296.500	216.624	80.007	19.994	103.222	19.977	0.385	0.492
297.000	216.909	80.008	19.994	103.217	19.981	0.087	0.487
297.500	217.179	80.007	19.994	103.217	19.978	0.322	0.527
298.000	217.403	80.008	19.994	103.217	19.984	-0.100	0.525
298.500	217.634	80.006	19.995	103.220	19.978	0.325	0.475
299.000	217.868	80.008	19.995	103.220	19.978	0.305	0.460
299.500	218.127	80.007	19.995	103.221	19.981	0.116	0.479
300.000	218.411	80.009	19.995	103.223	19.980	0.133	0.518
300.500	218.584	80.008	19.996	103.223	19.984	-0.080	0.500
301.000	218.832	80.007	19.995	103.219	19.981	0.070	0.439
301.500	219.093	80.007	19.996	103.218	19.980	0.137	0.465
302.000	219.347	80.009	19.995	103.220	19.981	0.061	0.512
302.500	219.571	80.009	19.994	103.219	19.984	-0.081	0.496
303.000	219.807	80.008	19.994	103.219	19.981	0.068	0.469
303.500	220.024	80.008	19.995	103.220	19.980	0.189	0.457
304.000	220.313	80.008	19.994	103.220	19.979	0.229	0.480
304.500	220.498	80.010	19.994	103.217	19.982	0.035	0.490
305.000	220.809	80.007	19.994	103.216	19.983	-0.007	0.485
305.500	221.030	80.008	19.995	103.217	19.982	0.046	0.514
306.000	221.267	80.009	19.995	103.217	19.986	-0.263	0.495
306.500	221.538	80.007	19.995	103.216	19.980	0.159	0.483
307.000	221.769	80.009	19.995	103.215	19.984	-0.076	0.505
307.500	222.056	80.009	19.994	103.214	19.982	0.033	0.510
308.000	222.312	80.009	19.994	103.212	19.985	-0.163	0.530
308.500	222.521	80.008	19.995	103.211	19.985	-0.165	0.504
309.000	222.725	80.009	19.994	103.212	19.982	0.002	0.439
309.500	223.021	80.009	19.995	103.214	19.985	-0.198	0.456
310.000	223.217	80.008	19.995	103.214	19.981	0.067	0.496
310.500	223.523	80.009	19.995	103.213	19.981	0.063	0.497
311.000	223.776	80.009	19.996	103.213	19.982	0.028	0.530
311.500	224.058	80.009	19.996	103.214	19.980	0.170	0.547
312.000	224.169	80.008	19.995	103.214	19.980	0.135	0.464
312.500	224.508	80.008	19.995	103.213	19.983	-0.031	0.422
313.000	224.668	80.009	19.995	103.214	19.983	-0.033	0.474
313.500	224.971	80.008	19.996	103.214	19.978	0.276	0.480
314.000	225.159	80.011	19.995	103.214	19.979	0.263	0.477
314.500	225.466	80.009	19.995	103.221	19.981	0.120	0.493
315.000	225.697	80.009	19.995	103.235	19.979	0.248	0.516
315.500	225.971	80.008	19.996	103.244	19.980	0.190	0.521
316.000	226.223	80.010	19.996	103.252	19.983	-0.043	0.516
316.500	226.463	80.009	19.995	103.258	19.980	0.135	0.510
317.000	226.695	80.008	19.996	103.256	19.978	0.296	0.482
317.500	226.946	80.008	19.994	103.237	19.983	-0.037	0.477
318.000	227.181	80.009	19.996	103.225	19.982	0.009	0.484
318.500	227.366	80.008	19.995	103.218	19.983	-0.048	0.453
319.000	227.694	80.009	19.995	103.209	19.983	-0.072	0.467
319.500	227.963	80.006	19.995	103.200	19.983	-0.037	0.555
320.000	228.250	80.008	19.996	103.202	19.988	-0.370	0.576
320.500	228.453	80.009	19.996	103.205	19.985	-0.176	0.523
321.000	228.717	80.008	19.996	103.204	19.982	0.043	0.478
321.500	228.966	80.008	19.996	103.205	19.981	0.105	0.490
322.000	229.180	80.010	19.995	103.207	19.980	0.165	0.488
322.500	229.471	80.008	19.995	103.211	19.982	0.054	0.484
323.000	229.739	80.009	19.995	103.211	19.986	-0.240	0.532
323.500	230.003	80.009	19.995	103.211	19.978	0.276	0.545
324.000	230.280	80.009	19.995	103.212	19.978	0.316	0.537
324.500	230.460	80.009	19.994	103.211	19.984	-0.142	0.499
325.000	230.816	80.009	19.995	103.212	19.984	-0.076	0.496
325.500	230.940	80.009	19.995	103.213	19.985	-0.181	0.508
326.000	231.192	80.010	19.994	103.211	19.980	0.196	0.428
326.501	231.526	80.009	19.994	103.208	19.984	-0.115	0.481
327.001	231.814	80.010	19.995	103.209	19.981	0.068	0.604
327.501	231.970	80.011	19.995	103.214	19.980	0.157	0.533
328.000	232.098	80.008	19.995	103.216	19.981	0.124	0.364
328.500	232.551	80.009	19.995	103.218	19.980	0.141	0.433
329.001	232.616	80.009	19.994	103.220	19.984	-0.096	0.549
329.500	232.998	80.009	19.995	103.220	19.980	0.176	0.482
330.000	233.403	80.011	19.993	103.219	19.986	-0.213	0.617
330.500	233.317	80.011	19.994	103.217	19.985	-0.176	0.553
331.000	233.681	80.009	19.995	103.216	19.983	-0.061	0.298
331.500	234.156	80.009	19.994	103.216	19.987	-0.285	0.558
332.000	234.077	80.010	19.995	103.216	19.987	-0.316	0.617
332.500	234.613	80.010	19.994	103.211	19.985	-0.194	0.426
333.000	234.640	80.012	19.994	103.215	19.986	-0.272	0.510
333.500	234.921	80.010	19.994	103.217	19.988	-0.366	0.436
334.000	235.466	80.011	19.994	103.218	19.986	-0.257	0.567
334.500	235.451	80.012	19.994	103.220	19.989	-0.477	0.678
335.000	235.581	80.011	19.993	103.219	19.984	-0.116	0.322
335.500	235.859	80.011	19.993	103.213	19.989	-0.479	0.261
336.000	236.055	80.011	19.994	103.210	19.988	-0.357	0.441
336.500	236.549	80.011	19.994	103.207	19.992	-0.632	0.582
337.000	236.852	80.011	19.994	103.207	19.988	-0.401	0.744
337.500	236.815	80.011	19.994	103.207	19.992	-0.668	0.531
338.000	237.036	80.009	19.995	103.210	19.990	-0.531	0.225
338.500	237.390	80.010	19.994	103.209	19.992	-0.623	0.380
339.000	237.838	80.010	19.994	103.211	19.989	-0.470	0.688
339.500	238.229	80.011	19.994	103.211	19.993	-0.712	0.820
340.000	238.146	80.008	19.994	103.213	19.992	-0.655	0.573
340.500	238.682	80.009	19.995	103.217	19.992	-0.651	0.381
341.000	238.599	80.010	19.993	103.214	19.988	-0.362	0.453
341.500	238.987	80.010	19.993	103.212	19.993	-0.730	0.379
342.000	239.257	80.009	19.994	103.212	19.992	-0.642	0.481
342.500	239.556	80.010	19.994	103.210	19.991	-0.581	0.614
343.000	239.732	80.008	19.995	103.206	19.992	-0.631	0.522
343.500	239.972	80.008	19.993	103.208	19.993	-0.688	0.445
344.000	240.276	80.011	19.994	103.207	19.993	-0.728	0.480
344.500	240.517	80.008	19.994	103.209	19.993	-0.691	0.544
345.000	240.761	80.008	19.994	103.210	19.994	-0.765	0.515
345.500	241.025	80.008	19.994	103.209	19.993	-0.710	0.497
346.000	241.301	80.006	19.993	103.211	19.994	-0.764	0.524
346.500	241.473	80.009	19.994	103.215	19.997	-1.009	0.494
347.000	241.806	80.007	19.996	103.212	19.994	-0.813	0.477
347.500	241.955	80.007	19.995	103.213	19.994	-0.782	0.493
348.000	242.244	80.002	19.995	103.222	19.992	-0.682	0.460
348.500	242.515	80.004	19.995	103.226	19.995	-0.847	0.499
349.000	242.755	80.010	19.995	103.222	19.994	-0.758	0.536
349.500	243.080	80.007	19.995	103.224	19.999	-1.104	0.538
350.000	243.274	80.006	19.995	103.223	19.993	-0.708	0.542
350.500	243.537	80.000	19.995	103.223	19.996	-0.892	0.488
351.000	243.781	80.010	19.996	103.220	19.996	-0.931	0.482
351.500	244.011	80.017	19.995	103.217	19.998	-1.038	0.490
352.000	244.261	80.008	19.995	103.216	19.994	-0.806	0.476
352.500	244.490	80.009	19.994	103.216	19.993	-0.710	0.480
353.000	244.782	80.006	19.994	103.202	19.992	-0.654	0.501
353.500	244.991	80.009	19.994	103.202	19.997	-0.989	0.511
354.000	245.228	80.006	19.996	103.207	19.995	-0.843	0.473
354.500	245.528	80.008	19.994	103.203	19.995	-0.830	0.491
355.000	245.709	80.005	19.994	103.196	19.995	-0.875	0.509
355.500	245.981	80.005	19.996	103.194	19.993	-0.688	0.467
356.000	246.193	80.007	19.995	103.187	19.994	-0.755	0.468
356.500	246.448	80.008	19.995	103.184	19.993	-0.721	0.476
357.000	246.705	79.997	19.996	103.191	19.993	-0.688	0.489
357.500	246.982	80.010	19.994	103.197	19.995	-0.832	0.523
358.000	247.202	80.007	19.995	103.186	19.993	-0.738	0.515
358.500	247.449	80.010	19.993	103.180	19.996	-0.912	0.482
359.000	247.701	80.006	19.995	103.177	19.997	-0.969	0.484
359.500	247.940	80.007	19.995	103.174	19.998	-1.043	0.495
360.000	248.176	80.009	19.994	103.175	19.995	-0.855	0.483
360.500	248.471	80.008	19.995	103.226	19.993	-0.695	0.502
361.000	248.739	80.008	19.995	103.250	19.998	-1.032	0.547
361.500	248.979	80.006	19.995	103.258	19.996	-0.939	0.536
362.000	249.243	80.007	19.994	103.260	19.994	-0.819	0.506
362.500	249.476	80.008	19.993	103.259	19.994	-0.767	0.500
363.000	249.701	80.006	19.996	103.225	19.994	-0.782	0.478
363.500	250.001	80.006	19.994	103.204	19.993	-0.729	0.492
364.000	250.145	80.007	19.994	103.193	19.993	-0.692	0.484
364.500	250.459	80.000	19.994	103.193	19.996	-0.927	0.451
365.000	250.683	80.006	19.994	103.202	19.996	-0.941	0.498
365.500	250.960	80.011	19.994	103.211	19.994	-0.784	0.520
366.000	251.176	80.008	19.994	103.222	19.994	-0.806	0.497
366.500	251.410	80.001	19.994	103.233	19.994	-0.810	0.471
367.000	251.640	80.011	19.994	103.239	19.991	-0.599	0.457
367.500	251.895	80.009	19.994	103.236	19.992	-0.651	0.475
368.000	252.166	79.993	19.995	103.235	19.991	-0.608	0.506
368.500	252.407	79.996	19.994	103.241	19.992	-0.682	0.519
369.000	252.662	80.008	19.995	103.245	19.989	-0.422	0.504
369.500	252.868	80.008	19.994	103.246	19.989	-0.464	0.478
370.000	253.133	80.009	19.994	103.248	19.993	-0.723	0.466
370.500	253.293	80.007	19.996	103.246	19.990	-0.507	0.448
371.000	253.573	80.003	19.996	103.241	19.993	-0.753	0.433
371.500	253.825	80.005	19.995	103.236	19.991	-0.571	0.486
372.000	254.058	80.008	19.995	103.230	19.991	-0.577	0.508
372.500	254.320	79.998	19.996	103.224	19.992	-0.660	0.490
373.000	254.520	80.017	19.994	103.216	19.990	-0.507	0.479
373.501	254.808	80.014	19.993	103.214	19.990	-0.483	0.475
374.001	255.037	80.007	19.995	103.216	19.992	-0.625	0.502
374.501	255.298	80.003	19.996	103.222	19.991	-0.616	0.503
375.001	255.516	80.002	19.996	103.228	19.994	-0.760	0.485
375.501	255.799	80.008	19.996	103.236	19.992	-0.682	0.490
376.001	255.984	80.009	19.995	103.239	19.993	-0.688	0.484
376.500	256.252	80.019	19.992	103.239	19.992	-0.671	0.461
377.000	256.454	80.006	19.994	103.240	19.989	-0.461	0.462
377.500	256.739	80.004	19.996	103.239	19.993	-0.721	0.479
378.000	257.016	80.011	19.994	103.233	19.993	-0.745	0.525
378.500	257.147	79.997	19.997	103.232	19.991	-0.601	0.485
379.000	257.496	80.012	19.995	103.235	19.993	-0.703	0.444
379.500	257.680	80.014	19.995	103.230	19.993	-0.719	0.507
380.000	257.946	80.012	19.995	103.225	19.990	-0.522	0.491
380.500	258.177	80.013	19.995	103.226	19.984	-0.142	0.473
381.000	258.403	80.009	19.995	103.226	19.988	-0.372	0.477
381.500	258.612	80.004	19.996	103.224	19.989	-0.438	0.446
382.000	258.921	80.006	19.995	103.226	19.987	-0.279	0.477
382.500	259.136	80.000	19.996	103.227	19.987	-0.290	0.521
383.000	259.369	80.000	19.997	103.225	19.987	-0.320	0.486
383.500	259.585	80.001	19.996	103.224	19.985	-0.209	0.448
384.000	259.874	80.013	19.994	103.221	19.991	-0.590	0.477
384.500	260.090	79.994	19.997	103.221	19.989	-0.427	0.505
385.000	260.358	80.013	19.995	103.223	19.990	-0.535	0.495
385.500	260.617	80.018	19.995	103.230	19.989	-0.477	0.506
386.000	260.824	80.005	19.996	103.236	19.989	-0.444	0.496
386.500	261.102	80.011	19.994	103.239	19.990	-0.531	0.475
387.000	261.310	80.005	19.995	103.239	19.988	-0.359	0.486
387.500	261.526	80.006	19.995	103.237	19.984	-0.122	0.455
388.000	261.781	79.997	19.997	103.237	19.988	-0.390	0.448
388.500	262.091	80.010	19.995	103.234	19.988	-0.407	0.518
389.000	262.323	80.012	19.993	103.233	19.991	-0.562	0.553
389.500	262.570	80.011	19.994	103.233	19.988	-0.392	0.511
390.000	262.815	80.015	19.994	103.232	19.986	-0.268	0.486
390.500	263.043	80.010	19.994	103.229	19.987	-0.303	0.482
391.000	263.237	80.002	19.995	103.229	19.988	-0.377	0.447
391.500	263.503	80.010	19.995	103.228	19.987	-0.333	0.442
392.000	263.821	80.009	19.994	103.227	19.991	-0.599	0.522
392.500	264.017	80.008	19.995	103.228	19.988	-0.364	0.549
393.000	264.251	80.012	19.993	103.228	19.991	-0.566	0.472
393.500	264.476	80.013	19.994	103.227	19.990	-0.512	0.444
394.000	264.726	80.011	19.994	103.228	19.989	-0.462	0.467
394.500	264.962	80.009	19.995	103.228	19.985	-0.153	0.481
395.000	265.167	80.010	19.995	103.228	19.990	-0.529	0.464
395.500	265.445	80.010	19.994	103.230	19.991	-0.555	0.462
396.000	265.659	80.006	19.996	103.234	19.992	-0.623	0.488
396.500	265.884	80.008	19.995	103.235	19.992	-0.658	0.466
397.000	266.172	80.007	19.996	103.238	19.990	-0.507	0.476
397.500	266.385	80.003	19.995	103.238	19.987	-0.287	0.506
398.000	266.677	80.014	19.993	103.231	19.987	-0.333	0.503
398.500	266.883	80.008	19.996	103.229	19.992	-0.625	0.502
399.000	267.141	80.006	19.996	103.225	19.989	-0.446	0.482
399.500	267.424	80.005	19.996	103.218	19.992	-0.647	0.503
400.000	267.671	80.011	19.995	103.216	19.991	-0.588	0.535
400.500	267.929	80.006	19.996	103.223	19.991	-0.577	0.518
401.000	268.152	80.012	19.994	103.223	19.988	-0.398	0.493
401.500	268.401	80.014	19.995	103.227	19.990	-0.499	0.476
402.000	268.647	80.012	19.995	103.229	19.991	-0.562	0.484
402.500	268.884	80.006	19.995	103.229	19.989	-0.427	0.489
403.000	269.126	80.012	19.996	103.223	19.994	-0.756	0.481
403.500	269.397	80.009	19.995	103.219	19.990	-0.522	0.496
404.000	269.596	80.008	19.995	103.216	19.990	-0.536	0.491
404.500	269.860	79.999	19.996	103.217	19.989	-0.475	0.466
405.000	270.105	80.006	19.996	103.217	19.992	-0.625	0.486
405.500	270.375	80.008	19.996	103.219	19.991	-0.555	0.513
406.000	270.664	80.009	19.995	103.221	19.987	-0.344	0.537
406.500	270.878	80.002	19.997	103.222	19.990	-0.494	0.531
407.000	271.132	80.011	19.996	103.222	19.991	-0.571	0.485
407.500	271.425	80.010	19.996	103.229	19.995	-0.834	0.507
408.000	271.663	80.008	19.996	103.232	19.994	-0.766	0.539
408.500	271.856	80.013	19.996	103.234	19.991	-0.596	0.481
409.000	272.144	80.014	19.994	103.237	19.990	-0.544	0.456
409.500	272.395	80.000	19.995	103.237	19.991	-0.601	0.510
410.000	272.676	80.021	19.995	103.230	19.988	-0.401	0.536
410.500	272.914	80.008	19.995	103.229	19.993	-0.734	0.525
411.000	273.137	80.022	19.995	103.229	19.990	-0.533	0.490
411.500	273.380	79.999	19.995	103.230	19.995	-0.882	0.464
412.000	273.656	80.014	19.993	103.226	19.993	-0.693	0.493
412.500	273.897	80.010	19.996	103.231	19.994	-0.788	0.518
413.000	274.150	80.010	19.996	103.229	19.998	-1.085	0.505
413.500	274.381	80.009	19.996	103.226	19.992	-0.638	0.489
414.000	274.646	80.011	19.996	103.223	19.996	-0.914	0.490
414.500	274.926	80.006	19.995	103.225	19.993	-0.723	0.520
415.000	275.160	80.011	19.996	103.219	19.995	-0.840	0.529
415.500	275.389	80.008	19.996	103.219	19.992	-0.627	0.489
416.000	275.675	80.008	19.995	103.219	19.995	-0.882	0.489
416.500	275.915	80.007	19.994	103.222	19.995	-0.886	0.521
417.000	276.124	80.006	19.995	103.223	19.995	-0.854	0.488
417.500	276.400	80.006	19.995	103.225	19.997	-0.986	0.467
418.000	276.673	80.020	19.993	103.230	19.999	-1.124	0.517
418.500	276.904	80.007	19.995	103.237	19.996	-0.926	0.527
419.000	277.155	80.004	19.995	103.233	19.999	-1.124	0.493
419.500	277.414	80.014	19.994	103.232	19.998	-1.089	0.496
420.000	277.642	80.002	19.995	103.234	20.001	-1.232	0.498
420.500	277.932	80.012	19.993	103.230	20.003	-1.381	0.502
421.000	278.143	80.011	19.993	103.222	20.000	-1.187	0.509
421.500	278.391	80.003	19.996	103.226	19.998	-1.054	0.480
422.000	278.665	80.009	19.994	103.225	20.000	-1.222	0.491
422.500	278.915	80.012	19.994	103.222	20.000	-1.180	0.523
423.000	279.155	80.003	19.994	103.222	19.997	-0.993	0.506
423.500	279.440	80.015	19.992	103.220	20.001	-1.241	0.507
424.001	279.650	80.010	19.993	103.219	20.001	-1.281	0.511
424.500	279.923	80.010	19.993	103.222	19.998	-1.072	0.489
425.000	280.200	80.003	19.995	103.226	20.001	-1.281	0.516
425.500	280.470	80.003	19.993	103.226	20.000	-1.217	0.549
426.000	280.684	80.003	19.994	103.230	20.003	-1.392	0.516
426.500	280.948	80.010	19.995	103.226	20.003	-1.376	0.481
427.000	281.215	80.005	19.994	103.222	20.004	-1.494	0.504
427.500	281.453	80.008	19.995	103.217	20.003	-1.416	0.518
428.000	281.689	80.009	19.994	103.216	20.001	-1.228	0.489
428.500	281.911	80.002	19.995	103.215	20.005	-1.537	0.466
429.000	282.177	80.011	19.993	103.215	20.002	-1.355	0.474
429.500	282.427	80.004	19.995	103.217	20.003	-1.378	0.502
430.000	282.740	80.006	19.994	103.215	20.002	-1.311	0.539
430.500	282.922	80.016	19.994	103.216	20.002	-1.337	0.529
431.000	283.204	80.013	19.993	103.217	20.002	-1.315	0.479
431.500	283.511	80.006	19.993	103.221	19.999	-1.108	0.527
432.000	283.703	80.000	19.995	103.220	20.003	-1.370	0.544
432.500	283.922	80.006	19.993	103.223	20.002	-1.307	0.455
433.000	284.238	80.010	19.994	103.222	19.999	-1.115	0.473
433.500	284.443	80.007	19.995	103.221	20.003	-1.368	0.528
434.000	284.732	80.004	19.995	103.218	20.005	-1.544	0.507
434.500	284.987	80.009	19.995	103.213	20.003	-1.420	0.519
435.000	285.266	80.006	19.994	103.209	20.002	-1.318	0.539
435.500	285.487	80.005	19.994	103.209	20.000	-1.167	0.517
436.000	285.759	80.013	19.994	103.208	20.003	-1.422	0.497
436.500	286.010	80.009	19.994	103.211	20.003	-1.418	0.508
437.000	286.219	80.003	19.995	103.216	20.000	-1.198	0.492
437.500	286.500	80.008	19.995	103.215	20.002	-1.322	0.475
438.000	286.764	80.007	19.995	103.215	20.005	-1.550	0.517
438.500	287.017	80.008	19.994	103.215	20.004	-1.465	0.531
439.000	287.255	80.008	19.994	103.213	20.003	-1.363	0.504
439.500	287.512	80.009	19.995	103.212	20.005	-1.524	0.493
440.000	287.770	80.012	19.995	103.215	20.001	-1.287	0.505
440.500	288.078	80.005	19.994	103.216	20.004	-1.444	0.540
441.000	288.293	80.010	19.995	103.215	20.004	-1.492	0.544
441.500	288.551	80.009	19.995	103.216	20.001	-1.291	0.498
442.000	288.790	80.012	19.994	103.214	20.002	-1.309	0.485
442.500	289.040	80.006	19.995	103.215	20.004	-1.463	0.493
443.000	289.255	80.005	19.995	103.215	20.004	-1.439	0.477
443.500	289.527	80.006	19.996	103.215	20.001	-1.291	0.476
444.000	289.743	80.011	19.994	103.217	20.003	-1.424	0.487
444.500	290.003	80.009	19.994	103.220	20.003	-1.400	0.482
445.000	290.280	80.009	19.995	103.218	20.007	-1.651	0.507
445.500	290.529	80.007	19.995	103.218	20.004	-1.461	0.532
446.000	290.790	80.008	19.995	103.218	20.004	-1.435	0.518
446.500	291.041	80.009	19.995	103.215	20.005	-1.503	0.511
447.000	291.300	80.008	19.994	103.215	20.006	-1.616	0.511
447.500	291.533	80.009	19.995	103.215	20.007	-1.679	0.501
448.000	291.811	80.012	19.994	103.215	20.008	-1.703	0.502
448.500	292.050	80.009	19.995	103.218	20.003	-1.409	0.514
449.000	292.317	80.008	19.995	103.219	20.003	-1.402	0.512
449.500	292.516	80.008	19.995	103.217	20.005	-1.550	0.486
450.000	292.796	80.007	19.994	103.217	20.002	-1.357	0.472
450.500	293.059	80.010	19.994	103.217	20.008	-1.722	0.511
451.000	293.296	80.007	19.994	103.215	20.006	-1.583	0.522
451.500	293.547	80.010	19.995	103.213	20.007	-1.640	0.494
452.000	293.776	80.009	19.994	103.214	20.003	-1.391	0.484
452.500	294.081	80.010	19.994	103.215	20.007	-1.644	0.507
453.000	294.305	80.011	19.994	103.215	20.005	-1.557	0.532
453.500	294.563	80.007	19.994	103.215	20.008	-1.755	0.505
454.000	294.793	79.999	19.996	103.215	20.008	-1.725	0.485
454.500	295.084	80.013	19.993	103.214	20.007	-1.696	0.504
455.000	295.324	80.004	19.995	103.213	20.006	-1.601	0.526
455.500	295.566	80.008	19.994	103.212	20.009	-1.836	0.507
456.000	295.847	80.009	19.995	103.212	20.007	-1.683	0.502
456.500	296.132	80.009	19.994	103.213	20.007	-1.637	0.544
457.000	296.341	79.997	19.996	103.219	20.011	-1.956	0.530
457.500	296.606	80.007	19.994	103.217	20.011	-1.931	0.484
458.001	296.860	80.008	19.994	103.218	20.009	-1.827	0.496
458.500	297.132	80.009	19.994	103.218	20.006	-1.574	0.523
459.000	297.334	80.010	19.994	103.218	20.010	-1.882	0.500
459.500	297.611	80.008	19.994	103.213	20.008	-1.711	0.477
460.000	297.833	79.995	19.995	103.214	20.005	-1.563	0.489
460.500	298.111	80.014	19.993	103.212	20.011	-1.925	0.500
461.000	298.363	80.003	19.995	103.214	20.011	-1.944	0.515
461.500	298.642	80.009	19.995	103.212	20.009	-1.829	0.530
462.000	298.908	80.007	19.994	103.211	20.011	-1.958	0.538
462.500	299.158	80.007	19.994	103.214	20.011	-1.916	0.530
463.000	299.404	80.006	19.995	103.218	20.015	-2.191	0.506
463.500	299.682	80.004	19.994	103.217	20.012	-2.016	0.510
464.000	299.909	80.002	19.994	103.216	20.011	-1.951	0.514
464.500	300.162	80.007	19.995	103.216	20.012	-2.027	0.493
465.000	300.414	80.010	19.995	103.215	20.012	-2.040	0.492
465.500	300.693	80.012	19.993	103.213	20.013	-2.084	0.518
466.000	300.902	80.003	19.995	103.214	20.010	-1.905	0.510
466.500	301.161	80.008	19.994	103.215	20.014	-2.114	0.478
467.000	301.403	80.013	19.995	103.218	20.013	-2.053	0.484
467.500	301.691	80.015	19.994	103.219	20.014	-2.165	0.516
468.000	301.950	80.013	19.995	103.219	20.014	-2.165	0.539
468.500	302.204	80.021	19.994	103.218	20.013	-2.056	0.530
469.000	302.458	80.000	19.995	103.222	20.013	-2.047	0.511
469.500	302.685	80.013	19.995	103.219	20.012	-2.034	0.495
470.000	302.979	80.008	19.993	103.218	20.014	-2.123	0.501
470.500	303.194	80.007	19.994	103.220	20.016	-2.254	0.515
471.000	303.475	80.019	19.994	103.222	20.013	-2.084	0.503
471.500	303.751	80.002	19.995	103.222	20.015	-2.176	0.526
472.000	303.924	80.004	19.996	103.227	20.014	-2.149	0.503
472.500	304.216	80.004	19.996	103.227	20.014	-2.154	0.457
473.000	304.491	80.017	19.994	103.223	20.013	-2.088	0.516
473.500	304.711	80.010	19.994	103.222	20.010	-1.897	0.531
474.000	304.976	80.005	19.995	103.219	20.014	-2.119	0.490
474.500	305.232	80.016	19.994	103.215	20.014	-2.130	0.503
475.000	305.510	80.008	19.993	103.218	20.015	-2.180	0.528
475.500	305.739	80.011	19.994	103.222	20.015	-2.215	0.521
476.000	305.983	80.008	19.994	103.220	20.013	-2.090	0.490
476.500	306.287	80.009	19.994	103.220	20.015	-2.239	0.510
477.000	306.517	79.999	19.997	103.222	20.014	-2.114	0.541
477.500	306.809	80.015	19.993	103.217	20.014	-2.154	0.528
478.000	307.034	80.009	19.994	103.217	20.016	-2.302	0.520
478.500	307.314	80.012	19.995	103.217	20.017	-2.348	0.511
479.000	307.542	80.012	19.994	103.218	20.014	-2.154	0.506
479.500	307.788	79.996	19.996	103.217	20.018	-2.395	0.491
480.000	308.079	80.008	19.994	103.218	20.015	-2.204	0.506
480.500	308.366	80.008	19.995	103.214	20.016	-2.280	0.558
481.000	308.570	80.011	19.994	103.212	20.012	-1.984	0.535
481.500	308.832	80.008	19.995	103.211	20.020	-2.535	0.479
482.000	309.104	80.009	19.994	103.210	20.016	-2.304	0.500
482.500	309.341	80.011	19.994	103.212	20.018	-2.443	0.521
483.000	309.624	80.015	19.993	103.213	20.017	-2.354	0.514
483.500	309.839	80.001	19.995	103.217	20.019	-2.463	0.509
484.000	310.091	80.007	19.994	103.216	20.018	-2.391	0.483
484.500	310.323	80.003	19.996	103.216	20.019	-2.509	0.475
485.000	310.671	80.004	19.995	103.215	20.020	-2.563	0.532
485.500	310.880	80.016	19.993	103.213	20.019	-2.498	0.569
486.000	311.151	80.015	19.993	103.214	20.017	-2.358	0.518
486.500	311.395	80.018	19.994	103.216	20.018	-2.426	0.497
487.000	311.684	80.021	19.990	103.215	20.021	-2.607	0.524
487.500	311.906	80.001	19.995	103.221	20.018	-2.411	0.522
488.000	312.188	80.009	19.995	103.219	20.020	-2.548	0.508
488.500	312.466	80.004	19.995	103.217	20.018	-2.391	0.532
489.000	312.736	80.008	19.994	103.215	20.016	-2.300	0.554
489.500	312.994	80.014	19.994	103.216	20.018	-2.406	0.538
490.000	313.221	80.010	19.994	103.212	20.018	-2.441	0.507
490.500	313.494	80.011	19.993	103.215	20.016	-2.278	0.492
491.000	313.716	80.008	19.994	103.216	20.020	-2.564	0.497
491.500	313.984	80.007	19.995	103.213	20.020	-2.564	0.493
492.000	314.283	80.009	19.995	103.211	20.020	-2.564	0.529
492.500	314.517	80.007	19.995	103.211	20.024	-2.851	0.550
493.000	314.793	80.009	19.994	103.211	20.020	-2.579	0.522
493.500	315.028	80.008	19.995	103.211	20.021	-2.640	0.510
494.000	315.307	80.011	19.995	103.215	20.021	-2.640	0.513
494.500	315.545	80.009	19.994	103.217	20.021	-2.627	0.516
495.000	315.789	80.008	19.994	103.216	20.019	-2.461	0.500
495.500	316.051	80.010	19.995	103.217	20.024	-2.807	0.494
496.000	316.323	80.011	19.994	103.215	20.022	-2.679	0.520
496.500	316.573	80.009	19.994	103.215	20.023	-2.766	0.527
497.000	316.822	80.001	19.996	103.212	20.024	-2.807	0.510
497.500	317.059	80.003	19.996	103.210	20.021	-2.648	0.493
498.000	317.368	80.010	19.994	103.208	20.024	-2.803	0.516
498.500	317.627	80.009	19.995	103.209	20.023	-2.770	0.557
499.000	317.866	80.010	19.994	103.209	20.024	-2.847	0.533
499.500	318.125	80.010	19.995	103.210	20.023	-2.749	0.498
500.000	318.380	80.009	19.995	103.211	20.021	-2.644	0.506
500.500	318.662	80.001	19.996	103.211	20.020	-2.526	0.526
501.000	318.898	80.011	19.996	103.205	20.021	-2.591	0.527
501.500	319.134	80.008	19.996	103.203	20.019	-2.493	0.495
502.000	319.416	80.010	19.996	103.201	20.022	-2.707	0.495
502.500	319.643	80.013	19.995	103.197	20.023	-2.740	0.513
503.000	319.918	80.007	19.995	103.200	20.026	-2.949	0.505
503.500	320.167	80.008	19.995	103.204	20.023	-2.781	0.513
504.000	320.427	80.009	19.996	103.205	20.022	-2.705	0.516
504.500	320.662	80.009	19.996	103.204	20.023	-2.724	0.502
505.000	320.959	80.006	19.996	103.206	20.022	-2.657	0.514
505.500	321.196	80.009	19.996	103.206	20.029	-3.155	0.533
506.000	321.489	80.005	19.995	103.205	20.024	-2.787	0.532
506.500	321.707	80.012	19.996	103.206	20.024	-2.831	0.521
507.000	321.991	80.007	19.997	103.211	20.027	-3.012	0.507
507.500	322.243	80.006	19.995	103.212	20.023	-2.774	0.519
508.000	322.487	79.998	19.996	103.211	20.027	-3.012	0.516
508.500	322.733	80.008	19.995	103.209	20.025	-2.859	0.493
509.000	323.009	80.007	19.995	103.207	20.025	-2.903	0.506
509.500	323.243	80.007	19.996	103.204	20.028	-3.106	0.516
510.000	323.504	80.011	19.995	103.203	20.025	-2.877	0.502
510.500	323.761	80.005	19.996	103.204	20.027	-3.036	0.506
511.000	324.001	80.012	19.995	103.204	20.027	-3.018	0.508
511.500	324.278	80.011	19.994	103.206	20.027	-3.010	0.507
512.000	324.538	80.008	19.995	103.210	20.026	-2.964	0.527
512.500	324.794	80.008	19.995	103.212	20.025	-2.860	0.527
513.000	325.036	80.006	19.996	103.211	20.025	-2.882	0.508
513.500	325.298	80.007	19.994	103.213	20.027	-3.002	0.501
514.000	325.556	80.010	19.994	103.213	20.026	-2.949	0.512
514.500	325.796	80.009	19.994	103.211	20.029	-3.175	0.509
515.000	326.055	80.000	19.994	103.211	20.025	-2.895	0.498
515.500	326.282	80.007	19.995	103.212	20.027	-3.005	0.492
516.000	326.585	80.010	19.994	103.212	20.028	-3.099	0.508
516.500	326.813	80.009	19.995	103.213	20.028	-3.089	0.530
517.000	327.084	80.022	19.993	103.211	20.027	-3.056	0.515
517.500	327.347	80.010	19.994	103.213	20.033	-3.401	0.517
518.000	327.590	80.011	19.994	103.212	20.030	-3.213	0.521
518.500	327.844	80.010	19.995	103.212	20.029	-3.172	0.502
519.000	328.102	80.006	19.995	103.211	20.029	-3.189	0.504
519.500	328.357	80.021	19.993	103.211	20.032	-3.366	0.512
520.000	328.626	80.008	19.994	103.210	20.027	-3.012	0.519
520.500	328.857	80.013	19.993	103.212	20.029	-3.191	0.512
521.000	329.145	80.017	19.994	103.214	20.031	-3.299	0.509
521.500	329.396	80.002	19.995	103.215	20.030	-3.219	0.529
522.001	329.660	80.012	19.994	103.212	20.031	-3.302	0.527
522.500	329.873	80.000	19.994	103.206	20.031	-3.317	0.496
523.000	330.155	80.010	19.995	103.201	20.032	-3.383	0.486
523.500	330.400	79.997	19.996	103.196	20.033	-3.407	0.511
524.000	330.664	80.007	19.994	103.191	20.030	-3.258	0.518
524.500	330.925	80.014	19.994	103.192	20.035	-3.587	0.517
525.000	331.152	80.009	19.994	103.197	20.035	-3.574	0.506
525.500	331.435	80.011	19.994	103.202	20.033	-3.450	0.499
526.000	331.666	80.008	19.993	103.204	20.028	-3.102	0.512
526.500	331.920	80.005	19.995	103.205	20.030	-3.247	0.500
527.000	332.154	80.004	19.996	103.204	20.033	-3.437	0.486
527.500	332.423	80.009	19.996	103.198	20.032	-3.374	0.496
528.000	332.682	79.996	19.997	103.192	20.029	-3.186	0.516
528.500	332.943	80.012	19.994	103.183	20.029	-3.143	0.524
529.000	333.188	80.004	19.994	103.185	20.031	-3.289	0.513
529.500	333.479	80.002	19.996	103.184	20.033	-3.400	0.521
530.000	333.708	80.004	19.995	103.186	20.033	-3.408	0.528
530.500	333.982	80.003	19.996	103.189	20.030	-3.232	0.511
531.000	334.288	80.008	19.994	103.196	20.031	-3.321	0.542
531.500	334.466	80.007	19.995	103.201	20.028	-3.065	0.532
532.000	334.733	80.020	19.992	103.203	20.031	-3.273	0.464
532.500	334.983	80.000	19.995	103.204	20.031	-3.297	0.481
533.000	335.250	80.011	19.994	103.198	20.030	-3.229	0.517
533.500	335.514	80.017	19.994	103.195	20.031	-3.266	0.525
534.000	335.726	80.001	19.996	103.195	20.030	-3.206	0.503
534.500	336.005	80.015	19.993	103.193	20.030	-3.210	0.483
535.000	336.248	80.006	19.994	103.193	20.029	-3.145	0.507
535.500	336.515	80.003	19.995	103.198	20.031	-3.282	0.516
536.000	336.783	80.010	19.993	103.201	20.029	-3.190	0.522
536.500	337.049	80.008	19.994	103.200	20.033	-3.400	0.534
537.000	337.303	80.008	19.994	103.200	20.030	-3.201	0.527
537.500	337.511	80.000	19.996	103.200	20.025	-2.897	0.491
538.000	337.819	80.007	19.995	103.200	20.029	-3.143	0.489
538.500	338.049	80.002	19.995	103.201	20.032	-3.354	0.527
539.000	338.347	80.006	19.994	103.201	20.032	-3.345	0.533
539.500	338.552	80.004	19.995	103.207	20.028	-3.104	0.515
540.000	338.778	80.007	19.995	103.206	20.031	-3.317	0.467
540.500	339.060	80.011	19.994	103.211	20.030	-3.197	0.469
541.000	339.298	80.010	19.994	103.206	20.028	-3.097	0.513
541.501	339.538	80.011	19.994	103.200	20.029	-3.128	0.499
542.000	339.752	80.006	19.995	103.198	20.029	-3.188	0.467
542.500	340.036	80.006	19.995	103.201	20.030	-3.215	0.476
543.000	340.294	80.007	19.995	103.201	20.030	-3.241	0.520
543.500	340.584	80.013	19.993	103.207	20.029	-3.139	0.545
544.000	340.813	80.006	19.994	103.216	20.031	-3.293	0.533
544.501	341.074	80.007	19.994	103.216	20.030	-3.202	0.504
545.000	341.287	80.010	19.994	103.217	20.031	-3.317	0.482
545.500	341.546	80.007	19.995	103.217	20.030	-3.236	0.473
546.000	341.818	80.012	19.995	103.214	20.036	-3.635	0.501
546.500	342.014	80.009	19.994	103.210	20.033	-3.428	0.499
547.000	342.317	80.010	19.993	103.211	20.032	-3.352	0.484
547.501	342.558	80.009	19.995	103.209	20.033	-3.447	0.522
548.000	342.770	80.008	19.995	103.208	20.034	-3.496	0.499
548.500	343.035	80.008	19.994	103.210	20.036	-3.605	0.465
549.000	343.318	80.008	19.995	103.211	20.036	-3.659	0.512
549.500	343.551	80.008	19.994	103.212	20.033	-3.439	0.532
550.000	343.807	80.013	19.993	103.209	20.031	-3.298	0.502
550.500	344.029	80.006	19.993	103.205	20.036	-3.659	0.483
551.000	344.267	79.997	19.995	103.206	20.036	-3.638	0.469
551.500	344.522	80.013	19.993	103.201	20.035	-3.539	0.477
552.000	344.787	80.005	19.993	103.198	20.031	-3.295	0.507
552.500	345.052	80.011	19.993	103.200	20.034	-3.492	0.525
553.000	345.298	80.010	19.994	103.203	20.031	-3.300	0.520
553.500	345.511	80.008	19.994	103.201	20.036	-3.600	0.485
554.000	345.790	80.009	19.994	103.199	20.030	-3.208	0.475
554.500	346.056	80.013	19.994	103.199	20.031	-3.315	0.518
555.000	346.299	80.014	19.993	103.199	20.031	-3.276	0.527
555.500	346.539	80.000	19.995	103.201	20.036	-3.653	0.496
556.000	346.790	80.012	19.992	103.198	20.032	-3.382	0.487
556.500	347.069	80.008	19.993	103.204	20.031	-3.328	0.510
557.000	347.305	80.007	19.994	103.208	20.033	-3.445	0.522
557.500	347.569	80.008	19.994	103.206	20.032	-3.367	0.508
558.000	347.825	80.006	19.993	103.206	20.034	-3.483	0.511
558.500	348.084	80.006	19.994	103.207	20.029	-3.141	0.517
559.000	348.342	80.003	19.994	103.203	20.029	-3.189	0.516
559.500	348.568	80.007	19.994	103.196	20.029	-3.178	0.500
560.000	348.856	80.004	19.994	103.193	20.030	-3.254	0.499
560.500	349.092	80.011	19.994	103.188	20.033	-3.439	0.519
561.000	349.362	80.009	19.994	103.189	20.030	-3.195	0.515
561.500	349.622	80.010	19.994	103.191	20.033	-3.450	0.518
562.000	349.868	80.009	19.995	103.195	20.033	-3.443	0.518
562.500	350.103	80.004	19.995	103.198	20.034	-3.504	0.494
563.000	350.376	80.008	19.995	103.198	20.033	-3.441	0.495
563.500	350.630	80.014	19.994	103.197	20.029	-3.185	0.517
564.000	350.881	80.001	19.996	103.198	20.030	-3.252	0.516
564.500	351.134	80.011	19.995	103.193	20.031	-3.313	0.504
565.000	351.367	80.004	19.996	103.193	20.032	-3.341	0.495
565.500	351.606	80.005	19.996	103.198	20.031	-3.282	0.479
566.000	351.875	80.001	19.995	103.198	20.032	-3.356	0.490
566.500	352.131	80.002	19.996	103.198	20.031	-3.312	0.517
567.000	352.388	80.011	19.996	103.205	20.031	-3.262	0.519
567.500	352.639	80.013	19.995	103.205	20.032	-3.348	0.511
568.000	352.923	80.013	19.995	103.203	20.035	-3.550	0.521
568.501	353.155	80.012	19.995	103.202	20.032	-3.365	0.525
569.000	353.436	80.000	19.996	103.200	20.035	-3.574	0.514
569.500	353.692	80.006	19.996	103.192	20.034	-3.485	0.525
570.000	353.926	80.003	19.996	103.189	20.034	-3.487	0.513
570.500	354.184	80.010	19.995	103.190	20.034	-3.523	0.491
571.000	354.415	80.011	19.994	103.191	20.033	-3.413	0.490
571.500	354.661	80.012	19.996	103.193	20.033	-3.402	0.483
572.000	354.919	80.011	19.995	103.201	20.028	-3.071	0.491
572.500	355.181	80.008	19.995	103.206	20.032	-3.344	0.512
573.000	355.408	80.008	19.995	103.206	20.030	-3.232	0.504
573.500	355.708	80.009	19.995	103.202	20.028	-3.119	0.507
574.000	355.943	80.011	19.995	103.197	20.031	-3.270	0.531
574.500	356.184	80.005	19.995	103.193	20.033	-3.402	0.506
575.000	356.452	80.012	19.994	103.191	20.032	-3.378	0.492
575.500	356.710	80.014	19.994	103.190	20.029	-3.165	0.517
576.000	356.952	80.022	19.993	103.195	20.031	-3.281	0.513
576.500	357.204	80.012	19.993	103.203	20.029	-3.150	0.497
577.000	357.463	80.011	19.995	103.206	20.030	-3.252	0.503
577.500	357.706	80.000	19.995	103.208	20.029	-3.174	0.507
578.000	357.958	80.006	19.995	103.207	20.031	-3.292	0.498
578.500	358.218	80.013	19.995	103.202	20.029	-3.126	0.503
579.000	358.448	80.011	19.995	103.201	20.027	-3.056	0.501
579.500	358.692	80.011	19.994	103.197	20.034	-3.479	0.482
580.000	358.948	80.015	19.994	103.192	20.027	-3.039	0.487
580.500	359.221	80.010	19.994	103.190	20.029	-3.135	0.515
581.000	359.465	80.006	19.994	103.188	20.026	-2.962	0.523
581.500	359.740	80.022	19.993	103.181	20.027	-3.028	0.518
582.000	359.976	80.011	19.993	103.186	20.025	-2.915	0.515
582.500	360.231	80.009	19.994	103.192	20.027	-3.039	0.501
583.000	360.493	80.005	19.994	103.193	20.029	-3.172	0.504
583.500	360.722	80.008	19.995	103.196	20.026	-2.964	0.504
584.000	360.996	80.011	19.994	103.199	20.024	-2.838	0.497
584.500	361.227	80.008	19.995	103.194	20.023	-2.767	0.504
585.000	361.447	80.011	19.994	103.188	20.022	-2.695	0.478
585.500	361.753	80.010	19.994	103.190	20.025	-2.917	0.488
586.000	361.982	80.002	19.995	103.189	20.020	-2.579	0.530
586.500	362.243	79.999	19.997	103.183	20.024	-2.853	0.512
587.000	362.486	79.998	19.997	103.182	20.022	-2.653	0.497
587.500	362.757	80.009	19.995	103.180	20.024	-2.798	0.509
588.000	363.018	80.008	19.995	103.179	20.023	-2.746	0.523
588.500	363.252	80.010	19.995	103.181	20.023	-2.725	0.514
589.000	363.504	80.009	19.994	103.185	20.019	-2.507	0.490
589.500	363.762	80.006	19.996	103.186	20.019	-2.491	0.498
590.001	363.993	80.012	19.995	103.190	20.019	-2.515	0.500
590.501	364.235	80.009	19.995	103.193	20.020	-2.576	0.481
591.000	364.504	80.007	19.995	103.191	20.018	-2.443	0.492
591.500	364.756	80.003	19.995	103.188	20.017	-2.367	0.516
592.000	364.989	80.008	19.995	103.189	20.013	-2.056	0.503
592.500	365.297	80.005	19.995	103.186	20.015	-2.237	0.512
593.000	365.525	79.996	19.997	103.186	20.013	-2.063	0.538
593.500	365.750	80.010	19.996	103.186	20.016	-2.259	0.495
594.000	366.043	80.003	19.995	103.189	20.015	-2.184	0.486
594.500	366.258	80.007	19.994	103.191	20.011	-1.960	0.513
595.000	366.524	80.010	19.995	103.190	20.008	-1.751	0.494
595.500	366.771	80.008	19.995	103.187	20.011	-1.906	0.497
596.000	367.004	80.002	19.995	103.192	20.009	-1.831	0.497
596.500	367.283	80.017	19.996	103.196	20.008	-1.738	0.496
597.000	367.493	80.012	19.995	103.201	20.009	-1.807	0.501
597.500	367.736	80.008	19.995	103.205	20.006	-1.609	0.471
598.000	367.989	80.008	19.995	103.208	20.012	-1.973	0.475
598.500	368.297	80.005	19.996	103.208	20.008	-1.753	0.528
599.000	368.528	80.004	19.996	103.208	20.006	-1.624	0.550
599.500	368.778	80.007	19.995	103.208	20.004	-1.490	0.510
600.000	369.036	79.999	19.997	103.210	20.007	-1.657	0.494
600.500	369.264	80.017	19.995	103.210	20.005	-1.505	0.497
601.000	369.552	80.009	19.995	103.212	20.002	-1.311	0.501
601.500	369.788	80.008	19.995	103.212	20.005	-1.500	0.520
602.000	370.051	80.009	19.995	103.208	20.003	-1.409	0.512
602.500	370.316	80.012	19.995	103.202	20.001	-1.257	0.513
603.000	370.525	80.008	19.997	103.204	19.998	-1.067	0.501
603.500	370.768	80.010	19.995	103.200	19.999	-1.109	0.463
604.000	371.067	80.007	19.994	103.200	19.995	-0.845	0.498
604.500	371.336	80.014	19.993	103.203	19.993	-0.717	0.555
605.001	371.558	80.008	19.993	103.209	19.990	-0.521	0.529
605.500	371.813	80.013	19.995	103.208	19.991	-0.581	0.484
606.000	372.086	80.009	19.993	103.211	19.988	-0.355	0.503
606.500	372.319	80.008	19.995	103.211	19.988	-0.355	0.517
607.000	372.591	80.000	19.994	103.213	19.986	-0.237	0.505
607.500	372.858	80.010	19.994	103.212	19.986	-0.248	0.522
608.000	373.094	80.007	19.995	103.216	19.986	-0.268	0.521
608.500	373.367	80.005	19.994	103.216	19.986	-0.250	0.506
609.000	373.602	80.011	19.994	103.215	19.980	0.129	0.508
609.500	373.811	80.009	19.994	103.216	19.983	-0.037	0.476
610.000	374.085	80.009	19.994	103.216	19.982	0.043	0.463
610.500	374.361	80.008	19.994	103.216	19.977	0.342	0.517
611.000	374.635	80.013	19.994	103.216	19.978	0.311	0.550
611.500	374.885	80.007	19.994	103.217	19.977	0.388	0.537
612.000	375.152	80.012	19.993	103.217	19.974	0.603	0.520
612.500	375.400	80.011	19.993	103.218	19.971	0.742	0.516
613.000	375.648	80.003	19.994	103.218	19.970	0.847	0.506
613.500	375.945	80.000	19.994	103.216	19.969	0.912	0.520
614.000	376.178	80.006	19.994	103.214	19.971	0.777	0.538
614.500	376.468	80.006	19.995	103.214	19.964	1.280	0.527
615.000	376.690	80.003	19.994	103.213	19.965	1.178	0.518
615.500	376.969	80.012	19.994	103.212	19.962	1.363	0.507
616.001	377.240	80.006	19.994	103.220	19.961	1.431	0.525
616.500	377.478	80.008	19.994	103.222	19.961	1.452	0.529
617.000	377.713	80.006	19.993	103.224	19.958	1.631	0.491
617.500	378.011	80.012	19.994	103.224	19.957	1.725	0.503
618.000	378.283	80.013	19.994	103.225	19.953	2.003	0.551
618.500	378.489	79.999	19.995	103.219	19.958	1.679	0.524
619.000	378.754	79.999	19.996	103.218	19.953	1.962	0.474
619.500	379.029	80.003	19.994	103.216	19.948	2.319	0.506
620.000	379.237	80.003	19.995	103.219	19.948	2.306	0.511
620.500	379.519	80.008	19.994	103.219	19.942	2.718	0.487
621.000	379.786	80.002	19.995	103.219	19.944	2.582	0.520
621.500	380.013	80.003	19.993	103.219	19.942	2.719	0.521
622.000	380.317	80.007	19.995	103.221	19.944	2.624	0.513
622.500	380.591	80.009	19.994	103.216	19.938	2.980	0.555
623.000	380.826	79.997	19.995	103.218	19.937	3.059	0.544
623.500	381.092	80.002	19.995	103.216	19.934	3.267	0.505
624.000	381.350	80.007	19.995	103.216	19.936	3.122	0.512
624.500	381.614	80.013	19.993	103.216	19.933	3.337	0.523
625.000	381.875	80.010	19.995	103.220	19.932	3.423	0.523
625.500	382.128	80.013	19.995	103.217	19.933	3.357	0.519
626.000	382.385	80.016	19.993	103.219	19.935	3.207	0.512
626.500	382.639	80.000	19.995	103.222	19.933	3.383	0.511
627.000	382.928	80.008	19.994	103.219	19.931	3.468	0.527
627.500	383.181	80.017	19.994	103.217	19.930	3.551	0.542
628.000	383.427	80.009	19.994	103.220	19.931	3.507	0.520
628.500	383.712	80.000	19.994	103.219	19.930	3.539	0.515
629.000	383.913	80.016	19.994	103.216	19.932	3.396	0.508
629.500	384.228	80.006	19.995	103.219	19.927	3.781	0.501
630.000	384.449	80.006	19.994	103.218	19.932	3.418	0.527
630.500	384.765	80.004	19.995	103.215	19.931	3.461	0.537
631.000	384.987	80.007	19.995	103.215	19.929	3.627	0.537
631.500	385.240	80.003	19.995	103.218	19.927	3.777	0.506
632.000	385.521	80.012	19.994	103.222	19.932	3.392	0.505
632.500	385.810	80.010	19.995	103.229	19.928	3.668	0.552
633.000	386.069	80.022	19.993	103.236	19.927	3.788	0.559
633.500	386.302	80.001	19.995	103.244	19.924	3.982	0.520
634.000	386.626	80.012	19.994	103.245	19.924	3.943	0.524
634.500	386.866	80.008	19.994	103.247	19.920	4.241	0.560
635.000	387.157	79.997	19.994	103.246	19.914	4.637	0.548
635.500	387.381	80.001	19.995	103.243	19.923	4.038	0.523
636.000	387.594	80.018	19.993	103.237	19.934	3.297	0.476
636.500	387.896	80.009	19.994	103.238	19.918	4.366	0.476
637.000	388.136	80.012	19.994	103.238	19.913	4.682	0.528
637.500	388.410	79.998	19.995	103.239	19.909	5.008	0.528
638.000	388.675	80.011	19.994	103.241	19.911	4.836	0.527
638.500	388.963	80.010	19.993	103.247	19.904	5.337	0.546
639.000	389.188	79.997	19.996	103.249	19.903	5.414	0.533
639.500	389.474	80.009	19.994	103.247	19.903	5.379	0.512
640.000	389.696	80.019	19.992	103.244	19.899	5.682	0.509
640.500	389.974	80.016	19.993	103.245	19.897	5.820	0.504
641.000	390.239	80.007	19.994	103.240	19.896	5.833	0.522
641.500	390.517	80.003	19.995	103.239	19.890	6.287	0.543
642.000	390.768	80.005	19.994	103.239	19.889	6.346	0.536
642.500	391.080	80.009	19.994	103.241	19.887	6.483	0.546
643.000	391.313	80.009	19.994	103.243	19.883	6.740	0.554
643.500	391.594	80.009	19.994	103.242	19.883	6.718	0.530
644.000	391.870	79.994	19.995	103.239	19.873	7.420	0.536
644.500	392.146	80.023	19.993	103.238	19.869	7.700	0.555
645.000	392.397	79.994	19.995	103.243	19.865	7.952	0.540
645.500	392.640	79.997	19.995	103.240	19.857	8.497	0.510
646.000	392.918	80.013	19.992	103.243	19.850	8.991	0.507
646.500	393.217	80.011	19.995	103.252	19.846	9.282	0.549
647.000	393.452	80.015	19.994	103.262	19.839	9.738	0.555
647.500	393.762	80.008	19.994	103.259	19.838	9.773	0.540
648.000	394.017	80.000	19.994	103.261	19.834	10.071	0.556
648.500	394.211	80.009	19.993	103.261	19.835	10.014	0.507
649.000	394.462	80.010	19.993	103.256	19.830	10.358	0.446
649.500	394.717	80.011	19.993	103.249	19.825	10.683	0.475
650.000	394.996	80.003	19.995	103.247	19.825	10.688	0.521
650.500	395.306	80.008	19.994	103.240	19.823	10.836	0.562
651.000	395.570	80.019	19.993	103.235	19.823	10.799	0.581
651.500	395.824	80.009	19.994	103.231	19.816	11.284	0.546
652.000	396.131	80.010	19.995	103.225	19.815	11.362	0.540
652.500	396.388	79.991	19.996	103.217	19.813	11.481	0.563
653.000	396.677	80.011	19.993	103.214	19.808	11.821	0.555
653.500	396.891	80.011	19.994	103.216	19.804	12.101	0.524
654.000	397.175	80.004	19.995	103.213	19.797	12.555	0.501
654.500	397.487	80.019	19.993	103.215	19.797	12.566	0.547
655.000	397.691	80.012	19.994	103.226	19.798	12.528	0.556
655.500	397.953	80.012	19.994	103.237	19.793	12.831	0.491
656.000	398.227	80.013	19.993	103.250	19.795	12.702	0.501
656.500	398.486	80.020	19.993	103.267	19.792	12.912	0.535
657.000	398.748	80.014	19.995	103.281	19.789	13.109	0.527
657.500	398.967	80.004	19.995	103.287	19.786	13.305	0.501
658.000	399.251	80.016	19.994	103.297	19.785	13.423	0.492
658.500	399.509	80.011	19.994	103.298	19.782	13.593	0.522
659.000	399.788	80.020	19.993	103.297	19.777	13.931	0.540
659.500	400.056	80.000	19.996	103.296	19.773	14.197	0.543
660.000	400.304	80.014	19.993	103.294	19.768	14.540	0.532
660.500	400.563	80.009	19.995	103.290	19.764	14.815	0.511
661.000	400.803	80.010	19.994	103.289	19.757	15.306	0.503
661.500	401.073	80.011	19.995	103.289	19.755	15.416	0.504
662.000	401.273	80.009	19.995	103.286	19.750	15.796	0.490
662.500	401.568	80.008	19.995	103.287	19.748	15.933	0.482
663.000	401.832	80.009	19.995	103.289	19.743	16.237	0.527
663.500	402.070	80.011	19.995	103.292	19.733	16.898	0.530
664.000	402.333	80.009	19.994	103.294	19.731	17.093	0.502
664.500	402.580	80.010	19.994	103.295	19.723	17.633	0.506
665.000	402.846	80.006	19.994	103.297	19.716	18.080	0.511
665.500	403.095	80.010	19.994	103.302	19.714	18.207	0.513
666.000	403.393	80.008	19.995	103.304	19.705	18.803	0.531
666.500	403.581	80.008	19.993	103.304	19.699	19.237	0.517
667.000	403.840	80.003	19.996	103.310	19.700	19.142	0.466
667.500	404.034	80.008	19.994	103.310	19.692	19.748	0.450
668.000	404.342	80.015	19.993	103.306	19.686	20.136	0.478
668.500	404.584	80.009	19.994	103.306	19.681	20.486	0.526
669.000	404.839	80.004	19.995	103.312	19.673	21.036	0.524
669.500	405.113	80.010	19.995	103.314	19.664	21.602	0.513
670.000	405.358	80.008	19.993	103.320	19.661	21.804	0.524
670.500	405.641	80.005	19.994	103.328	19.653	22.369	0.524
671.000	405.894	80.008	19.995	103.331	19.648	22.680	0.532
671.500	406.159	80.009	19.994	103.332	19.642	23.083	0.527
672.000	406.406	80.008	19.994	103.333	19.632	23.811	0.515
672.500	406.653	80.002	19.995	103.335	19.623	24.419	0.503
673.000	406.966	80.013	19.994	103.338	19.615	24.938	0.527
673.500	407.190	80.013	19.993	103.341	19.607	25.520	0.549
674.000	407.462	80.010	19.993	103.344	19.601	25.927	0.517
674.500	407.648	80.020	19.994	103.351	19.592	26.560	0.477
675.000	407.929	80.003	19.996	103.359	19.580	27.325	0.462
675.500	408.196	80.008	19.995	103.362	19.577	27.575	0.508
676.000	408.488	80.020	19.991	103.365	19.563	28.508	0.553
676.500	408.747	80.011	19.994	103.374	19.560	28.724	0.555
677.000	408.972	80.015	19.994	103.374	19.550	29.391	0.518
677.501	409.183	80.002	19.996	103.373	19.541	29.958	0.459
678.001	409.482	79.998	19.995	103.371	19.534	30.435	0.473
678.501	409.716	80.005	19.995	103.367	19.530	30.711	0.522
679.000	409.961	80.007	19.994	103.359	19.520	31.416	0.506
679.500	410.234	80.010	19.995	103.361	19.510	32.086	0.498
680.000	410.447	80.014	19.995	103.359	19.504	32.501	0.502
680.500	410.711	80.002	19.994	103.364	19.491	33.355	0.482
681.000	411.025	80.016	19.993	103.369	19.483	33.935	0.528
681.500	411.228	80.009	19.994	103.378	19.471	34.729	0.547
682.000	411.491	80.005	19.994	103.383	19.460	35.494	0.491
682.500	411.739	80.005	19.994	103.391	19.454	35.906	0.489
683.000	411.995	80.012	19.995	103.398	19.438	37.029	0.508
683.500	412.238	80.013	19.994	103.408	19.426	37.850	0.501
684.000	412.488	80.020	19.994	103.418	19.416	38.475	0.496
684.500	412.739	80.014	19.995	103.431	19.407	39.126	0.497
685.000	412.969	80.014	19.995	103.438	19.393	40.064	0.491
685.500	413.256	80.018	19.993	103.447	19.384	40.690	0.499
686.000	413.496	80.003	19.996	103.455	19.371	41.580	0.522
686.500	413.787	80.007	19.995	103.453	19.362	42.202	0.529
687.000	414.006	80.006	19.994	103.450	19.353	42.802	0.521
687.500	414.233	80.010	19.995	103.451	19.345	43.330	0.479
688.000	414.459	80.006	19.994	103.450	19.335	44.052	0.450
688.500	414.700	80.005	19.995	103.446	19.325	44.736	0.460
689.000	414.963	80.005	19.995	103.447	19.316	45.353	0.486
689.500	415.248	80.007	19.996	103.446	19.304	46.174	0.526
690.000	415.488	80.013	19.993	103.444	19.291	47.002	0.536
690.500	415.754	80.009	19.994	103.444	19.277	47.980	0.515
691.000	415.978	80.005	19.997	103.446	19.269	48.539	0.498
691.500	416.237	80.000	19.996	103.446	19.257	49.361	0.487
692.000	416.462	80.003	19.996	103.449	19.247	50.035	0.484
692.500	416.743	80.019	19.994	103.457	19.231	51.094	0.495
693.000	416.986	79.998	19.996	103.466	19.225	51.529	0.515
693.500	417.221	79.998	19.996	103.473	19.211	52.478	0.501
694.000	417.463	80.009	19.995	103.484	19.193	53.692	0.478
694.500	417.692	79.990	19.996	103.497	19.177	54.813	0.474
695.000	417.957	80.013	19.994	103.502	19.164	55.712	0.483
695.500	418.214	80.005	19.995	103.509	19.147	56.869	0.508
696.000	418.465	80.004	19.995	103.521	19.132	57.845	0.515
696.500	418.678	80.017	19.993	103.534	19.115	59.020	0.486
697.000	418.956	80.007	19.994	103.538	19.100	60.094	0.478
697.500	419.196	80.003	19.995	103.544	19.084	61.193	0.505
698.000	419.463	80.015	19.994	103.546	19.069	62.191	0.512
698.500	419.697	80.016	19.992	103.552	19.052	63.366	0.504
699.000	419.977	80.011	19.994	103.557	19.037	64.357	0.507
699.500	420.182	80.004	19.995	103.560	19.022	65.361	0.499
700.000	420.452	80.005	19.994	103.558	19.008	66.359	0.480
700.500	420.676	80.005	19.995	103.556	18.996	67.194	0.485
701.000	420.948	80.008	19.994	103.549	18.979	68.344	0.495
701.500	421.241	80.008	19.993	103.543	18.965	69.268	0.530
702.000	421.476	80.015	19.993	103.544	18.946	70.569	0.547
702.500	421.692	80.006	19.994	103.551	18.931	71.591	0.490
703.000	421.963	80.006	19.994	103.560	18.916	72.620	0.469
703.500	422.205	80.007	19.994	103.567	18.900	73.679	0.500
704.000	422.433	80.007	19.994	103.570	18.884	74.779	0.491
704.500	422.695	79.998	19.996	103.571	18.870	75.756	0.480
705.000	422.938	80.008	19.994	103.575	18.859	76.526	0.498
705.500	423.210	80.023	19.992	103.579	18.842	77.688	0.510
706.000	423.454	79.998	19.995	103.588	18.829	78.605	0.515
706.500	423.722	80.007	19.993	103.594	18.808	80.071	0.513
707.000	423.941	80.018	19.993	103.608	18.796	80.877	0.500
707.500	424.215	80.016	19.994	103.626	18.781	81.927	0.491
708.000	424.423	80.019	19.992	103.636	18.764	83.023	0.488
708.500	424.678	80.012	19.993	103.645	18.750	84.024	0.472
709.000	424.924	80.004	19.995	103.656	18.736	84.985	0.482
709.500	425.187	79.996	19.996	103.658	18.715	86.385	0.505
710.000	425.444	80.009	19.994	103.657	18.700	87.440	0.515
710.500	425.669	80.013	19.994	103.662	18.686	88.372	0.501
711.000	425.951	80.002	19.995	103.666	18.670	89.445	0.494
711.500	426.191	80.012	19.994	103.670	18.652	90.675	0.514
712.000	426.439	80.008	19.995	103.677	18.638	91.645	0.505
712.500	426.691	80.008	19.994	103.684	18.619	92.981	0.494
713.000	426.955	80.010	19.994	103.695	18.602	94.161	0.508
713.500	427.165	80.012	19.993	103.677	18.582	95.508	0.495
714.000	427.413	79.999	19.995	103.666	18.568	96.500	0.466
714.500	427.668	80.008	19.995	103.659	18.546	97.988	0.481
715.000	427.913	80.008	19.994	103.655	18.532	98.968	0.501
715.501	428.183	80.007	19.993	103.653	18.510	100.434	0.507
716.000	428.442	80.000	19.996	103.709	18.490	101.822	0.522
716.500	428.708	80.017	19.993	103.756	18.475	102.813	0.527
717.000	428.941	80.014	19.994	103.790	18.454	104.255	0.513
717.500	429.158	80.003	19.995	103.805	18.434	105.646	0.474
718.000	429.405	80.009	19.993	103.809	18.419	106.673	0.457
718.500	429.673	80.018	19.992	103.792	18.399	108.014	0.489
719.000	429.919	80.018	19.992	103.781	18.383	109.101	0.514
719.500	430.173	80.015	19.994	103.778	18.363	110.472	0.507
720.000	430.379	80.003	19.997	103.780	18.345	111.708	0.480
720.500	430.686	79.997	19.995	103.788	18.324	113.168	0.486
721.000	430.929	79.996	19.995	103.793	18.303	114.596	0.531
721.500	431.138	80.005	19.995	103.794	18.282	116.069	0.501
722.000	431.401	79.996	19.997	103.792	18.264	117.302	0.462
722.500	431.663	80.005	19.995	103.797	18.245	118.594	0.499
723.000	431.903	80.005	19.996	103.807	18.219	120.399	0.514
723.500	432.159	80.003	19.993	103.810	18.202	121.587	0.499
724.000	432.402	79.998	19.995	103.819	18.179	123.159	0.497
724.500	432.662	80.009	19.994	103.834	18.160	124.463	0.501
725.000	432.937	80.001	19.995	103.850	18.141	125.761	0.519
725.500	433.165	80.006	19.993	103.858	18.122	127.105	0.519
726.000	433.421	80.003	19.994	103.869	18.104	128.358	0.494
726.500	433.650	79.998	19.996	103.874	18.087	129.468	0.485
727.000	433.937	80.018	19.992	103.870	18.071	130.628	0.500
727.500	434.187	80.002	19.995	103.869	18.055	131.668	0.526
728.000	434.458	80.011	19.993	103.869	18.038	132.835	0.529
728.500	434.724	80.015	19.994	103.869	18.026	133.625	0.529
729.000	434.926	79.994	19.996	103.868	18.009	134.819	0.503
729.500	435.232	80.008	19.993	103.869	17.994	135.842	0.488
730.000	435.478	80.009	19.993	103.869	17.978	136.944	0.530
730.500	435.721	80.004	19.994	103.876	17.964	137.919	0.520
731.000	435.980	80.003	19.993	103.881	17.951	138.806	0.495
731.500	436.218	80.005	19.993	103.891	17.936	139.809	0.499
732.000	436.462	80.004	19.994	103.905	17.922	140.814	0.490
732.500	436.713	80.007	19.994	103.915	17.908	141.774	0.489
733.000	436.985	80.009	19.994	103.926	17.893	142.813	0.509
733.500	437.245	80.008	19.993	103.935	17.876	143.962	0.527
734.000	437.499	80.016	19.994	103.945	17.863	144.878	0.523
734.500	437.764	80.022	19.994	103.957	17.848	145.912	0.516
735.000	437.983	80.008	19.994	103.971	17.833	146.950	0.501
735.500	438.265	80.014	19.992	103.979	17.816	148.112	0.493
736.000	438.523	80.014	19.993	103.992	17.804	148.938	0.521
736.500	438.757	80.009	19.995	104.005	17.792	149.737	0.516
737.000	438.982	80.009	19.994	104.010	17.779	150.645	0.475
737.500	439.284	80.021	19.991	104.011	17.765	151.615	0.493
738.000	439.496	80.011	19.993	104.021	17.753	152.393	0.521
738.500	439.786	80.026	19.992	104.018	17.737	153.495	0.508
739.000	440.006	80.009	19.993	104.014	17.725	154.312	0.505
739.500	440.295	80.007	19.994	104.011	17.713	155.162	0.510
740.000	440.541	80.007	19.995	104.013	17.703	155.820	0.523
740.500	440.763	80.011	19.992	104.008	17.692	156.577	0.502
741.000	441.059	80.008	19.993	104.015	17.680	157.406	0.493
741.500	441.263	80.013	19.992	104.021	17.666	158.380	0.509
742.000	441.551	80.002	19.993	104.031	17.652	159.368	0.495
742.500	441.765	80.007	19.994	104.034	17.643	159.979	0.497
743.000	442.042	80.004	19.993	104.044	17.632	160.754	0.497
743.500	442.307	80.004	19.994	104.049	17.619	161.632	0.517
744.000	442.526	80.007	19.994	104.057	17.608	162.379	0.513
744.500	442.764	80.002	19.994	104.065	17.599	163.017	0.471
745.000	443.051	80.004	19.994	104.072	17.588	163.770	0.491
745.500	443.313	80.012	19.994	104.072	17.579	164.363	0.537
746.000	443.565	80.011	19.994	104.072	17.567	165.194	0.531
746.500	443.828	80.005	19.994	104.072	17.558	165.784	0.515
747.000	444.025	80.012	19.994	104.069	17.548	166.470	0.488
747.500	444.357	80.007	19.994	104.072	17.544	166.782	0.494
748.000	444.609	80.005	19.993	104.079	17.539	167.084	0.556
748.500	444.868	80.010	19.994	104.082	17.535	167.372	0.547
749.000	445.088	80.003	19.994	104.083	17.523	168.148	0.495
749.500	445.341	80.003	19.995	104.082	17.515	168.700	0.476
750.000	445.580	80.002	19.995	104.081	17.508	169.191	0.483
750.500	445.873	80.006	19.994	104.083	17.500	169.724	0.512
751.000	446.091	80.008	19.994	104.088	17.495	170.055	0.522
751.500	446.378	80.012	19.994	104.094	17.486	170.650	0.508
752.000	446.594	80.009	19.993	104.106	17.482	170.944	0.504
752.500	446.852	80.006	19.995	104.115	17.476	171.343	0.488
753.000	447.098	80.006	19.995	104.117	17.471	171.695	0.489
753.500	447.359	80.013	19.993	104.119	17.464	172.131	0.506
754.000	447.634	80.002	19.995	104.122	17.458	172.511	0.522
754.500	447.914	80.018	19.992	104.119	17.457	172.575	0.545
755.000	448.148	80.003	19.995	104.123	17.449	173.121	0.535
755.500	448.457	79.997	19.995	104.123	17.447	173.266	0.528
756.000	448.673	80.008	19.994	104.121	17.443	173.530	0.534
756.500	448.938	80.007	19.995	104.119	17.445	173.419	0.503
757.000	449.189	80.002	19.995	104.119	17.448	173.210	0.499
757.500	449.402	80.006	19.993	104.112	17.447	173.281	0.490
758.000	449.666	80.013	19.995	104.111	17.446	173.354	0.471
758.500	449.929	79.995	19.995	104.112	17.449	173.072	0.502
759.000	450.182	79.992	19.997	104.107	17.450	173.014	0.521
759.500	450.455	80.008	19.995	104.097	17.457	172.509	0.521
760.000	450.710	80.006	19.994	104.094	17.460	172.345	0.527
760.500	450.951	80.007	19.994	104.088	17.464	172.037	0.512
761.000	451.176	80.005	19.993	104.079	17.470	171.616	0.481
761.500	451.409	80.008	19.994	104.076	17.474	171.291	0.462
762.000	451.704	80.006	19.994	104.078	17.486	170.442	0.493
762.500	451.962	80.006	19.994	104.074	17.489	170.266	0.540
763.001	452.230	80.007	19.994	104.071	17.503	169.258	0.539
763.501	452.471	80.005	19.994	104.071	17.509	168.861	0.517
764.000	452.734	80.007	19.994	104.069	17.525	167.748	0.506
764.500	453.001	80.005	19.994	104.066	17.535	167.059	0.517
765.000	453.250	80.007	19.995	104.060	17.548	166.197	0.523
765.500	453.490	80.008	19.994	104.054	17.563	165.104	0.503
766.000	453.718	80.007	19.994	104.048	17.582	163.855	0.479
766.500	454.005	80.008	19.995	104.043	17.595	162.920	0.491
767.000	454.240	80.006	19.995	104.041	17.611	161.822	0.518
767.500	454.492	80.006	19.995	104.039	17.626	160.731	0.504
768.000	454.717	80.008	19.995	104.038	17.651	159.024	0.482
768.500	455.021	80.006	19.995	104.037	17.664	158.120	0.503
769.000	455.261	80.014	19.992	104.034	17.686	156.618	0.536
769.500	455.512	80.008	19.995	104.027	17.702	155.477	0.518
770.000	455.751	79.994	19.995	104.025	17.724	153.965	0.490
770.500	456.018	80.003	19.994	104.017	17.749	152.294	0.498
771.000	456.306	80.019	19.994	104.005	17.769	150.892	0.531
771.500	456.553	80.001	19.996	103.997	17.797	148.992	0.545
772.000	456.810	79.994	19.996	103.985	17.818	147.503	0.520
772.500	457.057	80.012	19.994	103.967	17.847	145.527	0.504
773.000	457.313	80.012	19.994	103.962	17.869	144.052	0.503
773.500	457.546	80.013	19.994	103.958	17.899	141.988	0.496
774.000	457.807	80.020	19.994	103.951	17.923	140.300	0.491
774.500	458.084	80.011	19.995	103.947	17.955	138.129	0.516
775.000	458.291	80.005	19.996	103.944	17.982	136.270	0.511
775.500	458.571	80.006	19.994	103.932	18.011	134.251	0.485
776.000	458.791	80.020	19.994	103.925	18.040	132.268	0.494
776.500	459.045	80.006	19.995	103.915	18.068	130.394	0.487
777.000	459.314	80.009	19.994	103.904	18.097	128.359	0.498
777.500	459.533	79.991	19.997	103.895	18.129	126.182	0.505
778.000	459.802	80.010	19.996	103.882	18.155	124.395	0.488
778.500	460.079	80.000	19.996	103.867	18.185	122.361	0.518
779.000	460.329	80.005	19.995	103.853	18.218	120.072	0.537
779.500	460.603	80.004	19.995	103.843	18.245	118.215	0.525
780.000	460.858	80.016	19.996	103.828	18.282	115.731	0.526
780.500	461.123	79.999	19.996	103.821	18.309	113.848	0.525
781.000	461.381	80.002	19.997	103.811	18.342	111.626	0.522
781.500	461.615	80.007	19.995	103.803	18.373	109.494	0.508
782.000	461.892	80.019	19.993	103.790	18.404	107.398	0.501
782.500	462.107	80.005	19.995	103.785	18.438	105.073	0.501
783.000	462.402	80.006	19.996	103.775	18.470	102.882	0.501
783.500	462.619	79.994	19.997	103.768	18.506	100.419	0.511
784.000	462.881	80.004	19.995	103.756	18.537	98.300	0.495
784.500	463.189	80.015	19.993	103.746	18.572	95.937	0.524
785.000	463.431	80.007	19.995	103.734	18.607	93.549	0.560
785.500	463.674	80.005	19.995	103.719	18.641	91.202	0.517
786.000	463.951	80.009	19.994	103.704	18.676	88.798	0.503
786.500	464.186	80.015	19.996	103.697	18.709	86.589	0.517
787.000	464.444	80.009	19.994	103.686	18.747	83.955	0.503
787.501	464.710	80.004	19.996	103.673	18.775	82.043	0.508
788.001	464.941	80.006	19.995	103.663	18.814	79.396	0.510
788.501	465.245	80.009	19.994	103.649	18.844	77.344	0.516
789.000	465.483	80.010	19.994	103.631	18.883	74.709	0.539
789.500	465.729	80.013	19.995	103.620	18.915	72.532	0.513
790.000	465.994	80.011	19.994	103.610	18.949	70.222	0.498
790.500	466.270	80.008	19.994	103.603	18.981	68.013	0.526
791.001	466.530	80.009	19.994	103.599	19.012	65.900	0.539
791.501	466.762	80.011	19.994	103.593	19.041	63.935	0.514
792.000	467.010	80.003	19.995	103.586	19.074	61.683	0.486
792.500	467.260	80.008	19.993	103.579	19.101	59.842	0.489
793.000	467.518	80.010	19.994	103.571	19.133	57.659	0.503
793.500	467.794	80.005	19.994	103.567	19.153	56.352	0.521
794.000	468.046	80.015	19.993	103.564	19.184	54.236	0.531
794.500	468.275	80.008	19.994	103.559	19.210	52.453	0.504
795.000	468.556	80.005	19.994	103.551	19.234	50.803	0.495
795.500	468.839	80.008	19.994	103.543	19.263	48.874	0.537
796.000	469.096	80.009	19.994	103.535	19.282	47.552	0.552
796.500	469.306	80.015	19.993	103.528	19.304	46.037	0.504
797.000	469.563	80.011	19.993	103.519	19.329	44.342	0.467
797.500	469.855	80.002	19.994	103.512	19.351	42.863	0.508
798.000	470.119	80.009	19.993	103.503	19.373	41.340	0.552
798.500	470.368	80.009	19.993	103.493	19.393	40.026	0.534
799.000	470.634	80.022	19.992	103.484	19.411	38.798	0.514
799.500	470.866	80.017	19.993	103.480	19.428	37.658	0.507
800.000	471.122	80.011	19.994	103.473	19.449	36.181	0.493
800.500	471.372	80.012	19.994	103.466	19.468	34.902	0.497
801.000	471.586	80.014	19.996	103.458	19.485	33.754	0.485
801.500	471.862	80.002	19.996	103.445	19.500	32.767	0.477
802.000	472.118	80.004	19.995	103.430	19.517	31.569	0.511
802.500	472.419	80.008	19.993	103.419	19.532	30.556	0.545
803.000	472.672	80.018	19.992	103.412	19.552	29.179	0.555
803.500	472.924	80.002	19.994	103.410	19.563	28.471	0.529
804.000	473.171	80.007	19.995	103.405	19.577	27.503	0.502
804.500	473.412	80.007	19.995	103.403	19.592	26.472	0.494
805.000	473.697	80.007	19.995	103.396	19.605	25.599	0.507
805.500	473.951	80.012	19.994	103.389	19.615	24.928	0.533
806.000	474.228	80.006	19.995	103.380	19.632	23.769	0.535
806.500	474.456	80.003	19.996	103.374	19.642	23.099	0.518
807.000	474.728	80.019	19.993	103.362	19.656	22.116	0.503
807.500	474.979	80.003	19.995	103.361	19.664	21.612	0.511
808.000	475.246	80.008	19.995	103.356	19.677	20.687	0.520
808.500	475.499	80.001	19.996	103.352	19.690	19.869	0.519
809.000	475.764	80.011	19.993	103.345	19.698	19.287	0.519
809.500	475.992	80.010	19.993	103.346	19.710	18.468	0.505
810.000	476.286	80.011	19.993	103.340	19.721	17.708	0.507
810.500	476.534	80.006	19.995	103.336	19.730	17.144	0.532
811.000	476.790	80.009	19.993	103.333	19.737	16.643	0.523
811.500	477.047	80.015	19.993	103.334	19.746	16.056	0.508
812.000	477.286	80.005	19.996	103.333	19.754	15.499	0.505
812.500	477.567	80.013	19.994	103.325	19.764	14.801	0.508
813.000	477.780	79.997	19.996	103.320	19.770	14.393	0.507
813.500	478.061	80.014	19.994	103.312	19.779	13.772	0.494
814.000	478.300	80.010	19.994	103.305	19.786	13.300	0.507
814.500	478.564	80.010	19.994	103.300	19.799	12.421	0.512
815.000	478.848	80.009	19.994	103.301	19.802	12.209	0.525
815.500	479.105	80.008	19.995	103.300	19.810	11.724	0.544
816.000	479.371	80.007	19.994	103.301	19.817	11.245	0.532
816.500	479.645	80.009	19.995	103.298	19.823	10.844	0.531
817.000	479.852	80.013	19.993	103.296	19.830	10.309	0.510
817.500	480.119	80.011	19.994	103.296	19.836	9.920	0.478
818.000	480.354	80.015	19.993	103.292	19.842	9.539	0.488
818.500	480.660	80.010	19.994	103.289	19.849	9.053	0.521
819.000	480.853	80.010	19.993	103.291	19.852	8.851	0.520
819.500	481.154	80.011	19.994	103.290	19.865	7.980	0.496
820.000	481.397	80.007	19.994	103.284	19.866	7.926	0.519
820.500	481.661	80.009	19.993	103.279	19.871	7.564	0.526
821.000	481.881	80.002	19.995	103.275	19.877	7.127	0.495
821.500	482.125	79.996	19.996	103.264	19.880	6.972	0.474
822.000	482.427	80.013	19.993	103.253	19.886	6.531	0.505
822.500	482.644	80.006	19.994	103.251	19.888	6.389	0.532
823.000	482.908	80.006	19.994	103.249	19.893	6.058	0.500
823.500	483.165	80.007	19.994	103.246	19.899	5.670	0.501
824.000	483.445	80.007	19.993	103.248	19.904	5.287	0.529
824.500	483.710	80.008	19.994	103.252	19.908	5.011	0.541
825.000	483.912	80.008	19.993	103.250	19.912	4.799	0.506
825.500	484.192	80.006	19.995	103.251	19.920	4.209	0.475
826.000	484.425	80.006	19.993	103.252	19.925	3.922	0.498
826.500	484.715	80.010	19.993	103.251	19.925	3.924	0.518
827.000	484.954	80.007	19.996	103.252	19.934	3.271	0.526
827.500	485.193	80.005	19.995	103.252	19.933	3.349	0.504
828.000	485.480	80.009	19.996	103.250	19.937	3.099	0.502
828.500	485.712	80.007	19.995	103.250	19.944	2.613	0.522
829.000	485.977	80.005	19.995	103.251	19.948	2.358	0.508
829.500	486.218	80.007	19.996	103.249	19.949	2.297	0.501
830.000	486.464	80.006	19.994	103.249	19.953	1.982	0.496
830.500	486.735	80.008	19.995	103.248	19.955	1.825	0.502
831.000	486.985	80.007	19.994	103.240	19.961	1.476	0.519
831.500	487.255	80.008	19.994	103.233	19.964	1.278	0.521
832.000	487.484	80.007	19.995	103.227	19.965	1.176	0.510
832.500	487.743	80.010	19.993	103.219	19.968	0.948	0.494
833.000	487.973	80.007	19.995	103.217	19.971	0.762	0.488
833.501	488.261	80.008	19.994	103.218	19.974	0.564	0.503
834.001	488.517	80.007	19.994	103.218	19.976	0.403	0.531
834.500	488.770	80.007	19.995	103.218	19.980	0.187	0.527
835.000	489.026	80.007	19.994	103.220	19.983	-0.048	0.509
835.500	489.284	80.009	19.994	103.219	19.984	-0.092	0.511
836.000	489.517	80.008	19.994	103.218	19.989	-0.446	0.503
836.500	489.777	80.007	19.994	103.218	19.991	-0.590	0.492
837.000	490.012	80.007	19.995	103.217	19.995	-0.887	0.494
837.500	490.305	80.005	19.995	103.214	19.994	-0.789	0.512
838.000	490.567	80.006	19.995	103.212	19.992	-0.627	0.541
838.500	490.762	80.010	19.994	103.212	20.000	-1.220	0.506
839.000	491.023	80.008	19.995	103.213	20.002	-1.311	0.457
839.500	491.319	80.006	19.996	103.213	20.002	-1.348	0.507
840.000	491.571	80.008	19.995	103.213	20.008	-1.752	0.553
840.500	491.804	80.008	19.995	103.213	20.010	-1.891	0.516
841.000	492.077	80.009	19.994	103.211	20.011	-1.933	0.495
841.500	492.319	80.007	19.995	103.210	20.016	-2.246	0.511
842.000	492.535	80.007	19.995	103.207	20.016	-2.301	0.486
842.500	492.803	80.007	19.994	103.206	20.015	-2.198	0.471
843.000	493.076	80.008	19.995	103.202	20.018	-2.445	0.513
843.500	493.311	80.006	19.994	103.197	20.018	-2.405	0.525
844.000	493.598	80.007	19.995	103.192	20.020	-2.545	0.515
844.500	493.852	80.009	19.995	103.191	20.024	-2.848	0.531
845.000	494.081	80.008	19.995	103.190	20.027	-2.991	0.512
845.500	494.364	80.007	19.995	103.189	20.028	-3.118	0.497
846.000	494.564	80.007	19.996	103.188	20.030	-3.259	0.497
846.500	494.878	80.007	19.996	103.187	20.033	-3.449	0.498
847.000	495.121	80.009	19.995	103.184	20.032	-3.377	0.535
847.500	495.393	80.008	19.994	103.179	20.036	-3.606	0.536
848.000	495.616	80.005	19.995	103.178	20.035	-3.579	0.505
848.500	495.811	80.010	19.995	103.177	20.035	-3.584	0.457
849.000	496.119	80.001	19.996	103.178	20.037	-3.667	0.461
849.500	496.380	80.008	19.995	103.176	20.037	-3.706	0.536
850.000	496.658	80.006	19.995	103.176	20.041	-3.980	0.554
850.500	496.891	80.008	19.995	103.174	20.041	-3.968	0.525
851.000	497.112	80.006	19.995	103.176	20.041	-3.950	0.482
851.500	497.390	80.012	19.994	103.174	20.042	-4.053	0.477
852.000	497.641	80.002	19.994	103.175	20.044	-4.194	0.514
852.500	497.905	80.007	19.995	103.174	20.044	-4.148	0.522
853.000	498.116	80.005	19.995	103.174	20.045	-4.257	0.495
853.500	498.405	80.008	19.995	103.173	20.050	-4.604	0.488
854.000	498.658	80.003	19.995	103.174	20.049	-4.528	0.522
854.500	498.925	80.009	19.996	103.172	20.050	-4.562	0.531
855.000	499.195	80.008	19.994	103.173	20.053	-4.763	0.528
855.500	499.417	80.005	19.995	103.173	20.053	-4.781	0.514
856.000	499.676	80.009	19.994	103.173	20.053	-4.761	0.486
856.500	499.899	80.005	19.996	103.174	20.062	-5.380	0.482
857.000	500.191	80.005	19.994	103.176	20.057	-5.086	0.499
857.500	500.424	80.013	19.993	103.177	20.055	-4.898	0.520
858.000	500.694	80.006	19.996	103.178	20.059	-5.186	0.514
858.500	500.958	80.006	19.994	103.177	20.059	-5.214	0.519
859.000	501.214	80.008	19.995	103.176	20.057	-5.070	0.527
859.500	501.485	80.006	19.994	103.171	20.057	-5.083	0.523
860.000	501.723	80.006	19.995	103.170	20.061	-5.295	0.518
860.500	502.001	80.013	19.994	103.168	20.063	-5.479	0.513
861.000	502.236	80.012	19.995	103.172	20.062	-5.385	0.515
861.500	502.482	80.003	19.997	103.173	20.065	-5.568	0.497
862.000	502.751	80.000	19.996	103.173	20.064	-5.553	0.498
862.500	502.991	80.002	19.996	103.171	20.066	-5.633	0.512
863.000	503.251	80.009	19.994	103.171	20.066	-5.655	0.505
863.500	503.516	80.005	19.995	103.169	20.067	-5.727	0.513
864.000	503.737	80.001	19.995	103.167	20.065	-5.603	0.505
864.500	504.058	80.006	19.995	103.168	20.067	-5.745	0.514
865.000	504.250	80.006	19.996	103.168	20.067	-5.717	0.527
865.500	504.528	80.004	19.995	103.166	20.067	-5.738	0.491
866.000	504.766	80.010	19.995	103.161	20.066	-5.675	0.493
866.500	505.061	80.013	19.994	103.157	20.067	-5.749	0.524
867.000	505.315	80.008	19.994	103.155	20.067	-5.754	0.541
867.500	505.569	80.008	19.995	103.156	20.069	-5.848	0.529
868.000	505.827	80.014	19.994	103.154	20.068	-5.817	0.510
868.500	506.119	80.017	19.993	103.158	20.068	-5.778	0.531
869.000	506.358	80.009	19.995	103.165	20.069	-5.846	0.541
869.501	506.618	80.004	19.996	103.166	20.070	-5.955	0.515
870.001	506.826	80.006	19.995	103.163	20.071	-6.015	0.483
870.501	507.099	80.009	19.995	103.162	20.069	-5.883	0.474
871.000	507.389	80.010	19.995	103.158	20.071	-5.974	0.522
871.500	507.593	80.001	19.996	103.152	20.069	-5.841	0.528
872.000	507.871	80.004	19.995	103.152	20.071	-6.022	0.488
872.500	508.172	80.021	19.995	103.152	20.072	-6.082	0.531
873.000	508.395	80.011	19.994	103.152	20.071	-6.034	0.552
873.500	508.642	80.006	19.995	103.151	20.072	-6.063	0.497
874.000	508.905	80.004	19.995	103.149	20.069	-5.864	0.490
874.500	509.158	80.003	19.995	103.147	20.072	-6.054	0.513
875.000	509.413	79.999	19.996	103.143	20.070	-5.902	0.512
875.500	509.682	80.010	19.995	103.140	20.072	-6.041	0.516
876.000	509.974	80.007	19.996	103.143	20.072	-6.100	0.542
876.500	510.206	80.007	19.994	103.142	20.075	-6.288	0.542
877.000	510.469	80.005	19.995	103.142	20.072	-6.061	0.509
877.500	510.714	80.001	19.996	103.143	20.069	-5.901	0.502
878.000	510.971	80.006	19.995	103.145	20.073	-6.154	0.505
878.500	511.227	80.007	19.994	103.141	20.075	-6.243	0.507
879.000	511.468	80.008	19.994	103.140	20.073	-6.172	0.505
879.500	511.707	80.005	19.994	103.140	20.077	-6.381	0.489
880.000	511.948	80.008	19.995	103.139	20.074	-6.209	0.480
880.500	512.230	80.009	19.994	103.139	20.077	-6.403	0.501
881.000	512.514	80.005	19.994	103.139	20.076	-6.349	0.545
881.500	512.740	80.007	19.995	103.140	20.075	-6.279	0.538
882.000	512.981	80.007	19.993	103.141	20.070	-5.931	0.488
882.500	513.275	80.005	19.995	103.145	20.073	-6.168	0.501
883.000	513.527	80.007	19.993	103.148	20.072	-6.072	0.540
883.500	513.796	80.008	19.993	103.150	20.077	-6.407	0.534
884.000	514.052	80.008	19.993	103.151	20.075	-6.241	0.524
884.500	514.317	80.008	19.994	103.150	20.078	-6.489	0.523
885.000	514.587	80.010	19.994	103.149	20.077	-6.405	0.528
885.500	514.876	80.010	19.994	103.148	20.078	-6.455	0.547
886.000	515.151	80.010	19.992	103.145	20.081	-6.680	0.562
886.500	515.387	80.008	19.994	103.144	20.083	-6.802	0.537
887.000	515.631	80.006	19.996	103.144	20.079	-6.561	0.495
887.500	515.851	80.007	19.995	103.141	20.082	-6.744	0.472
888.000	516.097	80.007	19.994	103.142	20.077	-6.419	0.465
888.500	516.357	80.015	19.994	103.148	20.079	-6.526	0.486
889.000	516.631	80.011	19.995	103.149	20.084	-6.901	0.520
889.500	516.936	80.009	19.994	103.150	20.080	-6.628	0.556
890.000	517.193	80.013	19.994	103.152	20.083	-6.811	0.571
890.501	517.439	80.011	19.994	103.151	20.082	-6.781	0.532
891.000	517.684	80.009	19.994	103.145	20.084	-6.888	0.497
891.500	517.918	80.005	19.995	103.142	20.084	-6.866	0.485
892.000	518.188	80.011	19.993	103.140	20.083	-6.820	0.491
892.500	518.483	80.003	19.995	103.138	20.085	-6.940	0.534
893.000	518.727	80.015	19.993	103.135	20.084	-6.909	0.552
893.500	518.962	80.011	19.994	103.139	20.083	-6.783	0.510
894.000	519.199	80.010	19.995	103.145	20.091	-7.343	0.476
894.500	519.445	80.007	19.994	103.153	20.086	-7.009	0.477
895.000	519.731	80.010	19.993	103.155	20.085	-6.966	0.507
895.500	519.951	80.011	19.994	103.156	20.086	-7.001	0.519
896.000	520.214	80.009	19.993	103.150	20.085	-6.972	0.495
896.500	520.499	80.012	19.993	103.143	20.087	-7.114	0.515
897.000	520.744	80.011	19.993	103.139	20.085	-6.933	0.539
897.500	521.033	80.008	19.995	103.136	20.087	-7.062	0.532
898.000	521.292	80.012	19.994	103.136	20.088	-7.129	0.541
898.500	521.533	80.009	19.994	103.137	20.087	-7.112	0.524
899.000	521.779	80.009	19.994	103.137	20.084	-6.875	0.493
899.500	522.069	80.009	19.994	103.134	20.086	-7.008	0.511
900.000	522.303	80.011	19.994	103.134	20.091	-7.324	0.530
900.500	522.546	80.009	19.994	103.134	20.084	-6.859	0.500
901.000	522.812	80.007	19.995	103.134	20.088	-7.134	0.493
901.501	523.080	80.009	19.994	103.134	20.089	-7.239	0.522
902.000	523.335	80.008	19.994	103.134	20.086	-7.051	0.529
902.500	523.624	80.003	19.995	103.135	20.092	-7.402	0.533
903.000	523.895	80.006	19.995	103.135	20.087	-7.116	0.552
903.500	524.127	80.004	19.995	103.136	20.089	-7.242	0.531
904.000	524.388	80.005	19.995	103.137	20.090	-7.267	0.498
904.500	524.630	80.004	19.995	103.138	20.091	-7.336	0.498
905.000	524.884	80.006	19.994	103.137	20.092	-7.446	0.500
905.500	525.149	80.008	19.994	103.138	20.092	-7.400	0.507
906.000	525.407	80.008	19.995	103.138	20.092	-7.439	0.521
906.500	525.637	80.008	19.996	103.139	20.090	-7.264	0.506
907.000	525.953	80.008	19.994	103.141	20.090	-7.280	0.517
907.500	526.198	80.007	19.995	103.141	20.092	-7.423	0.553
908.000	526.431	80.012	19.994	103.141	20.091	-7.336	0.519
908.500	526.705	80.006	19.994	103.141	20.090	-7.317	0.493
909.000	526.885	80.007	19.993	103.139	20.091	-7.367	0.480
909.500	527.179	80.007	19.995	103.138	20.091	-7.360	0.464
910.000	527.418	80.008	19.994	103.137	20.095	-7.620	0.504
910.500	527.719	80.006	19.994	103.136	20.092	-7.432	0.536
911.000	527.939	80.007	19.994	103.135	20.087	-7.099	0.530
911.500	528.225	80.005	19.995	103.135	20.092	-7.454	0.514
912.000	528.457	80.008	19.994	103.133	20.092	-7.422	0.512
912.500	528.729	80.009	19.994	103.133	20.091	-7.352	0.510
913.000	528.989	80.008	19.995	103.135	20.093	-7.461	0.518
913.500	529.187	80.009	19.994	103.136	20.095	-7.615	0.495
914.000	529.485	80.006	19.994	103.137	20.093	-7.461	0.477
914.500	529.751	80.008	19.994	103.139	20.093	-7.513	0.530
915.000	529.998	80.003	19.994	103.140	20.089	-7.214	0.538
915.500	530.220	80.004	19.995	103.138	20.092	-7.454	0.491
916.000	530.499	80.010	19.994	103.138	20.092	-7.417	0.485
916.500	530.764	80.023	19.993	103.137	20.091	-7.373	0.522
917.000	530.996	80.005	19.995	103.140	20.090	-7.297	0.521
917.500	531.251	80.006	19.995	103.139	20.091	-7.350	0.492
918.000	531.518	80.006	19.995	103.140	20.095	-7.596	0.504
918.500	531.770	80.008	19.995	103.141	20.092	-7.422	0.520
919.000	532.001	80.007	19.994	103.140	20.091	-7.372	0.501
919.500	532.270	80.008	19.994	103.136	20.091	-7.330	0.492
920.000	532.523	80.008	19.994	103.137	20.090	-7.284	0.511
920.500	532.772	80.008	19.994	103.137	20.086	-7.049	0.512
921.000	533.047	80.005	19.994	103.137	20.093	-7.478	0.513
921.500	533.325	80.008	19.994	103.135	20.091	-7.328	0.538
922.000	533.553	80.006	19.994	103.136	20.092	-7.413	0.529
922.500	533.796	80.008	19.993	103.136	20.092	-7.411	0.488
923.000	534.122	80.005	19.994	103.137	20.094	-7.567	0.520
923.500	534.371	80.007	19.993	103.137	20.090	-7.266	0.573
924.000	534.622	80.007	19.994	103.139	20.094	-7.537	0.537
924.500	534.867	80.007	19.994	103.140	20.095	-7.617	0.498
925.000	535.116	80.007	19.995	103.140	20.094	-7.585	0.495
925.500	535.426	80.007	19.995	103.141	20.092	-7.424	0.526
926.000	535.645	80.007	19.994	103.141	20.093	-7.515	0.544
926.500	535.923	80.008	19.995	103.141	20.095	-7.639	0.513
927.000	536.146	80.007	19.994	103.141	20.093	-7.489	0.499
927.500	536.405	80.009	19.994	103.141	20.095	-7.661	0.491
928.000	536.684	80.002	19.995	103.140	20.095	-7.657	0.510
928.500	536.956	80.007	19.994	103.138	20.096	-7.703	0.545
929.001	537.193	80.002	19.996	103.139	20.092	-7.454	0.530
929.501	537.446	80.006	19.994	103.136	20.097	-7.746	0.499
930.000	537.673	80.006	19.995	103.136	20.095	-7.596	0.485
930.500	537.952	80.005	19.995	103.136	20.092	-7.441	0.494
931.000	538.168	80.005	19.994	103.137	20.093	-7.463	0.501
931.500	538.483	80.007	19.995	103.135	20.093	-7.511	0.513
932.000	538.751	80.006	19.995	103.137	20.094	-7.591	0.557
932.500	538.972	80.004	19.995	103.137	20.095	-7.639	0.536
933.000	539.227	80.004	19.994	103.136	20.095	-7.630	0.483
933.500	539.530	80.005	19.994	103.138	20.096	-7.729	0.517
934.000	539.749	80.007	19.994	103.140	20.093	-7.504	0.540
934.500	540.011	80.004	19.995	103.141	20.094	-7.554	0.501
935.000	540.304	80.004	19.995	103.140	20.095	-7.620	0.518
935.500	540.501	80.005	19.995	103.140	20.095	-7.622	0.523
936.000	540.793	80.005	19.995	103.138	20.094	-7.574	0.489
936.500	541.005	80.005	19.995	103.137	20.096	-7.722	0.497
937.000	541.293	80.005	19.995	103.136	20.097	-7.776	0.502
937.500	541.539	80.007	19.994	103.137	20.095	-7.611	0.517
938.000	541.827	80.006	19.995	103.138	20.098	-7.811	0.533
938.500	542.103	80.007	19.994	103.138	20.098	-7.840	0.549
939.000	542.320	80.005	19.996	103.139	20.096	-7.711	0.529
939.500	542.593	80.009	19.994	103.139	20.098	-7.860	0.492
940.000	542.855	80.005	19.995	103.139	20.098	-7.827	0.512
940.500	543.123	80.006	19.994	103.139	20.101	-8.045	0.532
941.000	543.347	80.007	19.995	103.139	20.097	-7.736	0.511
941.500	543.595	80.008	19.995	103.139	20.098	-7.849	0.482
942.000	543.906	80.008	19.994	103.139	20.098	-7.832	0.516
942.500	544.114	80.002	19.996	103.139	20.097	-7.768	0.540
943.000	544.385	80.007	19.994	103.139	20.099	-7.921	0.499
943.500	544.652	80.005	19.995	103.139	20.099	-7.916	0.508
944.000	544.899	80.008	19.994	103.139	20.096	-7.723	0.526
944.500	545.159	80.007	19.995	103.140	20.099	-7.876	0.511
945.000	545.393	80.006	19.995	103.138	20.099	-7.921	0.501
945.500	545.688	80.010	19.995	103.138	20.099	-7.889	0.511
946.000	545.906	80.005	19.993	103.137	20.099	-7.891	0.521
946.500	546.212	80.008	19.995	103.137	20.098	-7.836	0.519
947.000	546.429	80.006	19.995	103.139	20.099	-7.886	0.523
947.500	546.759	80.009	19.995	103.141	20.098	-7.832	0.535
948.000	546.959	80.007	19.995	103.143	20.099	-7.876	0.538
948.500	547.231	80.006	19.996	103.142	20.100	-7.982	0.501
949.000	547.492	80.007	19.995	103.142	20.098	-7.853	0.502
949.500	547.738	80.008	19.995	103.138	20.100	-7.978	0.520
950.000	548.057	80.009	19.995	103.137	20.099	-7.891	0.536
950.500	548.271	80.008	19.995	103.136	20.099	-7.899	0.550
951.000	548.604	80.011	19.995	103.136	20.101	-8.017	0.540
951.500	548.834	80.008	19.994	103.135	20.099	-7.930	0.555
952.000	549.122	80.007	19.995	103.135	20.102	-8.122	0.541
952.500	549.330	80.008	19.994	103.135	20.099	-7.923	0.507
953.000	549.626	80.007	19.995	103.135	20.100	-7.985	0.500
953.500	549.865	80.007	19.995	103.136	20.101	-8.008	0.520
954.000	550.139	80.009	19.994	103.135	20.099	-7.904	0.524
954.500	550.401	80.007	19.995	103.134	20.097	-7.784	0.524
955.000	550.700	80.006	19.995	103.129	20.098	-7.805	0.549
955.500	550.909	80.008	19.997	103.128	20.096	-7.683	0.535
956.000	551.183	80.009	19.995	103.127	20.097	-7.794	0.495
956.500	551.431	80.007	19.996	103.127	20.103	-8.156	0.502
957.000	551.741	80.006	19.995	103.128	20.097	-7.773	0.540
957.500	551.954	80.008	19.995	103.132	20.100	-7.949	0.541
958.000	552.207	80.007	19.995	103.133	20.098	-7.855	0.494
958.500	552.517	80.007	19.996	103.131	20.097	-7.734	0.514
959.000	552.768	80.006	19.996	103.131	20.097	-7.751	0.562
959.500	552.997	80.006	19.995	103.131	20.098	-7.812	0.521
960.000	553.295	80.006	19.995	103.131	20.099	-7.895	0.504
960.500	553.512	80.006	19.996	103.131	20.101	-8.019	0.521
961.000	553.831	80.008	19.995	103.133	20.102	-8.135	0.525
961.500	554.081	80.007	19.994	103.132	20.100	-7.995	0.553
962.000	554.342	80.007	19.995	103.132	20.102	-8.128	0.540
962.500	554.605	80.007	19.995	103.131	20.099	-7.926	0.517
963.000	554.867	80.006	19.995	103.131	20.099	-7.880	0.524
963.500	555.082	80.008	19.996	103.131	20.104	-8.228	0.501
964.000	555.430	80.006	19.995	103.131	20.099	-7.878	0.520
964.500	555.671	80.007	19.995	103.131	20.101	-8.050	0.576
965.000	555.912	80.007	19.995	103.131	20.101	-8.017	0.535
965.500	556.174	80.007	19.996	103.132	20.101	-8.060	0.492
966.000	556.431	80.008	19.995	103.132	20.102	-8.069	0.511
966.500	556.718	80.008	19.996	103.133	20.103	-8.180	0.532
967.000	556.944	80.007	19.996	103.134	20.103	-8.196	0.528
967.500	557.225	80.009	19.996	103.135	20.103	-8.152	0.510
968.000	557.472	80.009	19.994	103.135	20.106	-8.348	0.517
968.500	557.761	80.009	19.995	103.134	20.103	-8.172	0.532
969.000	558.004	80.009	19.995	103.133	20.106	-8.376	0.534
969.500	558.273	80.008	19.995	103.134	20.104	-8.206	0.522
970.000	558.532	80.008	19.995	103.134	20.102	-8.085	0.520
970.500	558.804	80.008	19.995	103.133	20.106	-8.355	0.530
971.000	559.114	80.010	19.994	103.133	20.106	-8.366	0.557
971.500	559.280	80.010	19.994	103.131	20.104	-8.267	0.529
972.000	559.574	80.010	19.994	103.130	20.104	-8.224	0.467
972.500	559.833	80.009	19.994	103.130	20.107	-8.448	0.506
973.000	560.064	80.013	19.994	103.129	20.107	-8.468	0.521
973.500	560.389	80.009	19.994	103.130	20.103	-8.152	0.523
974.000	560.605	80.009	19.994	103.132	20.105	-8.331	0.548
974.500	560.868	80.008	19.996	103.132	20.107	-8.442	0.510
975.000	561.133	80.009	19.994	103.133	20.104	-8.243	0.504
975.500	561.358	80.008	19.995	103.133	20.106	-8.391	0.509
976.000	561.676	80.010	19.995	103.133	20.107	-8.457	0.516
976.500	561.916	80.010	19.994	103.133	20.105	-8.274	0.551
977.000	562.149	80.009	19.994	103.133	20.101	-8.058	0.515
977.500	562.423	80.009	19.995	103.134	20.103	-8.189	0.490
978.000	562.679	80.011	19.993	103.134	20.102	-8.078	0.519
978.500	562.925	80.008	19.994	103.136	20.104	-8.223	0.516
979.000	563.169	80.010	19.994	103.136	20.106	-8.343	0.496
979.501	563.458	80.008	19.993	103.134	20.102	-8.069	0.512
980.000	563.723	80.004	19.994	103.133	20.105	-8.307	0.544
980.500	563.947	80.005	19.994	103.133	20.101	-8.025	0.521
981.000	564.240	80.008	19.994	103.131	20.101	-8.067	0.503
981.500	564.485	80.011	19.994	103.131	20.105	-8.311	0.527
982.000	564.713	80.008	19.995	103.134	20.100	-7.944	0.506
982.500	565.006	80.006	19.995	103.135	20.104	-8.208	0.497
983.000	565.234	80.007	19.993	103.134	20.106	-8.394	0.521
983.500	565.534	80.007	19.994	103.135	20.103	-8.154	0.525
984.000	565.762	80.005	19.995	103.136	20.104	-8.222	0.528
984.500	566.036	80.008	19.994	103.134	20.102	-8.108	0.515
985.000	566.262	80.003	19.995	103.136	20.101	-8.030	0.501
985.500	566.515	80.007	19.994	103.137	20.103	-8.150	0.489
986.000	566.771	80.006	19.996	103.138	20.104	-8.248	0.494
986.500	567.085	80.007	19.994	103.137	20.105	-8.317	0.539
987.000	567.288	80.005	19.994	103.138	20.102	-8.119	0.543
987.500	567.572	80.003	19.995	103.137	20.105	-8.293	0.502
988.000	567.811	80.005	19.994	103.137	20.106	-8.344	0.505
988.500	568.085	80.006	19.995	103.137	20.102	-8.074	0.518
989.000	568.292	80.006	19.994	103.138	20.103	-8.142	0.497
989.500	568.600	80.008	19.995	103.137	20.107	-8.416	0.498
990.000	568.830	80.007	19.995	103.136	20.102	-8.094	0.526
990.500	569.052	80.006	19.995	103.136	20.106	-8.377	0.495
991.000	569.312	80.005	19.994	103.135	20.103	-8.159	0.467
991.500	569.603	80.006	19.994	103.135	20.102	-8.128	0.516
992.000	569.864	80.004	19.995	103.136	20.108	-8.486	0.552
992.500	570.119	80.007	19.995	103.136	20.107	-8.411	0.535
993.000	570.343	80.007	19.994	103.137	20.104	-8.258	0.498
993.500	570.626	80.005	19.993	103.138	20.102	-8.126	0.493
994.000	570.866	80.006	19.994	103.138	20.102	-8.125	0.515
994.500	571.104	80.003	19.995	103.136	20.102	-8.129	0.501
995.000	571.361	80.005	19.994	103.135	20.103	-8.145	0.486
995.500	571.618	80.005	19.995	103.133	20.107	-8.432	0.504
996.000	571.883	80.006	19.995	103.132	20.106	-8.343	0.518
996.500	572.142	80.008	19.994	103.132	20.107	-8.443	0.523
997.000	572.414	80.007	19.994	103.134	20.105	-8.280	0.527
997.500	572.651	80.005	19.995	103.135	20.105	-8.276	0.520
998.000	572.883	80.005	19.995	103.136	20.106	-8.356	0.490
998.500	573.130	80.007	19.994	103.136	20.104	-8.249	0.474
999.000	573.434	80.004	19.994	103.136	20.105	-8.275	0.515
999.500	573.678	80.005	19.993	103.132	20.103	-8.169	0.549
1000.000	573.954	80.007	19.993	103.129	20.104	-8.208	0.534
1000.500	574.184	80.004	19.994	103.130	20.107	-8.448	0.513
1001.000	574.468	80.007	19.994	103.130	20.107	-8.452	0.510
1001.500	574.730	80.007	19.994	103.127	20.103	-8.139	0.530
1002.000	574.981	80.007	19.995	103.131	20.106	-8.387	0.530
1002.500	575.228	80.006	19.994	103.132	20.102	-8.071	0.505
1003.000	575.520	80.007	19.994	103.132	20.102	-8.084	0.518
1003.500	575.741	80.009	19.993	103.134	20.102	-8.089	0.526
1004.000	575.999	80.007	19.995	103.137	20.105	-8.295	0.496
1004.500	576.243	80.006	19.995	103.138	20.104	-8.215	0.491
1005.000	576.488	80.008	19.994	103.140	20.108	-8.522	0.496
1005.500	576.799	80.008	19.993	103.141	20.106	-8.381	0.523
1006.000	576.999	80.004	19.993	103.140	20.108	-8.499	0.534
1006.500	577.281	80.003	19.996	103.140	20.108	-8.510	0.497
1007.000	577.520	80.008	19.995	103.139	20.106	-8.372	0.502
1007.500	577.737	80.007	19.996	103.139	20.104	-8.261	0.488
1008.000	578.008	80.006	19.994	103.139	20.104	-8.259	0.472
1008.500	578.287	80.006	19.994	103.140	20.105	-8.283	0.519
1009.000	578.549	80.008	19.995	103.139	20.105	-8.280	0.545
1009.500	578.773	80.007	19.995	103.141	20.109	-8.562	0.513
1010.000	579.028	80.008	19.994	103.141	20.106	-8.379	0.483
1010.500	579.300	80.007	19.995	103.140	20.106	-8.370	0.503
1011.000	579.508	80.007	19.993	103.139	20.105	-8.316	0.503
1011.500	579.795	80.008	19.994	103.140	20.105	-8.279	0.487
1012.000	580.028	80.006	19.993	103.140	20.107	-8.438	0.507
1012.500	580.316	80.008	19.995	103.139	20.104	-8.231	0.520
1013.000	580.565	80.005	19.995	103.140	20.103	-8.194	0.529
1013.500	580.792	80.006	19.994	103.140	20.106	-8.350	0.506
1014.000	581.034	80.006	19.994	103.139	20.105	-8.313	0.472
1014.500	581.302	80.006	19.995	103.137	20.104	-8.264	0.490
1015.000	581.562	80.006	19.996	103.138	20.105	-8.332	0.519
1015.500	581.805	80.007	19.994	103.136	20.105	-8.284	0.515
1016.000	582.057	80.006	19.994	103.134	20.104	-8.208	0.499
1016.500	582.289	80.007	19.994	103.133	20.106	-8.389	0.490
1017.000	582.551	80.005	19.994	103.134	20.106	-8.371	0.489
1017.500	582.831	80.007	19.994	103.133	20.106	-8.362	0.518
1018.000	583.049	80.007	19.994	103.134	20.103	-8.190	0.520
1018.500	583.293	80.007	19.995	103.136	20.101	-8.061	0.481
1019.000	583.581	80.005	19.996	103.137	20.106	-8.358	0.497
1019.500	583.858	80.006	19.995	103.136	20.104	-8.253	0.548
1020.000	584.079	80.007	19.994	103.134	20.106	-8.374	0.532
1020.500	584.334	80.007	19.995	103.132	20.102	-8.108	0.487
1021.000	584.571	80.006	19.995	103.131	20.104	-8.262	0.484
1021.500	584.874	80.008	19.995	103.130	20.102	-8.131	0.516
1022.000	585.046	80.007	19.995	103.128	20.104	-8.223	0.507
1022.500	585.341	80.007	19.996	103.130	20.107	-8.428	0.471
1023.000	585.605	80.008	19.995	103.132	20.104	-8.250	0.514
1023.500	585.870	80.008	19.995	103.133	20.103	-8.144	0.544
1024.001	586.124	80.009	19.996	103.132	20.103	-8.187	0.524
1024.501	586.329	80.008	19.996	103.134	20.102	-8.072	0.489
1025.000	586.579	80.007	19.995	103.133	20.105	-8.316	0.457
1025.500	586.868	80.006	19.995	103.129	20.103	-8.192	0.497
1026.000	587.100	80.008	19.995	103.122	20.101	-8.001	0.530
1026.500	587.373	80.008	19.996	103.120	20.106	-8.345	0.513
1027.000	587.624	80.007	19.995	103.119	20.107	-8.443	0.515
1027.500	587.835	80.007	19.995	103.119	20.105	-8.306	0.494
1028.000	588.110	80.008	19.995	103.121	20.102	-8.125	0.474
1028.500	588.359	80.008	19.994	103.127	20.105	-8.280	0.505
1029.000	588.579	80.007	19.995	103.130	20.102	-8.125	0.496
1029.500	588.835	80.008	19.994	103.124	20.103	-8.188	0.472
1030.000	589.099	80.008	19.994	103.124	20.101	-8.027	0.498
1030.500	589.368	80.007	19.994	103.125	20.102	-8.106	0.527
1031.000	589.626	80.007	19.994	103.120	20.105	-8.315	0.531
1031.500	589.860	80.007	19.994	103.114	20.103	-8.180	0.510
1032.000	590.104	80.009	19.994	103.119	20.102	-8.084	0.485
1032.500	590.371	80.011	19.994	103.120	20.102	-8.132	0.495
1033.000	590.601	80.007	19.994	103.120	20.103	-8.201	0.504
1033.500	590.868	80.008	19.994	103.125	20.105	-8.283	0.497
1034.000	591.134	80.007	19.995	103.132	20.099	-7.870	0.515
1034.500	591.374	80.007	19.995	103.131	20.100	-7.956	0.520
1035.000	591.615	80.007	19.995	103.127	20.102	-8.096	0.494
1035.500	591.858	80.007	19.995	103.123	20.104	-8.225	0.483
1036.000	592.165	80.008	19.994	103.123	20.102	-8.100	0.517
1036.500	592.439	80.007	19.994	103.123	20.103	-8.168	0.565
1037.000	592.660	80.008	19.994	103.121	20.101	-8.061	0.538
1037.500	592.916	80.009	19.994	103.124	20.104	-8.257	0.486
1038.000	593.173	80.008	19.994	103.124	20.106	-8.397	0.495
1038.500	593.410	80.008	19.995	103.122	20.102	-8.100	0.503
1039.000	593.674	80.009	19.995	103.116	20.103	-8.161	0.498
1039.500	593.923	80.007	19.995	103.113	20.105	-8.318	0.507
1040.000	594.155	80.008	19.994	103.115	20.100	-7.963	0.497
1040.500	594.481	80.006	19.994	103.117	20.107	-8.456	0.519
1041.000	594.717	80.008	19.997	103.116	20.103	-8.186	0.560
1041.500	594.972	80.008	19.994	103.116	20.105	-8.320	0.527
1042.001	595.258	80.007	19.995	103.117	20.104	-8.254	0.516
1042.501	595.465	80.009	19.995	103.115	20.105	-8.304	0.517
1043.000	595.739	80.008	19.995	103.114	20.105	-8.306	0.487
1043.500	595.965	80.008	19.995	103.115	20.107	-8.440	0.490
1044.000	596.249	80.007	19.995	103.121	20.106	-8.342	0.505
1044.500	596.496	80.009	19.995	103.126	20.105	-8.329	0.521
1045.000	596.776	80.008	19.995	103.125	20.108	-8.512	0.529
1045.500	596.999	80.007	19.995	103.126	20.108	-8.497	0.515
1046.000	597.250	80.008	19.995	103.128	20.107	-8.416	0.488
1046.500	597.501	80.009	19.994	103.128	20.108	-8.511	0.488
1047.000	597.814	80.009	19.995	103.124	20.108	-8.490	0.533
1047.500	598.064	80.008	19.996	103.125	20.103	-8.160	0.564
1048.000	598.275	80.008	19.994	103.127	20.105	-8.317	0.512
1048.500	598.601	80.009	19.995	103.129	20.108	-8.537	0.499
1049.000	598.790	80.008	19.995	103.128	20.105	-8.312	0.526
1049.500	599.064	80.009	19.995	103.132	20.103	-8.181	0.489
1050.001	599.344	80.009	19.995	103.133	20.100	-7.982	0.508
1050.501	599.571	80.009	19.995	103.129	20.106	-8.385	0.530
1051.000	599.835	80.008	19.995	103.124	20.108	-8.499	0.499
1051.500	600.098	80.007	19.995	103.121	20.108	-8.475	0.509
1052.001	600.373	80.008	19.995	103.116	20.107	-8.411	0.532
1052.501	600.663	80.007	19.995	103.110	20.108	-8.527	0.552
1053.000	600.909	80.008	19.995	103.111	20.109	-8.567	0.550
1053.500	601.125	80.008	19.995	103.117	20.104	-8.201	0.498
1054.000	601.415	80.008	19.995	103.120	20.106	-8.338	0.484
1054.500	601.629	80.008	19.996	103.126	20.104	-8.224	0.506
1055.000	601.922	80.008	19.995	103.132	20.104	-8.229	0.506
1055.500	602.157	80.007	19.994	103.133	20.106	-8.349	0.517
1056.000	602.408	80.007	19.996	103.129	20.103	-8.197	0.507
1056.500	602.645	80.008	19.995	103.129	20.104	-8.238	0.487
1057.000	602.929	80.007	19.994	103.125	20.108	-8.509	0.504
1057.500	603.207	80.007	19.995	103.118	20.106	-8.387	0.541
1058.000	603.480	80.006	19.995	103.115	20.110	-8.628	0.556
1058.500	603.694	80.007	19.995	103.117	20.108	-8.507	0.519
1059.001	603.941	80.008	19.994	103.115	20.108	-8.480	0.474
1059.501	604.195	80.007	19.996	103.117	20.108	-8.498	0.481
1060.001	604.463	80.007	19.995	103.124	20.110	-8.626	0.511
1060.501	604.704	80.005	19.996	103.128	20.111	-8.719	0.515
1061.000	605.006	80.006	19.994	103.130	20.107	-8.469	0.525
1061.500	605.280	80.006	19.995	103.134	20.106	-8.338	0.559
1062.000	605.500	80.006	19.995	103.134	20.110	-8.630	0.535
1062.500	605.752	80.007	19.994	103.133	20.108	-8.538	0.483
1063.000	605.990	80.007	19.995	103.132	20.107	-8.408	0.481
1063.500	606.240	80.006	19.994	103.129	20.107	-8.464	0.489
1064.000	606.514	80.006	19.993	103.121	20.105	-8.283	0.506
1064.500	606.743	80.007	19.994	103.105	20.105	-8.296	0.514
1065.000	607.035	80.008	19.994	103.078	20.107	-8.447	0.512
1065.500	607.252	80.005	19.995	103.062	20.107	-8.451	0.515
1066.001	607.500	80.006	19.993	103.059	20.105	-8.328	0.487
1066.501	607.781	80.008	19.994	103.059	20.107	-8.437	0.497
1067.000	608.054	80.005	19.995	103.075	20.107	-8.416	0.541
1067.500	608.282	80.006	19.995	103.118	20.111	-8.678	0.528
1068.000	608.553	80.006	19.994	103.156	20.108	-8.510	0.500
1068.500	608.801	80.006	19.995	103.165	20.110	-8.658	0.509
1069.000	609.049	80.005	19.995	103.168	20.110	-8.658	0.507
1069.500	609.301	80.005	19.994	103.163	20.109	-8.556	0.497
1070.000	609.606	80.007	19.994	103.141	20.110	-8.656	0.528
1070.500	609.811	80.006	19.994	103.113	20.109	-8.591	0.534
1071.000	610.081	80.006	19.995	103.104	20.109	-8.588	0.493
1071.500	610.321	80.006	19.994	103.103	20.112	-8.770	0.493
1072.000	610.588	80.008	19.995	103.106	20.109	-8.596	0.509
1072.500	610.874	80.007	19.993	103.107	20.108	-8.475	0.529
1073.000	611.126	80.005	19.994	103.107	20.110	-8.663	0.545
1073.500	611.377	80.007	19.994	103.108	20.108	-8.495	0.521
1074.000	611.649	80.007	19.995	103.105	20.110	-8.648	0.513
1074.500	611.880	80.006	19.994	103.103	20.110	-8.630	0.513
1075.000	612.153	80.006	19.994	103.102	20.107	-8.445	0.504
1075.500	612.380	80.007	19.994	103.105	20.109	-8.548	0.502
1076.000	612.674	80.008	19.995	103.108	20.108	-8.515	0.510
1076.500	612.925	80.006	19.994	103.111	20.107	-8.450	0.533
1077.000	613.162	80.007	19.995	103.111	20.107	-8.419	0.516
1077.500	613.408	80.006	19.995	103.113	20.111	-8.742	0.485
1078.000	613.711	80.007	19.995	103.111	20.109	-8.547	0.516
1078.500	613.974	80.007	19.994	103.109	20.109	-8.597	0.558
1079.001	614.202	80.006	19.995	103.107	20.110	-8.653	0.529
1079.501	614.466	80.007	19.994	103.107	20.108	-8.529	0.491
1080.000	614.715	80.007	19.995	103.106	20.108	-8.522	0.502
1080.500	615.001	80.007	19.994	103.108	20.110	-8.629	0.525
1081.001	615.224	80.007	19.995	103.106	20.112	-8.761	0.522
1081.501	615.503	80.006	19.994	103.104	20.113	-8.837	0.505
1082.000	615.772	80.007	19.994	103.105	20.111	-8.719	0.525
1082.500	615.997	80.007	19.994	103.104	20.112	-8.770	0.521
1083.000	616.304	80.006	19.994	103.101	20.113	-8.818	0.513
1083.500	616.541	80.006	19.994	103.101	20.111	-8.681	0.539
1084.000	616.792	80.007	19.994	103.104	20.113	-8.810	0.516
1084.500	617.047	80.007	19.994	103.103	20.113	-8.852	0.496
1085.000	617.300	80.006	19.994	103.102	20.111	-8.708	0.507
1085.500	617.529	80.007	19.994	103.103	20.110	-8.627	0.495
1086.000	617.787	80.006	19.994	103.102	20.109	-8.601	0.485
1086.500	618.047	80.005	19.994	103.099	20.108	-8.529	0.502
1087.000	618.313	80.007	19.994	103.098	20.113	-8.813	0.522
1087.500	618.526	80.006	19.993	103.097	20.113	-8.872	0.503
1088.000	618.801	80.006	19.995	103.098	20.105	-8.329	0.484
1088.500	619.041	80.007	19.994	103.099	20.110	-8.669	0.502
1089.000	619.308	80.006	19.994	103.101	20.115	-8.959	0.511
1089.500	619.544	80.006	19.994	103.105	20.114	-8.944	0.505
1090.000	619.811	80.008	19.995	103.109	20.112	-8.750	0.502
1090.500	620.054	80.006	19.994	103.109	20.112	-8.763	0.506
1091.001	620.322	80.007	19.995	103.111	20.112	-8.785	0.511
1091.501	620.573	80.006	19.995	103.112	20.111	-8.700	0.515
1092.000	620.841	80.007	19.994	103.108	20.110	-8.624	0.519
1092.500	621.093	80.006	19.994	103.109	20.117	-9.137	0.519
1093.000	621.358	80.006	19.995	103.107	20.112	-8.781	0.519
1093.500	621.611	80.006	19.994	103.105	20.116	-9.036	0.518
1094.000	621.879	80.006	19.995	103.102	20.112	-8.749	0.519
1094.500	622.141	80.008	19.995	103.101	20.111	-8.740	0.525
1095.000	622.363	80.006	19.995	103.098	20.110	-8.652	0.507
1095.500	622.630	80.006	19.994	103.105	20.114	-8.918	0.487
1096.000	622.896	80.007	19.994	103.112	20.116	-9.079	0.511
1096.500	623.142	80.005	19.994	103.114	20.115	-8.979	0.522
1097.000	623.395	80.006	19.994	103.114	20.110	-8.669	0.506
1097.500	623.647	80.005	19.994	103.115	20.112	-8.785	0.502
1098.000	623.891	80.007	19.994	103.107	20.109	-8.563	0.500
1098.500	624.156	80.008	19.994	103.102	20.111	-8.718	0.502
1099.000	624.398	80.007	19.994	103.100	20.114	-8.907	0.508
1099.500	624.680	80.006	19.995	103.103	20.113	-8.853	0.515
1100.000	624.911	80.008	19.994	103.105	20.107	-8.441	0.518
1100.500	625.147	80.008	19.993	103.105	20.113	-8.820	0.490
1101.000	625.423	80.006	19.993	103.105	20.112	-8.748	0.489
1101.500	625.664	80.008	19.993	103.104	20.114	-8.882	0.514
1102.000	625.948	80.009	19.993	103.102	20.114	-8.947	0.521
1102.500	626.177	80.008	19.994	103.099	20.112	-8.805	0.519
1103.001	626.445	80.009	19.995	103.098	20.115	-8.961	0.505
1103.501	626.716	80.008	19.994	103.096	20.115	-8.965	0.518
1104.000	626.927	80.007	19.994	103.097	20.118	-9.171	0.511
1104.500	627.213	80.008	19.995	103.096	20.116	-9.056	0.490
1105.000	627.469	80.008	19.994	103.096	20.117	-9.082	0.520
1105.500	627.716	80.009	19.994	103.097	20.119	-9.230	0.522
1106.000	627.962	80.010	19.994	103.098	20.117	-9.126	0.498
1106.500	628.244	80.008	19.995	103.100	20.122	-9.437	0.510
1107.000	628.502	80.007	19.994	103.101	20.119	-9.248	0.534
1107.500	628.723	80.007	19.994	103.102	20.121	-9.368	0.510
1108.000	628.985	80.008	19.995	103.102	20.120	-9.287	0.481
1108.500	629.249	80.009	19.994	103.101	20.119	-9.241	0.504
1109.000	629.498	80.009	19.994	103.100	20.122	-9.450	0.519
1109.500	629.765	80.006	19.995	103.100	20.119	-9.232	0.515
1110.000	630.024	80.005	19.994	103.099	20.120	-9.313	0.521
1110.500	630.262	80.009	19.994	103.099	20.119	-9.248	0.511
1111.000	630.507	80.008	19.995	103.100	20.122	-9.476	0.490
1111.500	630.793	80.007	19.994	103.101	20.123	-9.520	0.507
1112.001	631.032	80.008	19.995	103.106	20.120	-9.323	0.528
1112.501	631.310	80.007	19.994	103.111	20.123	-9.496	0.521
1113.001	631.571	80.006	19.994	103.116	20.123	-9.533	0.528
1113.501	631.804	80.007	19.995	103.116	20.120	-9.312	0.517
1114.000	632.034	80.007	19.995	103.114	20.125	-9.631	0.479
1114.500	632.274	80.006	19.995	103.109	20.125	-9.642	0.466
1115.000	632.598	80.006	19.994	103.105	20.124	-9.622	0.517
1115.500	632.861	80.007	19.996	103.100	20.125	-9.687	0.575
1116.000	633.112	80.007	19.995	103.100	20.123	-9.529	0.550
1116.500	633.379	80.006	19.994	103.100	20.125	-9.680	0.516
1117.000	633.666	80.007	19.995	103.099	20.127	-9.771	0.536
1117.501	633.900	80.007	19.996	103.098	20.125	-9.672	0.537
1118.001	634.152	80.007	19.996	103.098	20.128	-9.850	0.504
1118.500	634.419	80.007	19.996	103.099	20.126	-9.694	0.503
1119.000	634.654	80.008	19.996	103.099	20.124	-9.575	0.510
1119.500	634.968	80.006	19.994	103.099	20.128	-9.878	0.525
1120.000	635.213	80.007	19.995	103.099	20.126	-9.756	0.554
1120.501	635.494	80.006	19.995	103.099	20.126	-9.747	0.543
1121.001	635.753	80.006	19.994	103.100	20.127	-9.799	0.533
1121.500	636.014	80.007	19.994	103.100	20.126	-9.759	0.530
1122.000	636.272	80.008	19.995	103.102	20.128	-9.862	0.519
1122.500	636.536	80.008	19.994	103.105	20.128	-9.857	0.521
1123.000	636.757	80.008	19.995	103.105	20.127	-9.764	0.504
1123.500	637.022	80.009	19.994	103.103	20.126	-9.736	0.486
1124.000	637.302	80.008	19.995	103.104	20.129	-9.923	0.516
1124.500	637.586	80.008	19.994	103.104	20.127	-9.825	0.555
1125.001	637.831	80.008	19.995	103.105	20.132	-10.100	0.546
1125.501	638.064	80.008	19.994	103.107	20.126	-9.758	0.503
1126.000	638.341	80.008	19.993	103.110	20.129	-9.943	0.494
1126.500	638.599	80.008	19.996	103.110	20.131	-10.091	0.522
1127.000	638.842	80.008	19.996	103.113	20.130	-10.015	0.518
1127.500	639.129	80.008	19.996	103.116	20.129	-9.951	0.516
1128.000	639.373	80.009	19.994	103.114	20.125	-9.685	0.531
1128.500	639.627	80.007	19.994	103.112	20.128	-9.842	0.514
1129.000	639.899	80.008	19.994	103.111	20.130	-9.973	0.512
1129.500	640.150	80.008	19.995	103.106	20.127	-9.799	0.525
1130.000	640.378	80.008	19.995	103.098	20.128	-9.828	0.501
1130.500	640.618	80.009	19.993	103.098	20.130	-10.028	0.473
1131.000	640.906	80.010	19.994	103.098	20.130	-9.976	0.498
1131.501	641.183	80.008	19.995	103.100	20.130	-10.026	0.546
1132.001	641.438	80.009	19.995	103.104	20.133	-10.205	0.548
1132.500	641.687	80.008	19.994	103.104	20.132	-10.164	0.518
1133.000	641.960	80.009	19.994	103.104	20.133	-10.216	0.513
1133.500	642.229	80.006	19.995	103.105	20.131	-10.075	0.532
1134.000	642.446	80.009	19.995	103.105	20.129	-9.915	0.514
1134.500	642.737	80.008	19.995	103.102	20.131	-10.033	0.497
1135.000	642.957	80.007	19.994	103.103	20.129	-9.946	0.509
1135.500	643.219	80.008	19.994	103.104	20.133	-10.192	0.497
1136.000	643.483	80.006	19.994	103.104	20.131	-10.055	0.504
1136.500	643.739	80.006	19.994	103.102	20.133	-10.208	0.522
1137.000	643.997	80.007	19.994	103.102	20.130	-10.024	0.517
1137.500	644.261	80.006	19.994	103.102	20.130	-9.963	0.518
1138.000	644.518	80.005	19.995	103.103	20.130	-9.998	0.522
1138.500	644.751	80.005	19.995	103.104	20.133	-10.208	0.506
1139.000	645.003	80.005	19.996	103.104	20.132	-10.103	0.488
1139.500	645.235	80.004	19.995	103.103	20.137	-10.480	0.484
1140.000	645.541	80.007	19.995	103.102	20.133	-10.221	0.511
1140.500	645.765	80.007	19.996	103.100	20.136	-10.388	0.534
1141.000	646.006	80.004	19.995	103.099	20.131	-10.075	0.497
1141.500	646.275	80.006	19.996	103.099	20.132	-10.105	0.488
1142.000	646.508	80.007	19.996	103.099	20.130	-9.998	0.506
1142.500	646.778	80.004	19.996	103.099	20.135	-10.349	0.503
1143.000	647.051	80.006	19.995	103.097	20.135	-10.317	0.523
1143.500	647.304	80.006	19.996	103.096	20.131	-10.085	0.534
1144.000	647.562	80.005	19.995	103.096	20.133	-10.177	0.518
1144.500	647.845	80.004	19.994	103.095	20.135	-10.336	0.526
1145.000	648.036	80.006	19.994	103.095	20.133	-10.182	0.507
1145.501	648.385	80.006	19.996	103.094	20.137	-10.460	0.507
1146.001	648.602	80.006	19.994	103.094	20.136	-10.415	0.554
1146.500	648.859	80.005	19.996	103.096	20.139	-10.589	0.520
1147.000	649.104	80.005	19.997	103.096	20.132	-10.125	0.487
1147.500	649.352	80.005	19.996	103.095	20.136	-10.375	0.498
1148.000	649.598	80.005	19.995	103.096	20.135	-10.360	0.494
1148.500	649.868	80.006	19.995	103.096	20.139	-10.600	0.505
1149.000	650.140	80.006	19.995	103.095	20.134	-10.275	0.529
1149.500	650.434	80.006	19.995	103.095	20.138	-10.569	0.554
1150.000	650.668	80.007	19.995	103.095	20.137	-10.436	0.547
1150.500	650.894	80.006	19.995	103.095	20.139	-10.580	0.494
1151.000	651.178	80.007	19.994	103.095	20.133	-10.216	0.485
1151.500	651.383	80.006	19.995	103.096	20.136	-10.425	0.500
1152.000	651.645	80.006	19.995	103.095	20.134	-10.290	0.478
1152.500	651.906	80.007	19.994	103.096	20.136	-10.417	0.495
1153.000	652.188	80.006	19.995	103.096	20.137	-10.491	0.533
1153.500	652.428	80.005	19.995	103.096	20.136	-10.415	0.533
1154.000	652.674	80.006	19.996	103.096	20.137	-10.473	0.504
1154.500	652.918	80.006	19.994	103.097	20.133	-10.228	0.488
1155.000	653.181	80.007	19.994	103.097	20.138	-10.542	0.498
1155.500	653.431	80.006	19.993	103.095	20.138	-10.547	0.510
1156.000	653.718	80.006	19.995	103.095	20.138	-10.551	0.525
1156.500	653.981	80.006	19.993	103.095	20.141	-10.726	0.543
1157.000	654.251	80.007	19.994	103.094	20.142	-10.790	0.541
1157.500	654.478	80.008	19.994	103.093	20.140	-10.667	0.516
1158.000	654.722	80.006	19.994	103.094	20.138	-10.523	0.485
1158.500	655.030	80.007	19.995	103.095	20.141	-10.742	0.511
1159.000	655.269	80.005	19.994	103.096	20.138	-10.543	0.549
1159.500	655.533	80.009	19.994	103.096	20.135	-10.349	0.525
1160.000	655.786	80.005	19.994	103.097	20.138	-10.546	0.510
1160.500	656.068	80.007	19.995	103.097	20.138	-10.535	0.526
1161.000	656.312	80.006	19.995	103.096	20.137	-10.436	0.531
1161.501	656.558	80.005	19.993	103.096	20.139	-10.610	0.508
1162.001	656.794	80.007	19.994	103.096	20.140	-10.680	0.486
1162.500	657.081	80.007	19.994	103.096	20.138	-10.512	0.502
1163.000	657.346	80.008	19.994	103.096	20.140	-10.669	0.538
1163.500	657.609	80.007	19.994	103.098	20.142	-10.824	0.540
1164.001	657.887	80.006	19.995	103.097	20.143	-10.907	0.535
1164.501	658.121	80.007	19.995	103.097	20.144	-10.923	0.526
1165.001	658.383	80.007	19.995	103.100	20.142	-10.829	0.504
1165.501	658.621	80.007	19.994	103.104	20.145	-10.998	0.498
1166.000	658.902	80.006	19.994	103.104	20.144	-10.941	0.509
1166.500	659.148	80.006	19.994	103.104	20.138	-10.551	0.523
1167.000	659.425	80.007	19.994	103.104	20.141	-10.734	0.525
1167.500	659.668	80.006	19.994	103.102	20.141	-10.752	0.522
1168.000	659.922	80.008	19.994	103.098	20.142	-10.813	0.509
1168.500	660.153	80.005	19.994	103.097	20.141	-10.741	0.491
1169.001	660.420	80.005	19.994	103.097	20.142	-10.781	0.491
1169.501	660.668	80.006	19.995	103.096	20.148	-11.193	0.506
1170.000	660.969	80.006	19.994	103.095	20.144	-10.913	0.531
1170.500	661.212	80.006	19.997	103.095	20.142	-10.833	0.546
1171.000	661.505	80.005	19.996	103.096	20.142	-10.809	0.540
1171.500	661.725	80.007	19.994	103.096	20.145	-11.006	0.524
1172.000	661.996	80.007	19.995	103.100	20.145	-10.995	0.502
1172.500	662.233	80.005	19.995	103.101	20.141	-10.729	0.500
1173.000	662.498	80.007	19.995	103.101	20.144	-10.946	0.505
1173.500	662.763	80.006	19.994	103.101	20.144	-10.946	0.516
1174.000	663.047	80.006	19.994	103.101	20.143	-10.901	0.539
1174.500	663.284	80.006	19.995	103.097	20.142	-10.824	0.535
1175.000	663.529	80.006	19.995	103.097	20.141	-10.772	0.502
1175.501	663.797	80.007	19.995	103.098	20.145	-10.996	0.498
1176.001	664.071	80.005	19.995	103.099	20.142	-10.811	0.528
1176.501	664.379	80.007	19.995	103.102	20.144	-10.926	0.562
1177.000	664.629	80.008	19.995	103.104	20.148	-11.197	0.570
1177.501	664.859	80.006	19.996	103.104	20.145	-11.001	0.519
1178.001	665.151	80.007	19.995	103.104	20.144	-10.942	0.501
1178.501	665.399	80.007	19.995	103.103	20.144	-10.959	0.531
1179.001	665.647	80.007	19.994	103.101	20.145	-10.983	0.518
1179.500	665.917	80.007	19.995	103.100	20.149	-11.269	0.507
1180.000	666.180	80.006	19.995	103.100	20.142	-10.796	0.525
1180.500	666.401	80.008	19.994	103.099	20.141	-10.774	0.508
1181.000	666.648	80.008	19.994	103.099	20.146	-11.106	0.476
1181.500	666.962	80.008	19.994	103.099	20.153	-11.566	0.514
1182.000	667.169	80.008	19.994	103.098	20.144	-10.924	0.541
1182.500	667.485	80.007	19.993	103.096	20.145	-11.012	0.522
1183.000	667.730	80.007	19.995	103.097	20.142	-10.803	0.542
1183.500	667.954	80.009	19.994	103.096	20.146	-11.064	0.515
1184.000	668.259	80.007	19.994	103.097	20.144	-10.938	0.499
1184.500	668.547	80.008	19.993	103.098	20.146	-11.077	0.561
1185.000	668.782	80.008	19.993	103.099	20.143	-10.892	0.558
1185.500	669.041	80.006	19.995	103.099	20.146	-11.055	0.508
1186.000	669.270	80.007	19.993	103.101	20.148	-11.219	0.491
1186.500	669.575	80.008	19.995	103.100	20.140	-10.687	0.511
1187.000	669.833	80.007	19.995	103.101	20.145	-11.011	0.549
1187.500	670.074	80.009	19.995	103.103	20.147	-11.140	0.531
1188.000	670.333	80.008	19.993	103.103	20.145	-11.014	0.499
1188.500	670.593	80.008	19.994	103.102	20.150	-11.384	0.509
1189.000	670.831	80.008	19.994	103.101	20.147	-11.144	0.509
1189.500	671.079	80.008	19.994	103.100	20.148	-11.190	0.492
1190.000	671.375	80.007	19.994	103.098	20.144	-10.957	0.515
1190.500	671.622	80.009	19.994	103.099	20.147	-11.140	0.544
1191.000	671.888	80.008	19.993	103.099	20.149	-11.279	0.529
1191.500	672.125	80.008	19.995	103.099	20.147	-11.151	0.508
1192.000	672.381	80.007	19.995	103.099	20.150	-11.367	0.498
1192.501	672.688	80.007	19.993	103.099	20.148	-11.202	0.528
1193.001	672.888	80.006	19.993	103.099	20.149	-11.250	0.535
1193.500	673.216	80.007	19.994	103.098	20.148	-11.229	0.517
1194.000	673.456	80.006	19.993	103.097	20.146	-11.087	0.548
1194.500	673.712	80.006	19.994	103.097	20.146	-11.111	0.532
1195.000	673.972	80.006	19.993	103.097	20.149	-11.298	0.506
1195.500	674.255	80.008	19.994	103.097	20.152	-11.460	0.530
1196.001	674.488	80.006	19.994	103.098	20.150	-11.361	0.529
1196.501	674.715	80.005	19.993	103.099	20.148	-11.189	0.488
1197.001	674.972	80.006	19.995	103.100	20.149	-11.283	0.472
1197.500	675.290	80.008	19.994	103.100	20.153	-11.538	0.530
1198.000	675.475	80.006	19.994	103.100	20.152	-11.481	0.539
1198.500	675.766	80.007	19.993	103.100	20.150	-11.339	0.489
1199.001	676.030	80.006	19.994	103.100	20.154	-11.621	0.516
1199.501	676.305	80.006	19.994	103.102	20.148	-11.202	0.547
1200.000	676.531	80.006	19.993	103.106	20.151	-11.405	0.520
1200.500	676.797	80.008	19.994	103.105	20.152	-11.466	0.497
1201.000	677.053	80.008	19.994	103.105	20.154	-11.602	0.507
1201.500	677.300	80.007	19.994	103.105	20.153	-11.528	0.512
1202.000	677.540	80.007	19.993	103.102	20.152	-11.516	0.495
1202.501	677.830	80.006	19.995	103.097	20.155	-11.715	0.509
1203.001	678.089	80.008	19.994	103.096	20.153	-11.564	0.540
1203.500	678.333	80.008	19.995	103.096	20.157	-11.854	0.526
1204.000	678.614	80.008	19.994	103.095	20.153	-11.557	0.514
1204.500	678.857	80.008	19.995	103.093	20.151	-11.446	0.524
1205.000	679.109	80.008	19.994	103.090	20.154	-11.644	0.509
1205.501	679.336	80.010	19.995	103.090	20.152	-11.505	0.487
1206.001	679.621	80.008	19.995	103.091	20.154	-11.597	0.496
1206.501	679.908	80.009	19.994	103.091	20.152	-11.464	0.542
1207.001	680.103	80.010	19.996	103.093	20.154	-11.612	0.527
1207.501	680.361	80.010	19.995	103.095	20.155	-11.712	0.467
1208.001	680.629	80.009	19.995	103.094	20.153	-11.527	0.490
1208.500	680.915	80.009	19.996	103.093	20.154	-11.605	0.540
1209.000	681.150	80.009	19.995	103.093	20.158	-11.904	0.537
1209.500	681.400	80.009	19.995	103.093	20.154	-11.616	0.503
1210.000	681.680	80.009	19.995	103.093	20.154	-11.627	0.507
1210.500	681.948	80.008	19.994	103.094	20.157	-11.791	0.539
1211.000	682.172	80.007	19.994	103.093	20.155	-11.664	0.520
1211.500	682.423	80.008	19.995	103.091	20.156	-11.764	0.484
1212.000	682.704	80.008	19.995	103.090	20.159	-11.932	0.504
1212.500	682.929	80.008	19.994	103.091	20.155	-11.660	0.519
1213.000	683.177	80.008	19.995	103.092	20.156	-11.738	0.489
1213.500	683.443	80.008	19.995	103.092	20.153	-11.534	0.493
1214.000	683.692	80.007	19.995	103.094	20.154	-11.640	0.514
1214.500	683.937	80.007	19.995	103.095	20.153	-11.570	0.505
1215.000	684.208	80.006	19.994	103.095	20.154	-11.627	0.506
1215.500	684.462	80.008	19.994	103.095	20.157	-11.850	0.521
1216.000	684.701	80.006	19.994	103.095	20.155	-11.697	0.509
1216.500	685.002	80.007	19.994	103.095	20.158	-11.863	0.517
1217.000	685.225	80.007	19.995	103.095	20.153	-11.562	0.532
1217.500	685.495	80.005	19.994	103.096	20.157	-11.793	0.508
1218.000	685.742	80.006	19.995	103.096	20.161	-12.092	0.505
1218.500	686.016	80.006	19.994	103.096	20.159	-11.948	0.519
1219.000	686.251	80.005	19.994	103.096	20.157	-11.808	0.515
1219.500	686.513	80.007	19.994	103.095	20.159	-11.987	0.502
1220.000	686.783	80.006	19.994	103.095	20.155	-11.660	0.514
1220.500	687.030	80.007	19.994	103.095	20.158	-11.895	0.525
1221.000	687.280	80.006	19.996	103.095	20.156	-11.771	0.508
1221.500	687.523	80.007	19.995	103.096	20.158	-11.886	0.495
1222.000	687.786	80.006	19.994	103.097	20.152	-11.516	0.499
1222.500	688.038	80.006	19.995	103.097	20.158	-11.887	0.510
1223.000	688.308	80.007	19.995	103.095	20.160	-12.033	0.519
1223.500	688.537	80.006	19.995	103.095	20.159	-11.969	0.511
1224.000	688.813	80.008	19.995	103.094	20.161	-12.078	0.502
1224.500	689.070	80.005	19.995	103.094	20.157	-11.810	0.518
1225.000	689.353	80.007	19.995	103.094	20.158	-11.915	0.536
1225.500	689.584	80.008	19.995	103.096	20.161	-12.116	0.527
1226.000	689.817	80.006	19.995	103.096	20.163	-12.206	0.489
1226.500	690.060	80.006	19.995	103.096	20.158	-11.914	0.470
1227.001	690.341	80.005	19.996	103.096	20.163	-12.226	0.500
1227.501	690.604	80.006	19.996	103.095	20.163	-12.202	0.534
1228.000	690.857	80.005	19.994	103.093	20.159	-11.975	0.530
1228.500	691.092	80.007	19.996	103.091	20.161	-12.119	0.502
1229.000	691.333	80.007	19.996	103.092	20.159	-11.992	0.482
1229.500	691.574	80.006	19.995	103.092	20.160	-12.034	0.479
1230.000	691.868	80.006	19.995	103.092	20.158	-11.894	0.509
1230.500	692.139	80.006	19.996	103.094	20.162	-12.162	0.550
1231.000	692.376	80.005	19.996	103.096	20.161	-12.109	0.537
1231.500	692.643	80.006	19.995	103.096	20.159	-11.943	0.506
1232.000	692.922	80.006	19.996	103.095	20.159	-11.974	0.525
1232.500	693.202	80.007	19.995	103.096	20.164	-12.324	0.553
1233.000	693.410	80.006	19.995	103.096	20.165	-12.344	0.523
1233.500	693.712	80.006	19.996	103.096	20.160	-11.995	0.499
1234.000	693.924	80.006	19.996	103.096	20.164	-12.281	0.512
1234.501	694.179	80.006	19.995	103.096	20.162	-12.167	0.490
1235.001	694.483	80.007	19.995	103.096	20.161	-12.128	0.513
1235.500	694.710	80.006	19.995	103.094	20.163	-12.220	0.545
1236.000	694.951	80.008	19.995	103.092	20.161	-12.080	0.500
1236.500	695.248	80.006	19.995	103.089	20.165	-12.363	0.503
1237.000	695.483	80.005	19.995	103.084	20.161	-12.064	0.535
1237.500	695.756	80.006	19.995	103.085	20.162	-12.158	0.520
1238.000	696.006	80.006	19.996	103.087	20.164	-12.326	0.515
1238.500	696.302	80.007	19.995	103.086	20.163	-12.224	0.534
1239.000	696.554	80.006	19.995	103.085	20.162	-12.150	0.547
1239.500	696.810	80.008	19.995	103.090	20.163	-12.224	0.528
1240.001	697.076	80.007	19.995	103.088	20.160	-12.006	0.515
1240.501	697.328	80.008	19.995	103.087	20.161	-12.078	0.520
1241.001	697.589	80.007	19.995	103.089	20.163	-12.228	0.516
1241.501	697.833	80.006	19.994	103.093	20.162	-12.132	0.509
1242.000	698.101	80.009	19.994	103.094	20.164	-12.292	0.509
1242.501	698.360	80.007	19.995	103.097	20.162	-12.158	0.520
1243.001	698.595	80.005	19.995	103.098	20.163	-12.215	0.510
1243.500	698.872	80.006	19.995	103.099	20.162	-12.176	0.503
1244.000	699.128	80.007	19.995	103.100	20.167	-12.501	0.522
1244.500	699.364	80.005	19.994	103.099	20.164	-12.307	0.512
1245.000	699.633	80.006	19.994	103.099	20.162	-12.184	0.498
1245.500	699.886	80.007	19.994	103.099	20.164	-12.315	0.514
1246.000	700.166	80.005	19.994	103.100	20.167	-12.486	0.528
1246.500	700.406	80.005	19.994	103.099	20.163	-12.217	0.527
1247.000	700.686	80.006	19.995	103.099	20.165	-12.390	0.520
1247.500	700.946	80.006	19.994	103.100	20.166	-12.446	0.530
1248.000	701.198	80.006	19.996	103.102	20.163	-12.211	0.526
1248.500	701.454	80.007	19.994	103.101	20.165	-12.359	0.510
1249.000	701.725	80.007	19.995	103.102	20.168	-12.571	0.517
1249.500	701.959	80.006	19.995	103.102	20.167	-12.468	0.516
1250.000	702.224	80.006	19.994	103.101	20.163	-12.200	0.502
1250.500	702.492	80.006	19.996	103.098	20.166	-12.406	0.516
1251.000	702.718	80.007	19.995	103.099	20.164	-12.268	0.514
1251.500	702.995	80.005	19.995	103.100	20.167	-12.507	0.499
1252.000	703.237	80.007	19.994	103.100	20.169	-12.627	0.511
1252.500	703.480	80.006	19.995	103.100	20.168	-12.540	0.502
1253.000	703.728	80.006	19.995	103.101	20.168	-12.553	0.488
1253.500	703.970	80.005	19.995	103.101	20.169	-12.625	0.491
1254.000	704.261	80.005	19.993	103.101	20.165	-12.369	0.512
1254.500	704.535	80.006	19.995	103.101	20.167	-12.508	0.549
1255.000	704.742	80.005	19.994	103.101	20.165	-12.386	0.522
1255.501	705.042	80.005	19.995	103.101	20.167	-12.514	0.494
1256.001	705.257	80.008	19.993	103.101	20.161	-12.080	0.511
1256.501	705.571	80.007	19.995	103.100	20.165	-12.362	0.522
1257.001	705.821	80.006	19.994	103.100	20.163	-12.261	0.547
1257.500	706.073	80.007	19.995	103.100	20.164	-12.305	0.533
1258.000	706.338	80.008	19.994	103.100	20.168	-12.593	0.509
1258.500	706.580	80.007	19.994	103.100	20.166	-12.432	0.512
1259.000	706.856	80.008	19.994	103.100	20.167	-12.491	0.513
1259.500	707.079	80.007	19.994	103.101	20.168	-12.541	0.509
1260.000	707.325	80.007	19.994	103.101	20.164	-12.325	0.484
1260.500	707.573	80.008	19.994	103.100	20.165	-12.362	0.481
1261.000	707.874	80.007	19.994	103.097	20.165	-12.343	0.521
1261.500	708.069	80.007	19.995	103.096	20.166	-12.426	0.522
1262.000	708.373	80.008	19.994	103.093	20.165	-12.396	0.497
1262.500	708.629	80.007	19.995	103.090	20.168	-12.548	0.530
1263.000	708.850	80.006	19.994	103.088	20.169	-12.642	0.519
1263.500	709.112	80.008	19.994	103.086	20.164	-12.275	0.480
1264.000	709.413	80.006	19.995	103.087	20.168	-12.563	0.523
1264.500	709.623	80.007	19.994	103.090	20.161	-12.089	0.537
1265.000	709.921	80.008	19.995	103.092	20.165	-12.360	0.510
1265.500	710.183	80.009	19.994	103.094	20.165	-12.392	0.534
1266.000	710.436	80.006	19.995	103.098	20.165	-12.377	0.538
1266.500	710.663	80.008	19.996	103.099	20.167	-12.475	0.497
1267.000	710.955	80.008	19.994	103.098	20.169	-12.637	0.500
1267.500	711.170	80.007	19.995	103.098	20.168	-12.552	0.513
1268.000	711.474	80.007	19.994	103.098	20.169	-12.626	0.513
1268.500	711.724	80.008	19.995	103.098	20.170	-12.694	0.537
1269.000	711.958	80.007	19.995	103.097	20.169	-12.631	0.519
1269.500	712.193	80.007	19.995	103.097	20.169	-12.633	0.477
1270.001	712.431	80.008	19.994	103.096	20.169	-12.606	0.471
1270.501	712.696	80.007	19.994	103.096	20.170	-12.676	0.488
1271.000	712.944	80.007	19.995	103.095	20.164	-12.294	0.508
1271.500	713.219	80.007	19.995	103.093	20.165	-12.390	0.518
1272.000	713.509	80.007	19.994	103.090	20.168	-12.550	0.544
1272.500	713.733	80.008	19.994	103.090	20.162	-12.140	0.540
1273.000	713.988	80.007	19.995	103.090	20.167	-12.470	0.496
1273.500	714.242	80.009	19.995	103.088	20.168	-12.575	0.493
1274.000	714.500	80.008	19.995	103.090	20.166	-12.452	0.511
1274.500	714.739	80.007	19.995	103.093	20.164	-12.284	0.505
1275.000	715.041	80.008	19.994	103.094	20.166	-12.457	0.519
1275.500	715.258	80.007	19.994	103.094	20.166	-12.417	0.530
1276.000	715.544	80.008	19.994	103.097	20.169	-12.648	0.511
1276.500	715.784	80.008	19.994	103.097	20.166	-12.458	0.515
1277.001	716.071	80.007	19.994	103.097	20.164	-12.317	0.527
1277.501	716.310	80.007	19.994	103.096	20.165	-12.342	0.526
1278.000	716.536	80.009	19.994	103.095	20.166	-12.447	0.495
1278.500	716.866	80.009	19.995	103.092	20.168	-12.567	0.511
1279.000	717.076	80.008	19.995	103.091	20.163	-12.207	0.548
1279.500	717.353	80.008	19.993	103.091	20.170	-12.687	0.514
1280.000	717.577	80.008	19.995	103.092	20.165	-12.343	0.494
1280.500	717.838	80.008	19.994	103.092	20.163	-12.217	0.493
1281.000	718.095	80.008	19.995	103.096	20.164	-12.323	0.501
1281.500	718.341	80.008	19.993	103.096	20.164	-12.317	0.510
1282.000	718.561	80.008	19.995	103.096	20.163	-12.227	0.485
1282.500	718.872	80.009	19.994	103.096	20.165	-12.363	0.498
1283.000	719.106	80.010	19.994	103.093	20.170	-12.670	0.537
1283.500	719.363	80.008	19.994	103.090	20.169	-12.617	0.518
1284.000	719.643	80.008	19.994	103.089	20.166	-12.454	0.514
1284.500	719.866	80.008	19.994	103.088	20.164	-12.305	0.520
1285.000	720.161	80.009	19.993	103.088	20.167	-12.471	0.511
1285.500	720.403	80.010	19.993	103.090	20.166	-12.460	0.527
1286.000	720.652	80.008	19.994	103.090	20.166	-12.448	0.513
1286.500	720.881	80.009	19.994	103.089	20.166	-12.437	0.484
1287.000	721.177	80.009	19.994	103.091	20.165	-12.382	0.502
1287.500	721.423	80.009	19.995	103.092	20.169	-12.644	0.533
1288.001	721.647	80.008	19.994	103.092	20.174	-12.956	0.506
1288.501	721.919	80.009	19.994	103.094	20.173	-12.938	0.483
1289.001	722.161	80.008	19.994	103.095	20.169	-12.648	0.505
1289.501	722.430	80.008	19.994	103.094	20.171	-12.804	0.513
1290.000	722.664	80.008	19.994	103.094	20.169	-12.628	0.507
1290.500	722.923	80.009	19.996	103.094	20.170	-12.678	0.498
1291.000	723.189	80.007	19.995	103.094	20.172	-12.820	0.509
1291.500	723.441	80.009	19.995	103.092	20.170	-12.706	0.521
1292.000	723.684	80.007	19.996	103.091	20.169	-12.656	0.506
1292.500	723.941	80.007	19.996	103.090	20.171	-12.797	0.497
1293.000	724.206	80.008	19.996	103.090	20.169	-12.606	0.511
1293.500	724.426	80.005	19.995	103.089	20.171	-12.755	0.504
1294.000	724.707	80.005	19.995	103.091	20.171	-12.760	0.493
1294.500	724.971	80.005	19.995	103.092	20.173	-12.922	0.523
1295.001	725.186	80.005	19.995	103.093	20.168	-12.534	0.511
1295.501	725.452	80.006	19.995	103.093	20.168	-12.571	0.480
1296.001	725.728	80.006	19.995	103.094	20.167	-12.492	0.512
1296.500	725.994	80.005	19.995	103.094	20.171	-12.770	0.542
1297.000	726.238	80.006	19.996	103.092	20.174	-12.997	0.526
1297.500	726.478	80.006	19.995	103.091	20.171	-12.774	0.496
1298.000	726.731	80.005	19.995	103.091	20.170	-12.671	0.489
1298.501	727.001	80.007	19.996	103.091	20.170	-12.687	0.509
1299.001	727.272	80.006	19.995	103.092	20.172	-12.859	0.532
1299.500	727.535	80.004	19.995	103.095	20.173	-12.930	0.538
1300.000	727.756	80.006	19.995	103.097	20.172	-12.840	0.509
1300.500	728.036	80.006	19.995	103.098	20.173	-12.930	0.492
1301.000	728.271	80.005	19.996	103.099	20.171	-12.766	0.508
1301.500	728.543	80.005	19.994	103.097	20.172	-12.861	0.511
1302.000	728.824	80.006	19.996	103.092	20.173	-12.925	0.530
1302.500	729.070	80.005	19.994	103.087	20.170	-12.723	0.540
1303.000	729.350	80.007	19.994	103.085	20.173	-12.878	0.527
1303.500	729.591	80.007	19.995	103.085	20.167	-12.499	0.524
1304.001	729.849	80.005	19.994	103.085	20.175	-13.042	0.510
1304.501	730.123	80.006	19.994	103.088	20.175	-13.059	0.515
1305.000	730.356	80.006	19.995	103.088	20.174	-12.963	0.519
1305.500	730.624	80.005	19.995	103.084	20.170	-12.686	0.504
1306.000	730.891	80.005	19.994	103.082	20.177	-13.145	0.518
1306.500	731.136	80.006	19.995	103.083	20.173	-12.940	0.524
1307.000	731.384	80.006	19.997	103.086	20.176	-13.107	0.503
1307.500	731.630	80.006	19.995	103.090	20.171	-12.791	0.494
1308.001	731.887	80.007	19.995	103.096	20.174	-12.985	0.498
1308.501	732.151	80.006	19.995	103.099	20.174	-12.957	0.512
1309.001	732.385	80.005	19.995	103.100	20.179	-13.291	0.510
1309.501	732.677	80.007	19.995	103.098	20.174	-13.006	0.512
1310.000	732.942	80.006	19.995	103.094	20.176	-13.111	0.541
1310.500	733.179	80.006	19.995	103.091	20.173	-12.926	0.529
1311.000	733.451	80.007	19.996	103.091	20.176	-13.117	0.505
1311.500	733.692	80.006	19.995	103.091	20.175	-13.013	0.511
1312.000	733.946	80.005	19.995	103.095	20.177	-13.190	0.504
1312.500	734.204	80.007	19.995	103.102	20.174	-12.992	0.504
1313.000	734.486	80.006	19.995	103.104	20.175	-13.008	0.526
1313.500	734.736	80.007	19.995	103.104	20.178	-13.250	0.536
1314.000	735.003	80.007	19.994	103.103	20.170	-12.716	0.524
1314.500	735.228	80.006	19.996	103.101	20.174	-12.996	0.505
1315.000	735.516	80.005	19.994	103.098	20.175	-13.071	0.503
1315.500	735.771	80.005	19.995	103.098	20.175	-13.055	0.528
1316.000	736.011	80.006	19.995	103.098	20.178	-13.225	0.519
1316.500	736.241	80.006	19.995	103.098	20.178	-13.234	0.483
1317.000	736.521	80.007	19.996	103.098	20.181	-13.420	0.490
1317.500	736.743	80.005	19.995	103.098	20.179	-13.344	0.506
1318.001	737.032	80.005	19.995	103.097	20.178	-13.274	0.507
1318.501	737.277	80.005	19.995	103.097	20.179	-13.316	0.523
1319.001	737.500	80.005	19.995	103.097	20.179	-13.306	0.501
1319.501	737.714	80.005	19.996	103.095	20.177	-13.184	0.452
1320.001	738.031	80.006	19.995	103.091	20.179	-13.333	0.484
1320.501	738.263	80.005	19.996	103.088	20.176	-13.125	0.540
1321.000	738.558	80.005	19.996	103.088	20.177	-13.165	0.538
1321.500	738.808	80.002	19.995	103.088	20.178	-13.241	0.536
1322.000	739.096	80.007	19.995	103.090	20.177	-13.184	0.541
1322.500	739.269	80.004	19.995	103.091	20.176	-13.102	0.499
1323.000	739.548	80.004	19.995	103.089	20.180	-13.351	0.457
1323.500	739.845	80.005	19.994	103.083	20.179	-13.295	0.514
1324.000	740.055	80.004	19.996	103.081	20.181	-13.427	0.542
1324.500	740.317	80.003	19.995	103.077	20.180	-13.380	0.489
1325.000	740.589	80.005	19.995	103.079	20.178	-13.253	0.503
1325.500	740.875	80.004	19.995	103.081	20.176	-13.126	0.546
1326.000	741.093	80.005	19.995	103.082	20.174	-13.007	0.531
1326.500	741.360	80.004	19.995	103.080	20.176	-13.095	0.494
1327.000	741.558	80.004	19.995	103.081	20.179	-13.312	0.475
1327.500	741.835	80.005	19.996	103.079	20.177	-13.204	0.470
1328.000	742.106	80.005	19.996	103.076	20.174	-13.001	0.511
1328.500	742.392	80.005	19.994	103.075	20.179	-13.336	0.552
1329.000	742.591	80.004	19.995	103.076	20.177	-13.180	0.521
1329.500	742.853	80.006	19.995	103.076	20.180	-13.376	0.473
1330.000	743.128	80.005	19.996	103.079	20.180	-13.407	0.499
1330.500	743.370	80.004	19.995	103.085	20.176	-13.077	0.527
1331.000	743.637	80.005	19.995	103.091	20.181	-13.459	0.513
