Sample ID:	C:\MCC\MCC Cal\Test\Polyester_Fabric_30_2.txt
Sample Weight (mg):	3.46
Heating Rate (C/s):	0.5
Combustor Temp (C):	900
N2 Flow Rate (cc/min):	80
O2 Flow Rate (cc/min):	20
Calibration File:	C:\MCC\MCC Cal\Coeff1 JN10440_30_210304.txt.txt
T Correction Coefficients:	0	1.024463	0
Time Shift (s):	14
*
Time (s)	Temperature (C)	N2 flow rate (cc/min)	O2 flow rate (cc/min)	Flow Rate (cc/min)	Oxygen (%)	HRR (W/g)	Heating rate (C/s)
0.000	112.075	79.993	19.989	99.594	20.311	0.413	0.002
0.500	111.988	79.993	19.990	99.592	20.314	0.160	-0.010
1.000	112.048	79.991	19.989	99.594	20.316	-0.007	-0.038
1.500	112.031	79.993	19.990	99.602	20.318	-0.145	0.008
2.000	112.045	79.993	19.991	99.615	20.320	-0.404	0.020
2.500	112.048	79.992	19.990	99.627	20.318	-0.175	0.007
3.000	112.017	79.993	19.990	99.635	20.317	-0.123	-0.005
3.500	112.039	79.991	19.991	99.635	20.316	-0.025	-0.019
3.999	112.029	79.993	19.990	99.633	20.316	0.027	0.001
4.499	111.993	79.992	19.990	99.623	20.311	0.438	-0.017
4.999	111.999	79.993	19.989	99.615	20.313	0.236	-0.038
5.499	112.008	79.993	19.990	99.611	20.316	0.042	-0.007
5.999	111.984	79.994	19.990	99.613	20.315	0.128	0.000
6.499	112.012	79.993	19.990	99.617	20.317	-0.066	-0.006
6.999	111.957	79.994	19.991	99.624	20.314	0.153	-0.012
7.499	111.973	79.993	19.990	99.631	20.313	0.303	-0.033
7.999	111.983	79.994	19.991	99.636	20.312	0.315	-0.006
8.499	111.974	79.995	19.990	99.631	20.310	0.495	0.014
9.000	111.948	79.994	19.991	99.626	20.314	0.145	-0.017
9.500	111.967	79.995	19.989	99.627	20.310	0.535	-0.021
9.999	111.962	79.995	19.991	99.634	20.311	0.406	0.004
10.499	111.964	79.995	19.992	99.650	20.306	0.860	0.006
10.999	111.960	79.994	19.990	99.672	20.306	0.887	-0.002
11.499	111.960	79.995	19.991	99.686	20.302	1.288	-0.004
11.999	111.992	79.996	19.991	99.692	20.304	1.099	0.014
12.499	111.987	79.995	19.991	99.692	20.304	1.109	0.030
12.999	112.020	79.995	19.992	99.685	20.300	1.417	0.028
13.499	112.008	79.995	19.991	99.678	20.300	1.419	0.025
13.999	112.002	79.994	19.990	99.679	20.298	1.641	0.001
14.499	112.025	79.995	19.993	99.679	20.298	1.594	-0.001
14.999	112.064	79.994	19.990	99.679	20.296	1.824	0.039
15.499	112.094	79.993	19.992	99.680	20.294	1.984	0.065
15.999	112.090	79.994	19.992	99.687	20.292	2.120	0.048
16.499	112.084	79.994	19.991	99.699	20.291	2.225	0.008
16.999	112.118	79.994	19.991	99.718	20.292	2.117	0.009
17.499	112.123	79.994	19.991	99.742	20.291	2.223	0.034
18.000	112.135	79.995	19.991	99.763	20.290	2.343	0.028
18.500	112.146	79.993	19.993	99.777	20.290	2.361	0.020
18.999	112.170	79.993	19.992	99.783	20.285	2.807	0.029
19.499	112.216	79.994	19.991	99.780	20.286	2.738	0.052
20.000	112.237	79.994	19.990	99.772	20.284	2.884	0.068
20.500	112.289	79.994	19.991	99.765	20.283	2.987	0.070
20.999	112.319	79.993	19.992	99.761	20.284	2.889	0.078
21.499	112.340	79.994	19.992	99.765	20.283	2.960	0.066
21.999	112.358	79.994	19.990	99.769	20.281	3.135	0.045
22.499	112.401	79.995	19.989	99.770	20.280	3.258	0.050
22.999	112.491	79.993	19.990	99.776	20.280	3.268	0.097
23.499	112.480	79.994	19.991	99.782	20.279	3.305	0.106
24.000	112.540	79.995	19.991	99.782	20.278	3.384	0.064
24.500	112.581	79.995	19.991	99.788	20.278	3.413	0.075
24.999	112.619	79.993	19.991	99.800	20.282	3.061	0.090
25.499	112.659	79.993	19.991	99.809	20.277	3.472	0.078
25.999	112.712	79.994	19.991	99.816	20.280	3.214	0.085
26.499	112.752	79.995	19.989	99.821	20.279	3.374	0.093
26.999	112.816	79.996	19.991	99.819	20.281	3.164	0.099
27.499	112.847	79.994	19.991	99.816	20.279	3.309	0.100
28.000	112.916	79.996	19.990	99.810	20.280	3.272	0.098
28.500	112.965	79.995	19.990	99.805	20.282	3.071	0.109
28.999	113.060	79.995	19.990	99.803	20.274	3.739	0.131
29.499	113.115	79.997	19.991	99.808	20.279	3.327	0.147
29.999	113.137	79.996	19.991	99.813	20.282	3.101	0.114
30.499	113.219	79.996	19.990	99.819	20.278	3.449	0.091
30.999	113.315	79.995	19.991	99.824	20.279	3.372	0.141
31.499	113.408	79.995	19.992	99.828	20.277	3.530	0.184
31.999	113.424	79.995	19.991	99.829	20.277	3.550	0.149
32.499	113.553	79.996	19.992	99.828	20.277	3.550	0.127
32.999	113.567	79.996	19.991	99.826	20.278	3.407	0.144
33.499	113.642	79.997	19.990	99.824	20.274	3.804	0.116
33.999	113.730	79.996	19.991	99.823	20.276	3.639	0.126
34.499	113.843	79.997	19.990	99.821	20.275	3.693	0.182
35.000	113.915	79.996	19.991	99.817	20.274	3.747	0.194
35.501	113.999	79.996	19.991	99.816	20.277	3.488	0.170
36.000	114.095	79.996	19.990	99.815	20.274	3.806	0.167
36.500	114.152	79.997	19.992	99.816	20.275	3.665	0.167
37.001	114.238	79.995	19.993	99.811	20.277	3.550	0.148
37.500	114.323	79.995	19.992	99.808	20.273	3.838	0.157
38.000	114.409	79.996	19.992	99.805	20.273	3.851	0.171
38.500	114.538	79.996	19.992	99.804	20.273	3.856	0.193
38.999	114.628	79.994	19.991	99.803	20.273	3.861	0.218
39.499	114.741	79.995	19.992	99.811	20.272	4.007	0.211
39.999	114.817	79.995	19.992	99.818	20.271	4.076	0.196
40.499	114.931	79.994	19.991	99.826	20.273	3.879	0.189
40.999	115.035	79.996	19.991	99.833	20.271	4.069	0.204
41.499	115.157	79.995	19.991	99.836	20.272	3.968	0.222
41.999	115.237	79.994	19.991	99.838	20.273	3.879	0.214
42.499	115.364	79.995	19.991	99.840	20.274	3.753	0.204
42.999	115.466	79.994	19.992	99.846	20.271	4.024	0.219
43.499	115.571	79.994	19.991	99.850	20.273	3.866	0.218
43.999	115.666	79.993	19.993	99.850	20.270	4.169	0.203
44.499	115.810	79.992	19.992	99.848	20.269	4.271	0.219
45.000	115.931	79.992	19.992	99.847	20.270	4.110	0.252
45.500	116.033	79.993	19.993	99.840	20.273	3.861	0.244
46.000	116.149	79.994	19.992	99.836	20.273	3.867	0.221
46.500	116.272	79.993	19.992	99.833	20.273	3.887	0.229
47.000	116.371	79.993	19.991	99.833	20.273	3.902	0.231
47.500	116.477	79.993	19.991	99.835	20.270	4.171	0.214
48.000	116.597	79.992	19.991	99.837	20.268	4.294	0.215
48.500	116.739	79.993	19.991	99.842	20.270	4.111	0.244
49.000	116.869	79.993	19.991	99.850	20.268	4.343	0.267
49.500	116.986	79.993	19.991	99.858	20.271	4.042	0.260
50.000	117.071	79.993	19.992	99.865	20.267	4.431	0.224
50.500	117.268	79.993	19.991	99.870	20.268	4.291	0.242
50.999	117.361	79.994	19.992	99.872	20.269	4.192	0.285
51.499	117.510	79.993	19.991	99.872	20.268	4.357	0.266
52.000	117.645	79.994	19.991	99.872	20.267	4.439	0.263
52.501	117.749	79.994	19.991	99.871	20.271	4.066	0.262
53.001	117.880	79.993	19.990	99.869	20.272	3.960	0.237
53.501	118.047	79.994	19.992	99.870	20.268	4.301	0.267
54.000	118.152	79.994	19.991	99.869	20.270	4.130	0.285
54.500	118.299	79.992	19.990	99.864	20.272	3.955	0.262
55.000	118.405	79.992	19.991	99.864	20.265	4.585	0.253
55.499	118.564	79.993	19.990	99.866	20.268	4.355	0.259
56.000	118.709	79.992	19.990	99.866	20.268	4.355	0.284
56.500	118.873	79.994	19.989	99.869	20.270	4.165	0.306
56.999	118.985	79.993	19.990	99.878	20.268	4.325	0.293
57.499	119.152	79.993	19.990	99.882	20.265	4.582	0.277
57.999	119.314	79.994	19.991	99.886	20.268	4.349	0.304
58.499	119.470	79.994	19.988	99.890	20.265	4.628	0.324
58.999	119.617	79.995	19.991	99.890	20.270	4.098	0.310
59.499	119.773	79.994	19.990	99.888	20.267	4.441	0.302
59.999	119.933	79.995	19.991	99.886	20.269	4.273	0.309
60.499	120.118	79.994	19.990	99.880	20.270	4.170	0.330
60.999	120.248	79.994	19.991	99.876	20.266	4.459	0.330
61.500	120.391	79.993	19.991	99.874	20.268	4.308	0.294
62.000	120.568	79.993	19.991	99.872	20.268	4.355	0.297
62.499	120.718	79.994	19.991	99.872	20.268	4.281	0.324
62.999	120.850	79.994	19.991	99.874	20.265	4.609	0.305
63.500	121.055	79.995	19.991	99.874	20.262	4.863	0.309
64.001	121.207	79.995	19.990	99.874	20.264	4.707	0.347
64.500	121.359	79.993	19.991	99.875	20.266	4.505	0.331
64.999	121.514	79.993	19.991	99.875	20.261	4.967	0.305
65.500	121.714	79.992	19.992	99.867	20.261	4.999	0.331
66.000	121.863	79.993	19.991	99.843	20.263	4.796	0.352
66.499	122.006	79.992	19.992	99.823	20.263	4.784	0.321
66.999	122.199	79.993	19.990	99.812	20.265	4.589	0.315
67.499	122.346	79.993	19.990	99.805	20.262	4.883	0.338
67.999	122.549	79.994	19.990	99.812	20.262	4.907	0.345
68.499	122.701	79.993	19.990	99.836	20.264	4.705	0.352
68.999	122.849	79.994	19.990	99.856	20.262	4.873	0.327
69.499	123.017	79.993	19.990	99.865	20.263	4.802	0.308
69.999	123.215	79.994	19.990	99.872	20.262	4.843	0.341
70.500	123.386	79.993	19.991	99.873	20.260	5.071	0.368
71.000	123.551	79.993	19.989	99.875	20.262	4.844	0.352
71.500	123.757	79.993	19.991	99.877	20.260	5.014	0.353
72.000	123.910	79.992	19.991	99.882	20.261	4.990	0.365
72.499	124.106	79.994	19.990	99.884	20.260	5.023	0.354
72.999	124.294	79.994	19.990	99.884	20.260	5.017	0.366
73.499	124.480	79.993	19.990	99.883	20.263	4.759	0.379
74.000	124.648	79.993	19.991	99.881	20.261	4.920	0.364
74.500	124.838	79.993	19.991	99.877	20.262	4.892	0.356
74.999	124.987	79.992	19.992	99.875	20.258	5.198	0.348
75.499	125.245	79.993	19.991	99.875	20.261	4.964	0.373
75.999	125.391	79.992	19.991	99.877	20.260	5.038	0.406
76.499	125.569	79.992	19.991	99.879	20.262	4.838	0.364
76.999	125.766	79.993	19.991	99.879	20.259	5.112	0.349
77.500	125.929	79.994	19.992	99.878	20.263	4.815	0.368
78.000	126.132	79.992	19.990	99.879	20.261	4.956	0.363
78.500	126.326	79.993	19.991	99.881	20.260	5.010	0.382
79.000	126.514	79.992	19.990	99.880	20.260	5.035	0.389
79.500	126.702	79.993	19.990	99.882	20.258	5.217	0.379
80.000	126.867	79.992	19.990	99.884	20.261	4.948	0.365
80.500	127.058	79.992	19.991	99.885	20.259	5.118	0.355
81.000	127.282	79.994	19.990	99.883	20.258	5.251	0.385
81.499	127.471	79.993	19.991	99.888	20.259	5.125	0.414
81.999	127.659	79.994	19.990	99.891	20.263	4.782	0.395
82.499	127.870	79.993	19.990	99.897	20.263	4.770	0.388
82.999	128.050	79.993	19.991	99.903	20.263	4.807	0.395
83.500	128.265	79.993	19.991	99.920	20.265	4.593	0.393
84.000	128.434	79.994	19.990	99.954	20.261	4.936	0.390
84.500	128.648	79.995	19.990	99.968	20.262	4.857	0.384
85.000	128.896	79.994	19.990	99.974	20.263	4.798	0.423
85.500	129.059	79.994	19.992	99.977	20.263	4.771	0.436
86.000	129.228	79.995	19.991	99.966	20.266	4.499	0.371
86.499	129.470	79.993	19.989	99.935	20.265	4.615	0.371
86.999	129.678	79.995	19.990	99.923	20.263	4.754	0.430
87.500	129.867	79.994	19.991	99.918	20.264	4.687	0.424
88.000	130.098	79.996	19.990	99.918	20.263	4.756	0.409
88.499	130.240	79.995	19.991	99.915	20.262	4.882	0.397
88.999	130.495	79.994	19.991	99.914	20.260	5.002	0.385
89.499	130.691	79.995	19.990	99.914	20.261	5.000	0.424
89.999	130.897	79.995	19.990	99.911	20.256	5.402	0.426
90.500	131.131	79.996	19.991	99.904	20.262	4.867	0.421
91.000	131.357	79.995	19.989	99.900	20.263	4.795	0.450
91.499	131.511	79.994	19.990	99.896	20.261	4.921	0.420
91.999	131.749	79.996	19.991	99.892	20.260	5.054	0.386
92.499	131.939	79.994	19.990	99.892	20.258	5.205	0.410
92.999	132.162	79.996	19.990	99.894	20.257	5.284	0.421
93.499	132.346	79.994	19.990	99.898	20.257	5.289	0.410
93.999	132.563	79.995	19.991	99.902	20.257	5.274	0.404
94.500	132.796	79.997	19.990	99.905	20.259	5.178	0.426
95.000	132.977	79.996	19.990	99.906	20.254	5.566	0.432
95.499	133.254	79.995	19.990	99.909	20.255	5.453	0.436
95.999	133.473	79.995	19.991	99.910	20.253	5.722	0.476
96.499	133.686	79.995	19.991	99.910	20.256	5.409	0.464
96.999	133.927	79.996	19.991	99.909	20.256	5.431	0.444
97.500	134.160	79.995	19.991	99.909	20.256	5.399	0.464
98.000	134.376	79.994	19.991	99.910	20.256	5.416	0.461
98.499	134.542	79.994	19.992	99.910	20.255	5.488	0.415
98.999	134.766	79.994	19.990	99.907	20.255	5.483	0.386
99.499	135.016	79.995	19.991	99.904	20.255	5.483	0.432
99.999	135.233	79.994	19.992	99.902	20.255	5.540	0.470
100.500	135.481	79.994	19.993	99.901	20.255	5.486	0.466
101.000	135.690	79.994	19.992	99.900	20.254	5.601	0.461
101.499	135.914	79.994	19.991	99.904	20.254	5.613	0.445
101.999	136.137	79.996	19.992	99.908	20.253	5.675	0.440
102.500	136.344	79.994	19.992	99.910	20.252	5.771	0.439
103.000	136.550	79.994	19.993	99.910	20.255	5.541	0.421
103.499	136.789	79.995	19.991	99.910	20.253	5.654	0.429
103.999	137.035	79.995	19.992	99.909	20.251	5.871	0.465
104.500	137.287	79.994	19.991	99.909	20.250	5.918	0.491
105.001	137.504	79.993	19.992	99.909	20.251	5.881	0.484
105.501	137.728	79.996	19.991	99.911	20.252	5.790	0.455
106.000	137.993	79.993	19.992	99.918	20.251	5.888	0.465
106.499	138.190	79.994	19.991	99.926	20.253	5.689	0.475
106.999	138.428	79.995	19.991	99.934	20.252	5.736	0.448
107.499	138.629	79.994	19.991	99.941	20.254	5.607	0.437
107.999	138.865	79.993	19.991	99.947	20.256	5.425	0.438
108.499	139.115	79.994	19.992	99.946	20.255	5.521	0.461
108.999	139.353	79.995	19.991	99.944	20.255	5.501	0.487
109.499	139.593	79.995	19.991	99.942	20.256	5.432	0.483
109.999	139.798	79.996	19.992	99.942	20.255	5.467	0.461
110.499	140.100	79.995	19.992	99.940	20.258	5.257	0.476
110.999	140.330	79.995	19.991	99.942	20.256	5.413	0.520
111.500	140.534	79.994	19.991	99.944	20.257	5.336	0.483
112.000	140.753	79.996	19.992	99.942	20.255	5.457	0.428
112.499	141.018	79.995	19.991	99.936	20.255	5.536	0.453
112.999	141.249	79.995	19.991	99.931	20.254	5.573	0.490
113.499	141.514	79.995	19.991	99.924	20.255	5.513	0.497
113.999	141.732	79.996	19.990	99.917	20.254	5.600	0.490
114.499	141.959	79.996	19.990	99.913	20.258	5.264	0.464
114.999	142.211	79.995	19.991	99.912	20.254	5.548	0.462
115.500	142.468	79.997	19.990	99.912	20.251	5.832	0.494
116.000	142.678	79.997	19.990	99.911	20.253	5.664	0.488
116.499	142.927	79.996	19.990	99.911	20.254	5.563	0.463
116.999	143.162	79.995	19.991	99.913	20.250	5.982	0.471
117.500	143.419	79.995	19.991	99.914	20.252	5.787	0.487
118.000	143.668	79.996	19.991	99.915	20.251	5.869	0.499
118.499	143.894	79.996	19.991	99.917	20.253	5.635	0.491
118.999	144.161	79.997	19.990	99.917	20.251	5.823	0.484
119.499	144.402	79.996	19.991	99.916	20.254	5.560	0.501
119.999	144.650	79.994	19.992	99.915	20.253	5.678	0.498
120.499	144.887	79.996	19.992	99.919	20.252	5.785	0.487
120.999	145.149	79.994	19.991	99.918	20.251	5.883	0.492
121.500	145.450	79.995	19.991	99.918	20.252	5.796	0.530
122.000	145.667	79.993	19.992	99.917	20.253	5.680	0.540
122.499	145.934	79.995	19.991	99.916	20.256	5.438	0.501
122.999	146.142	79.994	19.991	99.911	20.255	5.541	0.479
123.500	146.391	79.994	19.992	99.913	20.254	5.543	0.466
124.000	146.658	79.995	19.992	99.913	20.254	5.629	0.487
124.500	146.928	79.993	19.991	99.913	20.255	5.538	0.527
125.000	147.173	79.992	19.991	99.913	20.257	5.338	0.526
125.499	147.419	79.993	19.992	99.913	20.253	5.637	0.503
125.999	147.668	79.993	19.992	99.911	20.252	5.792	0.493
126.499	147.896	79.992	19.992	99.910	20.255	5.461	0.486
126.999	148.186	79.992	19.993	99.909	20.253	5.661	0.497
127.499	148.444	79.993	19.992	99.912	20.255	5.541	0.533
127.999	148.723	79.992	19.992	99.913	20.255	5.506	0.543
128.500	148.948	79.993	19.992	99.915	20.254	5.544	0.521
129.000	149.194	79.993	19.993	99.921	20.253	5.674	0.488
129.500	149.467	79.992	19.992	99.930	20.252	5.770	0.495
130.000	149.662	79.992	19.992	99.937	20.252	5.724	0.493
130.500	149.939	79.993	19.991	99.942	20.255	5.472	0.470
131.000	150.191	79.992	19.993	99.949	20.255	5.508	0.501
131.500	150.434	79.992	19.992	99.951	20.253	5.700	0.512
132.000	150.694	79.993	19.992	99.949	20.253	5.685	0.500
132.500	150.930	79.993	19.992	99.943	20.254	5.599	0.500
133.000	151.221	79.993	19.991	99.936	20.251	5.866	0.512
133.500	151.467	79.992	19.991	99.928	20.254	5.578	0.532
134.000	151.729	79.993	19.992	99.919	20.253	5.690	0.522
134.500	151.961	79.993	19.993	99.914	20.252	5.805	0.501
135.000	152.233	79.993	19.992	99.913	20.254	5.552	0.499
135.500	152.480	79.993	19.990	99.913	20.254	5.560	0.511
136.000	152.729	79.992	19.992	99.913	20.251	5.846	0.508
136.500	152.970	79.993	19.993	99.913	20.252	5.735	0.493
137.000	153.246	79.995	19.992	99.912	20.254	5.575	0.504
137.500	153.484	79.993	19.991	99.909	20.250	5.935	0.515
138.000	153.723	79.993	19.990	99.909	20.249	6.054	0.496
138.500	154.005	79.994	19.991	99.916	20.250	5.962	0.499
139.000	154.262	79.994	19.991	99.915	20.251	5.866	0.530
139.500	154.506	79.993	19.991	99.893	20.249	6.002	0.520
140.000	154.733	79.993	19.992	99.877	20.250	5.903	0.486
140.500	155.016	79.994	19.992	99.863	20.253	5.676	0.490
141.000	155.295	79.994	19.990	99.848	20.249	6.002	0.537
141.500	155.547	79.994	19.991	99.840	20.255	5.521	0.546
142.000	155.774	79.994	19.991	99.860	20.254	5.622	0.504
142.500	156.027	79.994	19.991	99.897	20.258	5.200	0.480
143.000	156.255	79.994	19.991	99.933	20.257	5.341	0.481
143.500	156.520	79.993	19.991	99.949	20.255	5.471	0.487
144.000	156.792	79.994	19.991	99.958	20.256	5.412	0.515
144.500	157.077	79.994	19.990	99.959	20.256	5.365	0.547
145.001	157.321	79.995	19.991	99.936	20.257	5.321	0.543
145.501	157.571	79.994	19.991	99.913	20.253	5.659	0.511
146.000	157.810	79.994	19.991	99.905	20.254	5.565	0.491
146.500	158.061	79.994	19.990	99.902	20.256	5.375	0.490
147.000	158.283	79.993	19.991	99.904	20.251	5.844	0.482
147.500	158.573	79.995	19.991	99.907	20.252	5.723	0.492
148.000	158.808	79.993	19.990	99.907	20.253	5.715	0.518
148.500	159.078	79.994	19.991	99.908	20.256	5.412	0.515
149.000	159.294	79.995	19.992	99.909	20.255	5.489	0.496
149.500	159.595	79.994	19.991	99.910	20.254	5.600	0.502
150.000	159.821	79.994	19.990	99.910	20.253	5.656	0.522
150.500	160.087	79.995	19.991	99.911	20.255	5.528	0.510
151.000	160.369	79.995	19.990	99.911	20.254	5.580	0.520
151.500	160.595	79.994	19.991	99.910	20.253	5.678	0.528
152.000	160.870	79.993	19.991	99.910	20.249	6.011	0.504
152.500	161.118	79.994	19.991	99.910	20.252	5.780	0.512
153.000	161.373	79.993	19.990	99.910	20.250	5.913	0.514
153.500	161.617	79.994	19.991	99.910	20.253	5.674	0.501
154.000	161.885	79.995	19.990	99.910	20.253	5.654	0.505
154.500	162.126	79.996	19.990	99.910	20.253	5.669	0.510
155.000	162.393	79.995	19.991	99.910	20.252	5.730	0.508
155.500	162.683	79.994	19.992	99.910	20.256	5.428	0.532
156.000	162.936	79.995	19.991	99.909	20.254	5.603	0.550
156.500	163.195	79.993	19.990	99.908	20.251	5.840	0.528
157.000	163.434	79.993	19.991	99.907	20.254	5.599	0.505
157.500	163.723	79.994	19.990	99.907	20.254	5.609	0.513
158.000	163.966	79.993	19.990	99.907	20.254	5.589	0.530
158.500	164.208	79.994	19.991	99.906	20.254	5.601	0.509
159.000	164.484	79.994	19.991	99.907	20.257	5.320	0.501
159.500	164.731	79.994	19.991	99.908	20.254	5.542	0.520
160.000	164.995	79.994	19.991	99.908	20.254	5.586	0.517
160.500	165.282	79.994	19.990	99.908	20.257	5.325	0.531
161.000	165.503	79.995	19.991	99.909	20.252	5.788	0.529
161.500	165.766	79.995	19.991	99.909	20.255	5.468	0.496
162.000	166.008	79.993	19.990	99.909	20.255	5.507	0.495
162.500	166.298	79.995	19.991	99.908	20.255	5.469	0.518
163.000	166.547	79.995	19.990	99.908	20.258	5.225	0.535
163.500	166.805	79.994	19.992	99.908	20.253	5.696	0.523
164.000	167.056	79.994	19.992	99.909	20.256	5.445	0.508
164.500	167.287	79.995	19.991	99.909	20.256	5.416	0.496
165.000	167.524	79.994	19.992	99.910	20.256	5.387	0.475
165.500	167.757	79.995	19.991	99.907	20.257	5.343	0.469
166.000	168.083	79.993	19.991	99.900	20.253	5.696	0.514
166.500	168.316	79.994	19.990	99.892	20.256	5.417	0.559
167.000	168.575	79.996	19.991	99.890	20.255	5.516	0.526
167.500	168.816	79.995	19.991	99.888	20.257	5.301	0.496
168.000	169.093	79.994	19.991	99.891	20.257	5.301	0.509
168.500	169.351	79.995	19.990	99.898	20.257	5.330	0.527
169.000	169.591	79.996	19.991	99.900	20.257	5.358	0.517
169.500	169.883	79.995	19.990	99.898	20.257	5.328	0.515
170.000	170.128	79.995	19.991	99.896	20.258	5.203	0.534
170.500	170.387	79.996	19.990	99.895	20.257	5.324	0.520
171.000	170.593	79.996	19.991	99.895	20.254	5.615	0.485
171.500	170.869	79.996	19.990	99.894	20.254	5.619	0.474
172.000	171.121	79.997	19.992	99.891	20.255	5.535	0.505
172.500	171.349	79.996	19.990	99.889	20.255	5.531	0.504
173.000	171.614	79.996	19.991	99.883	20.252	5.728	0.487
173.500	171.879	79.997	19.991	99.874	20.256	5.420	0.512
174.000	172.122	79.997	19.991	99.873	20.253	5.679	0.519
174.500	172.364	79.995	19.991	99.873	20.255	5.521	0.496
175.000	172.657	79.996	19.990	99.874	20.254	5.568	0.510
175.500	172.898	79.997	19.989	99.882	20.249	6.032	0.535
176.000	173.143	79.995	19.991	99.893	20.254	5.585	0.510
176.500	173.413	79.995	19.990	99.900	20.252	5.755	0.500
177.000	173.647	79.996	19.991	99.907	20.254	5.605	0.510
177.500	173.927	79.996	19.990	99.910	20.252	5.765	0.509
178.000	174.149	79.995	19.990	99.907	20.253	5.639	0.508
178.500	174.426	79.995	19.989	99.904	20.253	5.642	0.501
179.000	174.662	79.996	19.990	99.901	20.251	5.856	0.506
179.500	174.966	79.995	19.991	99.902	20.253	5.647	0.526
180.000	175.182	79.996	19.991	99.908	20.253	5.706	0.530
180.500	175.432	79.996	19.990	99.912	20.251	5.878	0.493
181.000	175.658	79.995	19.990	99.915	20.252	5.758	0.471
181.500	175.929	79.995	19.991	99.916	20.253	5.713	0.487
182.000	176.187	79.995	19.990	99.915	20.254	5.575	0.513
182.500	176.425	79.995	19.991	99.911	20.254	5.587	0.512
183.000	176.698	79.995	19.991	99.909	20.257	5.300	0.503
183.500	176.956	79.996	19.991	99.910	20.254	5.559	0.521
184.000	177.241	79.995	19.991	99.913	20.253	5.670	0.537
184.500	177.441	79.994	19.991	99.914	20.257	5.340	0.515
185.000	177.696	79.994	19.991	99.914	20.254	5.572	0.470
185.500	177.902	79.994	19.990	99.913	20.254	5.557	0.458
186.000	178.192	79.995	19.991	99.913	20.253	5.643	0.478
186.500	178.445	79.994	19.991	99.913	20.256	5.411	0.519
187.000	178.705	79.994	19.992	99.912	20.254	5.586	0.528
187.500	178.933	79.995	19.991	99.911	20.254	5.612	0.501
188.000	179.170	79.993	19.992	99.910	20.255	5.539	0.477
188.500	179.413	79.995	19.991	99.911	20.259	5.149	0.473
189.000	179.678	79.994	19.992	99.911	20.258	5.204	0.494
189.500	179.911	79.995	19.991	99.910	20.256	5.445	0.502
190.000	180.153	79.994	19.991	99.909	20.254	5.580	0.486
190.500	180.464	79.995	19.991	99.910	20.252	5.772	0.514
191.000	180.673	79.995	19.993	99.910	20.255	5.470	0.537
191.500	180.913	79.996	19.991	99.911	20.256	5.381	0.485
192.000	181.166	79.995	19.992	99.913	20.255	5.511	0.471
192.500	181.427	79.994	19.991	99.912	20.258	5.257	0.503
193.000	181.710	79.994	19.992	99.908	20.255	5.479	0.529
193.500	181.926	79.995	19.991	99.900	20.254	5.606	0.521
194.000	182.142	79.996	19.989	99.891	20.256	5.436	0.465
194.500	182.392	79.996	19.991	99.890	20.257	5.303	0.449
195.000	182.678	79.995	19.991	99.892	20.256	5.431	0.501
195.500	182.944	79.995	19.990	99.894	20.259	5.143	0.544
196.000	183.185	79.996	19.991	99.895	20.256	5.402	0.529
196.500	183.456	79.996	19.991	99.898	20.253	5.688	0.509
197.000	183.680	79.997	19.991	99.895	20.253	5.658	0.504
197.500	183.958	79.995	19.991	99.892	20.255	5.478	0.498
198.000	184.193	79.995	19.991	99.895	20.255	5.529	0.508
198.500	184.450	79.996	19.992	99.909	20.255	5.496	0.503
199.000	184.708	79.996	19.991	99.921	20.257	5.344	0.504
199.500	184.930	79.995	19.991	99.930	20.255	5.509	0.497
200.000	185.214	79.995	19.991	99.933	20.253	5.635	0.493
200.500	185.465	79.995	19.990	99.926	20.255	5.465	0.521
201.000	185.723	79.995	19.990	99.912	20.258	5.191	0.522
201.500	185.965	79.996	19.990	99.897	20.256	5.436	0.504
202.000	186.250	79.996	19.991	99.884	20.256	5.394	0.514
202.500	186.479	79.995	19.991	99.875	20.254	5.616	0.521
203.000	186.746	79.995	19.992	99.872	20.252	5.764	0.505
203.500	186.968	79.996	19.991	99.872	20.255	5.490	0.492
204.000	187.176	79.995	19.991	99.876	20.255	5.517	0.459
204.500	187.450	79.994	19.991	99.883	20.255	5.503	0.456
205.000	187.707	79.995	19.991	99.891	20.254	5.603	0.506
205.500	187.952	79.994	19.991	99.896	20.255	5.519	0.516
206.000	188.207	79.993	19.991	99.901	20.253	5.719	0.501
206.500	188.476	79.993	19.991	99.903	20.251	5.887	0.512
207.000	188.719	79.994	19.991	99.903	20.252	5.796	0.518
207.500	188.930	79.994	19.991	99.897	20.251	5.898	0.483
208.000	189.195	79.994	19.990	99.894	20.251	5.876	0.465
208.500	189.454	79.993	19.991	99.889	20.250	5.950	0.500
209.000	189.694	79.994	19.993	99.882	20.251	5.896	0.512
209.500	189.913	79.994	19.991	99.873	20.251	5.812	0.479
210.000	190.190	79.995	19.991	99.872	20.250	5.938	0.477
210.500	190.432	79.993	19.991	99.874	20.247	6.204	0.507
211.000	190.644	79.993	19.992	99.876	20.253	5.711	0.486
211.500	190.938	79.993	19.991	99.878	20.252	5.748	0.480
212.000	191.156	79.993	19.990	99.882	20.252	5.747	0.509
212.500	191.429	79.992	19.991	99.888	20.250	5.939	0.502
213.000	191.637	79.994	19.992	99.886	20.249	6.040	0.486
213.500	191.870	79.993	19.991	99.891	20.252	5.754	0.461
214.000	192.181	79.993	19.991	99.896	20.250	5.937	0.492
214.500	192.402	79.993	19.991	99.899	20.248	6.104	0.538
215.000	192.684	79.992	19.993	99.895	20.257	5.357	0.517
215.500	192.913	79.993	19.992	99.895	20.253	5.709	0.507
216.000	193.152	79.993	19.991	99.889	20.253	5.677	0.490
216.500	193.380	79.993	19.991	99.885	20.253	5.682	0.468
217.000	193.661	79.993	19.993	99.886	20.250	5.939	0.487
217.500	193.922	79.994	19.992	99.887	20.251	5.821	0.525
218.000	194.167	79.992	19.993	99.892	20.251	5.887	0.524
218.500	194.371	79.993	19.992	99.899	20.251	5.824	0.478
219.000	194.628	79.994	19.994	99.903	20.254	5.584	0.455
219.500	194.871	79.994	19.991	99.905	20.253	5.718	0.480
220.000	195.100	79.993	19.993	99.909	20.252	5.809	0.486
220.500	195.382	79.993	19.992	99.910	20.250	5.947	0.492
221.000	195.601	79.995	19.992	99.910	20.252	5.745	0.506
221.500	195.840	79.993	19.993	99.910	20.251	5.871	0.480
222.000	196.109	79.993	19.992	99.910	20.254	5.587	0.483
222.500	196.350	79.993	19.992	99.907	20.254	5.592	0.509
223.000	196.589	79.995	19.992	99.900	20.248	6.085	0.495
223.500	196.843	79.994	19.993	99.894	20.252	5.793	0.487
224.000	197.116	79.994	19.992	99.893	20.252	5.798	0.510
224.500	197.319	79.994	19.994	99.892	20.249	6.019	0.501
225.000	197.561	79.995	19.991	99.892	20.249	6.031	0.460
225.500	197.805	79.993	19.993	99.891	20.251	5.817	0.465
226.000	198.063	79.996	19.993	99.892	20.248	6.118	0.494
226.500	198.316	79.993	19.992	99.888	20.248	6.153	0.506
227.000	198.544	79.994	19.992	99.883	20.250	5.947	0.496
227.500	198.815	79.994	19.993	99.883	20.250	5.902	0.490
228.000	199.072	79.994	19.991	99.890	20.251	5.833	0.514
228.500	199.273	79.995	19.991	99.892	20.252	5.740	0.493
229.000	199.547	79.994	19.991	99.896	20.250	5.925	0.467
229.500	199.809	79.995	19.991	99.902	20.249	6.056	0.506
230.000	200.027	79.994	19.991	99.903	20.247	6.189	0.508
230.500	200.289	79.994	19.991	99.904	20.251	5.821	0.480
231.000	200.526	79.995	19.992	99.905	20.250	5.954	0.490
231.500	200.769	79.993	19.990	99.907	20.249	6.063	0.490
232.000	201.046	79.993	19.991	99.908	20.249	6.031	0.500
232.500	201.260	79.995	19.992	99.909	20.249	6.034	0.506
233.000	201.531	79.993	19.991	99.907	20.250	5.987	0.488
233.500	201.760	79.994	19.991	99.906	20.252	5.730	0.493
234.000	202.025	79.994	19.990	99.899	20.250	5.910	0.497
234.500	202.271	79.995	19.992	99.891	20.251	5.898	0.503
235.000	202.478	79.993	19.991	99.882	20.253	5.708	0.482
235.500	202.749	79.993	19.991	99.874	20.254	5.557	0.465
236.000	203.025	79.994	19.991	99.871	20.252	5.797	0.512
236.500	203.254	79.993	19.991	99.876	20.250	5.959	0.526
237.000	203.490	79.995	19.991	99.880	20.252	5.801	0.485
237.500	203.774	79.993	19.990	99.885	20.251	5.875	0.493
238.000	203.995	79.993	19.991	99.895	20.249	6.010	0.512
238.500	204.215	79.992	19.992	99.900	20.252	5.729	0.473
239.000	204.464	79.993	19.991	99.900	20.249	6.001	0.455
239.500	204.721	79.993	19.991	99.903	20.247	6.186	0.487
240.000	204.954	79.993	19.992	99.904	20.249	6.006	0.498
240.500	205.203	79.993	19.991	99.903	20.247	6.179	0.486
241.000	205.499	79.993	19.991	99.901	20.252	5.784	0.513
241.500	205.743	79.993	19.992	99.901	20.250	5.976	0.543
242.000	206.006	79.994	19.991	99.902	20.250	5.961	0.524
242.500	206.269	79.993	19.990	99.904	20.250	5.946	0.516
243.000	206.516	79.993	19.991	99.906	20.244	6.503	0.518
243.500	206.756	79.993	19.990	99.907	20.247	6.227	0.499
244.000	206.997	79.994	19.991	99.908	20.247	6.246	0.484
244.500	207.239	79.992	19.991	99.907	20.246	6.305	0.482
245.000	207.514	79.993	19.991	99.905	20.247	6.187	0.500
245.500	207.750	79.993	19.991	99.903	20.249	6.077	0.514
246.000	207.986	79.994	19.990	99.904	20.245	6.361	0.492
246.500	208.241	79.994	19.991	99.906	20.244	6.492	0.482
247.000	208.504	79.993	19.991	99.907	20.246	6.285	0.505
247.500	208.750	79.993	19.991	99.902	20.247	6.260	0.513
248.000	208.989	79.994	19.991	99.896	20.248	6.145	0.496
248.500	209.225	79.994	19.991	99.894	20.244	6.488	0.480
249.000	209.526	79.995	19.991	99.890	20.244	6.507	0.506
249.500	209.764	79.994	19.990	99.887	20.243	6.537	0.538
250.000	210.011	79.995	19.991	99.892	20.246	6.344	0.512
250.500	210.268	79.994	19.991	99.899	20.247	6.215	0.495
251.000	210.515	79.995	19.991	99.899	20.246	6.268	0.504
251.500	210.727	79.994	19.990	99.899	20.244	6.444	0.481
252.000	210.992	79.995	19.991	99.899	20.246	6.304	0.468
252.500	211.257	79.995	19.991	99.894	20.245	6.377	0.503
253.000	211.539	79.995	19.991	99.889	20.244	6.464	0.538
253.500	211.756	79.995	19.992	99.884	20.246	6.312	0.523
254.000	212.010	79.994	19.990	99.880	20.246	6.278	0.486
254.500	212.234	79.994	19.990	99.876	20.247	6.257	0.474
255.000	212.463	79.994	19.991	99.876	20.249	6.079	0.465
255.500	212.733	79.995	19.991	99.875	20.245	6.424	0.476
256.000	212.986	79.996	19.991	99.880	20.241	6.719	0.511
256.500	213.240	79.996	19.991	99.887	20.242	6.643	0.515
257.000	213.460	79.996	19.990	99.893	20.242	6.680	0.491
257.500	213.671	79.995	19.991	99.896	20.240	6.889	0.453
258.000	213.942	79.995	19.990	99.902	20.240	6.823	0.457
258.500	214.209	79.996	19.991	99.905	20.244	6.466	0.510
259.000	214.490	79.994	19.990	99.906	20.242	6.670	0.543
259.500	214.686	79.994	19.991	99.916	20.243	6.614	0.512
260.000	214.933	79.994	19.990	99.900	20.243	6.574	0.460
260.500	215.189	79.995	19.990	99.878	20.241	6.766	0.473
261.000	215.423	79.995	19.990	99.861	20.243	6.621	0.496
261.500	215.672	79.993	19.991	99.851	20.242	6.633	0.487
262.000	215.944	79.995	19.991	99.836	20.241	6.732	0.502
262.500	216.175	79.993	19.991	99.851	20.244	6.478	0.512
263.000	216.430	79.996	19.991	99.891	20.243	6.571	0.494
263.500	216.690	79.995	19.990	99.947	20.241	6.712	0.500
264.000	216.945	79.994	19.992	99.969	20.245	6.379	0.515
264.500	217.188	79.994	19.991	99.978	20.239	6.951	0.507
265.000	217.426	79.993	19.990	99.981	20.240	6.865	0.490
265.500	217.644	79.994	19.990	99.965	20.241	6.764	0.468
266.000	217.954	79.994	19.991	99.927	20.238	6.986	0.492
266.500	218.212	79.994	19.990	99.913	20.240	6.862	0.548
267.000	218.462	79.993	19.990	99.904	20.242	6.636	0.538
267.500	218.695	79.993	19.991	99.905	20.240	6.803	0.496
268.000	218.965	79.995	19.990	99.905	20.242	6.645	0.493
268.500	219.178	79.995	19.991	99.904	20.240	6.882	0.493
269.000	219.433	79.995	19.991	99.906	20.241	6.747	0.475
269.500	219.712	79.995	19.990	99.911	20.242	6.628	0.501
270.000	219.918	79.995	19.990	99.911	20.244	6.525	0.509
270.500	220.171	79.995	19.991	99.911	20.244	6.512	0.472
271.000	220.417	79.995	19.991	99.911	20.241	6.734	0.479
271.500	220.650	79.996	19.990	99.910	20.241	6.717	0.489
272.000	220.901	79.996	19.991	99.910	20.241	6.784	0.482
272.500	221.184	79.996	19.991	99.910	20.242	6.648	0.509
273.000	221.411	79.996	19.991	99.908	20.240	6.840	0.522
273.500	221.695	79.997	19.990	99.907	20.238	7.067	0.510
274.000	221.931	79.997	19.991	99.905	20.241	6.753	0.515
274.500	222.154	79.997	19.991	99.903	20.242	6.630	0.489
275.000	222.439	79.996	19.991	99.900	20.237	7.074	0.483
275.500	222.669	79.996	19.991	99.901	20.242	6.654	0.511
276.000	222.903	79.995	19.991	99.901	20.241	6.785	0.490
276.500	223.146	79.995	19.990	99.903	20.240	6.827	0.471
277.000	223.388	79.996	19.991	99.906	20.239	6.931	0.481
277.500	223.645	79.996	19.990	99.907	20.242	6.699	0.492
278.000	223.921	79.997	19.991	99.908	20.240	6.849	0.516
278.500	224.157	79.996	19.991	99.908	20.241	6.800	0.522
279.000	224.374	79.997	19.991	99.908	20.238	6.998	0.482
279.500	224.625	79.996	19.991	99.907	20.241	6.751	0.460
280.000	224.879	79.997	19.991	99.907	20.245	6.393	0.487
280.500	225.136	79.998	19.991	99.906	20.243	6.580	0.508
281.000	225.387	79.996	19.992	99.907	20.242	6.642	0.509
281.500	225.653	79.996	19.992	99.907	20.241	6.743	0.512
282.000	225.907	79.997	19.992	99.908	20.238	7.019	0.519
282.500	226.132	79.996	19.992	99.907	20.238	7.032	0.500
283.000	226.391	79.995	19.992	99.908	20.241	6.774	0.481
283.500	226.638	79.995	19.991	99.907	20.240	6.875	0.495
284.000	226.906	79.996	19.991	99.906	20.238	7.006	0.510
284.500	227.176	79.996	19.991	99.902	20.237	7.161	0.526
285.000	227.437	79.994	19.992	99.898	20.233	7.442	0.535
285.500	227.658	79.994	19.991	99.896	20.235	7.311	0.507
286.000	227.928	79.995	19.990	99.894	20.235	7.262	0.486
286.500	228.176	79.994	19.991	99.894	20.236	7.188	0.504
287.000	228.442	79.995	19.991	99.894	20.237	7.146	0.516
287.500	228.705	79.994	19.991	99.893	20.237	7.112	0.521
288.000	228.938	79.993	19.991	99.893	20.235	7.329	0.512
288.500	229.181	79.993	19.992	99.895	20.238	6.998	0.486
289.000	229.447	79.993	19.992	99.896	20.237	7.149	0.493
289.500	229.671	79.993	19.992	99.901	20.238	6.993	0.500
290.000	229.961	79.993	19.991	99.907	20.241	6.790	0.502
290.500	230.199	79.994	19.992	99.907	20.239	6.921	0.521
291.000	230.490	79.993	19.991	99.901	20.237	7.142	0.529
291.500	230.728	79.993	19.990	99.894	20.237	7.118	0.529
292.000	230.959	79.994	19.991	99.891	20.237	7.111	0.499
292.500	231.188	79.994	19.993	99.891	20.237	7.099	0.465
293.000	231.443	79.993	19.992	99.893	20.237	7.077	0.472
293.500	231.721	79.994	19.992	99.897	20.237	7.118	0.508
294.000	232.001	79.993	19.990	99.905	20.237	7.108	0.546
294.500	232.250	79.993	19.991	99.907	20.238	6.983	0.544
295.000	232.432	79.993	19.991	99.907	20.238	7.030	0.480
295.500	232.730	79.994	19.991	99.905	20.239	6.934	0.455
296.000	232.938	79.993	19.992	99.906	20.241	6.777	0.493
296.500	233.221	79.993	19.991	99.906	20.241	6.745	0.498
297.000	233.498	79.992	19.991	99.907	20.239	6.942	0.526
297.500	233.702	79.992	19.991	99.908	20.241	6.776	0.521
298.000	233.960	79.993	19.991	99.910	20.242	6.692	0.472
298.500	234.199	79.993	19.992	99.911	20.241	6.773	0.479
299.000	234.426	79.992	19.992	99.911	20.241	6.713	0.481
299.500	234.683	79.993	19.992	99.911	20.240	6.871	0.476
300.000	234.970	79.993	19.992	99.911	20.239	6.958	0.514
300.500	235.202	79.993	19.994	99.905	20.237	7.158	0.531
301.000	235.450	79.993	19.992	99.898	20.240	6.832	0.500
301.500	235.694	79.993	19.993	99.890	20.241	6.751	0.486
302.000	235.929	79.993	19.993	99.887	20.240	6.872	0.485
302.500	236.188	79.992	19.992	99.887	20.242	6.672	0.486
303.000	236.447	79.992	19.993	99.892	20.239	6.914	0.505
303.500	236.735	79.992	19.992	99.898	20.238	7.018	0.532
304.000	236.979	79.992	19.992	99.899	20.242	6.690	0.540
304.500	237.226	79.993	19.992	99.897	20.240	6.867	0.512
305.000	237.454	79.992	19.991	99.897	20.239	6.981	0.483
305.500	237.714	79.991	19.992	99.898	20.243	6.608	0.481
306.000	237.978	79.992	19.993	99.901	20.236	7.166	0.506
306.500	238.233	79.993	19.992	99.908	20.239	6.914	0.522
307.000	238.475	79.993	19.993	99.915	20.241	6.795	0.508
307.500	238.694	79.992	19.993	99.915	20.237	7.135	0.479
308.000	238.938	79.994	19.992	99.913	20.239	6.938	0.462
308.500	239.196	79.992	19.992	99.907	20.240	6.854	0.483
309.000	239.437	79.994	19.991	99.900	20.239	6.938	0.500
309.500	239.724	79.992	19.993	99.895	20.239	6.906	0.514
310.000	239.968	79.993	19.993	99.893	20.238	6.983	0.529
310.500	240.195	79.993	19.992	99.890	20.238	6.986	0.501
311.000	240.428	79.992	19.992	99.892	20.240	6.862	0.466
311.500	240.702	79.993	19.991	99.898	20.241	6.756	0.483
312.000	240.954	79.993	19.993	99.898	20.242	6.687	0.516
312.500	241.223	79.994	19.993	99.899	20.240	6.804	0.524
313.000	241.433	79.992	19.992	99.903	20.243	6.593	0.500
313.500	241.678	79.993	19.990	99.904	20.241	6.787	0.467
314.000	241.959	79.992	19.992	99.905	20.241	6.729	0.491
314.500	242.217	79.993	19.992	99.907	20.240	6.798	0.533
315.000	242.476	79.993	19.991	99.909	20.238	7.049	0.528
315.500	242.711	79.992	19.990	99.908	20.241	6.722	0.505
316.000	242.932	79.993	19.992	99.904	20.238	7.033	0.475
316.500	243.198	79.993	19.991	99.904	20.238	7.033	0.472
317.000	243.450	79.993	19.991	99.903	20.236	7.223	0.503
317.500	243.706	79.993	19.991	99.899	20.236	7.192	0.513
318.000	243.917	79.991	19.991	99.894	20.237	7.108	0.487
318.500	244.188	79.992	19.991	99.892	20.235	7.266	0.475
319.000	244.416	79.993	19.992	99.889	20.241	6.805	0.491
319.500	244.683	79.992	19.991	99.891	20.240	6.857	0.497
320.000	244.927	79.993	19.990	99.895	20.243	6.593	0.502
320.500	245.176	79.993	19.991	99.899	20.241	6.788	0.502
321.000	245.414	79.993	19.991	99.903	20.242	6.678	0.490
321.500	245.657	79.991	19.991	99.906	20.245	6.421	0.484
322.000	245.920	79.991	19.990	99.906	20.238	6.986	0.493
322.500	246.164	79.991	19.991	99.908	20.239	6.939	0.507
323.000	246.411	79.992	19.991	99.905	20.239	6.922	0.499
323.500	246.617	79.992	19.991	99.878	20.238	7.033	0.472
324.000	246.903	79.991	19.992	99.856	20.236	7.164	0.472
324.500	247.158	79.992	19.992	99.844	20.238	7.050	0.517
325.000	247.378	79.993	19.991	99.834	20.238	7.067	0.508
325.500	247.653	79.994	19.991	99.834	20.234	7.400	0.485
326.000	247.908	79.993	19.990	99.858	20.239	6.969	0.513
326.500	248.122	79.993	19.991	99.873	20.237	7.082	0.500
327.000	248.393	79.993	19.991	99.878	20.239	6.971	0.477
327.500	248.632	79.993	19.990	99.881	20.241	6.762	0.497
328.000	248.890	79.992	19.992	99.884	20.238	6.988	0.504
328.500	249.120	79.994	19.991	99.891	20.240	6.843	0.493
329.000	249.372	79.993	19.990	99.924	20.240	6.882	0.485
329.500	249.625	79.993	19.991	99.957	20.239	6.956	0.493
330.000	249.940	79.995	19.991	99.967	20.241	6.774	0.537
330.500	250.161	79.993	19.991	99.970	20.241	6.776	0.552
331.000	250.343	79.993	19.991	99.968	20.242	6.633	0.469
331.500	250.626	79.994	19.991	99.942	20.243	6.557	0.434
332.000	250.909	79.995	19.991	99.915	20.239	6.895	0.515
332.500	251.130	79.995	19.991	99.909	20.239	6.971	0.535
333.000	251.386	79.995	19.990	99.908	20.242	6.653	0.491
333.500	251.653	79.995	19.991	99.910	20.241	6.720	0.501
334.000	251.872	79.995	19.990	99.910	20.243	6.549	0.505
334.500	252.149	79.994	19.990	99.910	20.245	6.399	0.491
335.000	252.394	79.996	19.991	99.910	20.244	6.473	0.509
335.500	252.612	79.995	19.991	99.910	20.244	6.443	0.493
336.000	252.899	79.995	19.991	99.909	20.241	6.774	0.484
336.500	253.121	79.995	19.991	99.909	20.244	6.480	0.507
337.000	253.345	79.997	19.991	99.909	20.240	6.867	0.477
337.500	253.614	79.996	19.991	99.910	20.243	6.608	0.470
338.000	253.804	79.996	19.990	99.910	20.243	6.574	0.477
338.500	254.074	79.995	19.992	99.910	20.241	6.761	0.460
339.000	254.346	79.996	19.991	99.910	20.242	6.709	0.501
339.500	254.540	79.994	19.992	99.910	20.241	6.784	0.504
340.000	254.848	79.996	19.991	99.909	20.242	6.638	0.484
340.500	255.049	79.995	19.990	99.909	20.242	6.653	0.506
341.000	255.333	79.993	19.991	99.909	20.243	6.534	0.497
341.500	255.558	79.996	19.991	99.907	20.239	6.929	0.497
342.000	255.780	79.995	19.991	99.907	20.240	6.842	0.478
342.500	256.044	79.995	19.990	99.907	20.240	6.835	0.467
343.000	256.299	79.994	19.991	99.907	20.238	6.985	0.502
343.500	256.545	79.994	19.990	99.908	20.242	6.674	0.510
344.000	256.789	79.994	19.991	99.910	20.238	7.056	0.496
344.500	257.056	79.995	19.991	99.910	20.240	6.854	0.500
345.000	257.314	79.996	19.989	99.909	20.241	6.793	0.518
345.500	257.550	79.994	19.990	99.909	20.241	6.795	0.509
346.000	257.770	79.995	19.991	99.908	20.240	6.880	0.475
346.500	258.047	79.994	19.992	99.908	20.241	6.722	0.477
347.000	258.304	79.997	19.991	99.907	20.241	6.759	0.515
347.500	258.560	79.996	19.991	99.907	20.243	6.606	0.524
348.000	258.821	79.995	19.991	99.902	20.239	6.949	0.515
348.500	259.044	79.995	19.991	99.902	20.238	7.067	0.500
349.000	259.327	79.996	19.990	99.903	20.235	7.260	0.494
349.500	259.532	79.996	19.991	99.904	20.234	7.420	0.497
350.000	259.772	79.995	19.991	99.904	20.237	7.159	0.467
350.500	259.994	79.995	19.992	99.907	20.238	6.984	0.454
351.000	260.235	79.995	19.991	99.906	20.237	7.091	0.463
351.500	260.491	79.995	19.991	99.906	20.235	7.328	0.480
352.000	260.737	79.996	19.991	99.905	20.236	7.226	0.499
352.500	261.002	79.996	19.991	99.906	20.237	7.075	0.506
353.000	261.225	79.996	19.990	99.902	20.236	7.250	0.499
353.500	261.504	79.996	19.992	99.896	20.235	7.314	0.495
354.000	261.722	79.996	19.991	99.891	20.236	7.176	0.500
354.500	261.986	79.996	19.990	99.886	20.234	7.349	0.490
355.000	262.190	79.996	19.990	99.886	20.235	7.262	0.475
355.500	262.451	79.996	19.991	99.889	20.235	7.326	0.467
356.000	262.753	79.997	19.992	99.895	20.235	7.254	0.514
356.500	262.945	79.996	19.990	99.900	20.234	7.429	0.528
357.000	263.181	79.996	19.990	99.906	20.235	7.298	0.460
357.500	263.434	79.997	19.990	99.906	20.235	7.284	0.458
358.000	263.704	79.998	19.990	99.909	20.234	7.413	0.506
358.500	263.954	79.997	19.990	99.906	20.238	7.060	0.522
359.000	264.215	79.997	19.990	99.905	20.234	7.423	0.515
359.500	264.444	79.997	19.989	99.906	20.237	7.095	0.500
360.000	264.690	79.997	19.989	99.906	20.240	6.838	0.482
360.500	264.929	79.997	19.991	99.908	20.236	7.248	0.480
361.000	265.176	79.999	19.990	99.917	20.233	7.475	0.486
361.500	265.458	79.997	19.990	99.923	20.233	7.507	0.508
362.000	265.670	79.996	19.990	99.925	20.236	7.169	0.511
362.500	265.917	79.997	19.991	99.926	20.235	7.290	0.476
363.000	266.149	79.997	19.991	99.925	20.237	7.139	0.469
363.500	266.414	79.997	19.992	99.918	20.237	7.110	0.489
364.000	266.670	79.996	19.990	99.913	20.236	7.248	0.509
364.500	266.931	79.997	19.990	99.911	20.238	7.046	0.519
365.000	267.163	79.995	19.991	99.911	20.242	6.683	0.504
365.500	267.421	79.995	19.991	99.910	20.239	6.933	0.491
366.000	267.622	79.996	19.991	99.906	20.238	6.995	0.475
366.500	267.909	79.996	19.990	99.902	20.240	6.880	0.474
367.000	268.127	79.995	19.990	99.899	20.238	6.992	0.497
367.500	268.396	79.995	19.990	99.898	20.238	7.054	0.496
368.000	268.607	79.994	19.991	99.898	20.237	7.127	0.483
368.500	268.896	79.994	19.991	99.903	20.237	7.077	0.490
369.000	269.194	79.993	19.991	99.908	20.235	7.310	0.544
369.500	269.445	79.993	19.991	99.914	20.238	7.026	0.568
370.000	269.695	79.994	19.992	99.916	20.237	7.133	0.525
370.500	269.952	79.993	19.991	99.917	20.239	6.986	0.504
371.000	270.211	79.993	19.992	99.916	20.236	7.251	0.512
371.500	270.477	79.994	19.990	99.914	20.237	7.081	0.520
372.000	270.721	79.993	19.991	99.911	20.237	7.105	0.517
372.500	270.938	79.992	19.992	99.910	20.239	6.947	0.485
373.000	271.215	79.993	19.991	99.910	20.236	7.212	0.478
373.500	271.471	79.993	19.991	99.912	20.237	7.148	0.514
374.000	271.744	79.993	19.991	99.913	20.238	7.022	0.531
374.500	271.941	79.993	19.991	99.913	20.235	7.294	0.499
375.000	272.207	79.995	19.991	99.914	20.234	7.405	0.467
375.500	272.440	79.993	19.991	99.916	20.235	7.309	0.482
376.000	272.708	79.994	19.991	99.923	20.231	7.642	0.501
376.500	272.984	79.993	19.991	99.926	20.231	7.652	0.522
377.000	273.245	79.994	19.992	99.934	20.233	7.470	0.540
377.500	273.493	79.993	19.991	99.912	20.234	7.354	0.523
378.000	273.780	79.994	19.992	99.888	20.230	7.793	0.522
378.500	273.996	79.994	19.991	99.864	20.233	7.445	0.519
379.000	274.296	79.993	19.991	99.851	20.231	7.621	0.509
379.500	274.486	79.994	19.990	99.836	20.232	7.544	0.503
380.000	274.776	79.994	19.992	99.855	20.233	7.490	0.485
380.500	275.038	79.993	19.992	99.910	20.232	7.566	0.516
381.000	275.307	79.993	19.991	99.960	20.231	7.630	0.541
381.500	275.549	79.993	19.991	99.983	20.234	7.418	0.522
382.000	275.824	79.993	19.991	99.993	20.234	7.428	0.514
382.500	276.073	79.994	19.992	99.993	20.230	7.761	0.520
383.000	276.295	79.993	19.990	99.955	20.233	7.450	0.497
383.500	276.574	79.994	19.991	99.914	20.230	7.712	0.486
384.000	276.824	79.994	19.991	99.897	20.230	7.707	0.515
384.500	277.103	79.993	19.991	99.894	20.225	8.167	0.529
385.000	277.334	79.993	19.991	99.897	20.227	7.987	0.520
385.500	277.595	79.993	19.991	99.903	20.230	7.735	0.500
386.000	277.838	79.994	19.990	99.910	20.230	7.765	0.497
386.500	278.081	79.993	19.991	99.914	20.229	7.802	0.495
387.000	278.333	79.994	19.990	99.913	20.231	7.696	0.491
387.500	278.566	79.995	19.991	99.910	20.227	8.057	0.490
388.000	278.837	79.993	19.991	99.910	20.228	7.943	0.494
388.500	279.064	79.993	19.991	99.910	20.226	8.091	0.501
389.000	279.317	79.993	19.991	99.912	20.232	7.558	0.490
389.500	279.580	79.993	19.990	99.914	20.229	7.837	0.498
390.000	279.802	79.994	19.991	99.917	20.225	8.185	0.500
390.500	280.057	79.993	19.990	99.917	20.226	8.079	0.481
391.000	280.336	79.993	19.991	99.918	20.227	8.044	0.505
391.500	280.568	79.993	19.992	99.918	20.229	7.815	0.522
392.000	280.838	79.992	19.990	99.918	20.226	8.101	0.507
392.500	281.089	79.993	19.991	99.920	20.228	7.914	0.512
393.000	281.293	79.992	19.992	99.920	20.225	8.155	0.488
393.500	281.597	79.993	19.992	99.919	20.225	8.212	0.481
394.000	281.819	79.993	19.991	99.917	20.226	8.143	0.517
394.500	282.113	79.992	19.992	99.915	20.228	7.887	0.521
395.000	282.332	79.993	19.992	99.912	20.226	8.096	0.514
395.500	282.644	79.993	19.991	99.908	20.225	8.183	0.522
396.000	282.872	79.992	19.992	99.903	20.226	8.111	0.536
396.500	283.137	79.993	19.992	99.902	20.228	7.933	0.516
397.000	283.388	79.992	19.992	99.902	20.224	8.308	0.505
397.500	283.618	79.992	19.993	99.903	20.223	8.377	0.499
398.000	283.886	79.993	19.992	99.907	20.226	8.089	0.489
398.500	284.125	79.992	19.993	99.911	20.221	8.533	0.502
399.000	284.355	79.993	19.993	99.910	20.223	8.407	0.488
399.500	284.634	79.993	19.992	99.908	20.224	8.279	0.489
400.000	284.902	79.991	19.991	99.908	20.224	8.306	0.528
400.500	285.134	79.993	19.993	99.908	20.223	8.417	0.523
401.000	285.396	79.993	19.991	99.908	20.226	8.101	0.497
401.500	285.617	79.992	19.992	99.908	20.225	8.229	0.489
402.000	285.910	79.993	19.992	99.910	20.222	8.483	0.498
402.500	286.149	79.992	19.992	99.910	20.224	8.318	0.522
403.000	286.434	79.992	19.992	99.909	20.223	8.390	0.528
403.500	286.699	79.992	19.993	99.910	20.225	8.215	0.537
404.000	286.898	79.993	19.992	99.911	20.220	8.617	0.507
404.500	287.132	79.992	19.992	99.910	20.221	8.538	0.448
405.000	287.396	79.992	19.992	99.911	20.221	8.557	0.466
405.500	287.709	79.995	19.992	99.912	20.222	8.446	0.538
406.000	287.926	79.993	19.992	99.913	20.221	8.589	0.553
406.500	288.167	79.993	19.992	99.914	20.224	8.325	0.494
407.000	288.429	79.994	19.991	99.914	20.219	8.764	0.481
407.500	288.664	79.994	19.991	99.912	20.220	8.656	0.500
408.000	288.935	79.996	19.992	99.911	20.223	8.409	0.502
408.500	289.173	79.994	19.991	99.910	20.220	8.614	0.507
409.000	289.444	79.994	19.991	99.910	20.219	8.745	0.509
409.500	289.696	79.993	19.991	99.911	20.216	8.986	0.516
410.000	289.940	79.995	19.991	99.912	20.216	8.979	0.509
410.500	290.208	79.994	19.990	99.912	20.218	8.836	0.503
411.000	290.480	79.995	19.991	99.912	20.218	8.869	0.526
411.500	290.727	79.995	19.991	99.911	20.219	8.744	0.530
412.000	291.002	79.995	19.990	99.911	20.217	8.958	0.521
412.500	291.255	79.997	19.991	99.911	20.216	9.008	0.525
413.000	291.506	79.995	19.990	99.910	20.218	8.867	0.516
413.500	291.747	79.995	19.990	99.910	20.216	8.972	0.498
414.000	292.018	79.996	19.991	99.910	20.217	8.920	0.502
414.500	292.264	79.996	19.991	99.910	20.215	9.130	0.514
415.000	292.533	79.995	19.990	99.910	20.216	9.034	0.516
415.500	292.790	79.996	19.991	99.911	20.216	8.977	0.521
416.000	293.014	79.996	19.991	99.911	20.217	8.891	0.504
416.500	293.280	79.995	19.991	99.911	20.215	9.100	0.486
417.000	293.511	79.996	19.991	99.909	20.214	9.170	0.494
417.500	293.756	79.996	19.991	99.908	20.214	9.218	0.486
418.000	294.042	79.996	19.991	99.908	20.215	9.123	0.503
418.500	294.302	79.997	19.991	99.907	20.214	9.184	0.539
419.000	294.554	79.996	19.990	99.904	20.213	9.307	0.530
419.500	294.814	79.995	19.992	99.906	20.213	9.248	0.512
420.000	295.099	79.994	19.990	99.907	20.216	9.024	0.528
420.500	295.326	79.996	19.991	99.907	20.215	9.069	0.528
421.000	295.550	79.992	19.990	99.908	20.214	9.174	0.481
421.500	295.796	79.997	19.990	99.912	20.214	9.215	0.461
422.000	296.098	79.997	19.991	99.917	20.215	9.070	0.509
422.500	296.327	79.995	19.991	99.923	20.214	9.216	0.539
423.000	296.569	79.996	19.991	99.924	20.214	9.176	0.501
423.500	296.788	79.995	19.991	99.923	20.214	9.211	0.467
424.000	297.049	79.994	19.991	99.921	20.212	9.382	0.471
424.500	297.317	79.994	19.992	99.916	20.215	9.105	0.505
425.000	297.574	79.994	19.991	99.914	20.213	9.266	0.527
425.500	297.798	79.995	19.990	99.915	20.216	9.020	0.503
426.000	298.102	79.993	19.992	99.916	20.215	9.125	0.505
426.500	298.326	79.994	19.991	99.916	20.216	9.050	0.528
427.000	298.603	79.995	19.991	99.916	20.216	9.038	0.514
427.500	298.851	79.995	19.991	99.912	20.217	8.939	0.512
428.000	299.092	79.993	19.991	99.916	20.218	8.855	0.507
428.500	299.377	79.995	19.992	99.929	20.218	8.852	0.508
429.000	299.614	79.994	19.990	99.949	20.219	8.694	0.524
429.500	299.884	79.994	19.991	99.968	20.220	8.690	0.515
430.000	300.125	79.995	19.992	99.983	20.220	8.628	0.509
430.500	300.374	79.995	19.990	99.985	20.219	8.774	0.500
431.000	300.626	79.997	19.991	99.973	20.220	8.690	0.496
431.500	300.884	79.996	19.991	99.953	20.220	8.633	0.505
432.000	301.140	79.995	19.990	99.934	20.218	8.853	0.512
432.500	301.395	79.995	19.991	99.924	20.221	8.597	0.513
433.000	301.618	79.995	19.991	99.927	20.217	8.940	0.495
433.500	301.871	79.993	19.991	99.942	20.218	8.800	0.477
434.000	302.151	79.996	19.992	99.958	20.217	8.909	0.504
434.500	302.400	79.995	19.991	99.967	20.220	8.611	0.531
435.000	302.641	79.996	19.990	99.968	20.220	8.607	0.510
435.500	302.937	79.995	19.990	99.962	20.218	8.809	0.514
436.000	303.179	79.996	19.993	99.948	20.214	9.184	0.538
436.500	303.411	79.994	19.990	99.928	20.217	8.961	0.506
437.000	303.669	80.001	19.990	99.913	20.217	8.944	0.482
437.500	303.901	79.995	19.990	99.905	20.213	9.307	0.490
438.000	304.154	79.996	19.990	99.901	20.215	9.075	0.487
438.500	304.415	79.997	19.990	99.899	20.215	9.124	0.499
439.000	304.672	79.995	19.991	99.896	20.216	8.985	0.516
439.500	304.928	79.996	19.990	99.892	20.213	9.257	0.516
440.000	305.183	79.996	19.993	99.887	20.214	9.190	0.512
440.500	305.426	79.996	19.991	99.880	20.215	9.116	0.505
441.000	305.704	79.995	19.990	99.873	20.212	9.378	0.509
441.500	305.945	79.996	19.990	99.872	20.211	9.427	0.519
442.000	306.195	79.995	19.990	99.874	20.213	9.279	0.505
442.500	306.424	79.997	19.990	99.875	20.210	9.523	0.485
443.000	306.728	79.996	19.990	99.876	20.213	9.297	0.506
443.500	306.962	79.998	19.990	99.879	20.214	9.188	0.536
444.000	307.212	79.996	19.990	99.886	20.214	9.172	0.511
444.500	307.493	79.995	19.990	99.894	20.215	9.097	0.507
445.000	307.713	79.997	19.990	99.900	20.214	9.186	0.516
445.500	307.968	79.996	19.990	99.904	20.213	9.328	0.488
446.000	308.226	79.999	19.990	99.908	20.214	9.227	0.494
446.500	308.458	79.997	19.990	99.906	20.212	9.380	0.501
447.000	308.723	79.998	19.989	99.906	20.214	9.186	0.493
447.500	308.985	79.995	19.989	99.905	20.216	9.045	0.512
448.000	309.243	79.995	19.990	99.905	20.218	8.866	0.524
448.500	309.486	79.995	19.989	99.906	20.218	8.797	0.510
449.000	309.769	79.998	19.990	99.907	20.217	8.944	0.513
449.500	309.938	79.995	19.991	99.902	20.216	8.985	0.489
450.000	310.213	79.994	19.990	99.897	20.216	8.958	0.448
450.500	310.485	79.993	19.990	99.895	20.212	9.359	0.496
451.000	310.726	79.989	19.991	99.895	20.213	9.316	0.530
451.500	310.964	79.993	19.991	99.897	20.213	9.271	0.496
452.000	311.282	79.994	19.990	99.902	20.216	9.037	0.517
452.500	311.517	79.993	19.990	99.902	20.215	9.065	0.554
453.000	311.773	79.994	19.991	99.900	20.213	9.321	0.522
453.500	312.042	79.991	19.991	99.901	20.214	9.214	0.507
454.000	312.304	79.994	19.991	99.901	20.214	9.224	0.528
454.500	312.515	79.991	19.991	99.902	20.212	9.358	0.502
455.000	312.813	79.994	19.990	99.910	20.212	9.399	0.491
455.500	313.036	79.995	19.990	99.926	20.215	9.143	0.515
456.000	313.271	79.993	19.990	99.936	20.213	9.264	0.490
456.500	313.560	79.993	19.991	99.944	20.216	9.007	0.490
457.000	313.804	79.995	19.991	99.947	20.210	9.510	0.528
457.500	314.050	79.993	19.991	99.945	20.215	9.095	0.512
458.000	314.311	79.992	19.991	99.935	20.214	9.156	0.499
458.500	314.560	79.993	19.991	99.926	20.214	9.202	0.508
459.000	314.792	79.994	19.991	99.918	20.213	9.292	0.495
459.500	315.014	79.990	19.992	99.918	20.212	9.359	0.468
460.000	315.309	79.990	19.991	99.898	20.211	9.496	0.486
460.500	315.549	79.994	19.991	99.865	20.210	9.585	0.526
461.000	315.807	79.993	19.991	99.843	20.211	9.454	0.516
461.500	316.057	79.994	19.991	99.829	20.213	9.289	0.503
462.000	316.312	79.993	19.991	99.816	20.214	9.184	0.507
462.500	316.615	79.993	19.991	99.833	20.213	9.237	0.531
463.000	316.853	79.994	19.992	99.870	20.212	9.403	0.549
463.500	317.071	79.994	19.992	99.933	20.212	9.340	0.499
464.000	317.348	79.992	19.992	99.974	20.214	9.200	0.476
464.500	317.579	79.992	19.992	99.993	20.215	9.116	0.501
465.000	317.825	79.992	19.991	100.001	20.214	9.167	0.493
465.500	318.071	79.994	19.992	100.004	20.217	8.930	0.485
466.000	318.332	79.995	19.991	99.970	20.213	9.243	0.499
466.500	318.582	79.990	19.990	99.951	20.213	9.269	0.509
467.000	318.828	79.994	19.991	99.949	20.213	9.286	0.504
467.500	319.081	79.994	19.991	99.949	20.214	9.180	0.497
468.000	319.312	79.994	19.991	99.942	20.212	9.387	0.492
468.500	319.614	79.994	19.991	99.934	20.212	9.397	0.509
469.000	319.836	79.995	19.990	99.924	20.215	9.079	0.528
469.500	320.093	79.997	19.992	99.915	20.209	9.665	0.501
470.000	320.330	79.992	19.991	99.908	20.209	9.648	0.487
470.500	320.623	79.993	19.990	99.905	20.210	9.541	0.512
471.000	320.871	79.994	19.990	99.899	20.212	9.353	0.535
471.500	321.114	79.995	19.991	99.897	20.210	9.506	0.516
472.000	321.361	79.994	19.991	99.896	20.209	9.646	0.491
472.500	321.654	79.992	19.991	99.900	20.205	10.028	0.515
473.000	321.882	79.995	19.990	99.909	20.211	9.488	0.531
473.500	322.111	79.995	19.991	99.924	20.210	9.509	0.489
474.000	322.365	79.992	19.991	99.936	20.213	9.295	0.470
474.500	322.641	79.994	19.991	99.944	20.214	9.160	0.506
475.000	322.867	79.997	19.992	99.948	20.214	9.145	0.516
475.500	323.144	79.990	19.991	99.946	20.210	9.567	0.503
476.000	323.361	79.994	19.991	99.940	20.210	9.566	0.498
476.500	323.608	79.995	19.991	99.935	20.209	9.598	0.479
477.000	323.871	79.994	19.991	99.930	20.210	9.503	0.487
477.500	324.107	79.995	19.991	99.923	20.210	9.567	0.504
478.000	324.366	79.994	19.991	99.918	20.210	9.590	0.497
478.500	324.657	79.995	19.992	99.917	20.212	9.337	0.523
479.000	324.874	79.994	19.991	99.920	20.208	9.730	0.529
479.500	325.105	79.994	19.992	99.918	20.208	9.743	0.478
480.000	325.358	79.991	19.992	99.917	20.211	9.504	0.466
480.500	325.607	79.992	19.992	99.915	20.209	9.638	0.493
481.000	325.839	79.993	19.992	99.909	20.208	9.763	0.491
481.500	326.110	79.992	19.992	99.904	20.208	9.739	0.492
482.000	326.327	79.995	19.992	99.903	20.205	9.984	0.496
482.500	326.615	79.992	19.993	99.902	20.209	9.629	0.497
483.000	326.874	79.993	19.992	99.897	20.207	9.829	0.526
483.500	327.100	79.990	19.991	99.894	20.203	10.177	0.516
484.000	327.366	79.995	19.992	99.887	20.207	9.804	0.488
484.500	327.597	79.991	19.992	99.882	20.204	10.055	0.494
485.000	327.895	79.991	19.991	99.884	20.205	10.021	0.513
485.500	328.089	79.991	19.992	99.888	20.205	10.013	0.511
486.000	328.362	79.992	19.992	99.888	20.206	9.884	0.480
486.500	328.616	79.992	19.993	99.887	20.207	9.782	0.497
487.000	328.826	79.993	19.993	99.883	20.207	9.781	0.496
487.500	329.117	79.991	19.993	99.875	20.206	9.908	0.483
488.000	329.345	79.990	19.992	99.870	20.204	10.083	0.510
488.500	329.637	79.991	19.992	99.870	20.206	9.914	0.519
489.000	329.898	79.992	19.992	99.877	20.202	10.289	0.537
489.500	330.125	79.992	19.992	99.885	20.204	10.111	0.521
490.000	330.334	79.993	19.993	99.892	20.203	10.175	0.462
490.500	330.620	79.994	19.992	99.899	20.204	10.092	0.465
491.000	330.876	79.992	19.993	99.907	20.200	10.439	0.518
491.500	331.119	79.994	19.992	99.907	20.203	10.144	0.521
492.000	331.372	79.992	19.992	99.907	20.206	9.933	0.498
492.500	331.604	79.993	19.992	99.910	20.208	9.756	0.490
493.000	331.886	79.991	19.992	99.918	20.205	10.022	0.499
493.500	332.143	79.990	19.992	99.920	20.202	10.314	0.526
494.000	332.378	79.991	19.992	99.920	20.206	9.932	0.516
494.500	332.612	79.995	19.993	99.919	20.204	10.132	0.481
495.000	332.929	79.992	19.991	99.917	20.203	10.193	0.510
495.500	333.165	79.996	19.992	99.908	20.204	10.092	0.552
496.000	333.379	79.996	19.992	99.897	20.203	10.216	0.501
496.500	333.656	79.994	19.992	99.887	20.204	10.048	0.470
497.000	333.944	79.993	19.992	99.876	20.200	10.462	0.528
497.500	334.180	79.994	19.991	99.870	20.202	10.287	0.545
498.000	334.430	79.994	19.990	99.864	20.201	10.331	0.505
498.500	334.657	79.995	19.990	99.870	20.200	10.455	0.482
499.000	334.918	79.993	19.990	99.875	20.199	10.534	0.483
499.500	335.200	79.994	19.990	99.880	20.199	10.527	0.516
500.000	335.445	79.996	19.990	99.881	20.198	10.631	0.535
500.500	335.682	79.996	19.990	99.881	20.195	10.878	0.504
501.000	335.930	79.997	19.990	99.879	20.196	10.775	0.484
501.500	336.193	79.998	19.990	99.887	20.199	10.546	0.498
502.000	336.418	79.995	19.990	99.902	20.196	10.823	0.499
502.500	336.661	79.994	19.990	99.916	20.197	10.680	0.477
503.000	336.912	79.995	19.990	99.924	20.201	10.398	0.481
503.500	337.212	79.995	19.990	99.929	20.202	10.238	0.523
504.000	337.422	79.996	19.991	99.925	20.200	10.480	0.531
504.500	337.709	79.998	19.991	99.916	20.199	10.521	0.503
505.000	337.942	79.995	19.991	99.912	20.199	10.503	0.508
505.500	338.216	79.994	19.990	99.913	20.197	10.680	0.514
506.000	338.476	79.996	19.990	99.915	20.192	11.192	0.520
506.500	338.715	79.993	19.991	99.915	20.190	11.310	0.517
507.000	338.991	79.993	19.991	99.917	20.196	10.769	0.507
507.500	339.241	79.994	19.992	99.916	20.196	10.801	0.520
508.000	339.463	79.992	19.992	99.914	20.195	10.872	0.500
508.500	339.739	79.994	19.991	99.913	20.194	11.002	0.485
509.000	339.965	79.994	19.990	99.914	20.195	10.923	0.500
509.500	340.234	79.993	19.991	99.913	20.190	11.393	0.498
510.000	340.536	79.994	19.991	99.916	20.192	11.213	0.533
510.500	340.772	79.995	19.990	99.921	20.194	10.976	0.555
511.000	341.020	79.994	19.991	99.923	20.192	11.171	0.511
511.500	341.274	79.994	19.990	99.926	20.197	10.722	0.493
512.000	341.532	79.992	19.990	99.933	20.193	11.071	0.507
512.500	341.778	79.997	19.990	99.938	20.195	10.913	0.508
513.000	342.026	79.996	19.990	99.939	20.188	11.501	0.499
513.500	342.293	79.994	19.990	99.945	20.191	11.232	0.505
514.000	342.503	79.995	19.990	99.957	20.192	11.184	0.496
514.500	342.762	79.996	19.991	99.962	20.191	11.288	0.472
515.000	343.051	79.994	19.991	99.963	20.191	11.283	0.509
515.500	343.279	79.994	19.990	99.960	20.191	11.268	0.533
516.000	343.517	79.994	19.989	99.953	20.188	11.513	0.491
516.500	343.760	79.994	19.990	99.943	20.188	11.543	0.474
517.000	344.030	79.993	19.991	99.932	20.185	11.810	0.497
517.500	344.299	79.993	19.991	99.926	20.187	11.580	0.526
518.000	344.518	79.993	19.990	99.922	20.187	11.602	0.514
518.500	344.751	79.995	19.990	99.919	20.182	12.075	0.470
519.000	345.061	79.997	19.991	99.913	20.186	11.747	0.497
519.500	345.261	79.996	19.990	99.910	20.184	11.893	0.526
520.000	345.546	79.994	19.990	99.907	20.184	11.856	0.497
520.500	345.748	79.995	19.991	99.902	20.181	12.187	0.486
521.000	346.021	79.997	19.989	99.898	20.182	12.042	0.481
521.500	346.303	79.996	19.989	99.899	20.182	12.058	0.515
522.000	346.522	79.996	19.991	99.900	20.183	11.948	0.528
522.500	346.802	79.995	19.989	99.902	20.179	12.346	0.500
523.000	347.020	79.995	19.990	99.906	20.177	12.504	0.498
523.500	347.300	79.995	19.990	99.911	20.181	12.188	0.498
524.000	347.486	79.995	19.990	99.912	20.177	12.565	0.482
524.500	347.762	79.997	19.990	99.911	20.180	12.259	0.464
525.000	348.040	79.996	19.989	99.907	20.176	12.591	0.508
525.500	348.320	79.996	19.990	99.904	20.178	12.420	0.556
526.000	348.561	79.997	19.989	99.907	20.175	12.687	0.539
526.500	348.809	79.994	19.989	99.911	20.174	12.827	0.505
527.000	349.055	79.997	19.990	99.911	20.173	12.849	0.491
527.500	349.324	79.996	19.990	99.916	20.172	12.945	0.504
528.000	349.602	79.995	19.990	99.918	20.172	12.999	0.531
528.500	349.786	79.995	19.990	99.914	20.172	12.947	0.505
529.000	350.069	79.995	19.990	99.912	20.174	12.796	0.465
529.500	350.307	79.997	19.991	99.914	20.170	13.157	0.494
530.000	350.553	79.996	19.990	99.913	20.169	13.239	0.502
530.500	350.785	79.996	19.990	99.913	20.168	13.378	0.481
531.000	351.053	79.995	19.989	99.915	20.167	13.450	0.489
531.500	351.291	79.994	19.990	99.919	20.170	13.154	0.503
532.000	351.579	79.995	19.990	99.924	20.167	13.386	0.516
532.500	351.818	79.995	19.990	99.932	20.168	13.334	0.526
533.000	352.110	79.994	19.990	99.940	20.165	13.576	0.529
533.500	352.336	79.994	19.991	99.946	20.168	13.358	0.524
534.000	352.590	79.995	19.991	99.948	20.167	13.471	0.499
534.500	352.878	79.994	19.990	99.947	20.162	13.895	0.512
535.000	353.138	79.993	19.990	99.945	20.162	13.845	0.545
535.500	353.415	79.994	19.990	99.941	20.162	13.872	0.542
536.000	353.637	79.991	19.990	99.934	20.161	13.991	0.517
536.500	353.897	79.994	19.991	99.929	20.159	14.132	0.490
537.000	354.135	79.992	19.990	99.927	20.159	14.177	0.491
537.500	354.416	79.994	19.990	99.924	20.159	14.188	0.509
538.000	354.653	79.993	19.990	99.921	20.158	14.213	0.518
538.500	354.930	79.994	19.992	99.923	20.159	14.144	0.516
539.000	355.140	79.994	19.990	99.922	20.160	14.095	0.501
539.500	355.381	79.993	19.991	99.918	20.157	14.295	0.469
540.000	355.667	79.993	19.991	99.917	20.157	14.298	0.489
540.500	355.909	79.996	19.990	99.922	20.155	14.532	0.527
541.000	356.158	79.992	19.990	99.926	20.157	14.356	0.510
541.500	356.401	79.993	19.991	99.931	20.155	14.476	0.491
542.000	356.643	79.994	19.990	99.934	20.156	14.461	0.489
542.500	356.930	79.994	19.992	99.939	20.153	14.725	0.507
543.000	357.171	79.992	19.992	99.938	20.154	14.639	0.528
543.500	357.392	79.991	19.991	99.935	20.154	14.593	0.495
544.000	357.665	79.995	19.992	99.934	20.153	14.682	0.478
544.500	357.917	79.993	19.992	99.933	20.151	14.858	0.510
545.000	358.166	79.996	19.991	99.929	20.150	14.937	0.513
545.500	358.452	79.993	19.991	99.924	20.152	14.780	0.518
546.000	358.671	79.994	19.992	99.920	20.152	14.808	0.520
546.500	358.923	79.994	19.992	99.920	20.145	15.365	0.488
547.000	359.160	79.993	19.992	99.923	20.147	15.229	0.480
547.500	359.406	79.994	19.992	99.927	20.148	15.139	0.486
548.000	359.668	79.993	19.991	99.931	20.144	15.507	0.495
548.500	359.923	79.993	19.992	99.938	20.145	15.376	0.512
549.000	360.194	79.994	19.992	99.941	20.144	15.480	0.522
549.500	360.450	79.995	19.992	99.942	20.143	15.586	0.527
550.000	360.702	79.995	19.991	99.943	20.142	15.703	0.517
550.500	360.952	79.993	19.992	99.946	20.141	15.813	0.505
551.000	361.181	79.993	19.992	99.946	20.138	16.100	0.491
551.500	361.448	79.995	19.992	99.942	20.137	16.116	0.488
552.000	361.703	79.994	19.992	99.938	20.138	16.066	0.509
552.500	361.941	79.992	19.992	99.935	20.137	16.127	0.508
553.000	362.231	79.992	19.991	99.932	20.135	16.279	0.510
553.500	362.478	79.996	19.992	99.932	20.135	16.288	0.532
554.000	362.675	79.993	19.991	99.932	20.134	16.396	0.491
554.500	362.968	79.993	19.992	99.936	20.130	16.748	0.467
555.000	363.239	79.994	19.991	99.938	20.131	16.646	0.527
555.500	363.477	79.993	19.991	99.926	20.127	16.994	0.537
556.000	363.720	79.994	19.991	99.898	20.127	17.046	0.495
556.500	363.976	79.995	19.992	99.884	20.127	16.992	0.490
557.000	364.247	79.993	19.991	99.876	20.124	17.298	0.513
557.500	364.502	79.994	19.992	99.870	20.127	17.078	0.526
558.000	364.760	79.995	19.992	99.885	20.125	17.217	0.520
558.500	365.018	79.993	19.992	99.913	20.123	17.432	0.515
559.000	365.280	79.993	19.991	99.932	20.126	17.137	0.518
559.500	365.554	79.994	19.992	99.946	20.122	17.502	0.528
560.000	365.772	79.992	19.992	99.962	20.121	17.591	0.514
560.500	366.033	79.993	19.991	99.992	20.117	17.922	0.485
561.000	366.280	79.994	19.992	100.016	20.121	17.570	0.494
561.500	366.539	79.993	19.990	100.024	20.118	17.793	0.507
562.000	366.769	79.992	19.992	100.025	20.122	17.461	0.497
562.500	367.053	79.993	19.992	100.022	20.120	17.703	0.501
563.000	367.329	79.993	19.991	99.999	20.114	18.168	0.537
563.500	367.551	79.994	19.991	99.981	20.117	17.964	0.529
564.000	367.798	79.992	19.991	99.975	20.115	18.173	0.484
564.500	368.056	79.993	19.991	99.970	20.114	18.229	0.487
565.000	368.288	79.994	19.991	99.965	20.114	18.196	0.497
565.500	368.542	79.991	19.991	99.959	20.114	18.195	0.488
566.000	368.841	79.992	19.991	99.954	20.115	18.136	0.520
566.500	369.075	79.993	19.991	99.954	20.111	18.475	0.543
567.000	369.322	79.993	19.991	99.955	20.113	18.292	0.507
567.500	369.588	79.991	19.991	99.956	20.113	18.267	0.497
568.000	369.845	79.992	19.990	99.957	20.111	18.489	0.517
568.500	370.082	79.993	19.990	99.958	20.112	18.387	0.509
569.000	370.339	79.993	19.992	99.957	20.109	18.612	0.495
569.500	370.574	79.994	19.992	99.960	20.109	18.626	0.493
570.000	370.829	79.991	19.992	99.965	20.106	18.962	0.491
570.500	371.119	79.992	19.992	99.950	20.103	19.212	0.518
571.000	371.313	79.993	19.991	99.924	20.103	19.180	0.515
571.500	371.570	79.993	19.992	99.911	20.105	19.054	0.467
572.000	371.847	79.995	19.992	99.905	20.103	19.162	0.492
572.500	372.094	79.993	19.991	99.898	20.104	19.128	0.529
573.000	372.342	79.993	19.991	99.914	20.103	19.194	0.510
573.500	372.592	79.995	19.991	99.946	20.100	19.479	0.496
574.000	372.853	79.994	19.992	99.978	20.101	19.375	0.504
574.500	373.130	79.994	19.991	100.010	20.102	19.286	0.524
575.000	373.400	79.994	19.991	100.016	20.100	19.424	0.543
575.500	373.685	79.994	19.991	100.015	20.099	19.568	0.551
576.000	373.932	79.994	19.991	100.008	20.097	19.715	0.544
576.500	374.199	79.994	19.992	99.989	20.098	19.678	0.523
577.000	374.445	79.993	19.992	99.962	20.097	19.772	0.514
577.500	374.707	79.994	19.992	99.956	20.096	19.850	0.511
578.000	374.936	79.995	19.992	99.955	20.094	20.037	0.499
578.500	375.150	79.994	19.992	99.953	20.095	19.909	0.467
579.000	375.412	79.994	19.992	99.950	20.094	19.976	0.460
579.500	375.733	79.995	19.992	99.947	20.095	19.897	0.530
580.000	375.977	79.994	19.992	99.947	20.095	19.940	0.574
580.500	376.189	79.995	19.991	99.947	20.094	19.973	0.511
581.000	376.505	79.994	19.991	99.948	20.096	19.861	0.492
581.500	376.767	79.994	19.992	99.949	20.096	19.791	0.553
582.000	376.991	79.995	19.992	99.949	20.095	19.914	0.532
582.500	377.279	79.994	19.991	99.948	20.094	20.053	0.499
583.000	377.524	79.994	19.991	99.948	20.095	19.929	0.523
583.500	377.770	79.995	19.992	99.949	20.093	20.148	0.512
584.000	378.020	79.995	19.992	99.949	20.093	20.121	0.494
584.500	378.246	79.994	19.990	99.951	20.094	20.042	0.486
585.000	378.517	79.994	19.991	99.952	20.092	20.171	0.486
585.500	378.784	79.995	19.990	99.953	20.091	20.260	0.517
586.000	379.059	79.995	19.992	99.952	20.089	20.428	0.540
586.500	379.318	79.994	19.991	99.952	20.092	20.235	0.538
587.000	379.593	79.994	19.991	99.949	20.091	20.263	0.534
587.500	379.839	79.996	19.990	99.949	20.092	20.163	0.527
588.000	380.072	79.994	19.990	99.950	20.090	20.366	0.500
588.500	380.329	79.994	19.990	99.946	20.094	20.050	0.485
589.000	380.588	79.993	19.991	99.942	20.092	20.206	0.503
589.500	380.840	79.994	19.991	99.944	20.093	20.127	0.513
590.000	381.117	79.994	19.991	99.944	20.094	20.039	0.520
590.500	381.407	79.995	19.990	99.945	20.091	20.263	0.548
591.000	381.639	79.995	19.991	99.949	20.092	20.176	0.545
591.500	381.870	79.994	19.991	99.953	20.091	20.259	0.493
592.000	382.124	79.994	19.991	99.953	20.089	20.487	0.474
592.500	382.384	79.995	19.991	99.956	20.092	20.185	0.499
593.000	382.658	79.996	19.991	99.958	20.087	20.625	0.523
593.500	382.930	79.996	19.991	99.962	20.090	20.331	0.540
594.000	383.182	79.996	19.991	99.969	20.091	20.257	0.535
594.500	383.457	79.995	19.991	99.977	20.089	20.425	0.526
595.000	383.694	79.994	19.991	99.979	20.085	20.845	0.520
595.500	383.989	79.994	19.991	99.981	20.087	20.611	0.522
596.000	384.237	79.995	19.991	99.985	20.085	20.788	0.537
596.500	384.500	79.995	19.991	99.985	20.087	20.625	0.527
597.000	384.724	79.995	19.991	99.983	20.084	20.868	0.499
597.500	384.995	79.995	19.991	99.983	20.083	21.013	0.491
598.000	385.257	79.995	19.991	99.984	20.080	21.245	0.514
598.500	385.532	79.995	19.991	99.978	20.081	21.182	0.535
599.000	385.744	79.996	19.990	99.970	20.081	21.202	0.512
599.501	385.983	79.997	19.992	99.971	20.084	20.894	0.469
600.000	386.278	79.995	19.991	99.972	20.080	21.268	0.493
600.500	386.494	79.997	19.991	99.973	20.080	21.314	0.523
601.000	386.794	79.997	19.991	99.977	20.078	21.450	0.514
601.500	387.021	79.997	19.991	99.984	20.077	21.576	0.521
602.000	387.301	79.998	19.989	99.982	20.077	21.509	0.517
602.500	387.568	79.996	19.990	99.979	20.076	21.654	0.527
603.000	387.849	79.997	19.990	99.973	20.074	21.774	0.547
603.500	388.065	79.997	19.990	99.967	20.076	21.666	0.522
604.000	388.354	79.996	19.990	99.959	20.073	21.870	0.501
604.500	388.597	79.998	19.990	99.955	20.073	21.951	0.518
605.000	388.898	79.996	19.990	99.956	20.072	22.038	0.538
605.500	389.127	79.996	19.991	99.957	20.072	22.013	0.537
606.000	389.388	79.997	19.992	99.961	20.073	21.946	0.510
606.500	389.664	79.996	19.990	99.961	20.068	22.375	0.514
607.000	389.908	79.996	19.991	99.961	20.068	22.360	0.528
607.500	390.129	79.997	19.991	99.955	20.065	22.646	0.492
608.000	390.388	79.996	19.991	99.951	20.063	22.817	0.472
608.500	390.626	79.996	19.990	99.948	20.061	23.029	0.489
609.000	390.842	79.996	19.990	99.950	20.064	22.692	0.476
609.500	391.140	79.995	19.991	99.953	20.060	23.091	0.484
610.000	391.404	79.996	19.991	99.954	20.058	23.226	0.538
610.500	391.634	79.997	19.990	99.959	20.056	23.409	0.528
611.000	391.902	79.997	19.991	99.966	20.055	23.576	0.496
611.500	392.196	79.996	19.991	99.971	20.054	23.616	0.530
612.000	392.433	79.995	19.992	99.973	20.047	24.237	0.547
612.500	392.696	79.996	19.991	99.975	20.045	24.415	0.516
613.000	392.969	79.996	19.990	99.974	20.045	24.464	0.518
613.500	393.264	79.995	19.992	99.970	20.043	24.600	0.552
614.000	393.502	79.994	19.991	99.966	20.042	24.664	0.550
614.500	393.753	79.993	19.991	99.967	20.043	24.621	0.511
615.000	394.025	79.994	19.991	99.972	20.040	24.868	0.506
615.500	394.287	79.995	19.991	99.973	20.038	25.061	0.529
616.000	394.526	79.995	19.992	99.975	20.036	25.285	0.517
616.500	394.795	79.991	19.992	99.975	20.029	25.898	0.504
617.000	395.019	79.994	19.991	99.974	20.031	25.735	0.501
617.500	395.316	79.993	19.992	99.970	20.028	25.987	0.507
618.000	395.567	79.995	19.991	99.967	20.026	26.111	0.535
618.500	395.850	79.995	19.990	99.966	20.021	26.601	0.541
619.000	396.059	79.995	19.990	99.970	20.020	26.723	0.513
619.500	396.358	79.995	19.992	99.971	20.018	26.871	0.500
620.000	396.606	79.994	19.990	99.976	20.012	27.441	0.527
620.500	396.849	79.993	19.991	99.982	20.013	27.351	0.519
621.000	397.129	79.995	19.992	99.986	20.010	27.616	0.507
621.500	397.340	79.994	19.990	99.988	20.005	28.050	0.507
622.000	397.614	79.996	19.991	99.988	20.005	28.030	0.488
622.500	397.865	79.994	19.990	99.987	20.004	28.112	0.505
623.000	398.130	79.995	19.992	99.984	20.001	28.423	0.521
623.500	398.425	79.996	19.991	99.983	19.998	28.676	0.538
624.000	398.677	79.994	19.990	99.983	19.998	28.709	0.553
624.500	398.953	79.994	19.991	99.984	19.996	28.857	0.537
625.000	399.188	79.995	19.990	99.985	19.992	29.210	0.520
625.500	399.447	79.995	19.990	99.987	19.989	29.516	0.502
626.000	399.677	79.994	19.991	99.990	19.990	29.415	0.492
626.500	399.943	79.995	19.991	99.990	19.984	29.932	0.492
627.000	400.212	79.995	19.991	99.990	19.983	30.051	0.515
627.500	400.433	79.993	19.991	99.991	19.983	30.053	0.513
628.000	400.736	79.994	19.991	99.992	19.980	30.295	0.507
628.500	400.999	79.996	19.990	99.992	19.972	31.025	0.545
629.000	401.242	79.996	19.991	99.995	19.973	30.916	0.536
629.500	401.470	79.996	19.990	99.998	19.968	31.425	0.489
630.000	401.717	79.995	19.990	100.004	19.962	31.958	0.473
630.500	402.019	79.994	19.991	100.011	19.957	32.423	0.512
631.000	402.264	79.992	19.991	100.018	19.958	32.285	0.548
631.500	402.518	79.995	19.990	100.023	19.952	32.868	0.523
632.000	402.780	79.995	19.992	100.025	19.948	33.174	0.508
632.500	403.009	79.995	19.990	100.024	19.945	33.441	0.504
633.000	403.265	79.995	19.992	100.024	19.939	34.049	0.488
633.500	403.519	79.995	19.992	100.024	19.933	34.565	0.497
634.000	403.773	79.994	19.991	100.024	19.929	34.904	0.509
634.500	404.010	79.995	19.992	100.027	19.923	35.425	0.499
635.000	404.257	79.996	19.991	100.029	19.920	35.723	0.487
635.500	404.526	79.993	19.992	100.029	19.911	36.538	0.500
636.000	404.768	79.995	19.992	100.029	19.912	36.493	0.514
636.500	405.059	79.992	19.991	100.028	19.905	37.096	0.522
637.000	405.296	79.993	19.992	100.023	19.901	37.452	0.531
637.500	405.524	79.994	19.992	100.018	19.897	37.831	0.497
638.000	405.798	79.995	19.991	100.017	19.892	38.269	0.483
638.500	406.069	79.994	19.992	100.016	19.888	38.648	0.523
639.000	406.276	79.995	19.990	100.017	19.885	38.897	0.512
639.500	406.560	79.995	19.991	100.022	19.881	39.226	0.484
640.000	406.807	79.993	19.991	100.026	19.877	39.663	0.511
640.500	407.069	79.993	19.990	100.027	19.871	40.190	0.520
641.000	407.326	79.993	19.991	100.028	19.869	40.339	0.514
641.500	407.583	79.994	19.992	100.029	19.861	41.097	0.517
642.000	407.843	79.995	19.991	100.029	19.858	41.377	0.515
642.500	408.098	79.994	19.990	100.030	19.853	41.811	0.516
643.000	408.364	79.997	19.991	100.030	19.846	42.428	0.518
643.500	408.599	79.995	19.991	100.032	19.840	42.969	0.511
644.000	408.824	79.994	19.991	100.038	19.836	43.319	0.480
644.500	409.093	79.995	19.991	100.046	19.827	44.179	0.477
645.000	409.360	79.994	19.991	100.054	19.819	44.871	0.515
645.500	409.559	79.992	19.991	100.062	19.809	45.744	0.501
646.000	409.841	79.992	19.991	100.071	19.805	46.107	0.473
646.500	410.082	79.992	19.991	100.078	19.797	46.816	0.502
647.000	410.344	79.995	19.992	100.083	19.789	47.602	0.513
647.500	410.618	79.993	19.992	100.089	19.783	48.132	0.520
648.000	410.889	79.993	19.991	100.090	19.776	48.773	0.541
648.500	411.069	79.994	19.991	100.087	19.769	49.434	0.498
649.000	411.366	79.993	19.991	100.082	19.759	50.310	0.464
649.500	411.600	79.994	19.991	100.077	19.756	50.559	0.504
650.000	411.842	79.992	19.992	100.077	19.745	51.590	0.503
650.500	412.130	79.997	19.992	100.084	19.737	52.275	0.503
651.000	412.394	79.996	19.991	100.088	19.731	52.789	0.541
651.500	412.586	79.994	19.992	100.090	19.722	53.641	0.505
652.000	412.835	79.996	19.992	100.092	19.716	54.194	0.448
652.500	413.097	79.996	19.992	100.091	19.705	55.169	0.475
653.000	413.373	79.996	19.992	100.085	19.702	55.455	0.525
653.500	413.602	79.996	19.992	100.083	19.685	56.928	0.522
654.000	413.835	79.994	19.991	100.088	19.681	57.277	0.483
654.500	414.134	79.993	19.991	100.094	19.677	57.698	0.497
655.000	414.320	79.992	19.991	100.096	19.664	58.812	0.508
655.500	414.571	79.994	19.991	100.101	19.663	58.930	0.461
656.000	414.855	79.995	19.992	100.107	19.648	60.373	0.486
656.500	415.089	79.995	19.992	100.108	19.646	60.552	0.527
657.000	415.308	79.998	19.992	100.109	19.630	61.995	0.486
657.500	415.569	79.994	19.991	100.113	19.623	62.614	0.466
658.000	415.826	79.997	19.991	100.118	19.614	63.412	0.499
658.500	416.069	79.993	19.991	100.124	19.609	63.909	0.509
659.000	416.383	79.995	19.991	100.131	19.608	63.925	0.529
659.500	416.594	79.994	19.991	100.138	19.587	65.854	0.541
660.000	416.836	79.996	19.991	100.140	19.580	66.503	0.489
660.500	417.094	79.998	19.992	100.142	19.576	66.864	0.476
661.000	417.378	79.996	19.991	100.143	19.567	67.690	0.521
661.500	417.568	79.995	19.992	100.142	19.557	68.616	0.508
662.000	417.847	79.997	19.991	100.143	19.545	69.625	0.471
662.500	418.080	79.994	19.992	100.149	19.537	70.410	0.491
663.000	418.384	79.996	19.991	100.153	19.527	71.273	0.525
663.500	418.604	79.997	19.992	100.158	19.516	72.347	0.531
664.000	418.893	79.997	19.992	100.135	19.504	73.374	0.517
664.500	419.086	79.996	19.993	100.113	19.490	74.665	0.496
665.000	419.348	79.997	19.992	100.096	19.475	76.026	0.469
665.500	419.632	79.997	19.992	100.092	19.470	76.542	0.500
666.000	419.773	79.993	19.992	100.087	19.460	77.359	0.485
666.500	420.089	79.996	19.993	100.115	19.449	78.421	0.441
667.000	420.407	79.995	19.992	100.172	19.441	79.082	0.545
667.500	420.520	79.995	19.992	100.206	19.428	80.275	0.533
668.000	420.927	79.995	19.992	100.216	19.418	81.180	0.476
668.500	421.124	79.997	19.993	100.224	19.406	82.256	0.562
669.000	421.329	79.994	19.992	100.226	19.391	83.667	0.503
669.500	421.639	79.995	19.991	100.199	19.376	85.052	0.459
670.000	421.816	79.995	19.991	100.184	19.362	86.245	0.501
670.500	422.080	79.994	19.992	100.184	19.351	87.278	0.464
671.000	422.049	79.993	19.992	100.193	19.337	88.565	0.337
671.500	422.384	79.996	19.992	100.200	19.327	89.511	0.269
672.000	422.852	79.997	19.991	100.199	19.317	90.422	0.553
672.500	423.297	79.995	19.992	100.201	19.304	91.604	0.858
673.000	423.338	79.993	19.992	100.207	19.287	93.137	0.700
673.500	423.502	79.996	19.992	100.212	19.271	94.572	0.346
674.000	423.884	79.996	19.991	100.222	19.253	96.182	0.375
674.500	423.970	79.995	19.992	100.245	19.237	97.646	0.506
675.000	424.583	79.997	19.993	100.265	19.224	98.878	0.584
675.500	424.335	79.993	19.992	100.284	19.211	100.093	0.533
676.000	424.886	79.996	19.991	100.296	19.195	101.563	0.334
676.500	425.143	79.996	19.992	100.290	19.185	102.499	0.555
677.000	425.371	79.994	19.991	100.271	19.171	103.799	0.647
677.500	425.583	79.995	19.991	100.252	19.155	105.199	0.463
678.000	425.937	79.994	19.993	100.233	19.145	106.164	0.503
678.500	426.151	79.997	19.991	100.221	19.126	107.854	0.567
679.000	426.323	79.996	19.991	100.232	19.110	109.317	0.477
679.500	426.605	79.994	19.991	100.255	19.095	110.736	0.420
680.000	426.839	79.998	19.991	100.276	19.072	112.807	0.485
680.500	427.093	79.996	19.991	100.290	19.053	114.501	0.502
681.000	427.391	79.996	19.992	100.298	19.029	116.687	0.520
681.500	427.683	79.997	19.991	100.296	19.007	118.647	0.571
682.000	427.845	79.996	19.991	100.306	18.990	120.133	0.522
682.500	428.186	79.996	19.992	100.323	18.971	121.869	0.479
683.000	428.372	79.997	19.991	100.328	18.952	123.542	0.515
683.500	428.651	79.998	19.990	100.333	18.936	124.960	0.496
684.000	428.902	79.997	19.990	100.345	18.918	126.527	0.497
684.500	429.117	79.997	19.990	100.347	18.895	128.566	0.498
685.000	429.331	79.996	19.990	100.351	18.864	131.330	0.448
685.500	429.655	80.001	19.990	100.371	18.834	133.994	0.483
686.000	429.862	79.996	19.991	100.397	18.802	136.849	0.534
686.500	430.093	79.999	19.990	100.422	18.769	139.862	0.484
687.000	430.334	79.998	19.991	100.447	18.725	143.900	0.455
687.500	430.576	79.997	19.991	100.472	18.683	147.760	0.478
688.000	430.811	79.999	19.990	100.500	18.639	151.809	0.480
688.500	431.081	79.997	19.992	100.524	18.597	155.745	0.491
689.000	431.345	79.998	19.991	100.540	18.562	158.994	0.520
689.500	431.604	79.997	19.991	100.549	18.528	162.178	0.529
690.000	431.861	79.999	19.991	100.557	18.497	165.063	0.519
690.500	432.130	79.997	19.991	100.567	18.472	167.373	0.521
691.000	432.371	79.996	19.991	100.569	18.456	168.901	0.518
691.500	432.613	79.996	19.990	100.563	18.441	170.247	0.496
692.000	432.892	79.997	19.992	100.554	18.425	171.591	0.501
692.500	433.161	79.996	19.990	100.535	18.414	172.542	0.534
693.000	433.385	79.995	19.990	100.499	18.408	173.060	0.520
693.500	433.650	79.994	19.990	100.462	18.404	173.439	0.491
694.000	433.932	79.994	19.990	100.427	18.400	173.784	0.518
694.500	434.151	79.998	19.990	100.388	18.394	174.317	0.524
695.000	434.377	79.996	19.992	100.346	18.390	174.642	0.473
695.500	434.626	79.995	19.991	100.313	18.388	174.856	0.460
696.000	434.928	79.995	19.991	100.288	18.386	174.974	0.513
696.500	435.141	79.994	19.991	100.273	18.381	175.476	0.533
697.000	435.388	79.994	19.992	100.272	18.381	175.409	0.487
697.500	435.695	79.995	19.991	100.282	18.377	175.838	0.507
698.000	435.972	79.994	19.992	100.306	18.371	176.311	0.569
698.500	436.163	79.994	19.991	100.346	18.368	176.592	0.526
699.000	436.435	79.992	19.991	100.407	18.365	176.900	0.466
699.500	436.701	79.993	19.991	100.472	18.360	177.371	0.500
700.000	436.931	79.993	19.993	100.543	18.359	177.501	0.517
700.500	437.179	79.995	19.990	100.606	18.354	178.010	0.487
701.000	437.463	79.991	19.992	100.654	18.350	178.321	0.505
701.500	437.744	79.992	19.991	100.677	18.349	178.428	0.549
702.000	437.964	79.995	19.991	100.687	18.346	178.664	0.533
702.500	438.207	79.992	19.991	100.672	18.344	178.837	0.481
703.000	438.484	79.993	19.990	100.648	18.337	179.489	0.491
703.500	438.736	79.994	19.991	100.624	18.332	179.949	0.524
704.000	438.987	79.993	19.991	100.602	18.330	180.072	0.516
704.500	439.264	79.993	19.991	100.584	18.326	180.424	0.516
705.000	439.545	79.993	19.990	100.576	18.325	180.522	0.544
705.500	439.783	79.996	19.990	100.576	18.320	180.913	0.539
706.000	440.014	79.995	19.991	100.572	18.317	181.183	0.494
706.500	440.283	79.994	19.990	100.563	18.313	181.540	0.484
707.000	440.549	79.993	19.991	100.557	18.310	181.864	0.517
707.500	440.805	79.993	19.991	100.553	18.308	182.010	0.529
708.000	441.097	79.994	19.989	100.546	18.308	182.053	0.535
708.500	441.316	79.994	19.990	100.542	18.308	182.015	0.530
709.000	441.549	79.994	19.991	100.545	18.304	182.352	0.481
709.500	441.863	79.994	19.991	100.551	18.305	182.242	0.500
710.000	442.092	79.994	19.991	100.558	18.300	182.689	0.545
710.500	442.352	79.994	19.990	100.569	18.302	182.586	0.516
711.000	442.629	79.995	19.991	100.581	18.302	182.561	0.513
711.500	442.903	79.995	19.990	100.593	18.300	182.759	0.544
712.000	443.142	79.995	19.990	100.596	18.301	182.661	0.532
712.500	443.390	79.994	19.992	100.597	18.303	182.418	0.500
713.000	443.630	79.996	19.989	100.595	18.304	182.321	0.487
713.500	443.913	79.993	19.990	100.584	18.308	181.953	0.506
714.000	444.144	79.996	19.990	100.570	18.308	181.934	0.519
714.500	444.401	79.993	19.990	100.565	18.309	181.850	0.501
715.000	444.640	79.995	19.990	100.554	18.315	181.297	0.491
715.500	444.903	79.994	19.991	100.544	18.318	181.053	0.499
716.000	445.199	79.993	19.990	100.538	18.320	180.801	0.531
716.500	445.440	79.994	19.990	100.531	18.322	180.606	0.548
717.000	445.656	79.997	19.990	100.522	18.330	179.916	0.497
717.500	445.926	79.993	19.990	100.522	18.335	179.436	0.471
718.000	446.178	79.994	19.990	100.524	18.340	178.993	0.504
718.500	446.422	79.993	19.991	100.524	18.348	178.276	0.509
719.000	446.722	79.994	19.991	100.523	18.356	177.563	0.520
719.500	446.960	79.995	19.991	100.518	18.368	176.431	0.541
720.000	447.207	79.998	19.990	100.514	18.371	176.159	0.511
720.500	447.468	79.998	19.991	100.512	18.379	175.362	0.496
721.000	447.689	79.996	19.991	100.513	18.393	174.080	0.495
721.500	447.968	79.994	19.990	100.517	18.402	173.248	0.491
722.000	448.230	79.994	19.992	100.524	18.408	172.668	0.521
722.500	448.479	79.995	19.991	100.523	18.420	171.645	0.526
723.000	448.765	79.994	19.991	100.516	18.433	170.472	0.523
723.500	448.975	79.993	19.992	100.509	18.448	169.135	0.516
724.000	449.247	79.995	19.991	100.504	18.461	167.929	0.489
724.500	449.502	79.993	19.991	100.496	18.471	167.069	0.504
725.000	449.749	79.994	19.991	100.493	18.485	165.796	0.515
725.500	450.028	79.996	19.991	100.490	18.499	164.562	0.514
726.000	450.317	79.993	19.990	100.488	18.511	163.391	0.547
726.500	450.545	79.994	19.993	100.481	18.524	162.209	0.542
727.000	450.812	79.993	19.992	100.474	18.540	160.670	0.506
727.500	451.120	79.994	19.992	100.465	18.553	159.491	0.535
728.000	451.348	79.992	19.992	100.459	18.569	158.011	0.555
728.500	451.558	79.993	19.992	100.462	18.585	156.504	0.487
729.000	451.840	79.991	19.992	100.470	18.600	155.213	0.465
729.500	452.091	79.994	19.991	100.468	18.618	153.520	0.512
730.000	452.337	79.992	19.992	100.462	18.634	152.107	0.515
730.500	452.563	79.993	19.993	100.449	18.657	150.035	0.485
731.000	452.855	79.993	19.992	100.422	18.672	148.670	0.495
731.500	453.093	79.989	19.992	100.399	18.692	146.846	0.524
732.000	453.392	79.995	19.992	100.389	18.708	145.441	0.533
732.500	453.609	79.993	19.992	100.381	18.726	143.761	0.526
733.000	453.867	79.993	19.992	100.381	18.745	142.038	0.495
733.500	454.171	79.993	19.992	100.392	18.767	140.087	0.519
734.000	454.409	79.993	19.992	100.400	18.782	138.731	0.553
734.500	454.667	79.994	19.992	100.405	18.801	137.017	0.519
735.000	454.950	79.997	19.991	100.413	18.817	135.542	0.519
735.500	455.202	79.995	19.991	100.419	18.837	133.753	0.538
736.000	455.458	79.995	19.992	100.419	18.856	131.977	0.521
736.500	455.705	79.995	19.991	100.413	18.873	130.417	0.505
737.000	455.976	79.994	19.992	100.394	18.893	128.617	0.510
737.500	456.192	79.996	19.991	100.370	18.908	127.269	0.503
738.000	456.474	79.995	19.991	100.345	18.930	125.272	0.493
738.500	456.749	79.995	19.991	100.322	18.950	123.419	0.527
739.000	456.968	79.997	19.992	100.303	18.967	121.850	0.526
739.500	457.246	79.994	19.992	100.294	18.988	120.009	0.496
740.000	457.497	79.995	19.991	100.291	19.006	118.271	0.513
740.500	457.770	79.997	19.993	100.291	19.026	116.518	0.526
741.000	458.011	79.995	19.991	100.291	19.048	114.501	0.519
741.500	458.271	79.996	19.993	100.293	19.066	112.878	0.507
742.000	458.506	79.996	19.991	100.296	19.090	110.709	0.498
742.500	458.785	79.997	19.992	100.294	19.109	109.004	0.505
743.000	458.990	79.997	19.991	100.289	19.131	107.082	0.499
743.500	459.273	79.997	19.991	100.282	19.150	105.318	0.486
744.000	459.539	79.994	19.991	100.274	19.169	103.622	0.519
744.500	459.785	79.999	19.992	100.266	19.193	101.447	0.531
745.000	460.054	79.996	19.992	100.263	19.218	99.170	0.514
745.500	460.301	79.995	19.991	100.266	19.237	97.430	0.515
746.000	460.558	79.997	19.991	100.264	19.262	95.206	0.510
746.500	460.787	79.996	19.991	100.260	19.285	93.074	0.495
747.000	461.050	79.995	19.991	100.253	19.308	91.027	0.489
747.500	461.349	79.996	19.992	100.250	19.331	88.958	0.527
748.000	461.593	79.996	19.992	100.243	19.355	86.813	0.553
748.500	461.814	79.996	19.992	100.243	19.372	85.206	0.504
749.000	462.083	79.994	19.992	100.237	19.396	83.018	0.477
749.500	462.320	79.995	19.992	100.222	19.415	81.360	0.498
750.000	462.610	79.995	19.992	100.201	19.439	79.210	0.517
750.500	462.854	79.996	19.993	100.180	19.459	77.372	0.531
751.000	463.104	79.996	19.992	100.158	19.481	75.327	0.514
751.500	463.349	79.997	19.992	100.145	19.500	73.634	0.494
752.000	463.588	79.994	19.992	100.147	19.518	71.980	0.490
752.500	463.872	79.995	19.992	100.155	19.541	69.966	0.504
753.000	464.119	79.995	19.992	100.163	19.560	68.173	0.527
753.500	464.408	79.995	19.992	100.172	19.581	66.336	0.533
754.000	464.634	79.994	19.992	100.180	19.597	64.822	0.525
754.500	464.899	79.997	19.992	100.185	19.615	63.272	0.503
755.000	465.157	79.994	19.993	100.185	19.635	61.471	0.507
755.500	465.410	79.995	19.992	100.185	19.648	60.224	0.517
756.000	465.645	79.994	19.991	100.184	19.662	58.978	0.499
756.500	465.932	79.994	19.992	100.177	19.676	57.726	0.505
757.000	466.203	79.992	19.992	100.169	19.692	56.327	0.540
757.500	466.386	79.994	19.992	100.160	19.707	54.912	0.505
758.000	466.627	79.995	19.992	100.153	19.722	53.541	0.439
758.500	466.917	79.995	19.992	100.140	19.734	52.530	0.478
759.000	467.178	79.994	19.992	100.136	19.748	51.232	0.541
759.500	467.392	79.996	19.993	100.130	19.760	50.175	0.513
760.000	467.697	79.995	19.992	100.124	19.776	48.658	0.497
760.500	467.943	79.992	19.992	100.119	19.789	47.562	0.535
761.000	468.209	79.994	19.992	100.117	19.797	46.768	0.532
761.500	468.494	79.997	19.992	100.109	19.807	45.871	0.532
762.000	468.752	79.997	19.993	100.100	19.818	44.888	0.547
762.500	469.035	79.996	19.992	100.091	19.830	43.852	0.542
763.000	469.227	79.999	19.992	100.079	19.841	42.838	0.508
763.500	469.493	79.997	19.992	100.069	19.850	42.019	0.466
764.000	469.723	79.995	19.991	100.063	19.858	41.323	0.477
764.500	469.994	79.996	19.992	100.056	19.868	40.385	0.498
765.000	470.300	79.994	19.992	100.049	19.878	39.525	0.539
765.500	470.518	79.995	19.991	100.044	19.886	38.763	0.551
766.000	470.747	79.996	19.991	100.038	19.898	37.705	0.486
766.500	471.035	79.998	19.990	100.031	19.903	37.251	0.482
767.000	471.313	79.996	19.990	100.030	19.912	36.393	0.541
767.500	471.541	79.998	19.991	100.029	19.917	36.002	0.536
768.000	471.803	79.998	19.990	100.028	19.928	34.944	0.498
768.500	472.082	79.998	19.990	100.028	19.938	34.117	0.516
769.000	472.323	79.997	19.991	100.027	19.943	33.600	0.530
769.500	472.593	79.997	19.991	100.025	19.953	32.706	0.515
770.000	472.874	79.996	19.990	100.024	19.957	32.380	0.531
770.500	473.138	79.998	19.991	100.017	19.962	31.905	0.548
771.000	473.356	79.996	19.990	100.012	19.967	31.474	0.514
771.500	473.612	79.995	19.990	100.008	19.975	30.784	0.478
772.000	473.888	79.996	19.990	100.009	19.978	30.447	0.503
772.500	474.129	79.995	19.991	100.008	19.989	29.495	0.524
773.000	474.407	79.997	19.990	100.008	19.994	29.075	0.518
773.500	474.625	79.996	19.990	100.009	19.998	28.631	0.508
774.000	474.902	79.994	19.991	100.011	20.003	28.262	0.496
774.500	475.159	79.994	19.991	100.008	20.007	27.832	0.515
775.000	475.425	79.997	19.991	100.002	20.015	27.181	0.529
775.500	475.694	79.995	19.991	100.004	20.019	26.811	0.529
776.000	475.937	79.995	19.990	100.002	20.022	26.493	0.523
776.500	476.198	79.996	19.990	99.997	20.031	25.708	0.508
777.000	476.431	79.994	19.992	99.995	20.034	25.481	0.499
777.500	476.683	79.994	19.989	99.994	20.036	25.250	0.490
778.000	476.923	79.994	19.990	99.992	20.040	24.861	0.488
778.500	477.207	79.992	19.992	99.988	20.050	23.959	0.508
779.000	477.431	79.994	19.991	99.984	20.051	23.871	0.516
779.500	477.664	79.992	19.990	99.979	20.057	23.383	0.483
780.000	477.935	79.995	19.991	99.975	20.062	22.861	0.481
780.500	478.213	79.993	19.990	99.973	20.063	22.776	0.527
781.000	478.463	79.995	19.991	99.972	20.067	22.403	0.538
781.500	478.705	79.993	19.991	99.976	20.077	21.558	0.510
782.000	478.981	79.995	19.991	99.980	20.079	21.359	0.505
782.500	479.251	79.993	19.990	99.985	20.080	21.243	0.532
783.000	479.508	79.995	19.991	99.987	20.087	20.658	0.536
783.500	479.735	79.993	19.991	99.991	20.092	20.172	0.506
784.000	480.008	79.995	19.992	99.990	20.094	19.960	0.492
784.500	480.266	79.993	19.991	99.993	20.099	19.590	0.516
785.000	480.473	79.992	19.991	99.995	20.103	19.151	0.499
785.500	480.731	79.995	19.991	99.994	20.113	18.317	0.465
786.000	480.998	79.994	19.991	99.999	20.107	18.821	0.495
786.500	481.286	79.995	19.992	100.007	20.105	19.001	0.540
787.000	481.529	79.995	19.992	100.020	20.116	17.977	0.543
787.500	481.803	79.993	19.991	100.038	20.117	17.940	0.524
788.000	482.052	79.993	19.992	100.059	20.121	17.569	0.520
788.500	482.321	79.995	19.990	100.065	20.117	17.974	0.521
789.000	482.584	79.995	19.990	100.060	20.121	17.531	0.525
789.500	482.796	79.994	19.990	100.039	20.123	17.429	0.504
790.000	483.066	79.992	19.991	100.012	20.138	16.055	0.479
790.500	483.321	79.995	19.991	99.983	20.141	15.789	0.503
791.000	483.535	79.991	19.991	99.960	20.129	16.820	0.497
791.500	483.824	79.993	19.991	99.941	20.138	16.010	0.486
792.000	484.088	79.993	19.990	99.931	20.132	16.614	0.528
792.500	484.330	79.995	19.991	99.925	20.134	16.386	0.529
793.000	484.622	79.994	19.991	99.917	20.136	16.197	0.520
793.500	484.877	79.994	19.991	99.915	20.140	15.876	0.541
794.000	485.129	79.995	19.991	99.915	20.140	15.824	0.527
794.500	485.373	79.993	19.990	99.915	20.141	15.732	0.501
795.000	485.599	79.994	19.990	99.913	20.143	15.624	0.483
795.500	485.882	79.992	19.992	99.915	20.146	15.296	0.490
796.000	486.171	79.992	19.991	99.916	20.142	15.636	0.541
796.500	486.400	79.994	19.990	99.917	20.147	15.194	0.545
797.000	486.638	79.995	19.991	99.920	20.146	15.362	0.493
797.500	486.904	79.995	19.990	99.919	20.150	14.945	0.486
798.000	487.129	79.994	19.992	99.917	20.150	14.964	0.498
798.500	487.405	79.994	19.991	99.917	20.151	14.858	0.496
799.000	487.667	79.992	19.992	99.924	20.151	14.858	0.519
799.500	487.863	79.995	19.991	99.929	20.150	14.957	0.498
800.000	488.100	79.998	19.992	99.936	20.164	13.690	0.446
800.500	488.439	79.998	19.992	99.944	20.168	13.306	0.504
801.000	488.598	79.990	19.992	99.950	20.161	13.956	0.537
801.500	488.902	79.997	19.990	99.949	20.158	14.263	0.481
802.000	489.107	79.995	19.990	99.945	20.157	14.350	0.486
802.500	489.395	79.994	19.991	99.945	20.159	14.117	0.502
803.000	489.656	79.993	19.992	99.941	20.156	14.422	0.521
803.500	489.939	79.996	19.990	99.934	20.162	13.833	0.546
804.000	490.154	79.996	19.991	99.927	20.164	13.706	0.520
804.500	490.381	79.997	19.991	99.925	20.160	14.083	0.470
805.000	490.624	79.993	19.990	99.920	20.176	12.637	0.456
805.500	490.905	79.995	19.991	99.917	20.176	12.650	0.498
806.000	491.198	79.995	19.990	99.920	20.168	13.356	0.549
806.500	491.395	79.993	19.991	99.923	20.166	13.553	0.532
807.000	491.710	79.994	19.990	99.922	20.168	13.301	0.501
807.500	491.960	79.993	19.990	99.919	20.170	13.153	0.538
808.000	492.211	79.994	19.991	99.918	20.170	13.134	0.532
808.500	492.478	79.995	19.991	99.914	20.171	13.062	0.509
809.000	492.714	79.994	19.992	99.911	20.173	12.862	0.511
809.500	492.961	79.995	19.992	99.913	20.176	12.648	0.493
810.000	493.201	79.992	19.992	99.914	20.178	12.406	0.485
810.500	493.445	79.993	19.991	99.916	20.182	12.112	0.486
811.000	493.748	79.993	19.992	99.923	20.177	12.524	0.515
811.500	493.995	79.994	19.992	99.931	20.180	12.265	0.548
812.000	494.281	79.991	19.991	99.939	20.179	12.352	0.541
812.500	494.524	79.994	19.992	99.946	20.179	12.352	0.531
813.000	494.783	79.994	19.991	99.948	20.181	12.124	0.516
813.500	495.010	79.994	19.992	99.943	20.180	12.287	0.494
814.000	495.219	79.991	19.992	99.934	20.181	12.159	0.461
814.500	495.487	79.995	19.991	99.922	20.182	12.055	0.456
815.000	495.722	79.994	19.991	99.915	20.188	11.520	0.490
815.500	495.996	79.994	19.991	99.911	20.184	11.866	0.506
816.000	496.304	79.994	19.991	99.909	20.184	11.880	0.546
816.500	496.521	79.994	19.991	99.909	20.183	11.964	0.554
817.000	496.758	79.993	19.992	99.911	20.185	11.764	0.489
817.500	497.052	79.993	19.992	99.911	20.184	11.893	0.493
818.000	497.313	79.995	19.991	99.912	20.188	11.488	0.543
818.500	497.550	79.994	19.991	99.913	20.188	11.512	0.526
819.000	497.792	79.996	19.991	99.913	20.192	11.152	0.488
819.500	498.040	79.993	19.991	99.913	20.187	11.603	0.484
820.000	498.304	79.993	19.991	99.913	20.184	11.919	0.501
820.500	498.561	79.995	19.992	99.912	20.190	11.374	0.517
821.000	498.814	79.994	19.992	99.911	20.191	11.273	0.516
821.500	499.084	79.996	19.991	99.912	20.189	11.404	0.516
822.000	499.358	79.995	19.992	99.913	20.190	11.326	0.533
822.500	499.603	79.995	19.991	99.913	20.188	11.492	0.532
823.000	499.842	79.995	19.991	99.912	20.190	11.368	0.502
823.500	500.148	79.995	19.991	99.912	20.195	10.937	0.514
824.000	500.395	79.999	19.992	99.910	20.193	11.045	0.549
824.500	500.696	79.998	19.991	99.909	20.193	11.101	0.551
825.000	500.910	79.993	19.992	99.909	20.193	11.084	0.532
825.500	501.175	79.995	19.991	99.911	20.191	11.286	0.497
826.000	501.418	79.995	19.992	99.911	20.191	11.259	0.493
826.500	501.671	79.998	19.991	99.913	20.193	11.062	0.502
827.000	501.930	79.994	19.990	99.912	20.195	10.864	0.504
827.500	502.229	79.998	19.991	99.912	20.195	10.938	0.535
828.000	502.409	79.996	19.990	99.912	20.194	10.960	0.518
828.500	502.688	79.997	19.991	99.911	20.190	11.375	0.469
829.000	502.979	79.994	19.990	99.911	20.196	10.840	0.515
829.500	503.293	79.995	19.992	99.907	20.197	10.751	0.587
830.000	503.445	79.996	19.991	99.903	20.192	11.200	0.535
830.500	503.737	79.994	19.992	99.902	20.196	10.795	0.455
831.000	503.952	79.995	19.992	99.902	20.196	10.809	0.475
831.500	504.221	79.992	19.992	99.903	20.195	10.870	0.495
832.000	504.527	79.992	19.992	99.908	20.197	10.700	0.529
832.500	504.782	79.994	19.990	99.912	20.198	10.604	0.568
833.000	505.047	79.996	19.991	99.917	20.196	10.784	0.541
833.500	505.267	79.995	19.991	99.921	20.197	10.765	0.503
834.000	505.693	79.996	19.992	99.921	20.197	10.733	0.566
834.500	505.845	79.995	19.992	99.921	20.197	10.721	0.612
835.000	506.006	79.994	19.991	99.921	20.199	10.561	0.445
835.500	506.321	79.994	19.991	99.917	20.197	10.684	0.394
836.000	506.600	79.995	19.991	99.914	20.200	10.462	0.535
836.500	506.821	79.995	19.992	99.915	20.196	10.793	0.547
837.000	507.060	79.993	19.992	99.914	20.201	10.376	0.480
837.500	507.335	79.995	19.992	99.914	20.201	10.316	0.487
838.000	507.597	79.994	19.992	99.915	20.202	10.235	0.525
838.500	507.876	79.994	19.991	99.914	20.202	10.274	0.539
839.000	508.104	79.993	19.993	99.913	20.203	10.225	0.524
839.500	508.352	79.996	19.991	99.914	20.202	10.257	0.491
840.000	508.603	79.994	19.991	99.913	20.202	10.252	0.487
840.500	508.892	79.995	19.990	99.913	20.199	10.503	0.520
841.000	509.157	79.995	19.992	99.912	20.204	10.103	0.547
841.500	509.396	79.994	19.992	99.911	20.204	10.093	0.529
842.000	509.637	79.996	19.992	99.904	20.200	10.411	0.492
842.500	509.864	79.994	19.992	99.903	20.202	10.251	0.474
843.000	510.146	79.995	19.992	99.903	20.199	10.572	0.489
843.500	510.417	79.994	19.992	99.903	20.202	10.273	0.531
844.000	510.647	79.996	19.992	99.905	20.203	10.143	0.527
844.500	510.946	79.996	19.992	99.912	20.204	10.099	0.515
845.000	511.213	79.993	19.992	99.913	20.204	10.077	0.547
845.500	511.468	79.996	19.992	99.914	20.205	9.993	0.544
846.000	511.682	79.996	19.992	99.915	20.206	9.914	0.496
846.500	511.945	79.997	19.991	99.916	20.204	10.064	0.473
847.000	512.216	79.995	19.993	99.916	20.203	10.204	0.505
847.500	512.447	79.997	19.992	99.915	20.204	10.105	0.517
848.000	512.700	79.996	19.992	99.914	20.208	9.743	0.493
848.500	512.954	79.998	19.991	99.913	20.206	9.937	0.496
849.000	513.202	79.996	19.992	99.911	20.209	9.632	0.504
849.500	513.493	79.995	19.992	99.911	20.205	9.960	0.520
850.000	513.768	79.998	19.991	99.911	20.208	9.764	0.553
850.500	514.039	79.997	19.992	99.908	20.205	9.974	0.556
851.000	514.330	79.996	19.992	99.905	20.207	9.811	0.554
851.500	514.570	79.998	19.992	99.903	20.207	9.853	0.547
852.000	514.823	79.998	19.992	99.900	20.209	9.675	0.512
852.500	515.064	79.994	19.992	99.899	20.209	9.659	0.493
853.000	515.359	79.997	19.991	99.899	20.207	9.809	0.515
853.500	515.637	79.997	19.992	99.900	20.210	9.592	0.555
854.000	515.876	79.997	19.992	99.900	20.206	9.878	0.545
854.500	516.147	79.992	19.991	99.902	20.205	9.977	0.514
855.000	516.398	79.995	19.991	99.903	20.210	9.577	0.516
855.500	516.626	79.997	19.991	99.905	20.208	9.764	0.501
856.000	516.885	79.995	19.991	99.906	20.207	9.833	0.483
856.500	517.157	79.996	19.991	99.907	20.208	9.756	0.509
857.000	517.421	79.995	19.991	99.907	20.212	9.388	0.534
857.500	517.657	79.996	19.991	99.902	20.211	9.484	0.518
858.000	517.946	79.997	19.991	99.897	20.207	9.788	0.513
858.500	518.209	79.994	19.991	99.896	20.212	9.366	0.539
859.000	518.457	79.996	19.991	99.896	20.212	9.384	0.531
859.500	518.716	79.993	19.991	99.895	20.209	9.597	0.509
860.000	518.988	79.995	19.990	99.896	20.209	9.662	0.519
860.500	519.239	79.996	19.990	99.897	20.211	9.484	0.527
861.000	519.508	79.994	19.991	99.893	20.210	9.539	0.522
861.500	519.797	79.996	19.992	99.892	20.210	9.570	0.539
862.000	520.044	79.997	19.993	99.888	20.211	9.453	0.547
862.500	520.295	79.997	19.991	99.889	20.209	9.650	0.517
863.000	520.588	79.994	19.991	99.891	20.208	9.741	0.521
863.500	520.822	79.992	19.992	99.896	20.208	9.741	0.535
864.000	521.118	79.997	19.991	99.892	20.208	9.744	0.529
864.500	521.376	79.994	19.990	99.895	20.205	9.982	0.542
865.000	521.608	79.994	19.991	99.895	20.209	9.669	0.522
865.500	521.835	79.995	19.991	99.894	20.204	10.049	0.475
866.000	522.118	79.995	19.990	99.890	20.208	9.764	0.485
866.500	522.379	79.994	19.992	99.892	20.206	9.950	0.527
867.000	522.644	79.994	19.991	99.890	20.206	9.935	0.535
867.500	522.902	79.996	19.992	99.887	20.208	9.691	0.525
868.000	523.158	79.995	19.991	99.881	20.208	9.740	0.519
868.500	523.420	79.995	19.990	99.879	20.208	9.732	0.516
869.000	523.680	79.995	19.992	99.877	20.207	9.865	0.520
869.500	523.956	79.997	19.991	99.877	20.210	9.544	0.529
870.000	524.195	79.994	19.992	99.884	20.209	9.648	0.526
870.500	524.444	79.997	19.991	99.892	20.209	9.630	0.501
871.000	524.720	79.993	19.992	99.900	20.211	9.502	0.506
871.500	524.966	79.996	19.992	99.902	20.209	9.675	0.524
872.000	525.228	79.994	19.991	99.904	20.209	9.672	0.516
872.500	525.509	79.994	19.992	99.896	20.206	9.926	0.526
873.000	525.761	79.995	19.991	99.889	20.210	9.591	0.538
873.500	525.998	79.995	19.991	99.883	20.210	9.507	0.511
874.000	526.298	79.995	19.992	99.883	20.210	9.519	0.513
874.500	526.517	79.994	19.991	99.885	20.210	9.529	0.528
875.000	526.741	79.997	19.991	99.890	20.208	9.726	0.481
875.500	527.015	79.993	19.991	99.897	20.208	9.765	0.471
876.000	527.286	79.995	19.992	99.904	20.209	9.679	0.522
876.500	527.524	79.993	19.992	99.907	20.209	9.664	0.527
877.000	527.798	79.995	19.991	99.910	20.212	9.389	0.511
877.500	528.074	79.994	19.990	99.919	20.214	9.216	0.531
878.000	528.350	79.995	19.991	99.921	20.210	9.584	0.551
878.500	528.578	79.993	19.991	99.919	20.212	9.381	0.529
879.000	528.828	79.993	19.992	99.919	20.207	9.792	0.491
879.500	529.103	79.996	19.991	99.917	20.211	9.481	0.501
880.000	529.339	79.996	19.992	99.912	20.214	9.210	0.518
880.500	529.577	79.994	19.992	99.911	20.214	9.215	0.492
881.000	529.880	79.994	19.991	99.910	20.212	9.329	0.507
881.500	530.096	79.994	19.991	99.910	20.214	9.147	0.530
882.000	530.376	79.995	19.991	99.910	20.212	9.337	0.508
882.500	530.626	79.995	19.992	99.910	20.210	9.516	0.513
883.000	530.881	79.996	19.992	99.910	20.211	9.496	0.517
883.500	531.151	79.994	19.991	99.910	20.214	9.184	0.515
884.000	531.434	79.995	19.991	99.910	20.214	9.172	0.539
884.500	531.702	79.994	19.990	99.910	20.213	9.265	0.552
885.000	531.940	79.994	19.992	99.908	20.212	9.327	0.528
885.500	532.197	79.993	19.991	99.904	20.212	9.325	0.500
886.000	532.408	79.994	19.991	99.903	20.211	9.443	0.481
886.500	532.704	79.994	19.991	99.903	20.212	9.329	0.487
887.000	533.004	79.994	19.991	99.903	20.212	9.356	0.551
887.500	533.242	79.994	19.991	99.905	20.215	9.065	0.567
888.000	533.484	79.994	19.991	99.909	20.213	9.266	0.509
888.500	533.768	79.996	19.991	99.910	20.214	9.222	0.503
889.000	533.994	79.994	19.990	99.910	20.210	9.565	0.518
889.500	534.231	79.992	19.990	99.907	20.213	9.282	0.486
890.000	534.533	79.994	19.991	99.902	20.212	9.361	0.501
890.500	534.775	79.994	19.991	99.899	20.212	9.348	0.542
891.000	535.083	79.992	19.990	99.900	20.209	9.602	0.547
891.500	535.309	79.998	19.992	99.900	20.211	9.429	0.542
892.000	535.581	79.993	19.991	99.904	20.209	9.616	0.516
892.500	535.813	79.993	19.991	99.909	20.211	9.483	0.501
893.000	536.056	79.992	19.991	99.909	20.212	9.388	0.490
893.500	536.332	79.995	19.991	99.902	20.208	9.724	0.497
894.000	536.597	79.995	19.991	99.894	20.213	9.325	0.530
894.500	536.876	79.994	19.990	99.889	20.212	9.367	0.542
895.000	537.085	79.995	19.991	99.886	20.210	9.507	0.516
895.500	537.377	79.993	19.991	99.883	20.209	9.675	0.495
896.000	537.639	79.995	19.990	99.887	20.211	9.468	0.528
896.500	537.884	79.992	19.991	99.887	20.209	9.596	0.530
897.000	538.133	79.994	19.990	99.885	20.211	9.433	0.500
897.500	538.357	79.993	19.991	99.883	20.211	9.416	0.483
898.000	538.650	79.993	19.990	99.881	20.208	9.707	0.496
898.500	538.931	79.994	19.991	99.881	20.207	9.818	0.546
899.000	539.197	79.993	19.991	99.887	20.210	9.557	0.560
899.500	539.434	79.996	19.991	99.890	20.207	9.818	0.525
900.000	539.684	79.994	19.992	99.895	20.209	9.643	0.495
900.500	539.947	79.994	19.991	99.900	20.206	9.895	0.500
901.000	540.171	79.995	19.991	99.901	20.208	9.734	0.500
901.500	540.420	79.994	19.991	99.896	20.208	9.697	0.480
902.000	540.654	79.996	19.991	99.893	20.209	9.665	0.478
902.500	540.933	79.995	19.991	99.889	20.210	9.559	0.498
903.000	541.185	79.996	19.991	99.890	20.209	9.677	0.523
903.500	541.453	79.994	19.991	99.891	20.205	10.023	0.526
904.000	541.698	79.995	19.990	99.899	20.212	9.330	0.516
904.500	541.939	79.995	19.992	99.906	20.209	9.638	0.499
905.000	542.182	79.994	19.990	99.910	20.208	9.751	0.485
905.500	542.444	79.996	19.992	99.912	20.211	9.416	0.495
906.000	542.680	79.995	19.991	99.912	20.210	9.512	0.502
906.500	542.983	79.996	19.992	99.911	20.205	9.990	0.519
907.000	543.182	79.995	19.992	99.911	20.206	9.916	0.521
907.500	543.442	79.995	19.991	99.911	20.207	9.861	0.481
908.000	543.702	79.995	19.991	99.910	20.208	9.772	0.489
908.500	543.941	79.995	19.991	99.911	20.208	9.708	0.509
909.000	544.224	79.995	19.991	99.911	20.206	9.883	0.510
909.500	544.463	79.995	19.992	99.911	20.207	9.790	0.522
910.000	544.713	79.995	19.991	99.912	20.203	10.173	0.505
910.500	544.965	79.994	19.991	99.913	20.208	9.692	0.496
911.000	545.220	79.996	19.992	99.913	20.206	9.952	0.505
911.500	545.444	79.996	19.992	99.912	20.207	9.832	0.493
912.000	545.689	79.993	19.992	99.911	20.205	9.973	0.474
912.500	545.934	79.995	19.991	99.911	20.207	9.865	0.480
913.000	546.199	79.996	19.992	99.911	20.206	9.870	0.500
913.500	546.470	79.995	19.991	99.910	20.205	9.991	0.523
914.000	546.690	79.994	19.992	99.909	20.209	9.682	0.514
914.500	546.992	79.995	19.992	99.910	20.203	10.143	0.507
915.000	547.246	79.995	19.991	99.911	20.205	10.004	0.539
915.500	547.488	79.995	19.992	99.909	20.207	9.826	0.526
916.000	547.756	79.996	19.992	99.907	20.205	9.981	0.503
916.500	548.003	79.995	19.992	99.908	20.205	9.998	0.512
917.000	548.241	79.996	19.992	99.907	20.205	9.976	0.500
917.500	548.485	79.995	19.992	99.905	20.203	10.149	0.483
918.000	548.752	79.995	19.991	99.905	20.207	9.864	0.497
918.500	549.002	79.995	19.992	99.899	20.209	9.681	0.514
919.000	549.237	79.995	19.991	99.898	20.209	9.621	0.501
919.500	549.479	79.994	19.991	99.898	20.207	9.776	0.481
920.000	549.723	79.995	19.992	99.899	20.210	9.568	0.482
920.500	550.005	79.995	19.992	99.902	20.207	9.799	0.506
921.000	550.236	79.994	19.992	99.910	20.210	9.575	0.519
921.500	550.476	79.997	19.991	99.913	20.207	9.784	0.492
922.000	550.736	79.996	19.992	99.918	20.214	9.183	0.485
922.500	550.996	79.997	19.992	99.925	20.210	9.558	0.510
923.000	551.222	79.994	19.991	99.931	20.209	9.639	0.503
923.500	551.480	79.995	19.991	99.937	20.212	9.393	0.484
924.000	551.748	79.995	19.991	99.939	20.215	9.124	0.505
924.500	551.979	79.998	19.992	99.937	20.215	9.053	0.513
925.000	552.244	79.994	19.991	99.930	20.212	9.373	0.498
925.500	552.472	79.996	19.991	99.925	20.211	9.423	0.495
926.000	552.779	79.995	19.992	99.920	20.213	9.235	0.514
926.500	553.001	79.996	19.992	99.916	20.210	9.536	0.532
927.000	553.220	79.997	19.991	99.914	20.209	9.617	0.485
927.500	553.529	79.996	19.992	99.914	20.212	9.368	0.484
928.000	553.778	79.996	19.991	99.913	20.209	9.610	0.543
928.500	554.023	79.995	19.992	99.911	20.212	9.403	0.526
929.000	554.301	79.996	19.991	99.906	20.206	9.887	0.509
929.500	554.533	79.997	19.991	99.898	20.207	9.853	0.517
930.000	554.793	79.994	19.991	99.891	20.207	9.832	0.501
930.500	555.047	79.997	19.991	99.883	20.206	9.950	0.503
931.000	555.275	79.997	19.992	99.875	20.208	9.773	0.498
931.500	555.586	79.996	19.992	99.871	20.205	10.022	0.510
932.000	555.809	79.996	19.992	99.871	20.203	10.190	0.536
932.500	556.102	79.997	19.992	99.870	20.206	9.940	0.525
933.000	556.314	79.997	19.992	99.871	20.209	9.638	0.510
933.500	556.578	79.997	19.992	99.871	20.207	9.850	0.491
934.000	556.829	79.997	19.993	99.870	20.205	10.022	0.496
934.500	557.059	79.997	19.992	99.874	20.211	9.482	0.498
935.000	557.288	79.995	19.992	99.875	20.207	9.848	0.470
935.500	557.589	79.996	19.993	99.877	20.205	9.971	0.494
936.000	557.825	79.996	19.991	99.879	20.205	9.996	0.534
936.500	558.077	79.996	19.993	99.879	20.203	10.165	0.512
937.000	558.334	79.996	19.992	99.875	20.204	10.114	0.499
937.500	558.608	79.995	19.992	99.874	20.205	10.002	0.520
938.000	558.862	79.995	19.992	99.872	20.204	10.049	0.529
938.500	559.126	79.994	19.992	99.872	20.204	10.089	0.523
939.000	559.374	79.995	19.992	99.878	20.205	9.981	0.515
939.500	559.611	79.994	19.992	99.880	20.205	10.011	0.499
940.000	559.858	79.996	19.992	99.887	20.204	10.123	0.484
940.500	560.102	79.995	19.992	99.894	20.209	9.654	0.487
941.000	560.335	79.993	19.992	99.900	20.206	9.917	0.484
941.500	560.617	79.993	19.992	99.901	20.209	9.617	0.496
942.000	560.858	79.995	19.992	99.907	20.206	9.929	0.520
942.500	561.146	79.995	19.991	99.907	20.209	9.675	0.526
943.000	561.350	79.995	19.991	99.903	20.206	9.894	0.510
943.500	561.615	79.994	19.991	99.896	20.207	9.845	0.480
944.000	561.871	79.994	19.991	99.888	20.205	9.988	0.495
944.500	562.120	79.994	19.992	99.884	20.202	10.254	0.513
945.000	562.356	79.996	19.991	99.881	20.200	10.471	0.495
945.500	562.646	79.996	19.991	99.881	20.201	10.365	0.506
946.000	562.887	79.996	19.990	99.893	20.200	10.471	0.528
946.500	563.148	79.995	19.991	99.889	20.197	10.745	0.516
947.000	563.437	79.995	19.992	99.870	20.198	10.657	0.526
947.500	563.659	79.995	19.990	99.853	20.200	10.470	0.531
948.000	563.892	79.995	19.991	99.842	20.198	10.631	0.483
948.500	564.125	79.995	19.990	99.826	20.198	10.606	0.461
949.000	564.400	79.995	19.991	99.829	20.199	10.565	0.487
949.501	564.658	79.995	19.990	99.855	20.201	10.386	0.520
950.000	564.922	79.994	19.990	99.911	20.202	10.263	0.527
950.500	565.128	79.994	19.991	99.939	20.201	10.354	0.496
951.000	565.432	79.995	19.990	99.951	20.202	10.315	0.490
951.500	565.671	79.995	19.991	99.952	20.202	10.253	0.527
952.000	565.920	79.994	19.989	99.943	20.204	10.101	0.516
952.500	566.181	79.995	19.990	99.903	20.201	10.336	0.499
953.000	566.417	79.994	19.990	99.887	20.197	10.676	0.503
953.500	566.708	79.993	19.990	99.882	20.200	10.442	0.512
954.000	566.953	79.995	19.991	99.884	20.202	10.271	0.532
954.500	567.222	79.995	19.990	99.884	20.202	10.230	0.525
955.000	567.498	79.995	19.991	99.883	20.202	10.249	0.530
955.500	567.717	79.996	19.991	99.879	20.198	10.611	0.520
956.000	567.987	79.995	19.991	99.878	20.201	10.336	0.492
956.500	568.240	79.995	19.990	99.879	20.200	10.455	0.505
957.000	568.465	79.995	19.991	99.885	20.200	10.469	0.500
957.500	568.732	79.996	19.991	99.886	20.197	10.719	0.485
958.000	568.996	79.994	19.991	99.888	20.201	10.386	0.512
958.500	569.196	79.995	19.990	99.892	20.202	10.311	0.498
959.000	569.483	79.994	19.991	99.897	20.199	10.548	0.476
959.500	569.786	79.994	19.991	99.899	20.200	10.453	0.538
960.000	570.017	79.994	19.992	99.905	20.202	10.251	0.562
960.500	570.267	79.996	19.992	99.914	20.199	10.513	0.508
961.000	570.501	79.994	19.991	99.916	20.201	10.336	0.483
961.500	570.751	79.994	19.992	99.916	20.199	10.509	0.484
962.000	571.030	79.994	19.990	99.920	20.200	10.493	0.506
962.500	571.260	79.994	19.991	99.922	20.200	10.417	0.519
963.000	571.550	79.995	19.991	99.926	20.199	10.500	0.515
963.500	571.777	79.995	19.992	99.934	20.198	10.593	0.518
964.001	572.037	79.995	19.991	99.903	20.202	10.245	0.502
964.500	572.300	79.995	19.991	99.863	20.199	10.524	0.505
965.000	572.565	79.994	19.990	99.834	20.204	10.063	0.525
965.500	572.887	79.994	19.991	99.815	20.204	10.088	0.557
966.000	573.113	79.992	19.993	99.806	20.202	10.290	0.568
966.500	573.362	79.994	19.992	99.874	20.205	9.977	0.512
967.000	573.613	79.993	19.990	99.959	20.205	9.989	0.488
967.500	573.908	79.993	19.991	100.006	20.205	9.999	0.523
968.000	574.186	79.993	19.991	100.027	20.208	9.718	0.559
968.500	574.460	79.993	19.991	100.028	20.204	10.133	0.562
969.000	574.733	79.993	19.992	99.989	20.206	9.933	0.550
969.500	574.970	79.994	19.992	99.932	20.204	10.109	0.529
970.000	575.241	79.993	19.991	99.907	20.203	10.143	0.509
970.500	575.481	79.994	19.991	99.899	20.207	9.825	0.510
971.000	575.787	79.992	19.990	99.897	20.204	10.131	0.529
971.500	576.018	79.993	19.991	99.900	20.207	9.850	0.541
972.000	576.223	79.993	19.991	99.908	20.203	10.200	0.487
972.500	576.547	79.993	19.991	99.910	20.201	10.356	0.483
973.000	576.727	79.992	19.991	99.906	20.204	10.105	0.517
973.500	577.003	79.993	19.991	99.903	20.200	10.424	0.480
974.000	577.247	79.993	19.990	99.896	20.197	10.684	0.488
974.500	577.530	79.992	19.990	99.890	20.202	10.285	0.523
975.000	577.822	79.994	19.991	99.886	20.201	10.406	0.551
975.500	578.041	79.993	19.991	99.889	20.198	10.670	0.543
976.000	578.297	79.993	19.991	99.890	20.201	10.321	0.493
976.500	578.509	79.992	19.992	99.894	20.203	10.202	0.471
977.000	578.762	79.995	19.990	99.894	20.204	10.118	0.466
977.500	579.065	79.994	19.991	99.897	20.202	10.228	0.511
978.000	579.355	79.993	19.992	99.892	20.203	10.142	0.575
978.500	579.557	79.992	19.990	99.894	20.203	10.204	0.543
979.000	579.858	79.995	19.991	99.894	20.200	10.448	0.497
979.500	580.101	79.995	19.990	99.900	20.200	10.453	0.523
980.000	580.368	79.994	19.992	99.902	20.203	10.157	0.527
980.500	580.641	79.993	19.991	99.908	20.202	10.275	0.525
981.000	580.922	79.995	19.990	99.909	20.204	10.065	0.547
981.500	581.162	79.995	19.991	99.911	20.201	10.316	0.538
982.000	581.409	79.994	19.991	99.909	20.201	10.380	0.505
982.500	581.643	79.995	19.991	99.909	20.199	10.511	0.484
983.000	581.931	79.995	19.991	99.909	20.204	10.094	0.501
983.500	582.175	79.995	19.990	99.911	20.205	10.012	0.526
984.000	582.458	79.995	19.991	99.918	20.202	10.299	0.529
984.500	582.720	79.996	19.991	99.926	20.203	10.207	0.536
985.000	582.982	79.997	19.991	99.934	20.200	10.410	0.535
985.500	583.224	79.996	19.990	99.942	20.201	10.397	0.514
986.000	583.485	79.996	19.990	99.946	20.202	10.227	0.504
986.500	583.707	79.997	19.991	99.943	20.202	10.313	0.494
987.000	584.004	79.997	19.990	99.937	20.202	10.304	0.501
987.500	584.215	79.997	19.990	99.929	20.203	10.205	0.513
988.000	584.464	79.997	19.990	99.923	20.205	9.995	0.484
988.500	584.757	79.995	19.991	99.920	20.204	10.126	0.501
989.000	585.011	79.996	19.991	99.919	20.201	10.385	0.544
989.500	585.268	79.996	19.991	99.920	20.202	10.244	0.529
990.000	585.501	79.996	19.992	99.921	20.202	10.254	0.500
990.500	585.805	79.996	19.990	99.922	20.198	10.597	0.514
991.000	586.033	79.997	19.991	99.920	20.202	10.229	0.535
991.500	586.299	79.997	19.991	99.916	20.201	10.375	0.513
992.000	586.607	79.997	19.991	99.915	20.202	10.294	0.534
992.500	586.803	79.996	19.991	99.910	20.203	10.190	0.539
993.000	587.057	79.997	19.992	99.905	20.200	10.414	0.476
993.500	587.326	79.995	19.992	99.905	20.198	10.589	0.486
994.000	587.576	79.996	19.992	99.904	20.198	10.643	0.521
994.500	587.838	79.996	19.992	99.903	20.200	10.458	0.516
995.000	588.062	79.997	19.993	99.906	20.200	10.454	0.499
995.500	588.357	79.997	19.991	99.908	20.198	10.642	0.503
996.000	588.579	79.995	19.993	99.907	20.198	10.605	0.518
996.500	588.851	79.996	19.992	99.908	20.201	10.339	0.505
997.000	589.118	79.996	19.992	99.906	20.199	10.546	0.516
997.500	589.360	79.997	19.991	99.906	20.198	10.592	0.524
998.000	589.617	79.996	19.992	99.907	20.198	10.600	0.504
998.500	589.910	79.996	19.991	99.907	20.197	10.703	0.524
999.000	590.155	79.996	19.992	99.909	20.196	10.813	0.544
999.500	590.387	79.996	19.991	99.912	20.199	10.537	0.507
1000.000	590.651	79.995	19.991	99.910	20.200	10.447	0.486
1000.500	590.886	79.996	19.991	99.907	20.199	10.496	0.497
1001.000	591.138	79.995	19.992	99.907	20.198	10.599	0.493
1001.500	591.393	79.997	19.992	99.906	20.196	10.791	0.497
1002.000	591.667	79.997	19.992	99.905	20.197	10.751	0.518
1002.500	591.902	79.994	19.993	99.907	20.200	10.411	0.519
1003.000	592.160	79.995	19.992	99.910	20.198	10.604	0.501
1003.500	592.418	79.995	19.991	99.906	20.198	10.669	0.504
1004.000	592.670	79.997	19.992	99.905	20.198	10.660	0.513
1004.500	592.908	79.999	19.992	99.901	20.197	10.718	0.500
1005.000	593.209	79.997	19.991	99.901	20.197	10.738	0.514
1005.500	593.442	79.997	19.992	99.902	20.197	10.721	0.536
