Sample ID:	C:\MCC\MCC Cal\Test\Wood_Stud_MCC_30K_min_211004_R1.txt
Sample Weight (mg):	4.95
Heating Rate (C/s):	0.5
Combustor Temp (C):	900
N2 Flow Rate (cc/min):	80
O2 Flow Rate (cc/min):	20
Calibration File:	C:\MCC\MCC Cal\Coeff1 JN10440_30_210304.txt.txt
T Correction Coefficients:	0	1.024463	0
Time Shift (s):	14
*
Time (s)	Temperature (C)	N2 flow rate (cc/min)	O2 flow rate (cc/min)	Flow Rate (cc/min)	Oxygen (%)	HRR (W/g)	Heating rate (C/s)
0.000	108.476	79.997	19.995	100.649	20.040	-0.262	-0.012
0.500	108.521	79.998	19.996	100.642	20.043	-0.471	0.012
1.000	108.494	79.999	19.995	100.639	20.037	-0.076	0.030
1.500	108.464	79.999	19.996	100.636	20.042	-0.385	-0.020
2.000	108.471	79.997	19.995	100.631	20.041	-0.318	-0.040
2.500	108.491	79.998	19.996	100.626	20.042	-0.402	0.002
3.000	108.492	79.998	19.996	100.630	20.042	-0.401	0.024
3.500	108.465	79.998	19.998	100.629	20.041	-0.354	-0.002
4.000	108.472	79.997	19.997	100.628	20.037	-0.112	-0.023
4.500	108.472	79.997	19.996	100.629	20.041	-0.361	-0.007
5.000	108.477	79.998	19.997	100.636	20.040	-0.283	0.006
5.500	108.480	79.998	19.995	100.635	20.043	-0.446	0.006
6.000	108.488	79.998	19.995	100.638	20.041	-0.376	0.009
6.500	108.507	79.998	19.996	100.644	20.043	-0.489	0.019
7.000	108.492	79.997	19.995	100.645	20.042	-0.415	0.016
7.500	108.505	79.998	19.996	100.638	20.042	-0.406	0.001
8.000	108.475	79.997	19.996	100.637	20.040	-0.302	-0.009
8.500	108.498	79.998	19.996	100.642	20.039	-0.232	-0.012
9.000	108.444	79.998	19.996	100.642	20.038	-0.159	-0.019
9.500	108.487	79.996	19.995	100.642	20.038	-0.180	-0.021
10.001	108.488	79.998	19.996	100.645	20.041	-0.323	0.017
10.501	108.503	79.995	19.997	100.644	20.038	-0.181	0.030
11.000	108.489	79.996	19.995	100.643	20.040	-0.252	0.009
11.501	108.475	79.996	19.996	100.644	20.040	-0.254	-0.013
12.001	108.480	79.995	19.995	100.647	20.039	-0.239	-0.019
12.500	108.475	79.995	19.995	100.650	20.042	-0.411	-0.005
13.000	108.443	79.996	19.996	100.656	20.043	-0.456	-0.018
13.500	108.475	79.996	19.996	100.658	20.039	-0.218	-0.018
14.000	108.471	79.997	19.998	100.658	20.040	-0.287	0.014
14.500	108.468	79.995	19.997	100.658	20.039	-0.244	0.010
15.000	108.481	79.995	19.997	100.659	20.037	-0.066	0.002
15.500	108.472	79.995	19.997	100.660	20.037	-0.099	0.007
16.000	108.452	79.996	19.996	100.662	20.036	-0.003	-0.012
16.500	108.475	79.996	19.996	100.665	20.035	0.045	-0.013
17.000	108.479	79.996	19.995	100.671	20.036	-0.022	0.015
17.500	108.462	79.995	19.997	100.677	20.033	0.194	0.007
18.000	108.485	79.995	19.996	100.684	20.032	0.213	-0.004
18.501	108.472	79.996	19.996	100.693	20.030	0.353	0.008
19.000	108.488	79.994	19.994	100.706	20.034	0.121	0.006
19.500	108.520	79.996	19.996	100.715	20.031	0.299	0.026
20.000	108.497	79.996	19.995	100.726	20.027	0.538	0.029
20.500	108.544	79.993	19.996	100.740	20.026	0.611	0.016
21.000	108.566	79.995	19.995	100.752	20.025	0.687	0.046
21.500	108.549	79.996	19.996	100.761	20.025	0.647	0.037
22.000	108.581	79.997	19.996	100.769	20.022	0.832	0.010
22.500	108.602	79.996	19.994	100.777	20.021	0.936	0.034
23.000	108.570	79.996	19.995	100.780	20.020	1.010	0.021
23.500	108.649	79.994	19.996	100.788	20.021	0.941	0.018
24.000	108.628	79.994	19.995	100.797	20.021	0.955	0.053
24.500	108.684	79.995	19.996	100.805	20.023	0.810	0.046
25.000	108.729	79.996	19.996	100.811	20.019	1.052	0.068
25.500	108.780	79.996	19.997	100.818	20.018	1.095	0.099
26.000	108.816	79.996	19.996	100.819	20.017	1.185	0.092
26.500	108.879	79.996	19.995	100.820	20.018	1.121	0.092
27.000	108.863	79.997	19.995	100.821	20.015	1.317	0.073
27.500	108.900	79.996	19.996	100.825	20.015	1.306	0.035
28.000	108.986	79.995	19.996	100.826	20.014	1.365	0.072
28.500	108.991	79.998	19.995	100.826	20.013	1.445	0.107
29.000	109.081	79.995	19.994	100.826	20.011	1.561	0.093
29.500	109.108	79.997	19.995	100.829	20.009	1.661	0.106
30.000	109.161	79.997	19.995	100.835	20.010	1.619	0.099
30.500	109.179	79.997	19.996	100.839	20.008	1.754	0.076
31.000	109.251	79.997	19.996	100.845	20.007	1.789	0.081
31.500	109.325	79.995	19.995	100.850	20.005	1.950	0.118
32.000	109.351	79.996	19.995	100.852	20.009	1.690	0.123
32.500	109.419	79.996	19.995	100.848	20.007	1.831	0.097
33.000	109.490	79.994	19.995	100.851	20.004	1.993	0.116
33.500	109.590	79.996	19.995	100.851	20.006	1.865	0.155
34.000	109.642	79.997	19.995	100.852	20.006	1.858	0.162
34.500	109.672	79.995	19.996	100.853	20.007	1.841	0.117
35.000	109.772	79.996	19.995	100.857	20.004	2.009	0.105
35.500	109.879	79.996	19.996	100.857	20.008	1.723	0.168
36.000	109.907	79.996	19.995	100.856	20.004	2.037	0.171
36.501	109.970	79.995	19.996	100.856	20.004	2.019	0.113
37.001	110.080	79.995	19.995	100.854	20.007	1.832	0.132
37.501	110.155	79.997	19.995	100.854	20.007	1.813	0.179
38.000	110.201	79.996	19.995	100.854	20.006	1.883	0.153
38.500	110.303	79.995	19.995	100.853	20.004	2.035	0.134
39.000	110.412	79.996	19.995	100.852	20.005	1.912	0.179
39.501	110.468	79.996	19.996	100.854	20.003	2.050	0.188
40.001	110.595	79.995	19.995	100.853	20.005	1.948	0.174
40.500	110.632	79.996	19.995	100.853	20.003	2.073	0.173
41.000	110.764	79.995	19.996	100.857	20.001	2.206	0.166
41.500	110.851	79.995	19.995	100.856	20.002	2.142	0.194
42.000	110.896	79.995	19.995	100.856	20.000	2.281	0.176
42.500	110.996	79.995	19.995	100.857	20.000	2.255	0.138
43.000	111.113	79.994	19.995	100.858	20.000	2.239	0.181
43.501	111.174	79.995	19.994	100.859	20.000	2.277	0.198
44.001	111.289	79.994	19.994	100.861	19.999	2.324	0.177
44.500	111.360	79.992	19.996	100.863	20.000	2.282	0.181
45.001	111.486	79.994	19.995	100.866	19.999	2.340	0.191
45.501	111.583	79.995	19.995	100.867	20.000	2.250	0.210
46.000	111.681	79.995	19.995	100.867	20.004	2.016	0.209
46.500	111.821	79.995	19.994	100.867	20.000	2.291	0.216
47.000	111.921	79.995	19.995	100.867	20.000	2.265	0.239
47.500	112.029	79.996	19.995	100.866	20.001	2.174	0.224
48.000	112.102	79.995	19.994	100.866	20.000	2.262	0.195
48.500	112.240	79.995	19.994	100.867	19.999	2.298	0.196
49.000	112.351	79.996	19.995	100.867	19.998	2.411	0.230
49.500	112.448	79.994	19.995	100.866	19.999	2.330	0.228
50.000	112.578	79.996	19.995	100.866	20.000	2.260	0.218
50.500	112.693	79.996	19.994	100.866	20.000	2.283	0.236
51.000	112.847	79.995	19.996	100.867	19.998	2.366	0.257
51.501	112.956	79.997	19.996	100.872	19.999	2.338	0.266
52.001	113.091	79.995	19.995	100.875	19.998	2.418	0.254
52.500	113.186	79.997	19.995	100.877	19.996	2.537	0.237
53.000	113.300	79.997	19.995	100.879	20.000	2.269	0.219
53.500	113.436	79.996	19.996	100.883	20.002	2.127	0.229
54.000	113.552	79.996	19.995	100.882	19.998	2.376	0.251
54.500	113.675	79.997	19.995	100.878	20.000	2.271	0.246
55.000	113.804	79.996	19.994	100.877	20.001	2.217	0.246
55.500	113.912	79.997	19.995	100.876	19.998	2.392	0.244
56.000	114.049	79.998	19.994	100.874	19.999	2.349	0.241
56.500	114.209	79.996	19.995	100.871	20.000	2.262	0.271
57.000	114.302	79.997	19.996	100.873	20.008	1.748	0.275
57.500	114.434	79.997	19.995	100.877	20.002	2.164	0.239
58.000	114.621	79.997	19.996	100.880	19.995	2.584	0.272
58.500	114.740	79.998	19.995	100.883	20.006	1.897	0.313
59.000	114.867	79.998	19.994	100.887	19.997	2.451	0.276
59.500	115.003	79.999	19.995	100.892	20.009	1.694	0.254
60.000	115.179	79.999	19.995	100.895	20.009	1.707	0.287
60.500	115.297	79.998	19.995	100.896	19.996	2.491	0.303
61.000	115.427	79.998	19.994	100.896	19.991	2.813	0.272
61.500	115.616	79.998	19.995	100.895	19.993	2.688	0.284
62.000	115.746	79.997	19.995	100.893	19.993	2.707	0.319
62.500	115.896	79.998	19.995	100.893	19.994	2.659	0.300
63.000	116.058	79.998	19.995	100.893	19.996	2.491	0.296
63.500	116.203	79.998	19.995	100.893	19.991	2.839	0.309
64.000	116.353	79.998	19.995	100.894	19.998	2.380	0.301
64.500	116.518	79.997	19.995	100.895	19.999	2.304	0.305
65.000	116.642	79.997	19.995	100.892	19.997	2.439	0.302
65.500	116.816	79.998	19.996	100.892	19.997	2.475	0.294
66.000	116.983	79.998	19.995	100.891	19.997	2.461	0.320
66.501	117.170	79.998	19.996	100.891	19.995	2.570	0.347
67.001	117.283	79.998	19.996	100.892	19.996	2.532	0.327
67.500	117.414	79.997	19.995	100.894	19.997	2.421	0.272
68.000	117.596	79.997	19.995	100.895	19.995	2.577	0.278
68.500	117.751	79.998	19.996	100.896	19.998	2.357	0.325
69.000	117.899	79.996	19.996	100.896	19.998	2.420	0.321
69.501	118.094	79.997	19.996	100.896	19.996	2.513	0.324
70.001	118.249	79.997	19.995	100.896	19.995	2.593	0.347
70.500	118.447	79.997	19.996	100.895	19.996	2.543	0.351
71.000	118.598	79.996	19.996	100.894	19.996	2.545	0.350
71.501	118.768	79.996	19.996	100.894	19.994	2.647	0.335
72.001	118.907	79.997	19.996	100.894	19.997	2.465	0.315
72.500	119.076	79.996	19.996	100.896	19.995	2.609	0.309
73.000	119.241	79.996	19.998	100.896	19.994	2.652	0.321
73.500	119.436	79.997	19.997	100.899	19.993	2.707	0.347
74.000	119.635	79.996	19.997	100.899	19.997	2.435	0.377
74.500	119.839	79.996	19.997	100.898	19.997	2.460	0.398
75.000	120.006	79.997	19.997	100.897	19.993	2.730	0.387
75.500	120.201	79.998	19.996	100.898	19.994	2.643	0.367
76.000	120.367	79.997	19.997	100.896	19.997	2.461	0.362
76.500	120.584	79.997	19.997	100.896	19.995	2.610	0.372
77.000	120.748	79.998	19.996	100.896	19.994	2.615	0.382
77.500	120.897	79.997	19.995	100.896	19.997	2.484	0.347
78.000	121.104	79.998	19.995	100.896	19.994	2.659	0.335
78.501	121.297	79.998	19.996	100.896	19.991	2.806	0.378
79.001	121.477	79.999	19.995	100.896	19.994	2.664	0.386
79.500	121.683	79.999	19.997	100.897	19.995	2.560	0.379
80.000	121.865	79.998	19.996	100.897	19.994	2.628	0.387
80.500	122.038	79.999	19.995	100.896	19.993	2.705	0.372
81.000	122.264	79.998	19.996	100.897	19.992	2.745	0.377
81.500	122.481	79.999	19.996	100.903	19.996	2.515	0.421
82.001	122.639	79.998	19.995	100.905	19.993	2.676	0.409
82.501	122.858	79.999	19.995	100.906	19.991	2.804	0.376
83.000	123.050	79.998	19.997	100.905	19.994	2.669	0.394
83.500	123.232	79.999	19.999	100.909	19.993	2.702	0.392
84.001	123.419	79.999	19.998	100.905	19.991	2.809	0.371
84.501	123.613	79.998	19.999	100.904	19.991	2.822	0.375
85.001	123.831	79.999	19.997	100.905	19.996	2.538	0.396
85.501	124.021	79.998	19.996	100.906	19.995	2.593	0.410
86.000	124.238	79.999	19.995	100.902	19.990	2.877	0.407
86.500	124.435	79.999	19.996	100.902	19.994	2.662	0.410
87.000	124.624	79.999	19.995	100.900	19.993	2.681	0.400
87.500	124.804	79.997	19.995	100.898	19.992	2.769	0.378
88.000	124.975	79.997	19.997	100.897	19.992	2.773	0.360
88.500	125.225	79.995	19.995	100.899	19.993	2.714	0.386
89.000	125.400	79.998	19.995	100.901	19.990	2.891	0.423
89.500	125.612	79.998	19.996	100.901	19.990	2.927	0.406
90.000	125.815	79.996	19.996	100.902	19.990	2.917	0.401
90.500	126.037	79.997	19.995	100.904	19.991	2.815	0.420
91.001	126.244	79.996	19.995	100.904	19.991	2.811	0.427
91.501	126.434	79.996	19.994	100.901	19.988	3.026	0.413
92.001	126.690	79.994	19.995	100.901	19.990	2.886	0.422
92.501	126.895	79.994	19.995	100.901	19.990	2.877	0.453
93.000	127.092	79.994	19.995	100.900	19.988	3.034	0.431
93.500	127.292	79.996	19.995	100.899	19.989	2.969	0.400
94.001	127.511	79.996	19.995	100.902	19.991	2.854	0.408
94.501	127.716	79.995	19.995	100.904	19.992	2.801	0.421
95.001	127.893	79.995	19.995	100.906	19.990	2.896	0.403
95.500	128.159	79.995	19.995	100.906	19.990	2.873	0.412
96.000	128.358	79.996	19.997	100.905	19.992	2.763	0.454
96.500	128.572	79.996	19.995	100.904	19.993	2.725	0.440
97.000	128.795	79.996	19.995	100.902	19.990	2.905	0.425
97.500	129.025	79.995	19.995	100.901	19.993	2.727	0.445
98.000	129.228	79.996	19.995	100.901	19.990	2.929	0.443
98.501	129.426	79.995	19.995	100.902	19.990	2.924	0.417
99.001	129.676	79.994	19.996	100.900	19.989	2.983	0.425
99.500	129.904	79.995	19.996	100.900	19.991	2.856	0.463
100.000	130.116	79.995	19.995	100.902	19.993	2.681	0.458
100.500	130.322	79.994	19.996	100.905	19.992	2.766	0.429
101.000	130.549	79.995	19.996	100.910	19.990	2.919	0.426
101.500	130.749	79.995	19.996	100.913	19.992	2.801	0.430
102.000	130.997	79.994	19.996	100.915	19.990	2.866	0.437
102.500	131.174	79.994	19.996	100.916	19.992	2.785	0.437
103.001	131.424	79.994	19.995	100.912	19.992	2.763	0.426
103.501	131.676	79.995	19.997	100.908	19.991	2.858	0.464
104.001	131.863	79.996	19.996	100.904	19.994	2.643	0.470
104.501	132.059	79.994	19.997	100.903	19.992	2.768	0.411
105.000	132.302	79.994	19.996	100.904	19.991	2.840	0.411
105.501	132.552	79.995	19.995	100.906	19.994	2.633	0.466
106.001	132.753	79.993	19.996	100.907	19.991	2.839	0.472
106.501	132.979	79.995	19.995	100.907	19.990	2.906	0.439
107.000	133.215	79.994	19.996	100.912	19.993	2.730	0.444
107.500	133.458	79.995	19.995	100.914	19.992	2.795	0.470
108.000	133.676	79.995	19.996	100.913	19.993	2.721	0.470
108.500	133.922	79.994	19.996	100.914	19.993	2.737	0.462
109.000	134.161	79.996	19.995	100.916	19.990	2.873	0.475
109.500	134.402	79.995	19.995	100.913	19.993	2.724	0.483
110.001	134.664	79.995	19.996	100.912	19.993	2.681	0.492
110.501	134.845	79.996	19.995	100.913	19.991	2.802	0.473
111.000	135.102	79.996	19.995	100.913	19.991	2.804	0.441
111.500	135.322	79.995	19.996	100.911	19.992	2.776	0.457
112.000	135.552	79.995	19.995	100.908	19.990	2.896	0.463
112.500	135.790	79.996	19.996	100.904	19.988	3.001	0.459
113.001	136.009	79.995	19.994	100.902	19.990	2.922	0.462
113.501	136.228	79.996	19.995	100.901	19.988	3.021	0.447
114.000	136.470	79.997	19.995	100.901	19.992	2.799	0.450
114.500	136.732	79.996	19.995	100.901	19.991	2.860	0.482
115.000	136.955	79.995	19.995	100.901	19.992	2.782	0.494
115.500	137.195	79.996	19.995	100.900	19.991	2.827	0.474
116.000	137.430	79.996	19.996	100.899	19.991	2.814	0.469
116.500	137.665	79.997	19.995	100.900	19.989	2.939	0.472
117.000	137.890	79.996	19.995	100.900	19.992	2.757	0.465
117.500	138.169	79.996	19.994	100.902	19.988	3.034	0.482
118.000	138.415	79.996	19.995	100.904	19.992	2.763	0.515
118.500	138.643	79.996	19.995	100.904	19.992	2.789	0.500
119.000	138.891	79.998	19.995	100.903	19.994	2.621	0.475
119.500	139.114	79.996	19.994	100.903	19.989	2.953	0.473
120.000	139.322	79.995	19.996	100.901	19.990	2.887	0.451
120.500	139.588	79.994	19.994	100.899	19.987	3.114	0.452
121.000	139.812	79.995	19.995	100.899	19.990	2.925	0.482
121.500	140.094	79.996	19.994	100.898	19.989	2.965	0.498
122.000	140.353	79.995	19.995	100.898	19.989	2.951	0.524
122.500	140.616	79.994	19.995	100.901	19.992	2.775	0.531
123.000	140.799	79.996	19.996	100.902	19.991	2.821	0.484
123.500	141.041	79.996	19.995	100.903	19.990	2.927	0.436
124.000	141.318	79.996	19.995	100.908	19.990	2.897	0.472
124.500	141.548	79.996	19.994	100.911	19.990	2.873	0.514
125.000	141.804	79.995	19.993	100.909	19.992	2.799	0.497
125.500	142.050	79.994	19.995	100.907	19.989	2.961	0.493
126.000	142.287	79.995	19.995	100.906	19.989	2.937	0.492
126.500	142.529	79.996	19.995	100.901	19.991	2.847	0.481
127.001	142.784	79.995	19.996	100.898	19.993	2.688	0.488
127.501	143.017	79.996	19.995	100.899	19.990	2.890	0.493
128.000	143.273	79.996	19.995	100.900	19.990	2.929	0.488
128.500	143.523	79.996	19.996	100.901	19.991	2.814	0.497
129.000	143.752	79.996	19.995	100.902	19.989	2.953	0.492
129.500	143.996	79.997	19.995	100.901	19.991	2.851	0.476
130.000	144.297	79.996	19.996	100.899	19.987	3.079	0.510
130.500	144.530	79.996	19.994	100.898	19.989	2.986	0.540
131.000	144.758	79.995	19.996	100.897	19.992	2.778	0.498
131.500	144.989	79.996	19.995	100.896	19.992	2.792	0.460
132.000	145.267	79.995	19.995	100.897	19.990	2.915	0.484
132.500	145.501	79.996	19.996	100.896	19.993	2.693	0.511
133.000	145.755	79.997	19.995	100.897	19.990	2.889	0.500
133.500	146.023	79.997	19.996	100.896	19.991	2.840	0.505
134.000	146.255	79.996	19.995	100.896	19.992	2.778	0.511
134.500	146.478	79.998	19.995	100.896	19.994	2.617	0.477
135.000	146.699	79.997	19.995	100.894	19.996	2.527	0.449
135.500	146.946	79.997	19.995	100.894	19.994	2.639	0.456
136.000	147.201	79.997	19.995	100.893	19.994	2.620	0.485
136.500	147.494	79.997	19.995	100.893	19.992	2.747	0.525
137.000	147.735	79.998	19.995	100.893	19.994	2.641	0.541
137.500	147.980	79.997	19.994	100.895	19.995	2.586	0.510
138.000	148.193	79.998	19.995	100.896	19.993	2.690	0.472
138.500	148.460	79.998	19.995	100.896	19.994	2.657	0.469
139.000	148.713	79.998	19.995	100.896	19.995	2.608	0.500
139.500	148.962	79.999	19.995	100.895	19.994	2.653	0.511
140.000	149.201	80.000	19.995	100.894	19.996	2.535	0.495
140.500	149.499	79.998	19.995	100.893	19.998	2.400	0.512
141.000	149.723	79.998	19.996	100.893	19.996	2.544	0.530
141.500	149.983	79.998	19.995	100.894	19.996	2.530	0.503
142.000	150.219	79.998	19.995	100.893	19.996	2.499	0.490
142.500	150.452	79.997	19.995	100.894	19.996	2.541	0.483
143.000	150.695	79.998	19.995	100.895	19.997	2.473	0.473
143.500	150.959	79.999	19.995	100.895	19.995	2.601	0.491
144.000	151.181	79.998	19.995	100.894	19.997	2.454	0.496
144.501	151.459	79.998	19.996	100.895	19.995	2.594	0.493
145.000	151.711	79.998	19.996	100.896	19.996	2.543	0.515
145.500	151.980	79.997	19.996	100.895	19.998	2.380	0.526
146.000	152.188	79.997	19.995	100.894	19.993	2.693	0.499
146.500	152.476	79.998	19.995	100.894	19.994	2.671	0.486
147.000	152.705	79.997	19.995	100.891	19.993	2.677	0.506
147.500	152.987	79.997	19.994	100.890	19.995	2.556	0.514
148.000	153.230	79.997	19.996	100.891	19.997	2.475	0.518
148.500	153.455	79.998	19.994	100.892	19.994	2.613	0.496
149.000	153.716	79.997	19.995	100.891	19.997	2.480	0.477
149.500	153.958	79.997	19.994	100.890	19.995	2.572	0.495
150.000	154.174	79.997	19.994	100.889	19.994	2.639	0.480
150.500	154.430	79.996	19.995	100.885	19.994	2.638	0.465
151.000	154.713	79.997	19.994	100.885	19.995	2.553	0.506
151.500	154.955	79.997	19.994	100.884	19.992	2.793	0.531
152.000	155.178	79.998	19.996	100.888	19.996	2.515	0.495
152.500	155.440	79.997	19.994	100.888	19.996	2.513	0.475
153.000	155.685	79.998	19.995	100.892	19.994	2.662	0.496
153.500	155.922	79.997	19.995	100.892	19.994	2.650	0.495
154.000	156.190	79.998	19.995	100.894	19.996	2.499	0.494
154.500	156.423	79.997	19.995	100.894	19.999	2.336	0.503
155.000	156.658	79.997	19.995	100.896	19.999	2.338	0.484
155.500	156.929	79.998	19.994	100.895	19.999	2.350	0.487
156.000	157.200	79.997	19.996	100.895	19.995	2.556	0.524
156.500	157.444	79.998	19.994	100.893	19.999	2.298	0.528
157.000	157.663	79.998	19.996	100.891	20.002	2.128	0.489
157.500	157.962	79.999	19.995	100.890	19.997	2.423	0.491
158.000	158.154	79.998	19.996	100.889	19.999	2.338	0.505
158.500	158.418	79.998	19.995	100.884	20.000	2.274	0.473
159.000	158.677	79.998	19.996	100.883	19.997	2.442	0.489
159.500	158.891	79.998	19.994	100.883	19.999	2.303	0.498
160.000	159.179	79.998	19.994	100.882	19.999	2.312	0.488
160.500	159.392	79.998	19.995	100.881	19.999	2.295	0.502
161.000	159.657	79.999	19.994	100.888	19.999	2.334	0.490
161.500	159.884	80.000	19.996	100.889	19.998	2.359	0.485
162.000	160.167	79.999	19.996	100.893	19.996	2.541	0.500
162.500	160.386	79.998	19.995	100.894	20.000	2.276	0.506
163.000	160.666	79.999	19.995	100.893	19.997	2.476	0.501
163.500	160.897	79.999	19.995	100.888	19.998	2.371	0.506
164.000	161.149	80.000	19.996	100.885	20.000	2.270	0.497
164.500	161.386	79.999	19.995	100.882	20.001	2.206	0.486
165.000	161.642	79.998	19.995	100.879	20.000	2.253	0.491
165.500	161.885	79.999	19.996	100.877	20.000	2.270	0.496
166.000	162.147	79.998	19.995	100.876	20.000	2.232	0.502
166.500	162.377	79.999	19.995	100.874	19.997	2.426	0.499
167.000	162.652	79.999	19.995	100.874	19.998	2.381	0.499
167.500	162.869	80.000	19.994	100.873	19.998	2.364	0.498
168.000	163.151	79.998	19.995	100.874	19.998	2.371	0.496
168.500	163.366	79.999	19.995	100.876	19.996	2.509	0.498
169.000	163.652	79.997	19.996	100.876	19.997	2.424	0.499
169.500	163.871	79.999	19.995	100.872	19.997	2.422	0.503
170.000	164.171	79.997	19.994	100.869	19.997	2.452	0.512
170.500	164.411	79.997	19.995	100.870	19.998	2.364	0.529
171.000	164.667	79.998	19.996	100.868	20.000	2.287	0.518
171.500	164.913	79.996	19.996	100.872	19.999	2.344	0.499
172.000	165.159	79.997	19.995	100.880	19.999	2.343	0.497
172.500	165.411	79.997	19.995	100.882	19.997	2.424	0.495
173.000	165.692	79.997	19.995	100.884	19.999	2.329	0.515
173.500	165.953	79.997	19.995	100.883	19.996	2.512	0.537
174.000	166.206	79.995	19.996	100.877	19.996	2.516	0.528
174.500	166.461	79.997	19.995	100.874	19.995	2.554	0.512
175.001	166.663	79.997	19.995	100.871	19.995	2.608	0.482
175.500	166.893	79.999	19.995	100.872	19.997	2.422	0.444
176.000	167.139	79.996	19.995	100.875	19.996	2.511	0.454
176.500	167.441	79.998	19.996	100.874	19.998	2.388	0.512
177.000	167.673	79.996	19.996	100.874	19.994	2.623	0.541
177.500	167.923	79.997	19.996	100.876	19.994	2.630	0.508
178.000	168.152	79.996	19.995	100.871	19.997	2.431	0.481
178.500	168.411	79.997	19.995	100.867	19.998	2.402	0.483
179.000	168.634	79.997	19.995	100.868	19.998	2.369	0.485
179.500	168.912	79.998	19.994	100.866	19.996	2.493	0.491
180.000	169.122	79.997	19.995	100.867	19.997	2.469	0.495
180.500	169.371	79.996	19.995	100.868	19.996	2.521	0.474
181.000	169.621	79.997	19.994	100.868	19.999	2.319	0.479
181.500	169.890	79.997	19.996	100.866	20.003	2.075	0.509
182.000	170.118	79.997	19.995	100.864	20.001	2.223	0.508
182.500	170.390	79.996	19.995	100.858	20.000	2.237	0.498
183.000	170.631	79.997	19.996	100.856	20.000	2.287	0.507
183.500	170.908	79.997	19.996	100.858	20.001	2.178	0.516
184.000	171.092	79.996	19.995	100.858	20.001	2.183	0.489
184.500	171.367	79.997	19.995	100.861	20.002	2.149	0.460
185.000	171.621	79.998	19.995	100.865	19.999	2.341	0.494
185.500	171.859	79.996	19.996	100.868	19.999	2.301	0.510
186.000	172.095	79.996	19.996	100.867	19.999	2.313	0.483
186.500	172.347	79.997	19.995	100.868	19.999	2.317	0.481
187.000	172.600	79.997	19.996	100.868	20.001	2.171	0.496
187.500	172.803	79.997	19.996	100.865	19.999	2.353	0.481
188.000	173.086	79.998	19.996	100.862	20.000	2.237	0.472
188.500	173.285	79.997	19.996	100.862	20.003	2.081	0.484
189.000	173.544	79.997	19.997	100.860	20.000	2.286	0.470
189.500	173.812	79.995	19.996	100.861	19.998	2.365	0.493
190.000	174.050	79.996	19.996	100.861	19.999	2.331	0.517
190.500	174.308	79.995	19.996	100.864	20.001	2.177	0.501
191.000	174.535	79.997	19.996	100.865	20.001	2.166	0.490
191.500	174.821	79.996	19.996	100.864	19.999	2.308	0.499
192.000	175.033	79.996	19.996	100.862	20.001	2.218	0.506
192.500	175.286	79.995	19.996	100.860	19.996	2.486	0.482
193.000	175.526	79.997	19.996	100.858	20.000	2.287	0.479
193.500	175.752	79.997	19.997	100.857	20.003	2.054	0.480
194.000	176.027	79.996	19.996	100.857	20.003	2.100	0.484
194.500	176.275	79.995	19.996	100.857	20.002	2.107	0.512
195.000	176.498	79.996	19.996	100.857	20.001	2.166	0.497
195.500	176.758	79.996	19.996	100.858	20.003	2.055	0.477
196.000	177.031	79.997	19.996	100.857	20.001	2.194	0.508
196.500	177.246	79.996	19.996	100.857	20.000	2.263	0.511
197.000	177.537	79.996	19.996	100.857	19.998	2.396	0.497
197.500	177.741	79.998	19.996	100.856	19.996	2.498	0.500
198.000	178.013	79.996	19.995	100.855	19.999	2.344	0.485
198.500	178.251	79.997	19.996	100.855	19.999	2.336	0.493
199.000	178.506	79.996	19.996	100.855	19.999	2.318	0.502
199.500	178.739	79.996	19.995	100.855	20.001	2.218	0.491
200.000	178.981	79.997	19.995	100.857	19.998	2.362	0.482
200.500	179.248	79.996	19.995	100.858	20.001	2.202	0.492
201.000	179.455	79.996	19.996	100.859	19.999	2.310	0.491
201.500	179.700	79.997	19.995	100.859	20.000	2.284	0.463
202.000	179.955	79.998	19.995	100.860	19.999	2.322	0.476
202.500	180.222	79.997	19.995	100.858	20.002	2.125	0.511
203.000	180.476	79.996	19.997	100.857	20.005	1.967	0.521
203.500	180.726	79.997	19.996	100.856	20.004	2.019	0.512
204.000	180.941	79.997	19.995	100.857	20.003	2.074	0.485
204.500	181.244	79.997	19.996	100.858	20.004	2.005	0.492
205.000	181.454	79.996	19.995	100.859	20.003	2.074	0.515
205.500	181.717	79.995	19.995	100.860	20.003	2.090	0.492
206.000	181.950	79.996	19.996	100.860	20.000	2.237	0.484
206.500	182.184	79.996	19.995	100.859	20.001	2.178	0.482
207.000	182.483	79.997	19.995	100.857	20.001	2.168	0.500
207.500	182.703	79.996	19.994	100.857	20.006	1.907	0.526
208.000	182.993	79.996	19.996	100.858	20.001	2.171	0.514
208.500	183.195	79.997	19.997	100.859	20.002	2.116	0.501
209.000	183.437	79.995	19.995	100.859	20.001	2.197	0.468
209.500	183.697	79.995	19.996	100.859	20.002	2.144	0.473
210.000	183.929	79.997	19.994	100.859	20.000	2.244	0.497
210.500	184.164	79.996	19.995	100.858	20.003	2.085	0.480
211.001	184.407	79.996	19.995	100.857	20.003	2.088	0.472
211.500	184.643	79.997	19.996	100.856	20.003	2.068	0.478
212.000	184.920	79.997	19.996	100.856	20.003	2.080	0.496
212.500	185.116	79.997	19.995	100.856	20.000	2.242	0.493
213.000	185.413	79.997	19.996	100.857	20.004	1.998	0.483
213.500	185.661	79.997	19.995	100.857	20.003	2.040	0.519
214.000	185.932	79.998	19.995	100.857	20.004	1.976	0.532
214.500	186.175	79.996	19.994	100.858	20.006	1.870	0.517
215.000	186.398	79.996	19.996	100.858	20.005	1.969	0.491
215.500	186.666	79.999	19.994	100.859	20.003	2.055	0.479
216.000	186.910	79.997	19.995	100.858	20.004	2.012	0.501
216.500	187.152	79.998	19.996	100.859	20.003	2.068	0.499
217.000	187.448	79.998	19.995	100.859	20.006	1.874	0.512
217.500	187.689	79.998	19.995	100.859	20.005	1.969	0.537
218.000	187.905	79.998	19.995	100.859	20.004	1.993	0.497
218.500	188.211	79.998	19.995	100.858	20.003	2.071	0.490
219.000	188.415	79.998	19.995	100.858	20.005	1.940	0.516
219.500	188.639	79.998	19.995	100.858	20.003	2.088	0.469
220.000	188.868	79.999	19.995	100.858	20.002	2.163	0.441
220.500	189.096	79.998	19.995	100.858	20.002	2.111	0.455
221.000	189.390	79.998	19.995	100.857	20.005	1.922	0.489
221.500	189.658	79.998	19.995	100.857	20.004	2.017	0.542
222.000	189.848	79.997	19.995	100.857	20.003	2.055	0.510
222.500	190.154	79.998	19.996	100.857	20.008	1.737	0.477
223.000	190.375	79.997	19.996	100.858	20.004	1.998	0.511
223.500	190.608	79.997	19.994	100.859	20.005	1.914	0.491
224.000	190.908	79.996	19.994	100.859	20.003	2.054	0.494
224.500	191.097	79.997	19.994	100.858	20.005	1.934	0.511
225.001	191.309	79.996	19.994	100.858	20.004	1.993	0.445
225.501	191.584	79.997	19.994	100.858	20.004	1.981	0.444
226.000	191.816	79.996	19.994	100.858	20.003	2.081	0.497
226.500	192.058	79.997	19.995	100.857	20.006	1.889	0.490
227.000	192.337	79.998	19.994	100.858	20.006	1.874	0.498
227.500	192.549	79.997	19.995	100.858	20.005	1.927	0.506
228.000	192.846	79.997	19.994	100.857	20.007	1.843	0.500
228.500	193.083	79.997	19.995	100.857	20.005	1.964	0.521
229.000	193.336	79.997	19.995	100.858	20.005	1.946	0.512
229.500	193.564	79.998	19.995	100.859	20.004	2.003	0.486
230.000	193.805	79.997	19.994	100.859	20.006	1.903	0.475
230.500	194.065	79.996	19.995	100.859	20.006	1.869	0.485
231.000	194.339	79.998	19.995	100.859	20.005	1.953	0.517
231.500	194.556	79.997	19.995	100.858	20.005	1.938	0.512
232.000	194.795	79.997	19.995	100.858	20.007	1.810	0.474
232.500	195.033	79.998	19.996	100.857	20.006	1.858	0.466
233.000	195.298	79.996	19.995	100.856	20.006	1.908	0.490
233.500	195.532	79.998	19.995	100.855	20.005	1.924	0.501
234.000	195.767	79.997	19.995	100.855	20.002	2.109	0.484
234.500	196.013	79.997	19.995	100.855	20.001	2.183	0.475
235.001	196.272	79.996	19.994	100.856	20.001	2.187	0.493
235.500	196.494	79.996	19.994	100.857	20.005	1.939	0.493
236.000	196.742	79.997	19.994	100.858	20.006	1.898	0.475
236.500	197.044	79.998	19.994	100.859	20.005	1.931	0.510
237.000	197.196	79.997	19.994	100.859	20.003	2.055	0.502
237.500	197.447	79.997	19.995	100.860	20.006	1.896	0.429
238.000	197.707	79.998	19.995	100.860	20.004	1.995	0.457
238.500	197.953	79.997	19.994	100.859	20.000	2.277	0.508
239.000	198.196	79.998	19.994	100.859	20.001	2.202	0.498
239.500	198.473	79.999	19.994	100.858	20.003	2.042	0.504
240.000	198.702	79.998	19.994	100.857	20.000	2.280	0.513
240.500	198.982	79.999	19.993	100.856	20.001	2.197	0.508
241.000	199.215	80.000	19.994	100.856	20.003	2.067	0.511
241.500	199.433	79.999	19.994	100.856	20.000	2.242	0.482
242.000	199.661	79.999	19.994	100.856	20.002	2.112	0.448
242.500	199.875	80.000	19.993	100.856	20.003	2.045	0.444
243.000	200.126	80.000	19.994	100.856	20.001	2.182	0.453
243.500	200.395	80.000	19.994	100.855	20.001	2.209	0.493
244.001	200.647	79.999	19.995	100.854	20.004	1.998	0.521
244.500	200.832	79.999	19.996	100.854	20.002	2.111	0.479
245.000	201.155	80.000	19.993	100.853	20.002	2.116	0.473
245.500	201.364	79.999	19.996	100.853	20.004	2.033	0.520
246.000	201.597	80.000	19.995	100.855	20.003	2.081	0.487
246.500	201.886	79.998	19.994	100.856	20.001	2.197	0.482
247.000	202.109	80.001	19.994	100.855	20.000	2.256	0.517
247.500	202.381	80.000	19.993	100.853	20.001	2.173	0.503
248.000	202.605	79.999	19.994	100.853	20.001	2.223	0.495
248.500	202.820	79.999	19.993	100.853	19.999	2.296	0.468
249.000	203.046	79.998	19.995	100.853	20.000	2.289	0.440
249.500	203.326	79.997	19.994	100.854	20.001	2.192	0.473
250.000	203.602	79.998	19.994	100.856	19.998	2.362	0.531
250.500	203.827	79.997	19.996	100.856	19.997	2.443	0.528
251.000	204.090	79.997	19.994	100.855	20.000	2.254	0.495
251.500	204.347	79.996	19.996	100.855	19.998	2.407	0.505
252.000	204.573	79.997	19.995	100.854	19.998	2.413	0.502
252.500	204.805	79.995	19.995	100.855	20.000	2.261	0.470
253.000	205.043	79.998	19.994	100.856	20.003	2.052	0.464
253.500	205.263	79.997	19.996	100.856	20.001	2.189	0.464
254.000	205.534	79.996	19.996	100.856	20.001	2.182	0.474
254.500	205.777	79.997	19.995	100.856	20.000	2.242	0.503
255.000	206.020	79.997	19.996	100.856	20.001	2.208	0.500
255.500	206.264	79.996	19.996	100.856	20.002	2.130	0.486
256.000	206.501	79.996	19.995	100.856	20.000	2.265	0.483
256.500	206.765	79.996	19.996	100.855	20.001	2.223	0.491
257.000	207.031	79.996	19.995	100.856	20.000	2.273	0.516
257.500	207.262	79.997	19.997	100.855	20.001	2.220	0.514
258.000	207.550	79.996	19.995	100.855	19.998	2.403	0.508
258.500	207.758	79.997	19.996	100.855	19.998	2.400	0.508
259.000	208.014	79.997	19.996	100.855	19.998	2.394	0.480
259.500	208.286	79.997	19.996	100.855	19.999	2.301	0.496
260.000	208.529	79.996	19.996	100.854	20.001	2.178	0.521
260.500	208.765	79.996	19.995	100.854	20.000	2.289	0.496
261.000	209.017	79.994	19.996	100.854	19.999	2.330	0.483
261.500	209.249	79.995	19.995	100.854	20.003	2.081	0.486
262.000	209.497	79.997	19.995	100.855	19.997	2.460	0.482
262.500	209.696	79.996	19.995	100.855	19.997	2.424	0.464
263.000	209.968	79.997	19.995	100.853	20.001	2.208	0.459
263.500	210.174	79.995	19.996	100.853	19.998	2.363	0.475
264.000	210.431	79.996	19.995	100.854	19.999	2.334	0.470
264.500	210.710	79.995	19.996	100.852	19.999	2.298	0.499
265.000	210.962	79.996	19.996	100.854	19.998	2.401	0.534
265.500	211.181	79.996	19.996	100.856	19.999	2.298	0.501
266.000	211.452	79.995	19.996	100.856	19.998	2.391	0.480
266.500	211.673	79.996	19.996	100.856	19.993	2.702	0.492
267.000	211.938	79.997	19.996	100.857	19.998	2.356	0.489
267.500	212.206	79.998	19.996	100.857	19.995	2.609	0.509
268.000	212.439	79.997	19.996	100.856	19.995	2.600	0.517
268.500	212.640	79.997	19.995	100.857	19.994	2.637	0.467
269.000	212.954	79.998	19.995	100.856	19.996	2.521	0.474
269.500	213.172	79.996	19.996	100.856	19.996	2.529	0.524
270.000	213.382	79.997	19.994	100.855	19.994	2.649	0.480
270.500	213.708	79.999	19.995	100.855	19.998	2.367	0.482
271.000	213.916	79.997	19.996	100.855	19.989	2.964	0.535
271.500	214.193	79.996	19.995	100.855	19.995	2.606	0.509
272.000	214.419	79.995	19.996	100.854	19.991	2.844	0.494
272.500	214.670	79.996	19.995	100.856	19.993	2.690	0.490
273.000	214.895	79.997	19.996	100.857	19.994	2.621	0.477
273.500	215.146	79.996	19.996	100.857	19.998	2.381	0.476
274.000	215.403	79.996	19.996	100.857	19.996	2.543	0.492
274.500	215.682	79.997	19.996	100.857	19.995	2.554	0.522
275.000	215.923	79.997	19.995	100.857	19.998	2.401	0.528
275.500	216.168	79.996	19.995	100.856	19.994	2.651	0.503
276.000	216.418	79.999	19.995	100.853	19.995	2.576	0.490
276.500	216.657	79.997	19.996	100.854	19.993	2.689	0.491
277.000	216.910	79.997	19.995	100.852	19.996	2.502	0.490
277.500	217.161	79.996	19.996	100.850	19.996	2.519	0.498
278.000	217.414	79.995	19.995	100.847	19.992	2.799	0.504
278.500	217.636	79.996	19.995	100.849	19.993	2.687	0.490
279.000	217.886	79.997	19.996	100.848	19.996	2.517	0.474
279.500	218.109	79.996	19.996	100.849	19.994	2.654	0.472
280.000	218.355	79.996	19.996	100.850	19.994	2.664	0.471
280.500	218.608	79.996	19.996	100.854	19.996	2.529	0.484
281.000	218.848	79.996	19.996	100.856	19.995	2.604	0.496
281.500	219.113	79.995	19.997	100.857	19.995	2.588	0.499
282.000	219.365	79.995	19.996	100.857	19.992	2.794	0.511
282.500	219.599	79.995	19.995	100.857	19.993	2.675	0.501
283.000	219.876	79.994	19.997	100.858	19.992	2.794	0.498
283.500	220.113	79.995	19.998	100.858	19.993	2.687	0.513
284.000	220.345	79.995	19.998	100.857	19.991	2.824	0.492
284.500	220.606	79.995	19.997	100.857	19.993	2.680	0.481
285.000	220.855	79.995	19.996	100.858	19.994	2.659	0.501
285.500	221.099	79.995	19.996	100.858	19.990	2.919	0.501
286.000	221.315	79.996	19.996	100.857	19.992	2.775	0.476
286.500	221.595	79.996	19.997	100.856	19.992	2.794	0.479
287.000	221.862	79.995	19.996	100.855	19.991	2.841	0.522
287.500	222.084	79.994	19.996	100.854	19.990	2.898	0.517
288.000	222.366	79.995	19.996	100.855	19.990	2.924	0.496
288.500	222.623	79.996	19.997	100.856	19.994	2.671	0.521
289.000	222.881	79.997	19.996	100.856	19.990	2.895	0.527
289.500	223.115	79.996	19.996	100.855	19.992	2.794	0.504
290.000	223.349	79.995	19.997	100.856	19.990	2.889	0.480
290.500	223.587	79.995	19.996	100.856	19.985	3.187	0.470
291.000	223.875	79.996	19.997	100.855	19.988	3.047	0.499
291.500	224.107	79.996	19.996	100.856	19.988	3.005	0.523
292.000	224.339	79.995	19.995	100.859	19.987	3.092	0.492
292.500	224.562	79.997	19.996	100.859	19.988	3.019	0.460
293.000	224.862	79.997	19.995	100.856	19.986	3.164	0.489
293.500	225.124	79.996	19.996	100.856	19.983	3.349	0.543
294.000	225.348	79.996	19.995	100.857	19.986	3.180	0.524
294.500	225.586	79.997	19.995	100.857	19.986	3.126	0.474
295.000	225.844	79.996	19.995	100.857	19.985	3.201	0.479
295.500	226.091	79.997	19.996	100.856	19.988	3.040	0.500
296.000	226.365	79.998	19.995	100.857	19.984	3.251	0.513
296.500	226.647	79.997	19.996	100.857	19.985	3.192	0.538
297.000	226.857	79.999	19.996	100.857	19.987	3.066	0.524
297.500	227.111	79.999	19.995	100.857	19.982	3.433	0.478
298.000	227.345	79.998	19.995	100.860	19.984	3.259	0.476
298.500	227.596	79.998	19.995	100.859	19.982	3.424	0.486
299.000	227.863	79.997	19.995	100.859	19.981	3.481	0.501
299.500	228.116	79.999	19.995	100.859	19.983	3.330	0.519
300.000	228.369	79.998	19.996	100.859	19.982	3.410	0.513
300.500	228.625	79.999	19.995	100.859	19.981	3.458	0.507
301.000	228.897	79.997	19.995	100.859	19.981	3.479	0.518
301.500	229.081	79.999	19.996	100.859	19.983	3.337	0.492
302.000	229.353	79.997	19.995	100.857	19.980	3.538	0.457
302.500	229.667	79.996	19.995	100.855	19.984	3.258	0.521
303.000	229.927	79.998	19.994	100.851	19.981	3.439	0.579
303.500	230.174	79.996	19.995	100.848	19.983	3.365	0.540
304.000	230.439	79.998	19.994	100.849	19.983	3.325	0.510
304.500	230.627	79.997	19.995	100.851	19.980	3.519	0.483
305.000	230.924	79.997	19.994	100.853	19.981	3.479	0.469
305.500	231.166	79.999	19.994	100.857	19.982	3.421	0.512
306.000	231.400	79.998	19.994	100.860	19.980	3.521	0.507
306.500	231.653	79.996	19.996	100.860	19.979	3.588	0.481
307.000	231.906	79.997	19.994	100.860	19.980	3.562	0.496
307.500	232.133	79.997	19.995	100.857	19.982	3.426	0.493
308.000	232.389	79.998	19.996	100.855	19.978	3.682	0.482
308.500	232.646	79.996	19.995	100.854	19.981	3.471	0.498
309.000	232.893	79.998	19.995	100.854	19.979	3.609	0.508
309.500	233.142	79.997	19.995	100.853	19.977	3.728	0.500
310.000	233.366	79.998	19.995	100.854	19.977	3.737	0.484
310.500	233.644	79.997	19.996	100.855	19.975	3.881	0.487
311.000	233.926	79.998	19.996	100.855	19.975	3.836	0.531
311.500	234.173	79.997	19.995	100.850	19.974	3.903	0.544
312.000	234.383	79.998	19.994	100.847	19.975	3.848	0.493
312.500	234.643	79.998	19.996	100.846	19.974	3.915	0.464
313.000	234.913	79.998	19.995	100.846	19.972	4.050	0.500
313.500	235.151	79.997	19.995	100.847	19.970	4.142	0.519
314.000	235.414	79.998	19.995	100.852	19.976	3.796	0.504
314.500	235.673	79.997	19.996	100.855	19.972	4.023	0.511
315.000	235.884	79.999	19.996	100.857	19.972	4.035	0.496
315.500	236.160	79.999	19.996	100.857	19.971	4.076	0.478
316.000	236.441	79.998	19.995	100.857	19.972	4.059	0.522
316.500	236.670	79.997	19.995	100.857	19.970	4.166	0.534
317.000	236.937	79.998	19.995	100.857	19.973	3.993	0.503
317.500	237.185	79.999	19.995	100.857	19.968	4.291	0.505
318.000	237.407	79.998	19.995	100.857	19.968	4.308	0.492
318.500	237.679	79.998	19.995	100.857	19.965	4.474	0.482
319.000	237.941	79.997	19.995	100.856	19.966	4.438	0.514
319.500	238.196	79.998	19.995	100.856	19.966	4.398	0.526
320.000	238.451	79.997	19.994	100.855	19.963	4.640	0.514
320.500	238.690	79.997	19.996	100.856	19.965	4.514	0.502
321.000	238.944	79.999	19.994	100.856	19.963	4.611	0.493
321.500	239.208	79.998	19.994	100.857	19.961	4.765	0.505
322.000	239.441	79.998	19.995	100.856	19.964	4.561	0.508
322.500	239.668	79.999	19.994	100.857	19.962	4.689	0.479
323.000	239.966	79.998	19.997	100.856	19.965	4.491	0.493
323.500	240.165	79.998	19.996	100.858	19.963	4.588	0.511
324.000	240.453	80.000	19.995	100.858	19.962	4.696	0.492
324.500	240.684	79.999	19.997	100.858	19.960	4.780	0.503
325.000	240.899	79.999	19.995	100.857	19.961	4.730	0.482
325.500	241.156	79.999	19.995	100.857	19.961	4.715	0.459
326.000	241.425	79.999	19.995	100.854	19.958	4.953	0.499
326.500	241.649	79.999	19.996	100.854	19.958	4.940	0.510
327.000	241.892	79.999	19.994	100.854	19.959	4.858	0.480
327.500	242.180	80.000	19.995	100.855	19.958	4.905	0.499
328.000	242.435	79.998	19.995	100.854	19.955	5.109	0.537
328.500	242.694	80.000	19.995	100.855	19.955	5.137	0.528
329.000	242.950	80.000	19.994	100.854	19.955	5.118	0.514
329.500	243.214	79.998	19.996	100.854	19.952	5.327	0.518
330.000	243.468	79.997	19.995	100.854	19.953	5.275	0.519
330.500	243.726	79.998	19.995	100.855	19.952	5.284	0.515
331.000	243.977	79.998	19.995	100.855	19.951	5.348	0.511
331.501	244.225	79.998	19.994	100.855	19.954	5.187	0.504
332.000	244.435	79.998	19.995	100.854	19.951	5.362	0.479
332.500	244.665	79.997	19.995	100.854	19.951	5.405	0.449
333.000	244.933	79.997	19.994	100.854	19.951	5.374	0.469
333.500	245.186	79.996	19.994	100.854	19.944	5.848	0.509
334.000	245.403	79.995	19.994	100.854	19.946	5.682	0.495
334.500	245.688	79.997	19.995	100.856	19.946	5.705	0.486
335.000	245.949	79.997	19.995	100.857	19.946	5.672	0.524
335.500	246.222	79.996	19.995	100.857	19.942	5.919	0.540
336.000	246.471	79.996	19.996	100.857	19.944	5.824	0.528
336.500	246.720	79.997	19.995	100.857	19.944	5.813	0.510
337.000	246.978	79.996	19.995	100.857	19.942	5.940	0.502
337.500	247.220	79.997	19.995	100.857	19.941	5.993	0.504
338.000	247.465	79.997	19.994	100.856	19.941	6.018	0.494
338.500	247.679	79.996	19.996	100.856	19.938	6.178	0.473
339.000	247.963	79.996	19.995	100.856	19.940	6.056	0.478
339.500	248.226	79.996	19.995	100.857	19.938	6.208	0.523
340.000	248.458	79.996	19.994	100.860	19.934	6.441	0.521
340.500	248.694	79.997	19.995	100.861	19.935	6.416	0.481
341.000	248.982	79.996	19.994	100.862	19.933	6.499	0.496
341.500	249.249	79.995	19.996	100.862	19.933	6.537	0.540
342.000	249.500	79.996	19.996	100.860	19.931	6.627	0.536
342.500	249.733	79.994	19.995	100.859	19.935	6.371	0.501
343.000	250.011	79.995	19.995	100.859	19.934	6.473	0.497
343.500	250.242	79.996	19.995	100.861	19.933	6.525	0.509
344.000	250.527	79.995	19.995	100.862	19.931	6.622	0.513
344.500	250.766	79.996	19.996	100.862	19.932	6.584	0.521
345.000	250.998	79.996	19.996	100.862	19.932	6.582	0.498
345.500	251.241	79.996	19.994	100.862	19.928	6.821	0.473
346.000	251.530	79.995	19.995	100.860	19.927	6.907	0.503
346.500	251.759	79.996	19.996	100.859	19.929	6.796	0.524
347.000	252.004	79.995	19.996	100.860	19.926	6.980	0.496
347.500	252.266	79.996	19.995	100.859	19.926	6.973	0.491
348.000	252.497	79.996	19.995	100.859	19.927	6.886	0.500
348.500	252.763	79.996	19.995	100.859	19.925	7.001	0.495
349.000	253.012	79.995	19.996	100.859	19.928	6.841	0.506
349.500	253.233	79.997	19.995	100.858	19.926	6.959	0.493
350.000	253.497	79.995	19.997	100.859	19.924	7.065	0.477
350.500	253.745	79.997	19.995	100.858	19.924	7.084	0.498
351.000	253.995	79.995	19.995	100.858	19.925	7.054	0.505
351.500	254.214	79.996	19.995	100.859	19.923	7.168	0.484
352.000	254.483	79.996	19.996	100.859	19.921	7.312	0.478
352.500	254.736	79.997	19.996	100.859	19.922	7.246	0.505
353.000	255.005	79.997	19.995	100.859	19.921	7.264	0.522
353.500	255.261	79.996	19.996	100.860	19.917	7.547	0.524
354.000	255.477	79.996	19.996	100.860	19.916	7.596	0.498
354.500	255.757	79.995	19.996	100.861	19.912	7.867	0.484
355.000	256.004	79.995	19.996	100.866	19.913	7.795	0.512
355.500	256.244	79.996	19.996	100.870	19.915	7.672	0.507
356.000	256.508	79.996	19.996	100.869	19.915	7.667	0.496
356.500	256.747	79.996	19.997	100.868	19.910	8.003	0.503
357.000	257.006	79.997	19.996	100.867	19.910	7.980	0.501
357.500	257.243	79.997	19.995	100.863	19.915	7.682	0.497
358.000	257.487	79.996	19.995	100.860	19.911	7.918	0.488
358.500	257.757	79.996	19.996	100.860	19.909	8.040	0.497
359.000	258.008	79.994	19.996	100.861	19.909	8.034	0.517
359.500	258.271	79.996	19.995	100.862	19.906	8.212	0.517
360.000	258.534	79.995	19.996	100.862	19.904	8.346	0.520
360.500	258.794	79.996	19.995	100.862	19.905	8.314	0.525
361.000	259.066	79.997	19.996	100.864	19.905	8.298	0.528
361.500	259.274	79.995	19.996	100.864	19.906	8.243	0.506
362.000	259.550	79.995	19.995	100.863	19.903	8.425	0.482
362.501	259.819	79.996	19.995	100.863	19.903	8.422	0.514
363.001	260.036	79.995	19.995	100.863	19.903	8.446	0.516
363.500	260.308	79.995	19.996	100.861	19.899	8.695	0.488
364.000	260.517	79.996	19.996	100.862	19.899	8.674	0.486
364.500	260.781	79.995	19.995	100.862	19.900	8.650	0.477
365.000	261.067	79.996	19.996	100.861	19.897	8.823	0.511
365.500	261.301	79.995	19.995	100.862	19.893	9.087	0.535
366.000	261.576	79.995	19.995	100.863	19.895	8.964	0.515
366.500	261.787	79.996	19.995	100.864	19.895	8.967	0.498
367.000	262.074	79.995	19.995	100.864	19.895	8.939	0.492
367.500	262.302	79.996	19.997	100.865	19.891	9.183	0.507
368.000	262.566	79.996	19.995	100.865	19.894	9.012	0.504
368.500	262.824	79.996	19.996	100.864	19.889	9.294	0.507
369.000	263.046	79.994	19.995	100.862	19.888	9.405	0.501
369.500	263.298	79.996	19.996	100.861	19.885	9.571	0.477
370.000	263.548	79.996	19.996	100.864	19.885	9.548	0.488
370.500	263.812	79.995	19.995	100.868	19.886	9.526	0.507
371.000	264.077	79.994	19.997	100.874	19.884	9.628	0.522
371.500	264.324	79.995	19.996	100.880	19.886	9.528	0.521
372.000	264.592	79.996	19.996	100.880	19.881	9.845	0.514
372.500	264.857	79.995	19.997	100.884	19.879	9.975	0.524
373.000	265.096	79.995	19.997	100.884	19.879	9.959	0.518
373.500	265.330	79.996	19.997	100.877	19.877	10.063	0.488
374.000	265.563	79.996	19.996	100.873	19.876	10.148	0.470
374.500	265.827	79.996	19.996	100.873	19.877	10.069	0.482
375.000	266.068	79.996	19.997	100.870	19.875	10.195	0.501
375.500	266.333	79.996	19.996	100.870	19.873	10.311	0.505
376.000	266.587	79.996	19.996	100.873	19.872	10.392	0.513
376.500	266.845	79.996	19.995	100.876	19.873	10.332	0.515
377.000	267.111	79.997	19.995	100.876	19.870	10.510	0.518
377.500	267.357	79.996	19.996	100.873	19.869	10.614	0.518
378.000	267.559	79.998	19.996	100.871	19.869	10.582	0.480
378.500	267.845	79.997	19.996	100.873	19.867	10.719	0.468
379.000	268.037	79.996	19.996	100.872	19.869	10.584	0.483
379.500	268.303	79.998	19.996	100.874	19.866	10.782	0.468
380.000	268.570	79.997	19.996	100.873	19.865	10.853	0.496
380.500	268.846	79.996	19.996	100.870	19.861	11.071	0.538
381.000	269.060	79.998	19.996	100.868	19.860	11.153	0.516
381.500	269.308	79.998	19.996	100.869	19.856	11.423	0.476
382.000	269.588	79.997	19.996	100.869	19.862	11.006	0.495
382.500	269.809	79.997	19.996	100.872	19.860	11.135	0.515
383.000	270.095	79.997	19.995	100.877	19.857	11.383	0.504
383.500	270.356	79.997	19.996	100.879	19.856	11.446	0.527
384.000	270.583	79.997	19.995	100.881	19.854	11.537	0.517
384.500	270.867	79.997	19.995	100.879	19.854	11.538	0.499
385.000	271.150	79.997	19.997	100.882	19.852	11.643	0.539
385.500	271.367	79.998	19.996	100.883	19.852	11.686	0.533
386.000	271.609	79.998	19.995	100.882	19.851	11.743	0.479
386.500	271.869	79.997	19.995	100.883	19.848	11.906	0.481
387.000	272.126	79.997	19.995	100.885	19.850	11.809	0.510
387.500	272.373	79.997	19.995	100.887	19.849	11.863	0.511
388.000	272.637	79.998	19.995	100.886	19.846	12.034	0.508
388.500	272.906	79.997	19.995	100.883	19.846	12.081	0.522
389.000	273.125	79.997	19.996	100.879	19.844	12.159	0.510
389.500	273.363	79.998	19.996	100.881	19.845	12.112	0.472
390.000	273.621	79.997	19.995	100.881	19.845	12.103	0.477
390.500	273.890	79.998	19.995	100.883	19.842	12.282	0.512
391.000	274.089	79.997	19.996	100.887	19.840	12.408	0.498
391.500	274.355	79.998	19.994	100.889	19.839	12.519	0.467
392.000	274.627	79.997	19.995	100.890	19.835	12.746	0.501
392.500	274.849	79.997	19.995	100.891	19.835	12.739	0.516
393.000	275.127	79.998	19.995	100.889	19.835	12.759	0.497
393.500	275.377	79.999	19.995	100.890	19.835	12.725	0.514
394.000	275.630	79.999	19.996	100.893	19.834	12.839	0.516
394.500	275.888	79.997	19.996	100.893	19.830	13.073	0.507
395.000	276.101	79.998	19.995	100.893	19.829	13.137	0.491
395.500	276.372	79.999	19.996	100.895	19.827	13.235	0.477
396.000	276.646	79.996	19.997	100.895	19.826	13.313	0.514
396.500	276.851	79.997	19.997	100.895	19.828	13.207	0.512
397.000	277.124	79.998	19.996	100.893	19.827	13.283	0.478
397.500	277.395	79.998	19.996	100.893	19.824	13.483	0.511
398.000	277.616	79.998	19.997	100.893	19.823	13.528	0.518
398.500	277.881	79.999	19.995	100.893	19.820	13.684	0.489
399.000	278.121	79.998	19.996	100.893	19.817	13.921	0.495
399.500	278.394	79.998	19.994	100.895	19.819	13.798	0.509
400.000	278.631	79.998	19.995	100.893	19.815	14.044	0.512
400.500	278.876	80.000	19.995	100.893	19.812	14.190	0.496
401.000	279.136	79.999	19.996	100.893	19.811	14.304	0.493
401.500	279.356	79.999	19.995	100.893	19.808	14.450	0.492
402.000	279.629	79.999	19.994	100.893	19.810	14.367	0.487
402.500	279.876	80.001	19.995	100.895	19.807	14.547	0.507
403.000	280.126	80.000	19.994	100.895	19.808	14.443	0.508
403.500	280.403	79.999	19.995	100.894	19.805	14.648	0.512
404.000	280.646	80.001	19.994	100.894	19.807	14.547	0.524
404.500	280.884	79.999	19.995	100.894	19.804	14.696	0.500
405.000	281.118	80.001	19.995	100.894	19.803	14.790	0.477
405.500	281.380	80.000	19.995	100.894	19.797	15.144	0.485
406.000	281.627	79.999	19.995	100.893	19.799	15.040	0.503
406.500	281.901	79.999	19.995	100.890	19.797	15.197	0.515
407.000	282.152	80.000	19.994	100.890	19.797	15.147	0.523
407.500	282.361	79.999	19.994	100.890	19.795	15.294	0.493
408.000	282.621	79.998	19.994	100.891	19.793	15.456	0.465
408.500	282.858	79.998	19.995	100.892	19.791	15.528	0.483
409.000	283.110	79.998	19.994	100.895	19.788	15.770	0.493
409.500	283.326	79.998	19.994	100.896	19.789	15.693	0.478
410.000	283.582	79.998	19.994	100.897	19.787	15.792	0.470
410.500	283.850	79.998	19.995	100.897	19.785	15.908	0.498
411.000	284.091	79.997	19.995	100.897	19.784	16.018	0.516
411.500	284.361	79.998	19.995	100.898	19.782	16.119	0.510
412.000	284.627	79.997	19.995	100.900	19.783	16.066	0.523
412.500	284.838	79.997	19.995	100.901	19.779	16.341	0.506
413.000	285.056	79.997	19.995	100.901	19.776	16.504	0.453
413.500	285.321	79.997	19.994	100.901	19.776	16.541	0.456
414.000	285.581	79.995	19.995	100.901	19.777	16.439	0.504
414.501	285.830	79.996	19.995	100.900	19.769	16.935	0.517
415.000	286.064	79.996	19.995	100.903	19.771	16.804	0.497
415.500	286.325	79.995	19.995	100.905	19.771	16.854	0.490
416.000	286.549	79.997	19.996	100.907	19.771	16.824	0.490
416.500	286.805	79.997	19.995	100.912	19.767	17.069	0.483
417.000	287.082	79.997	19.994	100.912	19.767	17.104	0.507
417.500	287.332	79.995	19.995	100.913	19.765	17.216	0.530
418.000	287.596	79.996	19.995	100.913	19.765	17.228	0.520
418.500	287.814	79.997	19.994	100.911	19.764	17.273	0.498
419.000	288.088	79.995	19.994	100.909	19.761	17.461	0.487
419.500	288.301	79.995	19.994	100.909	19.758	17.677	0.489
420.000	288.589	79.997	19.996	100.910	19.757	17.748	0.494
420.500	288.830	79.996	19.995	100.913	19.752	18.037	0.515
421.000	289.066	79.996	19.995	100.917	19.751	18.133	0.503
421.500	289.347	79.996	19.995	100.917	19.749	18.231	0.497
422.000	289.555	79.995	19.994	100.916	19.747	18.387	0.503
422.500	289.846	79.997	19.995	100.918	19.746	18.427	0.494
423.000	290.064	79.996	19.994	100.920	19.740	18.773	0.504
423.500	290.339	79.996	19.995	100.921	19.742	18.699	0.501
424.000	290.612	79.996	19.995	100.923	19.740	18.794	0.520
424.500	290.837	79.995	19.994	100.925	19.737	18.974	0.523
425.000	291.099	79.998	19.994	100.923	19.736	19.031	0.493
425.500	291.365	79.997	19.995	100.919	19.735	19.092	0.508
426.000	291.653	79.995	19.995	100.914	19.734	19.157	0.541
426.500	291.881	79.996	19.994	100.914	19.732	19.298	0.535
427.000	292.119	79.996	19.995	100.918	19.728	19.588	0.491
427.500	292.369	79.996	19.995	100.922	19.726	19.680	0.476
428.000	292.600	79.995	19.995	100.927	19.724	19.813	0.484
428.500	292.893	79.995	19.994	100.933	19.724	19.798	0.503
429.000	293.111	79.996	19.995	100.936	19.720	20.066	0.517
429.500	293.387	79.996	19.995	100.932	19.722	19.974	0.502
430.000	293.646	79.995	19.995	100.928	19.719	20.163	0.515
430.500	293.849	79.996	19.996	100.928	19.717	20.272	0.499
431.000	294.137	79.997	19.996	100.927	19.716	20.337	0.477
431.500	294.388	79.995	19.995	100.928	19.715	20.418	0.515
432.000	294.647	79.995	19.995	100.932	19.712	20.589	0.524
432.500	294.891	79.996	19.997	100.936	19.707	20.889	0.506
433.000	295.130	79.997	19.995	100.938	19.706	20.970	0.493
433.500	295.365	79.996	19.995	100.938	19.708	20.819	0.479
434.000	295.611	79.997	19.996	100.938	19.705	21.005	0.477
434.500	295.829	79.996	19.997	100.937	19.701	21.283	0.472
435.000	296.118	79.996	19.996	100.937	19.698	21.502	0.486
435.500	296.353	79.996	19.995	100.937	19.696	21.574	0.516
436.000	296.572	79.995	19.996	100.937	19.694	21.726	0.489
436.500	296.834	79.996	19.996	100.937	19.691	21.946	0.468
437.000	297.078	79.997	19.997	100.936	19.692	21.881	0.494
437.500	297.303	79.997	19.996	100.936	19.693	21.809	0.487
438.000	297.564	79.995	19.996	100.935	19.687	22.151	0.477
438.500	297.810	79.996	19.995	100.934	19.682	22.498	0.496
439.000	298.078	79.996	19.996	100.934	19.684	22.341	0.510
439.500	298.316	79.996	19.996	100.933	19.679	22.674	0.510
440.000	298.584	79.998	19.996	100.933	19.677	22.824	0.506
440.500	298.835	79.997	19.996	100.934	19.674	23.026	0.513
441.000	299.088	79.998	19.996	100.935	19.674	23.016	0.511
441.500	299.303	79.995	19.995	100.935	19.674	23.037	0.486
442.000	299.533	79.995	19.995	100.937	19.671	23.181	0.457
442.500	299.844	79.995	19.994	100.938	19.668	23.415	0.493
443.000	300.045	79.995	19.996	100.942	19.665	23.607	0.526
443.500	300.348	79.995	19.997	100.946	19.666	23.536	0.508
444.000	300.551	79.996	19.996	100.949	19.665	23.609	0.505
444.500	300.811	79.995	19.996	100.951	19.660	23.879	0.484
445.000	301.066	79.996	19.996	100.953	19.661	23.815	0.489
445.500	301.324	79.997	19.996	100.948	19.653	24.319	0.514
446.000	301.543	79.995	19.996	100.943	19.651	24.490	0.495
446.500	301.793	79.996	19.996	100.940	19.647	24.750	0.473
447.000	302.034	79.996	19.996	100.939	19.648	24.647	0.480
447.500	302.311	79.996	19.996	100.940	19.645	24.828	0.505
448.000	302.556	79.996	19.997	100.944	19.642	25.023	0.520
448.500	302.783	79.996	19.996	100.945	19.640	25.193	0.497
449.000	303.018	79.995	19.997	100.945	19.640	25.198	0.467
449.500	303.281	79.996	19.996	100.948	19.636	25.427	0.480
450.000	303.556	79.995	19.995	100.950	19.635	25.500	0.517
450.500	303.803	79.995	19.996	100.951	19.633	25.650	0.530
451.000	304.058	79.997	19.996	100.955	19.627	25.993	0.512
451.500	304.289	79.996	19.995	100.961	19.629	25.886	0.494
452.000	304.503	79.996	19.996	100.963	19.624	26.205	0.466
452.500	304.792	79.997	19.996	100.963	19.624	26.198	0.474
453.000	305.004	79.996	19.996	100.966	19.622	26.316	0.502
453.500	305.248	79.996	19.996	100.966	19.620	26.443	0.478
454.000	305.507	79.997	19.996	100.965	19.615	26.760	0.480
454.500	305.739	79.997	19.996	100.964	19.612	26.953	0.497
455.000	306.001	79.997	19.996	100.965	19.610	27.111	0.492
455.500	306.255	79.996	19.995	100.964	19.608	27.229	0.505
456.000	306.509	79.997	19.995	100.964	19.606	27.340	0.512
456.500	306.740	79.996	19.996	100.963	19.601	27.645	0.497
457.000	306.986	79.998	19.995	100.964	19.600	27.711	0.481
457.500	307.253	79.998	19.996	100.963	19.598	27.860	0.495
458.000	307.508	79.997	19.994	100.962	19.593	28.171	0.517
458.500	307.770	79.998	19.995	100.963	19.595	28.036	0.520
459.000	307.983	79.998	19.996	100.966	19.589	28.418	0.496
459.500	308.213	79.997	19.996	100.967	19.587	28.562	0.459
460.000	308.444	79.998	19.995	100.970	19.583	28.787	0.452
460.500	308.693	79.998	19.997	100.970	19.581	28.900	0.470
461.000	308.944	79.998	19.996	100.969	19.580	29.023	0.490
461.500	309.196	79.998	19.997	100.969	19.580	29.020	0.501
462.000	309.432	79.998	19.995	100.969	19.574	29.364	0.496
462.500	309.663	79.997	19.997	100.969	19.570	29.654	0.478
463.000	309.911	79.997	19.996	100.971	19.569	29.694	0.473
463.500	310.158	79.997	19.996	100.971	19.562	30.138	0.487
464.000	310.414	79.997	19.996	100.971	19.561	30.197	0.499
464.500	310.647	79.996	19.996	100.969	19.559	30.313	0.495
465.000	310.888	79.997	19.996	100.969	19.558	30.405	0.481
465.500	311.130	79.997	19.996	100.969	19.555	30.603	0.478
466.000	311.377	79.997	19.997	100.970	19.549	30.953	0.486
466.500	311.655	79.997	19.996	100.971	19.547	31.072	0.508
467.000	311.875	79.997	19.996	100.973	19.547	31.068	0.512
467.500	312.136	79.995	19.996	100.973	19.541	31.483	0.489
468.000	312.394	79.997	19.998	100.973	19.539	31.577	0.500
468.500	312.610	79.997	19.996	100.972	19.536	31.766	0.497
469.000	312.863	79.996	19.997	100.972	19.533	31.991	0.471
469.500	313.121	79.997	19.996	100.973	19.530	32.194	0.490
470.000	313.373	79.997	19.997	100.973	19.527	32.379	0.510
470.500	313.599	79.998	19.996	100.974	19.524	32.546	0.494
471.000	313.819	79.996	19.996	100.975	19.520	32.836	0.462
471.500	314.067	79.996	19.996	100.975	19.519	32.877	0.457
472.000	314.338	79.997	19.995	100.976	19.516	33.046	0.494
472.500	314.573	79.999	19.997	100.976	19.515	33.131	0.512
473.000	314.833	79.997	19.996	100.977	19.509	33.528	0.500
473.500	315.038	79.997	19.996	100.978	19.506	33.691	0.480
474.000	315.263	79.997	19.995	100.979	19.504	33.857	0.447
474.500	315.535	79.999	19.995	100.980	19.504	33.863	0.464
475.000	315.754	79.997	19.996	100.980	19.501	34.037	0.494
475.500	315.987	79.997	19.996	100.980	19.498	34.204	0.472
476.000	316.254	79.997	19.996	100.981	19.493	34.530	0.476
476.500	316.450	79.997	19.996	100.983	19.493	34.570	0.481
477.000	316.695	79.997	19.995	100.983	19.489	34.808	0.452
477.500	316.916	79.998	19.994	100.986	19.487	34.953	0.454
478.000	317.177	79.998	19.995	100.985	19.485	35.061	0.474
478.500	317.399	79.998	19.995	100.983	19.483	35.165	0.483
479.000	317.643	79.998	19.996	100.983	19.480	35.359	0.475
479.500	317.876	79.999	19.994	100.985	19.473	35.804	0.472
480.000	318.105	79.999	19.995	100.983	19.472	35.878	0.469
480.500	318.364	79.999	19.996	100.984	19.471	35.947	0.475
481.000	318.608	79.998	19.995	100.988	19.469	36.100	0.495
481.500	318.803	79.999	19.995	100.992	19.466	36.282	0.471
482.000	319.060	79.998	19.995	100.993	19.463	36.469	0.446
482.500	319.310	79.999	19.994	100.997	19.459	36.699	0.480
483.000	319.516	79.999	19.994	101.000	19.457	36.864	0.481
483.500	319.735	79.999	19.994	100.995	19.456	36.884	0.440
484.000	319.963	79.998	19.994	100.990	19.449	37.361	0.436
484.500	320.204	79.999	19.995	100.987	19.446	37.510	0.458
485.000	320.487	79.999	19.995	100.991	19.448	37.396	0.497
485.500	320.663	79.998	19.995	100.993	19.443	37.732	0.491
486.000	320.909	80.000	19.994	101.001	19.440	37.893	0.440
486.500	321.116	79.997	19.994	101.007	19.437	38.119	0.437
487.000	321.362	79.999	19.995	101.013	19.435	38.267	0.453
487.500	321.590	80.000	19.994	101.014	19.434	38.332	0.463
488.000	321.801	79.998	19.994	101.011	19.428	38.655	0.457
488.500	322.076	79.998	19.994	101.009	19.423	38.996	0.463
489.000	322.297	79.999	19.994	101.009	19.426	38.819	0.492
489.500	322.549	79.998	19.994	101.005	19.421	39.126	0.485
490.000	322.756	79.998	19.994	101.006	19.419	39.237	0.466
490.500	323.024	79.997	19.994	101.010	19.417	39.384	0.467
491.000	323.231	79.995	19.994	101.012	19.414	39.591	0.475
491.500	323.480	79.997	19.994	101.013	19.410	39.832	0.466
492.000	323.693	79.996	19.995	101.017	19.407	40.021	0.459
492.500	323.910	79.995	19.995	101.017	19.403	40.300	0.446
493.000	324.131	79.995	19.995	101.017	19.402	40.336	0.434
493.500	324.378	79.995	19.996	101.021	19.400	40.450	0.453
494.000	324.626	79.997	19.996	101.022	19.394	40.843	0.481
494.500	324.879	79.996	19.995	101.023	19.391	41.036	0.498
495.000	325.126	79.996	19.995	101.025	19.390	41.108	0.500
495.500	325.332	79.996	19.995	101.025	19.385	41.428	0.476
496.000	325.596	79.995	19.995	101.022	19.384	41.461	0.461
496.500	325.815	79.995	19.995	101.021	19.384	41.504	0.477
497.000	326.078	79.996	19.995	101.020	19.383	41.542	0.483
497.500	326.347	79.996	19.994	101.019	19.381	41.715	0.507
498.000	326.539	79.995	19.995	101.021	19.377	41.957	0.496
498.500	326.788	79.995	19.995	101.023	19.374	42.165	0.451
499.000	327.018	79.995	19.996	101.024	19.374	42.144	0.460
499.500	327.265	79.995	19.995	101.024	19.369	42.485	0.478
500.000	327.494	79.996	19.996	101.023	19.367	42.594	0.477
500.500	327.755	79.996	19.995	101.020	19.364	42.757	0.483
501.000	327.976	79.996	19.995	101.019	19.361	42.991	0.486
501.500	328.203	79.995	19.996	101.017	19.360	43.052	0.465
502.000	328.458	79.997	19.995	101.021	19.357	43.216	0.465
502.500	328.708	79.995	19.996	101.024	19.355	43.367	0.493
503.000	328.938	79.996	19.997	101.028	19.355	43.344	0.493
503.500	329.218	79.996	19.995	101.029	19.351	43.631	0.495
504.000	329.433	79.996	19.997	101.032	19.351	43.615	0.503
504.500	329.700	79.997	19.996	101.032	19.347	43.843	0.488
505.000	329.918	79.996	19.994	101.031	19.347	43.884	0.483
505.500	330.177	79.996	19.995	101.031	19.343	44.121	0.481
506.000	330.423	79.996	19.995	101.030	19.343	44.127	0.491
506.500	330.620	79.996	19.996	101.028	19.338	44.399	0.474
507.000	330.907	79.996	19.996	101.029	19.337	44.464	0.463
507.500	331.106	79.997	19.995	101.033	19.336	44.571	0.485
508.000	331.346	79.996	19.996	101.036	19.335	44.607	0.463
508.500	331.600	79.996	19.995	101.044	19.331	44.900	0.466
509.000	331.844	79.995	19.995	101.050	19.329	45.026	0.496
509.500	332.059	79.995	19.995	101.052	19.326	45.186	0.479
510.000	332.305	79.997	19.996	101.054	19.324	45.325	0.460
510.500	332.597	79.996	19.995	101.054	19.324	45.330	0.499
511.000	332.907	79.996	19.995	101.054	19.321	45.505	0.570
511.500	333.126	79.996	19.996	101.054	19.320	45.558	0.566
512.000	333.367	79.998	19.995	101.053	19.317	45.775	0.494
512.500	333.636	79.996	19.995	101.053	19.318	45.728	0.485
513.000	333.882	79.997	19.996	101.052	19.313	46.038	0.513
513.500	334.124	79.997	19.996	101.052	19.309	46.251	0.501
514.000	334.378	79.996	19.994	101.051	19.309	46.256	0.492
514.500	334.625	79.997	19.996	101.049	19.303	46.653	0.499
515.000	334.858	79.997	19.994	101.049	19.304	46.597	0.491
515.500	335.129	79.996	19.995	101.050	19.299	46.882	0.492
516.000	335.348	79.996	19.995	101.048	19.300	46.831	0.497
516.500	335.627	79.995	19.995	101.048	19.299	46.888	0.494
517.000	335.881	79.996	19.995	101.050	19.296	47.114	0.516
517.500	336.126	79.997	19.996	101.051	19.295	47.172	0.516
518.000	336.369	79.996	19.995	101.050	19.292	47.363	0.493
518.500	336.644	79.996	19.995	101.050	19.289	47.536	0.504
519.000	336.886	79.996	19.994	101.049	19.288	47.594	0.518
519.500	337.151	79.997	19.995	101.046	19.283	47.923	0.512
520.000	337.387	79.997	19.995	101.042	19.286	47.736	0.504
520.500	337.631	79.997	19.996	101.041	19.283	47.926	0.490
521.000	337.881	79.997	19.995	101.043	19.284	47.857	0.487
521.500	338.135	79.996	19.996	101.046	19.281	48.089	0.499
522.000	338.374	79.997	19.997	101.049	19.279	48.202	0.498
522.500	338.646	79.996	19.995	101.052	19.274	48.511	0.502
523.000	338.881	79.995	19.995	101.052	19.273	48.569	0.509
523.500	339.127	79.996	19.996	101.052	19.268	48.890	0.493
524.000	339.362	79.997	19.996	101.052	19.268	48.879	0.481
524.500	339.614	79.996	19.996	101.052	19.265	49.056	0.485
525.000	339.882	79.995	19.994	101.051	19.267	48.972	0.504
525.500	340.158	79.995	19.996	101.050	19.264	49.143	0.532
526.000	340.375	79.995	19.996	101.049	19.263	49.234	0.519
526.500	340.637	79.996	19.997	101.048	19.259	49.472	0.486
527.000	340.871	79.995	19.997	101.046	19.259	49.493	0.487
527.500	341.097	79.996	19.996	101.045	19.254	49.790	0.478
528.000	341.351	79.996	19.996	101.046	19.253	49.867	0.470
528.500	341.593	79.996	19.997	101.048	19.252	49.891	0.488
529.000	341.843	79.995	19.996	101.049	19.248	50.147	0.494
529.500	342.091	79.995	19.997	101.052	19.247	50.224	0.495
530.000	342.351	79.995	19.996	101.054	19.246	50.280	0.502
530.500	342.599	79.997	19.996	101.054	19.243	50.518	0.508
531.000	342.841	79.996	19.997	101.053	19.240	50.666	0.499
531.500	343.078	79.995	19.996	101.053	19.239	50.764	0.485
532.000	343.348	79.997	19.996	101.053	19.236	50.943	0.493
532.500	343.589	79.996	19.996	101.053	19.236	50.940	0.509
533.000	343.823	79.996	19.996	101.057	19.231	51.237	0.493
533.500	344.118	79.997	19.996	101.058	19.231	51.280	0.502
534.000	344.336	79.996	19.996	101.059	19.227	51.483	0.521
534.500	344.633	79.996	19.996	101.060	19.225	51.650	0.514
535.000	344.867	79.996	19.996	101.062	19.224	51.722	0.523
535.501	345.113	79.997	19.996	101.059	19.218	52.067	0.506
536.000	345.377	79.996	19.996	101.060	19.216	52.217	0.495
536.500	345.643	79.997	19.996	101.063	19.213	52.378	0.520
537.000	345.890	79.996	19.996	101.064	19.214	52.337	0.521
537.500	346.143	79.998	19.997	101.063	19.209	52.671	0.506
538.000	346.398	79.997	19.995	101.062	19.209	52.647	0.504
538.500	346.619	79.998	19.996	101.061	19.204	53.011	0.492
539.000	346.869	79.998	19.995	101.058	19.203	53.036	0.473
539.500	347.160	79.998	19.996	101.057	19.203	53.065	0.506
540.000	347.401	79.997	19.997	101.059	19.200	53.215	0.537
540.500	347.670	79.997	19.997	101.060	19.196	53.485	0.521
541.000	347.909	79.997	19.995	101.062	19.197	53.422	0.509
541.500	348.181	79.997	19.996	101.067	19.195	53.578	0.509
542.000	348.403	79.998	19.996	101.069	19.192	53.758	0.503
542.500	348.676	79.998	19.994	101.067	19.186	54.118	0.495
543.000	348.926	79.997	19.995	101.068	19.184	54.242	0.509
543.500	349.194	79.997	19.996	101.071	19.183	54.329	0.521
544.000	349.427	79.998	19.995	101.072	19.181	54.478	0.509
544.500	349.678	79.997	19.996	101.072	19.179	54.574	0.492
545.000	349.923	79.997	19.996	101.076	19.174	54.884	0.490
545.500	350.212	79.998	19.996	101.080	19.175	54.846	0.515
546.000	350.440	79.997	19.996	101.078	19.167	55.331	0.526
546.500	350.704	79.997	19.996	101.079	19.167	55.390	0.504
547.000	350.939	79.998	19.997	101.083	19.163	55.632	0.496
547.500	351.212	79.998	19.997	101.086	19.160	55.805	0.504
548.000	351.439	79.999	19.997	101.088	19.153	56.235	0.504
548.500	351.695	79.996	19.996	101.092	19.154	56.190	0.492
549.000	351.925	79.997	19.997	101.093	19.151	56.355	0.484
549.500	352.176	79.997	19.995	101.094	19.148	56.582	0.483
550.000	352.456	79.997	19.996	101.095	19.146	56.732	0.506
550.500	352.690	79.997	19.995	101.097	19.142	56.976	0.523
551.000	352.965	79.996	19.997	101.098	19.139	57.141	0.511
551.500	353.213	79.997	19.995	101.098	19.136	57.343	0.516
552.000	353.518	79.997	19.996	101.099	19.131	57.656	0.538
552.500	353.734	79.995	19.997	101.104	19.129	57.809	0.537
553.000	354.027	79.997	19.995	101.105	19.127	57.942	0.515
553.500	354.274	79.996	19.996	101.107	19.121	58.317	0.525
554.000	354.508	79.997	19.997	101.108	19.121	58.280	0.510
554.500	354.786	79.997	19.996	101.110	19.117	58.534	0.496
555.000	355.047	79.995	19.997	101.108	19.114	58.780	0.526
555.500	355.280	79.995	19.997	101.113	19.110	59.036	0.517
556.000	355.575	79.996	19.996	101.115	19.106	59.232	0.511
556.500	355.784	79.996	19.996	101.119	19.102	59.539	0.516
557.000	356.063	79.996	19.997	101.124	19.097	59.811	0.496
557.500	356.359	79.995	19.997	101.128	19.093	60.105	0.531
558.000	356.554	79.996	19.997	101.128	19.090	60.252	0.533
558.500	356.830	79.997	19.996	101.131	19.086	60.523	0.481
559.000	357.113	79.996	19.996	101.134	19.083	60.721	0.516
559.500	357.351	79.997	19.998	101.134	19.079	60.989	0.541
560.000	357.641	79.999	19.997	101.134	19.074	61.318	0.525
560.500	357.874	79.998	19.996	101.133	19.073	61.390	0.525
561.000	358.154	79.997	19.997	101.132	19.067	61.758	0.518
561.500	358.379	79.999	19.996	101.131	19.063	61.985	0.509
562.000	358.676	79.998	19.998	101.131	19.059	62.293	0.513
562.500	358.929	79.998	19.996	101.130	19.055	62.543	0.536
563.000	359.192	79.999	19.997	101.130	19.048	62.989	0.533
563.500	359.451	79.999	19.997	101.132	19.047	63.046	0.519
564.000	359.706	79.999	19.999	101.133	19.042	63.371	0.518
564.500	359.993	79.998	19.999	101.133	19.040	63.450	0.528
565.000	360.223	79.999	19.998	101.134	19.038	63.596	0.530
565.500	360.514	79.999	19.996	101.138	19.030	64.094	0.519
566.000	360.768	79.999	19.997	101.143	19.025	64.415	0.533
566.500	361.003	79.998	19.996	101.147	19.026	64.346	0.517
567.000	361.283	80.000	19.997	101.150	19.018	64.865	0.502
567.500	361.567	79.998	19.996	101.153	19.014	65.150	0.540
568.000	361.842	79.997	19.997	101.149	19.011	65.307	0.561
568.500	362.094	79.998	19.995	101.144	19.009	65.466	0.543
569.000	362.338	79.998	19.995	101.140	19.004	65.752	0.511
569.500	362.658	79.998	19.995	101.138	18.998	66.159	0.530
570.000	362.853	79.997	19.996	101.136	18.996	66.255	0.540
570.500	363.085	79.997	19.995	101.138	18.992	66.562	0.471
571.000	363.419	79.997	19.996	101.139	18.990	66.667	0.496
571.500	363.633	79.998	19.996	101.141	18.983	67.090	0.557
572.001	363.914	79.998	19.996	101.147	18.978	67.438	0.522
572.501	364.198	79.996	19.996	101.155	18.975	67.581	0.530
573.000	364.443	79.997	19.995	101.156	18.973	67.727	0.547
573.500	364.671	79.996	19.995	101.157	18.968	68.048	0.501
574.000	364.953	79.996	19.995	101.153	18.964	68.289	0.492
574.500	365.210	79.996	19.996	101.151	18.959	68.649	0.524
575.000	365.518	79.996	19.996	101.148	18.956	68.848	0.552
575.500	365.760	79.996	19.997	101.145	18.953	69.011	0.558
576.000	366.045	79.997	19.996	101.145	18.951	69.135	0.538
576.500	366.292	79.995	19.996	101.147	18.950	69.214	0.529
577.000	366.529	79.995	19.995	101.150	18.943	69.664	0.508
577.500	366.830	79.996	19.995	101.148	18.935	70.184	0.511
578.000	367.040	79.996	19.995	101.148	18.932	70.322	0.525
578.500	367.330	79.996	19.996	101.146	18.934	70.192	0.505
579.000	367.594	79.997	19.995	101.149	18.932	70.325	0.527
579.500	367.871	79.997	19.996	101.144	18.934	70.231	0.548
580.000	368.107	79.996	19.996	101.144	18.927	70.677	0.527
580.500	368.455	79.996	19.997	101.148	18.928	70.617	0.548
581.000	368.636	79.996	19.996	101.151	18.927	70.634	0.556
581.500	368.920	79.996	19.996	101.148	18.928	70.587	0.497
582.000	369.169	79.997	19.995	101.150	18.916	71.377	0.499
582.500	369.398	79.997	19.996	101.147	18.912	71.642	0.506
583.000	369.747	79.996	19.996	101.143	18.912	71.588	0.528
583.500	369.966	79.996	19.996	101.138	18.913	71.519	0.573
584.000	370.199	79.996	19.995	101.139	18.913	71.533	0.510
584.500	370.440	79.997	19.996	101.139	18.907	71.911	0.462
585.000	370.737	79.997	19.996	101.144	18.907	71.939	0.506
585.500	370.932	79.998	19.996	101.147	18.904	72.101	0.516
586.000	371.311	79.996	19.995	101.149	18.910	71.738	0.533
586.500	371.423	79.996	19.996	101.146	18.904	72.134	0.532
587.000	371.787	79.997	19.995	101.143	18.904	72.111	0.483
587.500	371.973	79.996	19.996	101.141	18.901	72.294	0.513
588.000	372.289	79.996	19.996	101.140	18.905	72.035	0.526
588.501	372.542	79.996	19.995	101.141	18.905	72.022	0.535
589.001	372.803	79.997	19.996	101.141	18.903	72.179	0.542
589.501	373.090	79.997	19.995	101.141	18.907	71.894	0.531
590.001	373.377	79.997	19.996	101.138	18.905	72.045	0.561
590.500	373.566	79.996	19.996	101.135	18.905	71.995	0.525
591.000	373.931	79.997	19.995	101.132	18.907	71.865	0.516
591.500	374.115	79.997	19.995	101.131	18.909	71.775	0.552
592.000	374.319	79.996	19.995	101.131	18.908	71.782	0.468
592.500	374.681	79.996	19.996	101.130	18.910	71.675	0.477
593.000	375.086	79.997	19.995	101.129	18.911	71.588	0.666
593.500	375.140	79.996	19.996	101.126	18.914	71.409	0.613
594.000	375.653	79.997	19.995	101.122	18.918	71.155	0.514
594.500	375.700	79.997	19.996	101.117	18.918	71.158	0.564
595.000	376.243	79.996	19.996	101.111	18.922	70.899	0.575
595.500	376.571	79.996	19.996	101.104	18.924	70.800	0.730
596.000	376.539	79.996	19.995	101.099	18.930	70.369	0.584
596.500	376.860	79.996	19.996	101.095	18.925	70.681	0.293
597.000	377.000	79.996	19.996	101.095	18.936	69.998	0.375
597.500	377.290	79.997	19.997	101.095	18.939	69.777	0.445
598.000	377.555	79.996	19.996	101.095	18.946	69.342	0.492
598.500	377.697	79.996	19.996	101.094	18.952	68.989	0.481
599.000	378.104	79.996	19.994	101.088	18.960	68.486	0.478
599.500	378.270	79.996	19.996	101.081	18.961	68.409	0.561
600.000	378.690	79.996	19.994	101.074	18.967	68.028	0.580
600.500	378.837	79.996	19.995	101.067	18.973	67.609	0.577
601.000	379.043	79.995	19.995	101.061	18.976	67.403	0.460
601.500	379.331	79.998	19.995	101.060	18.986	66.799	0.423
602.000	379.565	79.995	19.995	101.057	18.988	66.621	0.508
602.500	379.890	79.995	19.995	101.051	18.999	65.937	0.541
603.000	380.082	79.996	19.995	101.044	19.008	65.363	0.538
603.500	380.339	79.995	19.995	101.037	19.014	64.973	0.483
604.000	380.585	79.996	19.995	101.030	19.020	64.593	0.475
604.500	380.842	79.997	19.996	101.024	19.030	63.973	0.503
605.000	381.088	79.995	19.995	101.021	19.040	63.328	0.503
605.500	381.353	79.995	19.997	101.020	19.047	62.858	0.507
606.000	381.622	79.996	19.997	101.018	19.057	62.206	0.522
606.500	381.859	79.996	19.996	101.018	19.062	61.904	0.520
607.000	382.135	79.996	19.996	101.012	19.071	61.321	0.510
607.500	382.351	79.995	19.996	101.004	19.082	60.646	0.503
608.000	382.611	79.996	19.995	100.997	19.091	60.093	0.484
608.500	382.842	79.995	19.995	100.989	19.101	59.403	0.483
609.000	383.118	79.997	19.996	100.982	19.113	58.675	0.499
609.500	383.338	79.995	19.995	100.979	19.124	57.992	0.502
610.000	383.650	79.997	19.997	100.978	19.132	57.441	0.514
610.500	383.800	79.995	19.996	100.975	19.145	56.645	0.497
611.000	384.073	79.996	19.996	100.967	19.156	55.894	0.442
611.500	384.304	79.996	19.996	100.960	19.169	55.087	0.464
612.000	384.601	79.996	19.995	100.953	19.183	54.185	0.516
612.500	384.859	79.996	19.996	100.945	19.191	53.692	0.542
613.000	385.086	79.997	19.995	100.940	19.204	52.897	0.520
613.500	385.317	79.997	19.995	100.941	19.216	52.099	0.471
614.000	385.592	79.996	19.996	100.940	19.231	51.133	0.482
614.500	385.818	79.997	19.996	100.936	19.239	50.622	0.504
615.000	386.113	79.995	19.997	100.930	19.255	49.602	0.511
615.500	386.333	79.997	19.996	100.922	19.266	48.917	0.518
616.000	386.573	79.997	19.997	100.914	19.276	48.268	0.488
616.500	386.843	79.997	19.996	100.908	19.287	47.557	0.485
617.000	387.040	79.996	19.996	100.903	19.301	46.708	0.488
617.500	387.316	79.997	19.995	100.901	19.318	45.608	0.470
618.000	387.585	79.996	19.995	100.901	19.325	45.139	0.509
618.500	387.814	79.995	19.996	100.901	19.340	44.196	0.521
619.000	388.078	79.996	19.995	100.900	19.349	43.646	0.496
619.500	388.288	79.996	19.997	100.895	19.363	42.719	0.484
620.000	388.585	79.997	19.995	100.893	19.381	41.625	0.490
620.500	388.786	79.995	19.996	100.886	19.388	41.150	0.503
621.000	389.041	79.996	19.996	100.878	19.402	40.277	0.478
621.500	389.280	79.996	19.995	100.872	19.415	39.407	0.475
622.000	389.531	79.996	19.996	100.873	19.428	38.632	0.492
622.500	389.726	79.996	19.996	100.867	19.440	37.853	0.468
623.000	390.027	79.997	19.997	100.867	19.453	37.038	0.471
623.500	390.234	79.995	19.996	100.867	19.464	36.346	0.502
624.001	390.511	79.996	19.996	100.866	19.474	35.700	0.496
624.500	390.787	79.995	19.997	100.859	19.491	34.628	0.519
625.000	391.035	79.995	19.996	100.854	19.500	34.054	0.539
625.500	391.266	79.996	19.996	100.849	19.510	33.377	0.502
626.000	391.579	79.997	19.996	100.841	19.521	32.684	0.511
626.500	391.774	79.996	19.996	100.833	19.536	31.749	0.525
627.000	392.005	79.996	19.997	100.829	19.547	31.053	0.467
627.500	392.298	79.997	19.995	100.829	19.557	30.384	0.475
628.000	392.534	79.997	19.996	100.826	19.569	29.636	0.527
628.500	392.790	79.996	19.995	100.825	19.579	28.996	0.510
629.000	393.040	79.996	19.995	100.825	19.589	28.365	0.499
629.500	393.288	79.996	19.996	100.823	19.603	27.451	0.502
630.001	393.565	79.996	19.996	100.820	19.611	26.953	0.512
630.500	393.815	79.997	19.996	100.819	19.622	26.294	0.526
631.000	394.054	79.997	19.995	100.819	19.633	25.542	0.508
631.500	394.312	79.997	19.996	100.819	19.641	25.047	0.493
632.000	394.551	79.996	19.994	100.819	19.652	24.371	0.497
632.500	394.817	79.997	19.997	100.819	19.662	23.706	0.501
633.000	395.060	79.996	19.996	100.819	19.670	23.218	0.507
633.500	395.306	79.997	19.996	100.818	19.680	22.575	0.499
634.000	395.582	79.997	19.995	100.818	19.688	22.068	0.506
634.500	395.848	79.997	19.996	100.816	19.697	21.483	0.532
635.000	396.096	79.997	19.997	100.812	19.705	21.011	0.528
635.500	396.312	79.996	19.996	100.810	19.711	20.604	0.489
636.000	396.578	79.996	19.996	100.809	19.723	19.843	0.473
636.500	396.837	79.998	19.995	100.807	19.728	19.513	0.504
637.000	397.068	79.998	19.996	100.808	19.738	18.917	0.507
637.500	397.349	79.997	19.997	100.811	19.746	18.396	0.501
638.001	397.600	79.998	19.996	100.813	19.754	17.900	0.522
638.500	397.823	79.999	19.997	100.807	19.763	17.286	0.503
639.000	398.066	79.997	19.996	100.803	19.767	17.062	0.469
639.500	398.331	79.997	19.994	100.797	19.772	16.766	0.487
640.000	398.592	79.997	19.997	100.791	19.781	16.161	0.518
640.500	398.838	79.998	19.997	100.788	19.792	15.487	0.517
641.000	399.089	79.998	19.995	100.789	19.796	15.212	0.501
641.500	399.367	79.998	19.995	100.787	19.801	14.906	0.512
642.000	399.623	79.998	19.995	100.788	19.806	14.598	0.531
642.500	399.832	79.997	19.996	100.786	19.814	14.067	0.500
643.000	400.098	79.998	19.996	100.785	19.815	14.019	0.470
643.500	400.354	79.998	19.996	100.788	19.821	13.622	0.499
644.000	400.579	79.999	19.996	100.793	19.825	13.379	0.502
644.500	400.869	79.998	19.996	100.796	19.831	12.995	0.498
645.000	401.082	79.999	19.997	100.801	19.834	12.775	0.509
645.500	401.315	80.000	19.996	100.799	19.839	12.498	0.474
646.000	401.588	79.998	19.997	100.799	19.845	12.089	0.476
646.500	401.823	79.998	19.996	100.798	19.848	11.943	0.507
647.000	402.093	79.998	19.996	100.794	19.853	11.608	0.507
647.500	402.358	79.998	19.996	100.789	19.855	11.461	0.520
648.000	402.589	79.999	19.996	100.789	19.857	11.329	0.515
648.500	402.827	79.998	19.997	100.784	19.858	11.256	0.482
649.000	403.060	79.998	19.996	100.780	19.863	10.962	0.470
649.500	403.321	79.997	19.996	100.779	19.866	10.798	0.483
650.000	403.554	79.998	19.997	100.779	19.867	10.695	0.494
650.500	403.819	79.998	19.996	100.779	19.868	10.668	0.496
651.000	404.040	79.998	19.996	100.782	19.874	10.251	0.492
651.500	404.324	79.996	19.996	100.789	19.874	10.272	0.495
652.000	404.562	79.995	19.996	100.792	19.877	10.096	0.513
652.500	404.823	79.995	19.996	100.795	19.880	9.911	0.510
653.000	405.124	79.995	19.995	100.799	19.879	9.936	0.531
653.500	405.338	79.996	19.996	100.798	19.886	9.480	0.539
654.000	405.571	79.996	19.996	100.794	19.888	9.390	0.481
654.500	405.826	79.994	19.996	100.793	19.888	9.400	0.468
655.000	406.108	79.995	19.996	100.791	19.890	9.220	0.513
655.500	406.336	79.996	19.996	100.786	19.894	8.964	0.523
656.000	406.583	79.995	19.996	100.785	19.894	8.967	0.492
656.500	406.812	79.996	19.996	100.785	19.893	9.041	0.475
657.001	407.086	79.994	19.997	100.790	19.897	8.810	0.490
657.500	407.315	79.995	19.996	100.794	19.901	8.572	0.503
658.000	407.603	79.995	19.996	100.796	19.900	8.591	0.510
658.500	407.837	79.997	19.995	100.798	19.897	8.776	0.519
659.000	408.075	79.995	19.996	100.797	19.899	8.675	0.497
659.500	408.325	79.995	19.995	100.795	19.900	8.589	0.480
660.000	408.588	79.995	19.995	100.794	19.903	8.423	0.500
660.500	408.839	79.996	19.996	100.798	19.902	8.480	0.513
661.000	409.081	79.997	19.994	100.804	19.903	8.451	0.504
661.500	409.305	79.996	19.995	100.807	19.903	8.426	0.480
662.000	409.565	79.995	19.995	100.807	19.902	8.457	0.475
662.500	409.817	79.996	19.996	100.808	19.904	8.375	0.498
663.000	410.075	79.997	19.997	100.807	19.906	8.208	0.511
663.500	410.305	79.996	19.996	100.806	19.907	8.194	0.499
664.000	410.574	79.996	19.996	100.803	19.905	8.267	0.493
664.500	410.846	79.995	19.995	100.804	19.911	7.916	0.520
665.000	411.075	79.996	19.996	100.806	19.911	7.916	0.521
665.500	411.360	79.997	19.996	100.803	19.911	7.884	0.507
666.000	411.637	79.997	19.995	100.797	19.913	7.813	0.538
666.501	411.837	79.997	19.996	100.797	19.910	7.955	0.520
667.000	412.106	79.996	19.996	100.794	19.909	8.024	0.473
667.500	412.361	79.997	19.996	100.795	19.914	7.721	0.497
668.000	412.598	79.996	19.996	100.799	19.916	7.615	0.508
668.500	412.863	79.995	19.996	100.804	19.914	7.743	0.497
669.000	413.117	79.995	19.996	100.806	19.917	7.512	0.510
669.500	413.378	79.996	19.996	100.803	19.915	7.629	0.517
670.000	413.646	79.996	19.996	100.800	19.916	7.581	0.522
670.500	413.862	79.995	19.995	100.799	19.917	7.554	0.507
671.000	414.110	79.998	19.996	100.798	19.919	7.403	0.474
671.500	414.343	79.997	19.995	100.797	19.920	7.312	0.472
672.000	414.616	79.995	19.996	100.802	19.917	7.502	0.494
672.501	414.849	79.996	19.994	100.803	19.920	7.315	0.506
673.000	415.147	79.996	19.995	100.800	19.919	7.381	0.518
673.500	415.376	79.996	19.994	100.803	19.920	7.369	0.529
674.000	415.617	79.997	19.995	100.801	19.918	7.476	0.499
674.500	415.833	79.996	19.995	100.799	19.919	7.391	0.464
675.000	416.108	79.996	19.995	100.801	19.917	7.520	0.474
675.500	416.327	79.996	19.995	100.803	19.919	7.380	0.492
676.000	416.601	79.996	19.995	100.800	19.922	7.221	0.493
676.500	416.881	79.997	19.995	100.804	19.920	7.313	0.524
677.000	417.115	79.997	19.997	100.804	19.921	7.258	0.535
677.500	417.388	79.996	19.995	100.804	19.921	7.306	0.511
678.000	417.669	79.995	19.997	100.804	19.922	7.235	0.530
678.500	417.899	79.996	19.995	100.804	19.921	7.277	0.532
679.000	418.185	79.994	19.996	100.801	19.923	7.150	0.513
679.500	418.414	79.996	19.996	100.800	19.923	7.159	0.516
680.000	418.685	79.997	19.995	100.801	19.925	7.042	0.508
680.500	418.912	79.995	19.995	100.801	19.924	7.079	0.499
681.000	419.184	79.996	19.996	100.804	19.927	6.929	0.499
681.500	419.444	79.996	19.996	100.807	19.927	6.917	0.515
682.000	419.693	79.996	19.996	100.808	19.924	7.117	0.520
682.500	419.946	79.995	19.996	100.809	19.925	7.048	0.505
683.000	420.231	79.995	19.997	100.805	19.924	7.096	0.520
683.500	420.468	79.995	19.997	100.806	19.923	7.155	0.530
684.000	420.762	79.995	19.996	100.809	19.925	7.015	0.526
684.500	421.004	79.996	19.996	100.812	19.924	7.105	0.533
685.000	421.261	79.995	19.995	100.807	19.926	6.955	0.518
685.500	421.510	79.996	19.997	100.805	19.928	6.844	0.502
686.000	421.777	79.995	19.997	100.799	19.926	6.943	0.511
686.500	422.022	79.995	19.995	100.796	19.930	6.728	0.514
687.000	422.283	79.995	19.996	100.797	19.928	6.819	0.509
687.500	422.536	79.996	19.996	100.801	19.929	6.784	0.510
688.000	422.790	79.995	19.995	100.804	19.926	6.958	0.511
688.500	423.052	79.996	19.996	100.809	19.926	6.936	0.512
689.000	423.299	79.996	19.996	100.807	19.930	6.710	0.513
689.500	423.539	79.996	19.995	100.803	19.932	6.564	0.498
690.000	423.840	79.995	19.995	100.797	19.931	6.620	0.514
690.500	424.068	79.997	19.995	100.796	19.927	6.924	0.535
691.000	424.331	79.997	19.996	100.793	19.928	6.812	0.510
691.500	424.578	79.997	19.995	100.795	19.932	6.603	0.501
692.000	424.832	79.998	19.995	100.798	19.931	6.669	0.506
692.500	425.077	79.997	19.994	100.800	19.932	6.611	0.500
693.000	425.397	79.998	19.994	100.799	19.933	6.514	0.532
693.500	425.647	79.997	19.994	100.799	19.929	6.756	0.567
694.000	425.903	79.997	19.995	100.797	19.933	6.489	0.538
694.500	426.148	79.997	19.995	100.795	19.933	6.537	0.504
695.000	426.443	79.996	19.995	100.797	19.933	6.528	0.521
695.500	426.695	79.998	19.995	100.796	19.932	6.585	0.543
696.000	426.946	79.998	19.995	100.801	19.933	6.499	0.525
696.500	427.195	80.000	19.995	100.805	19.932	6.605	0.501
697.000	427.478	79.997	19.995	100.804	19.933	6.530	0.516
697.500	427.729	79.999	19.994	100.804	19.934	6.434	0.533
698.001	427.955	79.998	19.995	100.809	19.936	6.339	0.505
698.500	428.227	79.999	19.995	100.804	19.935	6.382	0.487
699.000	428.486	79.998	19.995	100.801	19.938	6.188	0.515
699.500	428.767	79.998	19.995	100.805	19.938	6.218	0.536
700.000	429.029	79.999	19.995	100.807	19.937	6.292	0.541
700.500	429.284	79.999	19.995	100.802	19.937	6.258	0.529
701.000	429.559	79.998	19.996	100.804	19.935	6.406	0.523
701.501	429.804	79.997	19.995	100.808	19.937	6.258	0.525
702.001	430.054	79.999	19.996	100.807	19.936	6.334	0.508
702.500	430.316	79.998	19.995	100.808	19.940	6.076	0.504
703.000	430.602	79.998	19.997	100.813	19.936	6.304	0.529
703.500	430.867	79.998	19.996	100.810	19.939	6.154	0.549
704.000	431.121	79.998	19.996	100.805	19.939	6.138	0.536
704.500	431.362	79.998	19.996	100.798	19.939	6.135	0.507
705.000	431.637	79.999	19.996	100.791	19.944	5.839	0.505
705.500	431.854	79.998	19.997	100.785	19.944	5.812	0.504
706.000	432.142	79.998	19.997	100.785	19.943	5.905	0.499
706.500	432.413	79.997	19.996	100.784	19.941	6.015	0.532
707.000	432.652	79.997	19.996	100.785	19.943	5.887	0.534
707.500	432.941	79.998	19.996	100.787	19.941	5.989	0.519
708.000	433.204	79.997	19.997	100.787	19.942	5.930	0.540
708.500	433.461	79.999	19.995	100.788	19.945	5.783	0.536
709.000	433.714	79.998	19.995	100.791	19.941	5.982	0.515
709.501	433.976	79.997	19.997	100.790	19.943	5.886	0.513
710.000	434.271	79.997	19.997	100.791	19.944	5.812	0.536
710.500	434.506	79.997	19.996	100.796	19.945	5.729	0.543
711.000	434.768	79.997	19.997	100.795	19.946	5.682	0.513
711.500	435.036	79.996	19.996	100.797	19.944	5.805	0.514
712.000	435.309	79.996	19.996	100.799	19.945	5.760	0.536
712.500	435.583	79.998	19.996	100.800	19.945	5.780	0.544
713.000	435.839	79.997	19.995	100.801	19.946	5.700	0.539
713.500	436.094	79.997	19.995	100.800	19.943	5.858	0.520
714.000	436.367	79.997	19.996	100.795	19.947	5.647	0.519
714.500	436.601	79.997	19.996	100.797	19.947	5.626	0.518
715.000	436.855	79.997	19.996	100.798	19.946	5.678	0.498
715.500	437.131	79.998	19.996	100.793	19.948	5.540	0.509
716.000	437.387	79.998	19.996	100.796	19.948	5.559	0.531
716.500	437.639	79.998	19.996	100.802	19.951	5.346	0.519
717.000	437.880	79.998	19.996	100.798	19.949	5.520	0.500
717.500	438.168	79.998	19.996	100.792	19.951	5.379	0.511
718.000	438.451	79.998	19.996	100.792	19.949	5.493	0.551
718.500	438.688	79.998	19.996	100.787	19.951	5.403	0.546
719.000	438.980	79.998	19.996	100.782	19.950	5.415	0.525
719.500	439.237	79.998	19.995	100.785	19.951	5.370	0.539
720.000	439.495	79.998	19.996	100.791	19.952	5.293	0.532
720.500	439.749	79.999	19.997	100.796	19.950	5.407	0.514
721.000	440.028	79.999	19.995	100.799	19.950	5.431	0.523
721.500	440.272	79.999	19.995	100.804	19.949	5.521	0.528
722.000	440.576	79.998	19.996	100.806	19.951	5.353	0.535
722.500	440.812	79.998	19.995	100.801	19.955	5.118	0.544
723.000	441.055	79.999	19.995	100.797	19.954	5.204	0.510
723.500	441.335	79.998	19.994	100.795	19.952	5.278	0.501
724.000	441.562	79.998	19.995	100.788	19.954	5.190	0.515
724.500	441.863	79.999	19.994	100.786	19.952	5.320	0.517
725.000	442.099	79.999	19.995	100.788	19.956	5.061	0.532
725.500	442.373	79.998	19.995	100.790	19.956	5.074	0.524
726.000	442.615	79.998	19.996	100.792	19.954	5.152	0.513
726.500	442.897	79.998	19.994	100.792	19.957	4.979	0.520
727.000	443.137	79.999	19.996	100.791	19.957	4.967	0.523
727.500	443.389	79.997	19.995	100.789	19.956	5.061	0.507
728.000	443.650	79.998	19.995	100.785	19.962	4.680	0.502
728.500	443.948	79.997	19.996	100.784	19.960	4.820	0.536
729.000	444.219	79.997	19.995	100.784	19.956	5.062	0.564
729.500	444.459	79.997	19.996	100.783	19.959	4.891	0.540
730.000	444.703	79.998	19.995	100.782	19.959	4.862	0.498
730.500	445.001	79.999	19.995	100.788	19.959	4.836	0.513
731.000	445.265	79.997	19.995	100.794	19.961	4.722	0.552
731.500	445.490	79.995	19.996	100.797	19.959	4.860	0.526
732.000	445.729	79.995	19.996	100.797	19.962	4.689	0.476
732.500	446.008	79.996	19.995	100.796	19.961	4.760	0.491
733.000	446.252	79.995	19.996	100.791	19.961	4.746	0.520
733.500	446.509	79.995	19.996	100.784	19.960	4.803	0.512
734.000	446.778	79.996	19.996	100.783	19.959	4.867	0.514
734.500	447.028	79.995	19.997	100.784	19.960	4.820	0.523
735.000	447.271	79.996	19.997	100.783	19.964	4.575	0.506
735.500	447.511	79.995	19.996	100.785	19.961	4.728	0.488
736.000	447.787	79.995	19.996	100.788	19.964	4.552	0.499
736.500	448.048	79.994	19.997	100.787	19.963	4.606	0.527
737.000	448.295	79.995	19.997	100.788	19.963	4.613	0.523
737.500	448.558	79.996	19.997	100.788	19.963	4.625	0.509
738.000	448.836	79.997	19.996	100.788	19.965	4.476	0.525
738.500	449.067	79.993	19.997	100.787	19.966	4.428	0.525
739.000	449.312	79.994	19.996	100.787	19.964	4.544	0.492
739.500	449.580	79.995	19.997	100.786	19.966	4.405	0.494
740.000	449.859	79.995	19.997	100.786	19.967	4.336	0.530
740.500	450.089	79.995	19.996	100.786	19.969	4.236	0.528
741.000	450.379	79.995	19.995	100.785	19.969	4.231	0.515
741.500	450.645	79.995	19.996	100.785	19.969	4.254	0.539
742.000	450.924	79.995	19.996	100.787	19.968	4.286	0.551
742.500	451.166	79.995	19.995	100.787	19.970	4.153	0.532
743.000	451.413	79.994	19.996	100.787	19.971	4.096	0.505
743.500	451.648	79.996	19.997	100.787	19.966	4.406	0.486
744.000	451.904	79.995	19.997	100.787	19.968	4.300	0.487
744.500	452.186	79.995	19.997	100.785	19.972	4.056	0.514
745.000	452.432	79.996	19.997	100.784	19.971	4.086	0.533
745.500	452.699	79.995	19.996	100.783	19.973	3.954	0.520
746.000	452.967	79.995	19.995	100.783	19.972	4.053	0.524
746.500	453.193	79.995	19.995	100.781	19.974	3.911	0.514
747.000	453.438	79.995	19.996	100.782	19.975	3.845	0.482
747.500	453.682	79.996	19.995	100.783	19.975	3.878	0.480
748.000	453.933	79.995	19.995	100.783	19.976	3.786	0.492
748.500	454.231	79.995	19.995	100.783	19.974	3.906	0.523
749.000	454.477	79.995	19.994	100.788	19.976	3.759	0.547
749.500	454.719	79.996	19.995	100.788	19.978	3.657	0.516
750.000	454.978	79.995	19.995	100.788	19.979	3.570	0.494
750.500	455.253	79.996	19.995	100.789	19.976	3.757	0.517
751.000	455.517	79.995	19.995	100.789	19.978	3.650	0.536
751.500	455.772	79.995	19.994	100.787	19.979	3.582	0.528
752.000	456.029	79.996	19.996	100.790	19.979	3.567	0.515
752.500	456.313	79.996	19.994	100.794	19.979	3.565	0.527
753.000	456.561	79.996	19.996	100.796	19.981	3.448	0.537
753.500	456.836	79.996	19.995	100.798	19.981	3.435	0.528
754.000	457.091	79.998	19.995	100.796	19.982	3.404	0.526
754.500	457.371	79.996	19.996	100.795	19.980	3.505	0.533
755.000	457.625	79.997	19.995	100.791	19.981	3.456	0.535
755.500	457.866	79.998	19.995	100.789	19.982	3.415	0.515
756.000	458.107	79.996	19.995	100.787	19.981	3.485	0.488
756.500	458.378	79.996	19.995	100.787	19.980	3.543	0.497
757.000	458.661	79.996	19.996	100.784	19.984	3.259	0.533
757.500	458.918	79.997	19.996	100.783	19.984	3.252	0.548
758.000	459.194	79.996	19.995	100.786	19.983	3.349	0.537
758.500	459.490	79.997	19.995	100.789	19.985	3.199	0.552
759.000	459.730	79.996	19.995	100.789	19.984	3.264	0.554
759.500	460.019	79.996	19.995	100.791	19.984	3.255	0.533
760.000	460.243	79.995	19.995	100.791	19.984	3.254	0.521
760.500	460.507	79.997	19.995	100.787	19.985	3.224	0.500
761.000	460.758	79.996	19.995	100.784	19.988	3.034	0.501
761.500	461.042	79.996	19.997	100.785	19.987	3.062	0.525
762.000	461.323	79.995	19.996	100.785	19.987	3.102	0.550
762.500	461.603	79.996	19.997	100.787	19.987	3.057	0.563
763.000	461.855	79.995	19.996	100.789	19.987	3.095	0.546
763.500	462.109	79.996	19.996	100.789	19.988	3.034	0.519
764.000	462.392	79.996	19.995	100.788	19.984	3.249	0.522
764.500	462.652	79.995	19.996	100.786	19.986	3.148	0.540
765.000	462.924	79.995	19.995	100.785	19.987	3.079	0.538
765.500	463.183	79.996	19.997	100.785	19.988	3.022	0.532
766.000	463.470	79.996	19.995	100.785	19.992	2.778	0.538
766.500	463.721	79.995	19.995	100.785	19.991	2.818	0.542
767.000	464.000	79.996	19.995	100.783	19.992	2.751	0.534
767.500	464.261	79.995	19.995	100.784	19.990	2.886	0.536
768.000	464.517	79.995	19.996	100.785	19.989	2.970	0.529
768.500	464.781	79.994	19.996	100.787	19.989	2.989	0.518
769.000	465.044	79.996	19.995	100.786	19.987	3.088	0.523
769.500	465.295	79.995	19.995	100.786	19.991	2.836	0.521
770.000	465.567	79.996	19.995	100.783	19.993	2.734	0.518
770.500	465.844	79.997	19.995	100.780	19.991	2.817	0.535
771.000	466.080	79.995	19.996	100.779	19.991	2.810	0.531
771.500	466.389	79.997	19.994	100.782	19.992	2.791	0.529
772.000	466.627	79.996	19.996	100.784	19.995	2.588	0.547
772.500	466.898	79.996	19.995	100.786	19.991	2.846	0.528
773.000	467.185	79.998	19.996	100.786	19.993	2.713	0.533
773.500	467.438	79.997	19.995	100.786	19.995	2.583	0.549
774.000	467.707	79.998	19.996	100.783	19.994	2.649	0.531
774.500	467.985	79.997	19.995	100.782	19.993	2.675	0.535
775.000	468.249	79.998	19.996	100.781	19.995	2.559	0.544
775.500	468.510	79.997	19.995	100.781	19.993	2.673	0.533
776.000	468.786	79.998	19.996	100.781	19.994	2.611	0.531
776.500	469.062	79.998	19.995	100.781	19.994	2.664	0.545
777.000	469.294	79.997	19.995	100.782	19.996	2.490	0.530
777.500	469.562	79.998	19.995	100.782	19.995	2.550	0.504
778.000	469.805	79.998	19.995	100.783	19.998	2.415	0.506
778.500	470.105	79.998	19.994	100.784	19.995	2.607	0.528
779.000	470.351	79.998	19.996	100.784	19.998	2.408	0.545
779.500	470.587	79.997	19.995	100.785	19.999	2.325	0.514
780.000	470.907	79.998	19.996	100.791	19.999	2.353	0.519
780.500	471.157	79.999	19.996	100.793	20.001	2.222	0.563
781.000	471.397	79.998	19.995	100.795	20.000	2.286	0.530
781.500	471.708	79.997	19.995	100.800	19.999	2.346	0.521
782.000	471.920	79.998	19.995	100.797	19.999	2.296	0.537
782.500	472.195	79.998	19.995	100.790	20.000	2.289	0.505
783.000	472.467	79.997	19.994	100.788	20.000	2.239	0.517
783.500	472.755	79.997	19.994	100.785	20.001	2.197	0.554
784.000	473.039	79.997	19.995	100.782	19.999	2.325	0.566
784.500	473.281	79.997	19.996	100.781	20.000	2.260	0.549
785.000	473.535	79.996	19.994	100.781	20.002	2.149	0.511
785.500	473.840	79.997	19.995	100.781	20.003	2.069	0.528
786.000	474.067	79.996	19.994	100.780	20.001	2.211	0.546
786.501	474.325	79.997	19.995	100.780	20.005	1.954	0.508
787.000	474.606	79.998	19.994	100.781	20.003	2.082	0.512
787.500	474.907	79.998	19.995	100.781	20.004	1.974	0.560
788.000	475.158	79.999	19.995	100.781	20.004	2.021	0.567
788.500	475.413	79.997	19.995	100.781	20.000	2.249	0.529
789.000	475.670	79.997	19.996	100.781	20.005	1.966	0.508
789.500	475.930	79.997	19.996	100.782	20.002	2.114	0.515
790.000	476.214	79.997	19.996	100.782	20.004	2.018	0.531
790.500	476.437	79.997	19.995	100.782	20.005	1.945	0.526
791.000	476.737	79.996	19.996	100.782	20.002	2.101	0.515
791.500	476.981	79.997	19.995	100.783	20.003	2.080	0.534
792.000	477.235	79.997	19.996	100.782	20.006	1.897	0.521
792.500	477.493	79.998	19.996	100.782	20.009	1.712	0.505
793.000	477.781	79.996	19.995	100.782	20.007	1.788	0.529
793.500	478.019	79.997	19.996	100.783	20.006	1.883	0.535
794.000	478.289	79.998	19.995	100.783	20.006	1.857	0.517
794.500	478.592	79.997	19.995	100.783	20.008	1.769	0.541
795.000	478.828	79.997	19.996	100.784	20.009	1.684	0.556
795.500	479.103	79.998	19.997	100.785	20.010	1.639	0.525
796.000	479.366	79.998	19.996	100.784	20.006	1.903	0.525
796.500	479.640	79.998	19.995	100.783	20.006	1.909	0.537
797.000	479.856	79.997	19.996	100.782	20.005	1.938	0.513
797.500	480.125	79.998	19.995	100.782	20.009	1.698	0.487
798.000	480.370	79.997	19.995	100.781	20.009	1.677	0.500
798.500	480.642	79.997	19.997	100.781	20.008	1.746	0.516
799.000	480.918	79.998	19.997	100.782	20.007	1.843	0.533
799.500	481.171	79.999	19.997	100.782	20.007	1.803	0.538
800.000	481.450	79.998	19.995	100.782	20.006	1.859	0.530
800.500	481.718	80.000	19.996	100.782	20.007	1.845	0.539
801.000	481.954	79.999	19.996	100.781	20.006	1.895	0.525
801.500	482.219	79.999	19.996	100.781	20.007	1.805	0.503
802.000	482.471	79.997	19.996	100.781	20.005	1.917	0.509
802.500	482.703	79.998	19.995	100.781	20.004	1.980	0.500
803.000	482.952	79.999	19.997	100.781	20.006	1.878	0.483
803.500	483.240	79.998	19.996	100.782	20.006	1.859	0.509
804.000	483.508	79.998	19.996	100.782	20.007	1.805	0.546
804.500	483.773	79.999	19.996	100.780	20.008	1.731	0.544
805.000	484.020	79.996	19.996	100.780	20.008	1.739	0.522
805.500	484.243	79.999	19.996	100.780	20.009	1.713	0.491
806.000	484.516	79.999	19.996	100.779	20.009	1.663	0.483
806.500	484.756	79.999	19.995	100.780	20.007	1.814	0.505
807.001	485.046	79.999	19.996	100.783	20.011	1.575	0.521
807.501	485.328	79.997	19.995	100.784	20.012	1.525	0.551
808.000	485.568	79.999	19.995	100.786	20.011	1.540	0.547
808.500	485.820	79.998	19.995	100.787	20.009	1.658	0.507
809.000	486.113	79.997	19.996	100.787	20.009	1.672	0.518
809.500	486.348	79.997	19.996	100.786	20.009	1.713	0.537
810.000	486.570	79.998	19.996	100.785	20.006	1.848	0.493
810.500	486.833	79.998	19.995	100.783	20.013	1.442	0.471
811.001	487.083	79.997	19.996	100.782	20.010	1.641	0.499
811.501	487.356	79.996	19.995	100.782	20.011	1.584	0.518
812.001	487.607	79.997	19.995	100.782	20.010	1.613	0.524
812.501	487.875	79.995	19.995	100.782	20.013	1.406	0.522
813.001	488.135	79.998	19.995	100.783	20.011	1.539	0.523
813.500	488.371	79.997	19.995	100.786	20.011	1.552	0.512
814.000	488.634	79.996	19.995	100.787	20.015	1.302	0.497
814.500	488.876	79.997	19.997	100.788	20.012	1.476	0.502
815.000	489.169	79.997	19.996	100.790	20.012	1.521	0.520
815.500	489.376	79.996	19.997	100.790	20.013	1.412	0.518
816.000	489.666	79.995	19.996	100.788	20.014	1.381	0.498
816.500	489.933	79.998	19.996	100.789	20.015	1.302	0.527
817.000	490.175	79.997	19.996	100.791	20.013	1.412	0.533
817.500	490.439	79.994	19.996	100.788	20.014	1.340	0.507
818.000	490.705	79.998	19.997	100.787	20.014	1.393	0.518
818.500	490.976	79.995	19.996	100.786	20.015	1.293	0.534
819.000	491.215	79.996	19.996	100.782	20.015	1.321	0.524
819.500	491.482	79.995	19.996	100.778	20.013	1.421	0.508
820.000	491.715	79.996	19.997	100.779	20.014	1.352	0.503
820.500	491.980	79.995	19.995	100.779	20.017	1.189	0.499
821.000	492.237	79.996	19.996	100.779	20.016	1.221	0.510
821.500	492.565	79.995	19.996	100.780	20.014	1.354	0.554
822.000	492.801	79.996	19.996	100.783	20.011	1.537	0.574
822.500	493.063	79.996	19.996	100.783	20.011	1.535	0.531
823.000	493.316	79.996	19.997	100.782	20.014	1.362	0.507
823.500	493.561	79.997	19.997	100.783	20.016	1.267	0.507
824.001	493.823	79.997	19.996	100.782	20.016	1.215	0.502
824.500	494.074	79.995	19.996	100.778	20.016	1.248	0.510
825.000	494.339	79.997	19.996	100.778	20.017	1.170	0.515
825.500	494.628	79.995	19.997	100.778	20.017	1.176	0.535
826.000	494.866	79.996	19.996	100.778	20.015	1.279	0.540
826.500	495.155	79.996	19.997	100.777	20.018	1.146	0.527
827.000	495.383	79.995	19.997	100.777	20.018	1.143	0.522
827.500	495.616	79.996	19.997	100.778	20.017	1.170	0.489
828.000	495.908	79.995	19.997	100.778	20.014	1.338	0.493
828.500	496.178	79.994	19.997	100.778	20.015	1.276	0.544
829.000	496.435	79.996	19.997	100.779	20.015	1.317	0.545
829.500	496.661	79.996	19.998	100.779	20.017	1.203	0.505
830.000	496.952	79.995	19.997	100.779	20.013	1.430	0.500
830.500	497.215	79.997	19.996	100.779	20.015	1.319	0.536
831.000	497.455	79.996	19.996	100.778	20.016	1.264	0.528
831.500	497.697	79.995	19.995	100.777	20.014	1.361	0.492
832.001	497.951	79.996	19.997	100.777	20.012	1.521	0.489
832.500	498.228	79.995	19.996	100.778	20.016	1.229	0.514
833.000	498.474	79.996	19.996	100.779	20.013	1.428	0.527
833.500	498.731	79.998	19.996	100.779	20.013	1.404	0.513
834.000	499.020	79.996	19.997	100.779	20.015	1.305	0.525
834.500	499.264	79.996	19.997	100.780	20.015	1.297	0.539
835.000	499.530	79.996	19.996	100.779	20.014	1.348	0.521
835.500	499.771	79.996	19.995	100.779	20.016	1.271	0.508
836.000	500.044	79.998	19.996	100.779	20.016	1.214	0.511
836.500	500.285	79.996	19.995	100.778	20.016	1.264	0.514
837.000	500.538	79.996	19.996	100.778	20.016	1.255	0.504
837.500	500.806	79.996	19.996	100.778	20.018	1.093	0.507
838.000	501.066	79.995	19.995	100.778	20.016	1.252	0.524
838.500	501.330	79.996	19.994	100.778	20.018	1.146	0.526
839.000	501.589	79.996	19.994	100.779	20.016	1.267	0.524
839.500	501.825	79.996	19.995	100.779	20.016	1.252	0.509
840.000	502.057	79.996	19.996	100.779	20.015	1.319	0.481
840.500	502.304	79.995	19.996	100.779	20.016	1.217	0.474
841.000	502.589	79.997	19.995	100.780	20.016	1.221	0.506
841.500	502.793	79.996	19.995	100.780	20.019	1.025	0.510
842.000	503.067	79.996	19.996	100.780	20.015	1.323	0.484
842.500	503.319	79.996	19.996	100.781	20.016	1.224	0.502
843.000	503.546	79.994	19.995	100.780	20.017	1.195	0.502
843.500	503.832	79.996	19.996	100.780	20.019	1.058	0.496
844.000	504.069	79.995	19.995	100.779	20.016	1.245	0.518
844.500	504.307	79.995	19.995	100.779	20.015	1.285	0.499
845.000	504.584	79.996	19.995	100.779	20.015	1.319	0.495
845.500	504.816	79.996	19.995	100.780	20.015	1.333	0.512
846.000	505.041	79.994	19.997	100.780	20.016	1.227	0.483
846.500	505.356	79.995	19.994	100.780	20.016	1.219	0.499
847.000	505.571	79.995	19.995	100.780	20.012	1.516	0.535
847.500	505.850	79.994	19.995	100.780	20.016	1.241	0.512
848.000	506.088	79.995	19.995	100.780	20.019	1.079	0.506
848.500	506.343	79.996	19.995	100.780	20.015	1.300	0.505
849.000	506.574	79.996	19.995	100.781	20.016	1.231	0.490
849.500	506.833	79.995	19.996	100.782	20.014	1.387	0.488
850.000	507.100	79.994	19.997	100.782	20.016	1.234	0.508
850.500	507.384	79.995	19.996	100.782	20.018	1.125	0.539
851.000	507.624	79.995	19.995	100.782	20.016	1.269	0.538
851.500	507.851	79.995	19.996	100.782	20.016	1.240	0.495
852.000	508.109	79.996	19.995	100.782	20.015	1.283	0.476
852.500	508.376	79.996	19.995	100.781	20.015	1.324	0.505
853.000	508.601	79.996	19.996	100.781	20.013	1.411	0.509
853.500	508.886	79.997	19.996	100.782	20.016	1.252	0.501
854.000	509.140	79.998	19.995	100.781	20.016	1.245	0.524
854.500	509.375	79.997	19.995	100.781	20.015	1.307	0.514
855.000	509.665	79.998	19.996	100.781	20.015	1.290	0.507
855.500	509.874	79.997	19.996	100.781	20.015	1.278	0.512
856.000	510.100	79.996	19.994	100.781	20.016	1.214	0.467
856.500	510.379	79.996	19.996	100.781	20.019	1.060	0.470
857.000	510.626	79.997	19.996	100.781	20.020	1.003	0.516
857.500	510.887	79.996	19.995	100.780	20.017	1.165	0.517
858.000	511.103	79.997	19.996	100.780	20.021	0.940	0.492
858.500	511.389	79.996	19.995	100.780	20.017	1.155	0.490
859.000	511.637	79.998	19.996	100.780	20.018	1.144	0.519
859.500	511.872	79.997	19.994	100.781	20.018	1.131	0.509
860.000	512.116	79.996	19.995	100.781	20.017	1.176	0.481
860.500	512.359	79.998	19.997	100.781	20.014	1.373	0.483
861.000	512.593	79.996	19.995	100.781	20.021	0.909	0.482
861.500	512.890	79.996	19.994	100.781	20.019	1.058	0.504
862.000	513.123	79.996	19.995	100.781	20.015	1.302	0.530
862.500	513.404	79.997	19.994	100.781	20.014	1.374	0.521
863.000	513.642	79.997	19.997	100.782	20.015	1.288	0.516
863.500	513.876	79.997	19.996	100.782	20.016	1.257	0.496
864.000	514.154	79.997	19.996	100.783	20.015	1.310	0.492
864.500	514.409	79.999	19.996	100.782	20.014	1.383	0.522
865.000	514.662	79.998	19.994	100.782	20.015	1.321	0.520
865.500	514.917	79.996	19.996	100.782	20.014	1.385	0.508
866.000	515.169	79.997	19.995	100.781	20.014	1.371	0.507
866.500	515.448	79.998	19.995	100.780	20.015	1.328	0.519
867.000	515.697	79.998	19.994	100.780	20.017	1.193	0.529
867.500	515.964	79.997	19.995	100.781	20.014	1.343	0.522
868.000	516.233	79.997	19.994	100.781	20.016	1.250	0.527
868.500	516.459	79.996	19.995	100.780	20.017	1.205	0.516
869.000	516.721	79.997	19.995	100.781	20.018	1.124	0.492
869.500	516.962	79.996	19.994	100.781	20.015	1.336	0.495
870.000	517.222	79.996	19.994	100.781	20.020	1.004	0.501
870.500	517.515	79.998	19.996	100.781	20.018	1.125	0.527
871.000	517.794	79.996	19.995	100.781	20.019	1.022	0.563
871.500	517.999	79.998	19.995	100.781	20.016	1.227	0.528
872.000	518.245	79.997	19.995	100.780	20.016	1.274	0.468
872.500	518.558	79.998	19.996	100.779	20.015	1.305	0.505
873.000	518.780	79.997	19.995	100.779	20.017	1.184	0.547
873.500	518.998	79.997	19.994	100.780	20.017	1.163	0.487
874.000	519.252	79.998	19.994	100.781	20.018	1.131	0.456
874.500	519.494	79.996	19.995	100.783	20.020	1.006	0.484
875.000	519.800	79.998	19.995	100.783	20.020	0.984	0.522
875.500	520.044	79.998	19.995	100.782	20.021	0.930	0.549
876.000	520.272	79.998	19.994	100.781	20.023	0.818	0.511
876.500	520.565	79.997	19.994	100.781	20.019	1.032	0.496
877.000	520.778	79.998	19.994	100.780	20.021	0.939	0.513
877.500	521.033	79.997	19.995	100.780	20.022	0.880	0.487
878.000	521.284	79.997	19.996	100.782	20.022	0.892	0.487
878.500	521.538	79.998	19.995	100.782	20.024	0.707	0.505
879.000	521.804	79.999	19.994	100.782	20.024	0.754	0.513
879.500	522.052	79.998	19.995	100.781	20.024	0.755	0.517
880.000	522.325	79.999	19.994	100.780	20.024	0.745	0.518
880.500	522.554	79.998	19.995	100.780	20.021	0.895	0.511
881.000	522.864	79.999	19.995	100.780	20.023	0.794	0.520
881.500	523.111	79.999	19.994	100.778	20.022	0.863	0.548
882.000	523.352	79.999	19.994	100.777	20.022	0.878	0.523
882.500	523.621	80.000	19.994	100.775	20.022	0.863	0.499
883.000	523.883	79.999	19.994	100.774	20.023	0.785	0.520
883.500	524.124	79.999	19.995	100.774	20.024	0.724	0.516
884.000	524.364	79.999	19.995	100.775	20.022	0.871	0.492
884.500	524.648	79.998	19.996	100.775	20.022	0.859	0.503
885.000	524.862	79.999	19.995	100.777	20.024	0.745	0.511
885.500	525.128	79.998	19.995	100.777	20.023	0.816	0.489
886.000	525.367	80.000	19.995	100.776	20.023	0.809	0.492
886.500	525.649	79.998	19.995	100.776	20.024	0.733	0.513
887.000	525.879	79.998	19.995	100.776	20.021	0.911	0.517
887.500	526.134	79.998	19.996	100.776	20.025	0.697	0.499
888.000	526.385	79.998	19.995	100.776	20.022	0.889	0.496
888.500	526.659	79.998	19.995	100.776	20.022	0.882	0.516
889.000	526.912	79.998	19.995	100.776	20.021	0.897	0.526
889.500	527.177	79.998	19.996	100.775	20.024	0.716	0.522
890.000	527.445	79.996	19.996	100.776	20.024	0.738	0.525
890.500	527.680	79.997	19.995	100.775	20.024	0.721	0.518
891.000	527.942	79.996	19.995	100.775	20.022	0.833	0.500
891.500	528.191	79.995	19.997	100.775	20.022	0.873	0.504
892.000	528.452	79.995	19.995	100.777	20.025	0.671	0.510
892.500	528.709	79.995	19.997	100.776	20.022	0.876	0.514
893.000	528.967	79.996	19.998	100.777	20.022	0.871	0.517
893.500	529.209	79.996	19.996	100.777	20.025	0.648	0.507
894.000	529.452	79.996	19.996	100.777	20.020	1.011	0.492
894.500	529.730	79.996	19.996	100.775	20.020	1.001	0.503
895.000	529.951	79.996	19.995	100.774	20.022	0.873	0.510
895.500	530.175	79.996	19.995	100.770	20.020	0.991	0.472
896.000	530.423	79.996	19.995	100.770	20.019	1.077	0.459
896.500	530.691	79.997	19.996	100.770	20.021	0.944	0.494
897.000	530.968	79.998	19.996	100.771	20.020	0.977	0.530
897.500	531.175	79.996	19.995	100.771	20.019	1.025	0.514
898.000	531.417	79.995	19.995	100.771	20.020	0.980	0.467
898.500	531.669	79.997	19.996	100.772	20.022	0.880	0.472
899.001	531.906	79.997	19.995	100.772	20.020	0.989	0.491
899.500	532.191	79.997	19.995	100.773	20.020	1.016	0.506
900.000	532.411	79.996	19.996	100.772	20.021	0.945	0.514
900.500	532.659	79.997	19.997	100.774	20.023	0.819	0.486
901.000	532.864	79.996	19.996	100.774	20.022	0.845	0.460
901.500	533.085	79.996	19.996	100.771	20.021	0.909	0.440
902.000	533.342	79.996	19.995	100.767	20.021	0.902	0.452
902.500	533.566	79.996	19.996	100.768	20.025	0.700	0.479
903.000	533.816	79.996	19.995	100.765	20.022	0.859	0.477
903.500	534.070	79.996	19.995	100.766	20.022	0.857	0.489
904.000	534.291	79.995	19.996	100.769	20.023	0.819	0.490
904.500	534.548	79.998	19.997	100.772	20.022	0.868	0.477
905.000	534.771	79.997	19.996	100.773	20.024	0.766	0.479
905.500	535.006	79.997	19.996	100.776	20.023	0.780	0.469
906.000	535.241	79.995	19.996	100.774	20.020	0.970	0.464
906.500	535.478	79.996	19.996	100.773	20.026	0.607	0.471
907.000	535.673	79.996	19.997	100.773	20.024	0.752	0.452
907.500	535.912	79.995	19.995	100.773	20.024	0.759	0.433
908.000	536.169	79.996	19.997	100.769	20.023	0.828	0.466
908.500	536.363	79.995	19.995	100.768	20.026	0.617	0.474
909.000	536.625	79.996	19.997	100.764	20.021	0.909	0.453
909.500	536.825	79.996	19.996	100.758	20.021	0.909	0.458
910.000	537.034	79.993	19.995	100.754	20.024	0.761	0.435
910.500	537.253	79.996	19.997	100.755	20.025	0.683	0.419
911.000	537.452	79.995	19.996	100.756	20.025	0.702	0.424
911.500	537.693	79.996	19.996	100.760	20.024	0.754	0.429
912.000	537.927	79.995	19.997	100.765	20.022	0.866	0.458
912.500	538.184	79.995	19.996	100.765	20.026	0.629	0.483
913.000	538.391	79.995	19.996	100.764	20.027	0.558	0.477
913.500	538.628	79.995	19.996	100.761	20.024	0.709	0.454
914.000	538.863	79.994	19.997	100.760	20.023	0.781	0.458
914.500	539.082	79.996	19.996	100.760	20.026	0.579	0.463
915.000	539.306	79.995	19.997	100.761	20.019	1.022	0.449
915.500	539.537	79.995	19.997	100.765	20.023	0.823	0.449
916.000	539.761	79.994	19.997	100.769	20.024	0.724	0.455
916.500	539.963	79.995	19.996	100.771	20.021	0.956	0.441
917.000	540.184	79.995	19.996	100.773	20.027	0.557	0.424
917.500	540.399	79.994	19.996	100.774	20.025	0.698	0.429
918.000	540.608	79.995	19.997	100.770	20.025	0.657	0.430
918.500	540.842	79.994	19.996	100.769	20.023	0.776	0.434
919.000	541.072	79.995	19.997	100.765	20.021	0.902	0.454
919.500	541.276	79.994	19.997	100.763	20.024	0.756	0.449
920.000	541.511	79.995	19.997	100.764	20.022	0.882	0.437
920.500	541.739	79.995	19.997	100.767	20.025	0.688	0.451
921.000	541.927	79.995	19.996	100.766	20.025	0.679	0.439
921.500	542.183	79.995	19.996	100.768	20.024	0.726	0.430
922.000	542.426	79.994	19.997	100.769	20.026	0.615	0.472
922.500	542.605	79.995	19.996	100.768	20.022	0.833	0.460
923.000	542.836	79.995	19.997	100.770	20.023	0.794	0.416
923.500	543.085	79.995	19.997	100.772	20.025	0.685	0.445
924.001	543.263	79.995	19.997	100.775	20.024	0.716	0.453
924.500	543.504	79.995	19.997	100.775	20.025	0.688	0.423
925.000	543.722	79.995	19.996	100.779	20.026	0.610	0.439
925.500	543.932	79.996	19.996	100.778	20.028	0.453	0.444
926.000	544.142	79.995	19.995	100.776	20.026	0.612	0.424
926.501	544.355	79.995	19.996	100.776	20.026	0.607	0.421
927.000	544.577	79.995	19.996	100.776	20.025	0.659	0.429
927.500	544.819	79.994	19.995	100.775	20.026	0.626	0.450
928.000	545.016	79.996	19.996	100.774	20.025	0.643	0.451
928.500	545.250	79.996	19.996	100.776	20.026	0.605	0.435
929.000	545.457	79.995	19.994	100.776	20.024	0.711	0.436
929.500	545.669	79.995	19.995	100.777	20.025	0.695	0.430
930.000	545.876	79.995	19.996	100.778	20.028	0.496	0.419
930.500	546.100	79.997	19.995	100.781	20.026	0.633	0.425
931.000	546.330	79.997	19.995	100.781	20.024	0.735	0.442
931.500	546.573	79.996	19.995	100.780	20.025	0.655	0.464
932.000	546.768	79.996	19.995	100.781	20.025	0.662	0.456
932.500	546.981	79.996	19.995	100.781	20.027	0.553	0.423
933.000	547.220	79.996	19.995	100.781	20.024	0.705	0.430
933.500	547.450	79.998	19.994	100.781	20.024	0.740	0.460
934.000	547.660	79.997	19.996	100.782	20.024	0.742	0.454
934.500	547.906	79.998	19.995	100.780	20.026	0.602	0.448
935.000	548.153	79.996	19.995	100.776	20.024	0.764	0.475
935.500	548.334	79.997	19.995	100.773	20.027	0.545	0.461
936.000	548.578	79.998	19.995	100.773	20.026	0.602	0.426
936.500	548.773	79.998	19.995	100.773	20.026	0.593	0.432
937.000	549.005	79.996	19.995	100.775	20.027	0.550	0.433
937.500	549.227	79.998	19.995	100.779	20.029	0.413	0.441
938.000	549.484	79.997	19.996	100.782	20.029	0.405	0.466
938.500	549.697	79.997	19.995	100.779	20.028	0.498	0.474
939.000	549.943	79.997	19.994	100.777	20.027	0.539	0.464
939.500	550.153	79.999	19.995	100.776	20.027	0.532	0.457
940.000	550.390	79.997	19.995	100.776	20.026	0.591	0.451
940.500	550.605	79.998	19.995	100.778	20.028	0.501	0.450
941.000	550.806	79.997	19.995	100.781	20.026	0.626	0.434
941.500	551.082	79.996	19.995	100.783	20.028	0.503	0.447
942.000	551.319	79.996	19.995	100.782	20.026	0.614	0.495
942.500	551.547	79.996	19.995	100.782	20.025	0.653	0.489
943.000	551.780	79.998	19.995	100.780	20.026	0.631	0.463
943.500	552.015	79.996	19.996	100.780	20.026	0.631	0.465
944.000	552.258	79.997	19.997	100.780	20.030	0.356	0.473
944.500	552.472	79.997	19.995	100.779	20.027	0.534	0.467
945.000	552.764	79.997	19.997	100.779	20.021	0.899	0.481
945.500	552.982	79.996	19.995	100.778	20.026	0.590	0.508
946.000	553.182	79.996	19.996	100.778	20.026	0.591	0.464
946.500	553.460	79.997	19.995	100.777	20.026	0.605	0.449
947.000	553.705	79.996	19.996	100.777	20.023	0.776	0.500
947.500	553.951	79.997	19.995	100.777	20.025	0.681	0.507
948.000	554.220	79.996	19.996	100.777	20.024	0.737	0.503
948.500	554.460	79.997	19.995	100.778	20.028	0.467	0.512
949.000	554.733	79.997	19.995	100.778	20.023	0.792	0.511
949.500	554.966	79.997	19.995	100.779	20.024	0.750	0.510
950.000	555.214	79.998	19.995	100.780	20.023	0.768	0.493
950.500	555.468	79.998	19.996	100.781	20.024	0.766	0.492
951.000	555.735	79.997	19.995	100.780	20.027	0.572	0.512
951.500	556.007	79.997	19.996	100.780	20.029	0.432	0.530
952.000	556.262	79.998	19.995	100.779	20.025	0.645	0.533
952.500	556.466	79.998	19.995	100.779	20.025	0.653	0.493
953.000	556.733	79.997	19.996	100.778	20.025	0.657	0.465
953.500	556.991	79.997	19.995	100.779	20.024	0.724	0.498
954.000	557.190	79.998	19.995	100.779	20.027	0.515	0.491
954.500	557.463	79.997	19.996	100.779	20.027	0.548	0.464
955.000	557.711	79.997	19.995	100.779	20.030	0.358	0.497
955.500	557.987	79.998	19.996	100.779	20.025	0.647	0.523
956.000	558.193	79.996	19.994	100.778	20.029	0.430	0.503
956.500	558.450	79.997	19.996	100.778	20.026	0.605	0.472
957.000	558.693	79.998	19.995	100.778	20.028	0.482	0.482
957.500	558.934	79.999	19.999	100.779	20.026	0.586	0.492
958.001	559.252	79.998	19.999	100.781	20.026	0.615	0.521
958.500	559.475	79.997	19.998	100.781	20.021	0.928	0.550
959.000	559.691	79.997	19.999	100.783	20.022	0.887	0.490
959.500	559.968	79.997	19.998	100.783	20.020	1.006	0.466
960.000	560.212	79.998	19.996	100.782	20.023	0.792	0.506
960.500	560.493	79.998	19.996	100.781	20.023	0.790	0.523
961.000	560.738	79.998	19.996	100.780	20.023	0.813	0.526
961.500	560.976	79.999	19.995	100.778	20.025	0.693	0.505
962.000	561.214	79.999	19.996	100.779	20.022	0.861	0.479
962.500	561.485	79.999	19.996	100.779	20.022	0.861	0.493
963.000	561.709	80.000	19.995	100.779	20.022	0.859	0.502
963.500	561.964	79.998	19.994	100.780	20.025	0.671	0.487
964.000	562.243	79.998	19.995	100.779	20.023	0.769	0.506
964.500	562.522	79.998	19.995	100.778	20.022	0.883	0.546
965.000	562.783	79.997	19.995	100.777	20.028	0.486	0.549
965.500	563.020	79.997	19.995	100.777	20.025	0.674	0.519
966.000	563.307	79.999	19.995	100.777	20.025	0.700	0.511
966.500	563.484	79.999	19.994	100.778	20.022	0.845	0.494
967.000	563.764	79.999	19.995	100.777	20.024	0.723	0.461
967.500	564.025	79.998	19.995	100.777	20.024	0.724	0.499
968.000	564.279	79.998	19.995	100.777	20.025	0.648	0.528
968.500	564.521	79.998	19.995	100.776	20.024	0.743	0.506
969.000	564.789	79.999	19.995	100.776	20.022	0.868	0.503
969.500	565.054	79.997	19.995	100.776	20.021	0.940	0.521
970.000	565.279	79.998	19.995	100.776	20.023	0.816	0.512
970.500	565.537	79.997	19.994	100.776	20.021	0.906	0.486
971.000	565.804	79.997	19.995	100.776	20.026	0.629	0.504
971.500	566.030	79.995	19.995	100.777	20.022	0.830	0.509
972.000	566.283	79.996	19.996	100.778	20.026	0.576	0.486
972.500	566.549	79.997	19.995	100.781	20.025	0.676	0.499
973.000	566.818	79.998	19.996	100.782	20.027	0.558	0.527
973.500	567.060	79.996	19.995	100.783	20.025	0.650	0.522
974.000	567.312	79.995	19.996	100.782	20.024	0.724	0.503
974.500	567.540	79.996	19.996	100.781	20.022	0.833	0.488
975.000	567.824	79.996	19.996	100.779	20.025	0.653	0.496
975.500	568.095	79.996	19.995	100.779	20.025	0.681	0.533
976.000	568.337	79.997	19.996	100.779	20.023	0.785	0.534
976.500	568.597	79.995	19.996	100.779	20.026	0.622	0.508
977.000	568.863	79.996	19.996	100.779	20.027	0.564	0.514
977.500	569.125	79.995	19.995	100.779	20.025	0.640	0.527
978.000	569.347	79.994	19.995	100.779	20.027	0.555	0.506
978.500	569.617	79.995	19.996	100.779	20.026	0.593	0.488
979.000	569.860	79.995	19.996	100.779	20.024	0.711	0.503
979.500	570.137	79.996	19.995	100.780	20.026	0.603	0.517
980.000	570.383	79.996	19.996	100.780	20.023	0.813	0.521
980.500	570.665	79.997	19.995	100.780	20.025	0.662	0.525
981.000	570.932	79.996	19.995	100.780	20.027	0.531	0.539
981.500	571.174	79.996	19.996	100.780	20.026	0.586	0.529
982.000	571.408	79.996	19.997	100.780	20.026	0.588	0.493
982.500	571.655	79.995	19.996	100.780	20.023	0.825	0.479
983.000	571.920	79.996	19.997	100.780	20.025	0.647	0.496
983.500	572.149	79.996	19.997	100.780	20.027	0.550	0.502
984.000	572.395	79.996	19.996	100.780	20.025	0.690	0.484
984.500	572.674	79.996	19.996	100.780	20.026	0.631	0.500
985.000	572.916	79.996	19.996	100.780	20.022	0.871	0.523
985.500	573.194	79.996	19.995	100.780	20.023	0.773	0.520
986.000	573.454	79.995	19.995	100.780	20.023	0.804	0.529
986.500	573.747	79.998	19.997	100.780	20.026	0.591	0.546
987.000	573.989	79.997	19.996	100.780	20.026	0.609	0.544
987.500	574.242	79.997	19.995	100.780	20.024	0.750	0.515
988.000	574.502	79.997	19.996	100.779	20.026	0.583	0.504
988.500	574.749	79.997	19.996	100.779	20.025	0.695	0.509
989.000	575.035	79.997	19.995	100.778	20.023	0.785	0.519
989.500	575.297	79.996	19.996	100.779	20.024	0.723	0.541
990.000	575.561	79.997	19.995	100.780	20.027	0.558	0.538
990.500	575.836	79.996	19.996	100.781	20.026	0.628	0.532
991.000	576.086	79.997	19.996	100.781	20.028	0.489	0.532
991.500	576.343	79.996	19.995	100.781	20.027	0.555	0.516
992.000	576.636	79.996	19.995	100.782	20.029	0.427	0.528
992.500	576.879	79.997	19.995	100.781	20.027	0.524	0.543
993.000	577.135	79.997	19.996	100.781	20.028	0.458	0.517
993.500	577.368	79.996	19.996	100.782	20.026	0.600	0.494
994.000	577.618	79.997	19.995	100.782	20.026	0.579	0.486
994.500	577.924	79.997	19.996	100.782	20.026	0.619	0.520
995.000	578.165	79.996	19.997	100.782	20.025	0.647	0.552
995.500	578.442	79.996	19.995	100.785	20.027	0.564	0.532
996.000	578.682	79.996	19.996	100.789	20.024	0.756	0.517
996.500	578.958	79.997	19.996	100.792	20.028	0.458	0.517
997.000	579.230	79.996	19.996	100.796	20.025	0.671	0.532
997.500	579.492	79.996	19.996	100.800	20.026	0.596	0.541
998.000	579.768	79.995	19.995	100.801	20.025	0.652	0.536
998.500	580.049	79.997	19.996	100.800	20.026	0.598	0.547
999.000	580.297	79.996	19.996	100.799	20.023	0.785	0.543
999.500	580.569	79.996	19.997	100.796	20.024	0.766	0.525
1000.000	580.846	79.995	19.996	100.793	20.026	0.583	0.535
1000.500	581.143	79.995	19.996	100.791	20.023	0.776	0.562
1001.000	581.402	79.995	19.995	100.789	20.024	0.705	0.565
1001.500	581.650	79.995	19.996	100.786	20.022	0.852	0.532
1002.000	581.931	79.995	19.996	100.786	20.028	0.474	0.518
1002.500	582.163	79.995	19.996	100.787	20.025	0.650	0.521
1003.000	582.479	79.994	19.996	100.784	20.024	0.721	0.531
1003.500	582.700	79.995	19.996	100.783	20.026	0.628	0.543
1004.000	582.956	79.995	19.995	100.784	20.026	0.581	0.508
1004.500	583.240	79.995	19.997	100.784	20.025	0.679	0.509
1005.000	583.505	79.994	19.997	100.783	20.024	0.705	0.544
1005.500	583.790	79.994	19.997	100.782	20.027	0.526	0.549
1006.000	584.067	79.994	19.996	100.782	20.026	0.590	0.556
1006.500	584.310	79.995	19.997	100.781	20.026	0.602	0.541
1007.000	584.580	79.994	19.996	100.780	20.029	0.399	0.517
1007.500	584.856	79.995	19.997	100.780	20.027	0.553	0.530
1008.000	585.112	79.996	19.996	100.780	20.027	0.562	0.539
1008.500	585.381	79.995	19.996	100.779	20.027	0.548	0.528
1009.000	585.632	79.996	19.996	100.778	20.027	0.522	0.522
1009.500	585.924	79.996	19.997	100.778	20.029	0.420	0.532
1010.000	586.164	79.996	19.996	100.778	20.029	0.420	0.537
1010.500	586.434	79.996	19.997	100.777	20.026	0.622	0.521
1011.000	586.682	79.996	19.996	100.778	20.025	0.697	0.514
1011.500	586.940	79.997	19.997	100.777	20.029	0.439	0.512
1012.000	587.171	79.996	19.997	100.777	20.026	0.586	0.497
1012.500	587.463	79.996	19.996	100.777	20.028	0.507	0.506
1013.000	587.721	79.996	19.995	100.777	20.027	0.536	0.537
1013.500	587.953	79.996	19.996	100.776	20.026	0.588	0.520
1014.000	588.236	79.996	19.996	100.776	20.027	0.531	0.502
1014.500	588.463	79.997	19.996	100.777	20.026	0.595	0.513
1015.000	588.745	79.997	19.996	100.775	20.028	0.449	0.510
1015.501	588.997	79.997	19.997	100.775	20.026	0.576	0.521
1016.000	589.213	79.998	19.996	100.775	20.027	0.567	0.501
1016.500	589.480	79.998	19.995	100.775	20.027	0.548	0.475
1017.000	589.719	79.998	19.996	100.775	20.024	0.759	0.495
1017.500	590.020	79.998	19.996	100.776	20.029	0.441	0.523
1018.000	590.252	79.997	19.995	100.777	20.027	0.555	0.537
1018.500	590.500	79.998	19.996	100.777	20.025	0.640	0.506
1019.000	590.741	79.999	19.995	100.778	20.025	0.659	0.484
1019.500	590.982	79.998	19.995	100.777	20.024	0.742	0.486
1020.000	591.248	79.998	19.994	100.777	20.024	0.752	0.495
1020.500	591.507	79.998	19.995	100.778	20.022	0.889	0.516
1021.000	591.753	79.998	19.995	100.777	20.022	0.864	0.514
1021.500	591.968	79.999	19.995	100.778	20.026	0.631	0.483
1022.000	592.197	79.998	19.996	100.778	20.027	0.553	0.453
1022.500	592.459	79.998	19.995	100.777	20.025	0.664	0.467
1023.000	592.727	79.998	19.996	100.777	20.023	0.818	0.510
1023.500	592.939	79.998	19.996	100.777	20.025	0.655	0.505
1024.000	593.224	79.998	19.994	100.775	20.027	0.572	0.489
1024.500	593.474	79.996	19.996	100.775	20.026	0.588	0.516
1025.000	593.676	79.997	19.995	100.775	20.028	0.451	0.494
1025.501	593.923	79.998	19.995	100.775	20.025	0.674	0.450
1026.001	594.158	79.997	19.994	100.775	20.028	0.470	0.465
1026.501	594.450	79.996	19.996	100.777	20.026	0.586	0.505
1027.000	594.705	79.998	19.995	100.778	20.028	0.468	0.537
1027.500	594.955	79.997	19.995	100.778	20.029	0.405	0.526
1028.000	595.165	79.998	19.995	100.779	20.029	0.429	0.482
1028.500	595.400	79.998	19.996	100.779	20.028	0.475	0.452
1029.001	595.678	79.997	19.996	100.778	20.028	0.500	0.479
1029.501	595.877	79.997	19.995	100.778	20.028	0.453	0.495
1030.000	596.162	79.997	19.995	100.776	20.029	0.427	0.481
1030.500	596.392	79.998	19.996	100.776	20.030	0.347	0.500
1031.000	596.604	79.998	19.995	100.776	20.029	0.391	0.479
1031.500	596.840	79.998	19.995	100.777	20.029	0.443	0.444
1032.000	597.067	79.998	19.996	100.777	20.031	0.271	0.455
1032.501	597.306	79.997	19.996	100.779	20.027	0.519	0.465
1033.001	597.553	79.999	19.995	100.779	20.029	0.424	0.476
1033.500	597.797	79.998	19.995	100.778	20.027	0.558	0.489
1034.000	598.035	79.997	19.994	100.778	20.027	0.522	0.486
1034.500	598.295	79.997	19.996	100.778	20.028	0.496	0.490
1035.001	598.524	79.998	19.995	100.777	20.029	0.392	0.493
1035.501	598.784	79.997	19.996	100.777	20.027	0.527	0.489
1036.000	599.030	79.998	19.995	100.776	20.027	0.520	0.497
1036.500	599.260	79.999	19.995	100.775	20.025	0.657	0.491
1037.000	599.488	79.999	19.995	100.773	20.028	0.450	0.467
1037.500	599.707	80.000	19.994	100.772	20.027	0.564	0.452
1038.000	599.995	79.999	19.995	100.772	20.027	0.536	0.476
1038.500	600.246	79.999	19.996	100.772	20.031	0.303	0.523
1039.000	600.451	79.998	19.995	100.774	20.028	0.501	0.498
1039.501	600.705	79.999	19.995	100.775	20.028	0.505	0.458
1040.001	600.960	79.999	19.995	100.777	20.027	0.558	0.484
1040.500	601.167	80.000	19.995	100.777	20.028	0.481	0.485
1041.000	601.420	80.001	19.994	100.777	20.028	0.472	0.461
1041.500	601.627	79.999	19.996	100.777	20.025	0.678	0.460
1042.000	601.913	80.000	19.995	100.777	20.026	0.578	0.477
1042.500	602.138	80.000	19.995	100.777	20.026	0.600	0.502
1043.000	602.387	79.999	19.997	100.777	20.027	0.572	0.492
1043.500	602.625	79.999	19.996	100.780	20.026	0.631	0.481
1044.000	602.830	80.000	19.996	100.781	20.029	0.386	0.465
1044.501	603.065	79.999	19.995	100.781	20.028	0.469	0.441
1045.001	603.328	79.999	19.995	100.781	20.028	0.470	0.469
1045.501	603.540	79.997	19.995	100.781	20.025	0.645	0.487
1046.001	603.828	79.999	19.994	100.782	20.025	0.655	0.487
1046.500	604.051	79.998	19.994	100.783	20.030	0.375	0.505
1047.000	604.277	79.997	19.995	100.784	20.029	0.410	0.480
1047.500	604.544	79.998	19.994	100.786	20.028	0.474	0.471
1048.001	604.786	79.998	19.996	100.789	20.026	0.605	0.501
1048.501	605.030	79.999	19.994	100.790	20.027	0.539	0.498
1049.000	605.268	79.996	19.995	100.791	20.028	0.469	0.484
1049.500	605.526	79.997	19.995	100.791	20.027	0.562	0.489
1050.000	605.799	79.997	19.996	100.789	20.029	0.411	0.514
1050.500	606.076	79.996	19.996	100.787	20.026	0.634	0.540
1051.000	606.292	79.995	19.995	100.785	20.029	0.399	0.521
1051.500	606.556	79.996	19.994	100.788	20.030	0.380	0.487
1052.000	606.789	79.996	19.996	100.790	20.027	0.552	0.489
1052.501	607.048	79.996	19.994	100.795	20.025	0.645	0.494
1053.001	607.290	79.996	19.995	100.798	20.030	0.367	0.496
1053.500	607.587	79.995	19.995	100.797	20.024	0.742	0.520
1054.000	607.803	79.995	19.995	100.793	20.026	0.609	0.526
1054.500	608.049	79.997	19.994	100.790	20.023	0.813	0.488
1055.000	608.323	79.997	19.995	100.785	20.025	0.655	0.491
1055.500	608.592	79.995	19.995	100.783	20.026	0.593	0.531
1056.000	608.843	79.997	19.995	100.787	20.027	0.517	0.531
1056.500	609.086	79.997	19.994	100.786	20.027	0.532	0.507
1057.000	609.377	79.995	19.995	100.786	20.028	0.469	0.514
1057.500	609.637	79.997	19.996	100.785	20.027	0.546	0.542
1058.001	609.867	79.995	19.995	100.784	20.030	0.360	0.521
1058.501	610.132	79.997	19.995	100.780	20.028	0.469	0.493
1059.000	610.413	79.995	19.995	100.781	20.025	0.686	0.520
1059.501	610.638	79.996	19.995	100.781	20.029	0.429	0.526
1060.001	610.940	79.996	19.995	100.781	20.026	0.612	0.517
1060.500	611.148	79.996	19.996	100.781	20.026	0.588	0.518
1061.000	611.439	79.996	19.996	100.781	20.027	0.562	0.505
1061.500	611.679	79.995	19.996	100.781	20.029	0.425	0.515
1062.000	611.951	79.995	19.996	100.781	20.025	0.702	0.521
1062.500	612.180	79.995	19.995	100.781	20.026	0.588	0.506
1063.000	612.456	79.996	19.995	100.781	20.028	0.498	0.503
1063.500	612.676	79.996	19.995	100.781	20.027	0.574	0.500
1064.000	612.953	79.997	19.995	100.782	20.024	0.754	0.496
1064.500	613.199	79.997	19.995	100.782	20.027	0.569	0.510
1065.000	613.455	79.996	19.995	100.781	20.026	0.605	0.512
1065.500	613.707	79.997	19.995	100.781	20.024	0.761	0.505
1066.000	613.964	79.996	19.996	100.781	20.026	0.631	0.509
1066.500	614.193	79.996	19.995	100.781	20.020	0.982	0.498
1067.000	614.475	79.997	19.995	100.781	20.023	0.799	0.499
1067.500	614.731	79.996	19.994	100.781	20.025	0.659	0.524
1068.000	615.005	79.997	19.996	100.780	20.022	0.847	0.534
1068.501	615.248	79.996	19.995	100.779	20.022	0.858	0.523
1069.001	615.484	79.997	19.996	100.779	20.022	0.837	0.498
1069.500	615.733	79.995	19.995	100.779	20.023	0.768	0.482
1070.001	615.986	79.996	19.996	100.778	20.021	0.909	0.494
1070.501	616.256	79.997	19.995	100.779	20.025	0.647	0.513
1071.000	616.487	79.996	19.996	100.777	20.036	-0.009	0.512
1071.500	616.766	79.995	19.996	100.776	20.034	0.069	0.506
1072.000	616.995	79.996	19.996	100.776	20.038	-0.126	0.509
1072.500	617.228	79.995	19.997	100.776	20.036	-0.019	0.485
1073.000	617.458	79.996	19.997	100.776	20.039	-0.247	0.462
1073.501	617.709	79.996	19.996	100.777	20.026	0.583	0.472
1074.001	617.975	79.996	19.996	100.778	20.018	1.124	0.500
1074.501	618.199	79.998	19.995	100.777	20.018	1.089	0.504
1075.001	618.461	79.997	19.996	100.777	20.021	0.946	0.487
1075.501	618.732	79.996	19.996	100.777	20.024	0.719	0.509
1076.000	618.963	79.997	19.996	100.777	20.023	0.795	0.518
1076.500	619.224	79.996	19.996	100.776	20.023	0.778	0.497
1077.000	619.455	79.996	19.995	100.777	20.021	0.896	0.492
1077.500	619.695	79.997	19.996	100.777	20.025	0.695	0.482
1078.000	619.976	79.997	19.997	100.777	20.023	0.783	0.497
1078.500	620.201	79.997	19.995	100.778	20.020	1.008	0.514
1079.000	620.489	79.997	19.995	100.779	20.021	0.944	0.509
1079.500	620.728	79.996	19.996	100.782	20.022	0.849	0.519
1080.000	620.974	79.997	19.995	100.783	20.018	1.124	0.506
1080.500	621.244	79.996	19.996	100.784	20.031	0.259	0.501
1081.000	621.525	79.995	19.996	100.787	20.023	0.806	0.533
1081.500	621.749	79.996	19.995	100.786	20.022	0.852	0.528
1082.000	622.001	79.995	19.996	100.785	20.022	0.856	0.491
1082.500	622.308	79.995	19.996	100.787	20.022	0.873	0.517
1083.000	622.553	79.997	19.995	100.789	20.023	0.814	0.555
1083.500	622.800	79.995	19.996	100.791	20.024	0.747	0.522
1084.000	623.054	79.994	19.997	100.792	20.021	0.944	0.496
1084.500	623.340	79.997	19.996	100.793	20.024	0.704	0.520
1085.001	623.575	79.996	19.996	100.795	20.023	0.826	0.530
1085.501	623.858	79.996	19.997	100.798	20.022	0.856	0.520
1086.000	624.135	79.997	19.996	100.799	20.021	0.894	0.539
1086.500	624.380	79.995	19.996	100.802	20.025	0.700	0.541
1087.000	624.667	79.996	19.995	100.799	20.018	1.091	0.527
1087.500	624.917	79.996	19.996	100.795	20.023	0.787	0.535
1088.000	625.167	79.995	19.996	100.789	20.021	0.932	0.519
1088.500	625.522	79.996	19.997	100.782	20.023	0.794	0.552
1089.000	625.757	79.995	19.996	100.778	20.024	0.716	0.597
1089.500	626.016	79.997	19.995	100.778	20.024	0.736	0.542
1090.000	626.306	79.995	19.996	100.779	20.023	0.813	0.521
1090.500	626.545	79.997	19.996	100.779	20.028	0.467	0.539
1091.000	626.824	79.996	19.996	100.781	20.035	0.055	0.523
1091.500	627.121	79.997	19.997	100.780	20.022	0.844	0.547
1092.000	627.394	79.996	19.996	100.780	20.019	1.022	0.573
1092.500	627.628	79.997	19.996	100.779	20.025	0.664	0.539
1093.000	627.901	79.998	19.996	100.778	20.023	0.825	0.507
1093.500	628.097	79.997	19.996	100.777	20.022	0.849	0.488
1094.000	628.414	79.997	19.997	100.776	20.023	0.811	0.491
1094.500	628.631	79.997	19.996	100.776	20.028	0.474	0.524
1095.001	628.910	79.998	19.996	100.776	20.025	0.690	0.515
1095.501	629.189	79.998	19.997	100.775	20.025	0.655	0.527
1096.001	629.403	79.998	19.996	100.776	20.025	0.693	0.525
1096.500	629.680	79.998	19.996	100.776	20.024	0.724	0.492
1097.000	629.955	79.998	19.997	100.776	20.026	0.603	0.521
1097.500	630.228	79.997	19.997	100.776	20.025	0.671	0.550
1098.000	630.518	79.997	19.996	100.776	20.028	0.503	0.556
1098.501	630.741	79.997	19.996	100.776	20.025	0.683	0.538
1099.001	630.987	79.997	19.997	100.776	20.025	0.664	0.491
1099.500	631.281	79.997	19.997	100.776	20.026	0.605	0.504
1100.000	631.515	79.997	19.996	100.775	20.025	0.669	0.534
1100.500	631.812	79.996	19.997	100.775	20.026	0.607	0.529
1101.000	632.067	79.996	19.996	100.775	20.024	0.721	0.541
1101.500	632.338	79.997	19.996	100.775	20.024	0.747	0.539
1102.001	632.609	79.997	19.997	100.776	20.026	0.631	0.534
1102.501	632.821	79.996	19.996	100.776	20.023	0.799	0.512
1103.001	633.113	79.997	19.996	100.778	20.025	0.673	0.493
1103.501	633.401	79.997	19.997	100.780	20.026	0.619	0.542
1104.000	633.633	79.996	19.996	100.785	20.022	0.880	0.550
1104.500	633.866	79.997	19.997	100.786	20.022	0.878	0.492
1105.000	634.153	79.997	19.995	100.786	20.022	0.856	0.492
1105.500	634.450	79.997	19.996	100.786	20.024	0.738	0.552
1106.000	634.724	79.998	19.995	100.785	20.021	0.927	0.578
1106.500	635.012	79.996	19.995	100.780	20.021	0.937	0.567
1107.000	635.258	79.996	19.996	100.780	20.023	0.776	0.548
1107.500	635.536	79.997	19.997	100.780	20.023	0.802	0.529
1108.000	635.827	79.996	19.996	100.780	20.025	0.645	0.546
1108.500	636.112	79.996	19.997	100.781	20.023	0.773	0.572
1109.000	636.376	79.996	19.994	100.781	20.024	0.723	0.563
1109.500	636.595	79.998	19.996	100.781	20.024	0.716	0.516
1110.000	636.889	79.996	19.996	100.781	20.027	0.548	0.498
1110.500	637.160	79.997	19.996	100.781	20.026	0.607	0.539
1111.000	637.410	79.996	19.996	100.781	20.026	0.621	0.543
1111.500	637.685	79.996	19.996	100.781	20.025	0.669	0.523
1112.000	637.964	79.998	19.995	100.782	20.025	0.641	0.540
1112.500	638.220	79.997	19.995	100.782	20.027	0.557	0.544
1113.001	638.477	79.997	19.995	100.783	20.027	0.539	0.524
1113.501	638.779	79.997	19.996	100.784	20.023	0.785	0.536
1114.000	639.024	79.998	19.995	100.784	20.026	0.586	0.553
1114.500	639.329	79.997	19.995	100.783	20.026	0.638	0.548
1115.000	639.576	79.999	19.995	100.783	20.026	0.579	0.551
1115.500	639.844	79.998	19.995	100.781	20.025	0.686	0.534
1116.000	640.116	79.998	19.995	100.781	20.029	0.391	0.527
1116.501	640.357	79.999	19.995	100.780	20.025	0.676	0.527
1117.001	640.622	79.999	19.995	100.780	20.028	0.491	0.510
1117.501	640.898	79.999	19.995	100.780	20.027	0.513	0.523
1118.001	641.132	79.999	19.995	100.780	20.027	0.515	0.525
1118.501	641.405	79.999	19.995	100.780	20.026	0.603	0.508
1119.001	641.677	79.999	19.995	100.780	20.025	0.664	0.526
1119.501	641.919	79.999	19.995	100.780	20.024	0.757	0.530
1120.001	642.189	79.999	19.997	100.779	20.025	0.681	0.513
1120.500	642.443	80.000	19.995	100.778	20.026	0.607	0.519
1121.001	642.699	79.999	19.995	100.776	20.025	0.662	0.517
1121.501	642.960	79.999	19.994	100.776	20.025	0.667	0.513
1122.000	643.248	79.998	19.995	100.776	20.025	0.690	0.533
1122.500	643.503	79.997	19.996	100.777	20.028	0.494	0.546
1123.000	643.743	79.998	19.995	100.777	20.028	0.481	0.519
1123.500	644.054	79.999	19.996	100.779	20.028	0.484	0.523
1124.000	644.255	79.999	19.995	100.780	20.029	0.398	0.532
1124.500	644.553	79.998	19.995	100.780	20.029	0.430	0.506
1125.000	644.803	79.998	19.994	100.780	20.031	0.304	0.523
1125.500	645.049	79.998	19.996	100.780	20.029	0.434	0.522
1126.000	645.309	79.997	19.995	100.780	20.028	0.498	0.501
1126.500	645.572	79.997	19.996	100.780	20.027	0.546	0.515
1127.000	645.820	79.997	19.996	100.781	20.027	0.531	0.517
1127.501	646.069	79.997	19.996	100.782	20.029	0.446	0.504
1128.001	646.306	79.997	19.996	100.782	20.029	0.443	0.492
1128.500	646.536	79.996	19.995	100.782	20.027	0.529	0.477
1129.001	646.806	79.997	19.995	100.782	20.027	0.550	0.483
1129.501	647.089	79.996	19.996	100.782	20.026	0.636	0.526
1130.001	647.311	79.996	19.996	100.781	20.029	0.401	0.529
1130.501	647.578	79.996	19.996	100.781	20.026	0.595	0.497
1131.000	647.808	79.996	19.995	100.781	20.027	0.572	0.493
1131.500	648.068	79.997	19.996	100.781	20.028	0.472	0.494
1132.000	648.318	79.997	19.995	100.782	20.028	0.470	0.500
1132.500	648.558	79.997	19.996	100.781	20.027	0.519	0.500
1133.000	648.827	79.996	19.995	100.780	20.025	0.652	0.500
1133.500	649.054	79.996	19.996	100.778	20.026	0.612	0.503
1134.000	649.295	79.996	19.996	100.777	20.030	0.363	0.482
1134.500	649.540	79.998	19.996	100.776	20.026	0.577	0.477
1135.000	649.776	79.996	19.996	100.776	20.026	0.636	0.484
1135.500	650.090	79.996	19.996	100.779	20.023	0.788	0.515
1136.000	650.308	79.997	19.995	100.783	20.024	0.730	0.541
1136.500	650.584	79.996	19.996	100.785	20.027	0.555	0.513
1137.000	650.815	79.996	19.995	100.786	20.027	0.571	0.500
1137.500	651.079	79.997	19.996	100.785	20.023	0.778	0.501
1138.000	651.314	79.996	19.997	100.784	20.029	0.434	0.497
1138.500	651.586	79.997	19.995	100.786	20.027	0.534	0.503
1139.000	651.852	79.997	19.997	100.784	20.027	0.534	0.523
1139.500	652.110	79.998	19.996	100.784	20.025	0.679	0.531
1140.000	652.356	79.997	19.996	100.785	20.028	0.475	0.514
1140.500	652.577	79.999	19.996	100.784	20.024	0.740	0.486
1141.000	652.854	79.997	19.996	100.780	20.024	0.738	0.483
1141.500	653.106	79.997	19.996	100.779	20.028	0.496	0.513
1142.000	653.344	79.996	19.997	100.782	20.027	0.574	0.509
1142.500	653.622	79.996	19.995	100.784	20.024	0.707	0.503
1143.000	653.853	79.996	19.996	100.784	20.026	0.576	0.512
1143.500	654.103	79.997	19.995	100.784	20.028	0.458	0.496
1144.000	654.361	79.997	19.997	100.784	20.025	0.683	0.495
1144.500	654.605	79.996	19.995	100.781	20.028	0.470	0.505
1145.001	654.902	79.996	19.996	100.779	20.025	0.662	0.522
1145.501	655.143	79.997	19.995	100.779	20.027	0.536	0.539
1146.000	655.412	79.996	19.995	100.779	20.025	0.692	0.523
1146.500	655.629	79.997	19.995	100.778	20.026	0.591	0.498
1147.000	655.894	79.996	19.995	100.778	20.026	0.612	0.484
1147.500	656.137	79.997	19.995	100.778	20.025	0.659	0.495
1148.000	656.370	79.998	19.995	100.778	20.025	0.673	0.492
1148.500	656.644	79.997	19.995	100.778	20.022	0.864	0.492
1149.000	656.874	79.998	19.996	100.778	20.025	0.679	0.506
1149.500	657.144	79.997	19.994	100.778	20.023	0.823	0.502
1150.000	657.397	79.998	19.994	100.778	20.024	0.733	0.511
1150.500	657.666	79.997	19.996	100.779	20.027	0.546	0.522
1151.000	657.910	79.997	19.995	100.779	20.021	0.913	0.517
1151.501	658.185	79.996	19.995	100.779	20.023	0.781	0.516
1152.001	658.433	79.997	19.995	100.780	20.026	0.619	0.521
1152.500	658.693	79.997	19.997	100.780	20.022	0.847	0.515
1153.000	658.978	79.997	19.996	100.779	20.026	0.629	0.527
1153.500	659.230	79.996	19.996	100.781	20.021	0.901	0.541
1154.000	659.550	79.997	19.996	100.785	20.026	0.626	0.554
1154.500	659.792	79.997	19.994	100.792	20.024	0.740	0.567
1155.000	660.066	79.997	19.996	100.794	20.023	0.801	0.539
1155.500	660.310	79.997	19.996	100.794	20.024	0.754	0.517
1156.000	660.624	79.997	19.997	100.796	20.020	0.991	0.538
1156.500	660.840	79.997	19.996	100.792	20.024	0.747	0.545
1157.000	661.145	79.998	19.995	100.784	20.024	0.759	0.526
1157.500	661.456	79.998	19.996	100.782	20.024	0.716	0.568
1158.001	661.741	79.996	19.995	100.782	20.023	0.781	0.606
1158.501	661.991	79.997	19.996	100.779	20.024	0.749	0.566
1159.001	662.263	79.996	19.996	100.778	20.022	0.835	0.529
1159.501	662.520	79.996	19.996	100.779	20.023	0.795	0.525
1160.000	662.804	79.994	19.997	100.779	20.022	0.852	0.534
1160.500	663.055	79.996	19.996	100.778	20.022	0.856	0.538
1161.000	663.349	79.997	19.996	100.779	20.024	0.766	0.541
1161.500	663.638	79.996	19.996	100.780	20.024	0.757	0.564
1162.000	663.931	79.996	19.997	100.781	20.024	0.763	0.582
1162.500	664.190	79.996	19.996	100.782	20.026	0.588	0.567
1163.000	664.457	79.994	19.997	100.782	20.024	0.759	0.539
1163.500	664.775	79.997	19.997	100.785	20.026	0.617	0.556
1164.000	665.037	79.996	19.996	100.788	20.021	0.899	0.583
1164.500	665.363	79.996	19.996	100.787	20.024	0.736	0.584
1165.000	665.617	79.995	19.996	100.789	20.026	0.638	0.584
1165.501	665.928	79.995	19.997	100.793	20.024	0.719	0.573
1166.001	666.199	79.995	19.997	100.791	20.023	0.828	0.574
1166.500	666.500	79.996	19.995	100.789	20.023	0.800	0.577
1167.000	666.796	79.996	19.996	100.791	20.025	0.679	0.584
1167.500	667.077	79.996	19.997	100.790	20.023	0.778	0.587
1168.001	667.376	79.996	19.996	100.786	20.025	0.666	0.578
1168.501	667.645	79.996	19.996	100.785	20.025	0.674	0.574
1169.000	667.927	79.997	19.996	100.784	20.024	0.721	0.560
1169.500	668.208	79.997	19.995	100.781	20.022	0.885	0.557
1170.000	668.500	79.997	19.995	100.781	20.022	0.832	0.568
1170.500	668.811	79.996	19.995	100.786	20.022	0.849	0.588
1171.000	669.094	79.997	19.995	100.788	20.024	0.747	0.598
1171.501	669.408	79.998	19.995	100.790	20.022	0.863	0.595
1172.001	669.699	79.998	19.996	100.796	20.027	0.538	0.601
1172.501	669.998	79.997	19.995	100.796	20.023	0.806	0.598
1173.001	670.250	79.998	19.996	100.794	20.026	0.628	0.571
1173.501	670.534	79.998	19.996	100.792	20.024	0.740	0.543
1174.001	670.859	79.998	19.997	100.791	20.022	0.859	0.572
1174.500	671.138	79.997	19.995	100.785	20.024	0.717	0.606
1175.000	671.396	79.998	19.996	100.782	20.024	0.709	0.571
1175.500	671.703	79.998	19.995	100.779	20.021	0.930	0.551
1176.000	671.990	79.999	19.996	100.781	20.024	0.766	0.580
1176.500	672.311	79.999	19.994	100.781	20.029	0.436	0.601
1177.000	672.590	79.997	19.995	100.781	20.023	0.769	0.604
1177.500	672.890	79.998	19.996	100.782	20.023	0.769	0.590
1178.000	673.173	79.997	19.995	100.785	20.025	0.664	0.581
1178.500	673.436	79.997	19.995	100.784	20.027	0.515	0.564
1179.000	673.742	79.998	19.996	100.783	20.025	0.659	0.557
1179.500	674.051	79.997	19.995	100.784	20.024	0.704	0.592
1180.000	674.306	79.998	19.996	100.785	20.029	0.415	0.590
1180.500	674.578	79.997	19.995	100.784	20.023	0.778	0.546
1181.000	674.895	79.998	19.996	100.783	20.023	0.795	0.558
1181.501	675.196	79.998	19.995	100.783	20.026	0.596	0.603
1182.001	675.507	79.997	19.996	100.783	20.024	0.707	0.615
1182.501	675.775	79.997	19.996	100.781	20.023	0.802	0.596
1183.000	676.090	79.997	19.996	100.780	20.027	0.546	0.581
1183.500	676.347	79.998	19.995	100.780	20.028	0.455	0.578
1184.000	676.634	79.997	19.996	100.780	20.027	0.524	0.558
1184.500	676.926	79.997	19.996	100.780	20.026	0.621	0.561
1185.000	677.212	79.995	19.996	100.780	20.024	0.735	0.578
1185.500	677.506	79.996	19.995	100.781	20.026	0.636	0.579
1186.000	677.786	79.997	19.996	100.781	20.022	0.832	0.577
1186.500	678.068	79.996	19.995	100.782	20.023	0.794	0.568
1187.000	678.357	79.997	19.996	100.782	20.026	0.588	0.567
1187.500	678.650	79.997	19.995	100.782	20.020	0.977	0.577
1188.000	678.932	79.997	19.996	100.781	20.023	0.780	0.578
1188.500	679.242	79.995	19.995	100.781	20.024	0.743	0.584
1189.000	679.497	79.997	19.995	100.781	20.024	0.723	0.579
1189.501	679.769	79.996	19.996	100.781	20.024	0.740	0.546
1190.001	680.074	79.997	19.996	100.783	20.026	0.622	0.552
1190.500	680.365	79.997	19.997	100.784	20.027	0.527	0.586
1191.000	680.665	79.995	19.996	100.784	20.027	0.517	0.594
1191.500	680.928	79.997	19.996	100.783	20.024	0.719	0.577
1192.000	681.228	79.997	19.995	100.783	20.024	0.704	0.563
1192.500	681.504	79.996	19.996	100.781	20.026	0.622	0.569
1193.000	681.778	79.997	19.996	100.780	20.024	0.747	0.563
1193.500	682.054	79.997	19.994	100.779	20.024	0.719	0.550
1194.000	682.359	79.996	19.996	100.780	20.023	0.816	0.565
1194.500	682.618	79.997	19.996	100.780	20.025	0.671	0.573
1195.000	682.913	79.999	19.996	100.781	20.022	0.871	0.560
1195.500	683.160	79.997	19.995	100.781	20.025	0.697	0.548
1196.000	683.499	79.998	19.995	100.781	20.027	0.565	0.564
1196.500	683.757	80.000	19.997	100.780	20.022	0.861	0.591
1197.000	684.051	79.999	19.996	100.780	20.023	0.809	0.575
1197.500	684.347	79.998	19.995	100.778	20.024	0.728	0.571
1198.000	684.620	80.000	19.995	100.777	20.026	0.628	0.579
1198.500	684.882	79.999	19.995	100.777	20.026	0.634	0.552
1199.000	685.156	79.999	19.994	100.778	20.027	0.531	0.536
1199.500	685.428	79.999	19.995	100.778	20.027	0.515	0.541
1200.000	685.713	79.999	19.995	100.777	20.024	0.730	0.551
1200.500	686.009	79.998	19.995	100.777	20.021	0.894	0.569
1201.000	686.265	79.999	19.995	100.776	20.026	0.629	0.567
1201.500	686.510	79.999	19.994	100.776	20.026	0.593	0.527
1202.000	686.816	79.999	19.995	100.776	20.026	0.628	0.526
1202.500	687.094	79.999	19.994	100.774	20.024	0.735	0.567
1203.000	687.359	79.999	19.994	100.775	20.025	0.664	0.564
1203.500	687.639	79.999	19.995	100.775	20.024	0.719	0.544
1204.000	687.957	79.998	19.994	100.774	20.023	0.800	0.571
1204.500	688.204	79.999	19.995	100.774	20.024	0.735	0.582
1205.000	688.472	79.997	19.995	100.776	20.022	0.863	0.540
1205.500	688.756	79.999	19.996	100.777	20.023	0.813	0.534
1206.000	689.072	79.999	19.995	100.780	20.026	0.636	0.576
1206.500	689.301	79.998	19.994	100.781	20.026	0.631	0.572
1207.000	689.593	79.997	19.996	100.781	20.024	0.716	0.533
1207.500	689.870	79.996	19.994	100.781	20.028	0.475	0.545
1208.000	690.125	79.997	19.995	100.780	20.024	0.726	0.550
1208.500	690.428	79.996	19.994	100.777	20.024	0.764	0.545
1209.000	690.698	79.996	19.995	100.776	20.022	0.880	0.566
1209.500	690.948	79.996	19.995	100.777	20.025	0.662	0.547
1210.001	691.223	79.997	19.996	100.778	20.022	0.844	0.523
1210.501	691.507	79.997	19.996	100.779	20.025	0.657	0.542
1211.001	691.764	79.996	19.996	100.780	20.021	0.901	0.550
1211.500	692.038	79.996	19.994	100.780	20.025	0.641	0.536
1212.000	692.311	79.996	19.996	100.779	20.021	0.937	0.539
1212.501	692.604	79.997	19.995	100.778	20.023	0.771	0.557
1213.001	692.885	79.997	19.996	100.777	20.023	0.780	0.570
1213.500	693.160	79.996	19.996	100.777	20.024	0.750	0.565
1214.000	693.404	79.997	19.996	100.778	20.023	0.783	0.537
1214.500	693.679	79.996	19.996	100.778	20.023	0.816	0.519
1215.000	693.960	79.996	19.996	100.777	20.021	0.951	0.538
1215.500	694.275	79.997	19.996	100.777	20.025	0.688	0.576
1216.000	694.526	79.996	19.996	100.777	20.028	0.474	0.581
1216.500	694.789	79.997	19.994	100.777	20.025	0.667	0.540
1217.000	695.088	79.996	19.996	100.777	20.023	0.775	0.538
1217.500	695.304	79.996	19.996	100.777	20.028	0.494	0.538
1218.000	695.605	79.997	19.994	100.777	20.024	0.705	0.515
1218.500	695.870	79.996	19.996	100.777	20.025	0.650	0.542
1219.000	696.140	79.997	19.995	100.777	20.025	0.692	0.551
1219.500	696.422	79.996	19.996	100.777	20.025	0.655	0.544
1220.000	696.665	79.997	19.997	100.777	20.022	0.859	0.538
1220.501	696.969	79.998	19.995	100.778	20.026	0.603	0.536
1221.001	697.253	79.997	19.996	100.777	20.027	0.564	0.567
1221.500	697.530	79.997	19.996	100.778	20.029	0.446	0.574
1222.000	697.778	79.997	19.996	100.778	20.025	0.643	0.543
1222.500	698.038	79.995	19.995	100.778	20.026	0.633	0.517
1223.000	698.304	79.996	19.996	100.778	20.022	0.832	0.517
1223.500	698.593	79.997	19.996	100.778	20.024	0.704	0.541
1224.000	698.868	79.996	19.996	100.778	20.022	0.877	0.560
1224.500	699.079	79.997	19.996	100.778	20.025	0.654	0.525
1225.000	699.343	79.997	19.995	100.780	20.026	0.617	0.480
1225.500	699.641	79.996	19.997	100.780	20.027	0.571	0.518
1226.000	699.901	79.996	19.995	100.779	20.028	0.508	0.560
1226.500	700.185	79.997	19.997	100.779	20.023	0.788	0.551
1227.000	700.470	79.997	19.996	100.779	20.025	0.692	0.556
1227.501	700.698	79.996	19.996	100.777	20.025	0.650	0.542
1228.001	701.010	79.998	19.996	100.780	20.025	0.660	0.527
1228.500	701.269	79.997	19.995	100.782	20.023	0.818	0.555
1229.000	701.536	79.997	19.995	100.785	20.021	0.923	0.548
1229.500	701.837	79.998	19.995	100.785	20.021	0.909	0.547
1230.000	702.089	79.997	19.995	100.786	20.022	0.833	0.561
1230.501	702.376	79.995	19.995	100.784	20.022	0.889	0.546
1231.001	702.638	79.998	19.995	100.782	20.023	0.823	0.544
1231.500	702.899	79.996	19.995	100.781	20.022	0.885	0.535
1232.000	703.130	79.996	19.995	100.784	20.025	0.650	0.507
1232.500	703.393	79.997	19.994	100.786	20.026	0.603	0.493
1233.000	703.678	79.996	19.995	100.787	20.023	0.769	0.521
1233.500	703.958	79.996	19.995	100.787	20.023	0.768	0.557
1234.000	704.227	79.996	19.994	100.786	20.023	0.769	0.557
1234.500	704.541	79.996	19.994	100.786	20.021	0.949	0.566
1235.001	704.741	79.995	19.996	100.786	20.024	0.719	0.549
1235.501	705.008	79.995	19.996	100.787	20.024	0.738	0.491
1236.000	705.292	79.996	19.995	100.786	20.025	0.643	0.509
1236.500	705.551	79.996	19.996	100.786	20.023	0.809	0.547
1237.000	705.810	79.996	19.995	100.783	20.024	0.764	0.531
1237.500	706.097	79.996	19.995	100.781	20.024	0.723	0.532
1238.000	706.343	79.996	19.995	100.781	20.025	0.660	0.539
1238.500	706.575	79.996	19.996	100.781	20.025	0.697	0.505
1239.000	706.857	79.997	19.995	100.781	20.023	0.828	0.496
1239.500	707.135	79.995	19.995	100.782	20.023	0.828	0.537
1240.000	707.364	79.996	19.995	100.782	20.021	0.927	0.534
1240.500	707.653	79.996	19.995	100.781	20.024	0.764	0.512
1241.000	707.901	79.996	19.996	100.781	20.026	0.605	0.527
1241.501	708.167	79.995	19.995	100.781	20.024	0.745	0.526
1242.001	708.435	79.996	19.995	100.781	20.026	0.629	0.524
1242.500	708.683	79.995	19.995	100.781	20.023	0.778	0.525
1243.000	708.938	79.995	19.995	100.782	20.023	0.785	0.510
1243.500	709.207	79.995	19.996	100.784	20.023	0.813	0.514
1244.000	709.426	79.995	19.995	100.784	20.025	0.669	0.506
1244.501	709.730	79.996	19.995	100.784	20.023	0.768	0.506
1245.001	710.012	79.996	19.995	100.784	20.021	0.894	0.554
1245.500	710.242	79.994	19.996	100.783	20.023	0.802	0.549
1246.000	710.489	79.995	19.997	100.781	20.023	0.799	0.494
1246.500	710.832	79.997	19.995	100.781	20.025	0.681	0.533
1247.001	711.021	79.995	19.995	100.780	20.027	0.555	0.561
1247.501	711.269	79.995	19.996	100.782	20.027	0.564	0.484
1248.000	711.541	79.997	19.997	100.782	20.025	0.700	0.478
1248.500	711.795	79.996	19.997	100.783	20.027	0.574	0.523
1249.000	712.060	79.995	19.997	100.783	20.023	0.799	0.523
1249.500	712.324	79.997	19.996	100.784	20.026	0.631	0.524
1250.000	712.587	79.996	19.997	100.782	20.027	0.543	0.528
1250.500	712.866	79.996	19.995	100.783	20.024	0.759	0.535
1251.000	713.134	79.995	19.995	100.782	20.025	0.666	0.545
1251.500	713.357	79.997	19.995	100.782	20.027	0.548	0.519
1252.001	713.631	79.997	19.995	100.782	20.026	0.621	0.494
1252.501	713.906	79.998	19.995	100.783	20.025	0.693	0.523
1253.000	714.126	79.997	19.995	100.783	20.028	0.462	0.522
1253.500	714.453	79.997	19.995	100.782	20.025	0.685	0.521
1254.000	714.678	79.996	19.995	100.782	20.027	0.524	0.549
1254.500	714.955	79.997	19.995	100.782	20.030	0.375	0.527
1255.000	715.216	79.998	19.996	100.782	20.029	0.396	0.520
1255.500	715.470	79.999	19.995	100.782	20.024	0.740	0.526
1256.000	715.741	79.999	19.996	100.781	20.029	0.422	0.520
1256.500	715.993	79.997	19.995	100.781	20.027	0.557	0.524
1257.000	716.267	79.997	19.995	100.780	20.026	0.605	0.524
1257.500	716.547	79.998	19.995	100.780	20.028	0.494	0.540
1258.000	716.762	79.998	19.995	100.778	20.026	0.628	0.525
1258.501	717.045	79.997	19.995	100.778	20.026	0.593	0.497
1259.001	717.314	79.998	19.997	100.778	20.027	0.565	0.525
1259.501	717.592	79.996	19.995	100.778	20.030	0.363	0.549
1260.001	717.831	79.997	19.995	100.779	20.025	0.686	0.532
1260.500	718.071	79.997	19.996	100.781	20.025	0.683	0.498
1261.000	718.338	79.999	19.996	100.780	20.025	0.669	0.493
1261.500	718.614	79.997	19.994	100.780	20.025	0.666	0.525
1262.000	718.889	79.998	19.995	100.781	20.025	0.643	0.547
1262.500	719.111	79.998	19.995	100.780	20.030	0.384	0.524
1263.000	719.377	79.998	19.995	100.779	20.026	0.607	0.492
1263.500	719.641	79.998	19.996	100.780	20.028	0.456	0.509
1264.000	719.892	79.999	19.995	100.779	20.029	0.415	0.523
1264.500	720.143	79.998	19.996	100.777	20.028	0.469	0.508
1265.000	720.397	79.998	19.996	100.778	20.025	0.697	0.503
1265.500	720.683	79.999	19.996	100.777	20.022	0.854	0.522
1266.000	720.919	79.996	19.996	100.776	20.022	0.833	0.531
1266.500	721.187	79.998	19.996	100.776	20.026	0.603	0.514
1267.000	721.396	79.998	19.996	100.775	20.025	0.660	0.491
1267.500	721.681	79.998	19.995	100.775	20.025	0.657	0.485
1268.000	721.910	79.997	19.996	100.775	20.024	0.761	0.504
1268.500	722.207	79.998	19.996	100.775	20.024	0.719	0.520
1269.000	722.473	79.998	19.997	100.777	20.023	0.828	0.544
1269.500	722.729	79.997	19.997	100.777	20.021	0.940	0.542
1270.000	722.967	79.999	19.995	100.777	20.024	0.764	0.508
1270.500	723.205	79.998	19.996	100.778	20.025	0.671	0.485
1271.000	723.465	79.998	19.997	100.778	20.025	0.688	0.487
1271.501	723.711	79.998	19.996	100.777	20.028	0.493	0.502
1272.001	723.986	80.000	19.996	100.777	20.024	0.743	0.514
1272.501	724.221	79.998	19.997	100.777	20.024	0.730	0.516
1273.001	724.478	79.998	19.997	100.778	20.023	0.783	0.501
1273.500	724.749	79.998	19.997	100.780	20.023	0.800	0.510
1274.000	724.989	79.998	19.997	100.781	20.024	0.726	0.519
1274.500	725.191	79.998	19.997	100.781	20.022	0.844	0.477
1275.000	725.470	79.996	19.996	100.783	20.025	0.669	0.462
1275.500	725.709	79.998	19.996	100.781	20.026	0.615	0.499
1276.000	725.990	79.997	19.996	100.779	20.026	0.607	0.519
1276.500	726.225	79.998	19.996	100.778	20.027	0.553	0.518
1277.000	726.482	79.998	19.996	100.779	20.027	0.546	0.504
1277.500	726.716	79.998	19.996	100.777	20.024	0.719	0.491
1278.001	727.010	79.999	19.996	100.779	20.026	0.610	0.510
1278.501	727.212	79.999	19.996	100.778	20.025	0.674	0.512
1279.001	727.451	79.998	19.996	100.778	20.025	0.693	0.469
1279.501	727.691	80.000	19.996	100.778	20.027	0.553	0.460
1280.001	727.988	79.999	19.995	100.777	20.027	0.546	0.508
1280.500	728.219	79.998	19.996	100.775	20.024	0.761	0.533
1281.000	728.485	79.999	19.997	100.775	20.025	0.662	0.512
1281.501	728.733	79.997	19.996	100.775	20.026	0.584	0.506
1282.001	728.974	79.998	19.996	100.775	20.024	0.714	0.502
1282.500	729.212	79.997	19.995	100.773	20.025	0.697	0.484
1283.000	729.439	79.997	19.997	100.773	20.026	0.619	0.472
1283.500	729.704	79.997	19.996	100.772	20.022	0.842	0.478
1284.000	729.940	79.998	19.996	100.772	20.023	0.773	0.496
1284.500	730.205	79.999	19.997	100.773	20.023	0.780	0.501
1285.000	730.471	79.997	19.996	100.775	20.023	0.809	0.516
1285.500	730.748	79.997	19.997	100.776	20.026	0.598	0.537
1286.000	730.991	79.998	19.995	100.777	20.027	0.574	0.531
1286.500	731.225	79.997	19.996	100.778	20.025	0.697	0.498
1287.000	731.495	79.996	19.996	100.778	20.024	0.704	0.490
1287.500	731.714	79.997	19.996	100.779	20.024	0.759	0.496
1288.000	732.009	79.997	19.995	100.779	20.026	0.586	0.501
1288.500	732.210	79.998	19.996	100.778	20.022	0.861	0.505
1289.000	732.491	79.997	19.996	100.778	20.024	0.750	0.489
1289.500	732.746	79.994	19.996	100.776	20.021	0.896	0.509
1290.000	733.037	79.996	19.995	100.777	20.026	0.584	0.541
1290.500	733.259	79.997	19.995	100.777	20.022	0.830	0.529
1291.000	733.483	79.997	19.995	100.778	20.023	0.781	0.480
1291.500	733.787	79.995	19.995	100.778	20.023	0.804	0.487
1292.000	734.019	79.996	19.996	100.778	20.022	0.878	0.531
1292.500	734.233	79.997	19.995	100.778	20.023	0.814	0.491
1293.001	734.554	79.996	19.996	100.778	20.022	0.849	0.490
1293.501	734.785	79.997	19.995	100.779	20.024	0.731	0.544
1294.000	735.013	79.997	19.997	100.779	20.024	0.718	0.506
1294.500	735.279	79.996	19.996	100.780	20.026	0.590	0.477
1295.000	735.543	79.995	19.995	100.780	20.020	0.961	0.512
1295.500	735.805	79.996	19.996	100.780	20.024	0.712	0.528
1296.000	736.038	79.995	19.996	100.780	20.020	1.011	0.511
1296.500	736.280	79.995	19.995	100.781	20.025	0.657	0.485
1297.000	736.505	79.995	19.995	100.781	20.024	0.762	0.471
1297.500	736.805	79.997	19.995	100.781	20.024	0.731	0.496
1298.001	737.051	79.995	19.995	100.782	20.021	0.954	0.535
1298.501	737.307	79.995	19.995	100.782	20.024	0.743	0.524
1299.000	737.516	79.996	19.995	100.782	20.024	0.704	0.484
1299.500	737.820	79.996	19.995	100.783	20.022	0.852	0.489
1300.000	738.065	79.995	19.997	100.783	20.021	0.953	0.531
1300.500	738.266	79.997	19.997	100.783	20.025	0.655	0.497
1301.000	738.575	79.995	19.994	100.783	20.023	0.820	0.478
1301.500	738.770	79.996	19.995	100.783	20.021	0.911	0.507
1302.000	739.048	79.997	19.995	100.783	20.020	1.008	0.489
1302.500	739.290	79.996	19.996	100.785	20.026	0.638	0.497
1303.000	739.543	79.995	19.996	100.785	20.022	0.880	0.507
1303.500	739.786	79.996	19.995	100.786	20.024	0.724	0.495
1304.000	740.039	79.996	19.995	100.786	20.023	0.790	0.496
1304.500	740.305	79.996	19.995	100.788	20.019	1.036	0.507
1305.000	740.594	79.997	19.996	100.786	20.019	1.062	0.537
1305.500	740.796	79.996	19.996	100.785	20.020	0.989	0.523
1306.000	741.086	79.997	19.995	100.783	20.022	0.887	0.492
1306.500	741.313	79.996	19.996	100.783	20.025	0.695	0.505
1307.000	741.537	79.997	19.995	100.783	20.020	0.999	0.484
1307.500	741.846	79.996	19.996	100.789	20.020	0.992	0.491
1308.001	742.101	79.997	19.994	100.789	20.022	0.838	0.548
1308.501	742.351	79.996	19.995	100.789	20.022	0.880	0.535
1309.001	742.567	79.996	19.995	100.790	20.023	0.809	0.486
1309.501	742.846	79.998	19.996	100.787	20.019	1.060	0.480
1310.000	743.084	79.996	19.996	100.781	20.018	1.108	0.506
1310.500	743.323	79.997	19.996	100.782	20.018	1.100	0.497
1311.000	743.599	79.997	19.996	100.783	20.019	1.036	0.496
