Sample ID:	C:\MCC\MCC Cal\Test\PVC_MCC_30K_min_210924_R4.txt
Sample Weight (mg):	4.81
Heating Rate (C/s):	0.5
Combustor Temp (C):	900
N2 Flow Rate (cc/min):	80
O2 Flow Rate (cc/min):	20
Calibration File:	C:\MCC\MCC Cal\Coeff1 JN10440_30_210304.txt.txt
T Correction Coefficients:	0	1.024463	0
Time Shift (s):	14
*
Time (s)	Temperature (C)	N2 flow rate (cc/min)	O2 flow rate (cc/min)	Flow Rate (cc/min)	Oxygen (%)	HRR (W/g)	Heating rate (C/s)
0.000	108.176	80.018	19.996	100.028	20.215	-0.140	0.025
0.500	108.119	80.013	19.996	100.033	20.217	-0.272	0.002
1.000	108.142	80.008	19.996	100.040	20.219	-0.366	-0.034
1.500	108.132	80.007	19.996	100.043	20.219	-0.396	-0.010
2.000	108.168	80.008	19.995	100.045	20.216	-0.172	0.020
2.500	108.136	80.006	19.996	100.044	20.217	-0.239	0.015
3.000	108.157	80.006	19.996	100.039	20.217	-0.281	-0.004
3.500	108.139	80.007	19.995	100.033	20.216	-0.212	-0.004
4.000	108.168	80.008	19.995	100.030	20.219	-0.398	0.007
4.500	108.160	80.006	19.994	100.031	20.218	-0.318	0.016
5.000	108.148	80.006	19.995	100.031	20.216	-0.177	0.000
5.500	108.162	80.007	19.996	100.030	20.219	-0.371	-0.009
6.000	108.145	80.006	19.997	100.034	20.220	-0.423	0.000
6.500	108.160	80.007	19.996	100.036	20.216	-0.175	-0.002
7.000	108.163	80.006	19.996	100.036	20.220	-0.456	0.008
7.500	108.195	80.005	19.996	100.036	20.219	-0.398	0.027
8.000	108.134	80.008	19.997	100.035	20.218	-0.327	0.003
8.500	108.143	80.004	19.996	100.031	20.218	-0.315	-0.041
9.001	108.160	80.005	19.996	100.030	20.215	-0.099	-0.013
9.501	108.140	80.005	19.997	100.031	20.215	-0.138	0.012
10.000	108.146	80.006	19.997	100.035	20.216	-0.173	-0.008
10.500	108.151	80.005	19.996	100.039	20.214	-0.094	-0.002
11.000	108.143	80.006	19.996	100.046	20.218	-0.354	0.004
11.500	108.152	80.005	19.997	100.051	20.214	-0.050	-0.001
12.000	108.163	80.004	19.997	100.056	20.215	-0.099	0.011
12.500	108.159	80.006	19.996	100.059	20.216	-0.214	0.013
13.001	108.185	80.004	19.997	100.062	20.214	-0.032	0.014
13.501	108.157	80.005	19.996	100.063	20.214	-0.039	0.010
14.000	108.160	80.006	19.996	100.063	20.214	-0.057	-0.014
14.500	108.178	80.005	19.996	100.064	20.211	0.110	-0.002
15.001	108.181	80.004	19.997	100.064	20.216	-0.198	0.021
15.501	108.221	80.005	19.997	100.065	20.214	-0.073	0.032
16.000	108.147	80.005	19.997	100.065	20.211	0.126	0.004
16.500	108.160	80.004	19.996	100.070	20.212	0.088	-0.048
17.000	108.200	80.005	19.997	100.076	20.209	0.232	-0.004
17.500	108.175	80.005	19.997	100.083	20.214	-0.034	0.034
18.000	108.204	80.005	19.996	100.090	20.209	0.239	0.009
18.500	108.178	80.005	19.997	100.097	20.211	0.142	0.003
19.000	108.230	80.006	19.997	100.100	20.207	0.420	0.015
19.500	108.211	80.005	19.996	100.104	20.210	0.170	0.029
20.000	108.226	80.006	19.996	100.107	20.211	0.133	0.014
20.500	108.269	80.007	19.997	100.109	20.204	0.593	0.027
21.000	108.256	80.006	19.996	100.113	20.206	0.489	0.044
21.500	108.300	80.006	19.995	100.120	20.206	0.473	0.030
22.000	108.299	80.005	19.995	100.127	20.206	0.485	0.037
22.500	108.311	80.006	19.997	100.131	20.205	0.515	0.027
23.000	108.344	80.007	19.997	100.137	20.204	0.586	0.028
23.500	108.367	80.006	19.996	100.141	20.203	0.628	0.051
24.000	108.358	80.006	19.996	100.145	20.203	0.644	0.036
24.500	108.389	80.007	19.996	100.147	20.203	0.627	0.018
25.000	108.436	80.008	19.996	100.150	20.201	0.770	0.050
25.500	108.449	80.007	19.996	100.151	20.199	0.887	0.069
26.000	108.489	80.008	19.995	100.150	20.200	0.859	0.057
26.500	108.538	80.008	19.995	100.148	20.198	1.008	0.071
27.000	108.574	80.008	19.995	100.145	20.200	0.846	0.087
27.500	108.602	80.008	19.995	100.144	20.203	0.645	0.075
28.001	108.562	80.008	19.996	100.146	20.199	0.880	0.026
28.500	108.626	80.009	19.995	100.148	20.199	0.924	0.006
29.000	108.701	80.009	19.995	100.151	20.198	0.995	0.082
29.500	108.712	80.009	19.995	100.155	20.199	0.944	0.112
30.000	108.768	80.009	19.995	100.161	20.200	0.861	0.076
30.501	108.758	80.007	19.996	100.163	20.197	1.025	0.057
31.000	108.843	80.007	19.995	100.164	20.199	0.923	0.060
31.500	108.896	80.007	19.995	100.165	20.198	0.983	0.106
32.000	108.922	80.008	19.995	100.160	20.195	1.167	0.109
32.500	108.930	80.008	19.995	100.154	20.195	1.180	0.056
33.001	108.996	80.008	19.995	100.153	20.195	1.201	0.054
33.501	109.043	80.008	19.996	100.155	20.195	1.189	0.094
34.000	109.118	80.006	19.994	100.158	20.198	1.004	0.118
34.500	109.141	80.008	19.995	100.165	20.194	1.227	0.110
35.000	109.213	80.008	19.996	100.171	20.196	1.139	0.097
35.500	109.294	80.007	19.995	100.175	20.192	1.373	0.124
36.000	109.301	80.007	19.996	100.179	20.194	1.215	0.120
36.500	109.323	80.008	19.995	100.179	20.190	1.502	0.059
37.000	109.390	80.007	19.996	100.180	20.193	1.323	0.060
37.500	109.482	80.007	19.995	100.182	20.189	1.592	0.124
38.000	109.512	80.008	19.994	100.188	20.187	1.706	0.140
38.500	109.587	80.009	19.995	100.194	20.189	1.543	0.113
39.000	109.635	80.009	19.995	100.199	20.190	1.527	0.114
39.500	109.741	80.009	19.995	100.204	20.191	1.440	0.139
40.000	109.794	80.009	19.995	100.209	20.188	1.605	0.157
40.500	109.814	80.007	19.995	100.207	20.186	1.775	0.116
41.000	109.887	80.008	19.996	100.207	20.188	1.621	0.083
41.500	109.990	80.009	19.995	100.208	20.187	1.669	0.134
42.000	110.080	80.008	19.995	100.211	20.188	1.640	0.184
42.501	110.114	80.011	19.995	100.212	20.188	1.601	0.159
43.001	110.231	80.006	19.995	100.215	20.190	1.486	0.138
43.500	110.311	80.006	19.995	100.216	20.189	1.555	0.174
44.000	110.378	80.008	19.995	100.216	20.189	1.557	0.172
44.501	110.415	80.007	19.995	100.216	20.189	1.564	0.125
45.001	110.513	80.008	19.995	100.215	20.189	1.554	0.119
45.500	110.562	80.008	19.995	100.215	20.188	1.658	0.141
46.000	110.626	80.008	19.996	100.215	20.188	1.655	0.130
46.501	110.757	80.011	19.995	100.215	20.185	1.802	0.154
47.001	110.814	80.008	19.996	100.215	20.188	1.616	0.192
47.500	110.895	80.009	19.996	100.214	20.188	1.630	0.163
48.000	110.988	80.007	19.995	100.214	20.184	1.858	0.156
48.500	111.092	80.010	19.995	100.214	20.187	1.663	0.185
49.001	111.174	80.010	19.995	100.213	20.185	1.809	0.191
49.501	111.290	80.009	19.995	100.213	20.185	1.849	0.192
50.001	111.387	80.010	19.995	100.215	20.188	1.608	0.206
50.501	111.453	80.009	19.995	100.215	20.186	1.782	0.188
51.001	111.540	80.009	19.994	100.218	20.186	1.741	0.158
51.500	111.619	80.011	19.995	100.220	20.185	1.812	0.159
52.000	111.715	80.011	19.995	100.220	20.184	1.897	0.171
52.500	111.806	80.011	19.994	100.220	20.183	1.927	0.181
53.000	111.894	80.010	19.995	100.222	20.184	1.876	0.183
53.500	112.004	80.010	19.995	100.220	20.185	1.812	0.189
54.000	112.131	80.011	19.995	100.224	20.184	1.878	0.217
54.500	112.234	80.012	19.995	100.224	20.184	1.915	0.233
55.000	112.310	80.012	19.995	100.224	20.188	1.658	0.205
55.500	112.432	80.009	19.995	100.226	20.184	1.919	0.189
56.000	112.570	80.009	19.995	100.229	20.185	1.848	0.229
56.500	112.662	80.012	19.995	100.231	20.180	2.126	0.245
57.001	112.773	80.010	19.996	100.235	20.183	1.926	0.216
57.501	112.872	80.009	19.994	100.236	20.183	1.946	0.207
58.000	112.999	80.010	19.995	100.235	20.184	1.891	0.218
58.500	113.103	80.010	19.995	100.233	20.185	1.832	0.229
59.000	113.206	80.009	19.996	100.228	20.186	1.779	0.219
59.500	113.354	80.007	19.995	100.223	20.182	2.008	0.229
60.000	113.461	80.010	19.996	100.223	20.184	1.905	0.253
60.501	113.551	80.007	19.994	100.220	20.185	1.838	0.226
61.001	113.698	80.008	19.996	100.218	20.185	1.809	0.217
61.500	113.801	80.008	19.996	100.218	20.185	1.795	0.244
62.000	113.917	80.005	19.996	100.217	20.183	1.923	0.235
62.500	114.038	80.006	19.995	100.218	20.183	1.963	0.228
63.000	114.175	80.008	19.996	100.219	20.185	1.816	0.247
63.500	114.277	80.007	19.995	100.219	20.184	1.912	0.248
64.000	114.450	80.008	19.995	100.221	20.181	2.077	0.257
64.500	114.587	80.006	19.994	100.228	20.179	2.194	0.293
65.000	114.679	80.006	19.995	100.231	20.179	2.233	0.269
65.500	114.812	80.008	19.996	100.233	20.181	2.091	0.227
66.000	114.916	80.008	19.995	100.239	20.182	2.032	0.231
66.500	115.070	80.007	19.994	100.245	20.180	2.174	0.248
67.000	115.197	80.007	19.995	100.247	20.181	2.107	0.270
67.500	115.353	80.008	19.995	100.250	20.180	2.126	0.282
68.000	115.467	80.006	19.996	100.258	20.182	2.050	0.276
68.501	115.599	80.005	19.995	100.258	20.177	2.367	0.258
69.001	115.738	80.009	19.995	100.257	20.182	2.047	0.259
69.500	115.858	80.004	19.995	100.257	20.180	2.135	0.265
70.000	115.997	80.005	19.995	100.258	20.179	2.224	0.258
70.500	116.112	80.007	19.995	100.258	20.180	2.120	0.256
71.001	116.248	80.007	19.994	100.257	20.180	2.171	0.253
71.501	116.377	80.006	19.994	100.257	20.179	2.223	0.258
72.000	116.575	80.008	19.994	100.255	20.179	2.207	0.296
72.500	116.699	80.009	19.995	100.254	20.177	2.320	0.324
73.000	116.862	80.007	19.996	100.254	20.176	2.393	0.304
73.501	116.998	80.008	19.995	100.255	20.179	2.235	0.293
74.001	117.110	80.007	19.995	100.256	20.182	2.040	0.274
74.500	117.276	80.007	19.995	100.258	20.178	2.269	0.264
75.001	117.464	80.007	19.995	100.259	20.176	2.437	0.316
75.501	117.583	80.009	19.995	100.259	20.180	2.127	0.330
76.000	117.714	80.008	19.995	100.258	20.180	2.129	0.278
76.501	117.884	80.006	19.995	100.258	20.180	2.166	0.275
77.001	118.019	80.006	19.995	100.258	20.179	2.221	0.303
77.500	118.192	80.006	19.995	100.258	20.177	2.320	0.307
78.000	118.301	80.008	19.995	100.258	20.177	2.347	0.295
78.500	118.470	80.007	19.995	100.258	20.176	2.398	0.280
79.000	118.618	80.007	19.995	100.258	20.177	2.329	0.297
79.500	118.812	80.006	19.995	100.259	20.176	2.386	0.329
80.001	118.900	80.007	19.996	100.261	20.176	2.411	0.312
80.501	119.092	80.005	19.996	100.263	20.177	2.326	0.281
81.000	119.277	80.007	19.996	100.266	20.176	2.428	0.328
81.500	119.426	80.008	19.995	100.271	20.175	2.496	0.355
82.000	119.586	80.006	19.996	100.275	20.175	2.469	0.322
82.500	119.710	80.006	19.996	100.279	20.179	2.244	0.297
83.000	119.894	80.007	19.996	100.280	20.178	2.301	0.296
83.500	120.098	80.005	19.995	100.284	20.177	2.345	0.348
84.000	120.210	80.008	19.996	100.285	20.176	2.434	0.352
84.500	120.380	80.006	19.996	100.283	20.176	2.397	0.299
85.000	120.551	80.006	19.996	100.281	20.177	2.365	0.312
85.500	120.766	80.006	19.996	100.282	20.176	2.414	0.364
86.000	120.874	80.008	19.995	100.282	20.173	2.592	0.354
86.500	121.068	80.007	19.996	100.281	20.176	2.441	0.312
87.000	121.209	80.005	19.996	100.285	20.176	2.420	0.319
87.500	121.428	80.005	19.996	100.288	20.173	2.629	0.348
88.000	121.617	80.006	19.995	100.288	20.174	2.570	0.384
88.500	121.791	80.005	19.995	100.287	20.172	2.701	0.385
89.000	121.932	80.006	19.995	100.287	20.177	2.368	0.339
89.501	122.200	80.007	19.995	100.287	20.177	2.357	0.362
90.001	122.358	80.006	19.996	100.286	20.175	2.499	0.417
90.500	122.509	80.008	19.996	100.287	20.173	2.574	0.367
91.000	122.701	80.005	19.996	100.283	20.178	2.295	0.326
91.501	122.872	80.006	19.995	100.286	20.175	2.494	0.353
92.001	123.066	80.007	19.996	100.287	20.176	2.389	0.364
92.500	123.252	80.004	19.995	100.289	20.176	2.430	0.373
93.001	123.426	80.006	19.995	100.289	20.176	2.402	0.370
93.501	123.590	80.006	19.995	100.295	20.178	2.274	0.349
94.000	123.802	80.006	19.994	100.295	20.177	2.370	0.356
94.500	123.990	80.007	19.996	100.293	20.175	2.475	0.388
95.001	124.185	80.005	19.996	100.291	20.177	2.343	0.392
95.501	124.347	80.007	19.997	100.293	20.175	2.473	0.371
96.000	124.556	80.007	19.996	100.294	20.175	2.453	0.364
96.500	124.740	80.007	19.995	100.291	20.178	2.310	0.382
97.001	124.913	80.007	19.995	100.293	20.177	2.361	0.375
97.501	125.118	80.005	19.996	100.292	20.175	2.464	0.368
98.000	125.329	80.008	19.995	100.290	20.177	2.333	0.397
98.500	125.496	80.006	19.996	100.290	20.172	2.655	0.397
99.000	125.693	80.007	19.995	100.290	20.175	2.489	0.371
99.500	125.863	80.007	19.996	100.289	20.172	2.675	0.365
100.000	126.051	80.006	19.996	100.289	20.174	2.565	0.362
100.500	126.267	80.007	19.996	100.289	20.174	2.519	0.381
101.000	126.463	80.008	19.995	100.288	20.177	2.350	0.408
101.500	126.642	80.005	19.996	100.290	20.175	2.476	0.394
102.000	126.870	80.008	19.996	100.290	20.175	2.457	0.391
102.500	127.044	80.008	19.996	100.290	20.176	2.423	0.404
103.000	127.256	80.008	19.995	100.291	20.174	2.552	0.394
103.500	127.449	80.009	19.996	100.291	20.176	2.400	0.396
104.000	127.669	80.009	19.995	100.292	20.176	2.439	0.409
104.500	127.858	80.007	19.995	100.292	20.177	2.313	0.411
105.000	128.099	80.007	19.996	100.293	20.180	2.155	0.420
105.500	128.315	80.008	19.997	100.294	20.173	2.572	0.443
106.000	128.493	80.007	19.996	100.294	20.174	2.524	0.425
106.500	128.687	80.008	19.996	100.294	20.174	2.554	0.383
107.000	128.894	80.008	19.996	100.294	20.175	2.499	0.387
107.500	129.078	80.008	19.996	100.293	20.174	2.565	0.397
108.000	129.303	80.010	19.996	100.293	20.176	2.439	0.400
108.500	129.522	80.008	19.997	100.293	20.176	2.437	0.426
109.000	129.713	80.007	19.996	100.293	20.175	2.478	0.427
109.500	129.896	80.007	19.996	100.293	20.176	2.418	0.392
110.000	130.066	80.007	19.997	100.291	20.176	2.393	0.364
110.500	130.317	80.008	19.996	100.289	20.175	2.472	0.387
111.000	130.552	80.007	19.996	100.286	20.176	2.435	0.454
111.501	130.725	80.010	19.996	100.286	20.172	2.659	0.447
112.001	130.938	80.009	19.997	100.281	20.174	2.515	0.397
112.501	131.144	80.007	19.996	100.281	20.174	2.540	0.402
113.001	131.337	80.006	19.997	100.282	20.176	2.430	0.409
113.500	131.553	80.009	19.996	100.285	20.173	2.588	0.404
114.000	131.797	80.008	19.995	100.286	20.175	2.501	0.435
114.500	132.008	80.007	19.996	100.286	20.177	2.352	0.457
115.000	132.201	80.009	19.996	100.287	20.177	2.354	0.429
115.500	132.425	80.008	19.996	100.287	20.176	2.387	0.410
116.000	132.603	80.007	19.996	100.284	20.174	2.563	0.409
116.500	132.848	80.006	19.996	100.280	20.176	2.425	0.413
117.000	133.057	80.008	19.996	100.281	20.176	2.425	0.439
117.500	133.326	80.008	19.996	100.282	20.175	2.448	0.466
118.000	133.509	80.008	19.996	100.281	20.174	2.513	0.465
118.500	133.757	80.008	19.996	100.283	20.174	2.510	0.442
119.000	133.955	80.004	19.996	100.283	20.173	2.630	0.438
119.500	134.170	80.007	19.998	100.279	20.174	2.515	0.429
120.000	134.416	80.010	19.996	100.280	20.176	2.395	0.437
120.500	134.607	80.009	19.996	100.279	20.172	2.671	0.449
121.000	134.823	80.009	19.997	100.278	20.178	2.294	0.423
121.500	135.051	80.007	19.997	100.281	20.174	2.528	0.426
122.000	135.241	80.005	19.996	100.284	20.177	2.358	0.431
122.500	135.452	80.008	19.996	100.281	20.177	2.333	0.410
123.000	135.707	80.006	19.996	100.281	20.175	2.457	0.433
123.500	135.926	80.008	19.995	100.282	20.174	2.554	0.470
124.000	136.111	80.008	19.995	100.280	20.175	2.457	0.439
124.501	136.362	80.007	19.995	100.279	20.178	2.301	0.420
125.001	136.582	80.008	19.996	100.280	20.173	2.604	0.453
125.501	136.802	80.009	19.996	100.281	20.171	2.758	0.455
126.001	137.039	80.009	19.996	100.280	20.172	2.668	0.448
126.500	137.290	80.009	19.996	100.279	20.172	2.659	0.473
127.000	137.517	80.011	19.995	100.282	20.174	2.563	0.483
127.500	137.695	80.009	19.995	100.283	20.173	2.613	0.442
128.000	137.951	80.008	19.995	100.283	20.175	2.501	0.419
128.500	138.212	80.010	19.995	100.284	20.175	2.471	0.475
129.000	138.439	80.008	19.995	100.288	20.175	2.487	0.502
129.500	138.646	80.009	19.995	100.288	20.172	2.654	0.461
130.000	138.883	80.010	19.995	100.290	20.175	2.459	0.439
130.500	139.099	80.008	19.994	100.289	20.171	2.705	0.449
131.000	139.320	80.009	19.996	100.290	20.173	2.593	0.445
131.500	139.518	80.009	19.996	100.290	20.174	2.544	0.428
132.000	139.777	80.010	19.996	100.292	20.175	2.492	0.438
132.501	140.037	80.010	19.995	100.292	20.176	2.421	0.488
133.000	140.228	80.010	19.994	100.293	20.175	2.505	0.485
133.500	140.445	80.011	19.994	100.293	20.176	2.425	0.429
134.000	140.741	80.010	19.995	100.293	20.171	2.714	0.461
134.500	140.949	80.010	19.996	100.291	20.175	2.471	0.509
135.000	141.185	80.009	19.994	100.288	20.177	2.311	0.474
135.500	141.421	80.011	19.994	100.289	20.176	2.405	0.458
136.000	141.636	80.011	19.994	100.288	20.174	2.537	0.461
136.500	141.903	80.011	19.995	100.288	20.175	2.473	0.467
137.000	142.136	80.011	19.995	100.288	20.177	2.326	0.491
137.500	142.323	80.009	19.994	100.288	20.176	2.386	0.460
138.000	142.568	80.009	19.995	100.285	20.173	2.576	0.426
138.500	142.770	80.009	19.994	100.283	20.173	2.577	0.440
139.000	143.021	80.009	19.995	100.284	20.173	2.631	0.450
139.500	143.288	80.008	19.994	100.286	20.172	2.696	0.485
140.000	143.496	80.010	19.995	100.289	20.173	2.615	0.496
140.500	143.714	80.009	19.994	100.289	20.175	2.466	0.451
141.000	143.962	80.008	19.995	100.291	20.171	2.749	0.446
141.500	144.230	80.009	19.994	100.290	20.172	2.680	0.491
142.000	144.462	80.009	19.995	100.290	20.173	2.631	0.508
142.500	144.702	80.008	19.995	100.290	20.175	2.473	0.486
143.000	144.895	80.007	19.995	100.292	20.173	2.627	0.453
143.500	145.160	80.007	19.995	100.295	20.176	2.384	0.445
144.000	145.387	80.008	19.996	100.294	20.175	2.506	0.475
144.500	145.635	80.008	19.995	100.290	20.175	2.490	0.483
145.000	145.854	80.007	19.996	100.289	20.174	2.547	0.471
145.500	146.127	80.006	19.995	100.289	20.173	2.575	0.479
146.000	146.382	80.008	19.995	100.288	20.172	2.685	0.510
146.500	146.576	80.008	19.996	100.288	20.177	2.373	0.489
147.000	146.838	80.006	19.995	100.292	20.173	2.623	0.453
147.500	147.059	80.006	19.995	100.294	20.172	2.689	0.469
148.001	147.299	80.006	19.995	100.295	20.173	2.572	0.472
148.500	147.560	80.008	19.996	100.294	20.176	2.382	0.481
149.000	147.792	80.007	19.994	100.296	20.174	2.522	0.497
149.501	148.092	80.007	19.995	100.295	20.177	2.347	0.512
150.000	148.277	80.006	19.995	100.294	20.175	2.460	0.508
150.500	148.523	80.004	19.995	100.292	20.177	2.373	0.458
151.000	148.764	80.007	19.995	100.290	20.178	2.302	0.459
151.500	148.975	80.008	19.994	100.291	20.175	2.487	0.469
152.000	149.226	80.007	19.995	100.292	20.176	2.432	0.457
152.500	149.501	80.005	19.994	100.292	20.176	2.412	0.494
153.000	149.750	80.007	19.995	100.293	20.177	2.355	0.525
153.500	149.967	80.006	19.995	100.289	20.177	2.362	0.495
154.000	150.228	80.007	19.995	100.284	20.175	2.506	0.472
154.500	150.465	80.006	19.994	100.281	20.177	2.375	0.489
155.000	150.704	80.007	19.995	100.279	20.173	2.621	0.487
155.500	150.928	80.007	19.994	100.278	20.175	2.506	0.469
156.000	151.219	80.007	19.995	100.281	20.177	2.355	0.489
156.500	151.428	80.008	19.995	100.283	20.178	2.295	0.507
157.000	151.694	80.005	19.996	100.286	20.173	2.612	0.488
157.500	151.941	80.006	19.995	100.287	20.176	2.378	0.494
158.000	152.182	80.008	19.995	100.287	20.174	2.545	0.500
158.500	152.400	80.007	19.995	100.286	20.176	2.391	0.473
159.000	152.648	80.008	19.995	100.284	20.176	2.377	0.462
159.500	152.919	80.007	19.996	100.282	20.177	2.355	0.492
160.000	153.150	80.010	19.995	100.281	20.176	2.423	0.510
160.500	153.395	80.008	19.995	100.283	20.179	2.190	0.489
161.000	153.641	80.007	19.995	100.285	20.177	2.357	0.484
161.500	153.880	80.008	19.994	100.285	20.176	2.419	0.488
162.000	154.144	80.009	19.994	100.286	20.177	2.373	0.494
162.500	154.354	80.010	19.995	100.284	20.176	2.440	0.488
163.001	154.623	80.008	19.994	100.278	20.179	2.199	0.477
163.501	154.812	80.009	19.996	100.274	20.178	2.250	0.469
164.000	155.094	80.010	19.994	100.271	20.180	2.178	0.465
164.500	155.358	80.009	19.995	100.266	20.177	2.332	0.508
165.001	155.598	80.011	19.995	100.263	20.179	2.219	0.525
165.501	155.846	80.009	19.995	100.262	20.175	2.497	0.496
166.000	156.099	80.007	19.995	100.262	20.175	2.460	0.495
166.500	156.343	80.008	19.994	100.263	20.176	2.414	0.499
167.000	156.546	80.008	19.995	100.268	20.173	2.573	0.472
167.500	156.808	80.007	19.995	100.274	20.176	2.392	0.456
168.000	157.077	80.008	19.995	100.277	20.177	2.369	0.498
168.500	157.323	80.008	19.994	100.277	20.177	2.316	0.523
169.000	157.612	80.010	19.995	100.276	20.176	2.385	0.525
169.500	157.830	80.006	19.995	100.273	20.175	2.483	0.521
170.000	158.068	80.007	19.994	100.270	20.175	2.488	0.482
170.500	158.329	80.009	19.995	100.269	20.178	2.277	0.478
171.000	158.555	80.008	19.994	100.268	20.179	2.228	0.493
171.500	158.824	80.007	19.995	100.267	20.175	2.442	0.491
172.000	159.059	80.008	19.995	100.267	20.179	2.240	0.499
172.500	159.317	80.007	19.995	100.263	20.177	2.316	0.499
173.000	159.603	80.008	19.995	100.261	20.177	2.350	0.519
173.500	159.834	80.006	19.996	100.260	20.173	2.596	0.530
174.000	160.082	80.005	19.996	100.261	20.177	2.355	0.498
174.500	160.384	80.009	19.996	100.259	20.177	2.327	0.514
175.000	160.603	80.007	19.995	100.261	20.177	2.311	0.535
175.500	160.854	80.007	19.996	100.261	20.179	2.192	0.496
176.000	161.128	80.007	19.995	100.264	20.179	2.236	0.497
176.500	161.335	80.007	19.996	100.265	20.179	2.245	0.503
177.000	161.643	80.006	19.996	100.265	20.177	2.371	0.498
177.500	161.858	80.006	19.996	100.264	20.179	2.185	0.519
178.000	162.121	80.009	19.996	100.264	20.177	2.344	0.501
178.500	162.349	80.007	19.996	100.262	20.176	2.421	0.485
179.000	162.628	80.006	19.995	100.260	20.177	2.318	0.499
179.500	162.853	80.006	19.996	100.260	20.178	2.295	0.505
180.001	163.102	80.005	19.996	100.258	20.175	2.445	0.489
180.500	163.361	80.005	19.997	100.266	20.179	2.235	0.491
181.000	163.589	80.007	19.997	100.268	20.177	2.364	0.497
181.500	163.838	80.005	19.997	100.268	20.178	2.247	0.482
182.000	164.151	80.007	19.996	100.268	20.178	2.259	0.520
182.500	164.388	80.007	19.997	100.267	20.180	2.172	0.556
183.000	164.631	80.007	19.996	100.258	20.179	2.238	0.515
183.500	164.908	80.007	19.996	100.256	20.177	2.334	0.500
184.000	165.142	80.007	19.996	100.256	20.181	2.073	0.516
184.500	165.421	80.007	19.995	100.264	20.179	2.243	0.512
185.000	165.719	80.006	19.996	100.266	20.175	2.472	0.545
185.501	165.965	80.005	19.997	100.268	20.177	2.348	0.560
186.000	166.213	80.008	19.996	100.268	20.178	2.298	0.519
186.500	166.451	80.006	19.995	100.268	20.177	2.337	0.490
187.000	166.697	80.008	19.995	100.260	20.176	2.389	0.485
187.500	166.935	80.009	19.995	100.259	20.179	2.231	0.484
188.000	167.194	80.009	19.996	100.258	20.177	2.374	0.490
188.500	167.420	80.008	19.996	100.257	20.178	2.305	0.491
189.000	167.750	80.007	19.996	100.257	20.176	2.403	0.521
189.500	167.954	80.007	19.996	100.257	20.178	2.247	0.545
190.000	168.203	80.008	19.996	100.257	20.177	2.328	0.494
190.500	168.453	80.009	19.995	100.257	20.175	2.454	0.476
191.000	168.689	80.010	19.996	100.258	20.177	2.350	0.492
191.500	168.964	80.008	19.996	100.259	20.179	2.215	0.499
192.000	169.218	80.008	19.995	100.259	20.179	2.188	0.520
192.500	169.473	80.008	19.995	100.258	20.182	2.018	0.519
193.000	169.725	80.010	19.995	100.258	20.181	2.084	0.508
193.500	169.984	80.009	19.995	100.258	20.182	2.040	0.509
194.000	170.238	80.009	19.997	100.257	20.180	2.153	0.512
194.500	170.493	80.009	19.997	100.257	20.186	1.781	0.511
195.000	170.799	80.009	19.996	100.257	20.182	2.008	0.535
195.500	171.046	80.009	19.997	100.256	20.187	1.690	0.557
196.000	171.268	80.009	19.995	100.256	20.182	1.997	0.511
196.500	171.534	80.010	19.996	100.257	20.182	2.048	0.479
197.000	171.776	80.007	19.995	100.256	20.185	1.827	0.498
197.500	172.031	80.008	19.995	100.256	20.185	1.822	0.502
198.000	172.273	80.010	19.996	100.256	20.183	1.923	0.497
198.500	172.521	80.007	19.995	100.256	20.184	1.898	0.493
199.000	172.800	80.009	19.996	100.256	20.181	2.079	0.509
199.500	173.015	80.007	19.996	100.256	20.181	2.082	0.511
200.000	173.278	80.007	19.996	100.257	20.182	2.025	0.486
200.500	173.527	80.007	19.996	100.256	20.184	1.882	0.495
201.000	173.751	80.006	19.995	100.257	20.181	2.082	0.493
201.500	174.040	80.007	19.996	100.257	20.181	2.063	0.493
202.000	174.262	80.008	19.996	100.257	20.182	2.048	0.511
202.500	174.519	80.008	19.996	100.257	20.181	2.070	0.495
203.000	174.789	80.008	19.996	100.258	20.184	1.873	0.503
203.500	175.024	80.008	19.996	100.258	20.186	1.779	0.516
204.000	175.292	80.007	19.995	100.258	20.181	2.085	0.504
204.500	175.500	80.008	19.996	100.258	20.182	2.036	0.490
205.000	175.803	80.007	19.996	100.259	20.182	1.995	0.494
205.500	176.034	80.008	19.997	100.259	20.181	2.062	0.522
206.000	176.302	80.009	19.996	100.259	20.181	2.107	0.517
206.500	176.568	80.007	19.995	100.258	20.179	2.233	0.517
207.000	176.812	80.007	19.995	100.258	20.181	2.057	0.522
207.500	177.083	80.008	19.996	100.258	20.180	2.146	0.512
208.000	177.362	80.007	19.996	100.258	20.183	1.972	0.532
208.500	177.591	80.009	19.997	100.257	20.180	2.170	0.529
209.000	177.870	80.008	19.997	100.258	20.182	1.990	0.508
209.500	178.117	80.008	19.996	100.257	20.183	1.924	0.517
210.000	178.330	80.007	19.996	100.256	20.182	2.030	0.493
210.500	178.597	80.007	19.996	100.256	20.182	2.007	0.470
211.000	178.877	80.007	19.996	100.256	20.180	2.128	0.514
211.500	179.109	80.009	19.995	100.255	20.180	2.146	0.529
212.000	179.363	80.008	19.996	100.256	20.180	2.121	0.499
212.500	179.666	80.010	19.996	100.256	20.181	2.064	0.522
213.000	179.874	80.006	19.997	100.254	20.182	1.995	0.534
213.500	180.114	80.007	19.995	100.253	20.181	2.101	0.480
214.000	180.359	80.006	19.995	100.252	20.180	2.124	0.467
214.500	180.589	80.009	19.995	100.249	20.184	1.884	0.479
215.000	180.887	80.008	19.997	100.248	20.182	2.034	0.501
215.500	181.107	80.010	19.997	100.249	20.182	1.997	0.523
216.000	181.346	80.006	19.996	100.249	20.181	2.086	0.489
216.500	181.656	80.007	19.996	100.249	20.181	2.098	0.504
217.000	181.857	80.009	19.996	100.249	20.181	2.059	0.530
217.501	182.107	80.008	19.995	100.249	20.184	1.871	0.481
218.000	182.366	80.009	19.995	100.250	20.186	1.765	0.480
218.500	182.600	80.009	19.996	100.248	20.186	1.744	0.501
219.000	182.862	80.010	19.995	100.244	20.186	1.783	0.495
219.500	183.107	80.007	19.995	100.244	20.187	1.719	0.502
220.000	183.330	80.008	19.995	100.242	20.182	2.050	0.488
220.500	183.587	80.009	19.996	100.237	20.187	1.713	0.474
221.000	183.846	80.008	19.995	100.236	20.184	1.880	0.498
221.500	184.087	80.008	19.996	100.240	20.185	1.830	0.508
222.000	184.311	80.009	19.995	100.243	20.183	1.963	0.482
222.500	184.589	80.006	19.994	100.245	20.187	1.715	0.483
223.000	184.890	80.008	19.995	100.249	20.184	1.872	0.540
223.500	185.053	80.009	19.994	100.249	20.182	1.993	0.522
224.000	185.345	80.008	19.994	100.250	20.185	1.810	0.460
224.500	185.608	80.007	19.996	100.250	20.184	1.910	0.505
225.000	185.843	80.008	19.995	100.251	20.184	1.913	0.526
225.500	186.092	80.007	19.994	100.254	20.185	1.805	0.491
226.000	186.345	80.008	19.994	100.257	20.186	1.731	0.493
226.500	186.596	80.007	19.994	100.256	20.184	1.915	0.503
227.000	186.870	80.005	19.994	100.254	20.186	1.756	0.514
227.500	187.070	80.007	19.994	100.254	20.184	1.910	0.500
228.000	187.358	80.010	19.996	100.255	20.186	1.736	0.481
228.500	187.596	80.007	19.995	100.253	20.184	1.881	0.507
229.000	187.876	80.006	19.994	100.251	20.184	1.883	0.522
229.500	188.113	80.004	19.995	100.253	20.185	1.821	0.518
230.000	188.341	80.006	19.994	100.252	20.186	1.777	0.491
230.500	188.613	80.007	19.995	100.250	20.184	1.897	0.483
231.000	188.873	80.006	19.995	100.250	20.184	1.860	0.516
231.500	189.125	80.006	19.994	100.250	20.185	1.800	0.522
232.000	189.377	80.007	19.995	100.247	20.185	1.849	0.508
232.500	189.607	80.007	19.994	100.242	20.189	1.557	0.493
233.000	189.858	80.007	19.995	100.236	20.186	1.752	0.481
233.500	190.098	80.006	19.996	100.233	20.188	1.609	0.486
234.000	190.359	80.007	19.995	100.229	20.186	1.729	0.496
234.500	190.598	80.007	19.995	100.226	20.187	1.711	0.501
235.000	190.852	80.006	19.995	100.225	20.186	1.763	0.496
235.500	191.076	80.008	19.995	100.225	20.193	1.311	0.485
236.000	191.338	80.008	19.995	100.229	20.188	1.603	0.482
236.500	191.583	80.008	19.996	100.231	20.187	1.671	0.497
237.000	191.813	80.007	19.995	100.232	20.187	1.686	0.491
237.500	192.065	80.006	19.995	100.235	20.187	1.701	0.478
238.000	192.349	80.007	19.995	100.235	20.186	1.736	0.509
238.500	192.575	80.006	19.995	100.232	20.188	1.612	0.523
239.000	192.816	80.008	19.995	100.229	20.188	1.628	0.489
239.500	193.076	80.007	19.995	100.226	20.188	1.621	0.484
240.001	193.324	80.007	19.995	100.223	20.187	1.679	0.505
240.501	193.568	80.007	19.995	100.223	20.186	1.770	0.499
241.000	193.809	80.007	19.995	100.225	20.184	1.874	0.488
241.500	194.042	80.006	19.995	100.229	20.185	1.801	0.480
242.000	194.273	80.006	19.995	100.230	20.186	1.764	0.470
242.500	194.522	80.006	19.995	100.229	20.188	1.644	0.472
243.000	194.793	80.007	19.995	100.230	20.189	1.578	0.500
243.500	194.999	80.008	19.995	100.229	20.187	1.706	0.499
244.000	195.248	80.008	19.995	100.227	20.188	1.617	0.466
244.500	195.493	80.008	19.995	100.229	20.185	1.800	0.474
245.000	195.758	80.007	19.996	100.230	20.186	1.773	0.502
245.500	195.974	80.007	19.996	100.232	20.189	1.548	0.495
246.000	196.218	80.006	19.994	100.234	20.189	1.584	0.470
246.500	196.470	80.009	19.995	100.237	20.188	1.605	0.478
247.000	196.728	80.006	19.995	100.235	20.188	1.647	0.503
247.500	196.972	80.007	19.995	100.235	20.188	1.624	0.506
248.000	197.233	80.007	19.996	100.230	20.188	1.605	0.503
248.500	197.459	80.007	19.995	100.227	20.185	1.810	0.496
249.000	197.698	80.006	19.995	100.225	20.185	1.818	0.476
249.501	197.975	80.010	19.995	100.226	20.188	1.656	0.491
250.001	198.264	80.006	19.995	100.230	20.187	1.710	0.540
250.501	198.438	80.007	19.995	100.232	20.188	1.651	0.514
251.000	198.691	80.006	19.994	100.230	20.189	1.539	0.445
251.500	198.939	80.008	19.995	100.227	20.189	1.573	0.464
252.000	199.189	80.006	19.995	100.226	20.189	1.562	0.500
252.500	199.456	80.006	19.996	100.222	20.190	1.522	0.507
253.000	199.698	80.007	19.995	100.224	20.189	1.552	0.513
253.500	199.926	80.007	19.995	100.223	20.188	1.646	0.490
254.000	200.146	80.007	19.994	100.226	20.189	1.591	0.459
254.500	200.370	80.006	19.995	100.228	20.188	1.607	0.446
255.000	200.639	80.004	19.996	100.230	20.192	1.371	0.469
255.500	200.863	80.007	19.995	100.227	20.188	1.623	0.493
256.000	201.095	80.005	19.994	100.229	20.191	1.426	0.474
256.500	201.330	80.008	19.996	100.229	20.191	1.444	0.461
257.000	201.582	80.007	19.995	100.227	20.189	1.585	0.477
257.500	201.828	80.008	19.994	100.226	20.190	1.493	0.493
258.000	202.090	80.008	19.995	100.226	20.189	1.593	0.503
258.500	202.311	80.008	19.995	100.229	20.190	1.495	0.496
259.000	202.564	80.007	19.995	100.230	20.188	1.616	0.479
259.500	202.809	80.006	19.995	100.231	20.189	1.571	0.486
260.000	203.063	80.007	19.994	100.233	20.188	1.621	0.498
260.500	203.253	80.008	19.995	100.237	20.188	1.621	0.471
261.000	203.530	80.007	19.996	100.237	20.189	1.582	0.455
261.500	203.786	80.007	19.995	100.235	20.189	1.591	0.500
262.000	204.042	80.004	19.996	100.233	20.189	1.566	0.523
262.500	204.285	80.008	19.995	100.229	20.184	1.883	0.505
263.000	204.512	80.009	19.995	100.226	20.185	1.841	0.485
263.500	204.717	80.007	19.995	100.220	20.189	1.543	0.451
264.000	204.989	80.007	19.995	100.220	20.187	1.697	0.455
264.500	205.237	80.007	19.995	100.220	20.187	1.669	0.499
265.000	205.500	80.007	19.995	100.223	20.192	1.359	0.515
265.500	205.795	80.008	19.994	100.224	20.187	1.717	0.534
266.000	206.013	80.008	19.995	100.225	20.189	1.566	0.536
266.500	206.244	80.009	19.995	100.227	20.189	1.546	0.481
267.000	206.447	80.007	19.995	100.231	20.190	1.511	0.441
267.500	206.702	80.008	19.995	100.230	20.190	1.486	0.446
268.000	206.964	80.008	19.995	100.230	20.190	1.522	0.488
268.500	207.240	80.006	19.995	100.231	20.191	1.456	0.528
269.000	207.487	80.007	19.995	100.232	20.190	1.515	0.531
269.500	207.744	80.009	19.995	100.230	20.192	1.396	0.513
270.000	207.968	80.008	19.995	100.230	20.188	1.612	0.492
270.500	208.155	80.007	19.996	100.231	20.193	1.311	0.446
271.000	208.479	80.007	19.995	100.230	20.190	1.475	0.461
271.500	208.688	80.006	19.994	100.228	20.190	1.482	0.523
272.000	208.941	80.008	19.995	100.230	20.187	1.670	0.498
272.500	209.168	80.008	19.995	100.228	20.189	1.554	0.471
273.000	209.441	80.009	19.995	100.231	20.190	1.508	0.490
273.500	209.679	80.008	19.996	100.234	20.188	1.621	0.506
274.001	209.892	80.008	19.994	100.234	20.189	1.582	0.481
274.500	210.123	80.008	19.996	100.231	20.191	1.463	0.447
275.000	210.374	80.009	19.996	100.231	20.190	1.472	0.463
275.500	210.606	80.007	19.995	100.229	20.188	1.635	0.483
276.000	210.842	80.009	19.995	100.228	20.185	1.832	0.476
276.500	211.103	80.008	19.995	100.228	20.188	1.607	0.482
277.000	211.360	80.008	19.995	100.228	20.187	1.667	0.507
277.500	211.579	80.009	19.995	100.226	20.189	1.591	0.497
278.000	211.824	80.007	19.995	100.224	20.189	1.561	0.470
278.500	212.084	80.009	19.996	100.221	20.188	1.605	0.484
279.000	212.348	80.009	19.996	100.219	20.187	1.690	0.515
279.500	212.595	80.006	19.995	100.220	20.186	1.752	0.518
280.000	212.806	80.007	19.996	100.221	20.186	1.738	0.484
280.500	213.071	80.008	19.996	100.221	20.186	1.771	0.467
281.000	213.282	80.008	19.996	100.213	20.187	1.709	0.476
281.500	213.518	80.010	19.997	100.211	20.186	1.732	0.462
282.000	213.764	80.008	19.995	100.209	20.188	1.612	0.465
282.500	214.035	80.006	19.996	100.212	20.188	1.607	0.499
283.000	214.265	80.008	19.995	100.215	20.188	1.642	0.509
283.500	214.531	80.008	19.996	100.225	20.188	1.603	0.498
284.000	214.745	80.008	19.995	100.227	20.191	1.461	0.488
284.500	215.004	80.009	19.996	100.227	20.191	1.428	0.477
285.000	215.259	80.009	19.995	100.231	20.191	1.445	0.494
285.500	215.518	80.008	19.996	100.235	20.192	1.382	0.514
286.000	215.741	80.007	19.995	100.242	20.190	1.520	0.498
286.500	215.977	80.006	19.996	100.252	20.190	1.502	0.471
287.000	216.188	80.006	19.996	100.250	20.189	1.536	0.453
287.500	216.463	80.007	19.996	100.243	20.187	1.713	0.467
288.000	216.672	80.008	19.996	100.237	20.189	1.534	0.485
288.500	216.913	80.008	19.995	100.229	20.189	1.594	0.467
289.000	217.146	80.008	19.995	100.220	20.191	1.454	0.461
289.500	217.392	80.006	19.996	100.224	20.192	1.385	0.477
290.000	217.641	80.005	19.995	100.227	20.192	1.364	0.488
290.500	217.878	80.007	19.995	100.226	20.190	1.468	0.490
291.000	218.102	80.007	19.995	100.226	20.190	1.527	0.473
291.500	218.369	80.008	19.995	100.226	20.193	1.281	0.476
292.000	218.621	80.007	19.996	100.225	20.189	1.559	0.505
292.500	218.845	80.008	19.995	100.224	20.190	1.502	0.498
293.000	219.074	80.009	19.995	100.225	20.189	1.582	0.464
293.500	219.375	80.009	19.996	100.227	20.190	1.525	0.491
294.000	219.594	80.009	19.995	100.229	20.189	1.559	0.525
294.500	219.841	80.008	19.995	100.228	20.188	1.621	0.493
295.000	220.078	80.008	19.995	100.226	20.187	1.690	0.475
295.500	220.322	80.009	19.996	100.225	20.191	1.422	0.483
296.000	220.574	80.009	19.994	100.226	20.189	1.537	0.489
296.500	220.805	80.009	19.995	100.225	20.188	1.619	0.490
297.000	221.041	80.006	19.995	100.225	20.187	1.700	0.475
297.500	221.296	80.010	19.995	100.225	20.188	1.635	0.478
298.000	221.576	80.010	19.995	100.225	20.187	1.663	0.513
298.500	221.811	80.009	19.995	100.222	20.186	1.746	0.525
299.000	222.058	80.010	19.995	100.219	20.187	1.699	0.499
299.500	222.321	80.010	19.995	100.217	20.185	1.837	0.496
300.000	222.569	80.010	19.996	100.216	20.186	1.727	0.511
300.500	222.820	80.009	19.995	100.216	20.186	1.761	0.505
301.000	223.065	80.010	19.996	100.217	20.185	1.798	0.498
301.500	223.284	80.009	19.996	100.217	20.187	1.713	0.480
302.000	223.523	80.010	19.996	100.219	20.187	1.711	0.461
302.500	223.774	80.010	19.996	100.220	20.181	2.067	0.474
303.000	224.071	80.009	19.996	100.220	20.186	1.754	0.519
303.500	224.284	80.009	19.996	100.221	20.182	1.991	0.529
304.000	224.512	80.009	19.996	100.223	20.181	2.104	0.476
304.500	224.753	80.009	19.995	100.227	20.184	1.888	0.455
305.000	225.001	80.008	19.996	100.229	20.183	1.947	0.479
305.500	225.291	80.009	19.995	100.228	20.182	2.000	0.513
306.001	225.535	80.008	19.996	100.226	20.182	2.033	0.536
306.500	225.759	80.006	19.996	100.224	20.177	2.333	0.501
307.000	225.982	80.008	19.995	100.218	20.178	2.251	0.458
307.500	226.231	80.007	19.997	100.215	20.181	2.083	0.459
308.000	226.458	80.006	19.996	100.215	20.181	2.071	0.473
308.500	226.733	80.008	19.996	100.214	20.180	2.134	0.489
309.000	227.011	80.007	19.996	100.215	20.178	2.248	0.528
309.500	227.238	80.006	19.996	100.215	20.179	2.182	0.529
310.000	227.490	80.007	19.996	100.216	20.180	2.154	0.492
310.500	227.695	80.007	19.996	100.215	20.177	2.363	0.468
311.000	227.937	80.007	19.997	100.216	20.178	2.285	0.452
311.500	228.210	80.006	19.997	100.216	20.176	2.379	0.481
312.000	228.476	80.005	19.997	100.215	20.176	2.416	0.527
312.500	228.697	80.006	19.997	100.215	20.177	2.373	0.513
313.000	228.950	80.007	19.996	100.215	20.176	2.388	0.481
313.500	229.179	80.005	19.996	100.215	20.175	2.455	0.478
314.000	229.472	80.005	19.997	100.216	20.176	2.381	0.502
314.500	229.674	80.005	19.996	100.216	20.175	2.490	0.508
315.000	229.980	80.006	19.996	100.216	20.174	2.559	0.502
315.500	230.187	80.006	19.996	100.216	20.173	2.583	0.510
316.000	230.395	80.006	19.996	100.215	20.177	2.338	0.464
316.500	230.670	80.006	19.997	100.215	20.173	2.618	0.449
317.000	230.951	80.006	19.996	100.215	20.177	2.350	0.519
317.500	231.174	80.006	19.997	100.215	20.176	2.393	0.530
318.000	231.425	80.006	19.996	100.215	20.173	2.583	0.489
318.500	231.681	80.006	19.997	100.215	20.171	2.719	0.491
319.000	231.888	80.006	19.997	100.215	20.171	2.748	0.485
319.500	232.130	80.006	19.996	100.215	20.172	2.661	0.456
320.000	232.400	80.006	19.996	100.215	20.170	2.769	0.480
320.500	232.655	80.006	19.996	100.215	20.169	2.861	0.519
321.000	232.852	80.007	19.996	100.215	20.171	2.705	0.489
321.500	233.114	80.007	19.996	100.215	20.165	3.097	0.455
322.001	233.330	80.007	19.996	100.215	20.172	2.670	0.469
322.500	233.624	80.007	19.996	100.215	20.171	2.748	0.494
323.000	233.847	80.006	19.996	100.216	20.170	2.829	0.513
323.500	234.114	80.008	19.996	100.216	20.165	3.143	0.503
324.000	234.319	80.006	19.995	100.216	20.164	3.164	0.481
324.500	234.618	80.008	19.995	100.216	20.167	3.021	0.488
325.000	234.851	80.006	19.996	100.217	20.170	2.821	0.518
325.500	235.110	80.006	19.995	100.217	20.164	3.209	0.512
326.000	235.385	80.007	19.995	100.217	20.160	3.459	0.513
326.500	235.580	80.007	19.995	100.217	20.163	3.285	0.502
327.000	235.822	80.006	19.996	100.217	20.160	3.461	0.453
327.500	236.099	80.007	19.995	100.217	20.162	3.308	0.478
328.000	236.331	80.006	19.995	100.217	20.160	3.438	0.515
328.500	236.568	80.007	19.996	100.217	20.158	3.572	0.489
329.000	236.795	80.007	19.995	100.222	20.159	3.503	0.466
329.500	237.076	80.007	19.995	100.228	20.154	3.810	0.486
330.000	237.336	80.006	19.995	100.229	20.157	3.649	0.525
330.500	237.558	80.007	19.995	100.230	20.156	3.684	0.512
331.000	237.837	80.007	19.995	100.231	20.155	3.771	0.491
331.500	238.065	80.008	19.995	100.230	20.152	3.996	0.504
332.000	238.368	80.007	19.995	100.228	20.148	4.228	0.519
332.500	238.591	80.007	19.995	100.232	20.152	3.971	0.529
333.000	238.836	80.007	19.995	100.234	20.152	3.968	0.497
333.500	239.033	80.006	19.995	100.236	20.150	4.109	0.455
334.000	239.320	80.007	19.994	100.237	20.147	4.271	0.463
334.500	239.501	80.007	19.995	100.236	20.148	4.249	0.476
335.000	239.745	80.007	19.996	100.239	20.149	4.138	0.447
335.500	240.049	80.006	19.995	100.243	20.148	4.230	0.487
336.000	240.246	80.007	19.995	100.246	20.147	4.276	0.525
336.500	240.485	80.007	19.995	100.249	20.143	4.561	0.468
337.000	240.761	80.005	19.996	100.254	20.142	4.613	0.475
337.500	240.948	80.006	19.995	100.254	20.142	4.595	0.490
338.000	241.228	80.005	19.996	100.255	20.139	4.797	0.465
338.500	241.498	80.006	19.996	100.254	20.139	4.831	0.508
339.000	241.740	80.005	19.995	100.255	20.135	5.058	0.531
339.500	241.966	80.005	19.996	100.255	20.137	4.975	0.490
340.000	242.193	80.006	19.995	100.256	20.134	5.159	0.461
340.500	242.464	80.007	19.995	100.256	20.133	5.180	0.476
341.000	242.718	80.006	19.996	100.259	20.131	5.320	0.512
341.500	242.947	80.006	19.996	100.259	20.126	5.688	0.504
342.000	243.171	80.006	19.996	100.259	20.126	5.638	0.468
342.500	243.442	80.006	19.996	100.259	20.127	5.578	0.474
343.000	243.684	80.007	19.996	100.258	20.124	5.780	0.503
343.500	243.923	80.005	19.996	100.258	20.120	6.062	0.497
344.000	244.173	80.006	19.995	100.260	20.121	6.005	0.485
344.500	244.411	80.006	19.996	100.261	20.116	6.303	0.489
345.000	244.652	80.007	19.996	100.261	20.116	6.284	0.483
345.500	244.910	80.005	19.996	100.262	20.112	6.603	0.489
346.000	245.121	80.006	19.996	100.264	20.110	6.691	0.484
346.500	245.392	80.007	19.995	100.263	20.106	6.990	0.476
347.000	245.632	80.006	19.995	100.263	20.103	7.183	0.496
347.501	245.930	80.006	19.995	100.263	20.104	7.112	0.524
348.000	246.140	80.006	19.996	100.265	20.099	7.422	0.522
348.500	246.333	80.007	19.995	100.265	20.098	7.451	0.456
349.000	246.647	80.007	19.996	100.268	20.096	7.628	0.455
349.500	246.914	80.006	19.995	100.271	20.095	7.693	0.544
350.000	247.102	80.008	19.995	100.271	20.090	8.007	0.518
350.500	247.364	80.005	19.996	100.269	20.087	8.196	0.452
351.000	247.641	80.006	19.995	100.267	20.083	8.473	0.495
351.500	247.848	80.006	19.995	100.264	20.083	8.467	0.512
352.000	248.120	80.008	19.995	100.261	20.078	8.761	0.481
352.500	248.351	80.007	19.995	100.259	20.079	8.708	0.491
353.000	248.609	80.007	19.995	100.257	20.076	8.885	0.496
353.500	248.877	80.007	19.996	100.258	20.071	9.214	0.508
354.000	249.095	80.007	19.995	100.257	20.069	9.354	0.506
354.500	249.376	80.008	19.995	100.257	20.068	9.411	0.492
355.000	249.665	80.008	19.995	100.259	20.068	9.417	0.535
355.500	249.857	80.008	19.995	100.259	20.066	9.537	0.525
356.001	250.150	80.008	19.995	100.259	20.064	9.676	0.483
356.500	250.392	80.007	19.995	100.260	20.061	9.860	0.510
357.000	250.631	80.008	19.995	100.258	20.059	10.019	0.509
357.500	250.870	80.008	19.995	100.257	20.060	9.980	0.480
358.000	251.140	80.007	19.994	100.253	20.060	9.945	0.493
358.500	251.406	80.008	19.995	100.249	20.059	9.985	0.522
359.000	251.644	80.008	19.995	100.247	20.062	9.815	0.520
359.500	251.919	80.009	19.995	100.248	20.060	9.948	0.508
360.000	252.163	80.008	19.994	100.249	20.062	9.804	0.516
360.500	252.396	80.008	19.994	100.251	20.060	9.958	0.498
361.000	252.621	80.009	19.995	100.249	20.059	9.996	0.468
361.500	252.888	80.009	19.994	100.248	20.058	10.093	0.475
362.000	253.129	80.009	19.994	100.246	20.060	9.955	0.500
362.500	253.398	80.009	19.994	100.244	20.059	10.006	0.509
363.000	253.649	80.008	19.995	100.241	20.058	10.062	0.515
363.500	253.878	80.009	19.995	100.242	20.058	10.081	0.500
364.000	254.168	80.009	19.995	100.239	20.061	9.863	0.499
364.500	254.363	80.008	19.996	100.238	20.062	9.787	0.502
365.000	254.609	80.008	19.996	100.239	20.061	9.891	0.463
365.500	254.863	80.008	19.994	100.241	20.062	9.803	0.470
366.000	255.130	80.008	19.995	100.241	20.062	9.805	0.511
366.500	255.369	80.008	19.995	100.237	20.062	9.837	0.513
367.000	255.608	80.007	19.995	100.232	20.064	9.720	0.492
367.500	255.871	80.009	19.995	100.228	20.063	9.767	0.490
368.000	256.132	80.008	19.995	100.225	20.065	9.595	0.513
368.500	256.350	80.008	19.995	100.223	20.062	9.843	0.502
369.000	256.615	80.007	19.995	100.224	20.064	9.698	0.480
369.500	256.840	80.008	19.996	100.223	20.064	9.657	0.486
370.000	257.103	80.008	19.996	100.222	20.068	9.419	0.489
370.500	257.353	80.007	19.995	100.219	20.071	9.253	0.501
371.000	257.610	80.007	19.996	100.218	20.069	9.335	0.510
371.500	257.875	80.007	19.995	100.218	20.072	9.165	0.515
372.000	258.134	80.008	19.996	100.220	20.072	9.176	0.523
372.500	258.372	80.009	19.995	100.221	20.077	8.856	0.511
373.000	258.635	80.007	19.995	100.222	20.075	8.976	0.499
373.500	258.912	80.008	19.995	100.221	20.078	8.802	0.520
374.000	259.153	80.006	19.996	100.224	20.081	8.600	0.529
374.500	259.389	80.009	19.996	100.224	20.080	8.639	0.498
375.001	259.621	80.009	19.996	100.223	20.081	8.558	0.472
375.501	259.881	80.008	19.995	100.224	20.084	8.377	0.479
376.000	260.119	80.008	19.996	100.223	20.084	8.362	0.495
376.500	260.428	80.009	19.996	100.224	20.086	8.273	0.523
377.001	260.633	80.010	19.996	100.226	20.086	8.231	0.530
377.500	260.890	80.010	19.995	100.229	20.086	8.286	0.487
378.000	261.132	80.009	19.996	100.233	20.090	7.982	0.481
378.500	261.371	80.008	19.996	100.234	20.091	7.960	0.490
379.000	261.616	80.010	19.997	100.236	20.090	7.981	0.482
379.500	261.851	80.008	19.996	100.236	20.093	7.811	0.482
380.000	262.115	80.010	19.996	100.234	20.095	7.703	0.489
380.500	262.357	80.010	19.996	100.232	20.095	7.692	0.502
381.000	262.606	80.011	19.997	100.233	20.097	7.549	0.499
381.500	262.865	80.009	19.994	100.234	20.100	7.379	0.500
382.000	263.110	80.009	19.996	100.236	20.099	7.416	0.506
382.500	263.363	80.009	19.996	100.242	20.098	7.500	0.501
383.000	263.598	80.009	19.996	100.246	20.099	7.435	0.493
383.500	263.861	80.010	19.996	100.251	20.101	7.258	0.493
384.000	264.116	80.010	19.996	100.247	20.102	7.240	0.508
384.500	264.365	80.011	19.996	100.248	20.102	7.246	0.511
385.000	264.617	80.010	19.996	100.246	20.102	7.233	0.502
385.500	264.875	80.010	19.996	100.246	20.104	7.072	0.506
386.000	265.127	80.011	19.996	100.245	20.103	7.150	0.510
386.500	265.393	80.010	19.995	100.252	20.107	6.916	0.514
387.000	265.628	80.011	19.996	100.252	20.106	6.966	0.509
387.500	265.891	80.010	19.996	100.254	20.105	7.053	0.499
388.000	266.164	80.010	19.995	100.258	20.108	6.861	0.517
388.500	266.422	80.010	19.995	100.254	20.106	6.932	0.534
389.000	266.640	80.010	19.996	100.247	20.109	6.765	0.504
389.500	266.910	80.010	19.995	100.240	20.109	6.744	0.482
390.000	267.165	80.009	19.995	100.235	20.107	6.865	0.506
390.500	267.425	80.008	19.995	100.231	20.107	6.911	0.520
391.000	267.668	80.010	19.995	100.234	20.108	6.860	0.509
391.500	267.925	80.010	19.996	100.248	20.109	6.761	0.501
392.000	268.158	80.010	19.996	100.257	20.108	6.805	0.495
392.500	268.426	80.009	19.995	100.261	20.109	6.773	0.496
393.000	268.657	80.009	19.995	100.262	20.113	6.530	0.500
393.500	268.900	80.008	19.996	100.264	20.110	6.676	0.486
394.000	269.194	80.007	19.995	100.257	20.113	6.514	0.506
394.500	269.450	80.008	19.995	100.256	20.111	6.608	0.544
395.000	269.711	80.007	19.996	100.256	20.114	6.453	0.533
395.500	269.932	80.008	19.996	100.256	20.110	6.713	0.499
396.000	270.202	80.008	19.996	100.256	20.113	6.494	0.486
396.501	270.455	80.007	19.996	100.257	20.110	6.698	0.507
397.001	270.735	80.008	19.995	100.257	20.112	6.579	0.528
397.500	270.961	80.008	19.996	100.258	20.111	6.643	0.520
398.000	271.256	80.008	19.996	100.257	20.112	6.577	0.514
398.500	271.474	80.007	19.996	100.257	20.111	6.662	0.517
399.000	271.762	80.007	19.996	100.258	20.114	6.471	0.509
399.500	271.984	80.006	19.996	100.258	20.110	6.698	0.508
400.000	272.245	80.006	19.995	100.257	20.108	6.852	0.497
400.500	272.509	80.006	19.995	100.259	20.109	6.735	0.504
401.000	272.767	80.007	19.996	100.261	20.109	6.736	0.523
401.500	272.997	80.006	19.996	100.264	20.110	6.716	0.505
402.000	273.252	80.006	19.996	100.265	20.110	6.727	0.487
402.500	273.495	80.006	19.996	100.266	20.107	6.894	0.491
403.000	273.744	80.007	19.996	100.265	20.109	6.772	0.495
403.500	274.002	80.007	19.996	100.265	20.106	6.991	0.499
404.000	274.263	80.008	19.995	100.267	20.106	6.951	0.513
404.500	274.496	80.008	19.996	100.267	20.109	6.796	0.507
405.000	274.736	80.006	19.996	100.267	20.108	6.805	0.484
405.500	275.012	80.007	19.996	100.268	20.109	6.793	0.495
406.000	275.249	80.006	19.997	100.271	20.105	7.009	0.514
406.500	275.491	80.007	19.997	100.269	20.108	6.828	0.496
407.000	275.770	80.006	19.997	100.272	20.111	6.646	0.501
407.500	275.998	80.007	19.996	100.276	20.104	7.100	0.515
408.000	276.225	80.006	19.996	100.279	20.107	6.883	0.481
408.500	276.461	80.008	19.997	100.278	20.107	6.868	0.458
409.000	276.701	80.007	19.996	100.279	20.106	6.937	0.470
409.500	276.963	80.007	19.996	100.277	20.106	6.949	0.490
410.000	277.231	80.006	19.996	100.279	20.106	6.992	0.516
410.500	277.494	80.007	19.996	100.278	20.107	6.908	0.530
411.000	277.735	80.006	19.996	100.279	20.104	7.118	0.517
411.500	277.974	80.008	19.996	100.282	20.105	7.001	0.492
412.000	278.205	80.006	19.996	100.286	20.104	7.096	0.475
412.500	278.456	80.008	19.996	100.288	20.106	6.955	0.476
413.000	278.752	80.007	19.996	100.292	20.104	7.082	0.514
413.500	278.968	80.009	19.996	100.293	20.102	7.226	0.530
414.000	279.245	80.006	19.996	100.295	20.099	7.389	0.502
414.500	279.437	80.009	19.997	100.294	20.100	7.350	0.481
415.000	279.695	80.008	19.996	100.294	20.101	7.293	0.459
415.500	279.943	80.008	19.997	100.295	20.099	7.444	0.478
416.000	280.178	80.006	19.996	100.296	20.101	7.261	0.494
416.500	280.423	80.007	19.996	100.295	20.098	7.502	0.482
417.000	280.688	80.007	19.996	100.295	20.096	7.584	0.495
417.500	280.938	80.007	19.996	100.295	20.096	7.589	0.513
418.000	281.163	80.006	19.996	100.296	20.095	7.665	0.496
418.500	281.437	80.007	19.995	100.297	20.096	7.591	0.487
419.000	281.678	80.007	19.996	100.299	20.092	7.871	0.506
419.500	281.899	80.007	19.995	100.299	20.093	7.800	0.488
420.000	282.179	80.006	19.995	100.299	20.091	7.949	0.482
420.500	282.457	80.007	19.996	100.299	20.093	7.834	0.529
421.000	282.675	80.007	19.995	100.299	20.090	7.988	0.527
421.500	282.958	80.007	19.995	100.301	20.091	7.970	0.499
422.000	283.216	80.006	19.995	100.301	20.088	8.137	0.521
422.500	283.417	80.006	19.994	100.301	20.085	8.352	0.500
423.000	283.673	80.008	19.994	100.302	20.088	8.153	0.458
423.500	283.911	80.006	19.995	100.302	20.089	8.070	0.476
424.000	284.176	80.006	19.995	100.300	20.086	8.292	0.499
424.500	284.420	80.006	19.994	100.301	20.082	8.556	0.507
425.000	284.648	80.008	19.996	100.301	20.083	8.444	0.491
425.500	284.934	80.006	19.995	100.301	20.085	8.329	0.493
426.000	285.168	80.005	19.995	100.302	20.082	8.540	0.517
426.500	285.421	80.008	19.995	100.302	20.080	8.685	0.504
427.000	285.670	80.007	19.995	100.301	20.078	8.759	0.495
427.500	285.931	80.007	19.994	100.301	20.077	8.824	0.506
428.000	286.172	80.008	19.995	100.300	20.078	8.769	0.506
428.500	286.400	80.007	19.994	100.299	20.074	9.024	0.485
429.000	286.696	80.008	19.996	100.299	20.073	9.086	0.496
429.500	286.955	80.007	19.996	100.299	20.072	9.189	0.540
430.000	287.180	80.008	19.995	100.298	20.073	9.093	0.520
430.500	287.417	80.007	19.995	100.298	20.075	8.993	0.473
431.000	287.674	80.008	19.995	100.298	20.072	9.195	0.478
431.500	287.926	80.006	19.995	100.298	20.067	9.481	0.502
432.000	288.161	80.007	19.995	100.298	20.070	9.282	0.498
432.500	288.352	80.007	19.995	100.299	20.071	9.271	0.456
433.000	288.631	80.009	19.995	100.300	20.068	9.445	0.448
433.500	288.912	80.007	19.995	100.302	20.069	9.353	0.515
434.000	289.178	80.008	19.996	100.305	20.068	9.438	0.553
434.500	289.375	80.007	19.995	100.310	20.064	9.686	0.505
435.000	289.649	80.008	19.996	100.310	20.064	9.723	0.467
435.500	289.882	80.008	19.996	100.310	20.064	9.686	0.489
436.000	290.144	80.009	19.994	100.311	20.060	9.924	0.501
436.500	290.375	80.009	19.996	100.308	20.064	9.695	0.494
437.000	290.628	80.009	19.996	100.306	20.060	9.975	0.489
437.500	290.908	80.008	19.994	100.310	20.061	9.920	0.509
438.000	291.161	80.008	19.995	100.314	20.062	9.845	0.534
438.500	291.407	80.008	19.994	100.314	20.059	10.051	0.516
439.001	291.648	80.008	19.996	100.316	20.057	10.180	0.492
439.501	291.929	80.009	19.995	100.313	20.058	10.071	0.504
440.000	292.171	80.008	19.995	100.309	20.054	10.358	0.523
440.500	292.393	80.009	19.995	100.306	20.056	10.184	0.494
441.000	292.585	80.010	19.996	100.303	20.056	10.227	0.439
441.500	292.863	80.010	19.995	100.302	20.051	10.563	0.442
442.000	293.138	80.008	19.996	100.303	20.054	10.354	0.511
442.500	293.325	80.009	19.995	100.303	20.053	10.403	0.507
443.000	293.589	80.010	19.994	100.301	20.050	10.593	0.456
443.500	293.837	80.009	19.995	100.301	20.048	10.756	0.481
444.000	294.123	80.010	19.995	100.299	20.052	10.490	0.523
444.500	294.359	80.010	19.995	100.297	20.048	10.745	0.528
445.000	294.626	80.009	19.994	100.296	20.047	10.808	0.512
445.500	294.839	80.010	19.995	100.297	20.046	10.856	0.492
446.000	295.135	80.010	19.996	100.298	20.048	10.721	0.495
446.501	295.369	80.009	19.995	100.298	20.045	10.930	0.520
447.000	295.589	80.009	19.996	100.298	20.045	10.935	0.492
447.500	295.863	80.009	19.994	100.297	20.046	10.840	0.474
448.000	296.117	80.009	19.995	100.297	20.043	11.054	0.511
448.500	296.347	80.010	19.995	100.294	20.041	11.183	0.506
449.000	296.616	80.009	19.994	100.295	20.043	11.046	0.492
449.500	296.845	80.008	19.995	100.295	20.042	11.133	0.498
450.000	297.072	80.008	19.996	100.296	20.041	11.205	0.477
450.500	297.346	80.009	19.996	100.296	20.038	11.373	0.479
451.000	297.545	80.009	19.996	100.297	20.038	11.406	0.488
451.500	297.833	80.009	19.996	100.296	20.038	11.373	0.480
452.000	298.107	80.009	19.996	100.296	20.038	11.364	0.524
452.500	298.324	80.009	19.995	100.295	20.036	11.527	0.526
453.000	298.538	80.008	19.995	100.294	20.038	11.406	0.461
453.500	298.810	80.009	19.996	100.292	20.036	11.499	0.459
454.000	299.038	80.008	19.996	100.293	20.039	11.288	0.493
454.500	299.301	80.008	19.996	100.292	20.037	11.449	0.496
455.000	299.563	80.007	19.995	100.292	20.036	11.496	0.508
455.500	299.797	80.009	19.995	100.292	20.036	11.515	0.510
456.000	300.077	80.009	19.995	100.293	20.036	11.518	0.505
456.500	300.307	80.009	19.995	100.293	20.034	11.669	0.512
457.000	300.540	80.008	19.995	100.293	20.033	11.686	0.487
457.500	300.808	80.009	19.995	100.293	20.033	11.711	0.482
458.000	301.040	80.011	19.995	100.293	20.033	11.737	0.500
458.500	301.324	80.010	19.994	100.292	20.034	11.652	0.508
459.000	301.522	80.009	19.995	100.290	20.036	11.502	0.499
459.500	301.767	80.009	19.995	100.288	20.033	11.739	0.463
460.000	302.042	80.010	19.995	100.285	20.033	11.699	0.481
460.500	302.265	80.010	19.995	100.282	20.033	11.727	0.509
461.001	302.512	80.011	19.995	100.277	20.033	11.729	0.484
461.500	302.791	80.009	19.995	100.273	20.034	11.665	0.498
462.000	303.037	80.011	19.994	100.268	20.034	11.624	0.526
462.500	303.286	80.009	19.994	100.263	20.032	11.764	0.510
463.000	303.532	80.010	19.995	100.259	20.036	11.528	0.495
463.500	303.753	80.010	19.994	100.257	20.033	11.700	0.481
464.000	304.023	80.010	19.995	100.256	20.033	11.685	0.479
464.500	304.234	80.012	19.995	100.259	20.033	11.682	0.487
465.000	304.480	80.010	19.995	100.261	20.035	11.595	0.469
465.500	304.718	80.010	19.995	100.262	20.035	11.558	0.470
466.000	304.975	80.011	19.994	100.263	20.034	11.611	0.490
466.500	305.220	80.009	19.995	100.264	20.032	11.754	0.499
467.000	305.483	80.011	19.994	100.260	20.039	11.348	0.505
467.500	305.722	80.010	19.995	100.258	20.032	11.762	0.505
468.000	306.017	80.010	19.994	100.257	20.035	11.547	0.518
468.500	306.234	80.010	19.994	100.255	20.037	11.426	0.523
469.000	306.473	80.010	19.994	100.255	20.038	11.367	0.484
469.500	306.766	80.010	19.995	100.256	20.037	11.468	0.494
470.000	307.008	80.011	19.995	100.256	20.040	11.255	0.533
470.500	307.241	80.009	19.995	100.257	20.039	11.322	0.504
471.000	307.493	80.009	19.994	100.257	20.037	11.432	0.480
471.500	307.705	80.009	19.995	100.257	20.040	11.216	0.475
472.000	307.976	80.010	19.996	100.256	20.040	11.250	0.474
472.500	308.256	80.009	19.995	100.256	20.039	11.310	0.517
473.000	308.511	80.009	19.995	100.256	20.040	11.223	0.543
473.500	308.694	80.008	19.995	100.254	20.040	11.260	0.486
474.000	308.991	80.007	19.996	100.254	20.036	11.501	0.459
474.500	309.206	80.008	19.995	100.251	20.040	11.234	0.496
475.000	309.486	80.008	19.995	100.250	20.039	11.290	0.504
475.500	309.776	80.007	19.995	100.248	20.039	11.304	0.533
476.000	310.014	80.007	19.995	100.249	20.039	11.319	0.549
476.500	310.294	80.007	19.995	100.247	20.041	11.180	0.523
477.000	310.518	80.007	19.996	100.250	20.041	11.170	0.511
477.500	310.749	80.006	19.996	100.246	20.044	10.962	0.479
478.000	310.995	80.008	19.995	100.242	20.046	10.877	0.466
478.500	311.268	80.008	19.996	100.239	20.045	10.898	0.498
479.000	311.511	80.009	19.995	100.234	20.045	10.920	0.518
479.500	311.757	80.007	19.995	100.226	20.049	10.670	0.502
480.000	312.065	80.007	19.996	100.225	20.047	10.799	0.521
480.500	312.337	80.007	19.996	100.223	20.047	10.789	0.567
481.000	312.575	80.006	19.995	100.220	20.049	10.670	0.545
481.500	312.819	80.007	19.995	100.220	20.051	10.539	0.496
482.000	313.097	80.007	19.995	100.221	20.049	10.685	0.502
482.500	313.330	80.008	19.995	100.220	20.051	10.515	0.516
483.000	313.618	80.006	19.996	100.220	20.050	10.582	0.516
483.500	313.868	80.007	19.995	100.220	20.049	10.651	0.530
484.000	314.117	80.006	19.995	100.219	20.051	10.559	0.519
484.501	314.370	80.006	19.995	100.219	20.055	10.288	0.500
485.000	314.616	80.009	19.995	100.219	20.054	10.337	0.500
485.500	314.863	80.007	19.995	100.219	20.053	10.413	0.496
486.000	315.135	80.007	19.995	100.219	20.057	10.135	0.506
486.500	315.354	80.007	19.995	100.219	20.054	10.314	0.505
487.000	315.639	80.006	19.995	100.219	20.057	10.165	0.498
487.501	315.855	80.007	19.995	100.218	20.060	9.937	0.502
488.001	316.097	80.006	19.995	100.218	20.058	10.107	0.480
488.500	316.364	80.007	19.995	100.218	20.059	10.010	0.483
489.000	316.581	80.007	19.995	100.215	20.059	10.009	0.497
489.500	316.885	80.007	19.995	100.215	20.058	10.077	0.503
490.000	317.118	80.008	19.995	100.216	20.058	10.103	0.528
490.500	317.388	80.006	19.994	100.215	20.059	10.038	0.520
491.000	317.656	80.007	19.996	100.215	20.056	10.199	0.521
491.500	317.883	80.007	19.995	100.218	20.060	9.937	0.517
492.000	318.138	80.008	19.995	100.218	20.062	9.831	0.488
492.500	318.409	80.007	19.995	100.218	20.061	9.856	0.504
493.000	318.663	80.007	19.995	100.220	20.061	9.902	0.525
493.500	318.908	80.007	19.995	100.219	20.062	9.836	0.512
494.000	319.163	80.006	19.995	100.219	20.061	9.870	0.499
494.500	319.432	80.007	19.996	100.220	20.061	9.888	0.512
495.000	319.701	80.007	19.995	100.220	20.061	9.881	0.531
495.500	319.935	80.006	19.994	100.219	20.060	9.926	0.521
496.000	320.180	80.008	19.995	100.218	20.062	9.847	0.491
496.500	320.448	80.008	19.996	100.219	20.062	9.829	0.496
497.000	320.670	80.007	19.994	100.218	20.062	9.799	0.502
497.500	320.921	80.008	19.996	100.217	20.060	9.943	0.482
498.000	321.178	80.009	19.995	100.218	20.061	9.911	0.490
498.500	321.463	80.008	19.995	100.218	20.060	9.960	0.525
499.000	321.700	80.009	19.995	100.218	20.059	10.009	0.532
499.500	321.939	80.007	19.995	100.218	20.061	9.912	0.500
500.000	322.194	80.007	19.995	100.217	20.060	9.953	0.485
500.500	322.503	80.007	19.995	100.217	20.061	9.903	0.528
501.000	322.715	80.007	19.995	100.217	20.059	10.013	0.542
501.500	322.983	80.007	19.996	100.217	20.061	9.870	0.501
502.000	323.250	80.008	19.996	100.217	20.062	9.840	0.507
502.500	323.468	80.008	19.996	100.217	20.060	9.960	0.510
503.000	323.758	80.007	19.996	100.217	20.061	9.909	0.497
503.500	323.993	80.007	19.996	100.219	20.063	9.771	0.517
504.000	324.250	80.006	19.996	100.218	20.060	9.961	0.508
504.500	324.498	80.007	19.996	100.219	20.059	9.993	0.498
505.000	324.755	80.007	19.996	100.221	20.059	10.008	0.505
505.500	325.028	80.007	19.997	100.225	20.058	10.104	0.518
506.000	325.228	80.005	19.997	100.229	20.060	9.931	0.502
506.500	325.502	80.006	19.997	100.234	20.060	9.940	0.473
507.000	325.787	80.006	19.997	100.237	20.062	9.838	0.516
507.500	326.017	80.006	19.995	100.240	20.059	10.033	0.537
508.000	326.287	80.007	19.997	100.242	20.060	9.987	0.508
508.500	326.531	80.005	19.997	100.244	20.058	10.090	0.507
509.000	326.768	80.005	19.997	100.245	20.056	10.202	0.498
509.500	327.021	80.006	19.996	100.249	20.061	9.888	0.485
510.000	327.270	80.006	19.997	100.251	20.058	10.074	0.495
510.500	327.524	80.007	19.997	100.252	20.060	9.939	0.502
511.001	327.754	80.007	19.997	100.253	20.056	10.200	0.494
511.500	328.008	80.005	19.996	100.254	20.060	9.927	0.484
512.000	328.269	80.006	19.997	100.255	20.056	10.212	0.499
512.500	328.543	80.006	19.996	100.255	20.058	10.115	0.525
513.000	328.807	80.007	19.997	100.256	20.057	10.138	0.537
513.500	329.068	80.007	19.997	100.257	20.057	10.136	0.531
514.000	329.304	80.006	19.996	100.259	20.057	10.136	0.511
514.500	329.565	80.008	19.997	100.261	20.056	10.212	0.497
515.000	329.821	80.007	19.996	100.265	20.055	10.262	0.507
515.500	330.074	80.008	19.995	100.270	20.057	10.154	0.513
516.000	330.316	80.007	19.997	100.273	20.057	10.168	0.502
516.500	330.581	80.007	19.996	100.277	20.056	10.201	0.501
517.000	330.804	80.007	19.996	100.284	20.059	10.011	0.498
517.500	331.084	80.008	19.996	100.288	20.057	10.130	0.495
518.000	331.285	80.007	19.995	100.290	20.057	10.178	0.492
518.500	331.542	80.010	19.995	100.293	20.054	10.367	0.470
519.000	331.829	80.008	19.995	100.295	20.053	10.423	0.501
519.500	332.040	80.009	19.995	100.294	20.055	10.276	0.521
520.000	332.327	80.010	19.995	100.294	20.056	10.213	0.498
520.500	332.578	80.009	19.994	100.294	20.053	10.411	0.518
521.000	332.861	80.008	19.995	100.293	20.054	10.340	0.536
521.500	333.094	80.009	19.995	100.291	20.050	10.601	0.525
522.000	333.343	80.009	19.996	100.292	20.053	10.422	0.499
522.500	333.622	80.009	19.994	100.292	20.050	10.589	0.504
523.000	333.855	80.009	19.995	100.292	20.049	10.685	0.520
523.500	334.155	80.008	19.995	100.293	20.051	10.518	0.522
524.000	334.364	80.008	19.995	100.295	20.053	10.419	0.521
524.500	334.632	80.010	19.995	100.294	20.053	10.384	0.493
525.000	334.896	80.008	19.996	100.296	20.049	10.663	0.505
525.500	335.165	80.008	19.995	100.297	20.051	10.558	0.532
526.000	335.355	80.010	19.995	100.297	20.051	10.574	0.496
526.500	335.637	80.010	19.995	100.298	20.050	10.585	0.466
527.000	335.886	80.009	19.996	100.299	20.052	10.500	0.501
527.500	336.183	80.009	19.995	100.302	20.050	10.620	0.539
528.000	336.416	80.008	19.996	100.303	20.047	10.810	0.538
528.500	336.648	80.009	19.995	100.307	20.049	10.695	0.497
529.000	336.942	80.008	19.995	100.311	20.049	10.685	0.495
529.500	337.160	80.009	19.995	100.313	20.049	10.679	0.519
530.000	337.434	80.009	19.996	100.313	20.050	10.598	0.503
530.500	337.691	80.009	19.996	100.314	20.050	10.598	0.512
531.000	337.946	80.008	19.995	100.316	20.051	10.561	0.521
531.500	338.192	80.007	19.996	100.312	20.051	10.550	0.506
532.000	338.437	80.007	19.995	100.313	20.048	10.745	0.496
532.500	338.707	80.007	19.995	100.314	20.050	10.632	0.503
533.000	338.965	80.008	19.995	100.316	20.052	10.506	0.522
533.500	339.189	80.008	19.995	100.316	20.049	10.655	0.505
534.000	339.466	80.007	19.995	100.321	20.049	10.675	0.491
534.500	339.709	80.007	19.995	100.325	20.047	10.782	0.510
535.000	339.946	80.008	19.995	100.326	20.050	10.611	0.500
535.500	340.210	80.006	19.996	100.327	20.050	10.639	0.490
536.000	340.445	80.008	19.996	100.330	20.049	10.693	0.500
536.500	340.668	80.007	19.995	100.329	20.048	10.712	0.479
537.000	340.965	80.008	19.995	100.330	20.051	10.560	0.489
537.500	341.184	80.006	19.995	100.330	20.049	10.667	0.518
538.000	341.457	80.008	19.995	100.333	20.050	10.617	0.504
538.500	341.698	80.007	19.995	100.332	20.049	10.651	0.503
539.000	341.971	80.007	19.995	100.334	20.047	10.824	0.514
539.500	342.208	80.007	19.996	100.335	20.047	10.793	0.512
540.000	342.455	80.009	19.995	100.336	20.049	10.704	0.497
540.500	342.691	80.007	19.995	100.337	20.049	10.710	0.484
541.000	342.956	80.008	19.995	100.339	20.049	10.665	0.492
541.500	343.227	80.007	19.995	100.339	20.049	10.661	0.518
542.000	343.466	80.009	19.994	100.339	20.050	10.603	0.523
542.500	343.706	80.008	19.995	100.340	20.048	10.731	0.495
543.000	344.011	80.009	19.994	100.339	20.049	10.697	0.512
543.500	344.235	80.008	19.995	100.341	20.052	10.498	0.537
544.000	344.451	80.009	19.995	100.345	20.052	10.504	0.484
544.500	344.736	80.009	19.995	100.345	20.050	10.626	0.470
545.000	344.985	80.009	19.995	100.347	20.052	10.514	0.518
545.500	345.228	80.008	19.995	100.347	20.045	10.924	0.513
546.000	345.478	80.010	19.994	100.345	20.052	10.509	0.492
546.500	345.730	80.009	19.995	100.343	20.051	10.573	0.497
547.000	346.056	80.010	19.994	100.345	20.051	10.543	0.540
547.500	346.237	80.010	19.995	100.345	20.054	10.355	0.543
548.000	346.496	80.009	19.995	100.348	20.051	10.532	0.473
548.500	346.754	80.009	19.995	100.350	20.051	10.529	0.478
549.000	346.995	80.010	19.995	100.353	20.050	10.646	0.508
549.500	347.251	80.009	19.994	100.358	20.050	10.582	0.499
550.000	347.517	80.008	19.995	100.363	20.052	10.475	0.510
550.500	347.779	80.010	19.994	100.366	20.053	10.390	0.525
551.000	348.034	80.010	19.995	100.371	20.051	10.564	0.523
551.500	348.273	80.010	19.994	100.372	20.052	10.506	0.506
552.000	348.509	80.009	19.994	100.370	20.051	10.527	0.484
552.500	348.758	80.008	19.995	100.368	20.050	10.590	0.480
553.000	349.008	80.007	19.995	100.368	20.052	10.485	0.492
553.500	349.274	80.008	19.994	100.369	20.053	10.431	0.507
554.000	349.530	80.008	19.995	100.369	20.054	10.356	0.519
554.500	349.792	80.009	19.993	100.368	20.053	10.386	0.520
555.000	350.072	80.008	19.994	100.370	20.051	10.560	0.530
555.500	350.333	80.008	19.995	100.369	20.052	10.500	0.541
556.000	350.580	80.008	19.995	100.370	20.051	10.542	0.525
556.500	350.805	80.008	19.994	100.371	20.055	10.269	0.490
557.000	351.037	80.007	19.995	100.374	20.052	10.463	0.465
557.500	351.285	80.007	19.994	100.375	20.050	10.611	0.469
558.000	351.582	80.006	19.994	100.374	20.052	10.472	0.513
558.500	351.785	80.006	19.995	100.374	20.053	10.403	0.522
559.000	352.092	80.006	19.994	100.374	20.051	10.524	0.504
559.500	352.336	80.006	19.994	100.372	20.051	10.555	0.530
560.000	352.602	80.007	19.994	100.372	20.051	10.531	0.530
560.500	352.847	80.007	19.994	100.371	20.049	10.657	0.510
561.000	353.117	80.006	19.995	100.369	20.053	10.443	0.513
561.500	353.379	80.006	19.995	100.369	20.050	10.636	0.524
562.000	353.653	80.005	19.995	100.371	20.053	10.420	0.534
562.500	353.883	80.008	19.995	100.372	20.052	10.473	0.520
563.000	354.117	80.008	19.995	100.373	20.053	10.435	0.484
563.500	354.380	80.008	19.995	100.376	20.053	10.442	0.481
564.000	354.634	80.008	19.995	100.375	20.056	10.228	0.507
564.500	354.917	80.007	19.995	100.373	20.053	10.403	0.527
565.000	355.143	80.007	19.996	100.369	20.053	10.396	0.523
565.500	355.403	80.007	19.995	100.368	20.053	10.418	0.497
566.000	355.668	80.007	19.995	100.366	20.052	10.464	0.505
566.500	355.899	80.007	19.996	100.368	20.052	10.465	0.510
567.000	356.168	80.008	19.996	100.366	20.055	10.256	0.498
567.500	356.410	80.006	19.994	100.368	20.053	10.386	0.506
568.000	356.656	80.006	19.996	100.366	20.055	10.274	0.499
568.500	356.919	80.005	19.995	100.363	20.055	10.290	0.499
569.001	357.186	80.007	19.995	100.357	20.055	10.310	0.519
569.500	357.404	80.007	19.996	100.357	20.057	10.180	0.507
570.000	357.628	80.005	19.995	100.356	20.054	10.337	0.464
570.500	357.904	80.006	19.996	100.354	20.055	10.304	0.471
571.000	358.139	80.006	19.995	100.356	20.057	10.167	0.506
571.500	358.396	80.007	19.996	100.361	20.057	10.160	0.501
572.000	358.671	80.007	19.996	100.362	20.058	10.062	0.512
572.500	358.893	80.005	19.996	100.362	20.058	10.094	0.515
573.001	359.132	80.006	19.996	100.364	20.058	10.108	0.480
573.500	359.383	80.006	19.996	100.362	20.059	10.021	0.476
574.000	359.637	80.007	19.995	100.359	20.058	10.080	0.497
574.500	359.854	80.014	19.997	100.360	20.062	9.825	0.488
575.001	360.110	80.011	19.998	100.359	20.064	9.729	0.472
575.500	360.347	80.010	19.997	100.356	20.067	9.527	0.483
576.000	360.617	80.007	19.998	100.353	20.063	9.775	0.500
576.500	360.891	80.009	19.996	100.349	20.064	9.708	0.525
577.000	361.135	80.008	19.996	100.344	20.065	9.613	0.531
577.500	361.382	80.007	19.996	100.339	20.067	9.511	0.505
578.000	361.635	80.007	19.997	100.341	20.066	9.542	0.496
578.500	361.881	80.008	19.997	100.344	20.067	9.507	0.500
579.000	362.101	80.007	19.996	100.345	20.066	9.557	0.482
579.500	362.344	80.006	19.996	100.347	20.065	9.640	0.464
580.000	362.604	80.007	19.997	100.346	20.064	9.695	0.483
580.500	362.875	80.006	19.996	100.343	20.065	9.621	0.517
581.000	363.123	80.007	19.996	100.340	20.067	9.514	0.525
581.500	363.370	80.007	19.996	100.339	20.068	9.450	0.507
582.000	363.633	80.007	19.996	100.337	20.067	9.471	0.502
582.500	363.879	80.007	19.995	100.338	20.069	9.386	0.510
583.000	364.084	80.006	19.995	100.337	20.068	9.464	0.480
583.500	364.366	80.008	19.996	100.336	20.070	9.294	0.469
584.000	364.579	80.007	19.997	100.336	20.066	9.553	0.491
584.500	364.849	80.007	19.997	100.336	20.070	9.310	0.489
585.000	365.087	80.007	19.996	100.335	20.067	9.478	0.496
585.500	365.367	80.007	19.996	100.337	20.070	9.328	0.513
586.000	365.634	80.008	19.996	100.337	20.066	9.565	0.533
586.500	365.848	80.008	19.996	100.338	20.067	9.528	0.514
587.000	366.120	80.007	19.995	100.338	20.072	9.198	0.484
587.500	366.387	80.007	19.995	100.338	20.067	9.494	0.512
588.000	366.563	80.006	19.995	100.336	20.067	9.514	0.491
588.500	366.832	80.007	19.996	100.336	20.069	9.345	0.443
589.000	367.115	80.007	19.996	100.335	20.066	9.549	0.498
589.500	367.387	80.006	19.996	100.335	20.063	9.784	0.554
590.000	367.603	80.007	19.995	100.335	20.066	9.561	0.522
590.500	367.835	80.006	19.996	100.335	20.067	9.512	0.468
591.000	368.103	80.005	19.997	100.335	20.065	9.613	0.474
591.500	368.390	80.006	19.996	100.335	20.066	9.593	0.528
592.000	368.589	80.005	19.996	100.335	20.067	9.513	0.521
592.500	368.871	80.006	19.996	100.335	20.067	9.471	0.483
593.000	369.095	80.005	19.997	100.335	20.064	9.671	0.493
593.500	369.346	80.006	19.997	100.335	20.069	9.390	0.491
594.000	369.600	80.006	19.997	100.334	20.064	9.707	0.490
594.500	369.864	80.007	19.996	100.334	20.062	9.810	0.511
595.000	370.101	80.008	19.996	100.334	20.064	9.688	0.509
595.500	370.313	80.007	19.996	100.333	20.061	9.870	0.475
596.001	370.605	80.006	19.996	100.333	20.063	9.792	0.477
596.500	370.862	80.007	19.996	100.334	20.062	9.801	0.527
597.000	371.100	80.007	19.995	100.334	20.063	9.731	0.522
597.500	371.368	80.008	19.997	100.334	20.064	9.719	0.501
598.000	371.633	80.006	19.996	100.334	20.064	9.665	0.519
598.500	371.866	80.007	19.996	100.334	20.063	9.752	0.515
599.000	372.113	80.005	19.996	100.331	20.064	9.681	0.489
599.500	372.370	80.006	19.996	100.330	20.063	9.768	0.492
600.000	372.591	80.006	19.997	100.329	20.064	9.670	0.491
600.500	372.839	80.006	19.996	100.324	20.058	10.060	0.473
601.000	373.151	80.006	19.996	100.320	20.057	10.127	0.514
601.500	373.344	80.007	19.996	100.316	20.059	10.053	0.532
602.000	373.580	80.006	19.997	100.310	20.059	10.009	0.467
602.500	373.887	80.008	19.997	100.304	20.058	10.117	0.486
603.000	374.132	80.007	19.996	100.306	20.055	10.289	0.548
603.500	374.410	80.007	19.997	100.309	20.058	10.088	0.537
604.000	374.639	80.006	19.997	100.311	20.057	10.174	0.514
604.500	374.887	80.008	19.996	100.313	20.057	10.182	0.492
605.000	375.102	80.008	19.996	100.314	20.060	9.973	0.470
605.500	375.370	80.007	19.997	100.314	20.053	10.422	0.473
606.000	375.622	80.008	19.996	100.314	20.054	10.338	0.502
606.500	375.876	80.008	19.996	100.312	20.053	10.381	0.513
607.000	376.107	80.008	19.997	100.311	20.052	10.503	0.495
607.500	376.389	80.008	19.996	100.310	20.053	10.393	0.498
608.000	376.648	80.008	19.997	100.307	20.054	10.352	0.527
608.500	376.884	80.008	19.996	100.304	20.050	10.606	0.518
609.000	377.092	80.007	19.997	100.301	20.051	10.558	0.470
609.500	377.374	80.007	19.996	100.299	20.050	10.615	0.467
610.000	377.606	80.008	19.997	100.299	20.051	10.537	0.501
610.500	377.895	80.007	19.996	100.298	20.050	10.606	0.518
611.000	378.124	80.006	19.996	100.296	20.048	10.705	0.520
611.500	378.354	80.008	19.996	100.296	20.049	10.681	0.489
612.000	378.631	80.008	19.997	100.297	20.050	10.624	0.483
612.500	378.880	80.007	19.996	100.297	20.049	10.704	0.517
613.000	379.138	80.008	19.996	100.297	20.047	10.799	0.517
613.500	379.397	80.007	19.996	100.297	20.045	10.904	0.512
614.000	379.644	80.008	19.996	100.297	20.045	10.922	0.511
614.500	379.913	80.007	19.995	100.297	20.039	11.310	0.511
615.000	380.136	80.007	19.996	100.298	20.039	11.342	0.504
615.500	380.399	80.007	19.996	100.299	20.040	11.264	0.489
616.000	380.658	80.008	19.996	100.298	20.038	11.377	0.504
616.500	380.879	80.007	19.995	100.298	20.038	11.407	0.501
617.000	381.117	80.007	19.995	100.297	20.037	11.427	0.469
617.500	381.392	80.008	19.996	100.296	20.037	11.473	0.486
618.000	381.641	80.008	19.996	100.296	20.037	11.438	0.519
618.500	381.895	80.007	19.995	100.296	20.035	11.593	0.514
619.000	382.139	80.008	19.995	100.296	20.036	11.510	0.501
619.500	382.414	80.007	19.995	100.297	20.032	11.776	0.508
620.000	382.684	80.007	19.995	100.297	20.034	11.671	0.532
620.500	382.900	80.007	19.995	100.298	20.029	11.955	0.516
621.001	383.153	80.007	19.994	100.298	20.033	11.734	0.477
621.500	383.387	80.005	19.995	100.299	20.027	12.090	0.478
622.000	383.638	80.007	19.994	100.299	20.028	12.028	0.486
622.500	383.909	80.007	19.995	100.300	20.026	12.154	0.504
623.000	384.128	80.008	19.995	100.300	20.027	12.104	0.506
623.500	384.421	80.008	19.995	100.300	20.025	12.257	0.501
624.000	384.669	80.009	19.996	100.299	20.024	12.302	0.526
624.500	384.923	80.008	19.995	100.299	20.024	12.321	0.522
625.000	385.198	80.009	19.995	100.299	20.023	12.380	0.515
625.500	385.417	80.008	19.994	100.298	20.021	12.502	0.512
626.000	385.704	80.008	19.995	100.298	20.021	12.488	0.500
626.500	385.947	80.010	19.995	100.298	20.018	12.681	0.518
627.000	386.182	80.008	19.995	100.298	20.020	12.589	0.504
627.500	386.411	80.008	19.995	100.298	20.015	12.863	0.471
628.000	386.671	80.010	19.995	100.299	20.016	12.822	0.476
628.500	386.881	80.008	19.996	100.299	20.013	12.996	0.479
629.000	387.174	80.009	19.995	100.298	20.011	13.116	0.487
629.500	387.423	80.010	19.994	100.298	20.010	13.199	0.523
630.000	387.668	80.010	19.995	100.297	20.010	13.224	0.518
630.500	387.927	80.008	19.995	100.296	20.008	13.368	0.499
631.000	388.175	80.009	19.995	100.295	20.002	13.730	0.506
631.500	388.429	80.009	19.996	100.293	20.004	13.569	0.505
632.000	388.676	80.009	19.995	100.290	20.004	13.587	0.502
632.500	388.931	80.011	19.995	100.288	20.000	13.847	0.501
633.000	389.194	80.009	19.994	100.287	19.998	13.999	0.510
633.500	389.443	80.010	19.995	100.285	19.999	13.900	0.515
634.000	389.684	80.009	19.995	100.285	19.997	14.030	0.502
634.500	389.912	80.009	19.996	100.288	19.997	14.051	0.479
635.000	390.176	80.009	19.995	100.290	19.995	14.166	0.480
635.500	390.424	80.008	19.995	100.291	19.993	14.307	0.502
636.000	390.668	80.009	19.995	100.293	19.990	14.518	0.503
636.500	390.891	80.008	19.995	100.293	19.988	14.625	0.480
637.000	391.132	80.008	19.995	100.293	19.987	14.731	0.465
637.500	391.419	80.008	19.995	100.292	19.985	14.845	0.496
638.000	391.666	80.007	19.994	100.288	19.982	15.024	0.531
638.500	391.934	80.006	19.995	100.288	19.985	14.839	0.524
639.000	392.169	80.007	19.996	100.287	19.982	15.005	0.509
639.500	392.426	80.007	19.994	100.285	19.982	15.059	0.498
640.000	392.675	80.005	19.997	100.283	19.979	15.241	0.499
640.500	392.895	80.007	19.996	100.284	19.978	15.312	0.488
641.000	393.176	80.006	19.996	100.282	19.974	15.558	0.485
641.500	393.437	80.007	19.996	100.283	19.973	15.613	0.521
642.000	393.653	80.005	19.996	100.285	19.970	15.811	0.510
642.500	393.909	80.006	19.996	100.289	19.971	15.751	0.475
643.001	394.199	80.007	19.996	100.289	19.965	16.138	0.508
643.500	394.411	80.006	19.996	100.287	19.967	16.005	0.524
644.000	394.647	80.007	19.996	100.287	19.963	16.243	0.476
644.500	394.883	80.008	19.996	100.284	19.963	16.249	0.460
645.000	395.119	80.007	19.995	100.279	19.959	16.522	0.472
645.500	395.392	80.008	19.995	100.274	19.956	16.745	0.491
646.000	395.649	80.005	19.995	100.272	19.956	16.724	0.519
646.500	395.880	80.007	19.996	100.272	19.952	16.945	0.509
647.000	396.139	80.006	19.995	100.273	19.953	16.941	0.489
647.500	396.362	80.008	19.995	100.276	19.949	17.196	0.486
648.000	396.638	80.007	19.995	100.283	19.946	17.360	0.491
648.500	396.881	80.007	19.994	100.287	19.945	17.431	0.509
649.000	397.112	80.006	19.995	100.287	19.941	17.665	0.496
649.500	397.378	80.008	19.995	100.283	19.937	17.924	0.486
650.000	397.570	80.007	19.995	100.278	19.937	17.945	0.478
650.500	397.859	80.007	19.995	100.272	19.936	18.017	0.469
651.000	398.085	80.007	19.995	100.271	19.932	18.283	0.498
651.500	398.345	80.008	19.995	100.270	19.933	18.187	0.500
652.000	398.579	80.007	19.995	100.270	19.932	18.267	0.490
652.500	398.832	80.006	19.995	100.270	19.925	18.733	0.491
653.000	399.089	80.008	19.995	100.269	19.922	18.922	0.498
653.500	399.325	80.008	19.995	100.264	19.921	18.987	0.502
654.000	399.579	80.008	19.995	100.260	19.923	18.845	0.491
654.500	399.802	80.008	19.995	100.260	19.920	19.073	0.483
655.000	400.044	80.008	19.995	100.261	19.915	19.357	0.472
655.500	400.311	80.008	19.994	100.265	19.914	19.456	0.487
656.000	400.525	80.008	19.995	100.267	19.912	19.584	0.495
656.500	400.802	80.009	19.994	100.267	19.909	19.750	0.486
657.001	401.010	80.009	19.996	100.265	19.905	20.060	0.488
657.500	401.272	80.007	19.995	100.265	19.902	20.198	0.477
658.000	401.520	80.008	19.995	100.262	19.903	20.180	0.490
658.500	401.769	80.008	19.996	100.259	19.898	20.516	0.504
659.000	402.014	80.008	19.996	100.258	19.894	20.758	0.495
659.500	402.236	80.010	19.995	100.259	19.892	20.853	0.480
660.000	402.495	80.007	19.995	100.260	19.889	21.068	0.474
660.500	402.734	80.008	19.995	100.259	19.884	21.410	0.490
661.000	402.984	80.008	19.995	100.259	19.881	21.581	0.493
661.500	403.222	80.006	19.996	100.262	19.880	21.650	0.489
662.001	403.463	80.006	19.995	100.264	19.880	21.635	0.484
662.501	403.720	80.008	19.995	100.264	19.872	22.169	0.489
663.000	403.957	80.008	19.995	100.267	19.871	22.218	0.495
663.500	404.192	80.008	19.995	100.272	19.868	22.465	0.483
664.000	404.441	80.008	19.995	100.270	19.864	22.705	0.478
664.500	404.698	80.008	19.995	100.267	19.862	22.857	0.495
665.000	404.965	80.008	19.994	100.266	19.856	23.231	0.515
665.500	405.187	80.008	19.995	100.264	19.854	23.320	0.507
666.000	405.424	80.007	19.995	100.264	19.848	23.744	0.474
666.500	405.667	80.007	19.995	100.266	19.847	23.808	0.469
667.000	405.921	80.006	19.994	100.265	19.841	24.182	0.488
667.500	406.160	80.006	19.996	100.265	19.840	24.250	0.495
668.000	406.419	80.006	19.996	100.264	19.835	24.614	0.496
668.500	406.674	80.005	19.996	100.260	19.833	24.721	0.506
669.000	406.932	80.006	19.995	100.259	19.829	25.000	0.513
669.500	407.153	80.006	19.995	100.259	19.828	25.052	0.496
670.000	407.405	80.007	19.995	100.260	19.821	25.521	0.476
670.500	407.634	80.005	19.995	100.260	19.816	25.813	0.477
671.000	407.887	80.007	19.995	100.262	19.815	25.884	0.482
671.500	408.151	80.004	19.995	100.263	19.811	26.127	0.499
672.000	408.406	80.007	19.996	100.263	19.802	26.739	0.518
672.500	408.634	80.008	19.995	100.263	19.800	26.874	0.502
673.000	408.883	80.006	19.995	100.263	19.797	27.038	0.480
673.500	409.148	80.006	19.996	100.262	19.790	27.480	0.495
674.000	409.363	80.006	19.995	100.262	19.789	27.557	0.497
674.500	409.612	80.007	19.997	100.265	19.787	27.710	0.472
675.000	409.834	80.005	19.996	100.266	19.782	28.055	0.468
675.500	410.121	80.005	19.996	100.267	19.778	28.268	0.490
676.000	410.394	80.006	19.996	100.267	19.772	28.657	0.535
676.500	410.647	80.006	19.996	100.266	19.768	28.962	0.543
677.000	410.898	80.006	19.996	100.268	19.765	29.121	0.515
677.500	411.124	80.007	19.996	100.269	19.758	29.585	0.490
678.000	411.335	80.006	19.996	100.270	19.753	29.927	0.457
678.500	411.615	80.007	19.996	100.272	19.750	30.105	0.464
679.000	411.807	80.007	19.996	100.275	19.748	30.274	0.481
679.500	412.102	80.007	19.996	100.272	19.742	30.617	0.480
680.000	412.332	80.007	19.995	100.270	19.739	30.850	0.506
680.500	412.603	80.007	19.997	100.269	19.732	31.316	0.513
681.000	412.815	80.008	19.996	100.266	19.724	31.791	0.492
681.500	413.075	80.008	19.996	100.266	19.721	32.013	0.477
682.000	413.311	80.008	19.995	100.267	19.715	32.402	0.484
682.500	413.562	80.008	19.995	100.267	19.711	32.671	0.492
683.000	413.810	80.007	19.996	100.268	19.706	33.003	0.493
683.500	414.039	80.007	19.996	100.269	19.700	33.379	0.488
684.000	414.279	80.007	19.996	100.267	19.693	33.845	0.473
684.500	414.516	80.008	19.995	100.265	19.688	34.132	0.472
685.000	414.820	80.008	19.996	100.265	19.680	34.651	0.509
685.500	415.047	80.007	19.996	100.263	19.674	35.054	0.536
686.000	415.240	80.007	19.995	100.261	19.671	35.250	0.476
686.500	415.523	80.009	19.995	100.261	19.668	35.414	0.448
687.000	415.829	80.009	19.995	100.260	19.661	35.920	0.532
687.500	416.017	80.009	19.996	100.260	19.658	36.099	0.542
688.000	416.273	80.007	19.995	100.262	19.652	36.517	0.469
688.500	416.574	80.009	19.995	100.263	19.646	36.845	0.500
689.000	416.800	80.008	19.995	100.264	19.639	37.353	0.542
689.500	417.032	80.010	19.995	100.266	19.633	37.744	0.493
690.000	417.305	80.008	19.995	100.267	19.626	38.156	0.481
690.500	417.529	80.007	19.995	100.265	19.619	38.605	0.501
691.000	417.816	80.008	19.995	100.267	19.614	38.930	0.504
691.500	418.049	80.005	19.995	100.267	19.611	39.181	0.515
692.001	418.286	80.010	19.994	100.266	19.602	39.734	0.495
692.500	418.548	80.008	19.996	100.268	19.598	40.021	0.484
693.000	418.777	80.006	19.995	100.268	19.591	40.462	0.495
693.500	419.051	80.009	19.995	100.266	19.587	40.733	0.497
694.000	419.286	80.008	19.995	100.269	19.579	41.219	0.507
694.500	419.533	80.009	19.995	100.268	19.574	41.587	0.495
695.000	419.772	80.010	19.995	100.269	19.568	41.946	0.483
695.500	420.081	80.008	19.996	100.269	19.562	42.336	0.517
696.000	420.313	80.008	19.996	100.268	19.554	42.855	0.545
696.500	420.571	80.009	19.995	100.264	19.549	43.154	0.516
697.000	420.780	80.009	19.996	100.263	19.541	43.709	0.478
697.500	421.075	80.008	19.996	100.261	19.537	43.980	0.485
698.000	421.331	80.010	19.997	100.263	19.532	44.272	0.527
698.500	421.559	80.008	19.996	100.263	19.525	44.736	0.518
699.000	421.804	80.008	19.996	100.263	19.522	44.947	0.479
699.500	422.049	80.008	19.996	100.261	19.515	45.401	0.481
700.000	422.299	80.009	19.996	100.262	19.511	45.635	0.492
700.500	422.563	80.008	19.997	100.258	19.500	46.383	0.505
701.000	422.806	80.009	19.996	100.258	19.494	46.727	0.511
701.501	423.069	80.008	19.997	100.259	19.491	46.972	0.506
702.000	423.327	80.009	19.996	100.261	19.485	47.362	0.513
702.500	423.594	80.009	19.997	100.259	19.476	47.931	0.523
703.000	423.829	80.008	19.996	100.259	19.471	48.233	0.513
703.500	424.045	80.008	19.996	100.259	19.470	48.291	0.476
704.000	424.317	80.010	19.997	100.259	19.463	48.783	0.470
704.500	424.563	80.006	19.996	100.258	19.458	49.070	0.503
705.000	424.805	80.010	19.996	100.258	19.452	49.476	0.503
705.500	425.073	80.009	19.996	100.258	19.446	49.888	0.500
706.000	425.290	80.008	19.997	100.257	19.442	50.153	0.498
706.500	425.601	80.007	19.997	100.256	19.436	50.550	0.506
707.000	425.841	80.010	19.997	100.257	19.430	50.952	0.539
707.500	426.072	80.007	19.997	100.255	19.427	51.142	0.511
708.000	426.327	80.005	19.997	100.255	19.419	51.668	0.478
708.500	426.558	80.009	19.996	100.256	19.414	51.939	0.486
709.000	426.814	80.008	19.996	100.255	19.408	52.380	0.487
709.500	427.079	80.007	19.997	100.254	19.403	52.655	0.504
710.000	427.346	80.011	19.996	100.255	19.398	52.992	0.527
710.500	427.584	80.005	19.997	100.255	19.394	53.232	0.519
711.000	427.801	80.008	19.996	100.255	19.387	53.715	0.480
711.500	428.117	80.009	19.996	100.257	19.380	54.168	0.494
712.000	428.354	80.009	19.996	100.257	19.378	54.317	0.543
712.500	428.602	80.009	19.996	100.257	19.370	54.808	0.519
713.000	428.873	80.010	19.995	100.258	19.365	55.171	0.502
713.500	429.126	80.007	19.997	100.257	19.363	55.259	0.521
714.000	429.408	80.010	19.996	100.256	19.354	55.839	0.529
714.500	429.642	80.008	19.996	100.256	19.351	56.048	0.526
715.000	429.880	80.014	19.995	100.255	19.345	56.431	0.495
715.500	430.111	80.008	19.997	100.254	19.337	56.975	0.471
716.000	430.380	80.012	19.995	100.254	19.331	57.369	0.484
716.500	430.641	80.010	19.995	100.253	19.326	57.712	0.515
717.000	430.863	80.012	19.995	100.254	19.320	58.047	0.506
717.500	431.163	80.010	19.995	100.255	19.317	58.298	0.502
718.000	431.439	80.010	19.994	100.255	19.312	58.594	0.549
718.500	431.669	80.010	19.995	100.255	19.309	58.811	0.541
719.000	431.928	80.012	19.995	100.256	19.301	59.311	0.498
719.500	432.175	80.010	19.995	100.255	19.293	59.815	0.497
720.000	432.448	80.011	19.995	100.254	19.292	59.876	0.513
720.500	432.682	80.010	19.995	100.255	19.291	59.959	0.514
721.000	432.940	80.008	19.995	100.254	19.287	60.244	0.500
721.500	433.223	80.009	19.996	100.254	19.283	60.464	0.516
722.000	433.462	80.010	19.995	100.254	19.277	60.870	0.531
722.500	433.739	80.009	19.995	100.254	19.274	61.080	0.519
723.000	434.020	80.007	19.995	100.254	19.269	61.393	0.537
723.500	434.270	80.010	19.995	100.254	19.269	61.416	0.544
724.000	434.525	80.009	19.994	100.254	19.265	61.622	0.518
724.500	434.793	80.008	19.995	100.253	19.260	61.989	0.514
725.000	435.031	80.007	19.995	100.254	19.258	62.119	0.515
725.500	435.321	80.008	19.996	100.254	19.255	62.290	0.517
726.000	435.575	80.008	19.996	100.255	19.255	62.324	0.536
726.500	435.781	80.010	19.996	100.255	19.248	62.743	0.502
727.000	436.018	80.010	19.995	100.255	19.246	62.872	0.452
727.500	436.305	80.010	19.995	100.255	19.248	62.756	0.484
728.000	436.590	80.006	19.995	100.255	19.243	63.084	0.548
728.501	436.797	80.008	19.995	100.254	19.242	63.108	0.532
729.000	437.079	80.007	19.995	100.254	19.243	63.103	0.491
729.500	437.302	80.009	19.995	100.253	19.241	63.167	0.497
730.000	437.558	80.007	19.995	100.252	19.236	63.492	0.492
730.500	437.841	80.008	19.995	100.252	19.240	63.276	0.509
731.000	438.044	80.008	19.995	100.252	19.236	63.516	0.513
731.500	438.300	80.006	19.995	100.252	19.239	63.362	0.472
732.000	438.567	80.007	19.996	100.254	19.239	63.341	0.491
732.500	438.845	80.008	19.994	100.254	19.237	63.472	0.534
733.000	439.076	80.006	19.996	100.256	19.237	63.494	0.527
733.500	439.331	80.007	19.995	100.254	19.240	63.301	0.497
734.000	439.554	80.006	19.996	100.250	19.240	63.265	0.482
734.500	439.833	80.005	19.996	100.247	19.237	63.444	0.490
735.000	440.071	80.006	19.996	100.244	19.240	63.255	0.509
735.500	440.363	80.010	19.995	100.239	19.241	63.188	0.523
736.000	440.590	80.005	19.995	100.238	19.244	62.986	0.524
736.500	440.834	80.011	19.995	100.240	19.242	63.169	0.495
737.000	441.112	80.007	19.996	100.243	19.244	62.997	0.496
737.500	441.365	80.007	19.995	100.244	19.246	62.903	0.526
738.000	441.617	80.010	19.996	100.245	19.250	62.615	0.518
738.500	441.860	80.007	19.995	100.245	19.253	62.462	0.500
739.000	442.071	80.009	19.996	100.246	19.253	62.426	0.475
739.500	442.370	80.011	19.996	100.241	19.255	62.317	0.482
740.000	442.633	80.006	19.997	100.238	19.261	61.903	0.536
740.500	442.862	80.007	19.995	100.236	19.264	61.682	0.527
741.000	443.115	80.007	19.995	100.235	19.266	61.609	0.487
741.500	443.358	80.008	19.996	100.235	19.266	61.579	0.489
742.000	443.609	80.009	19.996	100.239	19.269	61.381	0.495
742.500	443.878	80.008	19.996	100.242	19.268	61.474	0.507
743.000	444.134	80.007	19.995	100.246	19.269	61.365	0.522
743.500	444.403	80.008	19.996	100.251	19.273	61.116	0.525
744.000	444.647	80.009	19.995	100.254	19.274	61.035	0.519
744.500	444.917	80.006	19.995	100.255	19.276	60.937	0.513
745.000	445.152	80.008	19.996	100.256	19.275	60.971	0.509
745.500	445.379	80.004	19.995	100.258	19.274	61.039	0.483
746.000	445.653	80.010	19.995	100.258	19.275	61.001	0.482
746.500	445.899	80.007	19.995	100.258	19.274	61.032	0.511
747.000	446.166	80.008	19.995	100.259	19.277	60.885	0.516
747.500	446.431	80.008	19.995	100.260	19.274	61.096	0.522
748.000	446.624	80.008	19.995	100.259	19.272	61.184	0.495
748.500	446.920	80.008	19.995	100.259	19.273	61.152	0.473
749.000	447.177	80.007	19.995	100.257	19.272	61.168	0.521
749.500	447.460	80.009	19.995	100.257	19.271	61.276	0.547
750.000	447.717	80.007	19.995	100.255	19.272	61.203	0.540
750.500	447.918	80.007	19.995	100.251	19.267	61.528	0.499
751.000	448.170	80.008	19.995	100.249	19.268	61.455	0.456
751.500	448.448	80.006	19.995	100.250	19.266	61.586	0.492
752.000	448.729	80.006	19.994	100.249	19.264	61.708	0.545
752.500	448.940	80.006	19.994	100.250	19.267	61.552	0.525
753.000	449.244	80.009	19.996	100.254	19.266	61.567	0.503
753.500	449.442	80.007	19.995	100.257	19.266	61.580	0.508
754.000	449.702	80.007	19.994	100.256	19.264	61.691	0.480
754.500	449.956	80.007	19.996	100.255	19.266	61.599	0.486
755.000	450.215	80.004	19.995	100.252	19.265	61.637	0.514
755.500	450.459	80.007	19.994	100.252	19.262	61.827	0.508
756.000	450.744	80.007	19.995	100.252	19.265	61.629	0.516
756.500	450.948	80.007	19.996	100.253	19.264	61.685	0.509
757.000	451.248	80.009	19.995	100.252	19.266	61.594	0.497
757.500	451.479	80.005	19.995	100.253	19.265	61.656	0.518
758.000	451.719	80.007	19.995	100.254	19.264	61.667	0.501
758.500	452.017	80.009	19.994	100.254	19.265	61.621	0.504
759.000	452.247	80.008	19.995	100.251	19.267	61.519	0.533
759.500	452.500	80.008	19.996	100.249	19.264	61.712	0.506
760.000	452.751	80.008	19.996	100.252	19.263	61.780	0.493
760.500	453.035	80.008	19.994	100.252	19.263	61.767	0.520
761.000	453.273	80.006	19.996	100.252	19.265	61.596	0.529
761.500	453.533	80.009	19.995	100.257	19.264	61.708	0.510
762.000	453.791	80.007	19.997	100.261	19.266	61.565	0.507
762.500	454.061	80.008	19.995	100.261	19.267	61.500	0.523
763.000	454.263	80.008	19.996	100.260	19.269	61.357	0.500
763.500	454.507	80.009	19.996	100.255	19.268	61.474	0.459
764.000	454.750	80.005	19.996	100.250	19.269	61.392	0.467
764.500	455.039	80.008	19.995	100.246	19.269	61.415	0.510
765.000	455.310	80.012	19.996	100.244	19.274	61.094	0.546
765.500	455.548	80.011	19.996	100.243	19.277	60.866	0.535
766.000	455.834	80.008	19.997	100.246	19.282	60.586	0.517
766.500	456.058	80.013	19.997	100.243	19.284	60.425	0.517
767.000	456.282	80.007	19.996	100.241	19.291	59.958	0.479
767.500	456.584	80.008	19.997	100.235	19.299	59.462	0.487
768.000	456.853	80.009	19.996	100.228	19.303	59.170	0.549
768.500	457.109	80.009	19.996	100.222	19.316	58.352	0.548
769.000	457.363	80.008	19.996	100.222	19.327	57.597	0.518
769.500	457.633	80.011	19.996	100.226	19.334	57.165	0.517
770.000	457.895	80.009	19.997	100.224	19.340	56.754	0.528
770.500	458.178	80.004	19.996	100.216	19.349	56.139	0.538
771.000	458.409	80.011	19.996	100.208	19.356	55.679	0.530
771.500	458.695	80.012	19.996	100.204	19.362	55.286	0.516
772.000	458.944	80.009	19.997	100.197	19.361	55.350	0.526
772.500	459.201	80.009	19.997	100.200	19.364	55.152	0.521
773.000	459.444	80.009	19.995	100.210	19.363	55.268	0.503
773.500	459.675	80.011	19.996	100.223	19.366	55.029	0.487
774.000	459.971	80.012	19.996	100.232	19.370	54.796	0.500
774.500	460.212	80.011	19.996	100.240	19.366	55.052	0.532
775.000	460.472	80.011	19.996	100.252	19.368	54.930	0.519
775.500	460.730	80.007	19.997	100.263	19.373	54.619	0.509
776.000	460.993	80.010	19.995	100.273	19.375	54.500	0.520
776.500	461.253	80.007	19.996	100.281	19.380	54.177	0.522
777.000	461.525	80.015	19.997	100.287	19.383	53.953	0.528
777.500	461.756	80.010	19.996	100.284	19.382	54.017	0.517
778.000	461.967	80.007	19.995	100.277	19.389	53.607	0.472
778.500	462.275	80.006	19.997	100.269	19.391	53.419	0.480
779.000	462.507	80.008	19.996	100.256	19.395	53.195	0.529
779.500	462.792	80.008	19.996	100.244	19.403	52.699	0.529
780.000	463.057	80.008	19.997	100.231	19.409	52.245	0.534
780.500	463.295	80.007	19.997	100.222	19.418	51.695	0.526
781.000	463.574	80.009	19.996	100.212	19.423	51.354	0.510
781.500	463.778	80.009	19.995	100.199	19.432	50.772	0.500
782.000	464.065	80.010	19.996	100.186	19.439	50.327	0.487
782.500	464.346	80.011	19.996	100.183	19.444	49.991	0.529
783.000	464.585	80.008	19.996	100.181	19.444	49.993	0.545
783.500	464.824	80.007	19.996	100.185	19.447	49.762	0.500
784.000	465.053	80.008	19.996	100.195	19.451	49.548	0.473
784.500	465.325	80.005	19.996	100.210	19.452	49.444	0.484
785.000	465.606	80.009	19.997	100.222	19.458	49.050	0.527
785.500	465.858	80.009	19.995	100.231	19.464	48.704	0.544
786.000	466.089	80.012	19.996	100.238	19.471	48.240	0.509
786.500	466.349	80.007	19.996	100.246	19.476	47.891	0.487
787.000	466.636	80.009	19.995	100.249	19.479	47.717	0.519
787.500	466.889	80.006	19.996	100.245	19.486	47.246	0.544
788.000	467.157	80.009	19.995	100.244	19.490	46.989	0.531
788.500	467.395	80.006	19.997	100.244	19.492	46.886	0.513
789.000	467.646	80.008	19.996	100.243	19.495	46.637	0.497
789.500	467.913	80.008	19.996	100.244	19.499	46.417	0.504
790.000	468.139	80.007	19.996	100.244	19.503	46.147	0.505
790.500	468.425	80.011	19.996	100.240	19.509	45.740	0.503
791.000	468.692	80.007	19.996	100.232	19.513	45.493	0.533
791.500	468.969	80.010	19.997	100.224	19.517	45.258	0.548
792.000	469.187	80.010	19.996	100.217	19.522	44.881	0.519
792.500	469.444	80.011	19.996	100.215	19.528	44.501	0.485
793.000	469.708	80.010	19.995	100.209	19.534	44.155	0.499
793.500	469.989	80.010	19.996	100.208	19.537	43.941	0.533
794.000	470.221	80.009	19.996	100.208	19.539	43.821	0.528
794.500	470.478	80.011	19.996	100.209	19.543	43.540	0.501
795.000	470.772	80.011	19.995	100.210	19.546	43.373	0.520
795.500	471.033	80.010	19.996	100.214	19.549	43.191	0.552
796.000	471.234	80.011	19.996	100.216	19.556	42.724	0.508
796.500	471.495	80.013	19.996	100.216	19.560	42.459	0.462
797.001	471.779	80.012	19.996	100.216	19.567	42.001	0.503
797.501	472.032	80.011	19.995	100.216	19.574	41.534	0.541
798.000	472.313	80.011	19.996	100.216	19.588	40.648	0.536
798.500	472.550	80.011	19.996	100.216	19.599	39.950	0.526
799.000	472.817	80.009	19.996	100.214	19.612	39.103	0.511
799.500	473.071	80.006	19.996	100.205	19.625	38.202	0.513
800.000	473.337	80.006	19.996	100.197	19.640	37.234	0.521
800.500	473.601	80.011	19.996	100.189	19.650	36.609	0.525
801.000	473.875	80.009	19.996	100.181	19.658	36.044	0.534
801.500	474.134	80.008	19.997	100.176	19.665	35.582	0.536
802.000	474.417	80.008	19.997	100.177	19.673	35.093	0.538
802.500	474.662	80.010	19.996	100.178	19.675	34.961	0.535
803.000	474.886	80.010	19.997	100.183	19.679	34.716	0.498
803.500	475.125	80.009	19.996	100.188	19.682	34.513	0.466
804.000	475.430	80.008	19.997	100.195	19.683	34.423	0.503
804.500	475.684	80.009	19.996	100.208	19.686	34.229	0.552
805.000	475.943	80.009	19.996	100.224	19.686	34.283	0.536
805.500	476.187	80.011	19.996	100.237	19.686	34.291	0.508
806.000	476.446	80.009	19.997	100.252	19.688	34.138	0.502
806.500	476.698	80.007	19.997	100.266	19.690	33.988	0.507
807.000	476.968	80.005	19.997	100.272	19.695	33.652	0.517
807.500	477.223	80.008	19.996	100.274	19.699	33.399	0.524
808.000	477.469	80.011	19.995	100.273	19.700	33.335	0.513
808.500	477.692	80.010	19.996	100.267	19.706	32.961	0.485
809.000	477.953	80.009	19.996	100.253	19.709	32.791	0.476
809.500	478.248	80.011	19.995	100.241	19.714	32.472	0.520
810.000	478.493	80.008	19.996	100.226	19.718	32.176	0.548
810.500	478.738	80.006	19.996	100.211	19.722	31.921	0.515
811.001	479.010	80.011	19.995	100.197	19.727	31.595	0.503
811.500	479.266	80.011	19.995	100.189	19.730	31.383	0.522
812.000	479.534	80.004	19.996	100.182	19.740	30.731	0.526
812.500	479.775	80.007	19.996	100.179	19.743	30.551	0.516
813.000	480.006	80.003	19.996	100.179	19.747	30.314	0.491
813.500	480.265	80.008	19.996	100.179	19.753	29.903	0.481
814.000	480.506	80.009	19.996	100.180	19.760	29.421	0.495
814.500	480.793	80.004	19.996	100.184	19.763	29.265	0.514
815.000	481.028	80.006	19.996	100.191	19.766	29.071	0.526
815.500	481.292	80.007	19.996	100.199	19.770	28.769	0.511
816.000	481.599	80.008	19.996	100.207	19.771	28.709	0.535
816.500	481.844	80.006	19.995	100.215	19.775	28.445	0.561
817.000	482.070	80.006	19.995	100.219	19.775	28.493	0.512
817.500	482.316	80.010	19.995	100.219	19.781	28.052	0.471
818.000	482.587	80.008	19.994	100.220	19.782	28.014	0.494
818.500	482.842	80.009	19.996	100.220	19.783	27.970	0.521
819.000	483.082	80.004	19.996	100.220	19.785	27.796	0.511
819.500	483.330	80.008	19.995	100.220	19.787	27.695	0.491
820.000	483.589	80.007	19.995	100.220	19.787	27.716	0.498
820.500	483.866	80.005	19.995	100.220	19.790	27.518	0.522
821.001	484.131	80.007	19.995	100.220	19.791	27.411	0.539
821.500	484.396	80.007	19.995	100.220	19.794	27.257	0.536
822.000	484.631	80.008	19.996	100.221	19.797	27.016	0.515
822.500	484.906	80.008	19.995	100.221	19.803	26.676	0.505
823.000	485.167	80.005	19.995	100.219	19.810	26.211	0.522
823.500	485.455	80.005	19.995	100.216	19.816	25.814	0.542
824.000	485.703	80.007	19.995	100.208	19.820	25.551	0.543
824.500	485.963	80.004	19.995	100.200	19.826	25.158	0.522
825.000	486.206	80.007	19.995	100.192	19.834	24.602	0.506
825.500	486.475	80.010	19.994	100.186	19.841	24.185	0.507
826.000	486.722	80.006	19.995	100.182	19.841	24.191	0.514
826.500	486.973	80.006	19.994	100.182	19.844	23.955	0.507
827.000	487.244	80.009	19.995	100.185	19.849	23.627	0.510
827.500	487.471	80.005	19.996	100.191	19.851	23.511	0.510
828.000	487.761	80.010	19.995	100.198	19.854	23.344	0.507
828.501	488.018	80.007	19.995	100.206	19.858	23.099	0.532
829.000	488.282	80.009	19.994	100.214	19.863	22.756	0.534
829.500	488.534	80.010	19.995	100.215	19.867	22.499	0.519
830.000	488.825	80.010	19.995	100.214	19.867	22.462	0.530
830.500	489.071	80.004	19.996	100.215	19.872	22.168	0.540
831.000	489.342	80.006	19.995	100.215	19.875	21.970	0.527
831.500	489.587	80.010	19.995	100.215	19.877	21.848	0.516
832.000	489.824	80.007	19.996	100.217	19.884	21.372	0.498
832.500	490.079	80.007	19.996	100.219	19.886	21.273	0.487
833.000	490.334	80.008	19.995	100.219	19.888	21.111	0.501
833.500	490.563	80.008	19.996	100.218	19.892	20.881	0.497
834.000	490.855	80.010	19.995	100.217	19.895	20.663	0.502
834.500	491.116	80.007	19.996	100.214	19.897	20.530	0.537
835.000	491.380	80.005	19.996	100.206	19.904	20.112	0.539
835.500	491.612	80.010	19.996	100.198	19.903	20.154	0.510
836.000	491.862	80.007	19.995	100.192	19.907	19.891	0.489
836.500	492.132	80.005	19.996	100.186	19.910	19.709	0.501
837.000	492.394	80.006	19.996	100.183	19.915	19.402	0.526
837.501	492.638	80.007	19.995	100.189	19.918	19.151	0.519
838.000	492.918	80.008	19.995	100.196	19.923	18.838	0.515
838.500	493.169	80.005	19.997	100.200	19.924	18.807	0.527
839.000	493.440	80.003	19.996	100.202	19.931	18.304	0.526
839.500	493.715	80.005	19.995	100.208	19.933	18.173	0.534
840.001	493.973	80.010	19.996	100.205	19.939	17.805	0.539
840.501	494.226	80.006	19.995	100.202	19.939	17.835	0.522
841.000	494.466	80.007	19.996	100.203	19.943	17.539	0.502
841.500	494.729	80.009	19.996	100.205	19.948	17.254	0.498
842.000	495.009	80.008	19.995	100.205	19.950	17.071	0.523
842.500	495.283	80.006	19.996	100.206	19.957	16.646	0.549
843.000	495.531	80.011	19.995	100.206	19.958	16.583	0.538
843.500	495.760	80.009	19.996	100.207	19.960	16.425	0.499
844.000	496.031	80.008	19.995	100.207	19.963	16.249	0.488
844.500	496.317	80.006	19.995	100.204	19.968	15.941	0.529
845.000	496.570	80.008	19.995	100.206	19.970	15.797	0.548
845.500	496.804	80.004	19.996	100.206	19.970	15.805	0.513
846.000	497.067	80.007	19.996	100.204	19.978	15.295	0.492
846.500	497.315	80.006	19.996	100.202	19.978	15.303	0.504
847.000	497.604	80.006	19.994	100.206	19.979	15.217	0.524
847.500	497.853	80.008	19.995	100.209	19.982	15.046	0.538
848.000	498.073	80.006	19.996	100.212	19.982	15.049	0.504
848.500	498.332	80.009	19.994	100.214	19.986	14.765	0.474
849.000	498.597	80.009	19.995	100.217	19.988	14.613	0.501
849.500	498.849	80.007	19.995	100.217	19.989	14.536	0.521
850.000	499.110	80.010	19.995	100.217	19.995	14.171	0.515
850.500	499.328	80.008	19.995	100.217	19.995	14.145	0.496
851.000	499.609	80.010	19.994	100.217	19.999	13.943	0.489
851.500	499.900	80.009	19.995	100.217	20.002	13.721	0.536
852.000	500.117	80.011	19.994	100.214	20.006	13.480	0.540
852.500	500.392	80.011	19.995	100.209	20.009	13.264	0.500
853.000	500.626	80.006	19.995	100.206	20.010	13.176	0.501
853.500	500.882	80.010	19.995	100.204	20.014	12.937	0.499
854.000	501.172	80.010	19.995	100.197	20.015	12.859	0.518
854.500	501.381	80.012	19.995	100.194	20.021	12.477	0.522
855.000	501.628	80.008	19.997	100.192	20.022	12.420	0.478
855.500	501.928	80.010	19.996	100.190	20.023	12.366	0.502
856.000	502.204	80.011	19.995	100.188	20.027	12.060	0.561
856.500	502.397	80.011	19.995	100.193	20.030	11.924	0.522
857.000	502.633	80.008	19.995	100.195	20.031	11.812	0.449
857.500	502.899	80.008	19.995	100.200	20.034	11.632	0.465
858.000	503.172	80.009	19.996	100.204	20.033	11.694	0.520
858.500	503.417	80.010	19.994	100.209	20.037	11.459	0.529
859.000	503.681	80.012	19.995	100.209	20.036	11.475	0.514
859.500	503.888	80.009	19.995	100.205	20.039	11.305	0.490
860.000	504.124	80.007	19.995	100.204	20.041	11.165	0.457
860.500	504.423	80.010	19.996	100.200	20.043	11.062	0.489
861.000	504.654	80.013	19.995	100.200	20.047	10.821	0.532
861.500	504.884	80.010	19.997	100.200	20.044	10.961	0.495
862.000	505.182	80.006	19.995	100.202	20.049	10.688	0.495
862.500	505.380	80.007	19.996	100.199	20.049	10.669	0.512
863.000	505.667	80.009	19.995	100.198	20.053	10.412	0.491
863.500	505.926	80.006	19.996	100.193	20.054	10.350	0.516
864.000	506.202	80.010	19.996	100.189	20.057	10.140	0.541
864.500	506.435	80.008	19.996	100.189	20.057	10.153	0.522
865.000	506.677	80.010	19.995	100.188	20.059	9.986	0.492
865.500	506.927	80.010	19.996	100.187	20.059	10.002	0.483
866.000	507.189	80.008	19.995	100.189	20.062	9.809	0.502
866.500	507.437	80.010	19.995	100.192	20.064	9.674	0.512
867.000	507.689	80.012	19.997	100.196	20.067	9.474	0.505
867.500	507.969	80.007	19.995	100.198	20.069	9.359	0.516
868.000	508.211	80.005	19.997	100.200	20.069	9.354	0.527
868.500	508.455	80.008	19.995	100.203	20.072	9.179	0.504
869.000	508.722	80.009	19.996	100.202	20.069	9.366	0.498
869.500	508.973	80.007	19.996	100.195	20.070	9.297	0.514
870.000	509.207	80.007	19.996	100.195	20.073	9.083	0.502
870.500	509.482	80.009	19.997	100.192	20.077	8.833	0.497
871.000	509.755	80.008	19.997	100.187	20.076	8.874	0.529
871.500	510.022	80.011	19.995	100.185	20.079	8.680	0.544
872.000	510.223	80.006	19.995	100.186	20.078	8.758	0.504
872.500	510.481	80.009	19.996	100.185	20.081	8.611	0.463
873.000	510.725	80.010	19.995	100.187	20.079	8.690	0.481
873.500	510.981	80.009	19.995	100.187	20.081	8.552	0.501
874.000	511.226	80.007	19.995	100.187	20.082	8.500	0.501
874.500	511.468	80.006	19.996	100.192	20.084	8.369	0.494
875.000	511.739	80.006	19.996	100.196	20.087	8.169	0.500
875.500	511.960	80.009	19.996	100.198	20.086	8.233	0.503
876.000	512.193	80.011	19.995	100.198	20.088	8.126	0.473
876.500	512.465	80.011	19.995	100.198	20.088	8.128	0.479
877.000	512.755	80.007	19.995	100.195	20.089	8.035	0.533
877.500	512.990	80.010	19.996	100.192	20.094	7.761	0.544
878.000	513.252	80.015	19.996	100.193	20.093	7.803	0.511
878.500	513.515	80.015	19.995	100.193	20.095	7.697	0.511
879.000	513.771	80.007	19.996	100.193	20.101	7.260	0.522
879.500	514.013	80.009	19.996	100.196	20.098	7.490	0.509
880.000	514.268	80.011	19.996	100.196	20.099	7.391	0.497
880.500	514.617	80.010	19.995	100.196	20.101	7.264	0.550
881.001	514.796	80.011	19.995	100.197	20.098	7.483	0.566
881.500	515.070	80.012	19.995	100.197	20.102	7.219	0.491
882.000	515.329	80.007	19.996	100.192	20.103	7.148	0.493
882.500	515.586	80.012	19.996	100.190	20.105	7.024	0.524
883.000	515.806	80.006	19.995	100.186	20.104	7.115	0.496
883.500	516.078	80.009	19.995	100.182	20.102	7.232	0.485
884.000	516.324	80.008	19.995	100.181	20.104	7.077	0.505
884.500	516.586	80.010	19.996	100.183	20.108	6.851	0.513
885.000	516.832	80.008	19.995	100.187	20.110	6.725	0.508
885.500	517.088	80.009	19.996	100.190	20.111	6.635	0.505
886.000	517.357	80.005	19.996	100.191	20.113	6.527	0.514
886.500	517.584	80.008	19.996	100.191	20.110	6.713	0.510
887.000	517.834	80.006	19.995	100.191	20.111	6.626	0.486
887.500	518.095	80.007	19.997	100.186	20.113	6.511	0.494
888.000	518.359	80.008	19.996	100.184	20.117	6.219	0.518
888.500	518.590	80.010	19.995	100.184	20.117	6.236	0.510
889.000	518.817	80.006	19.995	100.184	20.118	6.201	0.477
889.500	519.127	80.007	19.995	100.183	20.118	6.162	0.497
890.000	519.355	80.008	19.996	100.184	20.118	6.201	0.537
890.500	519.625	80.005	19.997	100.186	20.123	5.847	0.518
891.000	519.897	80.008	19.997	100.187	20.121	5.992	0.520
891.500	520.144	80.008	19.996	100.188	20.120	6.053	0.530
892.000	520.364	80.007	19.996	100.188	20.121	6.007	0.493
892.500	520.653	80.004	19.996	100.188	20.122	5.900	0.488
893.000	520.893	80.005	19.996	100.187	20.125	5.746	0.519
893.500	521.197	80.008	19.996	100.186	20.126	5.656	0.537
894.000	521.373	80.005	19.997	100.185	20.127	5.594	0.512
894.501	521.630	80.008	19.996	100.184	20.125	5.728	0.457
895.000	521.911	80.008	19.995	100.184	20.127	5.596	0.485
895.500	522.162	80.008	19.996	100.183	20.129	5.443	0.535
896.000	522.384	80.001	19.996	100.183	20.129	5.473	0.503
896.500	522.655	80.007	19.996	100.182	20.129	5.436	0.483
897.000	522.881	80.008	19.997	100.183	20.132	5.271	0.495
897.500	523.127	80.006	19.996	100.182	20.130	5.379	0.485
898.000	523.420	80.008	19.997	100.183	20.133	5.199	0.506
898.500	523.678	80.007	19.996	100.184	20.131	5.315	0.544
899.000	523.923	80.009	19.996	100.184	20.134	5.122	0.527
899.500	524.186	80.006	19.996	100.186	20.136	5.004	0.506
900.000	524.408	80.006	19.996	100.189	20.135	5.041	0.497
900.500	524.619	80.007	19.996	100.188	20.137	4.938	0.459
901.000	524.924	80.006	19.998	100.188	20.136	4.974	0.474
901.500	525.147	80.007	19.996	100.189	20.136	5.000	0.522
902.000	525.413	80.007	19.997	100.191	20.139	4.816	0.509
902.500	525.660	80.006	19.996	100.189	20.138	4.887	0.501
903.000	525.938	80.010	19.997	100.192	20.139	4.834	0.519
903.500	526.194	80.004	19.997	100.192	20.140	4.758	0.529
904.000	526.437	80.009	19.996	100.193	20.145	4.443	0.517
904.500	526.699	80.006	19.996	100.191	20.143	4.575	0.502
905.000	526.944	80.010	19.997	100.193	20.144	4.498	0.506
905.500	527.159	80.007	19.996	100.189	20.140	4.742	0.484
906.000	527.447	80.010	19.997	100.187	20.145	4.395	0.482
906.500	527.694	80.010	19.997	100.184	20.145	4.450	0.519
907.000	527.916	80.008	19.997	100.181	20.144	4.496	0.501
907.500	528.180	80.007	19.997	100.178	20.145	4.436	0.478
908.000	528.455	80.009	19.996	100.178	20.147	4.285	0.513
908.500	528.696	80.006	19.996	100.179	20.149	4.191	0.528
909.000	528.987	80.009	19.996	100.180	20.148	4.234	0.524
909.500	529.219	80.008	19.996	100.181	20.149	4.133	0.527
910.000	529.448	80.011	19.996	100.180	20.148	4.245	0.492
910.500	529.728	80.007	19.996	100.180	20.153	3.894	0.485
911.000	529.970	80.005	19.995	100.180	20.152	3.958	0.515
911.500	530.237	80.008	19.996	100.182	20.151	4.028	0.516
912.000	530.457	80.006	19.995	100.182	20.149	4.161	0.499
912.500	530.748	80.010	19.996	100.182	20.153	3.887	0.499
913.000	530.964	80.010	19.995	100.183	20.155	3.745	0.509
913.500	531.241	80.009	19.995	100.181	20.154	3.809	0.500
914.000	531.511	80.006	19.994	100.180	20.151	4.025	0.520
914.500	531.734	80.007	19.995	100.181	20.159	3.493	0.520
915.000	531.993	80.008	19.995	100.181	20.155	3.784	0.488
915.500	532.239	80.007	19.996	100.183	20.158	3.546	0.493
916.000	532.489	80.008	19.996	100.188	20.157	3.669	0.500
916.500	532.739	80.008	19.995	100.193	20.155	3.748	0.498
917.000	533.006	80.008	19.996	100.193	20.160	3.442	0.509
917.500	533.282	80.007	19.995	100.193	20.159	3.540	0.530
918.000	533.513	80.007	19.995	100.192	20.159	3.531	0.525
918.500	533.787	80.009	19.995	100.188	20.164	3.175	0.506
919.000	534.022	80.007	19.995	100.184	20.161	3.402	0.507
919.500	534.281	80.008	19.995	100.182	20.162	3.290	0.501
920.000	534.562	80.006	19.997	100.187	20.162	3.340	0.517
920.500	534.805	80.007	19.996	100.190	20.165	3.139	0.532
921.000	535.056	80.009	19.997	100.190	20.165	3.141	0.509
921.500	535.305	80.007	19.995	100.189	20.165	3.124	0.497
922.000	535.553	80.006	19.995	100.189	20.167	3.021	0.498
922.500	535.822	80.005	19.995	100.187	20.165	3.103	0.507
923.000	536.102	80.008	19.995	100.185	20.166	3.073	0.533
923.500	536.365	80.006	19.995	100.184	20.166	3.032	0.546
924.001	536.592	80.007	19.996	100.184	20.169	2.865	0.516
924.500	536.875	80.008	19.996	100.183	20.172	2.656	0.500
925.000	537.083	80.007	19.996	100.179	20.167	2.973	0.500
925.500	537.374	80.007	19.997	100.178	20.168	2.906	0.495
926.000	537.597	80.009	19.995	100.178	20.169	2.838	0.507
926.500	537.865	80.009	19.996	100.178	20.170	2.806	0.503
927.000	538.160	80.005	19.996	100.178	20.170	2.791	0.527
927.500	538.337	80.006	19.996	100.178	20.174	2.537	0.518
928.000	538.618	80.007	19.996	100.181	20.176	2.403	0.465
928.500	538.902	80.009	19.997	100.183	20.176	2.426	0.511
929.000	539.134	80.010	19.996	100.186	20.177	2.355	0.540
929.500	539.432	80.009	19.996	100.189	20.175	2.500	0.523
930.000	539.648	80.008	19.995	100.191	20.177	2.344	0.522
930.500	539.895	80.008	19.997	100.188	20.175	2.459	0.489
931.000	540.170	80.009	19.995	100.186	20.178	2.304	0.493
931.500	540.418	80.010	19.996	100.186	20.178	2.270	0.522
932.000	540.677	80.011	19.996	100.189	20.181	2.109	0.515
932.500	540.955	80.008	19.996	100.192	20.180	2.155	0.522
933.000	541.209	80.008	19.995	100.197	20.181	2.112	0.534
933.500	541.419	80.009	19.994	100.198	20.180	2.148	0.498
934.000	541.674	80.008	19.996	100.196	20.183	1.946	0.465
934.500	541.951	80.010	19.995	100.191	20.183	1.980	0.499
935.000	542.222	80.009	19.995	100.186	20.181	2.052	0.540
935.500	542.462	80.009	19.996	100.183	20.186	1.764	0.529
936.000	542.728	80.011	19.995	100.183	20.177	2.325	0.509
936.500	542.996	80.008	19.995	100.183	20.183	1.965	0.520
937.000	543.205	80.009	19.994	100.183	20.184	1.858	0.505
937.501	543.491	80.010	19.995	100.182	20.185	1.827	0.486
938.000	543.757	80.008	19.996	100.181	20.182	2.015	0.523
938.500	543.981	80.008	19.996	100.181	20.183	1.932	0.521
939.000	544.258	80.009	19.994	100.184	20.185	1.842	0.495
939.500	544.513	80.011	19.994	100.184	20.182	1.998	0.517
940.000	544.738	80.009	19.995	100.185	20.185	1.796	0.507
940.500	544.983	80.007	19.996	100.184	20.183	1.966	0.475
941.000	545.224	80.005	19.995	100.184	20.188	1.650	0.478
941.500	545.535	80.009	19.995	100.181	20.185	1.827	0.519
942.000	545.744	80.010	19.996	100.181	20.189	1.592	0.536
942.500	546.014	80.009	19.995	100.181	20.188	1.634	0.500
943.000	546.267	80.008	19.995	100.181	20.186	1.734	0.501
943.500	546.521	80.008	19.995	100.181	20.187	1.712	0.515
944.000	546.769	80.008	19.995	100.182	20.189	1.571	0.504
944.500	547.056	80.007	19.995	100.182	20.187	1.703	0.519
945.000	547.278	80.008	19.996	100.182	20.187	1.721	0.522
945.500	547.589	80.006	19.995	100.182	20.187	1.663	0.521
946.000	547.805	80.008	19.995	100.183	20.187	1.682	0.530
946.500	548.054	80.008	19.995	100.182	20.189	1.553	0.496
947.000	548.311	80.007	19.995	100.182	20.186	1.774	0.485
947.500	548.558	80.008	19.996	100.185	20.187	1.661	0.505
948.000	548.826	80.009	19.995	100.189	20.188	1.613	0.510
948.500	549.073	80.008	19.996	100.191	20.191	1.447	0.515
949.000	549.359	80.010	19.995	100.194	20.188	1.641	0.524
949.500	549.608	80.008	19.995	100.194	20.190	1.503	0.534
950.000	549.824	80.008	19.994	100.194	20.190	1.479	0.501
950.500	550.089	80.010	19.995	100.193	20.190	1.473	0.473
951.000	550.370	80.010	19.995	100.192	20.191	1.441	0.513
951.500	550.594	80.010	19.995	100.190	20.191	1.447	0.525
952.000	550.833	80.007	19.995	100.191	20.191	1.429	0.484
952.500	551.115	80.010	19.995	100.191	20.194	1.208	0.492
953.000	551.355	80.007	19.995	100.190	20.192	1.344	0.521
953.500	551.582	80.010	19.995	100.189	20.192	1.346	0.494
954.000	551.864	80.008	19.995	100.188	20.193	1.323	0.488
954.500	552.116	80.010	19.995	100.188	20.190	1.486	0.522
955.000	552.377	80.009	19.995	100.186	20.194	1.209	0.524
955.500	552.614	80.010	19.994	100.184	20.196	1.089	0.505
956.000	552.880	80.008	19.994	100.184	20.191	1.401	0.500
956.500	553.159	80.010	19.994	100.186	20.195	1.162	0.524
957.000	553.385	80.009	19.994	100.188	20.196	1.114	0.525
957.500	553.666	80.011	19.993	100.190	20.196	1.077	0.506
958.001	553.910	80.010	19.993	100.192	20.191	1.413	0.516
958.500	554.173	80.010	19.995	100.191	20.195	1.158	0.516
959.000	554.422	80.012	19.994	100.190	20.197	1.016	0.510
959.500	554.711	80.014	19.995	100.187	20.197	1.029	0.525
960.000	554.924	80.011	19.994	100.186	20.196	1.091	0.520
960.500	555.181	80.013	19.994	100.185	20.194	1.268	0.486
961.000	555.421	80.011	19.994	100.186	20.196	1.077	0.483
961.500	555.707	80.012	19.994	100.189	20.194	1.227	0.511
962.000	556.009	80.012	19.995	100.191	20.194	1.227	0.557
962.500	556.217	80.010	19.994	100.191	20.195	1.140	0.549
963.000	556.476	80.010	19.994	100.190	20.196	1.108	0.488
963.500	556.713	80.012	19.995	100.190	20.201	0.795	0.482
964.000	556.949	80.011	19.995	100.187	20.200	0.825	0.485
964.500	557.204	80.011	19.995	100.185	20.197	1.069	0.482
965.000	557.454	80.012	19.994	100.182	20.200	0.846	0.498
965.500	557.736	80.010	19.995	100.182	20.195	1.153	0.518
966.000	557.998	80.010	19.996	100.181	20.196	1.137	0.538
966.500	558.233	80.010	19.995	100.181	20.195	1.156	0.521
967.000	558.490	80.011	19.996	100.181	20.200	0.818	0.495
967.500	558.730	80.008	19.995	100.181	20.195	1.179	0.495
968.000	558.986	80.008	19.995	100.180	20.198	0.992	0.496
968.500	559.236	80.008	19.996	100.178	20.198	1.004	0.501
969.000	559.481	80.009	19.994	100.180	20.199	0.938	0.501
969.500	559.771	80.010	19.995	100.182	20.199	0.901	0.515
970.000	560.041	80.009	19.997	100.182	20.197	1.054	0.547
970.500	560.285	80.007	19.996	100.183	20.201	0.800	0.537
971.000	560.533	80.008	19.996	100.184	20.201	0.765	0.503
971.500	560.792	80.007	19.997	100.184	20.200	0.820	0.499
972.000	561.043	80.009	19.996	100.182	20.200	0.866	0.509
972.500	561.280	80.008	19.996	100.182	20.199	0.885	0.499
973.000	561.536	80.008	19.997	100.181	20.200	0.815	0.490
973.500	561.775	80.008	19.996	100.181	20.201	0.786	0.494
974.000	562.023	80.009	19.997	100.179	20.202	0.733	0.491
974.500	562.270	80.005	19.996	100.178	20.202	0.712	0.491
975.000	562.549	80.009	19.995	100.179	20.202	0.744	0.510
975.500	562.792	80.007	19.996	100.180	20.201	0.753	0.524
976.000	563.039	80.008	19.996	100.181	20.204	0.579	0.506
976.500	563.322	80.007	19.996	100.183	20.205	0.506	0.510
977.000	563.570	80.007	19.996	100.184	20.206	0.439	0.531
977.500	563.792	80.008	19.995	100.184	20.204	0.556	0.501
978.000	564.049	80.008	19.995	100.183	20.203	0.648	0.474
978.500	564.276	80.007	19.996	100.182	20.204	0.591	0.481
979.000	564.579	80.008	19.995	100.180	20.204	0.599	0.507
979.500	564.805	80.008	19.996	100.179	20.205	0.540	0.530
980.000	565.039	80.008	19.996	100.181	20.207	0.383	0.494
980.500	565.290	80.006	19.997	100.186	20.211	0.161	0.472
981.000	565.524	80.009	19.995	100.188	20.208	0.342	0.485
981.500	565.835	80.007	19.996	100.189	20.208	0.331	0.515
982.000	566.096	80.007	19.995	100.188	20.206	0.436	0.559
982.500	566.309	80.008	19.996	100.187	20.209	0.266	0.523
983.000	566.573	80.008	19.996	100.183	20.207	0.384	0.475
983.500	566.818	80.009	19.995	100.184	20.207	0.372	0.493
984.000	567.081	80.008	19.996	100.182	20.206	0.430	0.508
984.500	567.327	80.007	19.995	100.182	20.208	0.306	0.509
985.000	567.604	80.009	19.995	100.181	20.207	0.390	0.516
985.500	567.831	80.008	19.995	100.180	20.206	0.444	0.513
986.000	568.101	80.007	19.996	100.180	20.207	0.382	0.500
986.501	568.343	80.006	19.995	100.181	20.210	0.227	0.505
987.001	568.602	80.008	19.995	100.181	20.208	0.329	0.507
987.500	568.828	80.008	19.996	100.181	20.207	0.379	0.493
988.000	569.090	80.008	19.995	100.183	20.209	0.282	0.486
988.500	569.349	80.010	19.995	100.181	20.208	0.324	0.504
989.000	569.628	80.007	19.996	100.187	20.208	0.326	0.529
989.500	569.840	80.008	19.996	100.192	20.210	0.223	0.515
990.000	570.105	80.008	19.996	100.196	20.209	0.250	0.484
990.500	570.358	80.008	19.996	100.197	20.211	0.113	0.497
991.000	570.631	80.008	19.996	100.201	20.209	0.236	0.522
991.500	570.908	80.008	19.996	100.196	20.209	0.271	0.539
992.000	571.141	80.005	19.995	100.193	20.207	0.377	0.530
992.500	571.400	80.008	19.995	100.189	20.207	0.393	0.501
993.000	571.664	80.008	19.996	100.186	20.210	0.214	0.507
993.500	571.896	80.006	19.996	100.183	20.210	0.174	0.509
994.000	572.148	80.005	19.995	100.184	20.211	0.131	0.491
994.500	572.413	80.006	19.997	100.185	20.208	0.310	0.501
995.000	572.627	80.004	19.996	100.187	20.211	0.152	0.498
995.500	572.895	80.008	19.996	100.187	20.208	0.312	0.481
996.000	573.168	80.009	19.997	100.187	20.209	0.251	0.512
996.500	573.408	80.008	19.997	100.185	20.213	-0.016	0.527
997.000	573.650	80.007	19.997	100.182	20.212	0.073	0.497
997.500	573.915	80.007	19.996	100.180	20.213	-0.014	0.494
998.000	574.198	80.005	19.996	100.180	20.214	-0.058	0.528
998.500	574.485	80.007	19.996	100.181	20.212	0.053	0.559
999.000	574.707	80.007	19.997	100.182	20.213	-0.018	0.539
999.500	574.973	80.005	19.997	100.184	20.214	-0.053	0.499
1000.000	575.235	80.007	19.997	100.189	20.214	-0.051	0.508
1000.500	575.507	80.007	19.997	100.195	20.213	0.011	0.530
1001.000	575.772	80.004	19.996	100.199	20.214	-0.044	0.536
1001.500	575.977	80.006	19.996	100.201	20.213	0.002	0.504
1002.000	576.238	80.007	19.996	100.204	20.213	-0.027	0.468
1002.500	576.466	80.006	19.997	100.206	20.214	-0.035	0.478
1003.000	576.757	80.006	19.996	100.206	20.213	0.009	0.504
1003.500	577.017	80.006	19.997	100.203	20.212	0.069	0.535
1004.000	577.249	80.006	19.998	100.200	20.216	-0.161	0.521
1004.500	577.520	80.006	19.996	100.194	20.213	-0.011	0.497
1005.000	577.764	80.007	19.996	100.188	20.214	-0.066	0.509
1005.500	577.991	80.007	19.997	100.182	20.213	-0.014	0.493
1006.000	578.251	80.007	19.996	100.181	20.217	-0.232	0.479
1006.500	578.460	80.007	19.996	100.183	20.217	-0.278	0.478
1007.000	578.757	80.008	19.996	100.184	20.213	0.016	0.488
1007.500	579.015	80.006	19.996	100.184	20.216	-0.189	0.530
1008.000	579.257	80.007	19.996	100.184	20.214	-0.060	0.527
1008.500	579.490	80.007	19.996	100.183	20.213	0.025	0.488
1009.000	579.751	80.007	19.996	100.181	20.213	-0.012	0.485
1009.500	579.997	80.006	19.996	100.182	20.216	-0.221	0.501
1010.000	580.241	80.007	19.996	100.182	20.218	-0.347	0.499
1010.501	580.545	80.008	19.996	100.182	20.218	-0.324	0.519
1011.000	580.774	80.007	19.995	100.182	20.219	-0.411	0.541
1011.500	581.050	80.008	19.996	100.182	20.219	-0.390	0.519
1012.000	581.285	80.009	19.995	100.183	20.218	-0.345	0.508
1012.500	581.548	80.008	19.996	100.184	20.219	-0.391	0.504
1013.000	581.787	80.009	19.995	100.185	20.219	-0.393	0.500
1013.500	582.067	80.008	19.995	100.187	20.219	-0.381	0.511
1014.000	582.315	80.008	19.996	100.187	20.218	-0.324	0.523
1014.501	582.555	80.009	19.995	100.186	20.219	-0.411	0.508
1015.001	582.789	80.006	19.996	100.188	20.221	-0.492	0.481
1015.500	583.071	80.008	19.995	100.186	20.219	-0.361	0.496
1016.000	583.293	80.006	19.995	100.185	20.222	-0.568	0.510
1016.500	583.541	80.009	19.994	100.187	20.221	-0.528	0.487
1017.000	583.820	80.010	19.994	100.187	20.221	-0.498	0.498
1017.500	584.055	80.010	19.995	100.184	20.218	-0.335	0.520
1018.000	584.330	80.010	19.995	100.187	20.222	-0.572	0.512
1018.500	584.562	80.009	19.995	100.185	20.222	-0.613	0.509
1019.000	584.804	80.009	19.995	100.184	20.225	-0.765	0.491
1019.500	585.082	80.009	19.994	100.183	20.222	-0.606	0.497
1020.000	585.319	80.008	19.995	100.184	20.221	-0.492	0.517
1020.500	585.556	80.009	19.994	100.182	20.219	-0.411	0.494
1021.000	585.823	80.007	19.995	100.184	20.224	-0.696	0.489
1021.500	586.062	80.009	19.994	100.185	20.218	-0.344	0.505
1022.000	586.308	80.007	19.994	100.185	20.221	-0.496	0.496
1022.500	586.597	80.007	19.995	100.184	20.219	-0.361	0.510
1023.000	586.816	80.010	19.995	100.184	20.223	-0.639	0.522
1023.500	587.070	80.008	19.994	100.185	20.222	-0.572	0.491
1024.000	587.314	80.007	19.994	100.185	20.221	-0.506	0.485
1024.501	587.591	80.008	19.995	100.186	20.220	-0.427	0.510
1025.001	587.835	80.008	19.995	100.186	20.219	-0.386	0.521
1025.501	588.062	80.009	19.995	100.185	20.221	-0.489	0.496
1026.001	588.339	80.008	19.994	100.182	20.219	-0.402	0.487
1026.500	588.587	80.007	19.995	100.181	20.220	-0.434	0.515
1027.000	588.845	80.006	19.995	100.181	20.222	-0.558	0.516
1027.500	589.089	80.007	19.995	100.182	20.220	-0.467	0.504
1028.000	589.361	80.008	19.995	100.182	20.220	-0.450	0.509
1028.500	589.572	80.007	19.994	100.183	20.221	-0.549	0.499
1029.000	589.877	80.008	19.996	100.184	20.221	-0.531	0.499
1029.500	590.145	80.008	19.996	100.189	20.222	-0.572	0.544
1030.000	590.339	80.009	19.995	100.191	20.224	-0.715	0.518
1030.501	590.618	80.007	19.995	100.192	20.222	-0.570	0.468
1031.001	590.875	80.008	19.995	100.194	20.223	-0.636	0.505
1031.500	591.126	80.008	19.996	100.192	20.222	-0.590	0.522
1032.000	591.373	80.008	19.996	100.187	20.222	-0.586	0.503
1032.500	591.653	80.008	19.995	100.185	20.226	-0.850	0.513
1033.000	591.904	80.006	19.995	100.183	20.225	-0.774	0.529
1033.500	592.165	80.009	19.995	100.185	20.225	-0.749	0.521
1034.000	592.378	80.009	19.995	100.191	20.223	-0.634	0.493
1034.500	592.669	80.009	19.995	100.193	20.223	-0.662	0.489
1035.000	592.892	80.008	19.996	100.196	20.226	-0.815	0.509
1035.500	593.147	80.007	19.996	100.200	20.224	-0.724	0.495
1036.000	593.381	80.008	19.995	100.203	20.225	-0.756	0.483
1036.501	593.648	80.008	19.995	100.200	20.222	-0.577	0.495
1037.001	593.945	80.009	19.995	100.197	20.225	-0.783	0.533
1037.500	594.144	80.010	19.996	100.196	20.225	-0.776	0.530
1038.000	594.378	80.009	19.995	100.195	20.225	-0.779	0.464
1038.501	594.652	80.009	19.994	100.190	20.225	-0.745	0.470
1039.001	594.937	80.010	19.994	100.189	20.225	-0.765	0.534
1039.500	595.196	80.009	19.995	100.189	20.225	-0.779	0.551
1040.000	595.461	80.011	19.995	100.187	20.224	-0.719	0.534
1040.500	595.713	80.010	19.995	100.184	20.226	-0.811	0.520
1041.000	595.927	80.010	19.995	100.183	20.226	-0.859	0.492
1041.500	596.205	80.012	19.995	100.180	20.225	-0.786	0.479
1042.000	596.436	80.011	19.995	100.180	20.224	-0.705	0.501
1042.500	596.719	80.010	19.994	100.179	20.226	-0.823	0.512
1043.000	596.985	80.011	19.995	100.178	20.225	-0.749	0.531
1043.500	597.240	80.011	19.994	100.179	20.225	-0.747	0.535
1044.000	597.471	80.012	19.995	100.179	20.224	-0.691	0.504
1044.500	597.751	80.011	19.995	100.182	20.225	-0.751	0.499
1045.000	597.981	80.013	19.994	100.184	20.225	-0.804	0.510
1045.500	598.247	80.012	19.994	100.184	20.222	-0.590	0.503
1046.000	598.518	80.011	19.994	100.184	20.227	-0.885	0.517
1046.500	598.778	80.009	19.994	100.183	20.225	-0.760	0.534
1047.000	599.058	80.010	19.994	100.185	20.228	-0.969	0.535
1047.500	599.285	80.010	19.994	100.187	20.229	-1.068	0.524
1048.000	599.539	80.009	19.995	100.187	20.228	-0.981	0.494
1048.500	599.783	80.011	19.995	100.188	20.230	-1.131	0.489
1049.000	600.050	80.009	19.995	100.187	20.228	-0.999	0.505
1049.501	600.280	80.009	19.994	100.183	20.229	-1.050	0.504
1050.001	600.547	80.009	19.994	100.179	20.231	-1.151	0.497
1050.501	600.770	80.009	19.995	100.181	20.228	-0.981	0.493
1051.000	601.062	80.009	19.995	100.183	20.227	-0.931	0.502
1051.500	601.310	80.007	19.995	100.185	20.227	-0.901	0.528
1052.001	601.551	80.008	19.995	100.188	20.226	-0.838	0.515
1052.501	601.808	80.009	19.994	100.190	20.227	-0.896	0.494
1053.000	602.078	80.008	19.995	100.190	20.229	-1.041	0.512
1053.500	602.346	80.009	19.995	100.189	20.226	-0.825	0.532
1054.000	602.581	80.007	19.995	100.189	20.227	-0.877	0.520
1054.500	602.849	80.008	19.995	100.189	20.226	-0.855	0.503
1055.000	603.113	80.008	19.996	100.193	20.229	-1.006	0.517
1055.500	603.338	80.009	19.996	100.194	20.226	-0.873	0.510
1056.000	603.580	80.009	19.995	100.194	20.228	-0.958	0.478
1056.500	603.859	80.009	19.995	100.192	20.227	-0.884	0.494
1057.000	604.108	80.008	19.995	100.191	20.225	-0.754	0.525
1057.500	604.381	80.009	19.995	100.186	20.225	-0.792	0.525
1058.000	604.613	80.010	19.995	100.182	20.226	-0.871	0.514
1058.500	604.892	80.008	19.995	100.181	20.223	-0.630	0.508
1059.000	605.134	80.008	19.996	100.180	20.227	-0.940	0.515
1059.500	605.389	80.007	19.996	100.178	20.226	-0.862	0.508
1060.000	605.678	80.008	19.995	100.178	20.230	-1.089	0.521
1060.500	605.954	80.009	19.995	100.178	20.228	-0.956	0.555
1061.001	606.179	80.007	19.996	100.178	20.227	-0.894	0.533
1061.501	606.444	80.008	19.995	100.178	20.229	-1.018	0.495
1062.001	606.727	80.008	19.995	100.179	20.228	-0.981	0.519
1062.501	606.944	80.010	19.995	100.181	20.229	-1.029	0.524
1063.000	607.210	80.007	19.996	100.183	20.232	-1.218	0.491
1063.500	607.479	80.007	19.995	100.187	20.228	-0.954	0.509
1064.000	607.753	80.007	19.996	100.188	20.229	-1.032	0.539
1064.500	607.985	80.007	19.995	100.188	20.227	-0.891	0.524
1065.000	608.195	80.006	19.996	100.186	20.229	-1.022	0.474
1065.500	608.474	80.007	19.996	100.184	20.224	-0.698	0.465
1066.000	608.754	80.009	19.995	100.181	20.227	-0.885	0.524
1066.500	608.984	80.008	19.995	100.182	20.225	-0.776	0.535
1067.000	609.232	80.009	19.996	100.186	20.225	-0.806	0.494
1067.500	609.467	80.008	19.995	100.190	20.226	-0.862	0.480
1068.000	609.723	80.007	19.996	100.189	20.225	-0.791	0.487
1068.500	609.992	80.007	19.995	100.189	20.229	-1.048	0.508
1069.000	610.226	80.008	19.996	100.189	20.228	-1.002	0.514
1069.500	610.516	80.007	19.996	100.184	20.228	-0.974	0.513
1070.000	610.747	80.009	19.996	100.180	20.227	-0.921	0.522
1070.501	611.025	80.007	19.995	100.180	20.226	-0.822	0.515
1071.001	611.251	80.008	19.996	100.181	20.226	-0.829	0.507
1071.500	611.502	80.009	19.995	100.180	20.226	-0.827	0.491
1072.000	611.737	80.006	19.995	100.180	20.226	-0.830	0.481
1072.500	612.011	80.007	19.995	100.180	20.229	-1.045	0.498
1073.000	612.273	80.008	19.996	100.181	20.228	-0.954	0.522
1073.500	612.514	80.008	19.996	100.181	20.225	-0.788	0.519
1074.000	612.796	80.007	19.997	100.180	20.230	-1.084	0.513
1074.501	613.069	80.006	19.996	100.181	20.226	-0.823	0.539
1075.001	613.289	80.008	19.995	100.183	20.229	-1.018	0.524
1075.500	613.554	80.009	19.995	100.186	20.227	-0.885	0.489
1076.000	613.809	80.007	19.995	100.185	20.227	-0.931	0.503
1076.500	614.073	80.009	19.996	100.185	20.226	-0.857	0.520
1077.000	614.338	80.007	19.996	100.185	20.229	-1.064	0.524
1077.500	614.614	80.008	19.995	100.182	20.227	-0.894	0.535
1078.000	614.863	80.010	19.996	100.180	20.226	-0.813	0.533
1078.500	615.079	80.006	19.995	100.180	20.227	-0.884	0.495
1079.000	615.343	80.007	19.995	100.180	20.227	-0.933	0.472
1079.500	615.591	80.008	19.995	100.180	20.228	-0.944	0.496
1080.000	615.865	80.007	19.995	100.179	20.226	-0.827	0.517
1080.500	616.089	80.008	19.995	100.178	20.228	-0.985	0.509
1081.000	616.360	80.007	19.995	100.178	20.226	-0.827	0.496
1081.501	616.600	80.007	19.995	100.177	20.226	-0.818	0.503
1082.001	616.857	80.007	19.995	100.179	20.227	-0.908	0.504
1082.500	617.101	80.006	19.996	100.180	20.229	-1.016	0.499
1083.000	617.343	80.006	19.996	100.180	20.227	-0.907	0.494
1083.500	617.608	80.007	19.995	100.180	20.229	-1.011	0.496
1084.000	617.850	80.006	19.996	100.180	20.228	-0.949	0.507
1084.500	618.081	80.006	19.995	100.179	20.230	-1.110	0.490
1085.001	618.327	80.007	19.996	100.180	20.229	-1.066	0.475
1085.501	618.584	80.005	19.995	100.182	20.231	-1.170	0.490
1086.000	618.848	80.006	19.995	100.183	20.228	-0.976	0.512
1086.500	619.109	80.007	19.995	100.183	20.232	-1.220	0.523
1087.000	619.363	80.006	19.996	100.183	20.227	-0.940	0.520
1087.500	619.590	80.005	19.995	100.182	20.230	-1.101	0.499
1088.000	619.893	80.006	19.995	100.180	20.231	-1.183	0.506
1088.500	620.143	80.005	19.995	100.180	20.231	-1.147	0.541
1089.001	620.414	80.007	19.995	100.180	20.230	-1.076	0.537
1089.501	620.615	80.006	19.995	100.182	20.231	-1.169	0.496
1090.001	620.922	80.005	19.996	100.186	20.230	-1.085	0.490
1090.500	621.146	80.007	19.996	100.187	20.231	-1.151	0.520
1091.000	621.412	80.007	19.996	100.188	20.228	-0.949	0.511
1091.500	621.618	80.007	19.996	100.189	20.230	-1.103	0.481
1092.000	621.914	80.008	19.996	100.188	20.231	-1.188	0.487
1092.500	622.167	80.006	19.996	100.186	20.228	-0.960	0.525
1093.000	622.402	80.008	19.996	100.185	20.230	-1.105	0.518
1093.500	622.645	80.008	19.996	100.184	20.230	-1.100	0.483
1094.000	622.950	80.008	19.996	100.183	20.229	-1.055	0.513
1094.500	623.197	80.007	19.997	100.182	20.228	-0.974	0.550
1095.000	623.434	80.007	19.996	100.182	20.229	-1.061	0.518
1095.500	623.694	80.008	19.996	100.182	20.229	-1.015	0.490
1096.000	623.956	80.007	19.997	100.181	20.229	-1.034	0.509
1096.500	624.244	80.007	19.997	100.180	20.227	-0.940	0.536
1097.000	624.491	80.009	19.997	100.179	20.231	-1.169	0.543
1097.501	624.720	80.009	19.996	100.179	20.229	-1.006	0.505
1098.001	624.962	80.009	19.996	100.177	20.230	-1.123	0.473
1098.501	625.262	80.008	19.996	100.177	20.230	-1.075	0.506
1099.000	625.468	80.008	19.995	100.176	20.230	-1.085	0.524
1099.500	625.730	80.008	19.997	100.177	20.230	-1.082	0.488
1100.000	626.003	80.009	19.996	100.176	20.230	-1.112	0.502
1100.500	626.284	80.009	19.996	100.176	20.226	-0.845	0.544
1101.000	626.556	80.008	19.996	100.176	20.228	-0.997	0.553
1101.500	626.795	80.010	19.996	100.177	20.229	-1.064	0.531
1102.000	627.037	80.009	19.996	100.177	20.226	-0.816	0.496
1102.501	627.275	80.009	19.995	100.178	20.228	-0.990	0.481
1103.001	627.576	80.008	19.996	100.178	20.232	-1.238	0.509
1103.501	627.794	80.009	19.996	100.178	20.228	-0.974	0.529
1104.001	628.021	80.009	19.995	100.177	20.227	-0.940	0.482
1104.500	628.298	80.009	19.996	100.177	20.230	-1.075	0.475
1105.000	628.549	80.008	19.995	100.176	20.229	-1.039	0.516
1105.500	628.786	80.009	19.996	100.176	20.229	-1.015	0.508
1106.000	629.045	80.009	19.996	100.175	20.229	-1.054	0.492
1106.500	629.317	80.009	19.996	100.175	20.231	-1.137	0.514
1107.000	629.560	80.009	19.995	100.175	20.227	-0.928	0.523
1107.500	629.809	80.009	19.997	100.176	20.230	-1.126	0.503
1108.001	630.060	80.009	19.997	100.177	20.230	-1.133	0.496
1108.501	630.324	80.008	19.995	100.178	20.226	-0.853	0.508
1109.001	630.603	80.008	19.995	100.179	20.232	-1.222	0.529
1109.500	630.798	80.009	19.996	100.179	20.231	-1.154	0.508
1110.000	631.090	80.008	19.995	100.182	20.232	-1.209	0.481
1110.500	631.369	80.009	19.996	100.182	20.231	-1.177	0.529
1111.000	631.628	80.009	19.995	100.183	20.232	-1.232	0.554
1111.500	631.884	80.007	19.995	100.182	20.231	-1.161	0.526
1112.000	632.147	80.008	19.995	100.182	20.228	-0.995	0.517
1112.500	632.377	80.009	19.994	100.181	20.230	-1.075	0.506
1113.000	632.613	80.008	19.996	100.181	20.227	-0.889	0.479
1113.500	632.862	80.009	19.995	100.180	20.230	-1.124	0.476
1114.000	633.144	80.008	19.994	100.181	20.229	-1.046	0.509
1114.500	633.382	80.008	19.995	100.181	20.231	-1.149	0.526
1115.000	633.689	80.009	19.995	100.179	20.233	-1.280	0.532
1115.500	633.916	80.009	19.996	100.178	20.232	-1.259	0.539
1116.000	634.184	80.009	19.994	100.179	20.232	-1.259	0.515
1116.500	634.429	80.009	19.995	100.183	20.235	-1.429	0.504
1117.000	634.675	80.009	19.996	100.184	20.232	-1.204	0.502
1117.500	634.919	80.010	19.995	100.184	20.232	-1.213	0.490
1118.000	635.176	80.008	19.995	100.183	20.231	-1.176	0.495
1118.501	635.443	80.009	19.995	100.181	20.232	-1.239	0.513
1119.001	635.692	80.009	19.996	100.178	20.233	-1.300	0.520
1119.500	635.951	80.009	19.994	100.178	20.232	-1.206	0.512
1120.000	636.199	80.010	19.996	100.178	20.232	-1.202	0.507
1120.500	636.451	80.009	19.995	100.178	20.233	-1.308	0.503
1121.000	636.709	80.009	19.995	100.177	20.236	-1.478	0.505
1121.500	636.972	80.010	19.996	100.176	20.233	-1.296	0.515
1122.000	637.219	80.010	19.996	100.175	20.233	-1.316	0.515
1122.500	637.488	80.009	19.995	100.175	20.228	-0.981	0.513
1123.000	637.741	80.011	19.995	100.175	20.234	-1.379	0.520
1123.500	637.971	80.010	19.994	100.175	20.235	-1.457	0.502
1124.000	638.248	80.010	19.995	100.175	20.235	-1.427	0.495
1124.500	638.513	80.009	19.996	100.176	20.235	-1.409	0.524
1125.000	638.760	80.009	19.996	100.176	20.233	-1.326	0.527
1125.500	639.017	80.011	19.995	100.176	20.233	-1.282	0.508
1126.000	639.248	80.010	19.997	100.176	20.233	-1.317	0.496
1126.500	639.543	80.010	19.995	100.175	20.232	-1.202	0.507
1127.000	639.755	80.011	19.994	100.175	20.232	-1.243	0.517
1127.500	640.009	80.009	19.994	100.176	20.231	-1.185	0.487
1128.000	640.243	80.010	19.995	100.176	20.233	-1.289	0.477
1128.500	640.519	80.010	19.996	100.177	20.232	-1.236	0.499
1129.000	640.773	80.010	19.995	100.177	20.229	-1.057	0.520
1129.500	641.041	80.010	19.995	100.176	20.233	-1.305	0.526
1130.000	641.284	80.010	19.996	100.175	20.231	-1.163	0.516
1130.500	641.520	80.011	19.996	100.174	20.231	-1.172	0.495
1131.001	641.800	80.010	19.995	100.175	20.231	-1.181	0.498
1131.501	642.032	80.008	19.996	100.177	20.233	-1.323	0.514
1132.000	642.308	80.008	19.995	100.179	20.233	-1.298	0.510
1132.500	642.542	80.011	19.995	100.181	20.232	-1.250	0.509
1133.001	642.804	80.009	19.996	100.181	20.235	-1.406	0.503
1133.501	643.026	80.008	19.996	100.180	20.233	-1.307	0.490
1134.000	643.297	80.008	19.995	100.179	20.231	-1.193	0.489
1134.500	643.580	80.006	19.995	100.178	20.231	-1.176	0.524
1135.001	643.794	80.007	19.996	100.178	20.237	-1.537	0.526
1135.501	644.090	80.008	19.995	100.180	20.234	-1.349	0.503
1136.001	644.303	80.006	19.995	100.181	20.229	-1.018	0.509
1136.500	644.548	80.008	19.995	100.181	20.231	-1.156	0.484
1137.000	644.828	80.005	19.995	100.181	20.230	-1.098	0.492
1137.500	645.095	80.007	19.995	100.181	20.230	-1.131	0.536
1138.000	645.324	80.008	19.995	100.179	20.227	-0.915	0.521
1138.500	645.564	80.006	19.994	100.179	20.229	-1.062	0.482
1139.000	645.801	80.006	19.995	100.181	20.228	-0.944	0.473
1139.500	646.079	80.006	19.995	100.181	20.230	-1.117	0.496
1140.000	646.336	80.006	19.995	100.182	20.232	-1.215	0.525
1140.501	646.531	80.008	19.994	100.183	20.229	-1.059	0.494
1141.001	646.797	80.007	19.995	100.183	20.233	-1.316	0.457
1141.501	647.024	80.007	19.994	100.182	20.230	-1.089	0.477
1142.001	647.283	80.008	19.995	100.182	20.227	-0.940	0.489
1142.500	647.570	80.008	19.996	100.181	20.232	-1.231	0.516
1143.000	647.771	80.007	19.994	100.180	20.232	-1.202	0.517
1143.501	648.024	80.007	19.995	100.180	20.229	-1.062	0.471
1144.001	648.293	80.008	19.994	100.179	20.229	-1.043	0.488
1144.500	648.528	80.007	19.994	100.179	20.229	-1.046	0.514
1145.000	648.797	80.008	19.995	100.179	20.229	-1.052	0.504
1145.500	649.036	80.008	19.995	100.179	20.230	-1.080	0.506
1146.000	649.297	80.009	19.995	100.179	20.232	-1.250	0.503
1146.500	649.543	80.008	19.995	100.179	20.232	-1.245	0.503
1147.000	649.839	80.007	19.995	100.179	20.227	-0.928	0.524
1147.500	650.060	80.007	19.995	100.180	20.230	-1.123	0.529
1148.000	650.274	80.007	19.994	100.180	20.230	-1.123	0.476
1148.500	650.572	80.007	19.996	100.181	20.230	-1.073	0.474
1149.000	650.833	80.008	19.994	100.180	20.229	-1.069	0.535
1149.500	651.067	80.008	19.995	100.182	20.230	-1.130	0.527
1150.000	651.293	80.009	19.995	100.184	20.231	-1.167	0.478
1150.500	651.579	80.007	19.995	100.184	20.232	-1.234	0.486
1151.000	651.797	80.007	19.994	100.183	20.231	-1.176	0.508
1151.500	652.074	80.008	19.995	100.188	20.229	-1.050	0.500
1152.000	652.273	80.010	19.995	100.187	20.231	-1.174	0.486
1152.500	652.543	80.009	19.995	100.183	20.230	-1.117	0.472
1153.000	652.776	80.009	19.995	100.185	20.233	-1.291	0.486
1153.500	653.069	80.008	19.994	100.185	20.230	-1.089	0.514
1154.001	653.309	80.008	19.994	100.181	20.228	-0.960	0.529
1154.501	653.537	80.008	19.995	100.182	20.231	-1.146	0.500
1155.001	653.818	80.008	19.995	100.182	20.232	-1.229	0.489
1155.501	654.063	80.009	19.995	100.181	20.230	-1.123	0.518
1156.000	654.339	80.007	19.995	100.180	20.233	-1.310	0.524
1156.500	654.539	80.007	19.995	100.180	20.232	-1.248	0.498
1157.000	654.830	80.006	19.995	100.181	20.233	-1.303	0.483
1157.500	655.095	80.007	19.995	100.181	20.232	-1.257	0.523
1158.000	655.313	80.008	19.995	100.181	20.232	-1.262	0.520
1158.500	655.581	80.008	19.995	100.182	20.231	-1.186	0.485
1159.000	655.792	80.007	19.996	100.181	20.230	-1.099	0.483
1159.500	656.065	80.007	19.995	100.181	20.233	-1.269	0.482
1160.000	656.299	80.006	19.995	100.181	20.231	-1.167	0.496
1160.500	656.550	80.006	19.995	100.181	20.232	-1.259	0.496
1161.000	656.842	80.007	19.995	100.181	20.234	-1.351	0.513
1161.501	657.064	80.007	19.996	100.181	20.231	-1.176	0.529
1162.001	657.334	80.008	19.996	100.182	20.232	-1.218	0.504
1162.500	657.569	80.006	19.995	100.184	20.234	-1.385	0.499
1163.000	657.803	80.006	19.995	100.185	20.230	-1.131	0.487
1163.501	658.061	80.005	19.996	100.184	20.233	-1.321	0.480
1164.001	658.314	80.006	19.996	100.184	20.233	-1.278	0.501
1164.500	658.605	80.007	19.996	100.183	20.232	-1.255	0.528
1165.000	658.859	80.007	19.995	100.183	20.234	-1.344	0.545
1165.500	659.041	80.006	19.997	100.183	20.234	-1.358	0.490
1166.001	659.300	80.007	19.996	100.184	20.235	-1.402	0.438
1166.501	659.581	80.007	19.996	100.183	20.234	-1.376	0.491
1167.000	659.842	80.007	19.996	100.182	20.234	-1.372	0.541
1167.500	660.088	80.007	19.996	100.179	20.234	-1.369	0.524
1168.000	660.325	80.007	19.996	100.176	20.234	-1.385	0.495
1168.500	660.589	80.007	19.996	100.175	20.235	-1.438	0.492
1169.000	660.858	80.006	19.996	100.175	20.235	-1.445	0.517
1169.500	661.127	80.007	19.995	100.175	20.235	-1.439	0.535
1170.000	661.348	80.008	19.996	100.175	20.234	-1.360	0.514
1170.500	661.619	80.007	19.996	100.176	20.235	-1.420	0.491
1171.000	661.878	80.005	19.996	100.176	20.234	-1.360	0.511
1171.500	662.120	80.006	19.996	100.176	20.231	-1.167	0.515
1172.000	662.367	80.007	19.996	100.176	20.236	-1.482	0.495
1172.500	662.625	80.007	19.996	100.177	20.234	-1.344	0.497
1173.000	662.881	80.007	19.995	100.177	20.235	-1.404	0.510
1173.500	663.138	80.006	19.995	100.177	20.231	-1.172	0.514
1174.000	663.377	80.008	19.996	100.177	20.234	-1.355	0.504
1174.501	663.664	80.006	19.996	100.178	20.234	-1.367	0.511
1175.001	663.912	80.008	19.995	100.178	20.235	-1.445	0.531
1175.501	664.147	80.006	19.996	100.182	20.234	-1.394	0.509
1176.001	664.390	80.006	19.996	100.185	20.234	-1.335	0.480
1176.500	664.665	80.006	19.996	100.185	20.234	-1.363	0.498
1177.000	664.882	80.007	19.995	100.185	20.237	-1.551	0.505
1177.500	665.181	80.008	19.996	100.184	20.238	-1.597	0.504
1178.000	665.416	80.008	19.995	100.182	20.236	-1.512	0.525
1178.501	665.713	80.008	19.995	100.180	20.237	-1.540	0.533
1179.001	665.939	80.008	19.996	100.179	20.234	-1.374	0.528
1179.500	666.205	80.008	19.995	100.179	20.237	-1.567	0.507
1180.000	666.506	80.008	19.995	100.178	20.236	-1.494	0.529
1180.500	666.722	80.008	19.996	100.178	20.239	-1.696	0.542
1181.000	666.995	80.010	19.995	100.177	20.236	-1.494	0.503
1181.500	667.239	80.008	19.995	100.178	20.235	-1.455	0.503
1182.000	667.511	80.009	19.995	100.177	20.238	-1.627	0.517
1182.501	667.764	80.009	19.996	100.177	20.238	-1.611	0.520
1183.001	667.986	80.008	19.996	100.176	20.237	-1.569	0.500
1183.500	668.229	80.010	19.996	100.175	20.237	-1.572	0.470
1184.000	668.490	80.008	19.995	100.175	20.236	-1.514	0.485
1184.500	668.779	80.009	19.996	100.178	20.236	-1.489	0.527
1185.000	668.998	80.009	19.997	100.183	20.238	-1.650	0.529
1185.500	669.246	80.008	19.996	100.184	20.239	-1.696	0.488
1186.000	669.527	80.008	19.995	100.184	20.239	-1.689	0.498
1186.500	669.803	80.008	19.996	100.184	20.236	-1.516	0.543
1187.000	670.029	80.008	19.995	100.182	20.232	-1.255	0.529
1187.500	670.238	80.008	19.995	100.177	20.240	-1.732	0.468
1188.000	670.522	80.008	19.996	100.176	20.239	-1.693	0.464
1188.501	670.738	80.008	19.996	100.176	20.235	-1.459	0.497
1189.001	671.025	80.008	19.996	100.176	20.236	-1.466	0.501
1189.500	671.315	80.008	19.997	100.175	20.237	-1.526	0.540
1190.000	671.531	80.008	19.996	100.176	20.236	-1.461	0.542
1190.500	671.827	80.009	19.996	100.176	20.234	-1.353	0.509
1191.000	672.089	80.008	19.995	100.175	20.234	-1.388	0.535
1191.500	672.253	80.007	19.997	100.175	20.235	-1.401	0.492
1192.000	672.607	80.007	19.997	100.175	20.235	-1.434	0.472
1192.501	672.810	80.008	19.996	100.174	20.238	-1.648	0.537
1193.001	673.072	80.007	19.996	100.174	20.239	-1.712	0.511
1193.500	673.324	80.008	19.997	100.175	20.234	-1.390	0.489
1194.000	673.590	80.008	19.998	100.175	20.242	-1.870	0.516
1194.500	673.833	80.006	19.997	100.174	20.238	-1.618	0.514
1195.000	674.096	80.008	19.996	100.175	20.239	-1.675	0.508
1195.500	674.402	80.007	19.997	100.174	20.237	-1.542	0.537
1196.000	674.613	80.007	19.997	100.175	20.238	-1.629	0.543
1196.500	674.883	80.007	19.996	100.175	20.236	-1.512	0.499
1197.000	675.117	80.006	19.996	100.175	20.238	-1.601	0.492
1197.500	675.420	80.008	19.997	100.176	20.239	-1.686	0.521
1198.000	675.655	80.007	19.997	100.177	20.240	-1.767	0.538
1198.501	675.876	80.008	19.996	100.176	20.241	-1.815	0.497
1199.001	676.148	80.007	19.996	100.176	20.236	-1.478	0.474
1199.501	676.409	80.006	19.997	100.177	20.240	-1.762	0.513
1200.001	676.654	80.008	19.997	100.177	20.236	-1.471	0.520
1200.500	676.938	80.007	19.997	100.177	20.238	-1.627	0.518
1201.000	677.202	80.007	19.998	100.177	20.239	-1.703	0.539
1201.500	677.431	80.009	19.997	100.177	20.241	-1.790	0.520
1202.000	677.687	80.008	19.995	100.177	20.239	-1.659	0.489
1202.501	677.908	80.008	19.997	100.177	20.241	-1.811	0.481
1203.001	678.175	80.008	19.996	100.177	20.237	-1.572	0.483
1203.500	678.403	80.008	19.997	100.177	20.239	-1.682	0.492
1204.000	678.676	80.008	19.996	100.178	20.242	-1.861	0.498
1204.500	678.927	80.008	19.996	100.178	20.241	-1.840	0.512
1205.000	679.138	80.010	19.996	100.178	20.239	-1.677	0.493
1205.500	679.398	80.008	19.996	100.179	20.240	-1.748	0.466
1206.000	679.684	80.010	19.996	100.179	20.240	-1.781	0.509
1206.500	679.963	80.010	19.996	100.178	20.240	-1.742	0.556
1207.000	680.170	80.009	19.995	100.178	20.243	-1.918	0.526
1207.501	680.457	80.010	19.995	100.177	20.239	-1.709	0.490
1208.001	680.676	80.009	19.995	100.177	20.238	-1.620	0.500
1208.501	680.941	80.010	19.994	100.177	20.239	-1.675	0.495
1209.000	681.169	80.010	19.994	100.177	20.237	-1.551	0.489
1209.500	681.449	80.010	19.995	100.177	20.236	-1.500	0.500
1210.000	681.698	80.010	19.994	100.178	20.237	-1.576	0.519
1210.500	681.870	80.011	19.996	100.178	20.239	-1.684	0.475
1211.000	682.240	80.010	19.995	100.178	20.238	-1.595	0.481
1211.501	682.485	80.009	19.995	100.178	20.240	-1.739	0.578
1212.001	682.634	80.009	19.994	100.178	20.237	-1.565	0.504
1212.500	682.916	80.010	19.995	100.178	20.239	-1.703	0.412
1213.000	683.419	80.008	19.994	100.178	20.237	-1.572	0.608
1213.500	683.046	80.009	19.994	100.179	20.240	-1.741	0.458
1214.000	683.234	80.008	19.995	100.178	20.235	-1.436	-0.027
1214.500	683.987	80.009	19.994	100.179	20.237	-1.585	0.377
1215.000	684.209	80.009	19.995	100.178	20.239	-1.718	0.958
1215.500	684.389	80.008	19.994	100.178	20.239	-1.702	0.689
1216.000	684.736	80.009	19.995	100.178	20.240	-1.726	0.464
1216.500	684.912	80.008	19.995	100.178	20.236	-1.493	0.524
1217.000	685.179	80.006	19.995	100.178	20.237	-1.572	0.483
1217.500	685.511	80.008	19.995	100.179	20.241	-1.788	0.521
1218.001	685.704	80.007	19.996	100.179	20.237	-1.563	0.562
1218.501	685.957	80.007	19.995	100.178	20.238	-1.640	0.486
1219.000	686.227	80.007	19.996	100.179	20.237	-1.581	0.485
1219.501	686.455	80.008	19.995	100.179	20.239	-1.668	0.511
1220.001	686.689	80.006	19.996	100.179	20.237	-1.567	0.480
1220.500	686.937	80.007	19.996	100.181	20.238	-1.622	0.472
1221.000	687.176	80.007	19.995	100.182	20.239	-1.689	0.484
1221.500	687.433	80.006	19.996	100.182	20.240	-1.753	0.491
1222.000	687.687	80.007	19.996	100.184	20.243	-1.953	0.503
1222.500	687.936	80.007	19.996	100.184	20.239	-1.703	0.507
1223.000	688.174	80.006	19.995	100.184	20.240	-1.781	0.495
1223.500	688.441	80.007	19.996	100.184	20.242	-1.889	0.496
1224.000	688.678	80.007	19.996	100.183	20.240	-1.772	0.504
1224.500	688.919	80.007	19.996	100.182	20.237	-1.569	0.491
1225.000	689.215	80.008	19.995	100.182	20.239	-1.714	0.508
1225.500	689.416	80.007	19.995	100.182	20.240	-1.756	0.517
1226.000	689.709	80.008	19.995	100.182	20.239	-1.687	0.495
1226.500	689.932	80.007	19.996	100.182	20.238	-1.613	0.505
1227.000	690.217	80.006	19.996	100.182	20.236	-1.484	0.512
1227.501	690.478	80.008	19.996	100.182	20.235	-1.431	0.527
1228.001	690.677	80.008	19.996	100.182	20.239	-1.693	0.503
1228.500	690.943	80.007	19.995	100.182	20.237	-1.574	0.462
1229.000	691.156	80.008	19.995	100.182	20.236	-1.493	0.472
1229.500	691.449	80.008	19.996	100.182	20.240	-1.721	0.492
1230.000	691.708	80.008	19.996	100.182	20.239	-1.714	0.529
1230.500	691.968	80.007	19.996	100.181	20.239	-1.675	0.536
1231.001	692.212	80.007	19.995	100.180	20.240	-1.735	0.512
1231.501	692.460	80.008	19.996	100.180	20.236	-1.505	0.498
1232.000	692.716	80.008	19.995	100.179	20.238	-1.643	0.498
1232.500	692.982	80.009	19.995	100.179	20.239	-1.694	0.513
1233.000	693.197	80.009	19.996	100.179	20.237	-1.571	0.501
1233.500	693.431	80.007	19.995	100.179	20.237	-1.548	0.464
1234.000	693.725	80.008	19.996	100.179	20.236	-1.501	0.488
1234.500	693.957	80.007	19.996	100.179	20.239	-1.709	0.527
1235.000	694.228	80.009	19.995	100.178	20.236	-1.523	0.515
1235.500	694.500	80.008	19.996	100.178	20.237	-1.571	0.523
1236.000	694.755	80.007	19.997	100.178	20.239	-1.661	0.535
1236.500	695.005	80.009	19.996	100.178	20.237	-1.583	0.516
1237.000	695.247	80.009	19.995	100.177	20.238	-1.638	0.498
1237.500	695.526	80.008	19.995	100.177	20.237	-1.569	0.507
1238.000	695.788	80.008	19.995	100.177	20.238	-1.611	0.532
1238.500	695.991	80.008	19.995	100.177	20.233	-1.266	0.503
1239.000	696.242	80.009	19.996	100.176	20.236	-1.498	0.459
1239.500	696.526	80.008	19.995	100.175	20.235	-1.454	0.495
1240.000	696.782	80.008	19.994	100.175	20.235	-1.406	0.538
1240.500	697.029	80.008	19.995	100.175	20.235	-1.438	0.521
1241.000	697.260	80.007	19.996	100.175	20.236	-1.512	0.491
1241.500	697.496	80.009	19.995	100.175	20.237	-1.532	0.473
1242.000	697.809	80.008	19.995	100.176	20.238	-1.654	0.508
1242.500	698.028	80.008	19.995	100.177	20.233	-1.285	0.540
1243.000	698.290	80.007	19.996	100.178	20.237	-1.540	0.507
1243.500	698.545	80.007	19.995	100.179	20.239	-1.663	0.499
1244.000	698.798	80.007	19.996	100.180	20.240	-1.723	0.512
1244.500	699.016	80.008	19.995	100.180	20.235	-1.447	0.490
1245.000	699.328	80.008	19.995	100.180	20.239	-1.712	0.501
1245.501	699.510	80.008	19.995	100.179	20.239	-1.702	0.512
1246.001	699.793	80.007	19.996	100.179	20.235	-1.413	0.479
1246.501	700.052	80.008	19.996	100.177	20.239	-1.712	0.503
1247.000	700.283	80.009	19.996	100.177	20.237	-1.542	0.516
1247.500	700.578	80.008	19.995	100.177	20.232	-1.213	0.508
1248.000	700.813	80.007	19.996	100.177	20.235	-1.406	0.528
1248.501	701.075	80.008	19.995	100.177	20.237	-1.567	0.514
1249.001	701.324	80.008	19.996	100.177	20.236	-1.487	0.504
1249.501	701.558	80.008	19.995	100.177	20.235	-1.448	0.497
1250.001	701.826	80.008	19.995	100.178	20.238	-1.594	0.492
1250.501	702.064	80.007	19.995	100.178	20.236	-1.475	0.504
1251.000	702.314	80.009	19.996	100.178	20.233	-1.284	0.497
1251.500	702.609	80.007	19.996	100.178	20.232	-1.246	0.517
1252.000	702.811	80.007	19.997	100.179	20.237	-1.560	0.521
1252.500	703.072	80.006	19.995	100.179	20.234	-1.388	0.480
1253.000	703.330	80.008	19.996	100.181	20.235	-1.459	0.490
1253.500	703.586	80.008	19.995	100.181	20.237	-1.549	0.516
1254.000	703.831	80.007	19.995	100.181	20.236	-1.500	0.508
1254.500	704.103	80.007	19.995	100.180	20.234	-1.393	0.509
1255.000	704.330	80.006	19.997	100.179	20.236	-1.510	0.508
1255.500	704.604	80.008	19.995	100.177	20.236	-1.484	0.500
1256.000	704.852	80.009	19.996	100.176	20.238	-1.629	0.512
1256.500	705.105	80.009	19.996	100.177	20.238	-1.602	0.512
1257.000	705.416	80.009	19.995	100.177	20.233	-1.317	0.533
1257.500	705.632	80.008	19.995	100.177	20.239	-1.657	0.545
1258.000	705.876	80.008	19.996	100.177	20.239	-1.686	0.493
1258.500	706.161	80.008	19.996	100.177	20.237	-1.528	0.495
1259.000	706.422	80.009	19.996	100.176	20.237	-1.551	0.538
1259.500	706.625	80.008	19.996	100.177	20.236	-1.525	0.505
1260.000	706.910	80.009	19.995	100.177	20.238	-1.641	0.476
1260.500	707.179	80.010	19.997	100.177	20.236	-1.487	0.521
1261.000	707.387	80.009	19.996	100.177	20.237	-1.537	0.516
1261.501	707.641	80.010	19.995	100.177	20.238	-1.638	0.470
1262.001	707.900	80.010	19.996	100.176	20.238	-1.601	0.487
1262.500	708.158	80.011	19.997	100.176	20.235	-1.441	0.515
1263.000	708.418	80.010	19.996	100.176	20.236	-1.470	0.517
1263.500	708.690	80.009	19.995	100.176	20.239	-1.712	0.525
1264.000	708.945	80.008	19.996	100.176	20.236	-1.498	0.530
1264.500	709.200	80.009	19.996	100.176	20.235	-1.443	0.518
1265.000	709.424	80.010	19.997	100.178	20.238	-1.636	0.494
1265.500	709.685	80.009	19.996	100.180	20.235	-1.429	0.482
1266.000	709.972	80.010	19.996	100.180	20.237	-1.563	0.516
1266.500	710.228	80.009	19.995	100.181	20.236	-1.493	0.545
1267.000	710.456	80.009	19.996	100.182	20.234	-1.381	0.514
1267.500	710.687	80.009	19.997	100.181	20.236	-1.521	0.471
1268.000	710.979	80.009	19.996	100.180	20.237	-1.549	0.491
1268.500	711.245	80.009	19.996	100.182	20.238	-1.608	0.541
1269.000	711.461	80.008	19.996	100.182	20.235	-1.411	0.521
1269.500	711.758	80.009	19.996	100.182	20.239	-1.680	0.498
1270.000	711.998	80.009	19.996	100.181	20.238	-1.592	0.525
1270.500	712.216	80.008	19.995	100.181	20.237	-1.562	0.498
1271.000	712.494	80.007	19.996	100.179	20.236	-1.493	0.477
1271.500	712.777	80.008	19.996	100.178	20.236	-1.491	0.528
1272.000	713.032	80.007	19.996	100.178	20.238	-1.648	0.549
1272.500	713.265	80.008	19.996	100.179	20.238	-1.609	0.513
1273.000	713.480	80.009	19.996	100.179	20.237	-1.581	0.468
1273.500	713.779	80.007	19.995	100.179	20.237	-1.571	0.481
1274.000	714.019	80.008	19.995	100.179	20.240	-1.753	0.527
1274.500	714.282	80.007	19.996	100.179	20.237	-1.576	0.521
1275.000	714.541	80.008	19.996	100.180	20.238	-1.631	0.512
1275.500	714.806	80.008	19.996	100.180	20.238	-1.611	0.523
1276.001	715.055	80.008	19.996	100.181	20.237	-1.537	0.519
1276.501	715.290	80.009	19.996	100.181	20.240	-1.760	0.499
1277.001	715.569	80.010	19.996	100.180	20.236	-1.500	0.499
1277.500	715.772	80.009	19.996	100.178	20.234	-1.344	0.498
1278.000	716.054	80.008	19.996	100.177	20.236	-1.496	0.483
1278.500	716.291	80.008	19.996	100.177	20.237	-1.532	0.502
1279.000	716.549	80.008	19.996	100.176	20.238	-1.654	0.507
1279.500	716.792	80.008	19.996	100.176	20.237	-1.530	0.498
1280.000	717.073	80.009	19.995	100.177	20.238	-1.592	0.512
1280.500	717.289	80.008	19.995	100.177	20.240	-1.781	0.511
1281.000	717.527	80.010	19.997	100.178	20.240	-1.721	0.476
1281.500	717.781	80.008	19.996	100.178	20.237	-1.558	0.473
1282.000	718.022	80.009	19.995	100.178	20.237	-1.581	0.493
1282.500	718.277	80.009	19.995	100.178	20.237	-1.530	0.495
1283.000	718.528	80.008	19.996	100.178	20.240	-1.725	0.502
1283.500	718.801	80.008	19.996	100.179	20.236	-1.466	0.515
1284.000	719.040	80.008	19.995	100.178	20.237	-1.528	0.518
1284.500	719.282	80.008	19.996	100.179	20.236	-1.525	0.497
1285.000	719.563	80.008	19.996	100.178	20.236	-1.464	0.502
1285.500	719.790	80.010	19.996	100.179	20.236	-1.510	0.515
1286.000	720.040	80.008	19.995	100.178	20.236	-1.487	0.493
1286.500	720.294	80.009	19.995	100.178	20.236	-1.466	0.491
1287.000	720.521	80.008	19.996	100.178	20.235	-1.395	0.493
1287.500	720.791	80.008	19.996	100.178	20.237	-1.533	0.489
1288.000	721.027	80.008	19.996	100.177	20.237	-1.540	0.502
1288.500	721.279	80.009	19.996	100.177	20.238	-1.640	0.497
1289.000	721.523	80.008	19.996	100.177	20.238	-1.595	0.492
1289.500	721.781	80.010	19.996	100.177	20.238	-1.624	0.499
1290.000	722.029	80.008	19.996	100.177	20.239	-1.694	0.504
1290.501	722.266	80.009	19.995	100.177	20.239	-1.659	0.495
1291.001	722.501	80.009	19.996	100.177	20.239	-1.702	0.479
1291.501	722.777	80.009	19.995	100.177	20.240	-1.769	0.492
1292.001	723.012	80.008	19.995	100.177	20.242	-1.912	0.511
1292.501	723.279	80.009	19.996	100.178	20.238	-1.641	0.506
1293.000	723.560	80.008	19.997	100.178	20.237	-1.583	0.525
1293.500	723.798	80.009	19.996	100.178	20.238	-1.622	0.533
1294.000	724.053	80.008	19.995	100.178	20.237	-1.551	0.506
1294.500	724.315	80.009	19.995	100.177	20.237	-1.548	0.505
1295.000	724.543	80.007	19.996	100.177	20.239	-1.718	0.503
1295.501	724.803	80.008	19.997	100.180	20.241	-1.840	0.489
1296.001	725.057	80.009	19.996	100.182	20.238	-1.654	0.502
1296.501	725.296	80.007	19.996	100.184	20.236	-1.480	0.504
1297.001	725.545	80.008	19.996	100.185	20.240	-1.746	0.490
1297.500	725.803	80.007	19.996	100.185	20.244	-2.040	0.498
1298.000	726.042	80.009	19.996	100.184	20.241	-1.818	0.502
1298.500	726.240	80.007	19.997	100.182	20.241	-1.836	0.467
1299.001	726.512	80.007	19.996	100.180	20.241	-1.792	0.453
1299.501	726.766	80.007	19.997	100.180	20.240	-1.778	0.498
1300.001	727.028	80.007	19.996	100.179	20.242	-1.880	0.521
1300.500	727.298	80.007	19.997	100.177	20.241	-1.829	0.524
1301.000	727.545	80.007	19.996	100.177	20.240	-1.771	0.524
1301.500	727.815	80.007	19.997	100.177	20.241	-1.797	0.517
1302.000	728.031	80.008	19.996	100.177	20.242	-1.891	0.502
1302.500	728.310	80.007	19.996	100.177	20.239	-1.709	0.491
1303.000	728.556	80.007	19.996	100.176	20.240	-1.785	0.510
1303.500	728.796	80.006	19.997	100.177	20.238	-1.622	0.506
1304.000	729.045	80.008	19.996	100.177	20.241	-1.818	0.487
1304.500	729.305	80.007	19.996	100.178	20.243	-1.969	0.498
1305.000	729.550	80.007	19.996	100.179	20.242	-1.864	0.507
1305.500	729.812	80.008	19.997	100.180	20.240	-1.762	0.506
1306.000	730.010	80.007	19.996	100.181	20.239	-1.657	0.483
1306.501	730.264	80.006	19.996	100.180	20.240	-1.751	0.456
1307.001	730.519	80.007	19.996	100.180	20.240	-1.721	0.481
1307.500	730.806	80.007	19.995	100.180	20.237	-1.579	0.525
1308.000	731.038	80.008	19.995	100.178	20.236	-1.493	0.531
1308.500	731.288	80.010	19.996	100.177	20.239	-1.710	0.501
1309.000	731.554	80.009	19.995	100.177	20.241	-1.808	0.499
1309.500	731.758	80.007	19.996	100.177	20.239	-1.675	0.493
1310.000	732.026	80.007	19.995	100.177	20.239	-1.666	0.471
1310.501	732.271	80.008	19.996	100.177	20.241	-1.813	0.493
1311.001	732.567	80.007	19.996	100.177	20.238	-1.631	0.527
1311.501	732.824	80.008	19.995	100.178	20.242	-1.914	0.547
1312.000	733.064	80.008	19.996	100.178	20.241	-1.834	0.525
1312.500	733.319	80.007	19.996	100.177	20.239	-1.702	0.496
1313.000	733.556	80.009	19.995	100.177	20.241	-1.806	0.494
1313.500	733.803	80.009	19.995	100.177	20.240	-1.746	0.488
1314.000	734.081	80.009	19.996	100.177	20.237	-1.581	0.505
1314.500	734.331	80.010	19.995	100.178	20.238	-1.618	0.527
1315.000	734.598	80.008	19.996	100.178	20.240	-1.755	0.522
1315.500	734.845	80.010	19.996	100.178	20.241	-1.802	0.515
1316.000	735.084	80.009	19.995	100.178	20.241	-1.790	0.500
1316.500	735.302	80.009	19.995	100.178	20.241	-1.813	0.472
1317.000	735.566	80.008	19.995	100.178	20.242	-1.866	0.470
1317.500	735.818	80.008	19.995	100.178	20.239	-1.689	0.499
1318.000	736.065	80.009	19.995	100.177	20.241	-1.788	0.507
1318.500	736.339	80.008	19.996	100.177	20.240	-1.765	0.509
1319.000	736.569	80.009	19.995	100.177	20.243	-1.944	0.512
1319.500	736.798	80.009	19.995	100.176	20.242	-1.852	0.482
1320.000	737.042	80.007	19.996	100.177	20.239	-1.702	0.466
1320.500	737.302	80.010	19.996	100.177	20.241	-1.795	0.489
1321.000	737.516	80.008	19.995	100.177	20.237	-1.583	0.490
1321.500	737.800	80.008	19.996	100.177	20.240	-1.748	0.486
1322.000	738.045	80.009	19.995	100.177	20.240	-1.726	0.513
1322.500	738.293	80.010	19.996	100.177	20.241	-1.838	0.511
1323.001	738.533	80.008	19.996	100.177	20.238	-1.624	0.490
1323.501	738.816	80.008	19.996	100.176	20.239	-1.698	0.505
1324.001	739.053	80.008	19.996	100.176	20.239	-1.716	0.521
1324.500	739.296	80.008	19.995	100.177	20.236	-1.519	0.500
1325.000	739.540	80.007	19.995	100.176	20.238	-1.638	0.484
1325.501	739.809	80.009	19.996	100.176	20.240	-1.748	0.501
1326.001	740.075	80.009	19.996	100.177	20.237	-1.546	0.524
1326.501	740.329	80.009	19.995	100.177	20.238	-1.633	0.527
1327.000	740.593	80.008	19.997	100.177	20.237	-1.581	0.519
1327.501	740.826	80.007	19.996	100.177	20.236	-1.464	0.508
1328.001	741.058	80.008	19.996	100.177	20.235	-1.420	0.481
1328.500	741.321	80.007	19.996	100.177	20.236	-1.494	0.480
1329.000	741.579	80.008	19.996	100.178	20.236	-1.470	0.508
1329.500	741.818	80.007	19.996	100.178	20.238	-1.622	0.509
1330.000	742.055	80.008	19.996	100.178	20.237	-1.556	0.486
1330.500	742.342	80.007	19.995	100.177	20.237	-1.565	0.500
1331.000	742.554	80.007	19.996	100.177	20.236	-1.505	0.512
1331.500	742.824	80.008	19.995	100.177	20.239	-1.663	0.491
1332.000	743.092	80.008	19.996	100.177	20.236	-1.517	0.510
1332.500	743.297	80.007	19.996	100.177	20.236	-1.464	0.505
1333.000	743.568	80.008	19.996	100.177	20.234	-1.342	0.474
