Sample ID:	C:\MCC\PVC_MCC_30K_min_210920_R3.txt
Sample Weight (mg):	4.42
Heating Rate (C/s):	0.5
Combustor Temp (C):	900
N2 Flow Rate (cc/min):	80
O2 Flow Rate (cc/min):	20
Calibration File:	C:\MCC\MCC Cal\Coeff1 JN10440_30_210304.txt.txt
T Correction Coefficients:	0	1.024463	0
Time Shift (s):	14
*
Time (s)	Temperature (C)	N2 flow rate (cc/min)	O2 flow rate (cc/min)	Flow Rate (cc/min)	Oxygen (%)	HRR (W/g)	Heating rate (C/s)
0.000	110.506	80.005	19.994	100.257	20.219	-0.407	0.009
0.500	110.520	80.004	19.994	100.256	20.218	-0.378	0.001
1.000	110.490	80.004	19.994	100.257	20.217	-0.272	-0.003
1.500	110.475	80.003	19.994	100.256	20.221	-0.587	-0.031
2.001	110.500	80.003	19.994	100.258	20.220	-0.452	-0.017
2.500	110.477	80.002	19.995	100.258	20.221	-0.554	0.006
3.000	110.445	80.004	19.994	100.258	20.221	-0.589	-0.027
3.499	110.513	80.003	19.994	100.259	20.222	-0.610	-0.010
3.999	110.465	80.003	19.994	100.259	20.219	-0.432	0.028
4.499	110.501	80.002	19.995	100.258	20.218	-0.378	0.004
4.999	110.479	80.002	19.995	100.258	20.222	-0.645	0.001
5.499	110.468	80.004	19.994	100.258	20.221	-0.535	-0.010
5.999	110.447	80.002	19.995	100.258	20.219	-0.434	-0.032
6.499	110.488	80.003	19.995	100.259	20.219	-0.392	-0.006
6.999	110.467	80.000	19.994	100.260	20.221	-0.579	0.020
7.500	110.436	80.003	19.995	100.260	20.220	-0.477	-0.016
8.000	110.458	80.003	19.995	100.260	20.221	-0.579	-0.030
8.500	110.482	80.002	19.994	100.260	20.221	-0.537	0.018
9.000	110.450	80.004	19.994	100.260	20.219	-0.444	0.019
9.499	110.444	80.002	19.995	100.261	20.223	-0.693	-0.023
9.999	110.488	80.004	19.994	100.260	20.221	-0.544	0.000
10.500	110.433	80.005	19.994	100.262	20.220	-0.452	0.014
11.000	110.470	80.002	19.994	100.262	20.221	-0.521	-0.015
11.499	110.448	80.003	19.994	100.263	20.222	-0.660	-0.001
11.999	110.457	80.002	19.994	100.262	20.219	-0.417	0.001
12.499	110.457	80.004	19.995	100.262	20.217	-0.282	-0.002
12.999	110.424	80.003	19.994	100.261	20.217	-0.259	-0.012
13.499	110.446	80.002	19.994	100.262	20.219	-0.404	-0.022
13.999	110.441	80.003	19.994	100.262	20.221	-0.529	0.003
14.499	110.424	80.002	19.994	100.263	20.220	-0.498	-0.003
15.000	110.459	80.002	19.994	100.263	20.219	-0.419	-0.002
15.500	110.439	80.004	19.994	100.263	20.218	-0.359	0.017
16.000	110.476	80.003	19.994	100.263	20.221	-0.568	0.016
16.499	110.442	80.002	19.994	100.263	20.219	-0.400	0.010
17.000	110.433	80.001	19.994	100.263	20.218	-0.338	-0.020
17.500	110.468	80.004	19.994	100.263	20.221	-0.525	-0.008
17.999	110.417	80.003	19.994	100.263	20.218	-0.355	0.005
18.499	110.428	80.002	19.995	100.268	20.215	-0.122	-0.028
18.999	110.431	80.001	19.994	100.276	20.216	-0.234	-0.013
19.500	110.441	80.001	19.994	100.284	20.216	-0.228	0.013
20.000	110.437	80.002	19.994	100.292	20.216	-0.201	0.010
20.500	110.460	80.003	19.994	100.299	20.218	-0.309	0.012
21.000	110.454	80.002	19.995	100.302	20.214	-0.077	0.018
21.499	110.485	80.003	19.994	100.304	20.214	-0.075	0.021
21.999	110.472	80.003	19.994	100.310	20.213	0.008	0.021
22.499	110.490	80.003	19.995	100.316	20.213	0.023	0.011
22.999	110.460	80.003	19.994	100.321	20.213	-0.006	-0.003
23.499	110.526	80.001	19.994	100.325	20.210	0.195	0.012
24.000	110.515	80.002	19.995	100.324	20.212	0.075	0.045
24.500	110.512	80.003	19.995	100.321	20.211	0.153	0.021
24.999	110.500	80.002	19.994	100.318	20.210	0.255	-0.014
25.499	110.508	80.002	19.995	100.314	20.209	0.280	-0.009
26.000	110.553	80.000	19.995	100.311	20.208	0.361	0.024
26.500	110.566	80.000	19.995	100.310	20.206	0.481	0.056
27.000	110.585	80.001	19.996	100.313	20.205	0.586	0.045
27.500	110.586	80.003	19.995	100.317	20.208	0.371	0.026
27.999	110.595	80.002	19.995	100.324	20.205	0.549	0.015
28.499	110.609	80.003	19.995	100.331	20.206	0.472	0.017
28.999	110.618	80.001	19.995	100.338	20.208	0.398	0.023
29.499	110.653	80.003	19.995	100.341	20.207	0.439	0.033
29.999	110.652	80.002	19.996	100.344	20.206	0.503	0.039
30.499	110.667	80.000	19.995	100.344	20.208	0.371	0.024
30.999	110.705	80.001	19.995	100.345	20.205	0.561	0.034
31.499	110.753	80.001	19.995	100.345	20.203	0.702	0.069
31.999	110.753	80.001	19.996	100.347	20.202	0.793	0.067
32.500	110.758	80.003	19.995	100.353	20.199	1.025	0.027
33.000	110.822	79.999	19.996	100.360	20.202	0.785	0.037
33.501	110.852	80.002	19.995	100.371	20.199	0.982	0.081
34.001	110.874	80.003	19.996	100.384	20.201	0.855	0.073
34.500	110.888	79.998	19.995	100.391	20.200	0.934	0.044
35.000	110.932	80.001	19.995	100.398	20.199	0.977	0.047
35.500	110.972	80.003	19.995	100.406	20.200	0.905	0.071
36.000	110.990	79.999	19.995	100.411	20.200	0.938	0.071
36.501	111.002	79.999	19.994	100.413	20.198	1.054	0.044
37.001	111.057	80.000	19.995	100.420	20.196	1.212	0.048
37.501	111.102	80.000	19.995	100.421	20.194	1.350	0.084
38.000	111.116	80.002	19.995	100.421	20.195	1.311	0.080
38.500	111.199	80.000	19.994	100.422	20.192	1.479	0.078
39.000	111.241	79.999	19.994	100.423	20.196	1.228	0.111
39.500	111.258	80.000	19.995	100.429	20.195	1.268	0.092
40.000	111.304	80.001	19.995	100.434	20.194	1.342	0.061
40.500	111.351	80.000	19.995	100.437	20.194	1.390	0.078
41.000	111.430	80.001	19.994	100.441	20.193	1.415	0.109
41.500	111.479	79.999	19.995	100.453	20.192	1.516	0.127
42.000	111.556	80.002	19.995	100.450	20.191	1.543	0.127
42.500	111.632	80.001	19.995	100.445	20.188	1.784	0.140
43.000	111.682	80.001	19.994	100.444	20.189	1.688	0.140
43.501	111.729	80.001	19.994	100.441	20.186	1.910	0.112
44.001	111.811	80.002	19.995	100.436	20.187	1.883	0.113
44.500	111.880	80.002	19.994	100.439	20.186	1.928	0.140
45.000	111.956	80.001	19.995	100.450	20.188	1.763	0.148
45.500	112.005	80.001	19.995	100.456	20.187	1.879	0.135
46.000	112.115	80.002	19.995	100.463	20.190	1.644	0.142
46.500	112.173	80.003	19.995	100.464	20.187	1.825	0.163
47.000	112.233	80.003	19.995	100.463	20.188	1.756	0.143
47.500	112.359	80.001	19.995	100.454	20.190	1.665	0.152
48.000	112.434	80.003	19.994	100.452	20.190	1.626	0.193
48.500	112.511	80.002	19.995	100.449	20.186	1.895	0.177
49.000	112.593	80.002	19.995	100.447	20.190	1.624	0.156
49.500	112.703	80.004	19.995	100.447	20.191	1.599	0.175
50.000	112.728	80.002	19.996	100.449	20.187	1.831	0.163
50.500	112.854	80.004	19.995	100.449	20.188	1.818	0.143
51.000	112.950	80.002	19.996	100.447	20.187	1.858	0.187
51.500	113.020	80.004	19.995	100.446	20.184	2.054	0.194
52.000	113.092	80.003	19.995	100.444	20.185	1.969	0.154
52.501	113.182	80.002	19.995	100.441	20.184	2.048	0.152
53.001	113.284	80.000	19.996	100.439	20.186	1.938	0.177
53.500	113.368	80.003	19.995	100.440	20.187	1.855	0.189
54.000	113.486	80.002	19.995	100.441	20.186	1.944	0.194
54.499	113.567	80.002	19.995	100.444	20.184	2.033	0.200
54.999	113.698	80.003	19.996	100.448	20.188	1.814	0.206
55.499	113.784	80.003	19.994	100.450	20.184	2.056	0.215
55.999	113.879	80.003	19.995	100.454	20.187	1.878	0.199
56.499	113.996	80.005	19.995	100.455	20.186	1.894	0.196
56.999	114.043	80.003	19.996	100.455	20.186	1.942	0.188
57.500	114.190	80.003	19.995	100.455	20.185	1.998	0.179
58.000	114.278	80.004	19.996	100.456	20.186	1.917	0.215
58.499	114.395	80.002	19.996	100.456	20.185	1.965	0.220
59.000	114.498	80.004	19.997	100.457	20.184	2.033	0.212
59.500	114.591	80.002	19.996	100.457	20.184	2.091	0.208
59.999	114.747	80.003	19.996	100.457	20.185	2.008	0.223
60.499	114.781	80.002	19.996	100.456	20.182	2.178	0.219
60.999	114.929	80.002	19.996	100.458	20.181	2.261	0.186
61.499	115.064	80.002	19.995	100.461	20.183	2.151	0.232
61.999	115.160	80.003	19.996	100.465	20.184	2.101	0.257
62.499	115.280	80.003	19.995	100.469	20.183	2.149	0.224
62.999	115.377	80.003	19.995	100.474	20.183	2.169	0.217
63.499	115.511	80.004	19.996	100.478	20.183	2.167	0.224
64.001	115.656	80.002	19.995	100.482	20.182	2.175	0.255
64.501	115.734	80.002	19.995	100.485	20.180	2.324	0.251
64.999	115.901	80.003	19.994	100.488	20.183	2.132	0.234
65.499	116.009	80.004	19.996	100.491	20.180	2.326	0.260
65.999	116.129	80.003	19.994	100.492	20.178	2.467	0.251
66.501	116.252	80.004	19.995	100.492	20.181	2.312	0.235
67.001	116.426	80.003	19.995	100.492	20.180	2.354	0.270
67.500	116.529	80.004	19.995	100.493	20.181	2.304	0.287
68.001	116.675	80.004	19.995	100.493	20.181	2.267	0.262
68.501	116.787	80.004	19.994	100.494	20.180	2.318	0.253
69.000	116.933	80.003	19.994	100.495	20.179	2.395	0.258
69.499	117.063	80.003	19.993	100.495	20.180	2.352	0.268
70.000	117.168	80.004	19.994	100.495	20.181	2.296	0.255
70.501	117.333	80.005	19.994	100.496	20.178	2.463	0.252
71.000	117.514	80.004	19.994	100.496	20.178	2.476	0.308
71.499	117.678	80.005	19.994	100.496	20.178	2.488	0.345
71.999	117.801	80.005	19.994	100.495	20.176	2.629	0.316
72.499	117.939	80.006	19.994	100.495	20.178	2.525	0.274
72.999	118.137	80.005	19.994	100.495	20.179	2.409	0.298
73.500	118.247	80.004	19.994	100.497	20.176	2.660	0.322
74.000	118.380	80.005	19.993	100.499	20.179	2.428	0.276
74.499	118.561	80.007	19.994	100.506	20.175	2.732	0.278
74.999	118.716	80.004	19.994	100.512	20.178	2.523	0.325
75.501	118.857	80.005	19.994	100.519	20.176	2.643	0.316
76.001	119.029	80.006	19.994	100.517	20.178	2.496	0.305
76.501	119.180	80.006	19.993	100.515	20.174	2.771	0.318
77.001	119.330	80.006	19.994	100.510	20.178	2.498	0.312
77.499	119.507	80.006	19.994	100.507	20.178	2.496	0.314
77.999	119.640	80.004	19.994	100.500	20.177	2.585	0.319
78.499	119.801	80.005	19.995	100.505	20.176	2.604	0.303
78.999	119.988	80.005	19.994	100.506	20.176	2.635	0.321
79.499	120.161	80.005	19.994	100.505	20.177	2.583	0.354
79.999	120.304	80.005	19.995	100.504	20.179	2.432	0.337
80.499	120.481	80.005	19.993	100.504	20.178	2.488	0.318
80.999	120.639	80.004	19.994	100.504	20.177	2.567	0.328
81.499	120.823	80.004	19.995	100.504	20.179	2.448	0.339
81.999	121.000	80.005	19.993	100.505	20.178	2.502	0.351
82.499	121.161	80.003	19.994	100.504	20.177	2.575	0.349
83.000	121.361	80.003	19.994	100.509	20.177	2.572	0.350
83.500	121.531	80.004	19.994	100.507	20.177	2.552	0.366
83.999	121.703	80.004	19.995	100.509	20.177	2.535	0.356
84.499	121.860	80.003	19.994	100.508	20.180	2.339	0.336
84.999	122.067	80.003	19.994	100.513	20.173	2.817	0.346
85.501	122.271	80.003	19.995	100.509	20.176	2.647	0.387
86.001	122.444	80.003	19.995	100.509	20.175	2.738	0.394
86.499	122.645	80.002	19.994	100.510	20.178	2.488	0.375
86.999	122.810	80.002	19.994	100.512	20.177	2.543	0.371
87.499	122.993	80.002	19.994	100.511	20.177	2.587	0.357
87.999	123.156	80.001	19.995	100.511	20.174	2.773	0.347
88.499	123.351	80.003	19.994	100.510	20.174	2.796	0.351
88.999	123.580	80.000	19.995	100.507	20.178	2.494	0.391
89.499	123.820	80.002	19.995	100.507	20.177	2.591	0.447
89.999	123.923	80.001	19.995	100.508	20.177	2.589	0.406
90.499	124.101	80.002	19.995	100.510	20.177	2.539	0.312
90.999	124.322	80.002	19.995	100.512	20.175	2.705	0.340
91.499	124.507	80.002	19.994	100.514	20.173	2.819	0.403
91.999	124.701	80.003	19.994	100.516	20.179	2.442	0.392
92.499	124.910	80.002	19.994	100.519	20.178	2.507	0.391
92.999	125.082	80.002	19.995	100.521	20.177	2.596	0.392
93.500	125.286	80.001	19.994	100.524	20.176	2.662	0.379
94.001	125.519	80.002	19.994	100.527	20.178	2.514	0.407
94.501	125.712	80.002	19.993	100.531	20.175	2.705	0.432
95.000	125.906	80.001	19.995	100.530	20.177	2.593	0.406
95.499	126.086	80.001	19.994	100.527	20.175	2.738	0.380
95.999	126.269	80.000	19.996	100.527	20.177	2.556	0.368
96.499	126.512	80.003	19.994	100.526	20.175	2.695	0.394
96.999	126.724	80.002	19.995	100.522	20.177	2.576	0.441
97.499	126.919	80.002	19.994	100.520	20.177	2.591	0.431
97.999	127.113	80.002	19.994	100.523	20.176	2.670	0.398
98.500	127.324	80.002	19.994	100.525	20.177	2.562	0.397
99.000	127.500	80.002	19.994	100.524	20.176	2.667	0.396
99.500	127.718	80.003	19.995	100.529	20.176	2.643	0.391
100.000	127.900	80.003	19.995	100.530	20.176	2.655	0.397
100.499	128.143	80.002	19.994	100.530	20.176	2.665	0.412
100.999	128.347	80.002	19.994	100.529	20.178	2.467	0.436
101.499	128.555	80.002	19.995	100.526	20.174	2.744	0.430
101.999	128.787	80.003	19.994	100.521	20.178	2.519	0.426
102.500	128.974	80.001	19.994	100.517	20.173	2.839	0.430
103.000	129.231	80.003	19.995	100.512	20.175	2.711	0.432
103.500	129.412	80.003	19.994	100.511	20.177	2.556	0.441
104.001	129.631	80.003	19.994	100.515	20.174	2.794	0.419
104.501	129.869	80.004	19.994	100.521	20.180	2.384	0.429
105.000	130.074	80.002	19.994	100.526	20.178	2.523	0.450
105.499	130.284	80.002	19.994	100.530	20.178	2.490	0.429
105.999	130.492	80.003	19.994	100.531	20.180	2.378	0.416
106.499	130.743	80.002	19.995	100.530	20.176	2.624	0.438
106.999	130.931	80.003	19.993	100.525	20.176	2.624	0.449
107.499	131.181	80.002	19.994	100.524	20.177	2.572	0.438
107.999	131.407	80.002	19.993	100.528	20.177	2.566	0.457
108.499	131.609	80.003	19.994	100.531	20.177	2.581	0.452
108.999	131.804	80.003	19.994	100.530	20.177	2.554	0.413
109.499	132.038	80.001	19.995	100.531	20.175	2.676	0.413
109.999	132.266	80.003	19.994	100.531	20.179	2.413	0.446
110.499	132.485	80.003	19.994	100.527	20.176	2.653	0.455
110.999	132.700	80.004	19.994	100.526	20.178	2.527	0.441
111.499	132.914	80.002	19.995	100.526	20.175	2.740	0.431
111.999	133.124	80.004	19.994	100.524	20.179	2.407	0.427
112.499	133.381	80.003	19.995	100.525	20.178	2.515	0.445
112.999	133.609	80.002	19.995	100.528	20.180	2.378	0.475
113.499	133.850	80.002	19.994	100.528	20.179	2.393	0.477
113.999	134.078	80.003	19.995	100.530	20.175	2.691	0.469
114.499	134.287	80.003	19.995	100.534	20.180	2.382	0.453
114.999	134.502	80.002	19.995	100.535	20.177	2.533	0.430
115.499	134.742	80.002	19.995	100.534	20.178	2.469	0.440
116.001	134.996	80.002	19.995	100.529	20.180	2.372	0.475
116.501	135.212	80.001	19.995	100.528	20.180	2.343	0.482
116.999	135.453	80.002	19.995	100.524	20.178	2.504	0.463
117.499	135.686	80.003	19.995	100.522	20.179	2.397	0.466
118.000	135.925	80.002	19.994	100.520	20.177	2.569	0.473
118.501	136.163	80.001	19.996	100.526	20.176	2.610	0.474
119.000	136.397	80.002	19.996	100.527	20.179	2.438	0.475
119.501	136.616	80.002	19.995	100.527	20.178	2.482	0.463
120.001	136.885	80.001	19.995	100.527	20.178	2.461	0.470
120.500	137.093	80.002	19.996	100.527	20.177	2.573	0.483
121.000	137.329	80.001	19.996	100.523	20.174	2.790	0.461
121.499	137.582	80.001	19.995	100.523	20.179	2.389	0.466
121.999	137.811	80.002	19.994	100.526	20.180	2.385	0.485
122.499	138.057	80.002	19.996	100.526	20.178	2.523	0.479
122.999	138.282	80.002	19.995	100.524	20.179	2.414	0.473
123.499	138.531	80.001	19.995	100.520	20.179	2.416	0.473
123.999	138.778	80.001	19.995	100.516	20.179	2.447	0.485
124.500	138.991	80.001	19.996	100.514	20.179	2.391	0.478
125.000	139.204	80.002	19.995	100.512	20.179	2.387	0.443
125.500	139.509	80.003	19.995	100.515	20.178	2.515	0.472
126.001	139.744	80.002	19.996	100.520	20.178	2.529	0.529
126.502	139.964	80.002	19.995	100.522	20.178	2.521	0.497
127.001	140.213	80.002	19.995	100.518	20.180	2.378	0.462
127.499	140.444	80.003	19.995	100.516	20.182	2.209	0.475
127.999	140.702	80.003	19.995	100.514	20.179	2.420	0.485
128.500	140.928	80.004	19.995	100.511	20.180	2.331	0.486
129.000	141.194	80.005	19.995	100.510	20.179	2.393	0.488
129.500	141.448	80.002	19.995	100.509	20.180	2.341	0.506
130.000	141.689	80.004	19.995	100.509	20.181	2.256	0.508
130.500	141.944	80.004	19.995	100.505	20.180	2.383	0.496
131.000	142.171	80.004	19.995	100.503	20.178	2.467	0.489
131.500	142.393	80.003	19.994	100.501	20.179	2.426	0.465
132.000	142.630	80.004	19.994	100.502	20.178	2.515	0.454
132.500	142.925	80.004	19.995	100.502	20.178	2.467	0.495
133.000	143.153	80.006	19.994	100.506	20.176	2.646	0.528
133.500	143.410	80.004	19.995	100.506	20.179	2.434	0.504
134.000	143.686	80.006	19.996	100.506	20.180	2.379	0.509
134.500	143.894	80.004	19.995	100.505	20.177	2.584	0.509
135.000	144.121	80.004	19.995	100.506	20.178	2.515	0.459
135.500	144.426	80.004	19.995	100.504	20.179	2.391	0.483
136.000	144.649	80.003	19.995	100.505	20.176	2.615	0.530
136.500	144.893	80.005	19.995	100.506	20.177	2.563	0.498
137.000	145.145	80.006	19.995	100.507	20.182	2.211	0.482
137.500	145.409	80.004	19.995	100.504	20.178	2.492	0.506
138.000	145.656	80.004	19.995	100.503	20.179	2.399	0.514
138.500	145.902	80.006	19.995	100.501	20.178	2.488	0.502
139.000	146.150	80.004	19.995	100.499	20.179	2.401	0.494
139.500	146.412	80.003	19.995	100.497	20.175	2.701	0.502
140.000	146.666	80.004	19.996	100.496	20.181	2.314	0.513
140.500	146.880	80.005	19.996	100.497	20.178	2.519	0.492
141.000	147.101	80.004	19.996	100.500	20.179	2.389	0.451
141.501	147.374	80.005	19.996	100.501	20.180	2.376	0.464
142.001	147.648	80.003	19.995	100.502	20.180	2.377	0.521
142.501	147.890	80.004	19.995	100.505	20.180	2.372	0.531
143.001	148.136	80.004	19.995	100.505	20.178	2.507	0.502
143.500	148.380	80.003	19.995	100.502	20.179	2.406	0.489
144.000	148.627	80.003	19.994	100.501	20.180	2.327	0.491
144.500	148.892	80.004	19.995	100.500	20.182	2.221	0.502
145.001	149.141	80.002	19.995	100.497	20.182	2.176	0.512
145.501	149.419	80.002	19.996	100.496	20.178	2.476	0.520
146.000	149.645	80.003	19.996	100.495	20.181	2.252	0.515
146.500	149.866	80.004	19.996	100.495	20.184	2.081	0.476
147.000	150.132	80.002	19.995	100.496	20.180	2.360	0.467
147.500	150.390	80.002	19.995	100.496	20.182	2.184	0.505
148.000	150.663	80.003	19.995	100.498	20.182	2.184	0.528
148.500	150.861	80.004	19.995	100.498	20.183	2.124	0.501
149.000	151.100	80.003	19.995	100.499	20.182	2.226	0.454
149.501	151.387	80.003	19.995	100.498	20.183	2.157	0.482
150.000	151.628	80.003	19.995	100.499	20.181	2.306	0.527
150.499	151.875	80.003	19.995	100.498	20.180	2.323	0.507
151.000	152.157	80.003	19.995	100.498	20.184	2.045	0.508
151.500	152.438	80.003	19.995	100.498	20.182	2.211	0.547
151.999	152.675	80.003	19.995	100.498	20.182	2.222	0.541
152.500	152.909	80.003	19.995	100.498	20.185	2.023	0.494
153.000	153.155	80.003	19.995	100.499	20.185	2.023	0.475
153.500	153.391	80.003	19.995	100.498	20.185	1.971	0.481
153.999	153.677	80.003	19.995	100.496	20.183	2.166	0.502
154.499	153.922	80.005	19.995	100.496	20.182	2.217	0.527
154.999	154.182	80.003	19.995	100.496	20.183	2.124	0.518
155.499	154.386	80.003	19.995	100.495	20.183	2.124	0.484
155.999	154.654	80.004	19.996	100.495	20.184	2.091	0.468
156.499	154.905	80.006	19.995	100.497	20.184	2.056	0.495
156.999	155.153	80.006	19.995	100.496	20.181	2.284	0.509
157.499	155.437	80.005	19.994	100.495	20.181	2.307	0.515
157.999	155.670	80.005	19.995	100.495	20.182	2.201	0.524
158.499	155.918	80.004	19.994	100.495	20.183	2.170	0.499
159.000	156.213	80.005	19.995	100.493	20.184	2.081	0.512
159.500	156.413	80.005	19.996	100.492	20.185	1.979	0.519
159.999	156.683	80.004	19.995	100.489	20.184	2.058	0.483
160.499	156.940	80.006	19.994	100.489	20.184	2.101	0.498
160.999	157.207	80.005	19.994	100.487	20.185	1.961	0.526
161.499	157.438	80.006	19.995	100.489	20.185	1.984	0.511
161.999	157.756	80.005	19.994	100.488	20.186	1.955	0.523
162.500	157.953	80.004	19.994	100.490	20.186	1.932	0.532
163.001	158.229	80.004	19.994	100.487	20.186	1.934	0.494
163.500	158.462	80.005	19.994	100.486	20.186	1.905	0.491
163.999	158.743	80.003	19.994	100.483	20.184	2.046	0.511
164.499	158.951	80.004	19.994	100.484	20.186	1.955	0.501
164.999	159.207	80.003	19.994	100.483	20.185	1.982	0.477
165.499	159.497	80.004	19.994	100.482	20.183	2.143	0.505
165.999	159.695	80.003	19.994	100.482	20.184	2.092	0.517
166.499	159.949	80.004	19.994	100.480	20.183	2.119	0.470
166.999	160.235	80.002	19.994	100.480	20.183	2.133	0.496
167.499	160.456	80.002	19.994	100.480	20.182	2.195	0.523
168.000	160.739	80.002	19.992	100.482	20.181	2.290	0.505
168.500	161.006	80.003	19.995	100.481	20.183	2.168	0.527
168.999	161.265	80.002	19.995	100.485	20.184	2.065	0.538
169.500	161.511	80.003	19.994	100.485	20.182	2.174	0.515
170.000	161.725	80.002	19.995	100.488	20.182	2.205	0.482
170.499	162.009	80.003	19.995	100.489	20.185	1.986	0.479
170.999	162.239	80.002	19.994	100.489	20.186	1.905	0.506
171.499	162.489	80.003	19.994	100.483	20.184	2.090	0.497
171.999	162.794	80.001	19.994	100.481	20.188	1.804	0.518
172.499	163.030	80.003	19.994	100.479	20.186	1.907	0.548
172.999	163.250	80.001	19.994	100.474	20.185	1.978	0.498
173.499	163.505	80.002	19.995	100.473	20.186	1.941	0.466
174.000	163.813	80.002	19.994	100.475	20.188	1.818	0.519
174.500	164.035	80.003	19.995	100.478	20.183	2.121	0.546
174.999	164.282	80.001	19.995	100.477	20.185	1.967	0.499
175.499	164.563	80.003	19.995	100.476	20.186	1.918	0.499
176.000	164.828	80.002	19.994	100.476	20.186	1.910	0.538
176.500	165.068	80.003	19.994	100.473	20.184	2.063	0.525
176.999	165.330	80.003	19.995	100.469	20.185	2.007	0.503
177.499	165.594	80.002	19.994	100.465	20.184	2.040	0.514
177.999	165.859	80.002	19.994	100.464	20.186	1.912	0.528
178.499	166.072	80.003	19.995	100.462	20.186	1.905	0.504
178.999	166.315	80.004	19.996	100.461	20.184	2.056	0.467
179.500	166.591	80.003	19.996	100.461	20.183	2.131	0.488
180.000	166.847	80.003	19.996	100.461	20.187	1.872	0.526
180.499	167.114	80.003	19.995	100.463	20.187	1.878	0.527
180.999	167.313	80.003	19.996	100.463	20.187	1.868	0.494
181.499	167.585	80.003	19.995	100.462	20.187	1.856	0.468
181.999	167.828	80.003	19.994	100.461	20.185	1.974	0.493
182.499	168.083	80.003	19.995	100.461	20.189	1.727	0.506
182.999	168.318	80.003	19.996	100.459	20.187	1.881	0.494
183.499	168.581	80.003	19.995	100.460	20.185	1.967	0.493
183.999	168.843	80.003	19.995	100.460	20.185	1.980	0.511
184.499	169.084	80.004	19.995	100.461	20.186	1.893	0.514
184.999	169.340	80.003	19.995	100.460	20.191	1.590	0.500
185.500	169.595	80.003	19.996	100.459	20.188	1.758	0.504
186.000	169.857	80.004	19.996	100.458	20.190	1.624	0.515
186.499	170.079	80.004	19.995	100.458	20.187	1.843	0.501
186.999	170.351	80.003	19.995	100.458	20.187	1.841	0.488
187.499	170.615	80.004	19.995	100.459	20.188	1.785	0.515
187.999	170.864	80.004	19.995	100.459	20.188	1.781	0.525
188.499	171.112	80.003	19.995	100.461	20.188	1.804	0.505
188.999	171.363	80.004	19.996	100.462	20.189	1.742	0.498
189.499	171.611	80.003	19.995	100.461	20.187	1.870	0.499
189.999	171.852	80.003	19.995	100.461	20.188	1.810	0.495
190.499	172.096	80.004	19.995	100.461	20.189	1.696	0.487
191.000	172.347	80.005	19.995	100.458	20.190	1.649	0.490
191.500	172.590	80.004	19.994	100.458	20.187	1.841	0.494
191.999	172.807	80.005	19.995	100.458	20.187	1.837	0.477
192.499	173.081	80.004	19.994	100.457	20.189	1.736	0.476
192.999	173.349	80.004	19.994	100.457	20.186	1.897	0.517
193.499	173.574	80.004	19.994	100.456	20.186	1.932	0.517
193.999	173.858	80.004	19.994	100.457	20.185	2.021	0.501
194.499	174.107	80.002	19.995	100.457	20.185	2.009	0.521
194.999	174.355	80.004	19.995	100.458	20.187	1.841	0.515
195.499	174.587	80.003	19.995	100.457	20.189	1.705	0.488
195.999	174.839	80.003	19.995	100.458	20.188	1.786	0.482
196.499	175.110	80.002	19.994	100.458	20.190	1.630	0.503
196.999	175.382	80.002	19.995	100.458	20.187	1.852	0.533
197.499	175.609	80.003	19.994	100.458	20.191	1.545	0.521
197.999	175.837	80.003	19.995	100.458	20.188	1.769	0.477
198.500	176.087	80.003	19.994	100.458	20.190	1.622	0.466
199.000	176.345	80.004	19.994	100.458	20.190	1.663	0.493
199.499	176.608	80.002	19.994	100.458	20.193	1.458	0.515
199.999	176.834	80.003	19.995	100.458	20.188	1.783	0.505
200.499	177.089	80.002	19.995	100.458	20.192	1.531	0.485
200.999	177.333	80.004	19.994	100.458	20.190	1.669	0.490
201.499	177.590	80.002	19.994	100.458	20.188	1.748	0.500
201.999	177.805	80.002	19.995	100.458	20.189	1.713	0.487
202.499	178.077	80.001	19.995	100.457	20.190	1.667	0.480
202.999	178.339	80.000	19.994	100.457	20.186	1.897	0.510
203.499	178.570	80.003	19.994	100.458	20.186	1.897	0.513
203.999	178.798	80.002	19.996	100.458	20.187	1.885	0.476
204.499	179.090	80.003	19.996	100.457	20.188	1.756	0.490
204.999	179.305	80.004	19.995	100.457	20.189	1.694	0.513
205.499	179.567	80.002	19.995	100.454	20.187	1.864	0.492
205.999	179.777	80.003	19.994	100.453	20.186	1.939	0.475
206.500	180.052	80.003	19.995	100.448	20.188	1.781	0.478
207.000	180.294	80.003	19.995	100.443	20.190	1.674	0.501
207.500	180.583	80.003	19.994	100.442	20.189	1.744	0.524
208.000	180.808	80.004	19.995	100.441	20.189	1.717	0.522
208.500	181.039	80.003	19.994	100.436	20.189	1.707	0.485
208.999	181.355	80.003	19.995	100.440	20.189	1.736	0.502
209.499	181.562	80.004	19.994	100.444	20.189	1.734	0.535
209.999	181.825	80.004	19.995	100.446	20.190	1.674	0.496
210.499	182.085	80.003	19.995	100.449	20.188	1.794	0.496
210.999	182.322	80.003	19.994	100.455	20.190	1.649	0.510
211.499	182.535	80.004	19.995	100.457	20.188	1.771	0.474
211.999	182.814	80.004	19.994	100.457	20.191	1.605	0.472
212.499	183.028	80.003	19.995	100.454	20.190	1.641	0.492
212.999	183.280	80.004	19.995	100.453	20.192	1.498	0.479
213.499	183.525	80.004	19.995	100.453	20.190	1.636	0.482
213.999	183.752	80.004	19.994	100.453	20.192	1.506	0.485
214.499	184.038	80.004	19.996	100.454	20.190	1.624	0.492
214.999	184.195	80.004	19.995	100.457	20.188	1.761	0.478
215.499	184.486	80.004	19.997	100.456	20.187	1.868	0.446
215.999	184.751	80.004	19.996	100.454	20.189	1.744	0.502
216.499	184.968	80.004	19.994	100.448	20.189	1.719	0.519
216.999	185.286	80.004	19.995	100.441	20.190	1.661	0.509
217.499	185.489	80.003	19.995	100.439	20.191	1.599	0.529
217.999	185.729	80.004	19.994	100.436	20.190	1.637	0.482
218.499	186.008	80.005	19.995	100.436	20.189	1.732	0.481
218.999	186.214	80.004	19.995	100.436	20.187	1.885	0.502
219.499	186.501	80.004	19.995	100.439	20.190	1.666	0.489
220.000	186.740	80.004	19.995	100.442	20.190	1.657	0.509
220.500	187.002	80.005	19.995	100.445	20.188	1.755	0.513
220.999	187.269	80.004	19.994	100.445	20.192	1.523	0.515
221.500	187.508	80.003	19.995	100.449	20.189	1.705	0.518
222.000	187.757	80.005	19.994	100.447	20.189	1.713	0.497
222.500	188.003	80.003	19.994	100.442	20.189	1.726	0.491
222.999	188.204	80.003	19.996	100.439	20.189	1.694	0.470
223.499	188.464	80.003	19.994	100.438	20.188	1.815	0.454
224.000	188.681	80.002	19.995	100.437	20.190	1.655	0.469
224.500	188.969	80.003	19.994	100.439	20.187	1.827	0.491
224.999	189.153	80.004	19.995	100.443	20.191	1.593	0.489
225.499	189.438	80.002	19.994	100.443	20.188	1.817	0.470
225.999	189.698	80.003	19.995	100.445	20.190	1.649	0.507
226.499	189.941	80.003	19.994	100.447	20.186	1.943	0.524
226.999	190.184	80.003	19.995	100.444	20.186	1.912	0.495
227.499	190.452	80.003	19.995	100.444	20.187	1.841	0.498
227.999	190.642	80.004	19.994	100.443	20.190	1.663	0.484
228.499	190.881	80.002	19.995	100.439	20.189	1.680	0.444
228.999	191.182	80.004	19.995	100.437	20.188	1.804	0.485
229.499	191.371	80.003	19.995	100.439	20.188	1.796	0.515
229.999	191.638	80.003	19.995	100.437	20.186	1.945	0.473
230.499	191.904	80.004	19.994	100.435	20.188	1.817	0.495
230.999	192.158	80.003	19.995	100.438	20.188	1.781	0.526
231.500	192.404	80.003	19.995	100.435	20.189	1.692	0.510
232.000	192.648	80.005	19.995	100.432	20.185	1.970	0.495
232.499	192.855	80.004	19.995	100.434	20.186	1.925	0.471
233.000	193.079	80.004	19.995	100.438	20.186	1.914	0.441
233.500	193.339	80.004	19.995	100.438	20.188	1.794	0.457
234.000	193.622	80.004	19.995	100.439	20.190	1.651	0.513
234.500	193.838	80.003	19.994	100.438	20.191	1.560	0.521
234.999	194.074	80.004	19.995	100.434	20.194	1.370	0.476
235.499	194.333	80.004	19.995	100.431	20.191	1.542	0.473
235.999	194.569	80.003	19.994	100.429	20.191	1.562	0.495
236.499	194.803	80.004	19.995	100.432	20.192	1.483	0.483
236.999	195.057	80.005	19.995	100.433	20.191	1.558	0.479
237.499	195.255	80.005	19.994	100.435	20.190	1.614	0.470
237.999	195.528	80.005	19.995	100.439	20.190	1.651	0.461
238.500	195.769	80.004	19.996	100.444	20.190	1.643	0.492
239.000	196.026	80.006	19.995	100.443	20.191	1.579	0.506
239.499	196.254	80.004	19.995	100.440	20.190	1.651	0.492
239.999	196.495	80.004	19.994	100.440	20.195	1.307	0.477
240.500	196.741	80.006	19.995	100.438	20.191	1.541	0.478
241.000	196.974	80.005	19.995	100.438	20.190	1.635	0.483
241.500	197.224	80.005	19.994	100.440	20.189	1.736	0.481
242.000	197.461	80.005	19.995	100.440	20.196	1.241	0.485
242.500	197.720	80.004	19.995	100.436	20.191	1.591	0.492
243.000	197.941	80.005	19.996	100.432	20.192	1.477	0.488
243.500	198.207	80.005	19.995	100.424	20.192	1.506	0.483
244.000	198.467	80.005	19.995	100.420	20.192	1.479	0.507
244.500	198.679	80.005	19.995	100.417	20.191	1.568	0.499
245.000	198.917	80.004	19.996	100.416	20.191	1.552	0.461
245.500	199.175	80.004	19.997	100.416	20.191	1.535	0.473
246.000	199.423	80.004	19.996	100.417	20.193	1.425	0.501
246.500	199.659	80.002	19.996	100.416	20.193	1.459	0.495
247.000	199.878	80.004	19.996	100.417	20.194	1.384	0.469
247.500	200.153	80.004	19.995	100.418	20.198	1.067	0.474
248.001	200.409	80.004	19.995	100.419	20.195	1.285	0.513
248.501	200.649	80.003	19.996	100.418	20.194	1.392	0.514
249.000	200.912	80.002	19.996	100.421	20.195	1.276	0.499
249.500	201.147	80.003	19.995	100.422	20.193	1.396	0.500
250.000	201.392	80.003	19.995	100.425	20.194	1.378	0.489
250.500	201.622	80.002	19.995	100.425	20.195	1.320	0.478
251.000	201.863	80.003	19.995	100.425	20.194	1.326	0.473
251.500	202.147	80.003	19.995	100.423	20.195	1.283	0.498
252.000	202.398	80.002	19.995	100.422	20.193	1.398	0.530
252.500	202.626	80.003	19.995	100.420	20.193	1.396	0.507
253.001	202.852	80.003	19.995	100.419	20.190	1.622	0.467
253.501	203.098	80.003	19.995	100.422	20.191	1.579	0.463
254.000	203.366	80.002	19.994	100.424	20.194	1.347	0.493
254.500	203.597	80.003	19.995	100.426	20.195	1.268	0.506
255.000	203.868	80.002	19.995	100.425	20.192	1.467	0.501
255.500	204.058	80.004	19.996	100.425	20.194	1.367	0.482
256.000	204.352	80.002	19.995	100.421	20.193	1.409	0.473
256.500	204.600	80.003	19.995	100.419	20.195	1.312	0.514
257.000	204.809	80.003	19.994	100.417	20.193	1.456	0.499
257.500	205.040	80.003	19.995	100.417	20.196	1.200	0.448
258.000	205.272	80.003	19.994	100.417	20.194	1.322	0.451
258.500	205.549	80.002	19.994	100.418	20.197	1.144	0.486
259.000	205.767	80.003	19.995	100.419	20.196	1.231	0.502
259.500	206.048	80.003	19.994	100.419	20.196	1.222	0.497
260.000	206.279	80.002	19.995	100.420	20.199	1.034	0.505
260.500	206.542	80.003	19.995	100.420	20.194	1.384	0.503
261.000	206.787	80.005	19.994	100.421	20.197	1.127	0.501
261.500	207.037	80.004	19.995	100.421	20.197	1.166	0.501
262.000	207.255	80.004	19.995	100.420	20.195	1.301	0.482
262.500	207.533	80.004	19.995	100.420	20.194	1.345	0.482
263.000	207.788	80.004	19.994	100.422	20.193	1.428	0.514
263.500	208.006	80.003	19.995	100.423	20.194	1.384	0.503
264.000	208.268	80.003	19.995	100.426	20.191	1.546	0.477
264.500	208.502	80.002	19.994	100.427	20.195	1.258	0.487
265.000	208.762	80.003	19.994	100.428	20.194	1.349	0.494
265.500	209.003	80.003	19.994	100.426	20.194	1.380	0.498
266.000	209.216	80.003	19.995	100.424	20.193	1.434	0.478
266.500	209.496	80.002	19.995	100.421	20.191	1.560	0.474
267.000	209.725	80.003	19.995	100.420	20.193	1.438	0.501
267.500	209.938	80.004	19.995	100.420	20.194	1.380	0.476
268.000	210.191	80.004	19.995	100.420	20.191	1.548	0.454
268.500	210.420	80.002	19.994	100.421	20.194	1.328	0.474
269.000	210.690	80.004	19.995	100.421	20.191	1.550	0.491
269.500	210.920	80.003	19.995	100.421	20.192	1.521	0.500
270.000	211.183	80.002	19.993	100.420	20.191	1.539	0.497
270.500	211.433	80.003	19.994	100.419	20.189	1.701	0.503
271.000	211.698	80.002	19.995	100.419	20.189	1.701	0.514
271.500	211.910	80.003	19.994	100.418	20.191	1.597	0.496
272.000	212.178	80.003	19.994	100.418	20.188	1.807	0.479
272.500	212.439	80.004	19.995	100.418	20.190	1.658	0.504
273.000	212.699	80.003	19.996	100.418	20.192	1.525	0.525
273.500	212.874	80.003	19.994	100.418	20.192	1.475	0.478
274.001	213.144	80.003	19.995	100.418	20.190	1.629	0.440
274.500	213.406	80.002	19.994	100.418	20.189	1.709	0.488
275.000	213.668	80.001	19.995	100.418	20.194	1.347	0.528
275.500	213.889	80.002	19.995	100.419	20.193	1.394	0.504
276.000	214.131	80.002	19.994	100.419	20.192	1.531	0.473
276.500	214.392	80.002	19.994	100.419	20.194	1.330	0.483
277.000	214.609	80.002	19.995	100.420	20.191	1.566	0.490
277.500	214.856	80.003	19.994	100.420	20.192	1.514	0.471
278.000	215.069	80.004	19.994	100.421	20.191	1.564	0.462
278.500	215.330	80.002	19.996	100.421	20.192	1.512	0.467
279.000	215.594	80.002	19.995	100.421	20.191	1.535	0.499
279.500	215.846	80.003	19.994	100.421	20.191	1.570	0.521
280.000	216.072	80.002	19.994	100.421	20.192	1.504	0.497
280.500	216.339	80.002	19.994	100.421	20.194	1.359	0.486
281.000	216.599	80.001	19.995	100.421	20.194	1.392	0.510
281.500	216.784	80.002	19.995	100.421	20.193	1.425	0.486
282.000	217.095	80.003	19.995	100.422	20.193	1.394	0.470
282.500	217.291	80.002	19.994	100.421	20.192	1.510	0.502
283.000	217.542	80.002	19.994	100.421	20.192	1.479	0.477
283.500	217.793	80.002	19.995	100.421	20.189	1.745	0.475
284.001	218.012	80.003	19.994	100.419	20.191	1.537	0.486
284.500	218.257	80.002	19.995	100.419	20.191	1.546	0.467
285.000	218.493	80.002	19.995	100.420	20.189	1.682	0.472
285.500	218.761	80.002	19.994	100.420	20.191	1.579	0.493
286.000	219.021	80.002	19.995	100.420	20.191	1.602	0.516
286.500	219.276	80.001	19.994	100.422	20.192	1.488	0.521
287.000	219.456	80.003	19.994	100.420	20.193	1.457	0.475
287.500	219.765	80.002	19.995	100.420	20.190	1.608	0.462
288.000	220.000	80.003	19.994	100.420	20.189	1.743	0.516
288.500	220.229	80.004	19.994	100.420	20.192	1.533	0.504
289.000	220.501	80.002	19.995	100.419	20.190	1.660	0.483
289.500	220.741	80.004	19.995	100.422	20.193	1.456	0.507
290.000	220.966	80.003	19.994	100.422	20.192	1.527	0.489
290.500	221.242	80.003	19.994	100.422	20.192	1.504	0.483
291.000	221.474	80.004	19.995	100.422	20.191	1.600	0.505
291.501	221.748	80.004	19.995	100.421	20.189	1.697	0.507
292.000	221.973	80.004	19.994	100.421	20.190	1.670	0.502
292.500	222.224	80.004	19.995	100.421	20.190	1.662	0.487
293.000	222.462	80.004	19.995	100.421	20.189	1.722	0.482
293.500	222.750	80.005	19.994	100.421	20.191	1.575	0.507
294.000	222.982	80.004	19.994	100.421	20.190	1.626	0.523
294.500	223.211	80.003	19.994	100.421	20.188	1.801	0.491
295.000	223.477	80.006	19.994	100.421	20.186	1.917	0.478
295.500	223.710	80.006	19.995	100.421	20.188	1.763	0.497
296.000	223.965	80.004	19.995	100.419	20.186	1.904	0.493
296.500	224.194	80.003	19.994	100.420	20.187	1.871	0.486
297.000	224.456	80.004	19.993	100.419	20.190	1.641	0.488
297.500	224.658	80.004	19.993	100.418	20.188	1.751	0.478
298.000	224.910	80.003	19.994	100.414	20.190	1.655	0.459
298.500	225.161	80.004	19.994	100.415	20.190	1.651	0.479
299.000	225.425	80.004	19.995	100.415	20.189	1.743	0.509
299.500	225.681	80.004	19.994	100.416	20.190	1.662	0.518
300.000	225.914	80.003	19.994	100.416	20.188	1.753	0.504
300.500	226.180	80.003	19.994	100.420	20.186	1.937	0.494
301.000	226.406	80.004	19.995	100.419	20.191	1.556	0.496
301.500	226.641	80.005	19.995	100.421	20.188	1.778	0.477
302.000	226.884	80.005	19.995	100.420	20.187	1.842	0.470
302.500	227.175	80.003	19.994	100.421	20.192	1.513	0.506
303.000	227.436	80.004	19.995	100.420	20.189	1.741	0.543
303.500	227.651	80.003	19.995	100.422	20.186	1.948	0.514
304.000	227.936	80.003	19.995	100.421	20.185	2.010	0.488
304.500	228.185	80.002	19.994	100.421	20.184	2.064	0.517
305.000	228.425	80.002	19.995	100.420	20.187	1.834	0.511
305.500	228.696	80.003	19.995	100.419	20.185	1.975	0.500
306.000	228.935	80.004	19.995	100.418	20.184	2.045	0.510
306.500	229.189	80.003	19.995	100.419	20.184	2.084	0.502
307.000	229.414	80.003	19.995	100.418	20.184	2.089	0.486
307.500	229.729	80.003	19.995	100.419	20.183	2.155	0.510
308.000	229.915	80.003	19.995	100.419	20.185	2.022	0.520
308.500	230.183	80.004	19.995	100.418	20.186	1.944	0.477
309.000	230.436	80.002	19.996	100.417	20.182	2.172	0.488
309.500	230.672	80.003	19.995	100.417	20.183	2.159	0.505
310.000	230.927	80.003	19.995	100.417	20.185	2.026	0.490
310.500	231.176	80.003	19.996	100.418	20.182	2.184	0.497
311.000	231.409	80.005	19.996	100.418	20.185	1.968	0.493
311.500	231.678	80.004	19.994	100.417	20.185	2.002	0.492
312.000	231.917	80.003	19.995	100.416	20.184	2.080	0.505
312.501	232.192	80.003	19.996	100.415	20.183	2.114	0.511
313.000	232.446	80.004	19.996	100.413	20.185	2.002	0.521
313.500	232.669	80.003	19.996	100.413	20.180	2.383	0.502
314.001	232.959	80.003	19.995	100.412	20.183	2.159	0.495
314.500	233.201	80.003	19.995	100.412	20.179	2.385	0.523
315.000	233.432	80.003	19.995	100.413	20.179	2.406	0.502
315.500	233.690	80.003	19.995	100.414	20.182	2.205	0.481
316.000	233.964	80.004	19.995	100.415	20.179	2.418	0.511
316.500	234.201	80.004	19.995	100.415	20.179	2.439	0.522
317.000	234.442	80.004	19.995	100.415	20.181	2.296	0.494
317.500	234.710	80.008	19.995	100.415	20.177	2.565	0.494
318.000	234.948	80.004	19.994	100.414	20.179	2.408	0.508
318.500	235.183	80.005	19.994	100.414	20.178	2.517	0.489
319.000	235.444	80.005	19.995	100.414	20.177	2.553	0.484
319.500	235.669	80.004	19.994	100.414	20.173	2.828	0.492
320.000	235.931	80.006	19.995	100.412	20.173	2.857	0.487
320.500	236.210	80.005	19.995	100.413	20.174	2.776	0.514
321.000	236.425	80.006	19.995	100.412	20.173	2.820	0.517
321.500	236.726	80.005	19.995	100.411	20.176	2.619	0.505
322.000	236.949	80.007	19.994	100.410	20.174	2.760	0.520
322.500	237.168	80.005	19.995	100.410	20.174	2.805	0.483
323.000	237.455	80.005	19.994	100.410	20.175	2.716	0.474
323.500	237.702	80.005	19.994	100.412	20.171	2.986	0.520
324.000	237.972	80.005	19.995	100.413	20.170	3.040	0.525
324.500	238.168	80.005	19.995	100.414	20.170	3.060	0.492
325.000	238.471	80.005	19.995	100.416	20.171	3.015	0.483
325.500	238.693	80.006	19.994	100.416	20.168	3.180	0.512
326.000	238.985	80.005	19.995	100.416	20.168	3.170	0.519
326.500	239.223	80.004	19.995	100.414	20.168	3.172	0.522
327.000	239.481	80.003	19.995	100.412	20.167	3.286	0.513
327.500	239.704	80.004	19.995	100.412	20.169	3.164	0.488
328.000	239.963	80.004	19.995	100.411	20.167	3.257	0.482
328.500	240.207	80.003	19.995	100.411	20.164	3.462	0.493
329.000	240.467	80.003	19.995	100.412	20.165	3.398	0.503
329.500	240.668	80.004	19.996	100.415	20.164	3.448	0.482
330.000	240.959	80.002	19.995	100.415	20.167	3.269	0.477
330.500	241.185	80.002	19.996	100.415	20.164	3.493	0.505
331.000	241.459	80.003	19.995	100.415	20.164	3.516	0.508
331.500	241.694	80.002	19.996	100.416	20.161	3.700	0.504
332.000	241.948	80.003	19.995	100.417	20.165	3.389	0.499
332.500	242.217	80.002	19.995	100.418	20.161	3.673	0.506
333.000	242.477	80.002	19.996	100.418	20.161	3.691	0.526
333.500	242.710	80.002	19.996	100.418	20.160	3.754	0.511
334.000	242.961	80.002	19.996	100.418	20.158	3.926	0.489
334.500	243.197	80.002	19.996	100.417	20.159	3.870	0.486
335.000	243.436	80.001	19.996	100.417	20.159	3.818	0.481
335.500	243.699	80.001	19.996	100.417	20.157	3.986	0.488
336.000	243.958	80.001	19.996	100.417	20.156	4.052	0.512
336.500	244.180	80.002	19.996	100.418	20.158	3.880	0.502
337.000	244.459	80.002	19.996	100.418	20.156	4.044	0.491
337.500	244.713	80.003	19.996	100.418	20.156	4.050	0.517
338.000	244.975	80.002	19.996	100.418	20.156	4.077	0.524
338.500	245.223	80.003	19.997	100.418	20.158	3.880	0.513
339.000	245.436	80.002	19.996	100.418	20.157	3.973	0.486
339.500	245.707	80.002	19.996	100.418	20.153	4.235	0.473
340.000	245.940	80.001	19.996	100.417	20.152	4.328	0.494
340.500	246.217	80.002	19.996	100.418	20.153	4.286	0.507
341.000	246.457	80.001	19.995	100.419	20.152	4.340	0.513
341.500	246.685	80.002	19.995	100.420	20.151	4.376	0.492
342.000	246.929	80.000	19.996	100.425	20.148	4.618	0.470
342.500	247.183	80.002	19.996	100.428	20.150	4.463	0.485
343.000	247.445	80.003	19.996	100.432	20.148	4.639	0.508
343.500	247.683	80.003	19.996	100.432	20.146	4.769	0.508
344.000	247.911	80.002	19.996	100.433	20.147	4.701	0.483
344.500	248.203	80.003	19.996	100.429	20.145	4.848	0.492
345.000	248.448	80.003	19.996	100.430	20.144	4.867	0.528
345.500	248.693	80.002	19.995	100.428	20.142	5.057	0.514
346.000	248.951	80.002	19.995	100.428	20.141	5.128	0.496
346.500	249.226	80.002	19.994	100.426	20.136	5.451	0.518
347.000	249.469	80.004	19.995	100.429	20.136	5.461	0.526
347.500	249.715	80.003	19.994	100.428	20.132	5.780	0.504
348.000	249.979	80.002	19.995	100.429	20.135	5.521	0.500
348.500	250.245	80.003	19.994	100.430	20.134	5.639	0.520
349.000	250.504	80.003	19.994	100.432	20.131	5.843	0.527
349.500	250.738	80.002	19.995	100.432	20.127	6.139	0.509
350.000	251.001	80.003	19.994	100.431	20.129	5.956	0.495
350.501	251.255	80.004	19.994	100.428	20.127	6.114	0.507
351.000	251.493	80.002	19.994	100.427	20.122	6.427	0.505
351.500	251.764	80.002	19.994	100.424	20.121	6.564	0.501
352.000	252.041	80.004	19.995	100.421	20.122	6.439	0.528
352.500	252.302	80.003	19.994	100.420	20.119	6.644	0.543
353.000	252.539	80.002	19.994	100.420	20.118	6.723	0.518
353.500	252.806	80.003	19.994	100.419	20.117	6.837	0.501
354.000	253.032	80.003	19.995	100.420	20.116	6.903	0.499
354.500	253.307	80.003	19.994	100.420	20.112	7.202	0.497
355.000	253.550	80.001	19.994	100.420	20.111	7.262	0.509
355.500	253.799	80.002	19.994	100.421	20.108	7.461	0.505
356.000	254.050	80.003	19.993	100.421	20.111	7.254	0.496
356.500	254.308	80.002	19.994	100.421	20.104	7.724	0.504
357.001	254.566	80.001	19.995	100.422	20.107	7.558	0.513
357.500	254.811	80.001	19.995	100.422	20.104	7.728	0.510
358.000	255.062	80.003	19.994	100.422	20.103	7.813	0.500
358.500	255.325	80.002	19.995	100.422	20.101	7.973	0.505
359.000	255.601	80.001	19.994	100.422	20.100	8.002	0.526
359.500	255.821	80.001	19.994	100.422	20.103	7.784	0.518
360.000	256.087	80.002	19.994	100.422	20.101	7.960	0.491
360.500	256.316	80.000	19.995	100.422	20.098	8.184	0.490
361.000	256.574	80.001	19.995	100.422	20.099	8.091	0.491
361.500	256.830	80.002	19.995	100.422	20.099	8.062	0.500
362.000	257.090	80.001	19.994	100.422	20.096	8.273	0.515
362.500	257.353	80.002	19.995	100.422	20.094	8.453	0.519
363.000	257.566	80.003	19.995	100.422	20.093	8.534	0.500
363.500	257.854	80.002	19.995	100.422	20.092	8.620	0.489
364.000	258.125	80.001	19.994	100.422	20.097	8.222	0.530
364.500	258.365	80.002	19.995	100.421	20.093	8.481	0.535
365.000	258.650	80.002	19.994	100.421	20.095	8.393	0.518
365.500	258.865	80.002	19.994	100.421	20.092	8.600	0.512
366.000	259.149	80.003	19.995	100.421	20.093	8.526	0.500
366.500	259.364	80.001	19.993	100.420	20.094	8.472	0.499
367.000	259.636	80.002	19.995	100.421	20.095	8.366	0.493
367.500	259.875	80.001	19.995	100.421	20.091	8.650	0.499
368.000	260.127	80.002	19.995	100.419	20.092	8.617	0.501
368.500	260.343	80.002	19.995	100.418	20.092	8.603	0.480
369.000	260.610	80.001	19.994	100.417	20.091	8.669	0.476
369.500	260.866	80.003	19.994	100.416	20.092	8.580	0.503
370.000	261.102	80.002	19.994	100.414	20.094	8.466	0.508
370.500	261.350	80.001	19.995	100.415	20.092	8.559	0.489
371.000	261.616	80.003	19.995	100.415	20.093	8.481	0.499
371.500	261.862	80.004	19.994	100.416	20.093	8.518	0.513
372.000	262.155	80.004	19.995	100.417	20.089	8.800	0.525
372.500	262.363	80.003	19.994	100.419	20.090	8.719	0.520
373.000	262.601	80.004	19.995	100.417	20.094	8.446	0.473
373.500	262.873	80.004	19.995	100.416	20.095	8.358	0.478
374.000	263.139	80.004	19.995	100.415	20.093	8.483	0.524
374.500	263.379	80.005	19.995	100.414	20.093	8.520	0.522
375.000	263.592	80.003	19.995	100.414	20.090	8.707	0.479
375.500	263.872	80.005	19.994	100.416	20.092	8.554	0.473
376.000	264.133	80.004	19.995	100.416	20.089	8.769	0.517
376.500	264.348	80.004	19.994	100.417	20.091	8.647	0.509
377.000	264.620	80.004	19.994	100.417	20.093	8.537	0.482
377.500	264.868	80.005	19.994	100.417	20.093	8.516	0.504
378.000	265.141	80.005	19.994	100.416	20.089	8.787	0.521
378.500	265.376	80.004	19.994	100.414	20.091	8.636	0.514
379.000	265.653	80.005	19.995	100.413	20.089	8.773	0.509
379.500	265.865	80.005	19.993	100.413	20.090	8.764	0.500
380.000	266.126	80.005	19.994	100.413	20.090	8.714	0.481
380.500	266.341	80.004	19.995	100.413	20.090	8.743	0.475
381.000	266.635	80.006	19.995	100.415	20.091	8.665	0.493
381.500	266.869	80.003	19.995	100.414	20.091	8.638	0.519
382.000	267.123	80.005	19.994	100.413	20.092	8.619	0.507
382.500	267.388	80.005	19.994	100.412	20.092	8.620	0.503
383.000	267.611	80.005	19.994	100.411	20.089	8.833	0.504
383.500	267.873	80.005	19.994	100.411	20.089	8.767	0.487
384.000	268.143	80.005	19.995	100.413	20.088	8.881	0.508
384.500	268.355	80.005	19.993	100.413	20.096	8.332	0.507
385.000	268.628	80.005	19.994	100.410	20.093	8.537	0.484
385.500	268.856	80.004	19.994	100.411	20.090	8.700	0.493
386.000	269.128	80.005	19.995	100.411	20.095	8.398	0.500
386.500	269.373	80.004	19.994	100.408	20.094	8.470	0.509
387.000	269.615	80.004	19.995	100.409	20.096	8.329	0.502
387.500	269.889	80.004	19.993	100.413	20.093	8.491	0.501
388.000	270.141	80.004	19.994	100.413	20.092	8.553	0.521
388.500	270.418	80.003	19.993	100.413	20.097	8.259	0.527
389.000	270.632	80.003	19.994	100.416	20.094	8.468	0.510
389.500	270.915	80.003	19.994	100.417	20.096	8.327	0.494
390.000	271.156	80.004	19.994	100.416	20.092	8.603	0.511
390.500	271.409	80.003	19.994	100.416	20.093	8.511	0.509
391.000	271.676	80.004	19.995	100.417	20.096	8.302	0.507
391.500	271.922	80.004	19.994	100.417	20.095	8.358	0.516
392.000	272.179	80.004	19.995	100.416	20.099	8.084	0.508
392.500	272.449	80.004	19.994	100.416	20.097	8.223	0.515
393.000	272.688	80.004	19.994	100.415	20.098	8.186	0.518
393.500	272.963	80.004	19.995	100.412	20.098	8.165	0.511
394.000	273.215	80.003	19.995	100.411	20.099	8.097	0.521
394.500	273.447	80.005	19.995	100.410	20.097	8.219	0.506
395.000	273.653	80.005	19.995	100.410	20.101	7.919	0.461
395.500	273.937	80.004	19.995	100.410	20.098	8.138	0.464
396.000	274.184	80.005	19.996	100.413	20.101	7.951	0.510
396.500	274.453	80.004	19.994	100.414	20.104	7.719	0.523
397.000	274.676	80.004	19.995	100.416	20.100	8.013	0.504
397.500	274.915	80.005	19.995	100.417	20.102	7.900	0.477
398.000	275.181	80.004	19.995	100.417	20.103	7.782	0.483
398.500	275.456	80.005	19.995	100.417	20.103	7.781	0.523
399.000	275.710	80.005	19.995	100.416	20.103	7.818	0.535
399.500	275.920	80.004	19.996	100.416	20.105	7.679	0.497
400.000	276.192	80.005	19.995	100.417	20.105	7.680	0.473
400.500	276.414	80.005	19.995	100.418	20.103	7.782	0.488
401.000	276.650	80.006	19.995	100.418	20.101	7.981	0.476
401.500	276.946	80.005	19.994	100.419	20.103	7.777	0.495
402.000	277.165	80.005	19.995	100.419	20.107	7.510	0.523
402.500	277.419	80.005	19.995	100.419	20.105	7.645	0.494
403.000	277.659	80.005	19.994	100.420	20.107	7.500	0.484
403.500	277.937	80.005	19.995	100.423	20.107	7.526	0.506
404.000	278.154	80.006	19.995	100.423	20.109	7.419	0.507
404.500	278.425	80.005	19.996	100.423	20.107	7.506	0.492
405.000	278.693	80.005	19.995	100.423	20.106	7.596	0.514
405.500	278.903	80.005	19.995	100.423	20.105	7.679	0.508
406.000	279.178	80.006	19.995	100.421	20.106	7.584	0.481
406.500	279.450	80.006	19.995	100.425	20.104	7.750	0.516
407.000	279.689	80.006	19.995	100.426	20.105	7.652	0.529
407.500	279.921	80.005	19.994	100.427	20.103	7.795	0.491
408.000	280.157	80.004	19.994	100.426	20.105	7.636	0.469
408.500	280.441	80.004	19.995	100.425	20.109	7.391	0.494
409.000	280.647	80.006	19.995	100.424	20.107	7.499	0.505
409.500	280.915	80.004	19.994	100.428	20.105	7.667	0.482
410.000	281.152	80.004	19.994	100.431	20.104	7.764	0.489
410.500	281.415	80.004	19.995	100.439	20.105	7.681	0.503
411.000	281.639	80.003	19.995	100.446	20.102	7.867	0.494
411.500	281.929	80.003	19.995	100.446	20.105	7.666	0.500
412.000	282.136	80.002	19.995	100.448	20.103	7.820	0.505
412.500	282.402	80.002	19.995	100.450	20.103	7.778	0.485
413.000	282.648	80.003	19.995	100.449	20.100	8.020	0.493
413.500	282.921	80.001	19.995	100.448	20.103	7.791	0.516
414.000	283.160	80.002	19.994	100.452	20.098	8.143	0.516
414.500	283.402	80.002	19.995	100.454	20.102	7.896	0.496
415.000	283.628	80.004	19.995	100.456	20.101	7.919	0.474
415.500	283.870	80.002	19.996	100.456	20.101	7.985	0.468
416.000	284.128	80.003	19.995	100.459	20.098	8.174	0.484
416.500	284.394	80.003	19.996	100.460	20.097	8.260	0.512
417.000	284.626	80.003	19.995	100.460	20.098	8.177	0.511
417.500	284.870	80.002	19.995	100.460	20.097	8.260	0.487
418.000	285.148	80.003	19.995	100.460	20.098	8.142	0.499
418.500	285.381	80.002	19.996	100.459	20.098	8.163	0.516
419.000	285.666	80.003	19.995	100.459	20.097	8.258	0.514
419.500	285.880	80.002	19.995	100.459	20.098	8.192	0.509
420.001	286.100	80.003	19.994	100.460	20.095	8.382	0.467
420.500	286.369	80.003	19.995	100.459	20.097	8.248	0.461
421.000	286.615	80.002	19.994	100.460	20.095	8.384	0.502
421.500	286.835	80.002	19.995	100.461	20.095	8.405	0.491
422.000	287.095	80.003	19.995	100.462	20.093	8.555	0.473
422.500	287.355	80.002	19.995	100.462	20.093	8.491	0.500
423.000	287.602	80.001	19.995	100.465	20.092	8.619	0.513
423.500	287.849	80.002	19.995	100.465	20.091	8.649	0.501
424.000	288.082	80.001	19.995	100.465	20.089	8.790	0.488
424.500	288.355	80.000	19.995	100.464	20.088	8.851	0.493
425.000	288.563	80.001	19.995	100.464	20.087	8.957	0.493
425.500	288.837	80.001	19.996	100.462	20.086	9.000	0.482
426.000	289.059	80.002	19.994	100.464	20.087	8.915	0.489
426.500	289.290	80.001	19.995	100.466	20.087	8.971	0.475
427.000	289.563	80.002	19.995	100.467	20.084	9.133	0.478
427.500	289.744	80.000	19.996	100.471	20.082	9.321	0.479
428.000	290.045	80.001	19.995	100.470	20.084	9.150	0.468
428.500	290.284	80.001	19.995	100.469	20.082	9.278	0.511
429.000	290.487	80.002	19.996	100.469	20.082	9.278	0.491
429.500	290.751	80.001	19.995	100.470	20.082	9.295	0.454
430.000	290.996	80.002	19.995	100.469	20.081	9.369	0.488
430.500	291.230	80.001	19.995	100.470	20.080	9.462	0.494
431.000	291.492	80.003	19.994	100.471	20.079	9.531	0.488
431.500	291.746	80.002	19.995	100.472	20.079	9.508	0.506
432.000	291.963	80.001	19.996	100.474	20.074	9.865	0.494
432.500	292.241	80.002	19.996	100.477	20.077	9.637	0.483
433.000	292.485	80.001	19.995	100.479	20.074	9.839	0.508
433.500	292.753	80.004	19.996	100.480	20.075	9.778	0.517
434.000	293.012	80.003	19.995	100.481	20.072	9.991	0.520
434.500	293.230	80.003	19.995	100.481	20.076	9.711	0.502
435.000	293.477	80.003	19.996	100.479	20.071	10.071	0.471
435.500	293.754	80.001	19.995	100.482	20.069	10.226	0.495
436.000	293.954	80.003	19.997	100.484	20.067	10.387	0.500
436.500	294.207	80.003	19.995	100.487	20.068	10.293	0.465
437.000	294.468	80.002	19.995	100.489	20.063	10.629	0.484
437.500	294.719	80.004	19.996	100.490	20.064	10.573	0.513
438.000	294.956	80.002	19.995	100.487	20.064	10.586	0.500
438.500	295.180	80.002	19.996	100.482	20.063	10.677	0.474
439.000	295.452	80.001	19.995	100.478	20.061	10.761	0.479
439.500	295.703	80.002	19.995	100.476	20.062	10.747	0.510
440.000	295.990	80.004	19.995	100.478	20.060	10.892	0.530
440.500	296.174	80.002	19.995	100.479	20.058	10.981	0.504
441.000	296.463	80.002	19.995	100.482	20.058	11.031	0.472
441.500	296.674	80.003	19.995	100.485	20.059	10.930	0.487
442.000	296.965	80.002	19.995	100.480	20.058	11.036	0.501
442.500	297.194	80.002	19.996	100.475	20.055	11.185	0.511
443.000	297.473	80.003	19.994	100.474	20.055	11.185	0.514
443.500	297.696	80.002	19.995	100.470	20.057	11.096	0.505
444.000	297.928	80.002	19.994	100.466	20.055	11.202	0.479
444.500	298.206	80.002	19.995	100.467	20.054	11.320	0.482
445.000	298.430	80.002	19.994	100.472	20.052	11.399	0.506
445.500	298.707	80.002	19.994	100.477	20.051	11.471	0.502
446.000	298.947	80.002	19.995	100.481	20.053	11.369	0.509
446.500	299.163	80.001	19.995	100.483	20.049	11.638	0.486
447.000	299.427	80.002	19.994	100.483	20.048	11.738	0.468
447.500	299.685	80.002	19.995	100.478	20.047	11.816	0.501
448.000	299.963	80.002	19.994	100.476	20.048	11.729	0.529
448.500	300.213	80.002	19.993	100.471	20.046	11.835	0.532
449.000	300.417	80.003	19.995	100.469	20.044	11.989	0.491
449.500	300.704	80.003	19.995	100.470	20.045	11.925	0.473
450.000	300.921	80.002	19.994	100.473	20.044	12.020	0.498
450.500	301.189	80.004	19.994	100.470	20.043	12.064	0.494
451.000	301.441	80.002	19.994	100.472	20.044	12.027	0.502
451.500	301.644	80.003	19.994	100.470	20.042	12.166	0.487
452.000	301.908	80.002	19.994	100.469	20.046	11.851	0.461
452.500	302.173	80.002	19.995	100.468	20.044	11.963	0.498
453.000	302.403	80.004	19.994	100.466	20.041	12.191	0.512
453.500	302.665	80.003	19.995	100.463	20.044	11.979	0.494
454.000	302.907	80.004	19.995	100.465	20.041	12.234	0.498
454.500	303.139	80.003	19.995	100.464	20.041	12.234	0.489
455.000	303.397	80.003	19.996	100.461	20.041	12.232	0.482
455.500	303.621	80.004	19.995	100.461	20.038	12.439	0.486
456.000	303.866	80.004	19.994	100.461	20.039	12.332	0.475
456.500	304.133	80.004	19.995	100.459	20.037	12.468	0.490
457.000	304.383	80.004	19.995	100.462	20.037	12.469	0.515
457.500	304.650	80.004	19.995	100.463	20.038	12.417	0.517
458.000	304.911	80.005	19.995	100.464	20.036	12.536	0.522
458.500	305.168	80.004	19.994	100.465	20.038	12.420	0.523
459.000	305.428	80.005	19.994	100.466	20.038	12.385	0.517
459.500	305.656	80.005	19.994	100.462	20.037	12.454	0.502
460.000	305.890	80.005	19.994	100.460	20.038	12.446	0.475
460.500	306.169	80.005	19.994	100.460	20.039	12.328	0.488
461.000	306.370	80.005	19.994	100.458	20.041	12.210	0.497
461.500	306.641	80.005	19.994	100.456	20.043	12.049	0.476
462.000	306.924	80.006	19.994	100.455	20.036	12.527	0.513
462.500	307.191	80.004	19.996	100.455	20.040	12.294	0.552
463.000	307.409	80.004	19.994	100.454	20.037	12.462	0.517
463.500	307.635	80.005	19.994	100.454	20.039	12.314	0.464
464.000	307.881	80.005	19.995	100.453	20.038	12.443	0.458
464.500	308.167	80.005	19.995	100.454	20.038	12.424	0.503
465.000	308.397	80.005	19.994	100.454	20.040	12.290	0.524
465.500	308.665	80.005	19.995	100.455	20.039	12.321	0.507
466.000	308.896	80.005	19.994	100.455	20.037	12.493	0.499
466.500	309.146	80.004	19.995	100.456	20.037	12.474	0.490
467.000	309.411	80.004	19.994	100.453	20.041	12.224	0.497
467.500	309.690	80.003	19.994	100.451	20.038	12.450	0.530
468.000	309.923	80.005	19.994	100.450	20.037	12.477	0.528
468.500	310.184	80.005	19.994	100.449	20.036	12.548	0.503
469.000	310.477	80.003	19.994	100.445	20.039	12.376	0.524
469.500	310.653	80.004	19.994	100.444	20.039	12.311	0.512
470.000	310.945	80.004	19.995	100.442	20.038	12.444	0.468
470.500	311.175	80.005	19.994	100.438	20.036	12.550	0.495
471.000	311.423	80.004	19.995	100.435	20.036	12.543	0.500
471.500	311.719	80.004	19.995	100.434	20.037	12.511	0.511
472.000	311.983	80.005	19.994	100.430	20.039	12.372	0.552
472.500	312.222	80.003	19.994	100.429	20.040	12.297	0.532
473.000	312.466	80.004	19.994	100.428	20.037	12.468	0.494
473.500	312.764	80.004	19.995	100.427	20.043	12.089	0.512
474.000	313.013	80.005	19.994	100.425	20.042	12.110	0.544
474.500	313.279	80.005	19.994	100.425	20.040	12.283	0.531
475.000	313.528	80.005	19.994	100.423	20.042	12.136	0.515
475.500	313.796	80.006	19.993	100.423	20.041	12.199	0.516
476.000	313.996	80.004	19.994	100.423	20.041	12.216	0.492
476.500	314.275	80.004	19.994	100.423	20.041	12.195	0.474
477.000	314.541	80.005	19.994	100.423	20.044	11.965	0.512
477.500	314.790	80.005	19.994	100.423	20.048	11.702	0.530
478.000	315.040	80.004	19.994	100.423	20.043	12.023	0.507
478.500	315.294	80.005	19.994	100.422	20.044	11.983	0.502
479.000	315.547	80.006	19.995	100.420	20.045	11.948	0.506
479.500	315.838	80.006	19.994	100.417	20.042	12.108	0.525
480.000	316.066	80.006	19.995	100.417	20.045	11.924	0.531
480.500	316.301	80.005	19.994	100.417	20.047	11.769	0.491
481.000	316.536	80.005	19.993	100.417	20.046	11.821	0.467
481.500	316.820	80.006	19.993	100.417	20.050	11.586	0.494
482.000	317.081	80.006	19.994	100.417	20.046	11.843	0.532
482.500	317.299	80.006	19.994	100.413	20.048	11.686	0.513
483.000	317.545	80.005	19.993	100.412	20.048	11.715	0.472
483.500	317.827	80.006	19.994	100.412	20.048	11.675	0.496
484.000	318.090	80.006	19.994	100.408	20.049	11.605	0.536
484.500	318.381	80.005	19.994	100.407	20.051	11.493	0.549
485.000	318.584	80.006	19.994	100.406	20.053	11.313	0.524
485.500	318.852	80.006	19.993	100.399	20.050	11.564	0.482
486.000	319.119	80.005	19.993	100.395	20.050	11.532	0.503
486.500	319.324	80.006	19.994	100.392	20.058	10.967	0.504
487.000	319.622	80.006	19.994	100.389	20.056	11.151	0.487
487.500	319.868	80.006	19.994	100.387	20.057	11.079	0.523
488.000	320.091	80.005	19.993	100.390	20.057	11.077	0.507
488.500	320.361	80.005	19.994	100.387	20.056	11.114	0.481
489.000	320.625	80.005	19.994	100.389	20.057	11.060	0.514
489.500	320.858	80.005	19.994	100.391	20.058	10.961	0.516
490.000	321.109	80.005	19.995	100.390	20.060	10.815	0.490
490.500	321.387	80.005	19.994	100.386	20.060	10.829	0.507
491.000	321.621	80.004	19.994	100.386	20.061	10.754	0.521
491.500	321.903	80.003	19.995	100.383	20.061	10.752	0.514
492.000	322.132	80.004	19.994	100.382	20.063	10.663	0.513
492.500	322.411	80.003	19.995	100.383	20.064	10.568	0.510
493.000	322.667	80.004	19.994	100.383	20.061	10.793	0.521
493.500	322.890	80.003	19.994	100.383	20.063	10.604	0.507
494.000	323.165	80.001	19.994	100.383	20.062	10.704	0.489
494.500	323.425	80.003	19.996	100.383	20.062	10.683	0.517
495.000	323.649	80.003	19.994	100.382	20.064	10.557	0.510
495.500	323.930	80.002	19.994	100.382	20.063	10.644	0.495
496.000	324.144	80.002	19.996	100.382	20.065	10.501	0.500
496.500	324.438	80.002	19.995	100.383	20.066	10.403	0.502
497.000	324.660	80.003	19.995	100.383	20.068	10.296	0.512
497.500	324.905	80.001	19.994	100.382	20.070	10.148	0.491
498.000	325.197	80.002	19.994	100.379	20.067	10.339	0.502
498.500	325.448	80.002	19.995	100.378	20.069	10.207	0.540
499.000	325.703	80.002	19.994	100.374	20.068	10.248	0.525
499.500	325.973	80.003	19.995	100.367	20.069	10.227	0.515
500.000	326.222	80.003	19.995	100.360	20.072	9.983	0.522
500.500	326.526	80.003	19.995	100.357	20.072	10.024	0.536
501.000	326.744	80.003	19.995	100.353	20.072	9.962	0.537
501.500	327.001	80.004	19.995	100.353	20.073	9.896	0.498
502.000	327.238	80.004	19.995	100.354	20.070	10.157	0.485
502.500	327.510	80.002	19.996	100.353	20.074	9.830	0.502
503.000	327.727	80.003	19.995	100.352	20.076	9.714	0.499
503.500	328.012	80.004	19.995	100.349	20.074	9.834	0.495
504.000	328.265	80.003	19.996	100.345	20.077	9.642	0.520
504.500	328.498	80.003	19.995	100.343	20.078	9.568	0.512
505.000	328.768	80.003	19.996	100.343	20.075	9.813	0.495
505.500	329.009	80.003	19.996	100.342	20.080	9.407	0.507
506.000	329.265	80.003	19.996	100.341	20.077	9.650	0.504
506.500	329.550	80.003	19.995	100.340	20.077	9.673	0.519
507.000	329.812	80.004	19.995	100.340	20.078	9.534	0.544
507.500	330.018	80.003	19.995	100.340	20.078	9.552	0.508
508.000	330.289	80.005	19.994	100.340	20.083	9.216	0.473
508.500	330.510	80.003	19.995	100.340	20.081	9.333	0.485
509.000	330.734	80.002	19.995	100.339	20.083	9.181	0.468
509.500	331.046	80.003	19.995	100.339	20.084	9.173	0.490
510.000	331.296	80.003	19.994	100.339	20.080	9.402	0.549
510.500	331.560	80.004	19.994	100.339	20.082	9.252	0.538
511.000	331.811	80.003	19.995	100.339	20.083	9.240	0.514
511.500	332.041	80.002	19.995	100.339	20.081	9.358	0.498
512.000	332.351	80.004	19.995	100.339	20.084	9.142	0.510
512.500	332.594	80.005	19.995	100.338	20.086	8.982	0.547
513.000	332.814	80.003	19.994	100.338	20.086	9.017	0.508
513.500	333.099	80.004	19.995	100.335	20.088	8.860	0.484
514.000	333.362	80.002	19.995	100.332	20.086	9.027	0.527
514.500	333.643	80.003	19.995	100.330	20.088	8.843	0.546
515.000	333.866	80.004	19.995	100.327	20.089	8.764	0.524
515.500	334.123	80.004	19.995	100.321	20.087	8.919	0.492
516.000	334.353	80.004	19.995	100.317	20.086	9.010	0.484
516.500	334.634	80.003	19.996	100.313	20.087	8.925	0.500
517.000	334.874	80.003	19.995	100.309	20.088	8.857	0.516
517.500	335.157	80.003	19.995	100.308	20.087	8.935	0.522
518.000	335.405	80.002	19.996	100.308	20.087	8.923	0.526
518.500	335.681	80.003	19.995	100.309	20.088	8.879	0.527
519.000	335.889	80.002	19.995	100.307	20.087	8.946	0.504
519.500	336.172	80.003	19.995	100.307	20.085	9.045	0.488
520.000	336.428	80.002	19.996	100.304	20.085	9.053	0.515
520.500	336.653	80.002	19.996	100.302	20.087	8.938	0.510
521.000	336.932	80.003	19.995	100.301	20.087	8.938	0.492
521.500	337.181	80.002	19.996	100.301	20.088	8.842	0.516
522.000	337.452	80.002	19.997	100.301	20.089	8.761	0.524
522.500	337.713	80.000	19.996	100.301	20.088	8.894	0.526
523.000	337.943	80.001	19.996	100.302	20.091	8.664	0.512
523.500	338.188	80.002	19.996	100.303	20.092	8.548	0.483
524.000	338.426	80.001	19.996	100.305	20.091	8.674	0.479
524.500	338.696	80.000	19.996	100.305	20.093	8.508	0.495
525.000	338.963	80.002	19.996	100.309	20.092	8.603	0.522
525.500	339.165	80.003	19.996	100.311	20.091	8.686	0.503
526.000	339.437	80.002	19.995	100.313	20.090	8.741	0.471
526.500	339.697	80.002	19.995	100.314	20.091	8.635	0.503
527.000	340.005	80.002	19.996	100.315	20.092	8.591	0.550
527.500	340.217	80.002	19.995	100.314	20.094	8.456	0.544
528.000	340.485	80.000	19.995	100.313	20.093	8.524	0.500
528.500	340.725	80.001	19.997	100.316	20.090	8.729	0.494
529.000	340.975	80.002	19.995	100.316	20.090	8.749	0.499
529.500	341.247	80.001	19.995	100.316	20.091	8.654	0.506
530.000	341.484	80.003	19.995	100.316	20.089	8.815	0.515
530.500	341.724	80.003	19.995	100.322	20.093	8.500	0.493
531.000	342.003	80.002	19.997	100.323	20.094	8.442	0.498
531.500	342.249	80.003	19.995	100.327	20.090	8.742	0.522
532.000	342.516	80.003	19.995	100.332	20.094	8.471	0.519
532.500	342.750	80.003	19.995	100.336	20.093	8.516	0.507
533.000	342.951	80.002	19.996	100.336	20.092	8.576	0.468
533.500	343.213	80.003	19.995	100.337	20.090	8.740	0.449
534.000	343.497	80.004	19.994	100.338	20.090	8.729	0.504
534.500	343.738	80.003	19.995	100.338	20.089	8.822	0.535
535.000	343.969	80.004	19.995	100.340	20.092	8.588	0.498
535.500	344.242	80.004	19.994	100.340	20.093	8.505	0.488
536.000	344.518	80.002	19.994	100.342	20.091	8.637	0.527
536.500	344.756	80.005	19.994	100.346	20.090	8.756	0.531
537.000	344.982	80.005	19.994	100.350	20.091	8.652	0.489
537.500	345.278	80.005	19.995	100.354	20.092	8.567	0.493
538.000	345.525	80.004	19.994	100.362	20.093	8.503	0.533
538.500	345.785	80.003	19.995	100.367	20.091	8.633	0.525
539.000	346.060	80.005	19.994	100.372	20.094	8.430	0.521
539.500	346.316	80.004	19.994	100.376	20.092	8.617	0.533
540.001	346.541	80.006	19.995	100.380	20.092	8.606	0.506
540.500	346.788	80.004	19.993	100.381	20.091	8.693	0.476
541.000	347.054	80.005	19.994	100.381	20.092	8.558	0.492
541.500	347.347	80.005	19.994	100.382	20.090	8.720	0.536
542.000	347.567	80.005	19.994	100.382	20.091	8.630	0.536
542.500	347.856	80.004	19.994	100.383	20.093	8.486	0.511
543.000	348.073	80.004	19.994	100.384	20.091	8.648	0.507
543.500	348.301	80.004	19.995	100.384	20.092	8.577	0.476
544.000	348.579	80.004	19.995	100.388	20.087	8.968	0.475
544.500	348.798	80.005	19.994	100.391	20.087	8.945	0.501
545.000	349.078	80.004	19.994	100.392	20.090	8.702	0.498
545.500	349.318	80.004	19.994	100.394	20.089	8.775	0.510
546.000	349.595	80.005	19.993	100.399	20.090	8.738	0.519
546.500	349.868	80.002	19.994	100.402	20.089	8.827	0.534
547.000	350.095	80.004	19.994	100.406	20.090	8.731	0.525
547.500	350.370	80.005	19.994	100.412	20.089	8.831	0.501
548.000	350.632	80.003	19.995	100.417	20.091	8.652	0.520
548.500	350.869	80.003	19.994	100.418	20.091	8.675	0.518
549.000	351.123	80.004	19.994	100.419	20.090	8.766	0.495
549.500	351.351	80.003	19.994	100.419	20.088	8.876	0.486
550.000	351.632	80.002	19.995	100.419	20.089	8.836	0.496
550.500	351.888	80.005	19.995	100.421	20.086	8.999	0.523
551.000	352.137	80.003	19.994	100.423	20.087	8.929	0.521
551.500	352.401	80.005	19.994	100.425	20.085	9.053	0.509
552.000	352.657	80.003	19.995	100.427	20.089	8.778	0.516
552.500	352.932	80.004	19.994	100.430	20.088	8.898	0.525
553.000	353.169	80.004	19.995	100.434	20.086	9.018	0.522
553.500	353.441	80.003	19.995	100.441	20.088	8.904	0.511
554.000	353.695	80.004	19.996	100.447	20.087	8.948	0.517
554.500	353.981	80.004	19.994	100.453	20.088	8.908	0.533
555.001	354.227	80.004	19.995	100.458	20.088	8.905	0.536
555.500	354.462	80.004	19.995	100.459	20.085	9.079	0.506
556.000	354.720	80.004	19.995	100.459	20.087	8.963	0.487
556.500	355.005	80.004	19.995	100.459	20.086	9.047	0.518
557.000	355.248	80.004	19.994	100.459	20.088	8.870	0.536
557.500	355.485	80.003	19.994	100.460	20.084	9.135	0.504
558.000	355.718	80.003	19.994	100.461	20.086	9.031	0.475
558.500	355.982	80.004	19.994	100.462	20.085	9.093	0.483
559.000	356.230	80.004	19.994	100.462	20.083	9.207	0.505
559.500	356.502	80.004	19.994	100.462	20.085	9.116	0.516
560.000	356.785	80.004	19.993	100.464	20.083	9.211	0.537
560.500	357.012	80.005	19.995	100.465	20.086	9.033	0.532
561.000	357.266	80.004	19.994	100.468	20.081	9.372	0.496
561.500	357.493	80.004	19.995	100.470	20.082	9.275	0.481
562.001	357.779	80.006	19.994	100.473	20.081	9.397	0.497
562.500	358.032	80.006	19.994	100.474	20.083	9.229	0.526
563.000	358.304	80.006	19.994	100.474	20.079	9.490	0.532
563.500	358.492	80.006	19.994	100.473	20.082	9.326	0.492
564.000	358.793	80.006	19.994	100.474	20.079	9.504	0.474
564.500	359.008	80.007	19.994	100.473	20.079	9.506	0.502
565.000	359.276	80.007	19.994	100.472	20.079	9.494	0.500
565.500	359.524	80.006	19.994	100.475	20.078	9.558	0.500
566.000	359.764	80.006	19.995	100.480	20.078	9.552	0.502
566.500	360.032	80.007	19.994	100.482	20.078	9.583	0.498
567.000	360.298	80.007	19.994	100.482	20.079	9.504	0.521
567.500	360.531	80.006	19.994	100.488	20.079	9.539	0.517
568.000	360.820	80.007	19.994	100.486	20.080	9.452	0.510
568.500	361.093	80.006	19.994	100.483	20.075	9.765	0.542
569.000	361.324	80.005	19.993	100.483	20.075	9.804	0.533
569.500	361.587	80.006	19.995	100.486	20.075	9.786	0.500
570.000	361.845	80.006	19.993	100.485	20.075	9.811	0.508
570.500	362.093	80.005	19.994	100.487	20.074	9.850	0.513
571.000	362.338	80.005	19.994	100.490	20.073	9.925	0.499
571.500	362.548	80.005	19.994	100.491	20.075	9.780	0.474
572.000	362.810	80.005	19.994	100.492	20.076	9.734	0.463
572.500	363.073	80.004	19.994	100.493	20.078	9.612	0.498
573.000	363.311	80.005	19.994	100.493	20.077	9.637	0.513
573.500	363.578	80.004	19.994	100.493	20.078	9.595	0.503
574.000	363.825	80.003	19.995	100.494	20.077	9.678	0.510
574.500	364.070	80.003	19.994	100.494	20.078	9.583	0.503
575.000	364.334	80.003	19.994	100.495	20.075	9.775	0.500
575.500	364.574	80.004	19.994	100.496	20.073	9.976	0.507
576.000	364.787	80.003	19.994	100.496	20.079	9.531	0.479
576.500	365.058	80.003	19.995	100.496	20.076	9.699	0.469
577.000	365.324	80.003	19.994	100.496	20.078	9.581	0.510
577.500	365.613	80.004	19.994	100.495	20.079	9.544	0.546
578.000	365.824	80.003	19.995	100.495	20.078	9.558	0.527
578.501	366.061	80.004	19.994	100.496	20.077	9.691	0.474
579.000	366.309	80.002	19.995	100.496	20.078	9.606	0.467
579.500	366.573	80.003	19.996	100.496	20.076	9.717	0.499
580.000	366.825	80.004	19.994	100.496	20.074	9.856	0.514
580.500	367.092	80.003	19.994	100.496	20.076	9.711	0.517
581.000	367.287	80.001	19.994	100.496	20.076	9.711	0.490
581.500	367.583	80.003	19.994	100.496	20.076	9.717	0.476
582.000	367.823	80.002	19.994	100.496	20.076	9.715	0.513
582.500	368.069	80.004	19.994	100.496	20.073	9.916	0.511
583.000	368.306	80.003	19.995	100.496	20.074	9.860	0.485
583.500	368.535	80.003	19.996	100.496	20.076	9.724	0.475
584.000	368.789	80.004	19.995	100.496	20.074	9.868	0.474
584.500	369.086	80.002	19.994	100.496	20.075	9.815	0.517
585.000	369.310	80.001	19.994	100.496	20.077	9.672	0.536
585.500	369.558	80.004	19.995	100.496	20.075	9.829	0.497
586.000	369.819	80.001	19.995	100.497	20.078	9.616	0.491
586.500	370.074	80.002	19.995	100.497	20.076	9.736	0.513
587.000	370.337	80.005	19.996	100.497	20.077	9.686	0.517
587.500	370.592	80.003	19.995	100.497	20.076	9.740	0.518
588.000	370.837	80.003	19.995	100.497	20.078	9.600	0.509
588.500	371.068	80.002	19.996	100.496	20.078	9.614	0.488
589.000	371.316	80.004	19.995	100.496	20.078	9.614	0.477
589.500	371.561	80.004	19.995	100.496	20.076	9.736	0.486
590.000	371.826	80.002	19.995	100.496	20.078	9.608	0.502
590.500	372.092	80.005	19.996	100.496	20.077	9.662	0.520
591.000	372.351	80.002	19.994	100.496	20.080	9.471	0.528
591.500	372.633	80.004	19.995	100.496	20.075	9.805	0.533
592.000	372.848	80.003	19.995	100.496	20.077	9.693	0.519
592.500	373.126	80.003	19.995	100.496	20.077	9.684	0.495
593.000	373.379	80.002	19.996	100.496	20.076	9.746	0.512
593.500	373.620	80.005	19.996	100.497	20.078	9.556	0.513
594.000	373.861	80.001	19.995	100.497	20.077	9.685	0.488
594.500	374.122	80.005	19.995	100.496	20.076	9.755	0.492
595.000	374.358	80.003	19.995	100.497	20.074	9.857	0.500
595.500	374.608	80.003	19.995	100.497	20.077	9.657	0.492
596.000	374.861	80.004	19.995	100.496	20.079	9.549	0.495
596.500	375.111	80.003	19.995	100.497	20.075	9.764	0.503
597.000	375.317	80.003	19.995	100.497	20.073	9.956	0.479
597.500	375.612	80.004	19.995	100.496	20.074	9.842	0.478
598.000	375.837	80.003	19.995	100.496	20.073	9.929	0.511
598.500	376.131	80.004	19.995	100.495	20.076	9.728	0.520
599.000	376.392	80.003	19.995	100.495	20.075	9.823	0.537
599.500	376.650	80.003	19.995	100.494	20.074	9.884	0.537
600.000	376.855	80.003	19.995	100.494	20.074	9.896	0.491
600.500	377.108	80.004	19.995	100.494	20.075	9.806	0.460
601.000	377.366	80.002	19.995	100.494	20.075	9.771	0.485
601.500	377.595	80.001	19.995	100.494	20.072	10.037	0.499
602.000	377.863	80.003	19.994	100.494	20.072	10.020	0.492
602.500	378.097	80.002	19.995	100.494	20.070	10.140	0.499
603.000	378.376	80.000	19.995	100.494	20.071	10.072	0.507
603.500	378.602	80.002	19.994	100.495	20.070	10.129	0.509
604.000	378.872	79.999	19.995	100.496	20.073	9.934	0.501
604.500	379.139	80.000	19.995	100.494	20.072	9.986	0.517
605.001	379.389	80.002	19.996	100.490	20.070	10.184	0.527
605.500	379.612	80.004	19.995	100.488	20.071	10.078	0.495
606.000	379.855	80.001	19.996	100.485	20.069	10.234	0.469
606.500	380.101	80.002	19.995	100.483	20.072	10.016	0.478
607.000	380.379	80.001	19.995	100.484	20.070	10.127	0.507
607.500	380.627	80.003	19.996	100.490	20.071	10.108	0.525
608.000	380.877	80.002	19.994	100.492	20.068	10.298	0.512
608.500	381.115	80.001	19.995	100.492	20.066	10.402	0.493
609.000	381.356	80.001	19.996	100.492	20.065	10.493	0.483
609.500	381.612	79.999	19.997	100.493	20.066	10.426	0.488
610.000	381.871	80.002	19.996	100.493	20.068	10.281	0.506
610.500	382.125	80.002	19.995	100.491	20.064	10.555	0.514
611.000	382.357	80.001	19.995	100.494	20.067	10.371	0.500
611.500	382.621	80.002	19.995	100.496	20.065	10.516	0.491
612.000	382.852	80.002	19.994	100.496	20.065	10.504	0.495
612.500	383.107	80.003	19.996	100.493	20.063	10.616	0.491
613.000	383.373	80.002	19.995	100.493	20.062	10.705	0.504
613.500	383.641	80.004	19.996	100.491	20.061	10.775	0.528
614.001	383.845	80.002	19.996	100.490	20.062	10.696	0.503
614.500	384.158	80.003	19.996	100.485	20.062	10.738	0.494
615.000	384.401	80.001	19.996	100.484	20.061	10.781	0.537
615.500	384.655	80.004	19.996	100.478	20.061	10.820	0.526
616.000	384.890	80.002	19.996	100.472	20.061	10.773	0.493
616.501	385.154	80.001	19.996	100.469	20.058	11.017	0.494
617.000	385.399	80.002	19.996	100.470	20.059	10.938	0.504
617.500	385.635	80.002	19.995	100.471	20.056	11.122	0.495
618.000	385.930	80.005	19.996	100.477	20.056	11.135	0.506
618.500	386.157	80.003	19.997	100.482	20.055	11.205	0.526
619.000	386.423	80.005	19.995	100.484	20.056	11.149	0.507
619.500	386.689	80.004	19.996	100.485	20.054	11.311	0.513
620.000	386.914	80.004	19.995	100.480	20.051	11.480	0.512
620.500	387.177	80.005	19.995	100.474	20.052	11.440	0.489
621.000	387.451	80.002	19.995	100.469	20.052	11.413	0.512
621.500	387.693	80.005	19.995	100.466	20.053	11.387	0.526
622.000	387.922	80.003	19.995	100.462	20.052	11.461	0.494
622.500	388.204	80.005	19.995	100.462	20.048	11.739	0.491
623.000	388.445	80.005	19.996	100.462	20.049	11.629	0.517
623.500	388.670	80.006	19.995	100.462	20.048	11.718	0.495
624.000	388.948	80.005	19.995	100.462	20.050	11.548	0.485
624.500	389.187	80.004	19.994	100.461	20.047	11.786	0.510
625.000	389.419	80.004	19.996	100.462	20.047	11.813	0.494
625.500	389.711	80.003	19.994	100.463	20.042	12.161	0.498
626.000	389.967	80.004	19.994	100.463	20.043	12.093	0.536
626.500	390.194	80.003	19.994	100.465	20.041	12.199	0.515
627.000	390.456	80.002	19.995	100.465	20.042	12.114	0.486
627.500	390.671	80.004	19.994	100.466	20.039	12.314	0.484
628.000	390.938	80.004	19.995	100.467	20.039	12.366	0.479
628.500	391.220	80.003	19.994	100.469	20.039	12.370	0.515
629.000	391.473	80.004	19.994	100.468	20.040	12.312	0.542
629.500	391.731	80.004	19.995	100.467	20.034	12.673	0.523
630.000	391.954	80.003	19.994	100.465	20.034	12.689	0.496
630.500	392.216	80.005	19.995	100.464	20.036	12.575	0.483
631.000	392.474	80.005	19.994	100.459	20.029	13.033	0.502
631.500	392.712	80.003	19.995	100.458	20.031	12.886	0.508
632.000	393.001	80.004	19.995	100.458	20.031	12.895	0.512
632.500	393.262	80.005	19.994	100.457	20.028	13.127	0.538
633.000	393.515	80.004	19.995	100.457	20.028	13.155	0.532
633.500	393.763	80.007	19.996	100.457	20.025	13.317	0.508
634.000	393.981	80.003	19.995	100.457	20.027	13.216	0.484
634.500	394.250	80.004	19.994	100.457	20.025	13.329	0.477
635.000	394.546	80.004	19.995	100.458	20.022	13.559	0.527
635.500	394.770	80.002	19.995	100.457	20.021	13.655	0.543
636.000	395.043	80.006	19.995	100.457	20.020	13.710	0.508
636.500	395.275	80.004	19.995	100.457	20.020	13.692	0.501
637.000	395.563	80.002	19.996	100.457	20.019	13.800	0.513
637.500	395.822	80.005	19.995	100.456	20.018	13.852	0.534
638.000	396.050	80.003	19.994	100.457	20.013	14.187	0.517
638.500	396.308	80.003	19.995	100.457	20.011	14.299	0.487
639.000	396.567	80.003	19.995	100.457	20.013	14.191	0.501
639.500	396.823	80.005	19.996	100.458	20.010	14.415	0.515
640.000	397.065	80.004	19.994	100.458	20.012	14.289	0.506
640.500	397.330	80.005	19.995	100.458	20.009	14.500	0.502
641.000	397.568	80.004	19.995	100.457	20.005	14.725	0.505
641.500	397.812	80.004	19.995	100.456	20.005	14.759	0.493
642.000	398.078	80.005	19.994	100.455	20.002	14.976	0.496
642.500	398.377	80.004	19.994	100.455	20.002	14.980	0.537
643.000	398.621	80.006	19.994	100.454	20.000	15.090	0.554
643.500	398.847	80.006	19.995	100.455	19.999	15.210	0.507
644.000	399.096	80.007	19.994	100.455	19.996	15.363	0.472
644.500	399.356	80.005	19.995	100.456	19.991	15.778	0.492
645.000	399.638	80.005	19.994	100.456	19.990	15.837	0.525
645.500	399.848	80.006	19.993	100.456	19.990	15.799	0.517
646.000	400.130	80.008	19.993	100.456	19.991	15.744	0.492
646.500	400.382	80.006	19.994	100.456	19.986	16.075	0.513
647.000	400.622	80.006	19.995	100.456	19.985	16.196	0.513
647.500	400.879	80.005	19.994	100.456	19.984	16.231	0.495
648.000	401.121	80.003	19.993	100.456	19.981	16.428	0.498
648.500	401.398	80.008	19.995	100.454	19.980	16.519	0.509
649.000	401.627	80.003	19.995	100.453	19.979	16.575	0.512
649.500	401.885	80.005	19.994	100.453	19.976	16.805	0.497
650.000	402.152	80.004	19.995	100.452	19.975	16.882	0.506
650.500	402.402	80.005	19.995	100.453	19.975	16.920	0.521
651.000	402.654	80.005	19.994	100.454	19.971	17.196	0.510
651.500	402.921	80.005	19.995	100.454	19.968	17.410	0.510
652.000	403.162	80.005	19.995	100.455	19.969	17.309	0.513
652.500	403.423	80.006	19.994	100.455	19.966	17.515	0.505
653.000	403.689	80.005	19.995	100.454	19.962	17.828	0.514
653.500	403.894	80.005	19.996	100.455	19.960	17.929	0.499
654.000	404.190	80.005	19.996	100.455	19.957	18.136	0.486
654.500	404.398	80.003	19.995	100.455	19.953	18.414	0.502
655.000	404.681	80.003	19.994	100.455	19.956	18.242	0.497
655.500	404.948	80.004	19.994	100.450	19.953	18.430	0.521
656.000	405.217	80.003	19.995	100.448	19.950	18.637	0.543
656.500	405.419	80.003	19.995	100.448	19.946	18.921	0.503
657.000	405.682	80.003	19.996	100.448	19.946	18.966	0.468
657.500	405.943	80.003	19.995	100.446	19.940	19.337	0.494
658.000	406.202	80.004	19.995	100.451	19.940	19.374	0.522
658.500	406.434	80.004	19.996	100.453	19.938	19.517	0.506
659.000	406.665	80.003	19.994	100.454	19.936	19.650	0.477
659.500	406.905	80.004	19.995	100.453	19.931	19.988	0.467
660.000	407.196	80.003	19.994	100.454	19.928	20.187	0.501
660.500	407.439	80.003	19.996	100.455	19.928	20.228	0.533
661.000	407.666	80.004	19.995	100.454	19.925	20.407	0.502
661.500	407.924	80.005	19.996	100.449	19.921	20.710	0.477
662.000	408.220	80.003	19.994	100.446	19.921	20.718	0.519
662.500	408.484	80.004	19.994	100.440	19.915	21.147	0.557
663.000	408.732	80.004	19.994	100.437	19.911	21.409	0.536
663.500	408.924	80.003	19.994	100.434	19.912	21.344	0.476
664.000	409.230	80.003	19.994	100.433	19.907	21.687	0.469
664.500	409.462	80.002	19.994	100.433	19.906	21.798	0.518
665.000	409.712	80.003	19.994	100.434	19.903	21.963	0.510
665.500	409.944	80.003	19.994	100.432	19.899	22.251	0.482
666.000	410.243	80.002	19.993	100.433	19.896	22.498	0.506
666.500	410.473	80.002	19.995	100.435	19.893	22.724	0.530
667.000	410.724	80.004	19.994	100.435	19.887	23.100	0.504
667.500	410.966	80.003	19.994	100.434	19.885	23.241	0.487
668.000	411.228	80.003	19.994	100.438	19.886	23.157	0.499
668.501	411.460	80.004	19.995	100.440	19.879	23.704	0.499
669.000	411.755	80.004	19.994	100.439	19.875	23.943	0.510
669.501	412.004	80.004	19.995	100.440	19.872	24.164	0.536
670.000	412.227	80.005	19.994	100.446	19.870	24.359	0.508
670.500	412.472	80.004	19.995	100.447	19.867	24.535	0.470
671.000	412.756	80.005	19.994	100.444	19.864	24.754	0.499
671.500	412.987	80.006	19.995	100.448	19.856	25.284	0.523
672.000	413.230	80.004	19.995	100.450	19.855	25.375	0.494
672.500	413.517	80.005	19.994	100.449	19.850	25.758	0.501
673.000	413.735	80.003	19.995	100.443	19.846	26.044	0.518
673.500	413.940	80.003	19.994	100.441	19.844	26.143	0.464
674.000	414.228	80.003	19.995	100.436	19.840	26.454	0.458
674.500	414.479	80.004	19.995	100.430	19.834	26.889	0.516
675.000	414.726	80.005	19.995	100.427	19.829	27.225	0.518
675.500	414.983	80.004	19.995	100.430	19.827	27.374	0.501
676.000	415.222	80.004	19.995	100.430	19.823	27.639	0.500
676.500	415.459	80.002	19.995	100.433	19.819	27.909	0.487
677.000	415.701	80.003	19.995	100.437	19.814	28.290	0.478
677.500	415.958	80.005	19.995	100.436	19.813	28.399	0.488
678.000	416.229	80.003	19.995	100.432	19.807	28.792	0.513
678.500	416.504	80.003	19.996	100.431	19.802	29.182	0.537
679.000	416.711	80.002	19.995	100.430	19.798	29.422	0.514
679.500	417.005	80.002	19.995	100.427	19.791	29.908	0.492
680.000	417.226	80.003	19.995	100.427	19.787	30.215	0.508
680.500	417.483	80.002	19.995	100.429	19.786	30.308	0.497
681.000	417.728	80.003	19.995	100.429	19.781	30.626	0.490
681.500	417.994	80.002	19.995	100.427	19.774	31.102	0.507
682.001	418.255	80.003	19.995	100.432	19.771	31.358	0.519
682.500	418.487	80.002	19.996	100.433	19.767	31.661	0.510
683.000	418.723	80.003	19.995	100.432	19.761	32.039	0.481
683.500	418.993	80.003	19.996	100.433	19.756	32.439	0.487
684.000	419.244	80.002	19.995	100.433	19.752	32.683	0.513
684.500	419.464	80.004	19.995	100.427	19.748	32.985	0.496
685.000	419.729	80.002	19.995	100.426	19.741	33.477	0.478
685.500	419.962	80.001	19.996	100.425	19.734	33.938	0.492
686.000	420.229	80.002	19.995	100.424	19.733	34.042	0.500
686.500	420.475	80.004	19.995	100.424	19.727	34.459	0.506
687.000	420.755	80.002	19.995	100.424	19.719	35.048	0.519
687.500	420.992	80.002	19.994	100.424	19.714	35.376	0.522
688.000	421.252	80.002	19.995	100.424	19.710	35.637	0.507
688.500	421.525	80.002	19.995	100.425	19.706	35.933	0.515
689.000	421.726	80.002	19.995	100.428	19.699	36.454	0.504
689.500	421.972	80.002	19.995	100.433	19.694	36.814	0.461
690.000	422.225	80.002	19.995	100.435	19.693	36.841	0.473
690.500	422.518	80.004	19.995	100.436	19.684	37.547	0.522
691.000	422.719	80.004	19.996	100.437	19.679	37.877	0.520
691.500	423.010	80.003	19.995	100.436	19.676	38.047	0.493
692.000	423.247	80.003	19.996	100.434	19.670	38.513	0.510
692.500	423.499	80.003	19.996	100.433	19.662	39.078	0.508
693.000	423.742	80.003	19.995	100.436	19.656	39.462	0.492
693.500	424.022	80.003	19.995	100.435	19.650	39.902	0.509
694.000	424.238	80.002	19.995	100.434	19.643	40.385	0.510
694.500	424.495	80.004	19.995	100.433	19.640	40.604	0.485
695.000	424.779	80.005	19.994	100.432	19.636	40.909	0.507
695.500	425.011	80.003	19.994	100.435	19.629	41.385	0.528
696.000	425.254	80.005	19.995	100.437	19.622	41.904	0.496
696.500	425.539	80.004	19.995	100.434	19.618	42.161	0.502
697.000	425.780	80.006	19.995	100.432	19.609	42.792	0.527
697.500	426.053	80.005	19.995	100.431	19.604	43.149	0.520
698.000	426.249	80.006	19.995	100.426	19.601	43.416	0.491
698.500	426.521	80.003	19.995	100.423	19.594	43.885	0.468
699.000	426.794	80.004	19.995	100.423	19.586	44.474	0.507
699.500	427.023	80.004	19.995	100.428	19.584	44.632	0.524
700.000	427.272	80.005	19.996	100.432	19.576	45.163	0.490
700.500	427.493	80.005	19.994	100.434	19.569	45.675	0.474
701.000	427.769	80.004	19.995	100.433	19.563	46.090	0.483
701.500	428.017	80.006	19.996	100.432	19.553	46.769	0.510
702.000	428.284	80.004	19.996	100.427	19.551	46.965	0.520
702.500	428.569	80.004	19.995	100.420	19.547	47.242	0.534
703.000	428.818	80.003	19.996	100.418	19.539	47.762	0.543
703.500	429.062	80.005	19.995	100.417	19.535	48.052	0.514
704.000	429.298	80.004	19.996	100.417	19.525	48.799	0.487
704.500	429.523	80.005	19.996	100.420	19.519	49.201	0.470
705.000	429.824	80.005	19.995	100.420	19.515	49.483	0.493
705.500	430.073	80.004	19.995	100.420	19.513	49.658	0.538
706.000	430.314	80.003	19.995	100.420	19.501	50.452	0.521
706.500	430.547	80.003	19.996	100.420	19.498	50.692	0.482
707.000	430.787	80.002	19.997	100.418	19.491	51.179	0.473
707.500	431.037	80.007	19.996	100.418	19.484	51.680	0.481
708.000	431.307	80.003	19.995	100.419	19.483	51.765	0.505
708.500	431.581	80.004	19.997	100.420	19.476	52.251	0.532
709.000	431.827	80.003	19.997	100.420	19.467	52.870	0.532
709.500	432.099	80.004	19.997	100.421	19.466	52.949	0.518
710.000	432.320	80.004	19.996	100.421	19.461	53.329	0.505
710.500	432.568	80.004	19.996	100.419	19.451	54.050	0.481
711.000	432.839	80.003	19.995	100.419	19.442	54.641	0.495
711.500	433.119	80.003	19.997	100.418	19.439	54.884	0.535
712.000	433.357	80.005	19.996	100.417	19.431	55.418	0.534
712.500	433.577	80.004	19.996	100.418	19.429	55.575	0.488
713.000	433.823	80.005	19.995	100.419	19.423	56.040	0.463
713.500	434.072	80.003	19.995	100.420	19.415	56.589	0.480
714.000	434.358	80.004	19.997	100.421	19.409	57.027	0.515
714.500	434.615	80.003	19.995	100.421	19.405	57.309	0.539
715.000	434.848	80.004	19.995	100.419	19.397	57.883	0.517
715.500	435.109	80.006	19.996	100.419	19.392	58.182	0.492
716.000	435.371	80.003	19.996	100.418	19.388	58.486	0.508
716.500	435.590	80.006	19.995	100.417	19.383	58.861	0.503
717.000	435.852	80.006	19.996	100.417	19.377	59.279	0.481
717.500	436.113	80.007	19.995	100.417	19.371	59.715	0.501
718.000	436.343	80.003	19.996	100.417	19.367	59.966	0.507
718.500	436.590	80.003	19.996	100.417	19.360	60.439	0.484
719.000	436.844	80.004	19.995	100.418	19.358	60.596	0.490
719.500	437.120	80.005	19.995	100.418	19.348	61.313	0.515
720.000	437.364	80.005	19.995	100.420	19.348	61.316	0.525
720.500	437.627	80.005	19.995	100.422	19.342	61.726	0.514
721.000	437.857	80.005	19.995	100.421	19.341	61.832	0.500
721.500	438.104	80.005	19.995	100.421	19.332	62.462	0.485
722.000	438.358	80.005	19.995	100.421	19.326	62.857	0.489
722.500	438.604	80.006	19.995	100.419	19.321	63.232	0.501
723.000	438.877	80.006	19.994	100.417	19.313	63.808	0.509
723.500	439.128	80.006	19.995	100.416	19.309	64.102	0.521
724.000	439.391	80.007	19.995	100.416	19.307	64.230	0.519
724.500	439.603	80.009	19.995	100.417	19.302	64.556	0.495
725.000	439.853	80.006	19.995	100.417	19.295	65.081	0.468
725.500	440.070	80.008	19.995	100.417	19.289	65.528	0.464
726.000	440.377	80.006	19.995	100.417	19.287	65.643	0.495
726.500	440.607	80.006	19.994	100.417	19.280	66.100	0.530
727.000	440.889	80.008	19.995	100.417	19.276	66.428	0.525
727.500	441.102	80.007	19.995	100.417	19.271	66.734	0.504
728.000	441.345	80.005	19.995	100.417	19.270	66.870	0.475
728.500	441.594	80.006	19.994	100.417	19.265	67.225	0.474
729.000	441.863	80.005	19.995	100.417	19.260	67.534	0.505
729.500	442.103	80.007	19.995	100.416	19.256	67.851	0.514
730.000	442.346	80.007	19.995	100.416	19.253	68.021	0.497
730.500	442.606	80.005	19.995	100.417	19.249	68.341	0.493
731.000	442.892	80.008	19.994	100.417	19.247	68.490	0.524
731.500	443.132	80.006	19.994	100.417	19.242	68.848	0.536
732.000	443.391	80.006	19.994	100.418	19.240	68.965	0.512
732.500	443.646	80.007	19.994	100.418	19.237	69.204	0.506
733.000	443.873	80.004	19.994	100.418	19.237	69.216	0.498
733.500	444.134	80.004	19.994	100.418	19.232	69.537	0.485
734.000	444.353	80.004	19.995	100.418	19.231	69.642	0.484
734.500	444.628	80.004	19.994	100.419	19.227	69.895	0.487
735.000	444.885	80.003	19.994	100.419	19.229	69.792	0.513
735.500	445.155	80.003	19.994	100.419	19.224	70.123	0.529
736.001	445.397	80.003	19.995	100.414	19.227	69.884	0.519
736.500	445.624	80.004	19.994	100.409	19.225	70.017	0.490
737.000	445.879	80.004	19.994	100.404	19.226	69.992	0.476
737.500	446.106	80.003	19.995	100.400	19.229	69.742	0.482
738.000	446.378	80.001	19.994	100.396	19.229	69.793	0.490
738.500	446.651	80.005	19.995	100.395	19.233	69.468	0.522
739.000	446.895	80.004	19.995	100.399	19.231	69.641	0.531
739.500	447.146	80.004	19.994	100.401	19.234	69.378	0.506
740.000	447.363	80.005	19.994	100.404	19.234	69.380	0.481
740.500	447.633	80.002	19.994	100.406	19.235	69.327	0.478
741.000	447.925	80.002	19.994	100.409	19.239	69.034	0.525
741.500	448.150	80.004	19.994	100.407	19.241	68.918	0.540
742.000	448.399	80.004	19.996	100.408	19.242	68.855	0.495
742.500	448.666	80.006	19.995	100.406	19.242	68.809	0.495
743.000	448.900	80.001	19.995	100.406	19.242	68.808	0.508
743.500	449.151	80.004	19.995	100.409	19.244	68.679	0.493
744.000	449.388	80.004	19.994	100.412	19.246	68.549	0.486
744.500	449.649	80.004	19.994	100.415	19.250	68.239	0.493
745.000	449.910	80.005	19.995	100.417	19.251	68.167	0.510
745.500	450.155	80.004	19.995	100.418	19.250	68.279	0.514
746.000	450.386	80.004	19.995	100.418	19.256	67.806	0.491
746.500	450.668	80.005	19.994	100.419	19.253	68.049	0.495
747.000	450.909	80.003	19.995	100.420	19.255	67.885	0.518
747.500	451.150	80.004	19.995	100.421	19.254	67.986	0.502
748.000	451.414	80.003	19.994	100.422	19.257	67.778	0.494
748.500	451.645	80.001	19.995	100.421	19.254	67.956	0.500
749.000	451.907	80.002	19.995	100.420	19.255	67.896	0.494
749.500	452.158	80.001	19.995	100.418	19.254	67.981	0.502
750.000	452.449	80.004	19.994	100.418	19.253	68.022	0.527
750.500	452.635	80.004	19.994	100.418	19.255	67.907	0.510
751.000	452.878	80.003	19.994	100.418	19.259	67.597	0.453
751.500	453.174	80.003	19.994	100.418	19.259	67.588	0.484
752.000	453.420	80.004	19.995	100.418	19.255	67.900	0.541
752.500	453.658	80.002	19.994	100.415	19.258	67.700	0.513
753.000	453.868	80.003	19.994	100.412	19.258	67.678	0.466
753.500	454.148	80.003	19.994	100.414	19.262	67.366	0.469
754.000	454.390	80.004	19.994	100.415	19.261	67.460	0.506
754.500	454.637	80.002	19.994	100.415	19.261	67.439	0.505
755.001	454.904	80.004	19.994	100.416	19.262	67.392	0.502
755.500	455.149	80.004	19.994	100.414	19.266	67.139	0.513
756.000	455.369	80.005	19.995	100.410	19.265	67.212	0.489
756.500	455.681	80.004	19.994	100.405	19.264	67.251	0.499
757.000	455.912	80.003	19.994	100.405	19.262	67.419	0.538
757.500	456.186	80.005	19.995	100.408	19.262	67.397	0.524
758.000	456.433	80.004	19.993	100.411	19.266	67.144	0.512
758.500	456.712	80.004	19.995	100.411	19.266	67.106	0.523
759.000	456.955	80.003	19.995	100.413	19.265	67.173	0.524
759.500	457.175	80.003	19.994	100.412	19.265	67.168	0.493
760.000	457.468	80.003	19.995	100.412	19.266	67.083	0.488
760.500	457.714	80.003	19.995	100.407	19.266	67.134	0.526
761.000	457.955	80.003	19.995	100.407	19.270	66.824	0.513
761.500	458.243	80.003	19.994	100.406	19.270	66.844	0.508
762.000	458.479	80.003	19.995	100.402	19.273	66.600	0.526
762.500	458.728	80.003	19.995	100.400	19.275	66.496	0.505
763.000	458.998	80.002	19.995	100.401	19.279	66.192	0.502
763.500	459.212	80.004	19.995	100.397	19.283	65.899	0.502
764.000	459.511	80.005	19.995	100.392	19.289	65.461	0.498
764.500	459.779	80.004	19.995	100.389	19.294	65.100	0.540
765.000	460.005	80.001	19.995	100.385	19.299	64.781	0.531
765.500	460.305	80.003	19.995	100.382	19.308	64.168	0.510
766.000	460.522	80.002	19.995	100.381	19.314	63.702	0.521
766.500	460.803	80.003	19.995	100.379	19.319	63.350	0.508
767.000	461.008	80.005	19.996	100.378	19.330	62.565	0.492
767.500	461.273	80.003	19.996	100.376	19.334	62.303	0.478
768.000	461.566	80.001	19.995	100.376	19.343	61.690	0.513
768.500	461.811	80.001	19.996	100.377	19.353	60.957	0.548
769.000	462.068	80.000	19.996	100.378	19.364	60.208	0.520
769.500	462.348	80.003	19.996	100.378	19.371	59.648	0.519
770.000	462.593	80.000	19.995	100.375	19.379	59.117	0.531
770.500	462.841	80.002	19.996	100.370	19.393	58.115	0.509
771.000	463.120	80.002	19.996	100.367	19.405	57.287	0.510
771.500	463.391	80.002	19.995	100.368	19.414	56.651	0.539
772.001	463.637	80.003	19.996	100.370	19.422	56.034	0.533
772.500	463.874	80.000	19.996	100.373	19.430	55.466	0.500
773.000	464.118	80.002	19.996	100.378	19.440	54.771	0.482
773.500	464.374	80.003	19.996	100.382	19.449	54.175	0.490
774.000	464.648	80.004	19.996	100.381	19.457	53.555	0.515
774.500	464.874	80.003	19.996	100.382	19.465	53.008	0.515
775.000	465.153	80.003	19.995	100.383	19.471	52.591	0.502
775.500	465.415	80.004	19.995	100.387	19.479	51.997	0.523
776.000	465.643	80.004	19.996	100.389	19.489	51.306	0.516
776.500	465.914	80.003	19.996	100.392	19.495	50.894	0.495
777.000	466.203	80.001	19.995	100.392	19.507	50.008	0.529
777.500	466.433	80.003	19.996	100.391	19.514	49.517	0.539
778.000	466.718	80.003	19.995	100.390	19.527	48.615	0.517
778.500	466.968	80.005	19.996	100.395	19.535	48.058	0.526
779.000	467.217	80.005	19.994	100.397	19.544	47.435	0.517
779.500	467.454	80.006	19.995	100.396	19.554	46.733	0.493
780.000	467.719	80.004	19.994	100.395	19.561	46.215	0.494
780.500	467.979	80.004	19.994	100.392	19.568	45.719	0.513
781.000	468.184	80.004	19.995	100.386	19.573	45.380	0.495
781.500	468.472	80.004	19.995	100.380	19.578	45.014	0.479
782.000	468.731	80.005	19.995	100.379	19.581	44.806	0.520
782.500	468.991	80.005	19.995	100.379	19.587	44.356	0.533
783.000	469.238	80.004	19.995	100.380	19.591	44.070	0.513
783.500	469.510	80.005	19.996	100.380	19.596	43.710	0.513
784.000	469.774	80.007	19.995	100.382	19.602	43.310	0.527
784.500	470.041	80.006	19.994	100.387	19.605	43.100	0.533
785.000	470.292	80.006	19.995	100.392	19.613	42.551	0.525
785.500	470.599	80.007	19.995	100.395	19.616	42.288	0.539
786.000	470.799	80.004	19.996	100.396	19.616	42.279	0.533
786.500	471.068	80.005	19.995	100.394	19.621	41.961	0.487
787.000	471.308	80.005	19.995	100.392	19.619	42.133	0.489
787.500	471.581	80.005	19.994	100.391	19.622	41.865	0.511
788.000	471.801	80.005	19.995	100.389	19.624	41.737	0.503
788.500	472.066	80.005	19.995	100.393	19.626	41.587	0.489
789.000	472.281	80.004	19.994	100.393	19.629	41.389	0.483
789.500	472.597	80.006	19.994	100.390	19.634	41.055	0.506
790.000	472.846	80.005	19.996	100.384	19.639	40.676	0.548
790.500	473.056	80.004	19.995	100.382	19.646	40.176	0.512
791.000	473.366	80.003	19.995	100.377	19.651	39.801	0.489
791.500	473.610	80.004	19.994	100.374	19.662	39.072	0.537
792.000	473.871	80.002	19.994	100.372	19.664	38.910	0.529
792.500	474.130	80.005	19.995	100.371	19.669	38.555	0.513
793.000	474.414	80.005	19.995	100.363	19.674	38.184	0.532
793.500	474.685	80.004	19.995	100.356	19.674	38.184	0.549
794.000	474.932	80.004	19.996	100.355	19.675	38.121	0.536
794.500	475.186	80.001	19.995	100.359	19.674	38.225	0.509
795.000	475.415	80.004	19.996	100.361	19.672	38.311	0.492
795.500	475.716	80.002	19.994	100.368	19.674	38.236	0.507
796.000	475.940	80.002	19.995	100.376	19.671	38.408	0.528
796.500	476.206	80.002	19.994	100.381	19.671	38.413	0.508
797.000	476.480	80.001	19.995	100.385	19.669	38.580	0.515
797.500	476.744	80.005	19.995	100.393	19.671	38.427	0.539
798.000	476.985	80.003	19.995	100.402	19.672	38.327	0.522
798.500	477.272	80.002	19.995	100.408	19.676	38.032	0.517
799.000	477.483	80.004	19.995	100.412	19.684	37.470	0.513
799.500	477.741	80.003	19.996	100.415	19.691	36.970	0.483
800.000	478.007	80.004	19.996	100.411	19.698	36.486	0.496
800.500	478.265	80.004	19.996	100.399	19.708	35.805	0.524
801.000	478.476	80.002	19.995	100.384	19.712	35.464	0.496
801.501	478.784	80.003	19.996	100.370	19.720	34.914	0.494
802.001	479.004	80.002	19.995	100.355	19.724	34.667	0.524
802.500	479.251	80.004	19.995	100.343	19.728	34.399	0.497
803.000	479.483	80.005	19.997	100.339	19.726	34.500	0.473
803.500	479.747	80.004	19.996	100.339	19.728	34.341	0.487
804.000	480.057	80.003	19.997	100.340	19.729	34.304	0.535
804.500	480.290	80.004	19.997	100.345	19.733	34.040	0.559
805.000	480.533	80.007	19.995	100.352	19.733	34.013	0.509
805.500	480.764	80.005	19.995	100.361	19.734	33.968	0.475
806.000	481.056	80.003	19.995	100.374	19.740	33.514	0.499
806.500	481.322	80.005	19.995	100.390	19.742	33.378	0.540
807.000	481.571	80.005	19.996	100.399	19.746	33.065	0.536
807.500	481.881	80.006	19.996	100.404	19.746	33.126	0.537
808.000	482.052	80.005	19.995	100.411	19.752	32.687	0.520
808.500	482.302	80.006	19.995	100.410	19.760	32.099	0.451
809.000	482.588	80.005	19.995	100.404	19.761	32.064	0.478
809.500	482.875	80.006	19.995	100.398	19.766	31.682	0.554
810.000	483.130	80.005	19.995	100.394	19.770	31.366	0.558
810.500	483.345	80.006	19.994	100.380	19.772	31.266	0.506
811.000	483.630	80.006	19.994	100.366	19.778	30.837	0.484
811.500	483.861	80.005	19.994	100.356	19.783	30.510	0.508
812.000	484.144	80.004	19.993	100.348	19.785	30.309	0.515
812.500	484.363	80.004	19.994	100.344	19.787	30.162	0.508
813.000	484.622	80.005	19.995	100.350	19.787	30.163	0.490
813.500	484.886	80.006	19.993	100.358	19.791	29.945	0.501
814.000	485.112	80.003	19.995	100.366	19.798	29.444	0.507
814.500	485.364	80.004	19.995	100.374	19.803	29.067	0.484
815.000	485.632	80.004	19.994	100.380	19.808	28.738	0.499
815.500	485.874	80.004	19.994	100.380	19.808	28.709	0.515
816.000	486.177	80.003	19.994	100.381	19.815	28.224	0.527
816.500	486.364	80.006	19.994	100.381	19.819	27.918	0.517
817.000	486.634	80.002	19.994	100.381	19.822	27.721	0.474
817.500	486.919	80.002	19.995	100.378	19.827	27.331	0.506
818.000	487.184	80.001	19.994	100.377	19.829	27.219	0.552
818.500	487.441	80.003	19.995	100.375	19.832	26.971	0.536
819.000	487.664	80.002	19.994	100.367	19.838	26.597	0.501
819.500	487.926	80.001	19.994	100.366	19.843	26.191	0.483
820.000	488.155	80.002	19.994	100.367	19.845	26.058	0.488
820.500	488.440	80.003	19.995	100.367	19.849	25.794	0.503
821.000	488.693	80.001	19.995	100.370	19.853	25.548	0.527
821.500	488.928	80.001	19.995	100.377	19.857	25.265	0.513
822.000	489.194	80.002	19.995	100.379	19.862	24.866	0.494
822.500	489.456	80.002	19.994	100.381	19.865	24.649	0.515
823.000	489.707	80.003	19.995	100.382	19.869	24.346	0.521
823.500	489.926	80.003	19.995	100.382	19.871	24.227	0.491
824.000	490.184	80.001	19.995	100.380	19.876	23.910	0.473
824.500	490.452	80.003	19.995	100.380	19.882	23.474	0.502
825.000	490.725	80.003	19.995	100.377	19.884	23.335	0.533
825.500	490.940	80.003	19.995	100.377	19.887	23.097	0.514
826.000	491.213	80.004	19.995	100.376	19.890	22.884	0.488
826.500	491.456	80.003	19.995	100.375	19.895	22.519	0.502
827.000	491.725	80.003	19.995	100.375	19.899	22.282	0.514
827.500	491.956	80.003	19.994	100.378	19.902	22.014	0.506
828.000	492.240	80.003	19.995	100.378	19.904	21.930	0.508
828.500	492.497	80.004	19.996	100.379	19.910	21.503	0.529
829.000	492.729	80.004	19.995	100.380	19.914	21.166	0.515
829.500	492.984	80.002	19.995	100.378	19.921	20.701	0.488
830.000	493.224	80.002	19.996	100.373	19.921	20.713	0.491
830.500	493.510	80.000	19.995	100.367	19.924	20.460	0.511
831.000	493.743	80.002	19.996	100.361	19.928	20.184	0.523
831.500	494.032	80.003	19.995	100.360	19.930	20.056	0.521
832.000	494.265	80.002	19.994	100.361	19.933	19.827	0.521
832.500	494.523	80.002	19.995	100.364	19.935	19.724	0.506
833.000	494.814	80.002	19.996	100.369	19.941	19.313	0.520
833.500	495.037	80.004	19.995	100.372	19.945	18.976	0.531
834.000	495.296	80.004	19.995	100.367	19.949	18.686	0.498
834.500	495.535	80.004	19.995	100.367	19.951	18.574	0.490
835.000	495.788	80.003	19.995	100.368	19.953	18.443	0.495
835.500	496.054	80.004	19.994	100.369	19.956	18.234	0.506
836.000	496.314	80.003	19.994	100.371	19.958	18.048	0.522
836.500	496.574	80.003	19.995	100.376	19.961	17.846	0.523
837.000	496.809	80.004	19.994	100.377	19.962	17.827	0.507
837.500	497.061	80.005	19.994	100.378	19.964	17.654	0.491
838.000	497.351	80.002	19.995	100.378	19.969	17.332	0.515
838.500	497.653	80.004	19.994	100.375	19.970	17.255	0.568
839.000	497.828	80.004	19.995	100.371	19.972	17.120	0.535
839.500	498.099	80.003	19.994	100.369	19.978	16.660	0.461
840.000	498.332	80.005	19.995	100.368	19.978	16.658	0.474
840.500	498.592	80.003	19.996	100.366	19.983	16.327	0.498
841.000	498.879	80.004	19.994	100.369	19.986	16.127	0.520
841.500	499.107	80.004	19.995	100.372	19.988	15.973	0.531
842.000	499.359	80.002	19.995	100.373	19.991	15.740	0.498
842.501	499.634	80.002	19.994	100.371	19.990	15.778	0.504
843.000	499.881	80.002	19.995	100.365	19.997	15.336	0.525
843.500	500.135	80.002	19.994	100.361	19.998	15.272	0.511
844.000	500.362	80.002	19.994	100.356	20.001	15.027	0.491
844.500	500.631	80.002	19.994	100.349	20.004	14.836	0.488
845.000	500.927	80.001	19.995	100.347	20.003	14.918	0.530
845.500	501.123	80.003	19.995	100.349	20.009	14.441	0.529
846.000	501.396	80.003	19.994	100.348	20.011	14.309	0.480
846.500	501.657	80.002	19.995	100.349	20.015	14.004	0.501
847.000	501.923	80.005	19.994	100.353	20.015	14.019	0.531
847.500	502.178	80.001	19.994	100.359	20.018	13.816	0.524
848.000	502.482	80.002	19.994	100.361	20.022	13.541	0.540
848.500	502.736	80.002	19.994	100.366	20.027	13.213	0.559
849.000	502.950	80.002	19.995	100.370	20.025	13.337	0.513
849.500	503.212	80.003	19.995	100.372	20.029	13.078	0.472
850.000	503.463	80.003	19.995	100.371	20.033	12.748	0.495
850.500	503.680	80.002	19.994	100.372	20.035	12.636	0.491
851.000	503.952	80.003	19.994	100.370	20.036	12.514	0.478
851.500	504.215	80.002	19.996	100.366	20.039	12.327	0.511
852.001	504.480	80.005	19.995	100.364	20.041	12.230	0.531
852.500	504.729	80.002	19.995	100.362	20.044	11.987	0.521
853.000	504.976	80.003	19.996	100.360	20.046	11.836	0.505
853.500	505.212	80.002	19.995	100.363	20.046	11.823	0.490
854.000	505.492	80.001	19.995	100.368	20.050	11.541	0.500
854.500	505.727	80.003	19.995	100.369	20.051	11.460	0.515
855.000	506.038	80.001	19.996	100.368	20.055	11.191	0.530
855.500	506.328	80.004	19.995	100.368	20.056	11.110	0.574
856.000	506.543	80.002	19.996	100.365	20.058	10.993	0.553
856.500	506.770	80.003	19.995	100.362	20.057	11.074	0.474
857.000	507.029	80.003	19.995	100.359	20.059	10.954	0.464
857.500	507.292	80.003	19.994	100.359	20.059	10.886	0.504
858.000	507.554	80.002	19.995	100.356	20.060	10.834	0.524
858.500	507.788	80.003	19.995	100.357	20.064	10.600	0.511
859.000	508.027	80.003	19.995	100.354	20.063	10.664	0.485
859.500	508.294	80.003	19.996	100.355	20.066	10.410	0.489
860.001	508.571	80.003	19.995	100.356	20.067	10.385	0.525
860.500	508.822	80.003	19.995	100.358	20.070	10.115	0.536
861.000	509.037	80.003	19.994	100.359	20.071	10.084	0.497
861.500	509.319	80.004	19.995	100.361	20.075	9.775	0.481
862.000	509.594	80.002	19.994	100.361	20.074	9.874	0.527
862.500	509.818	80.003	19.995	100.359	20.080	9.412	0.528
863.000	510.048	80.004	19.994	100.360	20.079	9.516	0.477
863.500	510.328	80.004	19.996	100.362	20.082	9.319	0.482
864.000	510.588	80.003	19.996	100.361	20.083	9.211	0.525
864.500	510.853	80.006	19.996	100.361	20.086	9.006	0.533
865.000	511.086	80.005	19.996	100.364	20.087	8.971	0.512
865.500	511.319	80.004	19.995	100.366	20.086	8.977	0.482
866.000	511.599	80.003	19.996	100.364	20.089	8.772	0.490
866.500	511.869	80.004	19.995	100.366	20.095	8.397	0.531
867.000	512.085	80.002	19.995	100.367	20.094	8.422	0.518
867.500	512.351	80.004	19.995	100.366	20.095	8.368	0.484
868.000	512.580	80.004	19.996	100.364	20.098	8.144	0.488
868.500	512.882	80.005	19.995	100.363	20.097	8.254	0.513
869.000	513.145	80.002	19.996	100.363	20.096	8.310	0.548
869.500	513.349	80.004	19.995	100.362	20.104	7.765	0.516
870.000	513.641	80.004	19.995	100.360	20.101	7.962	0.481
870.500	513.877	80.003	19.995	100.358	20.101	7.970	0.512
871.000	514.132	80.003	19.994	100.361	20.104	7.755	0.510
871.500	514.422	80.003	19.995	100.363	20.104	7.723	0.518
872.000	514.693	80.003	19.994	100.364	20.105	7.682	0.553
872.501	514.899	80.004	19.995	100.365	20.103	7.790	0.519
873.000	515.183	80.004	19.995	100.367	20.108	7.475	0.484
873.500	515.409	80.003	19.997	100.364	20.110	7.304	0.500
874.000	515.716	80.003	19.996	100.362	20.111	7.203	0.521
874.500	515.954	80.003	19.996	100.361	20.114	7.052	0.539
875.000	516.209	80.004	19.994	100.363	20.114	7.025	0.519
875.500	516.487	80.002	19.995	100.360	20.114	6.998	0.513
876.000	516.737	80.002	19.997	100.359	20.117	6.780	0.531
876.500	517.019	80.005	19.994	100.356	20.116	6.884	0.530
877.000	517.240	80.003	19.995	100.352	20.118	6.749	0.518
877.500	517.502	80.002	19.994	100.349	20.117	6.780	0.493
878.000	517.784	80.006	19.993	100.347	20.118	6.763	0.513
878.500	518.033	80.004	19.994	100.348	20.121	6.556	0.537
879.000	518.270	80.003	19.994	100.350	20.121	6.562	0.509
879.500	518.540	80.004	19.994	100.352	20.124	6.322	0.496
880.000	518.779	80.003	19.994	100.351	20.122	6.482	0.508
880.500	519.044	80.000	19.995	100.353	20.121	6.504	0.507
881.000	519.304	80.002	19.994	100.351	20.126	6.181	0.515
881.500	519.601	80.003	19.996	100.351	20.128	6.046	0.542
882.000	519.832	80.004	19.995	100.349	20.127	6.082	0.542
882.500	520.079	80.002	19.994	100.351	20.129	5.934	0.503
883.000	520.369	80.002	19.995	100.350	20.131	5.852	0.507
883.500	520.591	80.004	19.994	100.352	20.132	5.727	0.524
884.000	520.851	80.005	19.995	100.352	20.136	5.485	0.497
884.500	521.090	80.005	19.994	100.352	20.134	5.632	0.491
885.000	521.323	80.004	19.995	100.349	20.134	5.591	0.486
885.500	521.600	80.004	19.994	100.348	20.134	5.638	0.491
886.000	521.841	80.004	19.994	100.345	20.136	5.497	0.514
886.500	522.093	80.003	19.996	100.344	20.139	5.282	0.505
887.000	522.305	80.005	19.995	100.345	20.137	5.367	0.479
887.500	522.592	80.002	19.996	100.346	20.140	5.155	0.481
888.000	522.855	80.003	19.995	100.352	20.139	5.271	0.524
888.500	523.114	80.005	19.995	100.354	20.138	5.308	0.536
889.000	523.405	80.004	19.996	100.354	20.141	5.122	0.536
889.500	523.676	80.005	19.996	100.354	20.143	4.979	0.557
890.000	523.912	80.005	19.994	100.354	20.147	4.717	0.535
890.500	524.146	80.005	19.996	100.349	20.143	4.964	0.489
891.000	524.413	80.003	19.995	100.346	20.143	4.964	0.485
891.500	524.672	80.006	19.995	100.346	20.149	4.570	0.513
892.000	524.921	80.005	19.996	100.345	20.142	5.016	0.517
892.500	525.150	80.004	19.995	100.345	20.148	4.587	0.493
893.000	525.408	80.004	19.995	100.344	20.149	4.543	0.482
893.500	525.639	80.004	19.996	100.345	20.146	4.732	0.488
894.000	525.906	80.005	19.995	100.344	20.150	4.452	0.493
894.500	526.123	80.004	19.996	100.345	20.152	4.311	0.491
895.000	526.411	80.004	19.995	100.343	20.151	4.390	0.494
895.500	526.655	80.003	19.995	100.342	20.154	4.164	0.518
896.000	526.909	80.003	19.996	100.340	20.153	4.245	0.515
896.500	527.194	80.003	19.996	100.339	20.155	4.102	0.519
897.000	527.431	80.002	19.995	100.338	20.156	4.048	0.531
897.500	527.685	80.003	19.995	100.338	20.155	4.133	0.507
898.000	527.975	80.002	19.996	100.339	20.156	4.021	0.518
898.500	528.210	80.003	19.995	100.342	20.160	3.768	0.535
899.000	528.461	80.001	19.996	100.341	20.160	3.755	0.505
899.500	528.660	80.002	19.996	100.342	20.158	3.894	0.468
900.000	528.964	80.001	19.995	100.342	20.160	3.764	0.477
900.500	529.209	80.002	19.996	100.343	20.159	3.830	0.527
901.000	529.447	80.002	19.995	100.340	20.162	3.652	0.516
901.500	529.699	80.000	19.996	100.339	20.163	3.563	0.486
902.000	529.967	80.003	19.995	100.339	20.163	3.569	0.505
902.500	530.235	80.003	19.995	100.339	20.164	3.459	0.528
903.000	530.439	80.003	19.995	100.340	20.165	3.388	0.504
903.500	530.700	80.003	19.995	100.340	20.166	3.363	0.469
904.000	530.984	80.002	19.995	100.341	20.167	3.262	0.505
904.500	531.198	80.004	19.995	100.341	20.167	3.245	0.522
905.000	531.489	80.003	19.995	100.341	20.169	3.158	0.501
905.500	531.719	80.003	19.995	100.340	20.169	3.162	0.512
906.000	531.991	80.004	19.995	100.340	20.172	2.928	0.511
906.500	532.239	80.003	19.995	100.340	20.172	2.936	0.511
907.000	532.452	80.003	19.994	100.340	20.176	2.617	0.491
907.500	532.733	80.003	19.995	100.340	20.175	2.690	0.477
908.000	533.000	80.004	19.994	100.341	20.174	2.787	0.521
908.500	533.226	80.004	19.996	100.341	20.173	2.864	0.521
909.000	533.530	80.004	19.994	100.341	20.178	2.463	0.512
909.500	533.779	80.004	19.994	100.340	20.177	2.559	0.541
910.000	534.039	80.003	19.995	100.340	20.177	2.577	0.531
910.500	534.229	80.004	19.994	100.340	20.176	2.617	0.480
911.000	534.510	80.004	19.993	100.340	20.179	2.412	0.460
911.500	534.752	80.004	19.995	100.340	20.180	2.335	0.497
912.000	535.044	80.003	19.995	100.340	20.179	2.410	0.528
912.500	535.298	80.003	19.994	100.339	20.181	2.262	0.540
913.000	535.550	80.003	19.994	100.339	20.182	2.215	0.526
913.500	535.812	80.003	19.994	100.339	20.182	2.192	0.510
914.000	536.052	80.005	19.995	100.339	20.184	2.057	0.508
914.500	536.339	80.005	19.995	100.339	20.187	1.887	0.514
915.000	536.574	80.005	19.994	100.339	20.184	2.042	0.524
915.500	536.796	80.002	19.994	100.339	20.185	1.970	0.489
916.000	537.075	80.003	19.994	100.339	20.185	1.989	0.479
916.500	537.343	80.004	19.995	100.340	20.188	1.783	0.524
917.000	537.529	80.005	19.995	100.340	20.186	1.889	0.500
917.500	537.807	80.004	19.996	100.340	20.187	1.846	0.459
918.000	538.063	80.003	19.996	100.339	20.190	1.673	0.500
918.500	538.323	80.005	19.994	100.339	20.192	1.476	0.525
919.000	538.568	80.003	19.993	100.339	20.190	1.619	0.510
919.500	538.805	80.004	19.994	100.339	20.191	1.590	0.494
920.000	539.093	80.003	19.994	100.339	20.194	1.375	0.504
920.500	539.348	80.002	19.995	100.340	20.189	1.688	0.534
921.000	539.622	80.002	19.994	100.341	20.193	1.400	0.536
921.501	539.859	80.002	19.994	100.341	20.192	1.514	0.520
922.000	540.060	80.003	19.995	100.342	20.193	1.456	0.474
922.500	540.356	80.003	19.995	100.342	20.192	1.483	0.467
923.000	540.583	80.003	19.995	100.342	20.192	1.474	0.510
923.500	540.867	80.003	19.995	100.342	20.198	1.055	0.517
924.000	541.100	80.004	19.995	100.342	20.197	1.109	0.514
924.500	541.387	80.005	19.995	100.342	20.198	1.082	0.519
925.000	541.637	80.002	19.994	100.342	20.198	1.091	0.528
925.500	541.899	80.003	19.995	100.342	20.200	0.954	0.524
926.000	542.123	80.003	19.995	100.342	20.198	1.062	0.499
926.500	542.348	80.002	19.995	100.342	20.198	1.047	0.468
927.000	542.620	80.003	19.994	100.343	20.198	1.097	0.473
927.500	542.870	80.003	19.997	100.342	20.199	1.001	0.509
928.000	543.134	80.003	19.996	100.342	20.200	0.898	0.518
928.500	543.408	80.002	19.995	100.342	20.202	0.815	0.527
929.000	543.651	80.002	19.997	100.342	20.200	0.950	0.528
929.500	543.870	80.002	19.992	100.342	20.204	0.653	0.489
930.000	544.125	80.002	19.994	100.343	20.202	0.759	0.468
930.500	544.373	80.003	19.997	100.343	20.201	0.854	0.489
931.000	544.653	80.002	19.995	100.343	20.204	0.620	0.516
931.500	544.891	80.004	19.994	100.344	20.203	0.703	0.523
932.000	545.119	80.004	19.996	100.344	20.202	0.825	0.492
932.500	545.380	80.002	19.997	100.344	20.204	0.651	0.478
933.000	545.595	80.002	19.994	100.344	20.207	0.450	0.482
933.500	545.816	80.003	19.994	100.344	20.206	0.531	0.456
934.000	546.173	80.003	19.996	100.343	20.202	0.819	0.507
934.500	546.346	80.003	19.995	100.343	20.204	0.622	0.554
935.000	546.628	80.002	19.998	100.343	20.206	0.527	0.492
935.500	546.848	80.004	19.994	100.346	20.207	0.437	0.478
936.000	547.116	80.004	19.994	100.347	20.204	0.628	0.495
936.500	547.390	80.004	19.995	100.347	20.204	0.653	0.515
937.000	547.613	80.004	19.996	100.347	20.204	0.668	0.519
937.500	547.903	80.003	19.995	100.348	20.207	0.466	0.505
938.000	548.160	80.002	19.996	100.348	20.210	0.191	0.530
938.500	548.424	80.005	19.994	100.350	20.206	0.506	0.534
939.000	548.690	80.005	19.993	100.350	20.208	0.369	0.526
939.500	548.911	80.005	19.995	100.350	20.209	0.301	0.509
940.000	549.159	80.005	19.993	100.349	20.210	0.240	0.478
940.500	549.402	80.004	19.994	100.347	20.213	0.044	0.480
941.000	549.676	80.006	19.994	100.345	20.210	0.209	0.504
941.501	549.935	80.006	19.998	100.345	20.209	0.311	0.525
942.000	550.168	80.005	19.994	100.346	20.209	0.259	0.512
942.500	550.447	80.006	19.994	100.346	20.208	0.371	0.502
943.000	550.683	80.005	19.995	100.346	20.207	0.413	0.514
943.500	550.932	80.004	19.994	100.346	20.209	0.274	0.500
944.000	551.175	80.006	19.993	100.345	20.208	0.355	0.488
944.500	551.437	80.005	19.994	100.344	20.212	0.077	0.498
945.000	551.703	80.003	19.995	100.344	20.210	0.214	0.517
945.500	551.929	80.004	19.995	100.344	20.212	0.064	0.510
946.000	552.165	80.006	19.994	100.344	20.211	0.178	0.477
946.500	552.447	80.006	19.994	100.345	20.210	0.214	0.490
947.000	552.712	80.005	19.995	100.346	20.211	0.176	0.532
947.500	552.933	80.003	19.992	100.346	20.212	0.106	0.516
948.000	553.174	80.005	19.991	100.346	20.211	0.156	0.474
948.500	553.428	80.005	19.996	100.347	20.211	0.127	0.478
949.000	553.690	80.005	19.996	100.346	20.212	0.046	0.506
949.500	553.993	80.004	19.999	100.345	20.212	0.091	0.540
950.000	554.264	80.003	19.997	100.345	20.213	0.000	0.569
950.500	554.461	80.005	19.995	100.345	20.213	0.039	0.521
951.000	554.735	80.004	19.997	100.344	20.214	-0.064	0.469
951.500	554.983	80.005	19.994	100.344	20.214	-0.073	0.497
952.000	555.223	80.003	19.996	100.344	20.212	0.114	0.505
952.500	555.529	80.005	19.995	100.344	20.214	-0.083	0.517
953.000	555.755	80.005	19.994	100.343	20.215	-0.143	0.539
953.500	555.988	80.005	19.996	100.343	20.215	-0.133	0.495
954.000	556.209	80.003	19.996	100.343	20.215	-0.108	0.456
954.500	556.533	80.006	19.995	100.342	20.208	0.379	0.500
955.000	556.763	80.005	19.997	100.342	20.211	0.129	0.550
955.500	557.002	80.006	19.994	100.341	20.212	0.108	0.512
956.000	557.243	80.004	19.995	100.340	20.212	0.079	0.475
956.500	557.527	80.005	19.995	100.340	20.213	0.035	0.503
957.000	557.721	80.005	19.996	100.340	20.214	-0.077	0.501
957.500	558.055	80.004	19.997	100.339	20.215	-0.104	0.503
958.000	558.268	80.005	19.995	100.339	20.215	-0.127	0.538
958.501	558.516	80.005	19.996	100.339	20.217	-0.263	0.504
959.000	558.787	80.005	19.995	100.339	20.215	-0.110	0.490
959.500	559.028	80.004	19.996	100.339	20.220	-0.452	0.515
960.000	559.295	80.004	19.996	100.340	20.219	-0.402	0.510
960.500	559.521	80.004	19.996	100.341	20.218	-0.352	0.501
961.000	559.802	80.004	19.996	100.341	20.218	-0.357	0.500
961.500	560.003	80.003	19.995	100.348	20.220	-0.460	0.494
962.000	560.316	80.004	19.995	100.349	20.217	-0.296	0.498
962.500	560.564	80.004	19.994	100.344	20.219	-0.448	0.538
963.000	560.800	80.005	19.996	100.337	20.220	-0.502	0.522
963.500	561.032	80.005	19.994	100.334	20.223	-0.662	0.476
964.000	561.328	80.005	19.995	100.327	20.221	-0.579	0.498
964.500	561.626	80.006	19.994	100.327	20.221	-0.523	0.561
965.000	561.902	80.005	19.994	100.335	20.220	-0.518	0.583
965.500	562.130	80.005	19.996	100.345	20.219	-0.419	0.539
966.000	562.397	80.006	19.992	100.348	20.222	-0.593	0.500
966.500	562.629	80.006	19.997	100.348	20.222	-0.595	0.497
967.000	562.877	80.005	19.995	100.347	20.220	-0.502	0.489
967.500	563.171	80.005	19.996	100.342	20.222	-0.651	0.511
968.000	563.437	80.005	19.994	100.339	20.221	-0.525	0.551
968.500	563.655	80.005	19.995	100.339	20.223	-0.728	0.522
969.000	563.929	80.006	19.996	100.340	20.219	-0.431	0.488
969.500	564.196	80.006	19.993	100.340	20.220	-0.477	0.516
970.000	564.457	80.007	19.993	100.340	20.220	-0.462	0.534
970.500	564.691	80.005	19.994	100.339	20.219	-0.388	0.511
971.000	564.985	80.007	19.996	100.339	20.224	-0.800	0.511
971.500	565.202	80.006	19.993	100.339	20.223	-0.726	0.520
972.000	565.510	80.006	19.995	100.339	20.224	-0.803	0.518
972.500	565.787	80.007	19.996	100.339	20.225	-0.836	0.555
973.000	566.052	80.006	19.997	100.339	20.221	-0.583	0.564
973.500	566.338	80.006	19.995	100.338	20.218	-0.357	0.546
974.000	566.609	80.006	19.995	100.338	20.221	-0.568	0.553
974.500	566.856	80.005	19.995	100.338	20.222	-0.622	0.538
975.000	567.124	80.007	19.994	100.338	20.222	-0.597	0.517
975.500	567.379	80.007	19.995	100.337	20.223	-0.722	0.519
976.000	567.653	80.006	19.995	100.337	20.221	-0.572	0.526
976.500	567.922	80.006	19.995	100.337	20.219	-0.392	0.536
977.000	568.192	80.006	19.996	100.337	20.224	-0.757	0.541
977.500	568.474	80.006	19.995	100.336	20.222	-0.606	0.546
978.000	568.739	80.005	19.995	100.337	20.222	-0.639	0.550
978.500	568.994	80.004	19.995	100.337	20.220	-0.512	0.533
979.000	569.291	80.004	19.996	100.338	20.221	-0.535	0.536
979.500	569.536	80.003	19.996	100.338	20.223	-0.724	0.547
980.000	569.804	80.002	19.995	100.338	20.223	-0.678	0.528
980.500	570.078	80.006	19.997	100.338	20.222	-0.618	0.528
981.000	570.325	80.003	19.996	100.338	20.222	-0.601	0.532
981.500	570.627	80.006	19.996	100.339	20.223	-0.688	0.535
982.000	570.863	80.004	19.996	100.338	20.221	-0.554	0.543
982.500	571.156	80.003	19.997	100.339	20.224	-0.796	0.533
983.000	571.408	80.003	19.997	100.339	20.225	-0.813	0.537
983.500	571.671	80.003	19.997	100.339	20.223	-0.666	0.531
984.000	571.954	80.003	19.995	100.339	20.224	-0.782	0.531
984.500	572.234	80.003	19.996	100.338	20.226	-0.900	0.554
985.000	572.459	80.003	19.996	100.338	20.224	-0.765	0.534
985.500	572.748	80.002	19.997	100.338	20.225	-0.850	0.510
986.000	573.026	80.002	19.996	100.337	20.222	-0.608	0.541
986.500	573.305	80.001	19.995	100.336	20.224	-0.747	0.562
987.000	573.575	80.004	19.996	100.334	20.224	-0.742	0.553
987.500	573.826	80.003	19.997	100.333	20.223	-0.695	0.535
988.000	574.087	80.003	19.997	100.332	20.225	-0.817	0.516
988.500	574.335	80.004	19.996	100.333	20.223	-0.718	0.511
989.000	574.686	80.003	19.998	100.334	20.224	-0.790	0.554
989.500	574.929	80.002	19.996	100.336	20.224	-0.792	0.597
990.000	575.218	80.003	19.996	100.337	20.227	-0.973	0.563
990.500	575.455	80.003	19.995	100.337	20.223	-0.717	0.529
991.000	575.739	80.004	19.995	100.336	20.223	-0.672	0.524
991.500	576.029	80.002	19.996	100.337	20.225	-0.840	0.548
992.000	576.261	80.004	19.994	100.336	20.226	-0.892	0.548
992.500	576.552	80.003	19.994	100.333	20.225	-0.861	0.522
993.000	576.811	80.006	19.996	100.330	20.225	-0.856	0.537
993.500	577.069	80.002	19.994	100.330	20.225	-0.852	0.533
994.000	577.334	80.002	19.996	100.330	20.227	-0.977	0.520
994.500	577.591	80.003	19.993	100.333	20.227	-0.987	0.522
995.000	577.873	80.005	19.995	100.338	20.226	-0.927	0.530
995.500	578.129	80.004	19.995	100.342	20.228	-1.031	0.538
996.000	578.416	80.002	19.994	100.343	20.227	-1.002	0.541
996.500	578.655	80.005	19.996	100.343	20.227	-0.993	0.535
997.000	578.987	80.004	19.996	100.343	20.229	-1.128	0.548
997.500	579.207	80.004	19.994	100.341	20.226	-0.902	0.561
998.000	579.468	80.003	19.994	100.341	20.227	-1.004	0.517
998.500	579.769	80.005	19.996	100.341	20.227	-1.010	0.522
999.000	580.025	80.005	19.995	100.340	20.229	-1.101	0.560
999.500	580.291	80.004	19.992	100.339	20.228	-1.037	0.539
1000.000	580.528	80.004	19.993	100.341	20.229	-1.114	0.512
1000.500	580.796	80.004	19.994	100.340	20.230	-1.180	0.504
1001.000	581.068	80.005	19.995	100.340	20.231	-1.286	0.523
1001.500	581.317	80.004	19.994	100.340	20.227	-1.004	0.531
1002.000	581.631	80.004	19.997	100.340	20.230	-1.163	0.542
1002.500	581.865	80.004	19.994	100.340	20.231	-1.288	0.555
1003.000	582.099	80.003	19.994	100.340	20.230	-1.174	0.508
1003.500	582.385	80.005	19.995	100.342	20.231	-1.259	0.494
1004.000	582.642	80.003	19.993	100.342	20.230	-1.219	0.532
1004.500	582.908	80.003	19.994	100.342	20.230	-1.165	0.533
1005.000	583.182	80.004	19.995	100.342	20.229	-1.111	0.531
1005.500	583.435	80.003	19.997	100.343	20.229	-1.091	0.533
1006.000	583.688	80.003	19.993	100.343	20.230	-1.167	0.516
1006.500	583.971	80.004	19.995	100.343	20.230	-1.170	0.521
1007.000	584.219	80.003	19.994	100.343	20.230	-1.223	0.534
1007.500	584.495	80.003	19.995	100.343	20.229	-1.130	0.528
1008.000	584.768	80.001	19.996	100.343	20.228	-1.060	0.537
1008.500	584.996	80.002	19.997	100.344	20.229	-1.134	0.525
1009.000	585.253	80.002	19.994	100.344	20.230	-1.201	0.492
1009.500	585.496	80.002	19.995	100.344	20.235	-1.522	0.492
1010.000	585.786	80.002	19.997	100.344	20.231	-1.250	0.516
1010.500	586.039	80.002	19.994	100.344	20.231	-1.240	0.538
1011.000	586.308	80.001	19.996	100.344	20.233	-1.439	0.533
1011.500	586.566	80.002	19.995	100.344	20.232	-1.369	0.525
1012.000	586.816	80.002	19.994	100.344	20.229	-1.143	0.517
1012.500	587.075	80.003	19.996	100.344	20.234	-1.464	0.509
1013.000	587.346	80.002	19.995	100.344	20.232	-1.358	0.519
1013.500	587.594	80.004	19.995	100.344	20.232	-1.329	0.524
1014.000	587.866	80.002	19.995	100.345	20.231	-1.279	0.520
1014.500	588.140	80.003	19.994	100.344	20.230	-1.194	0.533
1015.000	588.398	80.003	19.997	100.345	20.231	-1.292	0.539
1015.500	588.623	80.005	19.993	100.345	20.230	-1.163	0.508
1016.000	588.920	80.005	19.993	100.344	20.228	-1.031	0.503
1016.500	589.179	80.003	19.997	100.344	20.229	-1.118	0.539
1017.000	589.434	80.003	19.993	100.342	20.230	-1.174	0.535
1017.500	589.691	80.004	19.994	100.342	20.231	-1.232	0.513
1018.000	589.961	80.003	19.995	100.341	20.227	-1.012	0.520
1018.500	590.169	80.005	19.993	100.342	20.230	-1.170	0.503
1019.000	590.454	80.003	19.994	100.342	20.228	-1.082	0.485
1019.500	590.701	80.004	19.996	100.342	20.228	-1.084	0.512
1020.000	590.962	80.004	19.996	100.342	20.231	-1.232	0.520
1020.500	591.217	80.004	19.995	100.342	20.229	-1.151	0.512
1021.000	591.465	80.004	19.995	100.341	20.230	-1.165	0.509
1021.500	591.760	80.003	19.994	100.341	20.229	-1.157	0.523
1022.000	591.980	80.005	19.994	100.341	20.232	-1.302	0.529
1022.500	592.259	80.006	19.995	100.341	20.233	-1.383	0.507
1023.000	592.534	80.003	19.995	100.341	20.232	-1.348	0.527
1023.500	592.792	80.004	19.995	100.341	20.232	-1.338	0.544
1024.000	593.026	80.003	19.996	100.342	20.234	-1.462	0.513
1024.499	593.293	80.004	19.999	100.341	20.232	-1.366	0.496
1024.999	593.589	80.005	19.994	100.341	20.236	-1.620	0.532
1025.499	593.827	80.005	19.996	100.341	20.232	-1.348	0.549
1025.999	594.074	80.005	19.996	100.341	20.229	-1.157	0.510
1026.499	594.344	80.005	19.995	100.340	20.233	-1.377	0.501
1026.999	594.636	80.005	19.995	100.340	20.230	-1.201	0.539
1027.499	594.888	80.005	19.993	100.341	20.232	-1.329	0.553
1027.999	595.149	80.004	19.994	100.342	20.227	-1.016	0.529
1028.500	595.379	80.006	19.993	100.342	20.232	-1.329	0.503
1029.000	595.628	80.005	19.993	100.342	20.232	-1.317	0.485
1029.499	595.868	80.007	19.994	100.341	20.232	-1.319	0.484
1029.999	596.082	80.007	19.994	100.340	20.229	-1.109	0.472
1030.499	596.395	80.005	19.994	100.339	20.236	-1.597	0.490
1030.999	596.645	80.006	19.992	100.339	20.230	-1.190	0.545
1031.499	596.894	80.007	19.992	100.339	20.234	-1.468	0.531
1031.999	597.153	80.005	19.997	100.339	20.232	-1.369	0.504
1032.500	597.377	80.006	19.996	100.339	20.235	-1.520	0.496
1033.000	597.661	80.007	19.995	100.338	20.230	-1.213	0.495
1033.499	597.905	80.005	19.994	100.339	20.233	-1.391	0.518
1033.999	598.157	80.005	19.995	100.338	20.233	-1.385	0.512
1034.499	598.406	80.005	19.998	100.339	20.233	-1.408	0.498
1034.999	598.639	80.003	19.994	100.339	20.232	-1.340	0.491
1035.499	598.880	80.004	19.997	100.339	20.232	-1.327	0.478
1035.999	599.209	80.005	19.993	100.339	20.233	-1.394	0.523
1036.499	599.390	80.005	19.994	100.339	20.232	-1.333	0.540
1036.999	599.680	80.005	19.992	100.339	20.233	-1.427	0.490
1037.499	599.954	80.005	19.994	100.339	20.233	-1.377	0.517
1037.999	600.171	80.004	19.995	100.339	20.236	-1.651	0.528
1038.499	600.423	80.004	19.992	100.339	20.236	-1.607	0.480
1038.999	600.676	80.004	19.993	100.337	20.238	-1.731	0.487
1039.499	600.970	80.003	19.994	100.337	20.235	-1.564	0.526
1040.000	601.206	80.004	19.995	100.336	20.233	-1.396	0.539
1040.500	601.435	80.001	19.995	100.337	20.234	-1.487	0.498
1040.999	601.756	80.006	19.994	100.337	20.233	-1.404	0.508
1041.499	601.959	80.004	19.995	100.339	20.235	-1.564	0.537
1041.999	602.231	80.006	19.995	100.339	20.234	-1.476	0.499
1042.499	602.458	80.006	19.996	100.339	20.237	-1.721	0.487
1042.999	602.747	80.006	19.995	100.339	20.236	-1.638	0.508
1043.499	602.987	80.006	19.993	100.339	20.235	-1.543	0.523
1043.999	603.245	80.004	19.995	100.340	20.234	-1.487	0.514
1044.499	603.534	80.007	19.995	100.340	20.236	-1.613	0.523
1044.999	603.752	80.006	19.997	100.340	20.238	-1.759	0.527
1045.499	604.009	80.006	19.995	100.340	20.238	-1.758	0.491
1045.999	604.312	80.005	19.995	100.339	20.237	-1.667	0.518
1046.499	604.495	80.006	19.995	100.338	20.239	-1.856	0.523
1046.999	604.748	80.006	19.997	100.336	20.241	-1.985	0.461
1047.499	605.059	80.007	19.993	100.336	20.240	-1.879	0.500
1047.999	605.321	80.007	19.995	100.336	20.238	-1.748	0.568
1048.499	605.539	80.005	19.993	100.336	20.241	-1.960	0.526
1048.999	605.795	80.007	19.995	100.336	20.238	-1.783	0.477
1049.500	606.038	80.007	19.993	100.338	20.240	-1.895	0.487
1050.001	606.284	80.006	19.994	100.337	20.240	-1.881	0.494
1050.500	606.575	80.006	19.994	100.337	20.238	-1.761	0.513
1050.999	606.800	80.007	19.993	100.337	20.238	-1.794	0.526
1051.499	607.050	80.007	19.993	100.338	20.239	-1.860	0.495
1051.999	607.337	80.007	19.995	100.338	20.239	-1.831	0.506
1052.499	607.555	80.005	19.994	100.339	20.238	-1.752	0.521
1052.999	607.804	80.005	19.994	100.339	20.238	-1.752	0.486
1053.500	608.087	80.004	19.995	100.338	20.240	-1.891	0.499
1054.000	608.306	80.005	19.995	100.338	20.238	-1.738	0.517
1054.500	608.578	80.005	19.997	100.338	20.238	-1.744	0.497
1055.000	608.824	80.005	19.995	100.338	20.240	-1.887	0.505
1055.500	609.065	80.006	19.996	100.338	20.238	-1.729	0.503
1056.001	609.306	80.003	19.994	100.338	20.238	-1.748	0.484
1056.502	609.567	80.004	19.997	100.338	20.239	-1.796	0.492
1057.001	609.789	80.004	19.995	100.338	20.237	-1.688	0.493
1057.500	610.060	80.004	19.996	100.334	20.236	-1.636	0.488
1058.000	610.264	80.005	19.994	100.332	20.235	-1.518	0.484
1058.500	610.521	80.003	19.994	100.332	20.235	-1.578	0.468
1059.001	610.788	80.001	19.995	100.331	20.237	-1.711	0.493
1059.501	611.042	80.003	19.995	100.332	20.237	-1.678	0.523
1060.000	611.320	80.003	19.993	100.336	20.240	-1.895	0.526
1060.500	611.556	80.004	19.996	100.338	20.240	-1.933	0.524
1061.001	611.818	80.004	19.994	100.339	20.239	-1.860	0.506
1061.501	612.061	80.004	19.994	100.341	20.241	-1.978	0.501
1062.000	612.330	80.004	19.994	100.339	20.238	-1.769	0.508
1062.500	612.559	80.004	19.996	100.339	20.240	-1.922	0.505
1063.000	612.830	80.003	19.995	100.338	20.239	-1.831	0.499
1063.500	613.054	80.003	19.995	100.338	20.238	-1.742	0.497
1064.000	613.315	80.004	19.994	100.338	20.239	-1.846	0.490
1064.500	613.575	80.003	19.994	100.340	20.241	-1.993	0.503
1065.000	613.810	80.005	19.993	100.340	20.240	-1.870	0.508
1065.501	614.121	80.004	19.994	100.341	20.238	-1.736	0.521
1066.001	614.348	80.002	19.995	100.342	20.239	-1.802	0.542
1066.500	614.608	80.003	19.996	100.342	20.240	-1.895	0.512
1067.000	614.819	80.003	19.995	100.342	20.238	-1.758	0.479
1067.501	615.082	80.003	19.994	100.341	20.244	-2.165	0.473
1068.001	615.373	80.002	19.993	100.341	20.239	-1.810	0.514
1068.501	615.579	80.003	19.995	100.341	20.243	-2.113	0.525
1069.000	615.851	80.002	19.995	100.341	20.244	-2.152	0.487
1069.500	616.042	80.003	19.994	100.341	20.241	-1.947	0.471
1070.001	616.325	80.003	19.996	100.341	20.242	-2.051	0.469
1070.500	616.549	80.002	19.994	100.341	20.241	-2.003	0.490
1070.999	616.812	80.003	19.994	100.341	20.240	-1.873	0.496
1071.499	617.047	80.003	19.995	100.341	20.240	-1.899	0.492
1071.999	617.312	80.002	19.995	100.341	20.243	-2.082	0.499
1072.499	617.539	80.003	19.995	100.342	20.240	-1.891	0.496
1072.999	617.767	80.003	19.995	100.342	20.241	-1.985	0.473
1073.500	618.035	80.003	19.995	100.342	20.240	-1.877	0.475
1074.000	618.271	80.003	19.995	100.341	20.239	-1.862	0.500
1074.499	618.516	80.005	19.996	100.340	20.242	-2.045	0.493
1074.999	618.760	80.003	19.996	100.340	20.241	-1.943	0.484
1075.499	619.011	80.003	19.995	100.340	20.243	-2.092	0.492
1075.999	619.205	80.001	19.996	100.340	20.241	-1.970	0.471
1076.499	619.460	80.003	19.996	100.340	20.244	-2.157	0.447
1076.999	619.720	80.003	19.996	100.341	20.240	-1.872	0.482
1077.499	619.960	80.003	19.996	100.342	20.240	-1.881	0.507
1077.999	620.187	80.003	19.996	100.341	20.241	-1.943	0.483
1078.499	620.445	80.003	19.996	100.341	20.243	-2.111	0.477
1078.999	620.661	80.002	19.996	100.340	20.239	-1.848	0.480
1079.500	620.904	80.002	19.996	100.339	20.244	-2.177	0.466
1080.001	621.159	80.002	19.995	100.338	20.241	-1.968	0.478
1080.501	621.393	80.002	19.996	100.338	20.242	-2.034	0.493
1081.001	621.640	80.003	19.996	100.338	20.238	-1.771	0.485
1081.501	621.894	80.003	19.996	100.338	20.243	-2.119	0.491
1082.000	622.131	80.004	19.996	100.338	20.241	-1.970	0.496
1082.501	622.346	80.004	19.995	100.339	20.242	-2.059	0.472
1083.001	622.595	80.001	19.995	100.339	20.240	-1.918	0.458
1083.500	622.825	80.003	19.996	100.339	20.242	-2.010	0.471
1084.000	623.117	80.003	19.996	100.339	20.240	-1.906	0.500
1084.500	623.345	80.002	19.996	100.339	20.243	-2.123	0.521
1085.000	623.552	80.003	19.996	100.339	20.242	-2.072	0.478
1085.500	623.825	80.002	19.995	100.338	20.243	-2.117	0.458
1086.000	624.040	80.003	19.996	100.338	20.241	-1.997	0.483
1086.500	624.296	80.003	19.994	100.337	20.245	-2.285	0.479
1087.000	624.514	80.003	19.994	100.338	20.241	-1.968	0.473
1087.500	624.798	80.004	19.996	100.338	20.244	-2.161	0.488
1088.000	625.016	80.003	19.996	100.338	20.243	-2.099	0.502
1088.500	625.250	80.003	19.996	100.337	20.244	-2.213	0.477
1089.000	625.522	80.003	19.994	100.337	20.243	-2.090	0.479
1089.500	625.775	80.003	19.994	100.333	20.242	-2.036	0.516
1090.000	626.021	80.002	19.995	100.333	20.247	-2.380	0.512
1090.500	626.282	80.003	19.994	100.332	20.245	-2.250	0.503
1091.000	626.495	80.004	19.994	100.330	20.243	-2.119	0.490
1091.500	626.756	80.003	19.995	100.331	20.248	-2.451	0.474
1092.001	626.981	80.003	19.995	100.335	20.243	-2.090	0.480
1092.501	627.231	80.003	19.995	100.335	20.243	-2.138	0.480
1093.000	627.489	80.003	19.995	100.333	20.242	-2.020	0.492
1093.501	627.741	80.002	19.994	100.333	20.243	-2.146	0.509
1094.001	627.938	80.003	19.994	100.334	20.243	-2.084	0.479
1094.500	628.188	80.003	19.994	100.334	20.245	-2.273	0.448
1095.000	628.441	80.003	19.994	100.333	20.244	-2.182	0.476
1095.499	628.720	80.002	19.995	100.337	20.246	-2.362	0.518
1095.999	628.942	80.003	19.995	100.339	20.244	-2.175	0.517
1096.499	629.199	80.005	19.995	100.337	20.241	-1.970	0.490
1096.999	629.413	80.004	19.994	100.338	20.244	-2.206	0.475
1097.499	629.689	80.003	19.994	100.338	20.243	-2.111	0.480
1097.999	629.925	80.004	19.995	100.336	20.242	-2.018	0.501
1098.500	630.172	80.003	19.994	100.336	20.243	-2.132	0.498
1099.000	630.440	80.003	19.995	100.338	20.242	-2.059	0.499
1099.499	630.661	80.004	19.994	100.338	20.242	-2.067	0.502
1099.999	630.923	80.005	19.996	100.338	20.242	-2.065	0.486
1100.500	631.175	80.005	19.995	100.340	20.243	-2.144	0.498
1101.000	631.444	80.003	19.995	100.340	20.243	-2.144	0.517
1101.499	631.699	80.005	19.995	100.340	20.246	-2.335	0.523
1102.000	631.916	80.005	19.994	100.339	20.243	-2.090	0.498
1102.501	632.178	80.004	19.995	100.339	20.244	-2.211	0.475
1103.000	632.432	80.004	19.995	100.339	20.245	-2.289	0.497
1103.500	632.705	80.006	19.994	100.336	20.246	-2.335	0.521
1104.000	632.915	80.006	19.995	100.335	20.247	-2.393	0.505
1104.500	633.204	80.006	19.995	100.335	20.245	-2.221	0.491
1105.000	633.438	80.006	19.993	100.335	20.245	-2.254	0.511
1105.500	633.691	80.005	19.996	100.335	20.247	-2.416	0.505
1106.001	633.928	80.006	19.994	100.338	20.245	-2.256	0.489
1106.501	634.205	80.005	19.995	100.338	20.243	-2.150	0.502
1107.000	634.482	80.005	19.995	100.339	20.244	-2.217	0.534
1107.499	634.738	80.005	19.996	100.338	20.244	-2.184	0.543
1107.999	634.956	80.006	19.995	100.338	20.245	-2.223	0.504
1108.499	635.189	80.005	19.994	100.338	20.248	-2.472	0.463
1108.999	635.449	80.005	19.995	100.338	20.246	-2.323	0.472
1109.499	635.733	80.006	19.995	100.338	20.247	-2.428	0.519
1109.999	635.971	80.006	19.995	100.338	20.250	-2.633	0.534
1110.499	636.258	80.005	19.993	100.338	20.247	-2.408	0.524
1110.999	636.506	80.006	19.994	100.338	20.247	-2.391	0.530
1111.499	636.747	80.004	19.995	100.337	20.249	-2.534	0.512
1111.999	636.987	80.004	19.994	100.336	20.246	-2.348	0.485
1112.499	637.229	80.004	19.994	100.336	20.243	-2.142	0.481
1112.999	637.501	80.005	19.994	100.335	20.249	-2.553	0.498
1113.499	637.796	80.004	19.995	100.333	20.248	-2.441	0.541
1114.000	638.008	80.003	19.995	100.334	20.244	-2.207	0.537
1114.500	638.238	80.005	19.995	100.335	20.248	-2.445	0.475
1115.000	638.523	80.005	19.995	100.336	20.245	-2.287	0.478
1115.501	638.779	80.005	19.994	100.338	20.247	-2.385	0.528
1116.000	638.992	80.004	19.994	100.340	20.245	-2.281	0.505
1116.499	639.222	80.004	19.994	100.338	20.248	-2.497	0.456
1116.999	639.525	80.004	19.995	100.335	20.247	-2.420	0.487
1117.499	639.797	80.003	19.994	100.335	20.246	-2.325	0.554
1117.999	640.018	80.004	19.995	100.332	20.247	-2.428	0.534
1118.499	640.294	80.003	19.994	100.332	20.247	-2.418	0.495
1118.999	640.549	80.003	19.994	100.333	20.244	-2.184	0.514
1119.499	640.780	80.004	19.994	100.335	20.245	-2.238	0.508
1119.999	641.020	80.004	19.994	100.336	20.246	-2.337	0.478
1120.499	641.263	80.004	19.994	100.338	20.245	-2.250	0.477
1120.999	641.546	80.004	19.995	100.339	20.244	-2.188	0.505
1121.499	641.795	80.005	19.993	100.340	20.244	-2.171	0.529
1121.999	642.045	80.005	19.994	100.341	20.247	-2.379	0.515
1122.500	642.281	80.006	19.995	100.337	20.245	-2.283	0.492
1123.000	642.566	80.005	19.994	100.333	20.242	-2.053	0.504
1123.499	642.816	80.005	19.994	100.329	20.240	-1.900	0.528
1123.999	643.066	80.005	19.995	100.325	20.244	-2.200	0.517
1124.499	643.320	80.005	19.994	100.324	20.244	-2.198	0.502
1124.999	643.563	80.006	19.994	100.327	20.248	-2.459	0.500
1125.499	643.790	80.005	19.994	100.331	20.248	-2.455	0.484
1125.999	644.046	80.005	19.993	100.333	20.247	-2.364	0.477
1126.499	644.305	80.005	19.994	100.336	20.243	-2.138	0.499
1126.999	644.560	80.006	19.994	100.337	20.245	-2.267	0.514
1127.499	644.798	80.006	19.994	100.337	20.244	-2.153	0.504
1127.999	645.026	80.004	19.994	100.335	20.244	-2.219	0.479
1128.499	645.308	80.005	19.996	100.336	20.243	-2.105	0.488
1129.000	645.542	80.005	19.993	100.337	20.244	-2.196	0.513
1129.500	645.809	80.005	19.994	100.333	20.242	-2.026	0.509
1130.000	646.044	80.007	19.994	100.331	20.242	-2.038	0.501
1130.500	646.324	80.007	19.993	100.329	20.243	-2.111	0.508
1130.999	646.571	80.007	19.995	100.327	20.244	-2.156	0.521
1131.499	646.790	80.007	19.995	100.326	20.243	-2.082	0.497
1131.999	647.070	80.006	19.994	100.328	20.245	-2.240	0.482
1132.499	647.346	80.004	19.994	100.329	20.242	-2.043	0.528
1132.999	647.557	80.006	19.994	100.333	20.241	-1.991	0.522
1133.499	647.802	80.006	19.994	100.335	20.240	-1.879	0.471
1134.000	648.065	80.006	19.995	100.337	20.242	-2.076	0.482
1134.500	648.343	80.006	19.994	100.336	20.243	-2.090	0.525
1135.000	648.582	80.006	19.995	100.336	20.244	-2.161	0.529
1135.500	648.825	80.004	19.993	100.335	20.246	-2.298	0.499
1135.999	649.088	80.005	19.994	100.334	20.246	-2.300	0.494
1136.499	649.360	80.004	19.994	100.334	20.244	-2.213	0.521
1136.999	649.573	80.004	19.993	100.334	20.249	-2.511	0.510
1137.499	649.844	80.005	19.995	100.333	20.248	-2.434	0.484
1137.999	650.080	80.005	19.993	100.331	20.249	-2.509	0.496
1138.500	650.360	80.003	19.995	100.330	20.249	-2.538	0.512
1139.000	650.621	80.003	19.995	100.329	20.246	-2.356	0.528
1139.500	650.882	80.004	19.995	100.331	20.244	-2.169	0.532
1140.001	651.134	80.002	19.994	100.335	20.250	-2.621	0.518
1140.501	651.358	80.003	19.995	100.338	20.249	-2.528	0.495
1141.001	651.621	80.003	19.995	100.339	20.247	-2.422	0.481
1141.500	651.855	80.005	19.995	100.342	20.251	-2.650	0.492
1142.001	652.132	80.003	19.995	100.342	20.248	-2.476	0.504
1142.501	652.363	80.003	19.995	100.342	20.249	-2.561	0.509
1143.000	652.605	80.003	19.995	100.342	20.252	-2.727	0.491
1143.500	652.879	80.002	19.994	100.342	20.249	-2.569	0.494
1144.000	653.155	80.003	19.995	100.341	20.248	-2.463	0.533
1144.500	653.345	80.004	19.995	100.341	20.248	-2.447	0.508
1145.000	653.637	80.002	19.995	100.342	20.251	-2.700	0.474
1145.500	653.885	80.003	19.996	100.341	20.250	-2.602	0.511
1146.000	654.166	80.003	19.995	100.341	20.248	-2.499	0.535
1146.500	654.416	80.002	19.996	100.341	20.250	-2.638	0.530
1147.000	654.690	80.004	19.995	100.340	20.248	-2.436	0.527
1147.500	654.914	80.003	19.995	100.340	20.247	-2.410	0.510
1148.001	655.211	80.002	19.995	100.340	20.246	-2.335	0.509
1148.501	655.461	80.004	19.995	100.340	20.250	-2.631	0.534
1149.000	655.715	80.003	19.995	100.340	20.248	-2.495	0.526
1149.500	655.965	80.004	19.995	100.340	20.249	-2.542	0.504
1150.000	656.214	80.003	19.995	100.340	20.246	-2.337	0.501
1150.500	656.471	80.003	19.996	100.340	20.244	-2.169	0.503
1151.000	656.737	80.004	19.996	100.339	20.250	-2.633	0.515
1151.500	657.015	80.003	19.995	100.338	20.250	-2.596	0.533
1152.000	657.270	80.003	19.995	100.339	20.248	-2.493	0.538
1152.500	657.495	80.003	19.995	100.338	20.246	-2.360	0.506
1153.000	657.753	80.003	19.994	100.338	20.244	-2.213	0.482
1153.501	657.986	80.004	19.995	100.339	20.243	-2.121	0.487
1154.001	658.282	80.004	19.995	100.339	20.249	-2.511	0.510
1154.500	658.530	80.003	19.995	100.338	20.246	-2.316	0.537
1155.000	658.771	80.004	19.995	100.338	20.251	-2.682	0.516
1155.500	659.040	80.003	19.995	100.338	20.247	-2.401	0.499
1156.001	659.294	80.003	19.995	100.339	20.250	-2.599	0.517
1156.501	659.575	80.004	19.995	100.338	20.245	-2.290	0.529
1157.001	659.812	80.002	19.995	100.339	20.247	-2.418	0.526
1157.500	660.037	80.004	19.995	100.339	20.246	-2.350	0.490
1158.000	660.307	80.004	19.995	100.340	20.248	-2.443	0.478
1158.501	660.553	80.002	19.995	100.339	20.247	-2.432	0.505
1159.000	660.832	80.003	19.995	100.339	20.250	-2.601	0.520
1159.500	661.060	80.005	19.995	100.340	20.247	-2.412	0.516
1160.000	661.346	80.003	19.995	100.340	20.250	-2.594	0.511
1160.500	661.583	80.004	19.994	100.340	20.249	-2.573	0.518
1161.000	661.817	80.004	19.996	100.340	20.251	-2.667	0.497
1161.500	662.079	80.005	19.995	100.340	20.246	-2.296	0.484
1162.000	662.349	80.003	19.995	100.341	20.246	-2.331	0.514
1162.500	662.615	80.003	19.996	100.340	20.248	-2.466	0.534
1163.000	662.843	80.002	19.995	100.340	20.249	-2.509	0.515
1163.500	663.094	80.003	19.994	100.339	20.250	-2.588	0.487
1164.000	663.330	80.004	19.995	100.335	20.247	-2.401	0.483
1164.500	663.595	80.004	19.995	100.333	20.248	-2.435	0.494
1165.000	663.890	80.003	19.996	100.332	20.252	-2.750	0.530
1165.500	664.135	80.003	19.995	100.329	20.250	-2.605	0.550
1166.000	664.390	80.003	19.996	100.327	20.251	-2.702	0.520
1166.500	664.606	80.003	19.995	100.330	20.252	-2.739	0.486
1167.000	664.839	80.002	19.996	100.331	20.249	-2.563	0.460
1167.500	665.077	80.002	19.996	100.332	20.249	-2.538	0.460
1168.000	665.352	80.001	19.996	100.334	20.248	-2.460	0.492
1168.500	665.564	80.003	19.994	100.335	20.252	-2.756	0.499
1169.000	665.841	80.003	19.996	100.336	20.248	-2.435	0.488
1169.500	666.130	80.003	19.997	100.335	20.248	-2.480	0.528
1170.000	666.371	80.002	19.997	100.335	20.248	-2.457	0.548
1170.500	666.594	80.002	19.996	100.336	20.249	-2.516	0.497
1171.000	666.865	80.001	19.999	100.335	20.247	-2.412	0.479
1171.500	667.122	80.003	19.995	100.336	20.249	-2.505	0.511
1172.000	667.404	80.002	19.996	100.336	20.246	-2.318	0.534
1172.500	667.642	80.003	19.996	100.337	20.249	-2.524	0.530
1173.000	667.901	80.002	19.995	100.336	20.245	-2.291	0.508
1173.500	668.164	80.003	19.997	100.335	20.249	-2.517	0.509
1174.000	668.412	80.003	19.997	100.335	20.247	-2.383	0.517
1174.501	668.677	80.002	19.996	100.334	20.249	-2.538	0.512
1175.000	668.902	80.003	19.996	100.334	20.249	-2.507	0.501
1175.500	669.187	80.003	19.996	100.335	20.250	-2.619	0.501
1176.000	669.412	80.002	19.996	100.335	20.250	-2.636	0.510
1176.500	669.678	80.004	19.996	100.336	20.248	-2.447	0.500
1177.000	669.940	80.003	19.996	100.336	20.249	-2.565	0.509
1177.500	670.174	80.002	19.995	100.333	20.249	-2.569	0.512
1178.000	670.418	80.002	19.995	100.332	20.250	-2.584	0.487
1178.501	670.684	80.002	19.996	100.333	20.246	-2.337	0.494
1179.000	670.959	80.003	19.995	100.330	20.249	-2.573	0.525
1179.500	671.192	80.003	19.994	100.328	20.251	-2.702	0.525
1180.000	671.471	80.002	19.995	100.332	20.250	-2.619	0.510
1180.500	671.731	80.003	19.995	100.333	20.251	-2.677	0.525
1181.000	671.968	80.004	19.995	100.333	20.250	-2.588	0.518
1181.500	672.222	80.004	19.996	100.334	20.251	-2.652	0.494
1182.000	672.490	80.005	19.995	100.338	20.250	-2.609	0.506
1182.500	672.742	80.006	19.994	100.336	20.250	-2.609	0.521
1183.000	672.959	80.004	19.995	100.337	20.250	-2.599	0.495
1183.500	673.233	80.004	19.993	100.335	20.249	-2.561	0.480
1184.000	673.480	80.005	19.994	100.337	20.249	-2.557	0.506
1184.500	673.747	80.004	19.994	100.337	20.248	-2.437	0.517
1185.000	674.020	80.004	19.994	100.338	20.245	-2.281	0.527
1185.500	674.226	80.004	19.994	100.339	20.253	-2.791	0.509
1186.000	674.501	80.005	19.994	100.341	20.249	-2.557	0.480
1186.500	674.771	80.005	19.995	100.341	20.250	-2.609	0.513
1187.000	675.049	80.005	19.995	100.342	20.249	-2.545	0.547
1187.500	675.328	80.004	19.993	100.341	20.248	-2.445	0.553
1188.000	675.551	80.005	19.993	100.340	20.251	-2.669	0.529
1188.501	675.798	80.004	19.994	100.337	20.250	-2.633	0.486
1189.001	676.034	80.004	19.993	100.335	20.251	-2.681	0.477
1189.500	676.317	80.006	19.995	100.334	20.248	-2.488	0.501
1190.000	676.609	80.005	19.994	100.336	20.251	-2.679	0.547
1190.500	676.845	80.005	19.994	100.337	20.249	-2.536	0.552
1191.000	677.074	80.004	19.994	100.339	20.251	-2.687	0.496
1191.500	677.312	80.004	19.994	100.342	20.249	-2.538	0.465
1192.000	677.577	80.004	19.994	100.340	20.248	-2.451	0.485
1192.500	677.831	80.005	19.994	100.340	20.250	-2.596	0.511
1193.000	678.074	80.005	19.995	100.339	20.248	-2.488	0.508
1193.500	678.408	80.005	19.994	100.336	20.248	-2.470	0.537
1194.000	678.603	80.005	19.994	100.331	20.249	-2.528	0.553
1194.500	678.867	80.003	19.995	100.332	20.250	-2.590	0.494
1195.000	679.103	80.003	19.994	100.332	20.248	-2.478	0.480
1195.500	679.359	80.005	19.993	100.332	20.250	-2.611	0.496
1196.000	679.615	80.004	19.994	100.331	20.249	-2.532	0.502
1196.500	679.852	80.004	19.994	100.333	20.252	-2.746	0.503
1197.000	680.139	80.003	19.994	100.335	20.249	-2.557	0.509
1197.501	680.378	80.005	19.994	100.335	20.248	-2.474	0.525
1198.001	680.618	80.002	19.995	100.335	20.250	-2.638	0.502
1198.500	680.912	80.005	19.994	100.338	20.248	-2.463	0.506
1199.000	681.149	80.004	19.994	100.341	20.252	-2.774	0.532
1199.500	681.417	80.004	19.995	100.341	20.248	-2.451	0.518
1200.000	681.645	80.003	19.994	100.342	20.248	-2.492	0.501
1200.501	681.921	80.003	19.994	100.342	20.247	-2.410	0.500
1201.001	682.171	80.005	19.995	100.342	20.249	-2.565	0.515
1201.501	682.396	80.003	19.994	100.343	20.248	-2.463	0.501
1202.000	682.680	80.004	19.994	100.343	20.251	-2.683	0.492
1202.500	682.944	80.004	19.994	100.343	20.250	-2.638	0.528
1203.000	683.189	80.005	19.994	100.343	20.251	-2.712	0.528
1203.501	683.401	80.004	19.994	100.343	20.250	-2.598	0.483
1204.001	683.703	80.006	19.994	100.342	20.253	-2.791	0.486
1204.500	683.933	80.006	19.994	100.340	20.250	-2.590	0.523
1205.000	684.194	80.006	19.994	100.340	20.250	-2.586	0.511
1205.501	684.435	80.004	19.994	100.340	20.249	-2.530	0.497
1206.001	684.678	80.005	19.994	100.340	20.250	-2.629	0.493
1206.500	684.897	80.005	19.994	100.341	20.251	-2.675	0.473
1207.000	685.243	80.005	19.993	100.340	20.246	-2.347	0.514
1207.501	685.429	80.006	19.994	100.338	20.252	-2.741	0.548
1208.000	685.687	80.005	19.993	100.339	20.251	-2.658	0.488
1208.500	685.945	80.008	19.994	100.338	20.249	-2.513	0.480
1209.001	686.220	80.006	19.994	100.339	20.252	-2.719	0.525
1209.501	686.458	80.006	19.993	100.341	20.251	-2.648	0.523
1210.000	686.681	80.007	19.994	100.342	20.253	-2.829	0.487
1210.500	686.955	80.007	19.993	100.341	20.252	-2.744	0.479
1211.000	687.252	80.008	19.994	100.340	20.248	-2.462	0.534
1211.500	687.440	80.007	19.994	100.340	20.251	-2.674	0.528
1212.000	687.756	80.007	19.994	100.339	20.251	-2.690	0.494
1212.501	687.965	80.007	19.994	100.339	20.249	-2.555	0.514
1213.001	688.226	80.009	19.995	100.336	20.251	-2.679	0.497
1213.501	688.450	80.007	19.994	100.335	20.248	-2.464	0.477
1214.001	688.713	80.007	19.995	100.334	20.254	-2.872	0.486
1214.501	688.943	80.006	19.995	100.335	20.253	-2.814	0.490
1215.001	689.244	80.006	19.994	100.335	20.252	-2.781	0.512
1215.501	689.495	80.006	19.994	100.337	20.252	-2.746	0.542
1216.000	689.757	80.006	19.994	100.337	20.249	-2.509	0.532
1216.500	689.980	80.007	19.994	100.337	20.252	-2.731	0.499
1217.000	690.196	80.006	19.994	100.337	20.251	-2.675	0.462
1217.500	690.467	80.005	19.993	100.337	20.252	-2.735	0.463
1218.000	690.767	80.006	19.994	100.336	20.252	-2.769	0.530
1218.500	691.005	80.005	19.993	100.336	20.250	-2.642	0.555
1219.000	691.251	80.005	19.994	100.337	20.250	-2.594	0.510
1219.500	691.484	80.006	19.994	100.336	20.252	-2.779	0.481
1220.000	691.731	80.004	19.995	100.333	20.254	-2.905	0.480
1220.500	692.004	80.005	19.994	100.329	20.251	-2.661	0.500
1221.000	692.269	80.004	19.994	100.323	20.252	-2.731	0.529
1221.500	692.501	80.004	19.994	100.316	20.251	-2.650	0.518
1222.000	692.750	80.005	19.995	100.311	20.250	-2.625	0.489
1222.500	693.017	80.005	19.994	100.308	20.251	-2.708	0.498
1223.000	693.248	80.006	19.994	100.312	20.253	-2.839	0.507
1223.500	693.521	80.004	19.994	100.321	20.252	-2.777	0.501
1224.000	693.764	80.005	19.994	100.328	20.252	-2.723	0.510
1224.500	694.026	80.005	19.994	100.332	20.250	-2.613	0.510
1225.000	694.253	80.004	19.995	100.336	20.254	-2.880	0.497
1225.500	694.503	80.004	19.994	100.335	20.251	-2.685	0.483
1226.000	694.784	80.004	19.995	100.332	20.249	-2.551	0.504
1226.500	695.041	80.005	19.994	100.331	20.248	-2.472	0.534
1227.000	695.248	80.004	19.994	100.331	20.248	-2.478	0.501
1227.500	695.488	80.004	19.994	100.328	20.245	-2.250	0.455
1228.000	695.758	80.003	19.995	100.331	20.252	-2.764	0.479
1228.500	696.011	80.005	19.995	100.331	20.250	-2.617	0.517
1229.000	696.319	80.004	19.995	100.330	20.249	-2.571	0.542
1229.500	696.514	80.004	19.995	100.331	20.250	-2.621	0.531
1230.000	696.764	80.004	19.994	100.335	20.251	-2.715	0.474
1230.501	697.034	80.005	19.995	100.334	20.248	-2.497	0.483
1231.001	697.276	80.003	19.995	100.334	20.249	-2.549	0.516
1231.501	697.524	80.003	19.995	100.336	20.248	-2.466	0.501
1232.001	697.756	80.004	19.995	100.338	20.253	-2.800	0.485
1232.500	698.028	80.005	19.994	100.335	20.247	-2.422	0.492
1233.000	698.254	80.005	19.995	100.334	20.251	-2.679	0.501
1233.500	698.538	80.003	19.995	100.333	20.249	-2.549	0.504
1234.000	698.751	80.002	19.996	100.332	20.251	-2.663	0.503
1234.500	699.026	80.004	19.995	100.332	20.247	-2.404	0.493
1235.000	699.280	80.003	19.994	100.332	20.249	-2.563	0.509
1235.500	699.481	80.002	19.996	100.333	20.250	-2.627	0.492
1236.000	699.726	80.003	19.996	100.334	20.248	-2.461	0.450
1236.500	699.996	80.002	19.995	100.335	20.249	-2.549	0.480
1237.000	700.226	80.005	19.995	100.334	20.249	-2.540	0.507
1237.500	700.470	80.003	19.996	100.336	20.247	-2.389	0.487
1238.000	700.747	80.003	19.996	100.335	20.251	-2.648	0.497
1238.500	700.991	80.002	19.995	100.335	20.252	-2.733	0.521
1239.000	701.226	80.004	19.995	100.334	20.248	-2.488	0.501
1239.500	701.481	80.004	19.995	100.334	20.252	-2.760	0.485
1240.000	701.751	80.002	19.996	100.336	20.252	-2.729	0.507
1240.500	701.955	80.005	19.995	100.336	20.250	-2.608	0.499
1241.000	702.246	80.002	19.995	100.336	20.250	-2.602	0.485
1241.500	702.468	80.005	19.995	100.336	20.248	-2.503	0.505
1242.000	702.747	80.003	19.994	100.337	20.251	-2.667	0.507
1242.500	702.965	80.004	19.995	100.337	20.246	-2.347	0.499
1243.000	703.260	80.004	19.994	100.336	20.248	-2.495	0.505
1243.500	703.501	80.004	19.994	100.334	20.248	-2.480	0.525
1244.000	703.723	80.004	19.993	100.334	20.248	-2.501	0.500
1244.500	703.979	80.004	19.996	100.332	20.250	-2.586	0.471
1245.000	704.243	80.005	19.995	100.330	20.250	-2.596	0.499
1245.500	704.481	80.003	19.995	100.331	20.247	-2.379	0.511
1246.000	704.757	80.004	19.994	100.334	20.251	-2.669	0.508
1246.500	704.979	80.003	19.995	100.335	20.248	-2.486	0.505
1247.000	705.274	80.003	19.995	100.337	20.248	-2.459	0.507
1247.500	705.489	80.004	19.994	100.339	20.251	-2.712	0.514
1248.000	705.703	80.003	19.993	100.340	20.254	-2.891	0.470
1248.500	705.968	80.003	19.996	100.340	20.250	-2.590	0.454
1249.000	706.260	80.002	19.994	100.341	20.249	-2.561	0.518
1249.500	706.495	80.003	19.994	100.341	20.249	-2.536	0.542
1250.000	706.731	80.003	19.995	100.342	20.252	-2.785	0.499
1250.500	707.018	80.004	19.995	100.343	20.252	-2.751	0.497
1251.000	707.190	80.003	19.995	100.343	20.253	-2.793	0.491
1251.500	707.480	80.002	19.995	100.343	20.252	-2.752	0.460
1252.000	707.743	80.003	19.995	100.343	20.253	-2.841	0.507
1252.500	708.017	80.001	19.997	100.343	20.254	-2.882	0.545
1253.000	708.254	80.003	19.995	100.342	20.255	-2.984	0.524
1253.500	708.465	80.003	19.995	100.342	20.252	-2.729	0.479
1254.000	708.744	80.001	19.995	100.342	20.256	-3.005	0.469
1254.500	709.030	80.003	19.995	100.346	20.253	-2.820	0.527
1255.000	709.265	80.001	19.995	100.346	20.251	-2.714	0.543
1255.500	709.525	80.003	19.995	100.345	20.253	-2.853	0.508
1256.000	709.740	80.003	19.996	100.340	20.253	-2.835	0.486
1256.500	709.994	80.004	19.995	100.339	20.253	-2.806	0.472
1257.000	710.247	80.003	19.996	100.333	20.254	-2.899	0.487
1257.500	710.474	80.003	19.996	100.333	20.255	-2.976	0.493
1258.000	710.772	80.003	19.996	100.333	20.255	-2.940	0.503
1258.500	711.030	80.003	19.995	100.335	20.253	-2.828	0.541
1259.000	711.284	80.003	19.996	100.338	20.254	-2.911	0.533
1259.500	711.522	80.003	19.996	100.346	20.253	-2.816	0.502
1260.000	711.759	80.003	19.996	100.348	20.252	-2.754	0.484
1260.500	712.055	80.002	19.995	100.348	20.254	-2.870	0.504
1261.000	712.268	80.002	19.995	100.351	20.253	-2.831	0.521
1261.500	712.551	80.002	19.995	100.348	20.255	-2.936	0.502
1262.000	712.809	80.003	19.996	100.340	20.252	-2.777	0.518
1262.500	713.026	80.003	19.995	100.339	20.255	-2.961	0.508
1263.000	713.291	80.004	19.995	100.339	20.254	-2.899	0.478
1263.500	713.553	80.003	19.995	100.340	20.251	-2.694	0.504
1264.000	713.812	80.004	19.996	100.340	20.252	-2.756	0.524
1264.500	714.076	80.005	19.996	100.341	20.254	-2.876	0.522
1265.000	714.352	80.003	19.997	100.341	20.254	-2.891	0.531
1265.500	714.589	80.004	19.995	100.340	20.252	-2.748	0.527
1266.000	714.818	80.007	19.995	100.340	20.251	-2.650	0.490
1266.500	715.072	80.003	19.995	100.339	20.254	-2.922	0.475
1267.000	715.344	80.004	19.995	100.340	20.253	-2.845	0.504
1267.500	715.573	80.004	19.995	100.340	20.253	-2.843	0.513
1268.000	715.872	80.006	19.996	100.340	20.254	-2.897	0.515
1268.500	716.084	80.004	19.995	100.340	20.254	-2.874	0.520
1269.000	716.381	80.005	19.996	100.340	20.256	-3.023	0.510
1269.500	716.625	80.005	19.995	100.341	20.254	-2.886	0.524
1270.000	716.907	80.005	19.995	100.340	20.256	-3.059	0.533
1270.500	717.161	80.004	19.995	100.341	20.257	-3.094	0.531
1271.000	717.394	80.003	19.995	100.341	20.250	-2.625	0.512
1271.500	717.647	80.005	19.995	100.341	20.256	-3.030	0.486
1272.000	717.890	80.004	19.995	100.341	20.253	-2.843	0.491
1272.500	718.147	80.005	19.995	100.341	20.256	-3.030	0.498
1273.000	718.418	80.005	19.995	100.341	20.256	-3.025	0.514
1273.500	718.645	80.005	19.995	100.341	20.255	-2.945	0.513
1274.000	718.865	80.004	19.994	100.341	20.256	-3.007	0.472
1274.500	719.118	80.005	19.994	100.341	20.254	-2.916	0.460
1275.000	719.384	80.004	19.994	100.341	20.254	-2.860	0.496
1275.500	719.643	80.005	19.994	100.341	20.257	-3.073	0.522
1276.000	719.896	80.005	19.994	100.341	20.256	-3.069	0.519
1276.500	720.141	80.004	19.994	100.342	20.258	-3.173	0.506
1277.000	720.381	80.004	19.995	100.341	20.254	-2.916	0.492
1277.501	720.638	80.006	19.995	100.341	20.256	-3.040	0.491
1278.001	720.891	80.003	19.994	100.339	20.255	-2.930	0.504
1278.501	721.140	80.004	19.995	100.339	20.256	-3.054	0.506
1279.001	721.387	80.003	19.995	100.339	20.255	-2.967	0.499
1279.500	721.603	80.006	19.994	100.339	20.255	-2.940	0.480
1280.000	721.884	80.004	19.995	100.338	20.255	-2.994	0.480
1280.500	722.159	80.003	19.994	100.339	20.253	-2.791	0.526
1281.001	722.393	80.004	19.994	100.339	20.256	-3.013	0.533
1281.501	722.615	80.006	19.994	100.338	20.254	-2.876	0.482
1282.000	722.892	80.005	19.994	100.338	20.253	-2.856	0.477
1282.500	723.151	80.004	19.994	100.338	20.253	-2.797	0.517
1283.000	723.376	80.004	19.995	100.338	20.257	-3.077	0.510
1283.500	723.611	80.005	19.994	100.338	20.257	-3.079	0.472
1284.000	723.887	80.005	19.995	100.339	20.258	-3.181	0.486
1284.500	724.145	80.005	19.994	100.338	20.255	-2.986	0.523
1285.000	724.379	80.004	19.995	100.339	20.251	-2.712	0.513
1285.500	724.646	80.005	19.994	100.339	20.256	-3.001	0.496
1286.000	724.931	80.005	19.995	100.339	20.252	-2.781	0.527
1286.500	725.140	80.005	19.994	100.339	20.254	-2.883	0.523
1287.000	725.365	80.005	19.994	100.339	20.252	-2.756	0.464
1287.501	725.619	80.005	19.994	100.339	20.254	-2.860	0.457
1288.001	725.903	80.006	19.995	100.339	20.253	-2.835	0.509
1288.500	726.151	80.006	19.994	100.338	20.252	-2.743	0.535
1289.000	726.371	80.005	19.995	100.338	20.251	-2.671	0.500
1289.500	726.642	80.005	19.995	100.338	20.248	-2.495	0.480
1290.000	726.868	80.005	19.994	100.338	20.254	-2.863	0.494
1290.500	727.136	80.007	19.995	100.337	20.250	-2.637	0.495
1291.000	727.391	80.006	19.994	100.333	20.255	-2.951	0.508
1291.500	727.653	80.006	19.995	100.332	20.253	-2.824	0.520
1292.000	727.875	80.006	19.994	100.332	20.252	-2.722	0.501
1292.500	728.174	80.006	19.994	100.332	20.252	-2.735	0.503
1293.000	728.345	80.006	19.994	100.332	20.255	-2.942	0.495
1293.500	728.607	80.007	19.994	100.337	20.255	-2.934	0.451
1294.000	728.857	80.006	19.994	100.339	20.253	-2.816	0.472
1294.500	729.145	80.007	19.994	100.339	20.252	-2.760	0.525
1295.000	729.335	80.008	19.994	100.339	20.252	-2.745	0.508
1295.500	729.641	80.006	19.994	100.339	20.252	-2.762	0.487
1296.000	729.895	80.008	19.995	100.338	20.251	-2.652	0.528
1296.500	730.140	80.007	19.995	100.337	20.251	-2.716	0.529
1297.001	730.388	80.006	19.995	100.334	20.248	-2.490	0.496
1297.501	730.661	80.007	19.994	100.334	20.254	-2.922	0.507
1298.000	730.872	80.006	19.995	100.334	20.251	-2.673	0.502
1298.500	731.142	80.005	19.995	100.334	20.252	-2.758	0.483
1299.000	731.386	80.004	19.994	100.335	20.255	-2.992	0.498
1299.500	731.629	80.008	19.995	100.338	20.254	-2.884	0.501
1300.000	731.870	80.007	19.995	100.341	20.253	-2.806	0.485
1300.500	732.109	80.005	19.995	100.344	20.254	-2.905	0.482
1301.000	732.390	80.005	19.994	100.345	20.251	-2.690	0.500
1301.500	732.642	80.005	19.995	100.345	20.255	-2.942	0.527
1302.000	732.881	80.004	19.994	100.349	20.256	-3.038	0.512
1302.500	733.106	80.004	19.994	100.348	20.252	-2.729	0.478
1303.001	733.350	80.003	19.994	100.346	20.253	-2.828	0.466
1303.501	733.614	80.004	19.995	100.350	20.253	-2.795	0.488
1304.001	733.857	80.006	19.995	100.353	20.252	-2.781	0.507
1304.501	734.090	80.004	19.995	100.349	20.252	-2.775	0.492
1305.000	734.381	80.003	19.995	100.348	20.253	-2.810	0.501
1305.500	734.602	80.003	19.995	100.348	20.253	-2.793	0.518
1306.000	734.880	80.005	19.995	100.343	20.255	-2.930	0.505
1306.500	735.109	80.004	19.994	100.340	20.250	-2.627	0.503
1307.000	735.407	80.004	19.994	100.340	20.253	-2.826	0.517
1307.500	735.616	80.004	19.995	100.339	20.254	-2.920	0.517
1308.000	735.833	80.002	19.994	100.339	20.253	-2.814	0.467
1308.500	736.122	80.004	19.995	100.340	20.249	-2.542	0.466
1309.000	736.345	80.003	19.996	100.339	20.252	-2.735	0.509
1309.500	736.580	80.003	19.995	100.339	20.249	-2.571	0.485
1310.000	736.850	80.005	19.996	100.340	20.252	-2.729	0.482
1310.500	737.057	80.004	19.994	100.341	20.250	-2.635	0.491
1311.000	737.334	80.004	19.994	100.340	20.251	-2.646	0.480
1311.500	737.606	80.005	19.994	100.339	20.253	-2.810	0.516
1312.000	737.851	80.003	19.994	100.339	20.252	-2.766	0.533
1312.500	738.091	80.006	19.994	100.340	20.252	-2.783	0.501
1313.000	738.351	80.004	19.994	100.340	20.254	-2.870	0.492
1313.501	738.598	80.005	19.995	100.340	20.251	-2.663	0.503
1314.002	738.855	80.005	19.994	100.341	20.255	-2.938	0.506
1314.501	739.116	80.004	19.994	100.342	20.254	-2.926	0.511
1315.000	739.343	80.004	19.995	100.341	20.248	-2.488	0.503
1315.500	739.606	80.005	19.994	100.341	20.251	-2.704	0.489
1316.000	739.874	80.002	19.995	100.341	20.250	-2.592	0.510
1316.500	740.102	80.003	19.994	100.341	20.252	-2.781	0.513
1317.000	740.352	80.003	19.995	100.341	20.251	-2.656	0.488
1317.500	740.582	80.005	19.994	100.342	20.249	-2.555	0.479
1318.000	740.869	80.004	19.994	100.342	20.249	-2.536	0.498
1318.500	741.107	80.004	19.994	100.343	20.249	-2.526	0.520
1319.000	741.356	80.002	19.995	100.343	20.252	-2.719	0.506
1319.500	741.618	80.004	19.994	100.343	20.252	-2.747	0.500
1320.000	741.825	80.003	19.994	100.343	20.253	-2.795	0.490
1320.500	742.119	80.004	19.993	100.344	20.252	-2.719	0.485
1321.000	742.356	80.004	19.995	100.344	20.252	-2.752	0.515
1321.500	742.645	80.004	19.994	100.343	20.252	-2.737	0.528
1322.000	742.852	80.004	19.995	100.343	20.251	-2.648	0.511
1322.500	743.107	80.005	19.995	100.343	20.252	-2.733	0.479
1323.000	743.342	80.005	19.994	100.341	20.250	-2.619	0.476
1323.500	743.627	80.004	19.995	100.341	20.251	-2.677	0.505
