Sample ID:	C:\MCC\MCC Cal\Test\Rebond_Foam_Carpet_Pad_MCC_30K_min_211102_R3.txt
Sample Weight (mg):	4.91
Heating Rate (C/s):	0.5
Combustor Temp (C):	900
N2 Flow Rate (cc/min):	80
O2 Flow Rate (cc/min):	20
Calibration File:	C:\MCC\MCC Cal\Coeff1 JN10440_30_210304.txt.txt
T Correction Coefficients:	0	1.024463	0
Time Shift (s):	14
*
Time (s)	Temperature (C)	N2 flow rate (cc/min)	O2 flow rate (cc/min)	Flow Rate (cc/min)	Oxygen (%)	HRR (W/g)	Heating rate (C/s)
-0.001	108.983	80.002	19.992	103.065	20.097	0.271	-0.024
0.499	108.986	80.004	19.995	103.065	20.098	0.216	-0.007
1.000	108.982	80.002	19.995	103.067	20.097	0.287	0.007
1.500	108.972	80.004	19.995	103.067	20.100	0.089	-0.008
2.000	109.001	80.002	19.995	103.067	20.098	0.237	0.002
2.500	108.942	80.002	19.995	103.068	20.098	0.253	-0.005
3.000	108.969	80.003	19.995	103.067	20.101	0.029	-0.031
3.500	108.962	80.003	19.996	103.065	20.101	0.036	-0.006
4.000	108.954	80.005	19.996	103.065	20.101	0.048	0.003
4.500	108.940	80.004	19.996	103.064	20.100	0.120	-0.019
5.000	108.911	80.004	19.995	103.063	20.102	-0.054	-0.033
5.500	108.958	80.003	19.995	103.065	20.099	0.143	-0.013
6.000	108.931	80.003	19.996	103.062	20.099	0.136	0.019
6.500	108.930	80.006	19.996	103.057	20.101	-0.004	-0.004
7.000	108.941	80.004	19.997	103.055	20.098	0.216	-0.009
7.500	108.939	80.004	19.995	103.054	20.098	0.243	0.010
8.000	108.944	80.003	19.995	103.053	20.100	0.123	0.006
8.500	108.926	80.004	19.995	103.055	20.101	0.032	-0.005
9.000	108.916	80.003	19.995	103.055	20.099	0.139	-0.021
9.500	108.891	80.002	19.995	103.054	20.099	0.154	-0.031
10.000	108.902	80.004	19.996	103.054	20.104	-0.168	-0.024
10.500	108.902	80.004	19.996	103.054	20.098	0.230	-0.002
11.000	108.879	80.003	19.996	103.056	20.099	0.164	-0.006
11.500	108.895	80.003	19.995	103.061	20.099	0.132	-0.015
12.000	108.899	80.003	19.996	103.065	20.100	0.109	0.006
12.501	108.918	80.003	19.996	103.068	20.101	0.043	0.022
13.000	108.917	80.002	19.996	103.070	20.099	0.170	0.021
13.500	108.910	80.004	19.995	103.076	20.097	0.257	0.005
14.000	108.933	80.004	19.995	103.083	20.097	0.298	0.004
14.500	108.943	80.004	19.995	103.089	20.095	0.434	0.025
15.000	108.941	80.003	19.996	103.094	20.092	0.609	0.021
15.500	108.951	80.004	19.996	103.097	20.093	0.525	0.008
16.000	108.944	80.005	19.994	103.097	20.092	0.638	0.005
16.500	108.952	80.003	19.995	103.097	20.089	0.806	0.002
17.000	108.955	80.004	19.995	103.097	20.091	0.711	0.006
17.500	108.999	80.002	19.996	103.099	20.091	0.661	0.029
18.000	108.966	80.004	19.996	103.107	20.090	0.718	0.029
18.500	109.009	80.003	19.996	103.118	20.084	1.156	0.011
19.000	108.985	80.004	19.996	103.133	20.082	1.300	0.015
19.500	108.984	80.003	19.995	103.149	20.080	1.377	-0.003
20.000	109.017	80.003	19.995	103.163	20.082	1.279	0.004
20.500	108.986	80.003	19.995	103.175	20.080	1.377	0.017
21.000	109.012	80.004	19.996	103.188	20.080	1.420	-0.002
21.500	109.030	80.004	19.995	103.197	20.077	1.576	0.019
22.000	109.064	80.004	19.995	103.204	20.078	1.510	0.048
22.500	109.070	80.003	19.995	103.212	20.072	1.933	0.046
23.000	109.122	80.004	19.994	103.220	20.073	1.856	0.049
23.500	109.147	80.002	19.995	103.226	20.072	1.912	0.067
24.000	109.217	80.004	19.996	103.230	20.072	1.958	0.086
24.500	109.210	80.003	19.995	103.232	20.068	2.221	0.079
25.000	109.226	80.004	19.996	103.231	20.068	2.201	0.036
25.500	109.283	80.003	19.995	103.231	20.067	2.267	0.041
26.000	109.336	80.003	19.996	103.226	20.067	2.280	0.092
26.500	109.357	80.003	19.995	103.222	20.066	2.312	0.092
27.000	109.402	80.003	19.995	103.221	20.066	2.335	0.070
27.500	109.423	80.004	19.995	103.222	20.067	2.271	0.066
28.000	109.500	80.002	19.995	103.222	20.062	2.603	0.082
28.500	109.533	80.002	19.996	103.221	20.066	2.306	0.104
29.000	109.591	80.005	19.995	103.221	20.066	2.326	0.101
29.500	109.601	80.002	19.996	103.222	20.066	2.308	0.079
30.000	109.662	80.003	19.996	103.226	20.065	2.410	0.069
30.500	109.711	80.002	19.995	103.228	20.066	2.308	0.091
31.000	109.766	80.004	19.995	103.235	20.065	2.373	0.107
31.500	109.821	80.003	19.997	103.240	20.065	2.419	0.107
32.000	109.896	80.003	19.997	103.243	20.066	2.328	0.120
32.499	109.935	80.004	19.995	103.247	20.065	2.398	0.122
32.999	109.978	80.003	19.996	103.253	20.064	2.430	0.098
33.499	110.029	80.003	19.995	103.253	20.063	2.515	0.088
33.999	110.081	80.003	19.995	103.256	20.063	2.525	0.099
34.499	110.173	80.004	19.996	103.258	20.063	2.495	0.124
34.999	110.265	80.003	19.997	103.258	20.064	2.454	0.164
35.499	110.295	80.002	19.996	103.252	20.061	2.655	0.152
35.999	110.395	80.004	19.996	103.248	20.061	2.630	0.126
36.499	110.466	80.003	19.995	103.249	20.061	2.623	0.151
36.999	110.536	80.005	19.996	103.253	20.063	2.530	0.156
37.499	110.611	80.004	19.996	103.252	20.063	2.499	0.143
37.999	110.699	80.005	19.997	103.251	20.063	2.513	0.154
38.499	110.740	80.003	19.997	103.251	20.063	2.504	0.146
38.999	110.825	80.004	19.996	103.244	20.061	2.634	0.127
39.499	110.909	80.004	19.996	103.241	20.060	2.746	0.147
39.999	110.958	80.004	19.995	103.242	20.062	2.591	0.151
40.499	111.029	80.004	19.996	103.247	20.059	2.761	0.127
40.999	111.137	80.004	19.995	103.251	20.061	2.629	0.149
41.499	111.243	80.004	19.995	103.256	20.062	2.591	0.196
41.999	111.342	80.005	19.996	103.257	20.060	2.695	0.210
42.499	111.413	80.004	19.995	103.262	20.063	2.525	0.188
42.999	111.515	80.004	19.995	103.271	20.058	2.868	0.172
43.499	111.643	80.005	19.997	103.257	20.061	2.648	0.202
44.000	111.741	80.004	19.996	103.241	20.062	2.614	0.228
44.501	111.804	80.004	19.996	103.227	20.062	2.618	0.193
45.000	111.889	80.004	19.995	103.215	20.059	2.780	0.154
45.500	112.033	80.005	19.995	103.202	20.061	2.679	0.188
46.000	112.137	80.005	19.995	103.221	20.059	2.770	0.239
46.500	112.183	80.003	19.995	103.272	20.060	2.709	0.199
47.000	112.305	80.003	19.995	103.303	20.061	2.652	0.159
47.499	112.430	80.003	19.995	103.317	20.062	2.615	0.207
47.999	112.549	80.004	19.995	103.325	20.061	2.634	0.245
48.499	112.627	80.004	19.994	103.320	20.061	2.675	0.220
49.000	112.705	80.005	19.994	103.287	20.061	2.659	0.177
49.500	112.847	80.005	19.995	103.268	20.061	2.650	0.188
49.999	112.965	80.004	19.996	103.264	20.060	2.686	0.240
50.499	113.069	80.005	19.995	103.263	20.057	2.913	0.241
50.999	113.167	80.005	19.994	103.264	20.058	2.875	0.212
51.499	113.290	80.005	19.994	103.264	20.058	2.858	0.211
51.999	113.402	80.004	19.994	103.265	20.057	2.901	0.228
52.499	113.541	80.005	19.994	103.263	20.059	2.766	0.243
52.999	113.657	80.004	19.995	103.263	20.056	2.970	0.253
53.499	113.771	80.004	19.995	103.264	20.058	2.859	0.243
53.999	113.869	80.004	19.995	103.263	20.060	2.709	0.221
54.499	113.972	80.006	19.995	103.262	20.058	2.870	0.207
54.999	114.146	80.003	19.994	103.263	20.057	2.886	0.239
55.499	114.244	80.004	19.994	103.264	20.056	2.958	0.274
55.999	114.417	80.004	19.995	103.265	20.057	2.886	0.271
56.499	114.556	80.005	19.995	103.268	20.056	2.961	0.292
56.999	114.631	80.005	19.995	103.272	20.054	3.083	0.263
57.499	114.784	80.005	19.993	103.275	20.059	2.784	0.221
57.999	114.881	80.004	19.996	103.276	20.056	3.002	0.239
58.500	115.049	80.005	19.993	103.279	20.054	3.136	0.258
59.000	115.153	80.005	19.993	103.278	20.057	2.936	0.269
59.500	115.284	80.004	19.994	103.275	20.057	2.919	0.254
60.000	115.427	80.005	19.994	103.273	20.055	3.013	0.254
60.500	115.566	80.005	19.995	103.274	20.051	3.282	0.278
61.000	115.682	80.006	19.994	103.272	20.056	2.990	0.268
61.499	115.809	80.004	19.995	103.273	20.052	3.267	0.249
61.999	115.971	80.005	19.994	103.274	20.059	2.804	0.267
62.499	116.106	80.006	19.995	103.278	20.057	2.924	0.293
62.999	116.248	80.006	19.994	103.278	20.055	3.026	0.287
63.499	116.375	80.005	19.995	103.277	20.056	2.994	0.273
63.999	116.511	80.006	19.995	103.276	20.053	3.153	0.266
64.499	116.661	80.005	19.995	103.279	20.051	3.294	0.274
64.999	116.797	80.005	19.995	103.274	20.052	3.223	0.285
65.499	116.943	80.005	19.994	103.273	20.054	3.091	0.284
65.999	117.099	80.007	19.993	103.276	20.055	3.048	0.292
66.499	117.239	80.006	19.994	103.275	20.055	3.024	0.299
66.999	117.367	80.006	19.995	103.274	20.051	3.303	0.282
67.500	117.511	80.004	19.994	103.272	20.053	3.189	0.270
68.000	117.701	80.006	19.994	103.272	20.055	3.071	0.304
68.499	117.849	80.006	19.995	103.275	20.051	3.314	0.336
68.999	118.011	80.006	19.995	103.278	20.053	3.182	0.324
69.499	118.135	80.006	19.995	103.279	20.052	3.262	0.298
69.999	118.279	80.006	19.995	103.283	20.055	3.033	0.277
70.499	118.428	80.005	19.994	103.287	20.053	3.149	0.280
70.999	118.576	80.006	19.994	103.287	20.056	2.962	0.295
71.499	118.701	80.006	19.994	103.289	20.052	3.260	0.286
71.999	118.869	80.005	19.994	103.292	20.054	3.135	0.283
72.499	119.007	80.005	19.994	103.292	20.053	3.157	0.299
73.000	119.178	80.006	19.994	103.288	20.049	3.432	0.307
73.500	119.366	80.004	19.995	103.285	20.050	3.350	0.334
74.000	119.513	80.005	19.994	103.286	20.053	3.158	0.347
74.500	119.648	80.003	19.994	103.286	20.050	3.360	0.309
74.999	119.821	80.004	19.995	103.289	20.050	3.351	0.296
75.499	119.996	80.004	19.995	103.295	20.054	3.116	0.328
75.999	120.167	80.003	19.995	103.297	20.050	3.348	0.347
76.499	120.306	80.003	19.995	103.297	20.052	3.212	0.327
76.999	120.469	80.004	19.994	103.297	20.052	3.248	0.306
77.499	120.624	80.004	19.994	103.296	20.050	3.359	0.310
77.999	120.787	80.004	19.994	103.295	20.051	3.339	0.319
78.499	120.987	80.004	19.995	103.295	20.053	3.187	0.341
78.999	121.147	80.004	19.993	103.295	20.053	3.171	0.361
79.499	121.278	80.005	19.994	103.295	20.051	3.276	0.325
79.999	121.457	80.004	19.995	103.297	20.048	3.493	0.300
80.499	121.679	80.003	19.995	103.297	20.049	3.439	0.356
80.999	121.815	80.004	19.994	103.297	20.051	3.341	0.380
81.499	122.030	80.004	19.995	103.297	20.050	3.350	0.355
81.999	122.192	80.004	19.995	103.297	20.052	3.244	0.364
82.499	122.344	80.004	19.994	103.296	20.053	3.189	0.345
82.999	122.550	80.002	19.995	103.297	20.050	3.385	0.336
83.499	122.707	80.004	19.994	103.298	20.052	3.212	0.361
83.999	122.910	80.004	19.995	103.298	20.051	3.335	0.361
84.499	123.105	80.004	19.994	103.297	20.056	3.008	0.379
84.999	123.268	80.004	19.994	103.298	20.050	3.343	0.378
85.499	123.439	80.003	19.994	103.297	20.053	3.153	0.346
86.000	123.579	80.006	19.994	103.297	20.052	3.216	0.322
86.500	123.795	80.004	19.994	103.296	20.054	3.144	0.333
86.999	123.978	80.005	19.995	103.298	20.053	3.194	0.378
87.499	124.175	80.004	19.994	103.297	20.055	3.067	0.390
87.999	124.325	80.003	19.994	103.298	20.052	3.235	0.363
88.499	124.478	80.004	19.995	103.299	20.053	3.200	0.325
88.999	124.722	80.004	19.994	103.299	20.052	3.241	0.350
89.499	124.905	80.003	19.994	103.297	20.053	3.201	0.412
90.000	125.083	80.004	19.995	103.297	20.053	3.173	0.394
90.500	125.303	80.005	19.995	103.297	20.050	3.368	0.379
90.999	125.466	80.004	19.994	103.295	20.054	3.121	0.391
91.499	125.653	80.005	19.994	103.294	20.051	3.301	0.367
91.999	125.800	80.004	19.995	103.294	20.050	3.376	0.342
92.500	126.021	80.004	19.995	103.294	20.053	3.164	0.351
93.001	126.216	80.003	19.993	103.293	20.051	3.296	0.392
93.500	126.415	80.004	19.995	103.295	20.052	3.248	0.405
93.999	126.594	80.005	19.995	103.295	20.048	3.502	0.386
94.499	126.767	80.003	19.993	103.297	20.050	3.382	0.365
94.999	126.938	80.004	19.995	103.299	20.049	3.414	0.349
95.499	127.150	80.004	19.995	103.299	20.052	3.234	0.364
95.999	127.295	80.003	19.995	103.298	20.049	3.472	0.370
96.499	127.521	80.005	19.994	103.298	20.051	3.307	0.364
96.999	127.684	80.004	19.994	103.298	20.051	3.282	0.380
97.499	127.888	80.004	19.993	103.296	20.050	3.347	0.378
97.999	128.091	80.003	19.996	103.296	20.047	3.586	0.387
98.499	128.295	80.004	19.995	103.296	20.049	3.415	0.407
98.999	128.489	80.004	19.994	103.297	20.047	3.561	0.403
99.499	128.692	80.004	19.995	103.297	20.046	3.659	0.398
99.999	128.891	80.003	19.995	103.297	20.046	3.623	0.399
100.499	129.079	80.004	19.995	103.297	20.050	3.386	0.395
100.999	129.299	80.004	19.996	103.297	20.048	3.516	0.397
101.499	129.482	80.004	19.995	103.297	20.048	3.534	0.405
101.999	129.695	80.003	19.995	103.297	20.046	3.656	0.400
102.500	129.900	80.003	19.994	103.296	20.046	3.665	0.407
103.000	130.059	80.002	19.996	103.297	20.046	3.647	0.391
103.499	130.281	80.003	19.995	103.297	20.046	3.654	0.372
103.999	130.472	80.003	19.996	103.297	20.046	3.648	0.397
104.499	130.643	80.003	19.995	103.297	20.048	3.518	0.388
104.999	130.888	80.003	19.995	103.297	20.047	3.556	0.389
105.499	131.085	80.004	19.995	103.298	20.047	3.559	0.429
106.000	131.302	80.003	19.996	103.299	20.045	3.679	0.429
106.500	131.484	80.001	19.997	103.302	20.046	3.613	0.407
106.999	131.725	80.004	19.995	103.307	20.047	3.600	0.411
107.499	131.872	80.003	19.996	103.310	20.045	3.709	0.405
107.999	132.069	80.003	19.995	103.316	20.045	3.704	0.366
108.499	132.302	80.003	19.994	103.317	20.046	3.666	0.387
108.999	132.499	80.004	19.996	103.316	20.048	3.538	0.430
109.499	132.703	80.003	19.996	103.313	20.045	3.718	0.415
109.999	132.910	80.002	19.995	103.312	20.043	3.840	0.406
110.499	133.059	80.002	19.995	103.306	20.044	3.754	0.384
110.999	133.281	80.003	19.996	103.304	20.046	3.645	0.363
111.499	133.526	80.003	19.994	103.303	20.045	3.688	0.419
112.000	133.738	80.003	19.995	103.304	20.046	3.668	0.462
112.500	133.915	80.002	19.995	103.307	20.045	3.715	0.423
112.999	134.150	80.003	19.995	103.307	20.043	3.817	0.400
113.499	134.342	80.001	19.995	103.307	20.046	3.609	0.419
113.999	134.511	80.004	19.995	103.307	20.043	3.863	0.394
114.499	134.793	80.003	19.995	103.307	20.048	3.516	0.406
114.999	134.982	80.004	19.994	103.304	20.045	3.735	0.461
115.499	135.207	80.004	19.996	103.307	20.043	3.824	0.443
115.999	135.385	80.003	19.995	103.309	20.046	3.619	0.409
116.499	135.602	80.003	19.996	103.310	20.047	3.595	0.399
117.000	135.833	80.003	19.995	103.309	20.045	3.713	0.422
117.500	136.040	80.004	19.995	103.308	20.045	3.706	0.443
117.999	136.255	80.004	19.994	103.306	20.042	3.922	0.430
118.499	136.475	80.004	19.995	103.304	20.045	3.718	0.428
118.999	136.718	80.004	19.996	103.303	20.049	3.456	0.449
119.499	136.884	80.004	19.995	103.303	20.046	3.620	0.436
119.999	137.110	80.004	19.995	103.303	20.045	3.704	0.400
120.499	137.370	80.003	19.995	103.301	20.044	3.760	0.439
121.000	137.601	80.006	19.995	103.303	20.044	3.744	0.489
121.500	137.794	80.005	19.995	103.305	20.043	3.860	0.457
121.999	138.007	80.004	19.995	103.305	20.044	3.801	0.415
122.499	138.214	80.004	19.995	103.305	20.039	4.087	0.413
122.999	138.493	80.006	19.995	103.307	20.041	3.979	0.453
123.500	138.675	80.005	19.995	103.306	20.042	3.908	0.473
124.000	138.884	80.006	19.996	103.308	20.042	3.908	0.426
124.499	139.130	80.005	19.994	103.310	20.041	3.963	0.424
124.999	139.318	80.005	19.995	103.310	20.040	4.052	0.444
125.499	139.543	80.005	19.996	103.309	20.044	3.797	0.423
125.999	139.796	80.004	19.995	103.312	20.041	3.990	0.446
126.499	140.025	80.004	19.995	103.317	20.040	4.019	0.480
126.999	140.252	80.004	19.996	103.321	20.043	3.833	0.469
127.499	140.475	80.003	19.995	103.323	20.044	3.784	0.453
128.000	140.689	80.003	19.995	103.324	20.043	3.827	0.443
128.500	140.920	80.002	19.995	103.321	20.043	3.817	0.441
129.000	141.152	80.004	19.995	103.317	20.042	3.879	0.455
129.500	141.360	80.005	19.995	103.312	20.042	3.902	0.452
130.000	141.636	80.003	19.996	103.311	20.042	3.929	0.462
130.500	141.835	80.004	19.996	103.310	20.041	3.936	0.479
131.000	142.058	80.004	19.995	103.311	20.040	4.018	0.448
131.500	142.300	80.004	19.996	103.314	20.044	3.743	0.443
132.000	142.542	80.003	19.995	103.317	20.042	3.931	0.475
132.500	142.767	80.003	19.996	103.319	20.044	3.752	0.475
133.000	143.044	80.003	19.995	103.318	20.039	4.097	0.484
133.500	143.233	80.003	19.997	103.317	20.040	4.022	0.484
134.000	143.495	80.003	19.996	103.312	20.038	4.158	0.459
134.500	143.678	80.003	19.996	103.307	20.040	4.036	0.448
135.000	143.956	80.004	19.996	103.304	20.039	4.129	0.453
135.500	144.155	80.003	19.996	103.303	20.041	3.974	0.469
136.000	144.420	80.004	19.996	103.301	20.043	3.831	0.470
136.500	144.655	80.004	19.995	103.302	20.042	3.886	0.482
137.000	144.825	80.004	19.996	103.308	20.041	3.983	0.452
137.500	145.080	80.004	19.995	103.310	20.040	4.022	0.415
138.000	145.319	80.004	19.995	103.311	20.039	4.085	0.460
138.500	145.603	80.005	19.996	103.309	20.041	3.938	0.509
139.000	145.855	80.004	19.995	103.308	20.041	3.934	0.529
139.500	146.071	80.005	19.996	103.305	20.041	3.972	0.502
140.000	146.302	80.005	19.995	103.303	20.042	3.919	0.457
140.500	146.490	80.004	19.995	103.304	20.041	3.969	0.433
141.000	146.770	80.006	19.995	103.305	20.041	3.972	0.444
141.500	146.999	80.004	19.995	103.303	20.041	3.997	0.489
142.000	147.232	80.005	19.995	103.301	20.043	3.824	0.485
142.500	147.485	80.006	19.995	103.304	20.041	3.986	0.473
143.000	147.687	80.005	19.995	103.306	20.037	4.204	0.470
143.500	147.950	80.006	19.994	103.310	20.038	4.143	0.460
144.000	148.175	80.006	19.994	103.313	20.040	4.029	0.477
144.500	148.425	80.005	19.994	103.313	20.039	4.106	0.481
145.000	148.691	80.005	19.994	103.309	20.040	4.007	0.495
145.500	148.910	80.006	19.995	103.306	20.039	4.087	0.501
146.000	149.207	80.007	19.993	103.301	20.038	4.140	0.501
146.500	149.410	80.006	19.994	103.300	20.039	4.101	0.508
147.000	149.624	80.005	19.995	103.303	20.039	4.098	0.459
147.500	149.857	80.006	19.995	103.303	20.041	3.969	0.432
148.000	150.113	80.006	19.994	103.303	20.040	4.062	0.468
148.500	150.365	80.007	19.994	103.303	20.038	4.181	0.498
149.000	150.588	80.006	19.994	103.302	20.040	4.045	0.491
149.500	150.833	80.007	19.994	103.298	20.039	4.090	0.472
150.000	151.084	80.006	19.993	103.302	20.036	4.261	0.482
150.500	151.304	80.006	19.994	103.306	20.035	4.381	0.484
151.000	151.591	80.005	19.994	103.309	20.037	4.197	0.489
151.500	151.804	80.006	19.994	103.309	20.036	4.313	0.503
152.000	152.055	80.006	19.993	103.317	20.039	4.115	0.482
152.500	152.342	80.005	19.995	103.302	20.036	4.324	0.501
153.000	152.556	80.006	19.995	103.275	20.040	4.054	0.520
153.500	152.784	80.005	19.994	103.258	20.039	4.115	0.472
154.000	153.055	80.005	19.994	103.250	20.041	3.983	0.471
154.500	153.274	80.005	19.995	103.239	20.039	4.120	0.495
155.000	153.527	80.004	19.994	103.257	20.040	4.008	0.481
155.500	153.742	80.007	19.994	103.311	20.039	4.113	0.469
156.000	153.989	80.004	19.994	103.341	20.041	3.954	0.465
156.500	154.224	80.005	19.996	103.354	20.039	4.101	0.473
157.000	154.511	80.004	19.995	103.359	20.038	4.186	0.502
157.500	154.738	80.005	19.994	103.358	20.033	4.474	0.517
158.000	154.986	80.004	19.994	103.327	20.038	4.194	0.494
158.500	155.251	80.004	19.995	103.313	20.036	4.320	0.494
159.000	155.479	80.005	19.994	103.308	20.036	4.286	0.503
159.500	155.704	80.003	19.994	103.306	20.036	4.290	0.473
160.000	155.990	80.005	19.994	103.304	20.038	4.145	0.482
160.500	156.204	80.004	19.995	103.302	20.039	4.099	0.505
161.000	156.453	80.005	19.995	103.302	20.035	4.334	0.482
161.500	156.719	80.006	19.995	103.302	20.037	4.250	0.490
162.000	156.947	80.003	19.994	103.301	20.035	4.329	0.505
162.500	157.200	80.003	19.994	103.299	20.034	4.397	0.487
163.000	157.467	80.004	19.995	103.299	20.038	4.186	0.501
163.500	157.684	80.004	19.996	103.299	20.032	4.564	0.502
164.000	157.945	80.005	19.994	103.300	20.033	4.501	0.480
164.500	158.170	80.003	19.994	103.300	20.034	4.397	0.482
165.000	158.457	80.004	19.994	103.299	20.031	4.622	0.499
165.500	158.697	80.004	19.996	103.300	20.034	4.415	0.519
166.000	158.915	80.004	19.995	103.300	20.032	4.528	0.492
166.500	159.193	80.004	19.995	103.299	20.030	4.669	0.477
167.000	159.447	80.004	19.995	103.300	20.033	4.506	0.514
167.500	159.711	80.004	19.995	103.299	20.035	4.336	0.525
168.000	159.973	80.004	19.995	103.299	20.031	4.630	0.522
168.500	160.200	80.005	19.994	103.299	20.034	4.446	0.508
169.000	160.488	80.004	19.994	103.300	20.033	4.480	0.502
169.500	160.706	80.006	19.994	103.300	20.030	4.665	0.510
170.000	160.977	80.005	19.994	103.301	20.031	4.603	0.497
170.500	161.205	80.005	19.995	103.300	20.032	4.542	0.494
171.000	161.499	80.004	19.994	103.298	20.033	4.517	0.510
171.500	161.742	80.004	19.994	103.295	20.033	4.522	0.530
172.000	162.014	80.005	19.994	103.295	20.032	4.588	0.526
172.500	162.238	80.004	19.994	103.295	20.035	4.381	0.506
173.000	162.472	80.004	19.994	103.296	20.031	4.619	0.477
173.500	162.722	80.003	19.994	103.299	20.030	4.664	0.471
174.000	162.976	80.004	19.994	103.301	20.031	4.653	0.494
174.500	163.241	80.004	19.995	103.301	20.035	4.390	0.512
175.000	163.484	80.003	19.994	103.301	20.029	4.774	0.514
175.500	163.730	80.004	19.994	103.300	20.031	4.621	0.498
176.000	163.993	80.005	19.995	103.299	20.028	4.847	0.499
176.500	164.238	80.005	19.994	103.297	20.034	4.455	0.509
177.000	164.504	80.004	19.995	103.297	20.030	4.704	0.510
177.500	164.792	80.005	19.994	103.298	20.029	4.734	0.532
178.000	165.024	80.005	19.994	103.298	20.032	4.527	0.537
178.500	165.258	80.005	19.994	103.299	20.030	4.714	0.493
179.000	165.516	80.005	19.995	103.301	20.027	4.855	0.479
179.500	165.822	80.005	19.993	103.302	20.027	4.864	0.528
180.000	166.050	80.005	19.994	103.301	20.027	4.872	0.549
180.500	166.284	80.006	19.994	103.301	20.024	5.088	0.498
181.000	166.585	80.004	19.994	103.301	20.027	4.869	0.499
181.500	166.810	80.005	19.994	103.300	20.029	4.728	0.531
182.000	167.053	80.004	19.994	103.298	20.027	4.911	0.497
182.500	167.325	80.004	19.994	103.297	20.028	4.852	0.492
183.000	167.579	80.004	19.994	103.297	20.024	5.068	0.520
183.500	167.834	80.003	19.994	103.298	20.028	4.821	0.517
184.000	168.062	80.004	19.994	103.297	20.026	4.963	0.496
184.500	168.303	80.004	19.994	103.299	20.025	5.017	0.476
185.000	168.597	80.004	19.994	103.301	20.027	4.909	0.502
185.500	168.842	80.004	19.994	103.299	20.025	5.017	0.537
186.000	169.110	80.004	19.995	103.296	20.025	4.995	0.526
186.500	169.334	80.004	19.994	103.296	20.022	5.228	0.502
187.000	169.597	80.003	19.995	103.292	20.023	5.122	0.490
187.500	169.907	80.004	19.995	103.269	20.025	5.017	0.530
188.000	170.141	80.002	19.994	103.252	20.020	5.360	0.558
188.500	170.356	80.005	19.995	103.245	20.023	5.128	0.496
189.000	170.616	80.003	19.994	103.238	20.022	5.207	0.462
189.500	170.860	80.004	19.995	103.236	20.021	5.303	0.490
190.000	171.097	80.003	19.995	103.255	20.021	5.306	0.493
190.500	171.415	80.004	19.995	103.272	20.019	5.385	0.518
191.000	171.671	80.002	19.995	103.281	20.022	5.229	0.564
191.500	171.884	80.003	19.995	103.289	20.019	5.396	0.521
192.000	172.136	80.003	19.995	103.295	20.021	5.255	0.467
192.500	172.359	80.004	19.994	103.302	20.021	5.300	0.470
193.000	172.634	80.004	19.995	103.310	20.018	5.447	0.487
193.500	172.880	80.003	19.994	103.325	20.020	5.331	0.510
194.000	173.123	80.003	19.994	103.336	20.019	5.378	0.505
194.500	173.400	80.004	19.996	103.334	20.022	5.197	0.504
195.000	173.664	80.004	19.994	103.328	20.018	5.452	0.530
195.500	173.903	80.003	19.994	103.320	20.021	5.288	0.522
196.000	174.189	80.004	19.995	103.300	20.018	5.456	0.514
196.500	174.446	80.005	19.996	103.283	20.019	5.390	0.534
197.000	174.697	80.005	19.994	103.282	20.016	5.606	0.526
197.500	174.947	80.005	19.994	103.282	20.016	5.636	0.505
198.000	175.162	80.005	19.996	103.280	20.015	5.697	0.483
198.500	175.421	80.005	19.995	103.285	20.014	5.706	0.469
199.000	175.665	80.005	19.995	103.289	20.016	5.627	0.489
199.500	175.920	80.004	19.995	103.292	20.015	5.672	0.501
200.000	176.200	80.004	19.996	103.292	20.017	5.563	0.517
200.500	176.423	80.005	19.996	103.292	20.015	5.672	0.520
201.000	176.662	80.007	19.994	103.285	20.017	5.524	0.483
201.500	176.911	80.004	19.996	103.279	20.017	5.570	0.475
202.000	177.159	80.006	19.995	103.271	20.015	5.664	0.492
202.500	177.400	80.007	19.994	103.265	20.015	5.647	0.493
203.000	177.659	80.005	19.996	103.269	20.016	5.625	0.494
203.500	177.913	80.006	19.995	103.275	20.014	5.741	0.506
204.000	178.166	80.006	19.996	103.281	20.015	5.700	0.510
204.500	178.437	80.005	19.996	103.282	20.015	5.649	0.515
205.000	178.665	80.007	19.995	103.281	20.013	5.829	0.511
205.500	178.939	80.007	19.995	103.277	20.013	5.773	0.500
206.000	179.134	80.007	19.995	103.274	20.011	5.952	0.486
206.500	179.370	80.008	19.995	103.269	20.011	5.924	0.450
207.000	179.666	80.006	19.995	103.270	20.011	5.916	0.481
207.500	179.918	80.009	19.995	103.272	20.010	5.979	0.540
208.000	180.147	80.007	19.995	103.272	20.010	6.020	0.514
208.500	180.406	80.008	19.995	103.272	20.009	6.053	0.484
209.000	180.643	80.006	19.994	103.273	20.007	6.205	0.492
209.500	180.898	80.007	19.994	103.272	20.008	6.108	0.494
210.000	181.168	80.007	19.994	103.272	20.005	6.297	0.509
210.500	181.386	80.006	19.994	103.273	20.005	6.302	0.507
211.000	181.641	80.005	19.994	103.269	20.005	6.332	0.480
211.500	181.921	80.005	19.994	103.270	20.005	6.311	0.504
212.000	182.143	80.005	19.996	103.269	20.005	6.309	0.519
212.500	182.367	80.006	19.995	103.267	20.003	6.459	0.474
213.000	182.624	80.006	19.995	103.264	20.005	6.327	0.464
213.500	182.901	80.005	19.994	103.267	20.008	6.156	0.508
214.000	183.160	80.006	19.995	103.267	20.004	6.385	0.535
214.500	183.436	80.006	19.995	103.267	20.004	6.422	0.535
215.000	183.648	80.006	19.994	103.266	20.005	6.331	0.511
215.500	183.901	80.005	19.994	103.267	20.001	6.567	0.476
216.000	184.164	80.007	19.995	103.264	20.003	6.484	0.491
216.500	184.431	80.005	19.996	103.262	20.000	6.634	0.523
217.000	184.670	80.005	19.996	103.262	20.002	6.534	0.518
217.500	184.910	80.005	19.995	103.264	20.001	6.599	0.493
218.000	185.167	80.004	19.996	103.266	20.000	6.675	0.488
218.500	185.435	80.006	19.994	103.268	19.999	6.692	0.511
219.000	185.691	80.005	19.995	103.272	19.999	6.715	0.524
219.500	185.917	80.005	19.996	103.275	19.998	6.760	0.503
220.000	186.207	80.005	19.994	103.272	19.998	6.786	0.499
220.500	186.424	80.005	19.995	103.269	20.001	6.595	0.511
221.000	186.685	80.005	19.995	103.267	19.999	6.715	0.493
221.500	186.937	80.005	19.994	103.262	20.000	6.686	0.496
222.000	187.186	80.006	19.996	103.259	19.995	6.970	0.507
222.500	187.429	80.004	19.995	103.258	19.997	6.838	0.496
223.000	187.675	80.006	19.995	103.259	19.993	7.102	0.490
223.500	187.917	80.004	19.995	103.259	19.997	6.861	0.489
224.000	188.184	80.006	19.995	103.261	19.997	6.872	0.499
224.500	188.420	80.006	19.996	103.263	19.993	7.095	0.505
225.000	188.638	80.006	19.997	103.264	19.993	7.133	0.478
225.500	188.887	80.005	19.996	103.264	19.991	7.222	0.461
226.000	189.190	80.006	19.996	103.263	19.992	7.158	0.510
226.500	189.390	80.007	19.997	103.261	19.991	7.215	0.528
227.000	189.627	80.007	19.996	103.259	19.990	7.292	0.470
227.500	189.943	80.006	19.996	103.259	19.992	7.208	0.495
228.000	190.163	80.005	19.996	103.258	19.988	7.451	0.544
228.500	190.420	80.007	19.996	103.259	19.989	7.404	0.506
229.000	190.647	80.007	19.995	103.259	19.989	7.356	0.481
229.500	190.904	80.006	19.996	103.259	19.988	7.471	0.484
230.000	191.152	80.006	19.995	103.260	19.983	7.737	0.494
230.500	191.396	80.007	19.995	103.260	19.986	7.591	0.498
231.000	191.655	80.006	19.995	103.260	19.987	7.487	0.498
231.500	191.889	80.006	19.995	103.259	19.988	7.455	0.498
232.000	192.097	80.006	19.995	103.258	19.987	7.533	0.468
232.500	192.385	80.007	19.995	103.257	19.987	7.501	0.469
233.000	192.601	80.006	19.994	103.257	19.988	7.467	0.500
233.500	192.876	80.006	19.996	103.257	19.988	7.446	0.497
234.000	193.095	80.006	19.995	103.257	19.985	7.610	0.492
234.500	193.373	80.006	19.996	103.257	19.987	7.514	0.495
235.000	193.630	80.006	19.995	103.257	19.987	7.480	0.516
235.500	193.814	80.007	19.995	103.257	19.984	7.708	0.488
236.000	194.104	80.006	19.994	103.257	19.982	7.817	0.457
236.500	194.323	80.006	19.994	103.258	19.982	7.839	0.492
237.000	194.562	80.004	19.994	103.258	19.984	7.728	0.484
237.500	194.831	80.005	19.993	103.259	19.982	7.828	0.483
238.000	195.064	80.004	19.994	103.259	19.982	7.867	0.505
238.500	195.276	80.005	19.994	103.259	19.981	7.919	0.474
239.000	195.517	80.005	19.994	103.259	19.981	7.905	0.449
239.500	195.818	80.006	19.995	103.259	19.980	7.950	0.498
240.000	196.003	80.004	19.994	103.262	19.978	8.125	0.514
240.500	196.266	80.004	19.994	103.262	19.977	8.180	0.467
241.000	196.481	80.003	19.994	103.262	19.978	8.079	0.463
241.500	196.724	80.004	19.994	103.262	19.977	8.137	0.468
242.000	196.998	80.003	19.994	103.262	19.977	8.195	0.487
242.500	197.211	80.004	19.994	103.261	19.978	8.121	0.502
243.000	197.500	80.005	19.995	103.261	19.977	8.136	0.495
243.500	197.731	80.003	19.994	103.263	19.974	8.332	0.511
244.000	197.971	80.004	19.993	103.264	19.974	8.354	0.495
244.500	198.196	80.003	19.994	103.264	19.973	8.420	0.468
245.000	198.435	80.005	19.995	103.264	19.969	8.714	0.464
245.500	198.738	80.004	19.996	103.263	19.969	8.668	0.503
246.000	198.964	80.005	19.995	103.262	19.969	8.711	0.536
246.500	199.223	80.005	19.994	103.261	19.971	8.566	0.507
247.000	199.428	80.005	19.995	103.262	19.967	8.818	0.475
247.500	199.675	80.005	19.994	103.262	19.970	8.646	0.458
248.000	199.928	80.004	19.995	103.262	19.966	8.861	0.476
248.500	200.207	80.004	19.994	103.262	19.966	8.911	0.515
249.000	200.450	80.003	19.996	103.262	19.965	8.922	0.527
249.500	200.654	80.005	19.995	103.261	19.967	8.841	0.485
250.000	200.880	80.004	19.994	103.262	19.967	8.797	0.439
250.500	201.143	80.004	19.995	103.262	19.967	8.825	0.459
251.000	201.393	80.005	19.994	103.264	19.964	9.027	0.501
251.500	201.616	80.003	19.995	103.264	19.965	8.950	0.493
252.000	201.884	80.005	19.996	103.264	19.965	8.931	0.482
252.500	202.103	80.004	19.995	103.264	19.964	8.988	0.490
253.000	202.399	80.004	19.995	103.264	19.965	8.963	0.501
253.500	202.618	80.005	19.994	103.263	19.960	9.292	0.514
254.000	202.845	80.006	19.995	103.263	19.959	9.347	0.480
254.500	203.104	80.004	19.995	103.262	19.958	9.399	0.466
255.000	203.330	80.004	19.994	103.263	19.958	9.385	0.486
255.500	203.556	80.005	19.994	103.262	19.957	9.470	0.469
256.000	203.831	80.005	19.995	103.262	19.957	9.483	0.476
256.500	204.097	80.004	19.993	103.259	19.953	9.765	0.521
257.000	204.307	80.003	19.995	103.259	19.954	9.645	0.509
257.500	204.571	80.005	19.995	103.260	19.952	9.795	0.475
258.000	204.820	80.004	19.995	103.260	19.954	9.652	0.494
258.500	205.024	80.004	19.993	103.260	19.954	9.649	0.483
259.000	205.290	80.005	19.994	103.263	19.953	9.706	0.461
259.500	205.563	80.005	19.995	103.263	19.953	9.731	0.504
260.000	205.767	80.004	19.994	103.262	19.950	9.967	0.508
260.500	206.029	80.004	19.994	103.262	19.950	9.911	0.472
261.000	206.225	80.004	19.995	103.262	19.951	9.851	0.462
261.500	206.512	80.005	19.994	103.262	19.951	9.892	0.470
262.000	206.741	80.004	19.995	103.262	19.948	10.046	0.500
262.500	206.998	80.005	19.994	103.262	19.949	10.002	0.502
263.000	207.233	80.003	19.994	103.262	19.949	10.033	0.489
263.500	207.462	80.007	19.995	103.262	19.948	10.065	0.478
264.000	207.746	80.004	19.994	103.263	19.950	9.942	0.489
264.500	207.995	80.005	19.995	103.264	19.948	10.040	0.523
265.000	208.248	80.007	19.995	103.265	19.949	9.994	0.517
265.500	208.460	80.005	19.994	103.264	19.942	10.460	0.484
266.000	208.696	80.005	19.994	103.264	19.946	10.185	0.457
266.500	208.948	80.005	19.995	103.263	19.944	10.358	0.468
267.000	209.164	80.004	19.995	103.262	19.939	10.658	0.478
267.500	209.426	80.004	19.994	103.261	19.940	10.583	0.473
268.000	209.650	80.005	19.994	103.261	19.937	10.810	0.481
268.500	209.881	80.005	19.995	103.261	19.941	10.556	0.470
269.000	210.159	80.004	19.995	103.261	19.939	10.636	0.482
269.500	210.386	80.005	19.995	103.260	19.940	10.570	0.507
270.000	210.632	80.004	19.995	103.260	19.936	10.833	0.489
270.500	210.899	80.006	19.994	103.259	19.933	11.078	0.493
271.000	211.136	80.004	19.994	103.259	19.936	10.841	0.509
271.500	211.359	80.004	19.994	103.259	19.936	10.828	0.482
272.000	211.618	80.004	19.995	103.260	19.934	11.016	0.471
272.500	211.863	80.004	19.995	103.260	19.933	11.057	0.493
273.000	212.113	80.004	19.994	103.261	19.934	10.985	0.499
273.500	212.322	80.003	19.994	103.259	19.930	11.226	0.477
274.000	212.586	80.006	19.995	103.259	19.932	11.101	0.466
274.500	212.845	80.006	19.995	103.258	19.932	11.119	0.498
275.000	213.096	80.006	19.994	103.259	19.928	11.369	0.516
275.500	213.351	80.005	19.994	103.258	19.928	11.348	0.508
276.000	213.609	80.004	19.994	103.260	19.926	11.485	0.509
276.500	213.834	80.005	19.994	103.260	19.926	11.505	0.498
277.000	214.105	80.006	19.995	103.260	19.927	11.455	0.490
277.500	214.323	80.005	19.994	103.260	19.923	11.703	0.493
278.000	214.583	80.005	19.995	103.260	19.924	11.632	0.483
278.500	214.796	80.006	19.995	103.257	19.925	11.571	0.475
279.000	215.051	80.006	19.994	103.253	19.921	11.855	0.471
279.500	215.314	80.007	19.994	103.251	19.922	11.789	0.494
280.000	215.520	80.005	19.995	103.251	19.923	11.680	0.494
280.500	215.752	80.007	19.995	103.251	19.920	11.928	0.453
281.000	216.026	80.007	19.995	103.255	19.918	12.043	0.472
281.500	216.219	80.007	19.994	103.259	19.917	12.100	0.486
282.000	216.444	80.007	19.995	103.260	19.921	11.819	0.442
282.500	216.717	80.007	19.994	103.260	19.915	12.241	0.458
283.000	216.988	80.006	19.995	103.260	19.914	12.278	0.522
283.500	217.192	80.006	19.996	103.260	19.914	12.279	0.510
284.000	217.464	80.006	19.996	103.259	19.914	12.308	0.476
284.500	217.692	80.005	19.994	103.259	19.918	12.049	0.488
285.000	217.939	80.006	19.997	103.259	19.912	12.449	0.487
285.500	218.163	80.006	19.996	103.259	19.911	12.512	0.472
286.000	218.405	80.006	19.995	103.259	19.909	12.634	0.468
286.500	218.706	80.006	19.996	103.258	19.908	12.687	0.505
287.000	218.938	80.006	19.995	103.258	19.904	12.959	0.538
287.500	219.159	80.007	19.995	103.258	19.906	12.796	0.493
288.000	219.415	80.007	19.996	103.258	19.905	12.868	0.465
288.500	219.648	80.006	19.994	103.258	19.905	12.875	0.483
289.000	219.896	80.005	19.996	103.259	19.902	13.065	0.485
289.500	220.122	80.006	19.994	103.259	19.902	13.060	0.477
290.000	220.336	80.005	19.995	103.259	19.901	13.151	0.457
290.500	220.579	80.006	19.996	103.258	19.900	13.212	0.448
291.000	220.844	80.007	19.995	103.258	19.900	13.206	0.482
291.500	221.075	80.005	19.995	103.258	19.897	13.385	0.502
292.000	221.271	80.007	19.996	103.258	19.895	13.539	0.462
292.500	221.539	80.006	19.996	103.257	19.893	13.646	0.446
293.000	221.801	80.005	19.995	103.257	19.894	13.609	0.497
293.500	222.026	80.005	19.995	103.257	19.893	13.659	0.509
294.000	222.274	80.006	19.995	103.255	19.894	13.598	0.480
294.500	222.551	80.006	19.995	103.249	19.889	13.912	0.499
295.000	222.768	80.008	19.996	103.246	19.891	13.825	0.509
295.500	223.017	80.008	19.995	103.245	19.889	13.918	0.480
296.000	223.281	80.008	19.995	103.245	19.889	13.940	0.490
296.500	223.484	80.007	19.996	103.248	19.889	13.908	0.491
297.000	223.748	80.005	19.995	103.252	19.886	14.121	0.467
297.500	223.999	80.007	19.996	103.254	19.886	14.112	0.491
298.000	224.224	80.006	19.995	103.253	19.888	14.035	0.496
298.500	224.468	80.005	19.995	103.253	19.884	14.299	0.473
299.000	224.712	80.005	19.996	103.253	19.880	14.532	0.478
299.500	224.946	80.005	19.995	103.256	19.880	14.556	0.483
300.000	225.190	80.006	19.995	103.258	19.881	14.465	0.479
300.500	225.402	80.006	19.995	103.260	19.878	14.640	0.468
301.000	225.653	80.005	19.995	103.260	19.879	14.620	0.459
301.500	225.927	80.008	19.994	103.260	19.881	14.484	0.493
302.000	226.146	80.003	19.995	103.260	19.877	14.728	0.509
302.500	226.401	80.005	19.996	103.261	19.878	14.692	0.483
303.000	226.630	80.006	19.995	103.261	19.873	15.017	0.479
303.500	226.890	80.005	19.996	103.261	19.872	15.076	0.486
304.000	227.107	80.005	19.994	103.261	19.871	15.099	0.483
304.500	227.379	80.006	19.995	103.261	19.872	15.074	0.483
305.000	227.590	80.005	19.995	103.262	19.867	15.351	0.486
305.500	227.866	80.006	19.995	103.262	19.867	15.369	0.485
306.000	228.139	80.006	19.995	103.263	19.868	15.312	0.518
306.500	228.370	80.006	19.995	103.263	19.866	15.467	0.526
307.000	228.625	80.006	19.995	103.267	19.862	15.729	0.495
307.500	228.853	80.007	19.995	103.272	19.863	15.674	0.484
308.000	229.157	80.007	19.995	103.271	19.864	15.584	0.508
308.500	229.393	80.006	19.994	103.271	19.860	15.861	0.536
309.000	229.615	80.007	19.995	103.270	19.859	15.905	0.499
309.500	229.902	80.007	19.995	103.266	19.855	16.195	0.483
310.000	230.144	80.007	19.994	103.262	19.856	16.091	0.519
310.500	230.400	80.006	19.994	103.261	19.855	16.169	0.514
311.000	230.650	80.006	19.996	103.262	19.853	16.290	0.502
311.500	230.895	80.007	19.995	103.263	19.854	16.231	0.500
312.000	231.149	80.005	19.995	103.263	19.850	16.516	0.497
312.500	231.401	80.005	19.995	103.263	19.850	16.513	0.502
313.000	231.644	80.006	19.994	103.268	19.846	16.727	0.500
313.500	231.887	80.007	19.994	103.268	19.843	16.926	0.491
314.000	232.149	80.005	19.996	103.267	19.846	16.746	0.496
314.500	232.414	80.006	19.994	103.266	19.842	17.049	0.516
315.000	232.665	80.006	19.995	103.266	19.842	16.995	0.521
315.500	232.893	80.006	19.995	103.262	19.843	16.968	0.497
316.000	233.153	80.006	19.994	103.262	19.839	17.190	0.483
316.500	233.413	80.005	19.995	103.262	19.837	17.318	0.504
317.000	233.683	80.005	19.995	103.262	19.837	17.380	0.525
317.500	233.895	80.005	19.996	103.262	19.838	17.314	0.506
318.000	234.153	80.005	19.995	103.260	19.835	17.448	0.476
318.500	234.448	80.005	19.995	103.259	19.833	17.636	0.512
319.000	234.674	80.005	19.995	103.259	19.828	17.957	0.537
319.500	234.917	80.005	19.996	103.258	19.829	17.852	0.495
320.000	235.181	80.004	19.996	103.254	19.826	18.057	0.488
320.500	235.477	80.004	19.997	103.254	19.827	17.987	0.534
321.000	235.668	80.002	19.995	103.252	19.826	18.044	0.523
321.500	235.948	80.003	19.996	103.249	19.826	18.087	0.479
322.000	236.191	80.004	19.995	103.247	19.822	18.341	0.497
322.500	236.395	80.004	19.996	103.249	19.821	18.401	0.485
323.000	236.666	80.004	19.995	103.250	19.822	18.333	0.461
323.500	236.909	80.004	19.996	103.253	19.817	18.631	0.495
324.000	237.133	80.003	19.996	103.255	19.815	18.794	0.491
324.500	237.394	80.004	19.995	103.254	19.815	18.798	0.476
325.000	237.632	80.004	19.995	103.251	19.813	18.934	0.492
325.500	237.913	80.004	19.995	103.244	19.812	19.004	0.509
326.000	238.147	80.005	19.996	103.242	19.813	18.910	0.517
326.500	238.361	80.002	19.995	103.243	19.810	19.105	0.481
327.000	238.570	80.004	19.995	103.246	19.807	19.314	0.435
327.500	238.852	80.005	19.994	103.251	19.806	19.410	0.457
328.000	239.086	80.003	19.995	103.258	19.803	19.569	0.503
328.500	239.362	80.004	19.995	103.259	19.804	19.521	0.513
329.000	239.575	80.005	19.995	103.260	19.800	19.782	0.499
329.500	239.810	80.003	19.994	103.260	19.796	20.021	0.469
330.000	240.053	80.005	19.995	103.259	19.800	19.785	0.463
330.500	240.254	80.004	19.994	103.257	19.794	20.150	0.461
331.000	240.508	80.004	19.995	103.256	19.793	20.262	0.449
331.500	240.759	80.005	19.995	103.256	19.791	20.352	0.480
332.000	241.003	80.004	19.994	103.256	19.787	20.618	0.500
332.500	241.161	80.006	19.995	103.256	19.787	20.629	0.448
333.000	241.461	80.004	19.995	103.256	19.787	20.627	0.430
333.500	241.712	80.005	19.995	103.254	19.785	20.740	0.504
334.000	241.930	80.006	19.995	103.253	19.783	20.922	0.510
334.500	242.179	80.005	19.995	103.251	19.784	20.841	0.469
335.000	242.419	80.005	19.995	103.252	19.777	21.282	0.478
335.500	242.636	80.004	19.994	103.253	19.774	21.471	0.472
336.000	242.922	80.004	19.994	103.257	19.776	21.354	0.480
336.500	243.135	80.005	19.995	103.258	19.772	21.600	0.501
337.000	243.374	80.005	19.995	103.260	19.768	21.845	0.475
337.500	243.649	80.006	19.995	103.260	19.770	21.772	0.483
338.000	243.825	80.004	19.994	103.261	19.762	22.237	0.483
338.500	244.074	80.005	19.995	103.261	19.762	22.283	0.439
339.000	244.329	80.006	19.994	103.261	19.760	22.419	0.465
339.500	244.583	80.006	19.993	103.261	19.757	22.592	0.506
340.000	244.809	80.006	19.995	103.260	19.755	22.752	0.494
340.500	245.011	80.007	19.994	103.260	19.755	22.745	0.454
341.000	245.265	80.006	19.995	103.260	19.750	23.053	0.442
341.500	245.458	80.005	19.994	103.260	19.745	23.394	0.452
342.000	245.740	80.005	19.994	103.259	19.747	23.225	0.461
342.500	245.962	80.005	19.994	103.259	19.743	23.494	0.489
343.000	246.239	80.006	19.995	103.260	19.742	23.579	0.501
343.500	246.465	80.007	19.995	103.260	19.742	23.593	0.501
344.000	246.682	80.006	19.995	103.260	19.738	23.853	0.473
344.500	246.923	80.005	19.995	103.260	19.735	24.012	0.450
345.000	247.139	80.006	19.994	103.260	19.733	24.146	0.457
345.500	247.381	80.006	19.995	103.257	19.734	24.117	0.458
346.000	247.585	80.005	19.995	103.255	19.730	24.385	0.452
346.500	247.828	80.005	19.995	103.254	19.723	24.814	0.446
347.000	248.036	80.006	19.995	103.249	19.727	24.558	0.449
347.500	248.304	80.005	19.995	103.248	19.722	24.918	0.463
348.000	248.575	80.007	19.994	103.250	19.720	25.031	0.507
348.500	248.813	80.006	19.995	103.251	19.719	25.124	0.524
349.000	249.025	80.003	19.995	103.253	19.714	25.418	0.480
349.500	249.288	80.006	19.994	103.257	19.714	25.431	0.462
350.000	249.504	80.004	19.995	103.258	19.709	25.752	0.477
350.500	249.773	80.004	19.995	103.259	19.708	25.834	0.482
351.000	249.975	80.005	19.995	103.262	19.704	26.078	0.478
351.500	250.248	80.005	19.996	103.265	19.704	26.077	0.473
352.000	250.488	80.005	19.994	103.266	19.706	25.955	0.494
352.500	250.687	80.005	19.994	103.266	19.697	26.528	0.476
353.000	250.950	80.004	19.996	103.266	19.701	26.295	0.450
353.500	251.162	80.005	19.995	103.263	19.692	26.882	0.469
354.000	251.391	80.004	19.995	103.261	19.693	26.829	0.458
354.500	251.628	80.005	19.995	103.261	19.691	26.923	0.453
355.000	251.842	80.005	19.995	103.262	19.687	27.202	0.458
355.500	252.081	80.004	19.995	103.261	19.685	27.337	0.452
356.000	252.288	80.005	19.995	103.262	19.682	27.511	0.450
356.500	252.514	80.004	19.994	103.261	19.681	27.605	0.440
357.000	252.777	80.004	19.994	103.261	19.676	27.950	0.461
357.500	253.004	80.005	19.995	103.260	19.674	28.028	0.489
358.000	253.195	80.005	19.995	103.261	19.670	28.287	0.454
358.500	253.450	80.005	19.995	103.264	19.670	28.294	0.432
359.000	253.657	80.003	19.995	103.267	19.662	28.819	0.455
359.500	253.910	80.005	19.995	103.267	19.663	28.746	0.462
360.000	254.108	80.004	19.996	103.268	19.658	29.083	0.455
360.500	254.357	80.004	19.994	103.271	19.659	29.050	0.448
361.000	254.572	80.005	19.995	103.269	19.659	29.053	0.455
361.500	254.834	80.004	19.995	103.267	19.652	29.486	0.471
362.000	255.044	80.005	19.995	103.271	19.649	29.701	0.475
362.500	255.269	80.005	19.994	103.274	19.648	29.769	0.454
363.000	255.496	80.004	19.994	103.272	19.648	29.787	0.444
363.500	255.720	80.006	19.994	103.272	19.641	30.247	0.451
364.000	255.948	80.006	19.994	103.273	19.637	30.513	0.451
364.500	256.183	80.006	19.993	103.271	19.637	30.461	0.458
365.000	256.424	80.006	19.994	103.268	19.634	30.703	0.470
365.500	256.641	80.006	19.996	103.272	19.631	30.900	0.467
366.000	256.887	80.005	19.995	103.277	19.630	30.957	0.460
366.500	257.109	80.007	19.994	103.282	19.622	31.472	0.465
367.000	257.317	80.006	19.994	103.284	19.622	31.474	0.449
367.500	257.565	80.005	19.994	103.289	19.617	31.769	0.443
368.000	257.787	80.007	19.995	103.288	19.614	31.980	0.463
368.500	258.021	80.006	19.994	103.287	19.613	32.045	0.463
369.000	258.230	80.007	19.996	103.284	19.613	32.085	0.450
369.500	258.475	80.007	19.995	103.285	19.610	32.266	0.448
370.000	258.713	80.007	19.994	103.286	19.605	32.574	0.468
370.500	258.926	80.007	19.994	103.286	19.609	32.354	0.467
371.000	259.178	80.005	19.994	103.288	19.601	32.834	0.458
371.500	259.403	80.006	19.994	103.290	19.599	33.002	0.471
372.000	259.633	80.005	19.994	103.290	19.597	33.108	0.466
372.500	259.859	80.006	19.994	103.291	19.594	33.292	0.456
373.000	260.113	80.006	19.993	103.293	19.591	33.503	0.468
373.500	260.311	80.006	19.994	103.292	19.587	33.754	0.465
374.000	260.543	80.006	19.994	103.295	19.584	33.951	0.441
374.500	260.758	80.005	19.994	103.298	19.585	33.904	0.439
375.000	260.975	80.006	19.994	103.295	19.580	34.254	0.439
375.500	261.208	80.005	19.994	103.296	19.576	34.532	0.441
376.000	261.452	80.005	19.995	103.297	19.573	34.688	0.464
376.500	261.703	80.006	19.994	103.296	19.570	34.922	0.486
377.000	261.896	80.005	19.994	103.297	19.572	34.772	0.470
377.500	262.167	80.005	19.995	103.300	19.563	35.362	0.454
378.000	262.340	80.004	19.994	103.300	19.559	35.598	0.454
378.500	262.608	80.004	19.994	103.300	19.559	35.589	0.443
379.000	262.828	80.005	19.994	103.304	19.556	35.800	0.464
379.500	263.046	80.004	19.995	103.308	19.551	36.131	0.463
380.000	263.312	80.005	19.993	103.315	19.549	36.267	0.461
380.500	263.508	80.004	19.994	103.322	19.546	36.486	0.473
381.000	263.735	80.004	19.994	103.329	19.540	36.867	0.442
381.500	263.989	80.005	19.995	103.333	19.539	36.949	0.452
382.000	264.200	80.005	19.994	103.337	19.534	37.265	0.473
382.500	264.476	80.005	19.995	103.338	19.536	37.162	0.476
383.000	264.728	80.005	19.996	103.338	19.530	37.549	0.508
383.500	264.946	80.006	19.995	103.339	19.525	37.845	0.499
384.000	265.211	80.005	19.995	103.339	19.524	37.912	0.477
384.500	265.476	80.005	19.996	103.339	19.522	38.024	0.506
385.000	265.711	80.006	19.994	103.340	19.520	38.171	0.515
385.500	265.932	80.005	19.995	103.339	19.515	38.482	0.478
386.000	266.246	80.007	19.995	103.339	19.514	38.578	0.496
386.500	266.458	80.005	19.996	103.340	19.508	38.995	0.531
387.000	266.698	80.005	19.996	103.341	19.506	39.103	0.489
387.500	266.928	80.005	19.995	103.341	19.503	39.304	0.461
388.000	267.198	80.006	19.994	103.341	19.501	39.417	0.485
388.500	267.460	80.006	19.996	103.341	19.496	39.737	0.516
389.000	267.689	80.006	19.997	103.341	19.498	39.635	0.512
389.500	267.908	80.006	19.995	103.340	19.494	39.893	0.470
390.000	268.152	80.006	19.995	103.342	19.490	40.122	0.456
390.500	268.417	80.007	19.995	103.342	19.485	40.503	0.486
391.000	268.686	80.006	19.995	103.343	19.483	40.626	0.522
391.500	268.907	80.006	19.995	103.345	19.480	40.813	0.512
392.000	269.180	80.007	19.995	103.345	19.481	40.737	0.492
392.500	269.424	80.007	19.994	103.344	19.475	41.148	0.506
393.000	269.697	80.006	19.995	103.344	19.473	41.295	0.517
393.500	269.993	80.009	19.996	103.343	19.466	41.723	0.543
394.000	270.224	80.007	19.995	103.340	19.462	42.006	0.548
394.500	270.495	80.007	19.994	103.340	19.461	42.062	0.515
395.000	270.713	80.006	19.994	103.340	19.461	42.059	0.496
395.500	270.989	80.006	19.995	103.340	19.457	42.324	0.492
396.000	271.270	80.008	19.995	103.339	19.453	42.600	0.526
396.500	271.521	80.006	19.995	103.340	19.448	42.895	0.545
397.000	271.815	80.006	19.995	103.344	19.447	42.996	0.538
397.500	272.045	80.007	19.995	103.344	19.451	42.726	0.534
398.000	272.362	80.008	19.995	103.346	19.442	43.339	0.535
398.500	272.621	80.007	19.996	103.349	19.441	43.387	0.562
399.000	272.857	80.006	19.994	103.349	19.437	43.633	0.535
399.500	273.169	80.006	19.994	103.345	19.440	43.464	0.521
400.000	273.405	80.006	19.994	103.344	19.433	43.875	0.548
400.500	273.636	80.005	19.995	103.346	19.439	43.482	0.508
401.000	273.943	80.006	19.995	103.346	19.434	43.827	0.502
401.500	274.192	80.006	19.995	103.346	19.430	44.091	0.547
402.000	274.471	80.006	19.995	103.346	19.426	44.354	0.542
402.500	274.744	80.004	19.995	103.347	19.430	44.082	0.540
403.000	275.008	80.004	19.996	103.344	19.429	44.149	0.544
403.500	275.298	80.004	19.996	103.343	19.429	44.159	0.545
404.000	275.560	80.004	19.995	103.349	19.428	44.229	0.553
404.500	275.844	80.003	19.995	103.355	19.422	44.589	0.549
405.000	276.109	80.004	19.996	103.356	19.421	44.657	0.548
405.500	276.341	80.004	19.996	103.357	19.425	44.384	0.523
406.000	276.625	80.006	19.996	103.356	19.421	44.709	0.507
406.500	276.892	80.004	19.995	103.352	19.422	44.630	0.533
407.000	277.154	80.004	19.995	103.347	19.424	44.459	0.539
407.500	277.401	80.002	19.996	103.348	19.422	44.615	0.519
408.000	277.708	80.002	19.996	103.351	19.425	44.398	0.532
408.500	277.973	80.004	19.997	103.355	19.420	44.770	0.563
409.000	278.251	80.003	19.996	103.353	19.424	44.464	0.557
409.500	278.528	80.004	19.996	103.353	19.424	44.474	0.549
410.000	278.776	80.004	19.996	103.350	19.426	44.324	0.540
410.500	279.101	80.003	19.995	103.345	19.432	43.956	0.549
411.000	279.358	80.004	19.996	103.340	19.432	43.940	0.578
411.500	279.600	80.003	19.996	103.337	19.433	43.861	0.540
412.000	279.913	80.002	19.997	103.336	19.439	43.474	0.527
412.500	280.163	80.005	19.996	103.334	19.444	43.139	0.559
413.000	280.450	80.002	19.995	103.334	19.445	43.084	0.550
413.500	280.711	80.003	19.996	103.335	19.450	42.787	0.543
414.000	280.998	80.004	19.997	103.336	19.453	42.592	0.548
414.500	281.275	80.005	19.997	103.335	19.461	42.043	0.556
415.000	281.583	80.003	19.997	103.336	19.465	41.802	0.574
415.500	281.808	80.003	19.997	103.336	19.469	41.508	0.559
416.000	282.108	80.002	19.996	103.336	19.477	41.024	0.529
416.500	282.395	80.004	19.996	103.337	19.479	40.896	0.556
417.000	282.665	80.003	19.996	103.337	19.486	40.404	0.572
417.500	282.937	80.004	19.996	103.337	19.487	40.347	0.550
418.000	283.210	80.006	19.997	103.338	19.494	39.877	0.543
418.500	283.525	80.003	19.996	103.338	19.499	39.557	0.567
419.000	283.744	80.004	19.995	103.338	19.505	39.140	0.561
419.500	284.032	80.005	19.996	103.338	19.511	38.792	0.520
420.000	284.282	80.005	19.995	103.338	19.515	38.527	0.522
420.500	284.611	80.003	19.996	103.336	19.521	38.122	0.559
421.000	284.862	80.004	19.996	103.337	19.522	38.049	0.579
421.500	285.124	80.004	19.994	103.337	19.536	37.145	0.547
422.000	285.387	80.005	19.996	103.337	19.532	37.361	0.520
422.500	285.674	80.004	19.994	103.337	19.535	37.171	0.538
423.000	285.965	80.005	19.995	103.338	19.542	36.732	0.564
423.500	286.255	80.005	19.995	103.338	19.546	36.478	0.579
424.000	286.483	80.004	19.995	103.338	19.552	36.073	0.550
424.500	286.801	80.005	19.995	103.337	19.553	35.999	0.532
425.000	287.075	80.004	19.994	103.338	19.559	35.604	0.568
425.500	287.318	80.006	19.994	103.338	19.563	35.327	0.555
426.000	287.605	80.006	19.994	103.337	19.569	34.972	0.524
426.500	287.875	80.006	19.994	103.336	19.574	34.597	0.544
427.000	288.159	80.005	19.995	103.333	19.578	34.347	0.555
427.500	288.443	80.006	19.995	103.327	19.581	34.175	0.561
428.000	288.676	80.005	19.993	103.326	19.582	34.092	0.543
428.500	288.984	80.005	19.995	103.326	19.591	33.484	0.529
429.000	289.234	80.005	19.995	103.321	19.596	33.194	0.549
429.500	289.541	80.007	19.994	103.318	19.598	33.040	0.557
430.000	289.828	80.005	19.994	103.317	19.602	32.814	0.575
430.500	290.089	80.004	19.994	103.313	19.604	32.637	0.571
431.000	290.381	80.002	19.995	103.312	19.608	32.412	0.550
431.500	290.669	80.003	19.994	103.315	19.610	32.248	0.566
432.000	290.935	80.005	19.995	103.316	19.616	31.866	0.567
432.500	291.210	80.005	19.995	103.317	19.616	31.857	0.548
433.000	291.503	80.004	19.995	103.317	19.624	31.369	0.555
433.500	291.778	80.004	19.996	103.314	19.624	31.326	0.569
434.000	292.067	80.005	19.995	103.310	19.625	31.257	0.566
434.500	292.343	80.004	19.996	103.307	19.627	31.157	0.564
435.000	292.613	80.003	19.993	103.309	19.632	30.839	0.555
435.500	292.887	80.006	19.994	103.310	19.631	30.880	0.545
436.000	293.154	80.004	19.994	103.311	19.636	30.563	0.542
436.500	293.430	80.002	19.995	103.312	19.635	30.610	0.542
437.000	293.721	80.003	19.994	103.314	19.637	30.460	0.556
437.500	293.984	80.004	19.995	103.314	19.644	30.025	0.561
438.000	294.272	80.004	19.994	103.311	19.645	29.959	0.553
438.500	294.538	80.002	19.994	103.310	19.647	29.807	0.552
439.000	294.828	80.004	19.995	103.308	19.645	29.986	0.554
439.500	295.061	80.004	19.995	103.307	19.654	29.369	0.540
440.000	295.352	80.003	19.995	103.305	19.654	29.361	0.524
440.500	295.644	80.002	19.995	103.303	19.657	29.182	0.554
441.000	295.929	80.004	19.995	103.303	19.656	29.230	0.580
441.500	296.183	80.004	19.995	103.303	19.655	29.311	0.558
442.000	296.458	80.005	19.995	103.302	19.658	29.109	0.534
442.500	296.738	80.004	19.994	103.300	19.662	28.813	0.542
443.000	297.014	80.004	19.995	103.300	19.662	28.822	0.555
443.500	297.292	80.005	19.995	103.300	19.661	28.925	0.555
444.000	297.564	80.004	19.995	103.300	19.667	28.492	0.552
444.500	297.802	80.005	19.995	103.301	19.668	28.419	0.530
445.000	298.083	80.006	19.995	103.302	19.666	28.611	0.515
445.500	298.355	80.005	19.994	103.302	19.663	28.786	0.536
446.000	298.640	80.006	19.994	103.302	19.665	28.630	0.555
446.500	298.913	80.005	19.995	103.302	19.664	28.718	0.557
447.000	299.174	80.006	19.995	103.302	19.663	28.743	0.546
447.500	299.445	80.004	19.994	103.302	19.667	28.508	0.533
448.000	299.699	80.005	19.995	103.302	19.663	28.807	0.528
448.500	300.007	80.006	19.994	103.302	19.666	28.561	0.543
449.000	300.257	80.005	19.995	103.302	19.667	28.505	0.560
449.500	300.532	80.006	19.995	103.302	19.665	28.662	0.542
450.000	300.835	80.005	19.994	103.301	19.667	28.491	0.552
450.500	301.088	80.005	19.994	103.300	19.669	28.389	0.567
451.000	301.336	80.006	19.994	103.299	19.667	28.517	0.528
451.500	301.624	80.005	19.994	103.299	19.669	28.369	0.519
452.000	301.863	80.008	19.995	103.298	19.668	28.453	0.532
452.500	302.194	80.006	19.995	103.298	19.670	28.338	0.549
453.000	302.471	80.007	19.993	103.297	19.666	28.610	0.589
453.500	302.719	80.007	19.994	103.295	19.670	28.336	0.566
454.000	302.999	80.007	19.994	103.294	19.667	28.514	0.526
454.500	303.282	80.007	19.994	103.292	19.672	28.191	0.545
455.000	303.542	80.005	19.993	103.292	19.675	28.014	0.553
455.500	303.798	80.007	19.994	103.292	19.673	28.113	0.530
456.000	304.081	80.005	19.994	103.293	19.672	28.201	0.528
456.500	304.315	80.006	19.994	103.292	19.669	28.392	0.528
457.000	304.616	80.006	19.994	103.293	19.673	28.127	0.526
457.500	304.876	80.005	19.993	103.293	19.670	28.285	0.548
458.000	305.129	80.006	19.995	103.295	19.672	28.161	0.537
458.500	305.403	80.006	19.995	103.298	19.674	28.084	0.520
459.000	305.681	80.006	19.994	103.299	19.669	28.367	0.539
459.500	305.926	80.004	19.993	103.300	19.668	28.445	0.537
460.000	306.208	80.007	19.994	103.300	19.672	28.163	0.525
460.500	306.436	80.005	19.994	103.299	19.674	28.081	0.518
461.000	306.718	80.005	19.994	103.298	19.674	28.056	0.510
461.500	307.038	80.006	19.993	103.298	19.675	28.013	0.556
462.000	307.262	80.005	19.994	103.299	19.671	28.227	0.573
462.500	307.540	80.006	19.993	103.297	19.671	28.226	0.522
463.000	307.772	80.006	19.995	103.298	19.674	28.034	0.506
463.500	308.051	80.006	19.996	103.296	19.676	27.896	0.511
464.000	308.307	80.006	19.994	103.296	19.678	27.819	0.523
464.500	308.616	80.007	19.994	103.295	19.677	27.844	0.550
465.000	308.875	80.006	19.995	103.294	19.674	28.059	0.566
465.500	309.117	80.005	19.995	103.288	19.675	28.009	0.534
466.000	309.381	80.005	19.995	103.287	19.680	27.679	0.504
466.500	309.650	80.006	19.994	103.285	19.675	27.989	0.520
467.000	309.946	80.004	19.993	103.286	19.680	27.656	0.549
467.500	310.184	80.006	19.995	103.284	19.678	27.781	0.550
468.000	310.462	80.006	19.993	103.291	19.678	27.785	0.525
468.500	310.729	80.006	19.995	103.293	19.676	27.934	0.531
469.000	311.018	80.005	19.996	103.295	19.681	27.606	0.550
469.500	311.279	80.006	19.995	103.295	19.678	27.758	0.553
470.000	311.519	80.005	19.995	103.296	19.680	27.686	0.525
470.500	311.798	80.006	19.994	103.296	19.681	27.577	0.510
471.000	312.039	80.006	19.994	103.296	19.680	27.667	0.520
471.500	312.346	80.006	19.994	103.292	19.682	27.521	0.534
472.000	312.626	80.008	19.995	103.289	19.681	27.613	0.567
472.500	312.853	80.007	19.995	103.290	19.680	27.655	0.547
473.000	313.130	80.008	19.994	103.290	19.677	27.849	0.506
473.500	313.407	80.007	19.993	103.290	19.680	27.633	0.529
474.000	313.616	80.008	19.995	103.290	19.679	27.719	0.520
474.500	313.908	80.007	19.996	103.286	19.680	27.657	0.494
475.000	314.170	80.007	19.995	103.280	19.678	27.761	0.528
475.500	314.434	80.008	19.994	103.275	19.685	27.351	0.540
476.000	314.695	80.007	19.994	103.270	19.684	27.413	0.525
476.500	314.953	80.008	19.994	103.268	19.682	27.551	0.522
477.000	315.189	80.009	19.995	103.270	19.677	27.833	0.506
477.500	315.479	80.008	19.997	103.276	19.686	27.252	0.509
478.000	315.733	80.008	19.995	103.273	19.683	27.449	0.535
478.500	316.009	80.008	19.996	103.271	19.678	27.763	0.537
479.000	316.244	80.006	19.995	103.272	19.683	27.449	0.521
479.500	316.528	80.007	19.996	103.276	19.685	27.340	0.515
480.000	316.746	80.008	19.995	103.274	19.682	27.543	0.511
480.500	317.020	80.008	19.995	103.278	19.680	27.685	0.497
481.000	317.297	80.006	19.995	103.283	19.685	27.302	0.521
481.500	317.562	80.007	19.994	103.286	19.686	27.245	0.547
482.000	317.781	80.006	19.995	103.281	19.684	27.403	0.513
482.500	318.108	80.007	19.995	103.281	19.680	27.651	0.515
483.000	318.386	80.008	19.996	103.278	19.685	27.339	0.575
483.500	318.627	80.006	19.996	103.274	19.685	27.329	0.562
484.000	318.843	80.006	19.996	103.271	19.689	27.037	0.488
484.500	319.124	80.007	19.997	103.275	19.687	27.209	0.477
485.000	319.387	80.005	19.995	103.279	19.692	26.896	0.521
485.500	319.639	80.006	19.995	103.282	19.685	27.310	0.530
486.000	319.912	80.004	19.996	103.285	19.690	26.993	0.520
486.500	320.146	80.006	19.995	103.286	19.687	27.181	0.516
487.000	320.420	80.004	19.995	103.287	19.686	27.254	0.508
487.500	320.660	80.005	19.995	103.287	19.683	27.492	0.511
488.000	320.884	80.005	19.996	103.286	19.688	27.158	0.489
488.500	321.183	80.005	19.996	103.284	19.685	27.326	0.494
489.000	321.417	80.005	19.994	103.281	19.685	27.321	0.528
489.500	321.708	80.005	19.997	103.277	19.685	27.329	0.529
490.000	321.953	80.005	19.995	103.274	19.681	27.620	0.530
490.500	322.211	80.005	19.996	103.275	19.686	27.235	0.519
491.000	322.481	80.003	19.995	103.277	19.682	27.507	0.516
491.500	322.749	80.003	19.996	103.280	19.694	26.704	0.533
492.000	323.002	80.004	19.996	103.283	19.697	26.569	0.529
492.500	323.226	80.004	19.995	103.285	19.694	26.714	0.499
493.000	323.475	80.005	19.995	103.283	19.697	26.559	0.475
493.500	323.710	80.005	19.996	103.280	19.691	26.936	0.479
494.000	323.977	80.004	19.994	103.278	19.687	27.170	0.493
494.500	324.252	80.005	19.995	103.273	19.698	26.461	0.522
495.000	324.513	80.004	19.996	103.269	19.694	26.768	0.539
495.500	324.805	80.005	19.996	103.272	19.694	26.739	0.544
496.000	325.027	80.005	19.995	103.278	19.693	26.822	0.534
496.500	325.247	80.005	19.996	103.281	19.693	26.803	0.479
497.000	325.551	80.004	19.995	103.286	19.696	26.635	0.483
497.500	325.776	80.004	19.996	103.293	19.688	27.099	0.526
498.000	326.092	80.005	19.996	103.291	19.699	26.415	0.535
498.500	326.296	80.004	19.995	103.293	19.699	26.375	0.530
499.000	326.595	80.006	19.997	103.295	19.699	26.426	0.512
499.500	326.752	80.004	19.995	103.295	19.698	26.494	0.480
500.000	327.124	80.004	19.996	103.290	19.700	26.368	0.492
500.500	327.327	80.003	19.996	103.287	19.697	26.529	0.552
501.000	327.444	80.004	19.996	103.279	19.703	26.139	0.448
501.500	327.808	80.003	19.996	103.274	19.701	26.253	0.400
502.000	328.079	80.003	19.997	103.270	19.701	26.264	0.558
502.500	328.320	80.005	19.996	103.275	19.706	25.957	0.573
503.000	328.494	80.004	19.995	103.283	19.705	25.996	0.463
503.500	329.022	80.005	19.996	103.284	19.707	25.859	0.558
504.000	328.855	80.004	19.996	103.282	19.706	25.967	0.532
504.500	329.381	80.003	19.996	103.280	19.705	25.998	0.360
505.000	329.604	80.004	19.996	103.280	19.705	26.000	0.554
505.500	329.966	80.003	19.996	103.273	19.705	25.991	0.667
506.000	330.019	80.005	19.997	103.274	19.707	25.896	0.500
506.500	330.326	80.003	19.996	103.278	19.709	25.744	0.388
507.000	330.763	80.004	19.996	103.281	19.710	25.680	0.552
507.500	331.072	80.004	19.996	103.277	19.710	25.664	0.745
508.000	330.880	80.003	19.996	103.276	19.711	25.593	0.431
508.500	331.457	80.003	19.996	103.273	19.712	25.562	0.251
509.000	331.505	80.004	19.995	103.270	19.712	25.581	0.505
509.500	331.830	80.003	19.996	103.267	19.714	25.414	0.499
510.000	332.106	80.004	19.995	103.272	19.716	25.304	0.487
510.500	332.490	80.003	19.994	103.277	19.717	25.262	0.631
511.000	332.551	80.004	19.995	103.280	19.718	25.155	0.552
511.500	332.724	80.004	19.996	103.281	19.717	25.223	0.339
512.000	333.160	80.005	19.996	103.281	19.718	25.175	0.422
512.500	333.325	80.005	19.996	103.279	19.722	24.922	0.605
513.000	333.666	80.003	19.994	103.281	19.722	24.896	0.553
513.500	333.912	80.004	19.996	103.280	19.720	25.023	0.546
514.000	334.023	80.004	19.995	103.281	19.721	24.978	0.472
514.500	334.369	80.003	19.995	103.282	19.721	24.963	0.407
515.000	334.598	80.005	19.996	103.284	19.725	24.704	0.516
515.500	334.875	80.005	19.995	103.279	19.725	24.710	0.540
516.000	335.091	80.004	19.995	103.283	19.723	24.821	0.500
516.500	335.397	80.003	19.995	103.287	19.726	24.625	0.507
517.000	335.594	80.005	19.995	103.287	19.731	24.297	0.513
517.500	335.899	80.004	19.994	103.281	19.729	24.453	0.503
518.000	336.080	80.003	19.995	103.282	19.729	24.427	0.494
518.500	336.338	80.004	19.995	103.283	19.728	24.481	0.462
519.000	336.615	80.004	19.995	103.277	19.733	24.164	0.487
519.500	336.858	80.004	19.994	103.279	19.733	24.188	0.528
520.000	337.094	80.003	19.995	103.285	19.731	24.321	0.499
520.500	337.388	80.003	19.995	103.288	19.733	24.196	0.505
521.000	337.566	80.003	19.995	103.285	19.730	24.397	0.501
521.500	337.860	80.003	19.995	103.290	19.735	24.036	0.472
522.000	338.112	80.003	19.994	103.291	19.739	23.786	0.509
522.500	338.349	80.003	19.994	103.291	19.736	24.002	0.517
523.000	338.583	80.004	19.995	103.292	19.735	24.018	0.480
523.500	338.819	80.003	19.995	103.295	19.734	24.099	0.471
524.000	339.091	80.003	19.995	103.296	19.737	23.914	0.489
524.500	339.324	80.004	19.995	103.298	19.738	23.876	0.506
525.000	339.610	80.004	19.995	103.298	19.735	24.026	0.512
525.500	339.795	80.004	19.996	103.296	19.738	23.835	0.495
526.000	340.102	80.004	19.995	103.294	19.737	23.895	0.481
526.500	340.335	80.004	19.996	103.291	19.740	23.738	0.516
527.000	340.627	80.006	19.995	103.286	19.738	23.840	0.533
527.500	340.847	80.005	19.995	103.279	19.734	24.124	0.518
528.000	341.062	80.005	19.996	103.274	19.738	23.832	0.473
528.500	341.290	80.006	19.995	103.271	19.745	23.401	0.439
529.000	341.580	80.004	19.995	103.267	19.739	23.762	0.480
529.500	341.821	80.006	19.994	103.267	19.737	23.896	0.524
530.000	342.069	80.006	19.996	103.266	19.743	23.507	0.510
530.500	342.319	80.005	19.994	103.265	19.746	23.291	0.493
531.000	342.554	80.005	19.995	103.263	19.744	23.448	0.492
531.500	342.827	80.005	19.996	103.262	19.744	23.460	0.497
532.000	343.054	80.006	19.995	103.259	19.743	23.523	0.504
532.500	343.275	80.006	19.995	103.259	19.746	23.347	0.474
533.000	343.608	80.006	19.994	103.258	19.748	23.195	0.501
533.500	343.786	80.005	19.995	103.259	19.743	23.533	0.532
534.000	344.034	80.006	19.995	103.259	19.747	23.257	0.468
534.500	344.271	80.006	19.994	103.261	19.745	23.404	0.456
535.000	344.543	80.006	19.995	103.264	19.747	23.234	0.497
535.500	344.820	80.007	19.995	103.264	19.744	23.431	0.529
536.000	345.020	80.007	19.995	103.263	19.749	23.101	0.513
536.500	345.272	80.006	19.995	103.264	19.746	23.292	0.464
537.000	345.559	80.007	19.995	103.262	19.745	23.388	0.495
537.500	345.797	80.006	19.994	103.260	19.745	23.379	0.532
538.000	346.048	80.006	19.995	103.261	19.747	23.274	0.507
538.500	346.300	80.006	19.994	103.260	19.741	23.624	0.496
539.000	346.507	80.005	19.994	103.259	19.746	23.334	0.481
539.500	346.786	80.006	19.996	103.258	19.745	23.396	0.472
540.000	347.005	80.006	19.995	103.258	19.743	23.491	0.492
540.500	347.292	80.007	19.996	103.258	19.745	23.383	0.502
541.000	347.532	80.006	19.995	103.259	19.745	23.410	0.516
541.500	347.742	80.004	19.995	103.259	19.742	23.586	0.488
542.000	348.022	80.005	19.996	103.259	19.746	23.336	0.470
542.500	348.251	80.006	19.995	103.258	19.740	23.736	0.500
543.000	348.538	80.005	19.996	103.258	19.741	23.621	0.513
543.500	348.761	80.006	19.995	103.256	19.742	23.575	0.513
544.000	348.982	80.005	19.995	103.254	19.741	23.651	0.477
544.500	349.271	80.005	19.995	103.254	19.743	23.524	0.477
545.000	349.516	80.005	19.995	103.253	19.745	23.408	0.522
545.500	349.737	80.006	19.995	103.253	19.739	23.766	0.500
546.000	350.004	80.006	19.995	103.253	19.736	23.999	0.477
546.500	350.273	80.005	19.996	103.256	19.736	23.976	0.512
547.000	350.530	80.006	19.994	103.257	19.735	24.051	0.531
547.500	350.739	80.007	19.996	103.258	19.735	24.031	0.496
548.000	351.056	80.005	19.995	103.256	19.732	24.254	0.496
548.500	351.281	80.006	19.994	103.255	19.730	24.339	0.535
549.000	351.540	80.005	19.995	103.255	19.733	24.203	0.513
549.500	351.757	80.005	19.995	103.255	19.732	24.242	0.480
550.000	352.063	80.005	19.996	103.254	19.728	24.499	0.500
550.500	352.298	80.006	19.995	103.256	19.726	24.622	0.532
551.000	352.481	80.004	19.995	103.257	19.724	24.734	0.479
551.500	352.761	80.005	19.994	103.258	19.725	24.722	0.440
552.000	353.034	80.006	19.996	103.255	19.720	25.021	0.508
552.500	353.268	80.007	19.995	103.251	19.719	25.110	0.530
553.000	353.548	80.008	19.994	103.246	19.716	25.293	0.511
553.500	353.801	80.006	19.994	103.245	19.719	25.118	0.524
554.000	354.082	80.006	19.995	103.244	19.712	25.514	0.534
554.500	354.293	80.007	19.995	103.246	19.710	25.690	0.513
555.000	354.550	80.006	19.995	103.250	19.707	25.900	0.480
555.500	354.797	80.006	19.995	103.254	19.706	25.960	0.486
556.000	355.058	80.007	19.994	103.255	19.702	26.231	0.506
556.500	355.280	80.007	19.993	103.250	19.696	26.581	0.496
557.000	355.554	80.007	19.993	103.246	19.696	26.630	0.490
557.500	355.825	80.008	19.994	103.247	19.688	27.096	0.521
558.000	356.064	80.007	19.994	103.246	19.691	26.916	0.527
558.500	356.312	80.007	19.994	103.246	19.684	27.385	0.498
559.000	356.572	80.009	19.994	103.252	19.682	27.506	0.497
559.500	356.813	80.008	19.993	103.255	19.678	27.771	0.504
560.000	357.088	80.009	19.994	103.253	19.676	27.891	0.509
560.500	357.336	80.008	19.993	103.254	19.670	28.280	0.520
561.000	357.549	80.006	19.993	103.254	19.670	28.332	0.492
561.500	357.782	80.007	19.993	103.252	19.666	28.547	0.454
562.000	358.077	80.008	19.993	103.247	19.664	28.713	0.487
562.500	358.351	80.008	19.994	103.242	19.661	28.882	0.549
563.000	358.596	80.007	19.995	103.239	19.654	29.361	0.544
563.500	358.835	80.007	19.995	103.237	19.651	29.524	0.501
564.000	359.110	80.007	19.994	103.234	19.644	29.981	0.499
564.500	359.357	80.007	19.994	103.234	19.641	30.186	0.518
565.000	359.620	80.007	19.994	103.240	19.642	30.176	0.516
565.500	359.834	80.006	19.995	103.243	19.637	30.464	0.494
566.000	360.099	80.004	19.995	103.247	19.633	30.742	0.478
566.500	360.347	80.005	19.995	103.251	19.629	31.017	0.496
567.000	360.605	80.006	19.995	103.255	19.623	31.410	0.510
567.500	360.854	80.006	19.995	103.256	19.623	31.408	0.507
568.000	361.095	80.003	19.994	103.251	19.611	32.159	0.498
568.500	361.368	80.004	19.995	103.249	19.612	32.102	0.501
569.000	361.598	80.004	19.995	103.252	19.605	32.543	0.508
569.500	361.887	80.005	19.994	103.253	19.603	32.706	0.511
570.000	362.102	80.003	19.995	103.253	19.600	32.872	0.512
570.500	362.353	80.005	19.994	103.256	19.594	33.267	0.485
571.000	362.577	80.004	19.996	103.256	19.588	33.712	0.471
571.500	362.843	80.004	19.994	103.255	19.584	33.966	0.483
572.000	363.112	80.004	19.995	103.253	19.579	34.298	0.512
572.500	363.328	80.003	19.995	103.250	19.571	34.831	0.510
573.000	363.594	80.005	19.995	103.248	19.566	35.108	0.483
573.500	363.873	80.004	19.994	103.248	19.563	35.338	0.513
574.000	364.084	80.003	19.996	103.249	19.558	35.638	0.518
574.500	364.365	80.004	19.995	103.251	19.546	36.427	0.491
575.000	364.613	80.004	19.996	103.254	19.541	36.758	0.510
575.500	364.857	80.003	19.995	103.259	19.538	36.987	0.511
576.000	365.124	80.005	19.995	103.262	19.531	37.451	0.502
576.500	365.354	80.005	19.995	103.261	19.527	37.721	0.504
577.000	365.616	80.004	19.996	103.261	19.521	38.089	0.494
577.500	365.836	80.004	19.994	103.260	19.512	38.646	0.487
578.000	366.090	80.004	19.995	103.259	19.507	38.993	0.478
578.500	366.344	80.003	19.993	103.259	19.503	39.266	0.491
579.000	366.632	80.005	19.996	103.259	19.495	39.792	0.525
579.500	366.877	80.004	19.995	103.259	19.489	40.178	0.538
580.000	367.120	80.004	19.995	103.260	19.483	40.584	0.510
580.500	367.390	80.006	19.995	103.260	19.479	40.835	0.501
581.000	367.627	80.004	19.995	103.260	19.471	41.348	0.510
581.500	367.859	80.005	19.995	103.261	19.466	41.719	0.488
582.000	368.209	80.007	19.994	103.256	19.457	42.257	0.525
582.500	368.383	80.005	19.995	103.255	19.453	42.518	0.553
583.000	368.666	80.006	19.995	103.256	19.442	43.279	0.491
583.500	368.918	80.005	19.995	103.256	19.432	43.923	0.496
584.000	369.156	80.005	19.994	103.257	19.428	44.196	0.512
584.500	369.385	80.003	19.995	103.261	19.419	44.764	0.478
585.000	369.673	80.006	19.996	103.264	19.410	45.384	0.492
585.500	369.881	80.006	19.994	103.264	19.405	45.679	0.507
586.000	370.127	80.004	19.995	103.264	19.394	46.405	0.475
586.500	370.419	80.006	19.994	103.264	19.389	46.726	0.496
587.000	370.670	80.006	19.994	103.264	19.381	47.266	0.541
587.500	370.906	80.008	19.995	103.264	19.376	47.593	0.515
588.000	371.157	80.006	19.996	103.263	19.367	48.185	0.486
588.500	371.403	80.004	19.995	103.262	19.358	48.771	0.492
589.000	371.679	80.005	19.995	103.262	19.349	49.371	0.510
589.500	371.938	80.004	19.995	103.263	19.340	49.938	0.529
590.000	372.162	80.004	19.996	103.263	19.328	50.736	0.509
590.500	372.443	80.006	19.995	103.263	19.322	51.157	0.495
591.000	372.678	80.006	19.995	103.264	19.316	51.532	0.510
591.500	372.929	80.007	19.995	103.264	19.304	52.308	0.501
592.000	373.171	80.005	19.994	103.262	19.295	52.913	0.489
592.500	373.459	80.007	19.997	103.262	19.289	53.295	0.511
593.000	373.691	80.005	19.995	103.261	19.275	54.261	0.525
593.500	373.912	80.005	19.995	103.262	19.268	54.695	0.487
594.000	374.169	80.003	19.994	103.265	19.257	55.411	0.466
594.500	374.485	80.004	19.996	103.268	19.248	56.026	0.526
595.000	374.696	80.002	19.996	103.270	19.232	57.081	0.551
595.500	374.962	80.004	19.996	103.270	19.223	57.678	0.502
596.000	375.203	80.005	19.995	103.270	19.214	58.250	0.492
596.500	375.436	80.003	19.996	103.267	19.198	59.319	0.491
597.000	375.699	80.004	19.995	103.268	19.192	59.707	0.485
597.500	375.926	80.000	19.995	103.269	19.178	60.623	0.493
598.000	376.205	80.007	19.994	103.270	19.172	60.973	0.498
598.500	376.413	80.003	19.997	103.271	19.158	61.924	0.496
599.000	376.720	80.005	19.996	103.273	19.146	62.721	0.501
599.500	376.925	80.004	19.996	103.268	19.131	63.657	0.513
600.000	377.169	80.005	19.995	103.266	19.122	64.305	0.480
600.500	377.440	80.003	19.996	103.269	19.111	65.004	0.482
601.000	377.677	80.004	19.996	103.267	19.099	65.824	0.512
601.500	377.927	80.005	19.996	103.265	19.089	66.430	0.498
602.000	378.173	80.005	19.995	103.267	19.075	67.386	0.491
602.500	378.427	80.003	19.996	103.266	19.063	68.147	0.497
603.000	378.690	80.005	19.996	103.267	19.050	68.988	0.508
603.500	378.938	80.002	19.996	103.273	19.041	69.610	0.514
604.000	379.184	80.003	19.996	103.278	19.027	70.550	0.503
604.500	379.459	80.002	19.996	103.278	19.012	71.479	0.508
605.000	379.705	80.004	19.996	103.284	19.000	72.315	0.521
605.500	379.912	80.003	19.996	103.288	18.989	73.012	0.487
606.000	380.228	80.004	19.995	103.289	18.972	74.129	0.488
606.500	380.456	80.007	19.997	103.289	18.957	75.141	0.533
607.000	380.741	80.004	19.995	103.292	18.944	75.991	0.528
607.500	380.968	80.005	19.996	103.290	18.926	77.128	0.512
608.000	381.180	80.004	19.996	103.286	18.918	77.683	0.476
608.500	381.457	80.004	19.995	103.282	18.899	78.905	0.464
609.000	381.677	80.005	19.995	103.280	18.882	80.030	0.493
609.500	381.962	80.005	19.996	103.282	18.872	80.691	0.501
610.000	382.190	80.003	19.996	103.284	18.856	81.710	0.509
610.500	382.423	80.005	19.995	103.287	18.843	82.572	0.487
611.000	382.717	80.005	19.996	103.290	18.827	83.658	0.494
611.500	382.945	80.007	19.994	103.291	18.817	84.301	0.524
612.000	383.230	80.004	19.995	103.290	18.802	85.305	0.518
612.500	383.454	80.007	19.995	103.291	18.784	86.481	0.511
613.000	383.686	80.007	19.995	103.289	18.771	87.347	0.483
613.500	383.954	80.007	19.993	103.289	18.751	88.603	0.478
614.000	384.144	80.004	19.995	103.291	18.741	89.288	0.479
614.500	384.409	80.006	19.994	103.293	18.723	90.458	0.456
615.000	384.734	80.007	19.994	103.293	18.706	91.616	0.522
615.500	384.948	80.006	19.996	103.295	18.691	92.586	0.564
616.000	385.193	80.007	19.994	103.296	18.674	93.664	0.499
616.500	385.462	80.007	19.994	103.295	18.658	94.769	0.487
617.000	385.693	80.005	19.994	103.294	18.640	95.951	0.508
617.500	385.963	80.007	19.995	103.295	18.622	97.071	0.501
618.000	386.233	80.007	19.994	103.296	18.612	97.771	0.520
618.500	386.439	80.007	19.996	103.296	18.596	98.816	0.508
619.000	386.693	80.005	19.994	103.297	18.577	100.031	0.468
619.500	386.974	80.007	19.996	103.297	18.564	100.880	0.497
620.000	387.208	80.006	19.996	103.293	18.547	101.996	0.525
620.500	387.476	80.007	19.995	103.287	18.534	102.864	0.508
621.000	387.716	80.007	19.995	103.282	18.513	104.230	0.505
621.500	387.955	80.005	19.994	103.282	18.499	105.185	0.493
622.000	388.216	80.006	19.995	103.282	18.480	106.422	0.489
622.500	388.466	80.006	19.995	103.283	18.462	107.574	0.506
623.000	388.687	80.005	19.993	103.287	18.447	108.552	0.491
623.500	388.930	80.006	19.995	103.292	18.432	109.556	0.468
624.000	389.166	80.005	19.994	103.292	18.420	110.342	0.472
624.500	389.478	80.005	19.994	103.292	18.396	111.884	0.513
625.000	389.677	80.006	19.995	103.295	18.382	112.794	0.529
625.500	389.969	80.004	19.995	103.295	18.367	113.808	0.501
626.000	390.212	80.005	19.995	103.297	18.355	114.624	0.513
626.500	390.469	80.005	19.994	103.296	18.333	116.049	0.517
627.000	390.747	80.005	19.995	103.293	18.318	116.992	0.517
627.500	390.969	80.003	19.994	103.293	18.301	118.130	0.517
628.000	391.208	80.004	19.995	103.294	18.286	119.114	0.481
628.500	391.459	80.006	19.994	103.289	18.269	120.266	0.476
629.000	391.711	80.004	19.994	103.283	18.254	121.198	0.497
629.500	391.984	80.005	19.995	103.282	18.236	122.382	0.514
630.000	392.210	80.005	19.994	103.277	18.223	123.263	0.512
630.500	392.471	80.003	19.994	103.269	18.208	124.228	0.493
631.000	392.702	80.005	19.994	103.267	18.193	125.197	0.489
631.500	392.975	80.005	19.995	103.268	18.174	126.462	0.498
632.000	393.239	80.004	19.995	103.271	18.157	127.591	0.521
632.500	393.479	80.006	19.995	103.273	18.144	128.409	0.521
633.000	393.764	80.006	19.995	103.273	18.133	129.184	0.514
633.500	394.002	80.006	19.996	103.272	18.118	130.110	0.524
634.000	394.271	80.005	19.994	103.271	18.108	130.800	0.515
634.500	394.503	80.005	19.994	103.266	18.093	131.755	0.504
635.000	394.764	80.007	19.994	103.262	18.074	133.040	0.497
635.500	395.019	80.005	19.995	103.263	18.066	133.512	0.505
636.000	395.265	80.006	19.995	103.263	18.048	134.684	0.508
636.500	395.517	80.007	19.995	103.264	18.037	135.397	0.500
637.000	395.757	80.006	19.995	103.264	18.024	136.296	0.495
637.500	396.028	80.005	19.995	103.264	18.017	136.725	0.502
638.000	396.293	80.008	19.995	103.265	18.003	137.635	0.523
638.500	396.566	80.006	19.995	103.265	17.986	138.730	0.537
639.000	396.791	80.006	19.996	103.266	17.978	139.289	0.518
639.500	397.055	80.008	19.994	103.266	17.968	139.934	0.494
640.000	397.291	80.008	19.995	103.265	17.956	140.712	0.495
640.500	397.500	80.008	19.995	103.263	17.944	141.519	0.472
641.000	397.780	80.006	19.994	103.262	17.930	142.395	0.467
641.500	398.027	80.006	19.993	103.260	17.919	143.133	0.508
642.000	398.272	80.007	19.994	103.260	17.913	143.517	0.509
642.500	398.509	80.006	19.993	103.261	17.902	144.273	0.486
643.000	398.748	80.008	19.995	103.260	17.889	145.086	0.479
643.500	398.989	80.008	19.996	103.260	17.882	145.547	0.479
644.000	399.239	80.009	19.995	103.260	17.874	146.107	0.486
644.500	399.510	80.006	19.994	103.259	17.864	146.762	0.506
645.000	399.778	80.007	19.995	103.255	17.855	147.309	0.530
645.500	399.993	80.006	19.993	103.251	17.848	147.814	0.511
646.000	400.270	80.009	19.993	103.247	17.845	147.975	0.488
646.500	400.479	80.007	19.995	103.241	17.834	148.674	0.489
647.000	400.754	80.008	19.995	103.235	17.830	148.961	0.485
647.500	400.972	80.007	19.993	103.231	17.828	149.097	0.488
648.000	401.262	80.006	19.993	103.228	17.815	149.928	0.500
648.500	401.498	80.006	19.995	103.225	17.811	150.219	0.517
649.000	401.790	80.007	19.993	103.223	17.811	150.208	0.527
649.500	402.023	80.007	19.995	103.223	17.803	150.682	0.527
650.000	402.279	80.006	19.993	103.223	17.798	151.045	0.507
650.500	402.550	80.005	19.993	103.223	17.798	151.017	0.508
651.000	402.786	80.005	19.992	103.222	17.796	151.132	0.517
651.500	403.047	80.006	19.995	103.222	17.791	151.496	0.502
652.000	403.271	80.005	19.995	103.223	17.788	151.710	0.490
652.500	403.566	80.004	19.993	103.222	17.786	151.818	0.502
653.000	403.799	80.005	19.995	103.218	17.785	151.892	0.524
653.500	404.084	80.005	19.994	103.217	17.782	152.073	0.524
654.000	404.317	80.005	19.994	103.213	17.783	151.979	0.518
654.500	404.564	80.004	19.994	103.210	17.783	152.034	0.499
655.000	404.811	80.004	19.994	103.210	17.787	151.770	0.487
655.500	405.067	80.004	19.993	103.210	17.786	151.814	0.498
656.000	405.279	80.004	19.995	103.208	17.788	151.661	0.486
656.500	405.548	80.004	19.995	103.208	17.792	151.415	0.475
657.000	405.801	80.004	19.994	103.203	17.800	150.920	0.501
657.500	406.080	80.002	19.995	103.201	17.799	150.944	0.527
658.000	406.318	80.006	19.996	103.204	17.802	150.749	0.524
658.500	406.572	80.003	19.995	103.202	17.806	150.491	0.505
659.000	406.811	80.005	19.995	103.200	17.810	150.222	0.492
659.500	407.073	80.004	19.994	103.201	17.819	149.632	0.497
660.000	407.355	80.004	19.995	103.197	17.824	149.285	0.523
660.500	407.597	80.004	19.994	103.191	17.830	148.925	0.534
661.000	407.809	80.003	19.996	103.189	17.834	148.672	0.489
661.500	408.080	80.006	19.995	103.189	17.843	148.043	0.469
662.000	408.305	80.005	19.995	103.188	17.847	147.779	0.489
662.500	408.579	80.004	19.995	103.187	17.857	147.149	0.498
663.000	408.852	80.003	19.995	103.185	17.864	146.713	0.523
663.500	409.057	80.005	19.996	103.185	17.877	145.853	0.513
664.000	409.346	80.003	19.995	103.184	17.880	145.641	0.486
664.500	409.595	80.005	19.996	103.183	17.892	144.870	0.516
665.000	409.837	80.004	19.996	103.182	17.901	144.275	0.514
665.500	410.102	80.004	19.995	103.185	17.914	143.391	0.499
666.000	410.339	80.003	19.995	103.184	17.927	142.534	0.505
666.500	410.586	80.002	19.995	103.184	17.934	142.067	0.493
667.000	410.806	80.004	19.995	103.184	17.945	141.321	0.476
667.500	411.053	80.004	19.994	103.184	17.956	140.606	0.467
668.000	411.340	80.005	19.995	103.181	17.972	139.602	0.500
668.500	411.613	80.004	19.995	103.180	17.981	138.990	0.547
669.000	411.853	80.006	19.995	103.180	17.993	138.228	0.537
669.500	412.080	80.006	19.996	103.180	18.004	137.493	0.490
670.000	412.383	80.005	19.994	103.178	18.019	136.495	0.499
670.500	412.619	80.005	19.995	103.174	18.034	135.504	0.534
671.000	412.902	80.006	19.996	103.173	18.048	134.612	0.529
671.500	413.132	80.005	19.995	103.171	18.065	133.477	0.516
672.000	413.371	80.006	19.995	103.167	18.075	132.852	0.491
672.500	413.620	80.003	19.995	103.168	18.093	131.669	0.479
673.000	413.891	80.004	19.995	103.171	18.105	130.886	0.504
673.500	414.168	80.006	19.995	103.172	18.121	129.824	0.534
674.000	414.363	80.006	19.996	103.175	18.137	128.762	0.510
674.500	414.650	80.004	19.995	103.176	18.156	127.541	0.477
675.000	414.860	80.003	19.995	103.178	18.165	126.946	0.489
675.500	415.109	80.007	19.995	103.178	18.186	125.543	0.478
676.000	415.379	80.005	19.995	103.175	18.201	124.596	0.489
676.500	415.608	80.006	19.995	103.168	18.216	123.614	0.509
677.000	415.882	80.007	19.994	103.163	18.238	122.185	0.501
677.500	416.146	80.007	19.995	103.161	18.257	120.938	0.520
678.000	416.406	80.004	19.995	103.157	18.277	119.649	0.531
678.500	416.639	80.005	19.995	103.157	18.292	118.611	0.508
679.000	416.870	80.006	19.994	103.161	18.313	117.231	0.478
679.500	417.133	80.005	19.995	103.164	18.325	116.459	0.479
680.000	417.392	80.006	19.995	103.161	18.346	115.080	0.508
680.500	417.669	80.004	19.996	103.164	18.363	113.982	0.529
681.000	417.877	80.006	19.996	103.164	18.380	112.870	0.510
681.500	418.162	80.004	19.996	103.162	18.396	111.789	0.489
682.000	418.395	80.002	19.994	103.163	18.415	110.562	0.506
682.500	418.662	80.006	19.994	103.165	18.436	109.200	0.509
683.000	418.876	80.008	19.994	103.162	18.454	108.006	0.491
683.500	419.146	80.004	19.994	103.160	18.474	106.672	0.483
684.000	419.403	80.004	19.995	103.160	18.492	105.511	0.505
684.500	419.676	80.006	19.995	103.157	18.514	104.058	0.528
685.000	419.925	80.003	19.996	103.160	18.532	102.894	0.526
685.500	420.163	80.004	19.996	103.165	18.557	101.251	0.504
686.000	420.452	80.004	19.994	103.169	18.572	100.287	0.507
686.500	420.689	80.004	19.996	103.172	18.588	99.200	0.527
687.000	420.947	80.005	19.995	103.177	18.610	97.748	0.511
687.500	421.182	80.003	19.995	103.177	18.632	96.364	0.494
688.000	421.467	80.003	19.995	103.176	18.646	95.436	0.506
688.500	421.693	80.005	19.996	103.179	18.667	94.062	0.515
689.000	421.929	80.004	19.995	103.181	18.689	92.580	0.487
689.500	422.192	80.005	19.995	103.180	18.707	91.444	0.481
690.000	422.446	80.003	19.995	103.180	18.723	90.341	0.508
690.500	422.687	80.004	19.995	103.179	18.742	89.104	0.506
691.000	422.957	80.005	19.995	103.179	18.758	88.097	0.503
691.500	423.239	80.006	19.995	103.178	18.772	87.149	0.531
692.000	423.471	80.004	19.997	103.179	18.794	85.739	0.533
692.500	423.737	80.005	19.996	103.178	18.809	84.767	0.506
693.000	423.957	80.006	19.996	103.178	18.827	83.527	0.492
693.500	424.209	80.004	19.995	103.173	18.842	82.539	0.478
694.000	424.455	80.006	19.995	103.168	18.865	81.067	0.485
694.500	424.700	80.004	19.996	103.168	18.882	79.948	0.495
695.000	424.981	80.006	19.995	103.169	18.896	79.046	0.509
695.500	425.213	80.003	19.994	103.171	18.912	77.942	0.520
696.000	425.454	80.005	19.996	103.175	18.932	76.649	0.493
696.500	425.732	80.005	19.995	103.179	18.951	75.394	0.496
697.000	425.970	80.005	19.996	103.180	18.965	74.510	0.517
697.500	426.217	80.004	19.995	103.180	18.980	73.523	0.500
698.000	426.481	80.005	19.995	103.178	18.998	72.366	0.498
698.500	426.752	80.005	19.996	103.177	19.010	71.579	0.523
699.000	426.990	80.005	19.995	103.170	19.027	70.448	0.522
699.500	427.230	80.004	19.996	103.166	19.042	69.473	0.494
700.000	427.499	80.004	19.995	103.167	19.055	68.606	0.494
700.500	427.746	80.004	19.995	103.168	19.075	67.277	0.512
701.000	427.989	80.007	19.995	103.168	19.092	66.195	0.502
701.500	428.260	80.006	19.996	103.176	19.102	65.499	0.502
702.000	428.532	80.005	19.995	103.180	19.118	64.449	0.529
702.500	428.755	80.004	19.995	103.180	19.133	63.478	0.519
703.000	429.055	80.005	19.996	103.181	19.148	62.517	0.509
703.500	429.339	80.005	19.996	103.183	19.157	61.934	0.554
704.000	429.546	80.004	19.995	103.181	19.174	60.766	0.537
704.500	429.828	80.005	19.995	103.177	19.190	59.762	0.490
705.000	430.059	80.005	19.996	103.175	19.200	59.064	0.501
705.500	430.317	80.007	19.995	103.175	19.216	58.060	0.501
706.000	430.532	80.006	19.995	103.170	19.229	57.192	0.481
706.500	430.846	80.004	19.996	103.167	19.242	56.372	0.501
707.000	431.066	80.004	19.994	103.168	19.256	55.397	0.531
707.500	431.357	80.005	19.993	103.164	19.272	54.356	0.523
708.000	431.574	80.005	19.996	103.161	19.280	53.832	0.510
708.500	431.811	80.005	19.995	103.163	19.293	52.974	0.481
709.000	432.103	80.006	19.994	103.169	19.309	51.918	0.491
709.500	432.352	80.007	19.994	103.169	19.316	51.500	0.535
710.000	432.597	80.007	19.995	103.173	19.330	50.581	0.518
710.500	432.848	80.005	19.995	103.172	19.340	49.895	0.495
711.000	433.118	80.004	19.995	103.171	19.352	49.162	0.508
711.500	433.363	80.008	19.994	103.168	19.360	48.604	0.518
712.000	433.603	80.003	19.994	103.169	19.375	47.653	0.500
712.500	433.887	80.005	19.993	103.169	19.385	46.997	0.505
713.000	434.157	80.006	19.995	103.172	19.393	46.433	0.539
713.500	434.407	80.004	19.996	103.169	19.407	45.555	0.537
714.000	434.635	80.006	19.994	103.172	19.416	44.953	0.499
714.500	434.916	80.006	19.995	103.167	19.428	44.156	0.494
715.000	435.159	80.003	19.994	103.166	19.437	43.567	0.517
715.500	435.390	80.005	19.994	103.165	19.449	42.786	0.498
716.000	435.665	80.004	19.995	103.171	19.458	42.183	0.490
716.500	435.908	80.005	19.995	103.168	19.468	41.541	0.512
717.000	436.179	80.004	19.995	103.173	19.477	40.940	0.516
717.500	436.442	80.004	19.994	103.177	19.486	40.319	0.524
718.001	436.678	80.005	19.994	103.178	19.492	39.982	0.517
718.500	436.940	80.007	19.994	103.171	19.501	39.372	0.498
719.000	437.188	80.006	19.995	103.173	19.511	38.716	0.504
719.500	437.450	80.007	19.994	103.173	19.521	38.024	0.510
720.000	437.705	80.006	19.995	103.173	19.529	37.500	0.514
720.500	437.916	80.006	19.994	103.173	19.538	36.927	0.491
721.000	438.193	80.008	19.995	103.176	19.546	36.414	0.477
721.500	438.477	80.007	19.995	103.175	19.557	35.670	0.524
722.000	438.742	80.008	19.994	103.173	19.558	35.633	0.555
722.500	438.996	80.008	19.994	103.171	19.566	35.126	0.534
723.000	439.215	80.007	19.995	103.171	19.575	34.501	0.497
723.500	439.475	80.007	19.994	103.174	19.583	33.987	0.476
724.000	439.747	80.008	19.994	103.176	19.590	33.497	0.505
724.500	439.984	80.007	19.994	103.175	19.598	32.983	0.520
725.000	440.229	80.008	19.994	103.175	19.601	32.828	0.495
725.500	440.483	80.006	19.994	103.177	19.611	32.133	0.491
726.000	440.723	80.006	19.995	103.176	19.615	31.877	0.496
726.500	440.965	80.006	19.994	103.177	19.621	31.488	0.488
727.000	441.263	80.007	19.994	103.178	19.628	31.059	0.511
727.500	441.499	80.008	19.994	103.178	19.636	30.530	0.537
728.000	441.770	80.007	19.995	103.177	19.639	30.332	0.521
728.500	442.030	80.007	19.995	103.177	19.645	29.934	0.519
729.000	442.276	80.008	19.994	103.177	19.654	29.350	0.518
729.500	442.530	80.006	19.995	103.173	19.656	29.203	0.503
730.000	442.764	80.008	19.995	103.173	19.663	28.746	0.494
730.500	443.020	80.005	19.995	103.174	19.667	28.487	0.489
731.000	443.288	80.007	19.995	103.173	19.669	28.371	0.507
731.500	443.521	80.007	19.994	103.173	19.677	27.840	0.512
732.000	443.802	80.007	19.995	103.176	19.685	27.308	0.507
732.500	444.047	80.008	19.994	103.177	19.688	27.100	0.520
733.000	444.322	80.008	19.995	103.177	19.692	26.825	0.523
733.500	444.548	80.006	19.995	103.178	19.695	26.613	0.511
734.000	444.785	80.004	19.994	103.178	19.702	26.166	0.482
734.500	445.066	80.005	19.995	103.178	19.703	26.105	0.490
735.000	445.320	80.006	19.994	103.175	19.708	25.773	0.527
735.500	445.616	80.004	19.994	103.172	19.717	25.202	0.543
736.000	445.855	80.006	19.995	103.172	19.721	24.946	0.542
736.500	446.072	80.005	19.993	103.170	19.725	24.673	0.495
737.000	446.329	80.003	19.995	103.169	19.721	24.946	0.465
737.500	446.606	80.006	19.995	103.170	19.725	24.645	0.504
738.000	446.843	80.006	19.996	103.172	19.732	24.222	0.524
738.500	447.103	80.007	19.995	103.170	19.737	23.868	0.506
739.000	447.363	80.004	19.995	103.171	19.739	23.789	0.508
739.500	447.578	80.006	19.994	103.173	19.744	23.455	0.497
740.000	447.860	80.005	19.995	103.172	19.747	23.230	0.486
740.500	448.136	80.004	19.994	103.169	19.753	22.873	0.528
741.000	448.360	80.004	19.995	103.170	19.754	22.748	0.529
741.500	448.637	80.005	19.994	103.170	19.757	22.608	0.500
742.000	448.847	80.007	19.994	103.168	19.758	22.533	0.494
742.500	449.140	80.004	19.995	103.168	19.760	22.388	0.495
743.000	449.420	80.006	19.994	103.168	19.761	22.343	0.538
743.500	449.633	80.004	19.994	103.164	19.768	21.874	0.533
744.000	449.883	80.006	19.994	103.162	19.767	21.956	0.478
744.500	450.134	80.006	19.994	103.164	19.772	21.576	0.482
745.000	450.380	80.006	19.994	103.168	19.771	21.672	0.499
745.500	450.634	80.006	19.995	103.168	19.771	21.673	0.498
746.000	450.941	80.009	19.995	103.168	19.775	21.425	0.530
746.500	451.164	80.009	19.994	103.166	19.780	21.082	0.546
747.000	451.441	80.006	19.995	103.167	19.780	21.039	0.515
747.500	451.683	80.005	19.995	103.165	19.783	20.887	0.510
748.000	451.912	80.005	19.994	103.166	19.784	20.807	0.495
748.500	452.197	80.008	19.994	103.167	19.789	20.500	0.492
749.000	452.470	80.005	19.994	103.170	19.785	20.716	0.536
749.500	452.711	80.004	19.995	103.168	19.794	20.137	0.536
750.000	452.970	80.007	19.996	103.170	19.795	20.082	0.507
750.500	453.231	80.003	19.995	103.174	19.796	20.012	0.510
751.000	453.469	80.004	19.995	103.178	19.796	20.053	0.509
751.500	453.734	80.006	19.995	103.173	19.795	20.107	0.501
752.000	453.992	80.006	19.994	103.171	19.797	19.945	0.513
752.500	454.244	80.007	19.995	103.169	19.794	20.126	0.516
753.000	454.515	80.006	19.995	103.168	19.800	19.763	0.517
753.500	454.747	80.006	19.994	103.167	19.798	19.861	0.513
754.000	455.039	80.004	19.995	103.172	19.799	19.807	0.514
754.500	455.289	80.005	19.994	103.174	19.801	19.714	0.533
755.000	455.572	80.004	19.995	103.175	19.798	19.876	0.537
755.500	455.784	80.004	19.994	103.176	19.800	19.779	0.514
756.000	456.062	80.005	19.994	103.175	19.803	19.584	0.492
756.500	456.322	80.004	19.994	103.172	19.804	19.464	0.514
757.000	456.586	80.005	19.994	103.170	19.803	19.592	0.531
757.500	456.854	80.005	19.994	103.171	19.800	19.724	0.528
758.000	457.070	80.005	19.994	103.168	19.805	19.410	0.508
758.500	457.333	80.005	19.994	103.167	19.808	19.236	0.481
759.000	457.598	80.005	19.994	103.168	19.814	18.834	0.504
759.500	457.837	80.004	19.994	103.172	19.806	19.375	0.516
760.000	458.111	80.003	19.996	103.170	19.804	19.484	0.508
760.500	458.339	80.005	19.996	103.167	19.806	19.397	0.508
761.000	458.581	80.005	19.995	103.166	19.806	19.336	0.486
761.500	458.859	80.005	19.995	103.168	19.812	18.990	0.495
762.000	459.144	80.005	19.995	103.167	19.810	19.096	0.542
762.500	459.390	80.001	19.995	103.169	19.809	19.137	0.547
763.000	459.694	80.003	19.997	103.172	19.813	18.937	0.540
763.500	459.927	80.002	19.995	103.174	19.810	19.072	0.544
764.000	460.153	80.007	19.995	103.173	19.814	18.832	0.498
764.500	460.436	80.006	19.997	103.171	19.810	19.128	0.484
765.000	460.662	80.004	19.996	103.166	19.814	18.820	0.509
765.500	460.926	80.003	19.996	103.168	19.812	18.960	0.500
766.000	461.165	80.004	19.996	103.166	19.816	18.710	0.497
766.501	461.435	80.004	19.996	103.162	19.815	18.746	0.506
767.000	461.665	80.003	19.996	103.160	19.812	19.001	0.504
767.500	461.903	80.003	19.994	103.159	19.817	18.621	0.484
768.000	462.158	80.003	19.995	103.154	19.814	18.856	0.481
768.500	462.407	80.005	19.996	103.152	19.818	18.574	0.498
769.000	462.663	80.003	19.996	103.155	19.813	18.892	0.504
769.500	462.911	80.004	19.995	103.158	19.816	18.731	0.504
770.000	463.181	80.006	19.996	103.159	19.813	18.919	0.512
770.500	463.421	80.003	19.994	103.157	19.815	18.797	0.514
771.000	463.678	80.004	19.996	103.161	19.816	18.695	0.503
771.500	463.966	80.002	19.995	103.160	19.815	18.796	0.520
772.000	464.156	80.005	19.994	103.159	19.812	18.986	0.512
772.500	464.449	80.003	19.995	103.162	19.813	18.927	0.481
773.000	464.689	80.004	19.996	103.165	19.818	18.600	0.508
773.500	464.954	80.003	19.995	103.165	19.812	18.946	0.519
774.000	465.202	80.003	19.995	103.163	19.814	18.855	0.509
774.500	465.441	80.004	19.995	103.159	19.815	18.752	0.500
775.000	465.728	80.004	19.995	103.155	19.814	18.848	0.507
775.500	465.938	80.004	19.994	103.153	19.815	18.759	0.511
776.000	466.208	80.005	19.995	103.150	19.813	18.889	0.489
776.500	466.513	80.005	19.995	103.152	19.818	18.579	0.527
777.000	466.749	80.005	19.994	103.153	19.814	18.836	0.558
777.500	467.001	80.004	19.995	103.154	19.818	18.583	0.515
778.000	467.254	80.006	19.995	103.153	19.822	18.322	0.497
778.500	467.491	80.004	19.994	103.156	19.819	18.500	0.497
779.000	467.764	80.003	19.995	103.161	19.818	18.557	0.499
779.500	468.025	80.005	19.994	103.162	19.817	18.646	0.522
780.000	468.282	80.004	19.995	103.161	19.820	18.439	0.526
780.500	468.529	80.006	19.994	103.161	19.819	18.531	0.511
781.000	468.756	80.006	19.995	103.156	19.825	18.147	0.489
781.500	469.038	80.005	19.995	103.150	19.821	18.388	0.491
782.000	469.296	80.008	19.994	103.147	19.824	18.190	0.525
782.500	469.518	80.006	19.995	103.148	19.819	18.492	0.510
783.000	469.828	80.006	19.994	103.147	19.820	18.442	0.506
783.500	470.041	80.006	19.995	103.147	19.820	18.451	0.528
784.000	470.324	80.006	19.994	103.147	19.823	18.251	0.510
784.500	470.547	80.006	19.995	103.147	19.820	18.451	0.501
785.000	470.786	80.005	19.995	103.146	19.822	18.292	0.484
785.500	471.062	80.006	19.995	103.146	19.825	18.146	0.488
786.000	471.302	80.005	19.994	103.147	19.827	18.001	0.515
786.500	471.571	80.005	19.996	103.146	19.827	17.995	0.512
787.000	471.802	80.006	19.996	103.148	19.826	18.071	0.505
787.500	472.072	80.005	19.995	103.151	19.831	17.747	0.501
788.000	472.280	80.005	19.996	103.150	19.830	17.806	0.490
788.500	472.546	80.005	19.994	103.150	19.828	17.909	0.476
789.000	472.840	80.003	19.995	103.150	19.834	17.547	0.517
789.500	473.106	80.004	19.996	103.149	19.829	17.845	0.560
790.000	473.359	80.005	19.996	103.145	19.836	17.384	0.539
790.500	473.632	80.006	19.997	103.144	19.831	17.707	0.522
791.000	473.857	80.003	19.995	103.143	19.831	17.714	0.512
791.500	474.138	80.007	19.996	103.142	19.835	17.443	0.502
792.000	474.375	80.003	19.996	103.141	19.833	17.578	0.512
792.500	474.644	80.004	19.996	103.142	19.836	17.412	0.512
793.000	474.935	80.007	19.995	103.142	19.836	17.400	0.534
793.500	475.154	80.007	19.996	103.142	19.834	17.520	0.536
794.000	475.424	80.005	19.996	103.143	19.838	17.234	0.500
794.500	475.665	80.006	19.995	103.142	19.841	17.093	0.500
795.000	475.930	80.007	19.997	103.142	19.842	16.995	0.508
795.500	476.198	80.002	19.995	103.143	19.842	17.006	0.520
796.000	476.409	80.006	19.995	103.143	19.841	17.059	0.506
796.500	476.641	80.005	19.996	103.142	19.844	16.874	0.461
797.000	476.913	80.007	19.996	103.143	19.844	16.873	0.474
797.500	477.177	80.006	19.996	103.145	19.848	16.625	0.520
798.000	477.458	80.006	19.995	103.145	19.852	16.366	0.540
798.500	477.693	80.007	19.994	103.147	19.852	16.368	0.530
799.000	477.932	80.007	19.996	103.147	19.854	16.227	0.495
799.500	478.208	80.008	19.995	103.146	19.854	16.242	0.494
800.000	478.438	80.007	19.996	103.145	19.858	15.951	0.510
800.500	478.728	80.006	19.994	103.145	19.858	15.951	0.513
801.000	478.977	80.004	19.993	103.143	19.860	15.854	0.529
801.500	479.247	80.006	19.995	103.143	19.863	15.633	0.529
802.000	479.518	80.007	19.995	103.143	19.862	15.709	0.530
802.500	479.745	80.007	19.994	103.143	19.863	15.651	0.520
803.000	479.997	80.006	19.995	103.143	19.867	15.390	0.489
803.500	480.235	80.007	19.994	103.141	19.863	15.654	0.484
804.000	480.509	80.006	19.995	103.141	19.868	15.313	0.501
804.500	480.756	80.006	19.994	103.143	19.865	15.515	0.516
805.000	481.014	80.008	19.994	103.145	19.873	14.942	0.513
805.500	481.281	80.005	19.995	103.145	19.873	14.957	0.515
806.000	481.533	80.008	19.993	103.146	19.875	14.814	0.522
806.500	481.758	80.006	19.996	103.148	19.875	14.825	0.498
807.000	482.016	80.008	19.994	103.145	19.878	14.633	0.480
807.500	482.259	80.006	19.994	103.144	19.882	14.382	0.492
808.000	482.494	80.008	19.994	103.144	19.885	14.204	0.489
808.500	482.740	80.009	19.994	103.143	19.887	14.028	0.479
809.000	483.002	80.007	19.995	103.142	19.885	14.213	0.495
809.500	483.235	80.007	19.993	103.142	19.889	13.900	0.502
810.000	483.521	80.007	19.993	103.143	19.896	13.446	0.507
810.500	483.758	80.006	19.993	103.143	19.895	13.516	0.521
811.000	484.015	80.008	19.993	103.143	19.902	13.064	0.509
811.500	484.263	80.007	19.994	103.143	19.902	13.055	0.499
812.000	484.511	80.007	19.994	103.142	19.903	13.016	0.500
812.500	484.804	80.006	19.994	103.141	19.906	12.820	0.518
813.000	485.020	80.008	19.994	103.141	19.907	12.742	0.525
813.500	485.276	80.006	19.995	103.142	19.911	12.512	0.491
814.000	485.538	80.007	19.994	103.142	19.913	12.369	0.495
814.500	485.793	80.005	19.994	103.142	19.915	12.204	0.517
815.000	486.064	80.006	19.994	103.143	19.918	12.016	0.522
815.500	486.289	80.004	19.995	103.143	19.919	11.928	0.511
816.000	486.518	80.006	19.995	103.143	19.923	11.697	0.475
816.500	486.794	80.004	19.995	103.145	19.923	11.700	0.479
817.000	487.038	80.005	19.994	103.147	19.929	11.300	0.513
817.500	487.271	80.005	19.994	103.149	19.928	11.352	0.498
818.000	487.527	80.003	19.995	103.152	19.929	11.320	0.483
818.500	487.782	80.004	19.994	103.157	19.940	10.604	0.501
819.000	488.037	80.003	19.994	103.163	19.935	10.939	0.511
819.500	488.288	80.003	19.994	103.167	19.938	10.721	0.508
820.000	488.561	80.006	19.994	103.171	19.938	10.702	0.515
820.500	488.815	80.005	19.995	103.174	19.949	10.009	0.525
821.000	489.062	80.004	19.994	103.169	19.947	10.114	0.513
821.500	489.324	80.005	19.995	103.168	19.949	9.966	0.505
822.000	489.598	80.005	19.995	103.165	19.955	9.590	0.523
822.500	489.842	80.005	19.994	103.165	19.956	9.529	0.527
823.000	490.126	80.005	19.994	103.166	19.960	9.300	0.523
823.500	490.377	80.005	19.994	103.174	19.957	9.484	0.531
824.000	490.660	80.003	19.996	103.175	19.961	9.234	0.534
824.500	490.915	80.003	19.995	103.178	19.963	9.065	0.536
825.000	491.185	80.004	19.995	103.180	19.963	9.067	0.531
825.500	491.467	80.005	19.994	103.182	19.965	8.956	0.539
826.000	491.717	80.007	19.994	103.178	19.967	8.840	0.543
826.500	491.986	80.002	19.996	103.175	19.974	8.386	0.525
827.000	492.249	80.005	19.995	103.172	19.973	8.390	0.525
827.500	492.510	80.005	19.994	103.166	19.975	8.275	0.528
828.000	492.790	80.005	19.996	103.164	19.980	7.986	0.532
828.500	493.039	80.006	19.995	103.168	19.980	7.950	0.535
829.000	493.329	80.005	19.994	103.170	19.980	7.960	0.534
829.500	493.606	80.005	19.994	103.170	19.982	7.845	0.553
830.000	493.880	80.008	19.995	103.177	19.985	7.613	0.559
830.500	494.112	80.004	19.995	103.177	19.988	7.453	0.528
831.000	494.411	80.006	19.995	103.177	19.988	7.467	0.518
831.500	494.661	80.005	19.994	103.180	19.988	7.445	0.540
832.000	494.979	80.005	19.994	103.179	19.991	7.219	0.558
832.500	495.236	80.005	19.994	103.179	19.992	7.179	0.572
833.000	495.475	80.005	19.994	103.181	19.995	6.949	0.536
833.500	495.775	80.003	19.994	103.180	19.996	6.899	0.518
834.000	496.044	80.004	19.994	103.180	20.001	6.613	0.554
834.500	496.289	80.005	19.994	103.183	20.000	6.617	0.541
835.000	496.567	80.003	19.995	103.183	20.002	6.540	0.519
835.500	496.849	80.006	19.994	103.182	20.001	6.608	0.542
836.000	497.121	80.005	19.993	103.183	19.997	6.817	0.557
836.500	497.402	80.006	19.993	103.183	20.000	6.633	0.553
837.000	497.632	80.005	19.994	103.181	20.003	6.435	0.532
837.500	497.893	80.006	19.994	103.179	20.009	6.089	0.501
838.000	498.184	80.005	19.995	103.178	20.005	6.295	0.522
838.500	498.486	80.004	19.994	103.177	20.009	6.074	0.573
839.000	498.700	80.004	19.994	103.177	20.011	5.899	0.554
839.500	499.027	80.004	19.995	103.179	20.008	6.101	0.529
840.000	499.276	80.005	19.993	103.182	20.017	5.542	0.558
840.500	499.525	80.004	19.994	103.183	20.014	5.708	0.537
841.000	499.814	80.003	19.994	103.184	20.015	5.687	0.518
841.500	500.090	80.003	19.993	103.183	20.015	5.646	0.552
842.000	500.343	80.005	19.994	103.183	20.012	5.872	0.547
842.500	500.640	80.008	19.995	103.183	20.017	5.535	0.539
843.000	500.903	80.005	19.994	103.183	20.017	5.563	0.555
843.500	501.209	80.005	19.994	103.183	20.017	5.517	0.564
844.000	501.451	80.005	19.994	103.183	20.015	5.651	0.558
844.500	501.717	80.004	19.993	103.183	20.015	5.674	0.528
845.000	502.005	80.004	19.994	103.183	20.018	5.463	0.531
845.500	502.245	80.005	19.994	103.183	20.013	5.812	0.541
846.000	502.550	80.005	19.995	103.185	20.021	5.292	0.537
846.500	502.812	80.006	19.994	103.186	20.022	5.231	0.556
847.000	503.092	80.003	19.995	103.186	20.028	4.837	0.555
847.500	503.367	80.004	19.994	103.186	20.021	5.280	0.549
848.000	503.682	80.003	19.994	103.186	20.024	5.067	0.572
848.500	503.909	80.003	19.994	103.184	20.022	5.208	0.566
849.000	504.168	80.003	19.995	103.181	20.019	5.411	0.514
849.500	504.415	80.003	19.997	103.180	20.018	5.443	0.496
850.000	504.706	80.004	19.995	103.179	20.026	4.968	0.522
850.500	504.997	80.004	19.995	103.180	20.022	5.234	0.560
851.000	505.275	80.005	19.995	103.181	20.020	5.368	0.576
851.500	505.555	80.003	19.996	103.183	20.022	5.224	0.564
852.000	505.841	80.005	19.995	103.183	20.023	5.143	0.562
852.500	506.105	80.003	19.993	103.182	20.022	5.226	0.558
853.000	506.352	80.004	19.995	103.180	20.023	5.124	0.530
853.500	506.658	80.003	19.995	103.181	20.023	5.122	0.532
854.000	506.932	80.004	19.996	103.181	20.022	5.181	0.567
854.500	507.216	80.005	19.996	103.181	20.021	5.276	0.569
855.000	507.452	80.005	19.996	103.180	20.022	5.215	0.539
855.500	507.756	80.005	19.995	103.181	20.025	5.022	0.530
856.000	508.026	80.005	19.995	103.181	20.025	4.994	0.557
856.500	508.330	80.005	19.996	103.181	20.024	5.069	0.574
857.000	508.576	80.005	19.995	103.181	20.025	5.042	0.562
857.500	508.856	80.004	19.995	103.182	20.025	5.029	0.538
858.000	509.136	80.004	19.995	103.182	20.028	4.794	0.543
858.500	509.425	80.005	19.995	103.182	20.027	4.870	0.564
859.000	509.670	80.004	19.996	103.182	20.024	5.102	0.551
859.500	509.912	80.006	19.996	103.181	20.028	4.840	0.511
860.000	510.240	80.003	19.996	103.176	20.027	4.847	0.528
860.500	510.508	80.006	19.995	103.170	20.028	4.801	0.583
861.000	510.794	80.007	19.996	103.163	20.029	4.753	0.575
861.500	511.090	80.005	19.995	103.163	20.028	4.792	0.568
862.000	511.332	80.007	19.996	103.164	20.028	4.787	0.560
862.500	511.583	80.006	19.995	103.168	20.028	4.808	0.516
863.000	511.875	80.006	19.994	103.173	20.028	4.785	0.518
863.500	512.094	80.005	19.996	103.179	20.028	4.819	0.527
864.000	512.406	80.006	19.997	103.177	20.028	4.826	0.521
864.500	512.648	80.006	19.995	103.177	20.032	4.571	0.542
865.000	512.927	80.006	19.995	103.174	20.028	4.813	0.537
865.500	513.221	80.005	19.994	103.175	20.030	4.702	0.547
866.000	513.453	80.005	19.994	103.174	20.034	4.449	0.550
866.500	513.733	80.007	19.995	103.175	20.030	4.652	0.519
867.000	514.042	80.005	19.995	103.176	20.030	4.688	0.550
867.500	514.284	80.007	19.996	103.178	20.029	4.715	0.570
868.000	514.549	80.005	19.995	103.177	20.032	4.551	0.529
868.500	514.871	80.006	19.994	103.178	20.028	4.831	0.547
869.000	515.136	80.005	19.994	103.174	20.030	4.681	0.587
869.500	515.407	80.006	19.995	103.172	20.027	4.881	0.561
870.000	515.721	80.006	19.995	103.173	20.032	4.570	0.561
870.500	515.949	80.006	19.995	103.174	20.031	4.601	0.564
871.000	516.274	80.006	19.994	103.175	20.030	4.674	0.548
871.500	516.537	80.007	19.996	103.178	20.028	4.829	0.571
872.000	516.800	80.006	19.995	103.179	20.029	4.768	0.556
872.500	517.103	80.005	19.995	103.178	20.026	4.938	0.546
873.000	517.399	80.006	19.995	103.177	20.031	4.604	0.583
873.500	517.644	80.006	19.995	103.177	20.028	4.794	0.570
874.000	517.895	80.005	19.994	103.177	20.027	4.856	0.518
874.500	518.163	80.006	19.994	103.178	20.027	4.876	0.508
875.000	518.476	80.004	19.995	103.179	20.028	4.846	0.550
875.500	518.705	80.007	19.996	103.180	20.029	4.760	0.562
876.000	518.982	80.004	19.995	103.177	20.033	4.513	0.525
876.500	519.302	80.004	19.995	103.170	20.026	4.936	0.552
877.000	519.561	80.005	19.995	103.165	20.026	4.949	0.588
877.500	519.807	80.007	19.995	103.164	20.028	4.783	0.542
878.000	520.098	80.006	19.995	103.163	20.025	5.038	0.521
878.500	520.350	80.007	19.996	103.167	20.024	5.052	0.540
879.000	520.658	80.005	19.995	103.170	20.027	4.850	0.551
879.500	520.923	80.005	19.995	103.175	20.024	5.050	0.566
880.000	521.204	80.007	19.995	103.175	20.026	4.975	0.560
880.500	521.469	80.005	19.995	103.173	20.027	4.875	0.546
881.000	521.742	80.005	19.996	103.170	20.033	4.486	0.542
881.500	521.976	80.007	19.995	103.173	20.025	5.020	0.523
882.000	522.276	80.006	19.995	103.173	20.026	4.929	0.520
882.500	522.534	80.002	19.995	103.173	20.028	4.842	0.546
883.000	522.813	80.005	19.996	103.170	20.032	4.519	0.547
883.500	523.094	80.005	19.996	103.173	20.026	4.922	0.549
884.000	523.369	80.006	19.997	103.175	20.027	4.883	0.558
884.500	523.606	80.006	19.996	103.174	20.025	4.999	0.534
885.000	523.912	80.006	19.995	103.175	20.030	4.656	0.527
885.500	524.193	80.009	19.995	103.180	20.028	4.831	0.565
886.000	524.443	80.006	19.996	103.178	20.028	4.826	0.559
886.500	524.692	80.005	19.997	103.177	20.026	4.960	0.515
887.000	524.976	80.005	19.995	103.175	20.026	4.947	0.516
887.500	525.214	80.007	19.996	103.175	20.028	4.810	0.528
888.000	525.510	80.007	19.995	103.173	20.025	4.997	0.528
888.500	525.785	80.006	19.994	103.170	20.034	4.392	0.552
889.000	526.036	80.009	19.996	103.164	20.028	4.801	0.548
889.500	526.293	80.008	19.995	103.162	20.030	4.695	0.517
890.000	526.576	80.007	19.995	103.161	20.029	4.738	0.524
890.500	526.809	80.008	19.995	103.162	20.029	4.759	0.528
891.000	527.102	80.006	19.995	103.163	20.029	4.749	0.521
891.500	527.325	80.007	19.995	103.169	20.030	4.692	0.521
892.000	527.588	80.007	19.995	103.173	20.027	4.897	0.501
892.500	527.886	80.008	19.996	103.175	20.026	4.962	0.523
893.000	528.139	80.007	19.995	103.177	20.029	4.719	0.556
893.500	528.401	80.007	19.994	103.180	20.024	5.053	0.533
894.000	528.696	80.010	19.995	103.181	20.024	5.045	0.536
894.500	528.942	80.006	19.995	103.181	20.031	4.628	0.549
895.000	529.228	80.006	19.994	103.181	20.028	4.813	0.536
895.500	529.463	80.003	19.993	103.182	20.025	5.042	0.527
896.000	529.792	80.006	19.994	103.181	20.029	4.762	0.543
896.500	530.040	80.008	19.995	103.181	20.026	4.972	0.571
897.000	530.279	80.005	19.994	103.182	20.026	4.970	0.532
897.500	530.591	80.006	19.995	103.181	20.029	4.749	0.519
898.000	530.838	80.004	19.994	103.179	20.024	5.100	0.555
898.500	531.079	80.003	19.994	103.178	20.029	4.743	0.523
899.000	531.381	80.006	19.995	103.178	20.028	4.831	0.515
899.500	531.629	80.005	19.995	103.176	20.027	4.890	0.547
900.000	531.938	80.005	19.996	103.172	20.026	4.945	0.554
900.500	532.183	80.003	19.995	103.172	20.028	4.838	0.556
901.000	532.467	80.003	19.994	103.169	20.032	4.542	0.542
901.500	532.728	80.004	19.994	103.168	20.030	4.701	0.537
902.000	532.959	80.004	19.994	103.171	20.024	5.049	0.518
902.500	533.254	80.006	19.995	103.176	20.030	4.710	0.509
903.000	533.489	80.004	19.994	103.176	20.027	4.908	0.528
903.500	533.760	80.004	19.994	103.180	20.027	4.901	0.518
904.000	534.029	80.002	19.994	103.181	20.026	4.929	0.523
904.500	534.302	80.004	19.994	103.181	20.028	4.797	0.541
905.000	534.572	80.005	19.994	103.177	20.032	4.576	0.543
905.500	534.840	80.003	19.994	103.177	20.027	4.906	0.540
906.000	535.109	80.002	19.994	103.178	20.027	4.862	0.537
906.500	535.379	80.002	19.993	103.177	20.027	4.869	0.538
907.000	535.658	80.005	19.993	103.176	20.033	4.503	0.544
907.500	535.910	80.003	19.995	103.177	20.032	4.560	0.540
908.000	536.181	80.002	19.993	103.172	20.033	4.469	0.527
908.500	536.454	80.006	19.995	103.169	20.029	4.751	0.534
909.000	536.712	80.003	19.994	103.168	20.032	4.533	0.538
909.500	537.015	80.004	19.994	103.168	20.029	4.731	0.547
910.000	537.229	80.004	19.994	103.167	20.035	4.324	0.539
910.500	537.508	80.004	19.993	103.168	20.035	4.350	0.504
911.000	537.786	80.004	19.994	103.168	20.031	4.641	0.525
911.500	538.061	80.003	19.995	103.169	20.030	4.690	0.555
912.000	538.289	80.003	19.993	103.171	20.032	4.554	0.528
912.500	538.585	80.005	19.995	103.171	20.033	4.486	0.513
913.000	538.789	80.004	19.995	103.174	20.032	4.581	0.512
913.500	539.084	80.004	19.995	103.174	20.031	4.642	0.500
914.000	539.328	80.004	19.995	103.175	20.029	4.738	0.519
914.500	539.583	80.007	19.995	103.173	20.031	4.633	0.519
915.000	539.861	80.003	19.994	103.177	20.029	4.749	0.516
915.500	540.124	80.004	19.996	103.180	20.028	4.787	0.538
916.000	540.399	80.004	19.994	103.180	20.035	4.381	0.540
916.500	540.656	80.004	19.994	103.176	20.034	4.451	0.535
917.000	540.897	80.004	19.994	103.176	20.032	4.545	0.515
917.500	541.171	80.006	19.995	103.175	20.031	4.609	0.506
918.000	541.449	80.005	19.994	103.175	20.032	4.583	0.534
918.500	541.690	80.005	19.996	103.177	20.032	4.568	0.536
919.000	541.954	80.005	19.995	103.181	20.034	4.419	0.512
919.500	542.223	80.007	19.995	103.182	20.027	4.879	0.519
920.000	542.525	80.005	19.994	103.178	20.037	4.244	0.552
920.500	542.753	80.005	19.996	103.175	20.034	4.418	0.551
921.000	543.003	80.005	19.995	103.170	20.035	4.358	0.504
921.500	543.262	80.006	19.995	103.164	20.036	4.274	0.493
922.000	543.538	80.005	19.995	103.162	20.031	4.631	0.523
922.500	543.804	80.003	19.993	103.164	20.039	4.119	0.539
923.000	544.045	80.005	19.995	103.167	20.031	4.601	0.524
923.500	544.295	80.003	19.995	103.171	20.033	4.481	0.499
924.000	544.547	80.002	19.995	103.174	20.033	4.478	0.496
924.500	544.815	80.005	19.995	103.177	20.032	4.538	0.511
925.000	545.064	80.004	19.994	103.179	20.036	4.315	0.518
925.500	545.341	80.006	19.995	103.179	20.033	4.488	0.522
926.000	545.606	80.007	19.994	103.179	20.040	3.993	0.535
926.500	545.842	80.006	19.994	103.182	20.033	4.500	0.522
927.000	546.102	80.006	19.994	103.179	20.035	4.346	0.498
927.500	546.369	80.003	19.994	103.171	20.039	4.095	0.511
928.000	546.628	80.004	19.993	103.171	20.035	4.340	0.526
928.500	546.912	80.002	19.995	103.169	20.036	4.256	0.534
929.000	547.142	80.005	19.996	103.168	20.033	4.502	0.528
929.500	547.386	80.004	19.994	103.171	20.041	3.970	0.494
930.000	547.649	80.007	19.995	103.175	20.038	4.183	0.491
930.500	547.923	80.007	19.995	103.171	20.039	4.101	0.522
931.000	548.158	80.004	19.995	103.170	20.038	4.187	0.523
931.500	548.421	80.006	19.995	103.167	20.032	4.576	0.503
932.000	548.689	80.004	19.996	103.165	20.038	4.172	0.514
932.500	548.983	80.007	19.994	103.165	20.036	4.304	0.547
933.000	549.192	80.004	19.995	103.166	20.035	4.360	0.532
933.500	549.440	80.007	19.994	103.168	20.035	4.336	0.480
934.000	549.706	80.006	19.994	103.170	20.033	4.488	0.485
934.500	549.985	80.003	19.995	103.172	20.032	4.583	0.529
935.000	550.260	80.005	19.994	103.176	20.032	4.524	0.550
935.500	550.506	80.005	19.995	103.178	20.032	4.524	0.538
936.000	550.767	80.003	19.994	103.172	20.035	4.335	0.514
936.500	551.013	80.004	19.994	103.166	20.036	4.309	0.507
937.000	551.282	80.006	19.994	103.163	20.036	4.318	0.511
937.500	551.548	80.005	19.994	103.158	20.032	4.557	0.525
938.000	551.770	80.004	19.993	103.155	20.041	3.990	0.512
938.500	552.040	80.007	19.995	103.157	20.037	4.254	0.491
939.000	552.267	80.005	19.994	103.160	20.036	4.256	0.495
939.500	552.539	80.005	19.995	103.162	20.034	4.400	0.498
940.000	552.794	80.006	19.994	103.166	20.041	3.986	0.513
940.500	553.065	80.003	19.994	103.170	20.033	4.472	0.526
941.000	553.299	80.004	19.994	103.173	20.030	4.659	0.516
941.500	553.570	80.006	19.995	103.176	20.037	4.213	0.505
942.000	553.826	80.005	19.995	103.175	20.041	3.992	0.516
942.500	554.054	80.004	19.994	103.174	20.048	3.510	0.505
943.000	554.311	80.003	19.994	103.173	20.034	4.394	0.485
943.500	554.575	80.007	19.996	103.174	20.033	4.471	0.503
944.000	554.830	80.003	19.995	103.173	20.042	3.921	0.520
944.500	555.088	80.006	19.995	103.172	20.042	3.890	0.516
945.000	555.313	80.005	19.995	103.173	20.041	3.967	0.498
945.500	555.588	80.008	19.994	103.172	20.041	3.950	0.492
946.000	555.842	80.008	19.995	103.172	20.040	4.041	0.515
946.500	556.081	80.006	19.996	103.171	20.035	4.361	0.511
947.000	556.292	80.006	19.996	103.168	20.036	4.302	0.471
947.500	556.588	80.005	19.995	103.166	20.036	4.290	0.478
948.000	556.862	80.006	19.994	103.167	20.041	3.977	0.538
948.500	557.109	80.004	19.994	103.163	20.035	4.345	0.545
949.000	557.335	80.005	19.994	103.162	20.040	4.056	0.497
949.500	557.579	80.005	19.995	103.162	20.034	4.406	0.472
950.000	557.838	80.006	19.994	103.163	20.035	4.346	0.487
950.500	558.116	80.008	19.995	103.160	20.047	3.551	0.520
951.000	558.344	80.004	19.995	103.159	20.042	3.878	0.522
951.500	558.616	80.004	19.994	103.163	20.044	3.783	0.503
952.000	558.882	80.005	19.995	103.166	20.039	4.104	0.519
952.500	559.129	80.006	19.995	103.167	20.040	4.024	0.525
953.000	559.350	80.005	19.995	103.170	20.043	3.808	0.490
953.500	559.620	80.005	19.996	103.173	20.043	3.840	0.480
954.000	559.886	80.005	19.996	103.175	20.040	4.033	0.514
954.500	560.092	80.006	19.995	103.176	20.038	4.144	0.504
955.000	560.375	80.005	19.995	103.172	20.039	4.070	0.480
955.500	560.635	80.007	19.994	103.166	20.043	3.852	0.516
956.000	560.896	80.004	19.995	103.162	20.040	4.020	0.532
956.500	561.147	80.007	19.995	103.158	20.039	4.117	0.516
957.000	561.375	80.004	19.994	103.159	20.041	3.965	0.495
957.500	561.663	80.004	19.993	103.158	20.042	3.880	0.497
958.000	561.936	80.006	19.996	103.158	20.037	4.203	0.539
958.500	562.198	80.006	19.995	103.162	20.041	3.981	0.548
959.000	562.446	80.007	19.994	103.165	20.047	3.549	0.522
959.500	562.688	80.001	19.994	103.164	20.039	4.101	0.500
960.000	562.924	80.004	19.994	103.169	20.037	4.249	0.484
960.500	563.215	80.005	19.995	103.175	20.047	3.558	0.502
961.000	563.413	80.006	19.994	103.177	20.046	3.658	0.508
961.500	563.699	80.005	19.994	103.177	20.043	3.860	0.486
962.000	563.959	80.006	19.994	103.177	20.044	3.780	0.515
962.500	564.193	80.005	19.994	103.174	20.044	3.782	0.520
963.000	564.467	80.006	19.994	103.171	20.042	3.887	0.501
963.500	564.725	80.005	19.994	103.171	20.046	3.635	0.520
964.000	564.987	80.009	19.994	103.173	20.045	3.721	0.526
964.500	565.243	80.004	19.995	103.173	20.043	3.833	0.518
965.000	565.521	80.007	19.995	103.177	20.052	3.249	0.526
965.500	565.741	80.006	19.995	103.179	20.047	3.562	0.516
966.000	565.985	80.008	19.996	103.173	20.045	3.685	0.481
966.500	566.253	80.005	19.994	103.167	20.041	3.954	0.488
967.000	566.494	80.008	19.995	103.167	20.045	3.704	0.511
967.500	566.776	80.007	19.994	103.166	20.043	3.847	0.516
968.000	566.991	80.006	19.994	103.167	20.041	3.956	0.510
968.500	567.273	80.006	19.993	103.174	20.048	3.528	0.497
969.000	567.515	80.006	19.993	103.179	20.040	3.994	0.511
969.500	567.762	80.006	19.996	103.179	20.043	3.835	0.507
970.000	568.002	80.009	19.995	103.178	20.040	3.997	0.488
970.500	568.260	80.006	19.993	103.178	20.047	3.549	0.492
971.000	568.508	80.009	19.995	103.178	20.043	3.799	0.502
971.500	568.754	80.007	19.995	103.179	20.042	3.922	0.500
972.000	569.003	80.008	19.995	103.181	20.048	3.501	0.494
972.500	569.306	80.007	19.995	103.182	20.047	3.576	0.523
973.000	569.528	80.008	19.995	103.182	20.046	3.658	0.539
973.500	569.807	80.007	19.995	103.181	20.049	3.437	0.514
974.000	570.057	80.004	19.993	103.177	20.048	3.476	0.515
974.500	570.297	80.008	19.994	103.176	20.048	3.519	0.510
975.000	570.563	80.005	19.995	103.176	20.046	3.662	0.498
975.500	570.820	80.006	19.997	103.176	20.051	3.301	0.515
976.000	571.074	80.006	19.995	103.173	20.050	3.362	0.517
976.500	571.306	80.005	19.995	103.175	20.049	3.449	0.498
977.000	571.562	80.006	19.996	103.173	20.050	3.355	0.487
977.500	571.856	80.007	19.995	103.173	20.049	3.424	0.519
978.000	572.096	80.006	19.995	103.172	20.057	2.942	0.542
978.500	572.349	80.006	19.995	103.173	20.056	2.955	0.514
979.000	572.579	80.005	19.996	103.174	20.048	3.506	0.488
979.500	572.869	80.005	19.994	103.176	20.054	3.140	0.502
980.000	573.120	80.004	19.997	103.175	20.051	3.290	0.531
980.500	573.366	80.004	19.995	103.175	20.052	3.237	0.519
981.000	573.612	80.005	19.995	103.176	20.055	3.026	0.494
981.500	573.859	80.003	19.994	103.173	20.053	3.155	0.492
982.000	574.163	80.003	19.995	103.167	20.058	2.832	0.523
982.500	574.421	80.004	19.997	103.162	20.057	2.899	0.557
983.000	574.671	80.003	19.995	103.161	20.058	2.815	0.535
983.500	574.925	80.004	19.994	103.160	20.054	3.126	0.506
984.000	575.172	80.004	19.995	103.163	20.054	3.105	0.502
984.500	575.456	80.004	19.996	103.167	20.054	3.087	0.516
985.000	575.696	80.005	19.996	103.171	20.052	3.228	0.528
985.500	575.983	80.005	19.994	103.172	20.057	2.885	0.526
986.000	576.212	80.006	19.996	103.171	20.055	3.033	0.521
986.500	576.472	80.006	19.995	103.171	20.049	3.456	0.502
987.000	576.720	80.004	19.994	103.171	20.056	3.008	0.499
987.500	576.951	80.004	19.994	103.173	20.057	2.940	0.494
988.000	577.236	80.005	19.993	103.173	20.057	2.919	0.497
988.500	577.452	80.005	19.994	103.176	20.055	3.028	0.508
989.000	577.700	80.003	19.993	103.175	20.054	3.083	0.482
989.500	577.975	80.005	19.995	103.176	20.059	2.767	0.494
990.000	578.261	80.005	19.995	103.171	20.055	3.065	0.542
990.500	578.518	80.006	19.994	103.167	20.058	2.867	0.552
991.000	578.781	80.004	19.994	103.166	20.058	2.842	0.531
991.500	579.022	80.004	19.994	103.165	20.058	2.871	0.512
992.000	579.288	80.005	19.994	103.165	20.055	3.067	0.505
992.500	579.539	80.005	19.994	103.169	20.052	3.242	0.512
993.000	579.741	80.004	19.995	103.174	20.060	2.714	0.485
993.500	580.027	80.004	19.994	103.174	20.059	2.805	0.471
994.000	580.286	80.004	19.996	103.173	20.058	2.871	0.517
994.500	580.576	80.005	19.995	103.174	20.057	2.900	0.547
995.000	580.781	80.004	19.995	103.175	20.061	2.669	0.522
995.500	581.048	80.006	19.993	103.173	20.062	2.591	0.483
996.000	581.338	80.003	19.995	103.175	20.061	2.669	0.515
996.500	581.586	80.003	19.995	103.175	20.057	2.896	0.548
997.000	581.847	80.006	19.995	103.176	20.061	2.682	0.523
997.500	582.080	80.004	19.994	103.175	20.064	2.469	0.501
998.000	582.358	80.006	19.996	103.175	20.057	2.912	0.502
998.500	582.571	80.005	19.995	103.173	20.061	2.657	0.501
999.000	582.847	80.005	19.994	103.172	20.060	2.735	0.490
999.500	583.087	80.006	19.995	103.171	20.061	2.678	0.502
1000.000	583.352	80.003	19.993	103.173	20.058	2.837	0.511
1000.500	583.582	80.006	19.994	103.175	20.060	2.710	0.500
1001.000	583.849	80.004	19.995	103.177	20.064	2.451	0.496
1001.500	584.092	80.004	19.995	103.178	20.057	2.930	0.504
1002.000	584.361	80.003	19.993	103.177	20.061	2.669	0.512
1002.500	584.640	80.004	19.992	103.174	20.059	2.792	0.530
1003.000	584.891	80.006	19.995	103.169	20.064	2.432	0.538
1003.500	585.153	80.005	19.995	103.169	20.061	2.660	0.521
1004.000	585.377	80.005	19.995	103.170	20.064	2.453	0.500
1004.500	585.683	80.004	19.995	103.172	20.057	2.935	0.508
1005.000	585.886	80.004	19.997	103.175	20.062	2.580	0.519
1005.500	586.204	80.003	19.995	103.180	20.064	2.432	0.515
1006.000	586.443	80.005	19.995	103.182	20.061	2.667	0.539
1006.500	586.701	80.003	19.993	103.182	20.058	2.860	0.527
1007.000	586.927	80.004	19.995	103.181	20.053	3.158	0.491
1007.500	587.208	80.005	19.995	103.181	20.060	2.741	0.496
1008.000	587.443	80.004	19.995	103.181	20.063	2.530	0.511
1008.500	587.721	80.005	19.993	103.181	20.057	2.937	0.515
1009.000	587.958	80.004	19.995	103.180	20.060	2.733	0.514
1009.500	588.267	80.005	19.994	103.178	20.059	2.762	0.530
1010.000	588.474	80.003	19.995	103.175	20.055	3.054	0.531
1010.500	588.730	80.003	19.995	103.172	20.051	3.308	0.490
1011.000	588.974	80.005	19.996	103.172	20.060	2.717	0.481
1011.500	589.262	80.002	19.996	103.173	20.054	3.087	0.516
1012.000	589.503	80.004	19.996	103.176	20.064	2.451	0.530
1012.500	589.785	80.003	19.994	103.178	20.060	2.687	0.526
1013.000	590.025	80.004	19.996	103.179	20.058	2.830	0.523
1013.500	590.276	80.006	19.996	103.179	20.057	2.899	0.506
1014.000	590.553	80.006	19.996	103.177	20.054	3.133	0.509
1014.500	590.776	80.004	19.995	103.175	20.060	2.715	0.514
1015.000	591.049	80.004	19.994	103.172	20.056	2.981	0.498
1015.500	591.284	80.003	19.994	103.171	20.061	2.624	0.502
1016.000	591.581	80.004	19.994	103.168	20.056	3.005	0.520
1016.500	591.794	80.005	19.995	103.170	20.064	2.457	0.520
1017.000	592.081	80.005	19.993	103.171	20.062	2.574	0.505
1017.500	592.323	80.004	19.993	103.175	20.061	2.658	0.515
1018.000	592.582	80.006	19.995	103.178	20.055	3.074	0.516
1018.500	592.810	80.006	19.995	103.183	20.066	2.303	0.494
1019.000	593.089	80.006	19.996	103.180	20.057	2.905	0.497
1019.500	593.377	80.005	19.995	103.174	20.067	2.273	0.537
1020.000	593.610	80.004	19.994	103.170	20.061	2.617	0.544
1020.500	593.857	80.004	19.995	103.165	20.063	2.493	0.500
1021.000	594.097	80.004	19.993	103.163	20.062	2.578	0.483
1021.500	594.359	80.004	19.994	103.165	20.062	2.567	0.495
1022.000	594.601	80.005	19.994	103.169	20.062	2.560	0.503
1022.500	594.842	80.004	19.993	103.171	20.066	2.314	0.494
1023.000	595.122	80.005	19.994	103.174	20.062	2.587	0.502
1023.500	595.353	80.006	19.994	103.174	20.060	2.728	0.516
1024.000	595.621	80.007	19.995	103.171	20.064	2.454	0.505
1024.499	595.870	80.005	19.993	103.174	20.057	2.888	0.508
1024.999	596.130	80.009	19.995	103.173	20.055	3.020	0.513
1025.499	596.401	80.005	19.993	103.173	20.060	2.746	0.520
1026.000	596.642	80.004	19.994	103.174	20.059	2.812	0.521
1026.500	596.862	80.006	19.994	103.176	20.059	2.762	0.486
1026.999	597.167	80.005	19.993	103.170	20.064	2.455	0.493
1027.499	597.437	80.008	19.993	103.172	20.059	2.751	0.550
1027.999	597.679	80.005	19.994	103.175	20.062	2.608	0.544
1028.499	597.914	80.006	19.995	103.175	20.065	2.394	0.494
1028.999	598.170	80.006	19.994	103.176	20.060	2.712	0.484
1029.499	598.427	80.007	19.994	103.181	20.063	2.488	0.502
1029.999	598.671	80.005	19.993	103.181	20.064	2.465	0.507
1030.499	598.933	80.006	19.994	103.182	20.066	2.306	0.504
1030.999	599.179	80.007	19.994	103.182	20.067	2.260	0.507
1031.499	599.422	80.004	19.993	103.182	20.059	2.763	0.498
1031.999	599.667	80.005	19.994	103.180	20.071	1.996	0.488
1032.499	599.930	80.009	19.994	103.181	20.067	2.274	0.498
1033.000	600.215	80.007	19.995	103.179	20.068	2.187	0.528
1033.500	600.459	80.006	19.997	103.174	20.059	2.758	0.539
1033.999	600.710	80.006	19.994	103.167	20.060	2.685	0.512
1034.499	600.974	80.005	19.996	103.163	20.061	2.649	0.505
1034.999	601.203	80.006	19.995	103.159	20.063	2.487	0.504
1035.499	601.472	80.006	19.994	103.160	20.065	2.407	0.496
1035.999	601.717	80.005	19.996	103.164	20.065	2.383	0.506
1036.499	601.971	80.006	19.996	103.171	20.067	2.225	0.506
1036.999	602.233	80.004	19.995	103.177	20.064	2.468	0.507
1037.499	602.448	80.006	19.993	103.177	20.068	2.210	0.496
1037.999	602.721	80.006	19.996	103.176	20.057	2.921	0.482
1038.499	602.958	80.005	19.995	103.175	20.063	2.534	0.499
1038.999	603.229	80.004	19.993	103.170	20.067	2.280	0.509
1039.499	603.457	80.005	19.996	103.162	20.066	2.309	0.503
1039.999	603.725	80.004	19.994	103.162	20.065	2.362	0.498
1040.499	603.964	80.007	19.997	103.162	20.065	2.378	0.502
1040.999	604.240	80.007	19.995	103.160	20.063	2.532	0.511
1041.499	604.473	80.004	19.994	103.162	20.060	2.724	0.512
1041.999	604.714	80.005	19.995	103.164	20.058	2.822	0.491
1042.499	604.981	80.006	19.996	103.162	20.061	2.648	0.491
1043.000	605.277	80.004	19.994	103.161	20.065	2.419	0.536
1043.500	605.484	80.005	19.994	103.166	20.066	2.297	0.533
1043.999	605.710	80.006	19.995	103.170	20.065	2.360	0.468
1044.499	605.977	80.003	19.995	103.173	20.067	2.283	0.463
1045.000	606.233	80.006	19.995	103.177	20.071	1.974	0.508
1045.501	606.473	80.006	19.996	103.176	20.066	2.344	0.510
1046.001	606.707	80.006	19.996	103.175	20.069	2.124	0.485
1046.500	606.965	80.007	19.995	103.175	20.064	2.444	0.483
1046.999	607.241	80.005	19.996	103.177	20.067	2.260	0.513
1047.499	607.498	80.006	19.995	103.181	20.064	2.474	0.533
1048.000	607.714	80.005	19.995	103.182	20.064	2.451	0.503
1048.500	607.976	80.006	19.994	103.182	20.065	2.355	0.476
1048.999	608.279	80.003	19.993	103.181	20.071	1.978	0.521
1049.499	608.504	80.005	19.994	103.180	20.070	2.042	0.546
1049.999	608.760	80.009	19.995	103.178	20.067	2.278	0.504
1050.499	608.996	80.007	19.995	103.178	20.073	1.862	0.486
1050.999	609.239	80.006	19.994	103.177	20.071	1.994	0.486
1051.499	609.517	80.007	19.994	103.173	20.072	1.932	0.501
1051.999	609.789	80.006	19.993	103.172	20.064	2.442	0.536
1052.499	610.011	80.006	19.993	103.170	20.071	2.019	0.522
1052.999	610.285	80.006	19.995	103.169	20.068	2.173	0.495
1053.499	610.527	80.007	19.996	103.169	20.068	2.221	0.506
1053.999	610.763	80.010	19.995	103.164	20.070	2.033	0.497
1054.500	610.998	80.004	19.994	103.161	20.067	2.249	0.475
1055.000	611.230	80.004	19.994	103.157	20.067	2.240	0.469
1055.499	611.504	80.009	19.993	103.153	20.068	2.160	0.486
1056.000	611.760	80.007	19.994	103.152	20.068	2.204	0.518
1056.500	611.999	80.006	19.994	103.152	20.074	1.815	0.512
1056.999	612.236	80.007	19.994	103.154	20.069	2.124	0.486
1057.499	612.532	80.006	19.994	103.157	20.071	1.998	0.505
1057.999	612.764	80.004	19.993	103.160	20.071	1.998	0.530
1058.499	613.047	80.007	19.994	103.163	20.074	1.823	0.521
1058.999	613.299	80.004	19.995	103.170	20.072	1.900	0.525
1059.499	613.554	80.004	19.994	103.173	20.068	2.192	0.521
1059.999	613.803	80.006	19.995	103.174	20.068	2.188	0.506
1060.499	614.049	80.009	19.995	103.175	20.070	2.051	0.499
1060.999	614.322	80.005	19.995	103.174	20.070	2.054	0.507
1061.499	614.572	80.007	19.994	103.172	20.074	1.819	0.521
1061.999	614.835	80.005	19.995	103.171	20.073	1.889	0.518
1062.499	615.085	80.004	19.993	103.170	20.074	1.806	0.513
1062.999	615.337	80.003	19.996	103.170	20.070	2.069	0.508
1063.499	615.611	80.005	19.995	103.169	20.071	1.999	0.514
1064.000	615.847	80.002	19.995	103.171	20.077	1.580	0.518
1064.500	616.121	80.006	19.997	103.170	20.069	2.147	0.510
1064.999	616.378	80.004	19.996	103.167	20.074	1.767	0.521
1065.499	616.607	80.003	19.995	103.163	20.072	1.899	0.509
1066.000	616.868	80.005	19.994	103.161	20.071	1.985	0.488
1066.500	617.123	80.005	19.995	103.157	20.073	1.858	0.503
1066.999	617.367	80.004	19.996	103.155	20.070	2.029	0.508
1067.499	617.622	80.008	19.994	103.158	20.068	2.161	0.499
1067.999	617.859	80.004	19.994	103.164	20.076	1.662	0.495
1068.499	618.102	80.002	19.995	103.167	20.072	1.919	0.486
1068.999	618.369	80.006	19.995	103.172	20.068	2.163	0.496
1069.499	618.643	80.005	19.996	103.174	20.069	2.115	0.526
1069.999	618.868	80.003	19.995	103.170	20.073	1.854	0.520
1070.499	619.147	80.006	19.996	103.164	20.068	2.202	0.501
1070.999	619.369	80.002	19.996	103.158	20.070	2.058	0.502
1071.499	619.637	80.004	19.996	103.152	20.071	2.010	0.496
1071.999	619.902	80.001	19.996	103.153	20.068	2.190	0.512
1072.499	620.168	80.009	19.996	103.152	20.074	1.828	0.532
1072.999	620.414	80.005	19.995	103.154	20.075	1.742	0.522
1073.499	620.648	80.005	19.996	103.153	20.069	2.117	0.496
1073.999	620.914	80.006	19.995	103.154	20.074	1.814	0.490
1074.499	621.130	80.003	19.995	103.149	20.072	1.931	0.491
1074.999	621.428	80.004	19.995	103.148	20.072	1.928	0.498
1075.499	621.689	80.005	19.997	103.145	20.071	1.974	0.537
1075.999	621.899	80.004	19.996	103.148	20.068	2.171	0.515
1076.499	622.125	80.004	19.996	103.146	20.072	1.919	0.453
1076.999	622.412	80.004	19.994	103.147	20.072	1.899	0.475
1077.499	622.653	80.007	19.994	103.148	20.070	2.067	0.521
1077.999	622.886	80.005	19.996	103.150	20.071	1.994	0.501
1078.499	623.134	80.005	19.995	103.148	20.067	2.226	0.478
1078.999	623.407	80.004	19.995	103.149	20.072	1.928	0.501
1079.499	623.678	80.004	19.995	103.150	20.075	1.744	0.533
1079.999	623.905	80.004	19.995	103.148	20.073	1.874	0.521
1080.500	624.132	80.004	19.995	103.148	20.070	2.076	0.475
1081.001	624.372	80.005	19.995	103.147	20.074	1.799	0.461
1081.500	624.646	80.003	19.994	103.145	20.071	2.007	0.491
1082.000	624.906	80.004	19.996	103.144	20.073	1.873	0.524
1082.500	625.143	80.004	19.995	103.145	20.073	1.830	0.515
1082.999	625.430	80.005	19.995	103.145	20.073	1.867	0.511
1083.499	625.663	80.004	19.993	103.148	20.069	2.108	0.522
1083.999	625.872	80.005	19.994	103.153	20.073	1.885	0.481
1084.499	626.135	80.004	19.994	103.158	20.074	1.805	0.457
1084.999	626.391	80.005	19.995	103.157	20.075	1.762	0.496
1085.499	626.622	80.004	19.994	103.157	20.072	1.903	0.503
1085.999	626.913	80.008	19.994	103.157	20.070	2.069	0.505
1086.499	627.190	80.004	19.995	103.156	20.074	1.806	0.545
1086.999	627.405	80.003	19.993	103.153	20.074	1.801	0.530
1087.499	627.653	80.004	19.993	103.153	20.077	1.626	0.477
1088.000	627.928	80.004	19.995	103.156	20.070	2.082	0.492
1088.500	628.185	80.005	19.994	103.156	20.073	1.864	0.527
1088.999	628.394	80.005	19.995	103.153	20.072	1.932	0.499
1089.499	628.629	80.004	19.994	103.151	20.068	2.178	0.455
1089.999	628.926	80.002	19.994	103.151	20.068	2.207	0.488
1090.499	629.166	80.005	19.994	103.148	20.072	1.914	0.534
1090.999	629.395	80.002	19.994	103.153	20.077	1.610	0.503
1091.499	629.647	80.002	19.994	103.158	20.074	1.794	0.475
1091.999	629.917	80.002	19.994	103.159	20.069	2.113	0.502
1092.499	630.207	80.002	19.994	103.166	20.066	2.294	0.541
1092.999	630.442	80.003	19.994	103.169	20.072	1.930	0.542
1093.500	630.688	80.004	19.995	103.168	20.075	1.721	0.503
1094.001	630.947	80.006	19.995	103.165	20.073	1.876	0.493
1094.500	631.218	80.001	19.995	103.165	20.070	2.053	0.518
1094.999	631.443	80.003	19.994	103.158	20.069	2.092	0.513
1095.499	631.696	80.004	19.994	103.156	20.076	1.690	0.487
1095.999	631.971	80.004	19.994	103.155	20.070	2.071	0.504
1096.499	632.198	80.005	19.994	103.152	20.070	2.087	0.515
1096.999	632.454	80.005	19.994	103.154	20.067	2.265	0.492
1097.499	632.707	80.006	19.994	103.160	20.073	1.881	0.496
1098.000	632.976	80.004	19.994	103.160	20.074	1.801	0.515
1098.500	633.172	80.003	19.994	103.164	20.073	1.867	0.494
1098.999	633.460	80.006	19.995	103.169	20.071	2.008	0.475
1099.499	633.712	80.006	19.994	103.171	20.076	1.685	0.512
1099.999	633.987	80.006	19.994	103.170	20.071	2.012	0.533
1100.499	634.250	80.005	19.995	103.172	20.074	1.774	0.533
1100.999	634.516	80.003	19.994	103.170	20.073	1.835	0.534
1101.499	634.743	80.002	19.994	103.168	20.075	1.756	0.511
1101.999	634.971	80.003	19.994	103.164	20.071	1.972	0.474
1102.499	635.246	80.005	19.994	103.161	20.068	2.187	0.479
1102.999	635.510	80.004	19.994	103.157	20.071	1.963	0.521
1103.499	635.790	80.005	19.993	103.153	20.072	1.953	0.541
1103.999	636.043	80.003	19.993	103.154	20.075	1.748	0.539
1104.499	636.297	80.001	19.994	103.156	20.077	1.605	0.520
1104.999	636.533	80.006	19.996	103.161	20.080	1.430	0.498
1105.499	636.799	80.007	19.995	103.164	20.075	1.749	0.496
1105.999	637.048	80.005	19.993	103.165	20.076	1.669	0.509
1106.499	637.266	80.004	19.994	103.161	20.074	1.806	0.491
1106.999	637.538	80.004	19.994	103.159	20.078	1.512	0.478
1107.499	637.783	80.003	19.994	103.154	20.078	1.539	0.504
1107.999	638.017	80.001	19.994	103.153	20.077	1.592	0.498
1108.499	638.298	80.006	19.994	103.157	20.075	1.753	0.496
1108.999	638.540	80.005	19.993	103.160	20.077	1.605	0.519
1109.499	638.810	80.008	19.995	103.163	20.074	1.808	0.518
1109.999	639.107	80.004	19.993	103.165	20.077	1.585	0.540
1110.499	639.313	80.008	19.994	103.165	20.078	1.546	0.535
1110.999	639.596	80.005	19.994	103.163	20.073	1.848	0.495
1111.499	639.807	80.005	19.996	103.162	20.073	1.862	0.492
1111.999	640.127	80.005	19.994	103.159	20.072	1.908	0.513
1112.499	640.357	80.005	19.994	103.156	20.071	1.998	0.541
1112.999	640.580	80.006	19.995	103.154	20.073	1.857	0.501
1113.499	640.878	80.006	19.994	103.155	20.074	1.805	0.487
1113.999	641.122	80.003	19.993	103.153	20.074	1.824	0.532
1114.499	641.395	80.005	19.995	103.152	20.075	1.726	0.529
1114.999	641.625	80.007	19.995	103.156	20.079	1.501	0.510
1115.499	641.864	80.006	19.994	103.158	20.077	1.628	0.486
1115.999	642.113	80.005	19.994	103.157	20.077	1.573	0.479
1116.499	642.412	80.005	19.994	103.158	20.075	1.730	0.518
1116.999	642.624	80.003	19.994	103.159	20.073	1.835	0.530
1117.500	642.921	80.006	19.993	103.158	20.076	1.683	0.510
1118.000	643.184	80.004	19.994	103.159	20.076	1.681	0.534
1118.499	643.462	80.006	19.994	103.157	20.074	1.815	0.550
1119.000	643.671	80.006	19.994	103.155	20.071	1.969	0.514
1119.500	643.922	80.007	19.993	103.156	20.072	1.903	0.474
1120.000	644.210	80.006	19.995	103.160	20.071	2.008	0.500
1120.500	644.459	80.007	19.993	103.161	20.075	1.760	0.538
1120.999	644.668	80.005	19.994	103.162	20.073	1.867	0.497
1121.499	644.943	80.007	19.994	103.166	20.072	1.896	0.471
1122.000	645.204	80.007	19.995	103.168	20.071	2.008	0.510
1122.500	645.475	80.005	19.993	103.165	20.073	1.888	0.534
1122.999	645.721	80.005	19.994	103.162	20.071	1.963	0.524
1123.499	645.952	80.005	19.994	103.164	20.073	1.874	0.497
1123.999	646.200	80.006	19.995	103.164	20.080	1.405	0.478
1124.499	646.431	80.005	19.994	103.163	20.071	2.003	0.478
1125.000	646.697	80.005	19.994	103.161	20.076	1.694	0.488
1125.500	646.953	80.006	19.994	103.163	20.073	1.892	0.510
1125.999	647.210	80.005	19.994	103.161	20.075	1.706	0.518
1126.499	647.450	80.005	19.994	103.159	20.076	1.633	0.505
1127.000	647.689	80.005	19.994	103.157	20.073	1.888	0.488
1127.500	647.938	80.005	19.994	103.154	20.073	1.885	0.484
1127.999	648.192	80.004	19.995	103.151	20.075	1.722	0.496
1128.500	648.452	80.006	19.995	103.151	20.076	1.676	0.508
1129.000	648.725	80.006	19.995	103.151	20.073	1.894	0.523
1129.499	648.998	80.006	19.995	103.149	20.074	1.781	0.539
1129.999	649.231	80.006	19.995	103.149	20.075	1.751	0.526
1130.499	649.486	80.005	19.994	103.154	20.076	1.647	0.497
1130.999	649.743	80.009	19.995	103.156	20.076	1.662	0.500
1131.499	650.027	80.006	19.992	103.154	20.072	1.929	0.527
1131.999	650.273	80.005	19.994	103.155	20.078	1.506	0.535
1132.499	650.471	80.009	19.994	103.155	20.077	1.592	0.486
1132.999	650.740	80.008	19.995	103.147	20.070	2.040	0.455
1133.499	651.021	80.008	19.994	103.143	20.080	1.371	0.509
1133.999	651.247	80.004	19.995	103.141	20.073	1.829	0.529
1134.499	651.510	80.008	19.994	103.140	20.074	1.828	0.498
1134.999	651.788	80.007	19.994	103.142	20.074	1.771	0.515
1135.499	651.973	80.006	19.995	103.143	20.077	1.581	0.502
1135.999	652.257	80.006	19.993	103.146	20.075	1.728	0.466
1136.500	652.529	80.006	19.995	103.146	20.076	1.656	0.512
1137.000	652.780	80.006	19.994	103.146	20.073	1.881	0.540
1137.499	653.003	80.008	19.994	103.144	20.076	1.690	0.499
1137.999	653.269	80.011	19.994	103.143	20.077	1.569	0.482
1138.499	653.507	80.006	19.994	103.141	20.076	1.679	0.496
1138.999	653.754	80.008	19.995	103.143	20.078	1.553	0.494
1139.500	654.011	80.008	19.994	103.146	20.077	1.619	0.495
1140.001	654.263	80.008	19.994	103.152	20.075	1.747	0.506
1140.500	654.498	80.009	19.994	103.154	20.075	1.730	0.498
1140.999	654.732	80.007	19.994	103.154	20.076	1.683	0.478
1141.499	655.000	80.007	19.994	103.152	20.080	1.412	0.486
1141.999	655.249	80.005	19.994	103.149	20.076	1.696	0.510
1142.500	655.479	80.006	19.995	103.143	20.073	1.835	0.498
1143.000	655.719	80.006	19.994	103.141	20.071	2.008	0.475
1143.500	655.985	80.006	19.995	103.141	20.074	1.783	0.488
1144.000	656.216	80.006	19.994	103.141	20.077	1.615	0.501
1144.499	656.497	80.006	19.995	103.141	20.078	1.537	0.505
1144.999	656.708	80.005	19.995	103.143	20.077	1.590	0.503
1145.499	656.958	80.003	19.994	103.144	20.079	1.437	0.477
1145.999	657.197	80.004	19.994	103.144	20.074	1.783	0.475
1146.499	657.444	80.003	19.995	103.145	20.077	1.622	0.487
1146.999	657.684	80.004	19.995	103.146	20.075	1.708	0.486
1147.499	657.920	80.004	19.995	103.144	20.080	1.390	0.481
1147.999	658.156	80.005	19.994	103.144	20.078	1.540	0.474
1148.499	658.399	80.005	19.995	103.143	20.079	1.483	0.476
1149.000	658.623	80.005	19.994	103.144	20.077	1.581	0.473
1149.500	658.855	80.004	19.995	103.144	20.077	1.626	0.462
1149.999	659.124	80.004	19.994	103.144	20.078	1.562	0.478
1150.499	659.371	80.003	19.995	103.144	20.079	1.467	0.508
1150.999	659.631	80.003	19.994	103.144	20.074	1.808	0.511
1151.499	659.857	80.003	19.995	103.147	20.077	1.631	0.497
1151.999	660.089	80.006	19.994	103.148	20.078	1.567	0.472
1152.500	660.369	80.004	19.995	103.149	20.077	1.580	0.485
1153.000	660.573	80.005	19.995	103.149	20.078	1.515	0.498
1153.499	660.790	80.004	19.994	103.149	20.079	1.451	0.453
1153.999	661.023	80.002	19.995	103.147	20.078	1.528	0.435
1154.499	661.291	80.003	19.995	103.146	20.081	1.348	0.475
1154.999	661.513	80.003	19.995	103.146	20.080	1.396	0.496
1155.499	661.730	80.003	19.995	103.149	20.076	1.672	0.465
1155.999	662.005	80.006	19.995	103.149	20.080	1.374	0.465
1156.499	662.194	80.004	19.995	103.149	20.076	1.658	0.478
1156.999	662.429	80.006	19.994	103.148	20.076	1.633	0.444
1157.499	662.674	80.007	19.995	103.149	20.073	1.890	0.452
1157.999	662.920	80.002	19.994	103.146	20.079	1.494	0.486
1158.499	663.142	80.004	19.995	103.146	20.079	1.483	0.480
1158.999	663.404	80.006	19.995	103.145	20.077	1.599	0.476
1159.500	663.645	80.005	19.995	103.146	20.078	1.544	0.493
1160.000	663.876	80.005	19.995	103.145	20.079	1.496	0.488
1160.499	664.114	80.004	19.996	103.144	20.074	1.797	0.470
1161.000	664.359	80.004	19.995	103.145	20.078	1.508	0.476
1161.500	664.578	80.005	19.995	103.146	20.078	1.535	0.474
1161.999	664.837	80.005	19.995	103.146	20.080	1.406	0.471
1162.499	665.071	80.005	19.996	103.146	20.082	1.255	0.485
1162.999	665.264	80.003	19.995	103.147	20.082	1.289	0.460
1163.499	665.524	80.003	19.996	103.146	20.082	1.285	0.440
1163.999	665.762	80.005	19.995	103.145	20.076	1.644	0.475
1164.499	665.983	80.004	19.996	103.145	20.074	1.794	0.478
1164.999	666.188	80.002	19.995	103.145	20.080	1.421	0.443
1165.499	666.469	80.003	19.996	103.145	20.078	1.519	0.456
1165.999	666.675	80.005	19.995	103.146	20.079	1.465	0.486
1166.499	666.887	80.005	19.996	103.146	20.077	1.615	0.452
1166.999	667.140	80.005	19.995	103.146	20.075	1.753	0.442
1167.499	667.400	80.005	19.996	103.146	20.076	1.692	0.489
1167.999	667.633	80.003	19.995	103.145	20.080	1.389	0.502
1168.499	667.828	80.004	19.996	103.144	20.076	1.669	0.460
1168.999	668.080	80.004	19.995	103.144	20.076	1.671	0.438
1169.499	668.292	80.004	19.995	103.143	20.082	1.301	0.456
1170.000	668.515	80.005	19.994	103.147	20.078	1.508	0.449
1170.500	668.780	80.003	19.995	103.150	20.081	1.367	0.462
1170.999	669.020	80.004	19.995	103.150	20.082	1.249	0.497
1171.499	669.267	80.005	19.995	103.150	20.079	1.448	0.496
1171.999	669.472	80.005	19.994	103.150	20.077	1.621	0.470
1172.499	669.704	80.005	19.995	103.146	20.083	1.182	0.445
1172.999	669.957	80.005	19.995	103.144	20.082	1.251	0.461
1173.499	670.193	80.006	19.994	103.144	20.078	1.521	0.487
1173.999	670.411	80.003	19.996	103.144	20.080	1.398	0.472
1174.499	670.699	80.003	19.994	103.144	20.078	1.503	0.480
1174.999	670.904	80.003	19.995	103.145	20.078	1.547	0.500
1175.499	671.143	80.001	19.995	103.145	20.079	1.471	0.468
1175.999	671.402	80.002	19.995	103.146	20.076	1.681	0.470
1176.499	671.638	80.004	19.995	103.146	20.081	1.360	0.496
1176.999	671.846	80.006	19.994	103.146	20.080	1.412	0.470
1177.499	672.118	80.004	19.994	103.149	20.081	1.319	0.463
1178.000	672.350	80.003	19.994	103.151	20.078	1.512	0.492
1178.500	672.591	80.005	19.994	103.151	20.082	1.253	0.488
1178.999	672.783	80.004	19.996	103.152	20.078	1.558	0.453
1179.499	673.076	80.004	19.994	103.153	20.079	1.485	0.459
1179.999	673.282	80.003	19.994	103.150	20.077	1.610	0.492
1180.499	673.515	80.005	19.995	103.148	20.078	1.565	0.469
1180.999	673.779	80.003	19.994	103.148	20.079	1.487	0.468
1181.499	674.043	80.005	19.994	103.148	20.077	1.626	0.512
1181.999	674.279	80.004	19.994	103.148	20.076	1.651	0.514
1182.499	674.488	80.005	19.994	103.148	20.078	1.522	0.472
1182.999	674.773	80.003	19.994	103.148	20.079	1.469	0.470
1183.499	674.990	80.004	19.995	103.149	20.078	1.508	0.498
1183.999	675.231	80.005	19.994	103.149	20.079	1.476	0.480
1184.500	675.492	80.004	19.995	103.148	20.081	1.335	0.480
1185.001	675.772	80.005	19.996	103.147	20.084	1.137	0.522
1185.501	676.005	80.006	19.994	103.147	20.079	1.497	0.527
1186.000	676.190	80.006	19.993	103.144	20.079	1.492	0.465
1186.499	676.424	80.005	19.995	103.143	20.082	1.244	0.418
1186.999	676.675	80.006	19.994	103.144	20.084	1.171	0.452
1187.499	676.922	80.006	19.995	103.142	20.074	1.785	0.492
1187.999	677.169	80.004	19.995	103.141	20.076	1.637	0.496
1188.499	677.405	80.006	19.994	103.141	20.080	1.433	0.489
1188.999	677.631	80.006	19.995	103.141	20.078	1.521	0.472
1189.499	677.862	80.006	19.994	103.139	20.080	1.406	0.459
1189.999	678.153	80.006	19.995	103.140	20.083	1.194	0.489
1190.499	678.319	80.005	19.995	103.142	20.081	1.364	0.489
1190.999	678.584	80.007	19.995	103.142	20.082	1.242	0.444
1191.499	678.838	80.008	19.996	103.141	20.079	1.489	0.476
1191.999	679.052	80.006	19.994	103.143	20.080	1.394	0.493
1192.500	679.289	80.007	19.995	103.142	20.082	1.303	0.459
1193.000	679.525	80.006	19.994	103.141	20.081	1.346	0.462
1193.499	679.760	80.006	19.994	103.141	20.079	1.476	0.472
1194.000	679.983	80.005	19.994	103.141	20.080	1.430	0.465
1194.500	680.206	80.007	19.995	103.143	20.082	1.258	0.452
1194.999	680.493	80.007	19.995	103.144	20.078	1.544	0.478
1195.500	680.711	80.006	19.994	103.143	20.078	1.514	0.507
1196.000	680.971	80.006	19.995	103.143	20.082	1.251	0.492
1196.499	681.218	80.007	19.995	103.143	20.081	1.306	0.492
1196.999	681.395	80.005	19.995	103.141	20.081	1.317	0.465
1197.500	681.701	80.006	19.995	103.141	20.080	1.415	0.453
1198.000	681.904	80.007	19.994	103.141	20.077	1.572	0.496
1198.499	682.143	80.006	19.994	103.141	20.081	1.340	0.476
1198.999	682.392	80.005	19.994	103.141	20.080	1.419	0.465
1199.500	682.639	80.006	19.995	103.142	20.079	1.469	0.492
1200.000	682.876	80.006	19.994	103.143	20.080	1.371	0.491
1200.500	683.103	80.005	19.994	103.145	20.077	1.605	0.474
1201.000	683.371	80.005	19.995	103.146	20.077	1.580	0.479
1201.500	683.581	80.006	19.994	103.146	20.078	1.517	0.487
1202.000	683.845	80.005	19.994	103.146	20.077	1.622	0.476
1202.500	684.069	80.005	19.995	103.144	20.080	1.378	0.481
1203.000	684.300	80.005	19.994	103.143	20.076	1.635	0.472
1203.500	684.555	80.006	19.995	103.143	20.077	1.624	0.471
1204.000	684.828	80.006	19.995	103.145	20.075	1.703	0.507
1204.499	685.075	80.006	19.994	103.145	20.083	1.178	0.524
1204.999	685.301	80.006	19.994	103.145	20.082	1.271	0.496
1205.499	685.555	80.006	19.995	103.145	20.080	1.387	0.477
1205.999	685.834	80.006	19.995	103.145	20.081	1.326	0.507
1206.499	686.043	80.007	19.996	103.144	20.081	1.339	0.510
1206.999	686.293	80.007	19.995	103.142	20.080	1.433	0.473
1207.499	686.544	80.006	19.995	103.143	20.076	1.640	0.480
1208.000	686.738	80.007	19.996	103.146	20.079	1.496	0.473
1208.500	687.030	80.007	19.995	103.148	20.077	1.596	0.466
1208.999	687.238	80.006	19.995	103.148	20.081	1.362	0.494
1209.499	687.488	80.008	19.994	103.148	20.075	1.740	0.479
1209.999	687.727	80.008	19.995	103.149	20.076	1.637	0.473
1210.499	687.952	80.006	19.994	103.146	20.080	1.373	0.476
1210.999	688.231	80.006	19.994	103.144	20.073	1.853	0.484
1211.499	688.464	80.008	19.995	103.144	20.076	1.655	0.508
1211.999	688.701	80.008	19.994	103.145	20.076	1.647	0.491
1212.499	688.918	80.008	19.995	103.145	20.075	1.763	0.462
1212.999	689.164	80.007	19.994	103.145	20.076	1.635	0.458
1213.499	689.434	80.008	19.995	103.144	20.076	1.646	0.489
1213.999	689.683	80.008	19.994	103.144	20.077	1.599	0.517
1214.499	689.910	80.008	19.994	103.144	20.080	1.417	0.498
1214.999	690.189	80.007	19.994	103.144	20.071	2.017	0.491
1215.499	690.423	80.010	19.995	103.144	20.079	1.442	0.509
1215.999	690.681	80.006	19.993	103.144	20.074	1.767	0.502
1216.499	690.880	80.008	19.993	103.145	20.076	1.662	0.474
1216.999	691.124	80.009	19.993	103.145	20.074	1.826	0.450
1217.500	691.391	80.008	19.993	103.145	20.074	1.779	0.477
1218.001	691.637	80.009	19.994	103.145	20.074	1.826	0.512
1218.500	691.880	80.007	19.994	103.145	20.076	1.678	0.501
1218.999	692.146	80.009	19.994	103.145	20.076	1.646	0.499
1219.499	692.393	80.009	19.994	103.145	20.076	1.646	0.510
1219.999	692.653	80.008	19.995	103.145	20.074	1.806	0.510
1220.500	692.882	80.008	19.993	103.145	20.077	1.624	0.498
1221.000	693.103	80.007	19.994	103.145	20.075	1.722	0.470
1221.499	693.364	80.007	19.993	103.144	20.078	1.542	0.466
1221.999	693.576	80.009	19.995	103.143	20.077	1.592	0.478
1222.499	693.871	80.007	19.995	103.143	20.078	1.517	0.490
1222.999	694.095	80.005	19.994	103.143	20.075	1.754	0.513
1223.499	694.357	80.007	19.995	103.142	20.076	1.692	0.502
1224.000	694.575	80.009	19.995	103.140	20.074	1.821	0.483
1224.500	694.865	80.006	19.995	103.139	20.077	1.585	0.495
1224.999	695.097	80.007	19.995	103.139	20.077	1.610	0.515
1225.499	695.334	80.006	19.994	103.140	20.073	1.854	0.495
1225.999	695.609	80.005	19.995	103.140	20.078	1.546	0.490
1226.499	695.824	80.005	19.994	103.144	20.075	1.735	0.501
1226.999	696.069	80.006	19.995	103.145	20.071	2.022	0.475
1227.499	696.325	80.005	19.994	103.145	20.071	1.988	0.481
1227.999	696.592	80.005	19.995	103.144	20.075	1.763	0.512
1228.499	696.844	80.007	19.995	103.144	20.070	2.085	0.521
1228.999	697.057	80.004	19.996	103.143	20.077	1.581	0.492
1229.499	697.356	80.004	19.995	103.143	20.076	1.667	0.489
1229.999	697.565	80.004	19.995	103.144	20.076	1.685	0.510
1230.499	697.800	80.004	19.995	103.144	20.078	1.506	0.476
1230.999	698.051	80.004	19.995	103.144	20.071	2.017	0.466
1231.499	698.358	80.005	19.995	103.145	20.074	1.803	0.522
1231.999	698.604	80.003	19.996	103.145	20.070	2.074	0.556
1232.499	698.806	80.004	19.994	103.144	20.073	1.846	0.500
1232.999	699.062	80.004	19.995	103.145	20.071	1.995	0.453
1233.499	699.321	80.005	19.995	103.144	20.068	2.220	0.487
1233.999	699.560	80.004	19.995	103.145	20.069	2.104	0.507
1234.499	699.795	80.004	19.995	103.145	20.069	2.111	0.486
1234.999	700.055	80.004	19.994	103.146	20.072	1.924	0.485
1235.500	700.322	80.005	19.995	103.144	20.070	2.042	0.511
1236.000	700.566	80.004	19.995	103.145	20.074	1.817	0.519
1236.499	700.830	80.004	19.994	103.143	20.073	1.892	0.509
1236.999	701.056	80.005	19.995	103.144	20.072	1.913	0.499
1237.499	701.294	80.005	19.994	103.144	20.073	1.872	0.477
1238.000	701.556	80.005	19.994	103.145	20.077	1.608	0.482
1238.500	701.821	80.006	19.994	103.145	20.073	1.849	0.513
1238.999	702.036	80.005	19.995	103.146	20.074	1.792	0.503
1239.499	702.308	80.005	19.993	103.147	20.074	1.801	0.484
1239.999	702.573	80.005	19.994	103.147	20.076	1.674	0.513
1240.500	702.794	80.004	19.994	103.147	20.074	1.785	0.512
1241.000	703.039	80.006	19.994	103.147	20.071	1.979	0.476
1241.500	703.283	80.004	19.994	103.147	20.080	1.435	0.477
1242.000	703.569	80.005	19.995	103.147	20.076	1.663	0.509
1242.499	703.802	80.004	19.994	103.147	20.073	1.829	0.524
1242.999	704.035	80.004	19.996	103.146	20.072	1.946	0.492
1243.499	704.320	80.006	19.995	103.146	20.075	1.703	0.492
1243.999	704.562	80.005	19.995	103.146	20.071	1.965	0.523
1244.499	704.794	80.006	19.994	103.146	20.075	1.730	0.501
1244.999	705.073	80.004	19.995	103.146	20.073	1.842	0.492
1245.499	705.295	80.004	19.995	103.145	20.074	1.796	0.506
1246.000	705.515	80.006	19.994	103.144	20.072	1.933	0.472
1246.500	705.769	80.006	19.995	103.143	20.073	1.847	0.458
1246.999	706.005	80.005	19.995	103.142	20.078	1.506	0.482
1247.499	706.293	80.005	19.994	103.144	20.083	1.208	0.507
1247.999	706.522	80.006	19.996	103.145	20.074	1.806	0.521
1248.500	706.770	80.005	19.995	103.147	20.074	1.795	0.497
1249.000	707.060	80.005	19.996	103.147	20.074	1.783	0.507
1249.499	707.285	80.007	19.996	103.148	20.070	2.047	0.526
1249.999	707.551	80.006	19.995	103.146	20.073	1.874	0.503
1250.500	707.782	80.006	19.995	103.144	20.066	2.329	0.494
1251.000	708.067	80.004	19.995	103.144	20.072	1.960	0.507
1251.499	708.302	80.005	19.996	103.143	20.078	1.556	0.518
1251.999	708.543	80.005	19.995	103.141	20.077	1.578	0.498
1252.500	708.781	80.006	19.997	103.142	20.071	1.967	0.477
1253.000	709.030	80.004	19.995	103.144	20.074	1.776	0.483
1253.500	709.314	80.004	19.995	103.146	20.066	2.302	0.510
1254.000	709.546	80.005	19.995	103.150	20.072	1.906	0.525
1254.499	709.832	80.003	19.995	103.151	20.070	2.045	0.517
1254.999	710.063	80.004	19.996	103.152	20.070	2.036	0.518
1255.500	710.305	80.002	19.995	103.150	20.071	1.970	0.495
1256.000	710.594	80.003	19.996	103.149	20.076	1.637	0.502
1256.499	710.828	80.005	19.996	103.145	20.073	1.856	0.527
1256.999	711.043	80.004	19.996	103.143	20.071	2.010	0.486
1257.499	711.320	80.004	19.995	103.142	20.070	2.028	0.471
1257.999	711.589	80.005	19.996	103.142	20.073	1.851	0.519
1258.499	711.814	80.006	19.996	103.141	20.074	1.772	0.520
1258.999	712.054	80.006	19.996	103.141	20.074	1.796	0.480
1259.500	712.317	80.003	19.995	103.142	20.070	2.028	0.484
1260.000	712.571	80.003	19.996	103.142	20.071	1.976	0.510
1260.499	712.823	80.002	19.996	103.141	20.068	2.161	0.511
1260.999	713.080	80.005	19.996	103.141	20.069	2.136	0.507
1261.499	713.354	80.003	19.996	103.141	20.072	1.935	0.520
1261.999	713.564	80.003	19.996	103.142	20.074	1.824	0.507
1262.499	713.817	80.005	19.995	103.143	20.073	1.881	0.473
1263.000	714.051	80.004	19.996	103.144	20.073	1.865	0.475
1263.500	714.313	80.004	19.997	103.145	20.073	1.870	0.492
1263.999	714.580	80.005	19.995	103.146	20.073	1.835	0.513
1264.499	714.818	80.004	19.995	103.146	20.073	1.881	0.517
1264.999	715.050	80.005	19.995	103.145	20.074	1.804	0.487
1265.499	715.324	80.004	19.995	103.145	20.075	1.703	0.488
1265.999	715.617	80.006	19.994	103.145	20.075	1.728	0.536
1266.499	715.867	80.003	19.994	103.143	20.070	2.049	0.555
1266.999	716.120	80.005	19.995	103.143	20.074	1.815	0.523
1267.500	716.369	80.003	19.996	103.144	20.067	2.226	0.502
1268.000	716.657	80.004	19.996	103.145	20.071	1.992	0.519
1268.499	716.870	80.005	19.995	103.145	20.072	1.945	0.519
1268.999	717.144	80.005	19.993	103.146	20.070	2.083	0.494
1269.499	717.356	80.008	19.996	103.145	20.070	2.065	0.486
1269.999	717.626	80.005	19.994	103.147	20.069	2.122	0.484
1270.499	717.872	80.005	19.994	103.147	20.071	1.978	0.500
1270.999	718.152	80.006	19.994	103.146	20.075	1.708	0.521
1271.499	718.371	80.006	19.994	103.146	20.071	2.020	0.513
1271.999	718.640	80.007	19.995	103.147	20.071	2.011	0.493
1272.499	718.927	80.004	19.994	103.144	20.071	1.988	0.521
1272.999	719.170	80.007	19.995	103.143	20.076	1.688	0.543
1273.499	719.367	80.006	19.994	103.143	20.076	1.665	0.485
1273.999	719.671	80.005	19.995	103.143	20.069	2.092	0.471
1274.499	719.924	80.007	19.995	103.144	20.071	1.995	0.529
1274.999	720.153	80.007	19.993	103.145	20.075	1.758	0.519
1275.499	720.410	80.006	19.994	103.145	20.070	2.058	0.483
1275.999	720.680	80.008	19.993	103.145	20.075	1.703	0.507
1276.499	720.936	80.006	19.995	103.145	20.070	2.090	0.527
1277.000	721.201	80.007	19.995	103.144	20.071	1.972	0.524
1277.500	721.451	80.005	19.995	103.146	20.072	1.931	0.518
1277.999	721.717	80.005	19.994	103.147	20.071	2.004	0.515
1278.499	721.968	80.006	19.993	103.147	20.069	2.120	0.517
1278.999	722.213	80.006	19.994	103.147	20.068	2.168	0.507
1279.499	722.463	80.008	19.995	103.145	20.069	2.117	0.496
1279.999	722.736	80.008	19.994	103.143	20.074	1.795	0.509
1280.499	722.950	80.004	19.994	103.143	20.068	2.174	0.505
1280.999	723.182	80.006	19.993	103.143	20.070	2.028	0.466
1281.499	723.448	80.006	19.994	103.143	20.070	2.090	0.472
1281.999	723.740	80.004	19.994	103.144	20.075	1.737	0.528
1282.499	723.961	80.004	19.995	103.143	20.076	1.676	0.535
1282.999	724.172	80.008	19.994	103.142	20.071	1.983	0.472
1283.499	724.420	80.007	19.994	103.140	20.073	1.872	0.445
1283.999	724.712	80.006	19.994	103.139	20.071	2.022	0.499
1284.499	724.955	80.005	19.994	103.139	20.073	1.870	0.537
1284.999	725.226	80.006	19.995	103.141	20.069	2.113	0.525
1285.499	725.458	80.004	19.994	103.141	20.074	1.781	0.509
1285.999	725.715	80.005	19.994	103.145	20.072	1.933	0.496
1286.499	726.002	80.006	19.995	103.146	20.073	1.871	0.517
1286.999	726.255	80.007	19.993	103.146	20.069	2.103	0.542
1287.499	726.488	80.007	19.994	103.147	20.072	1.940	0.513
1287.999	726.768	80.006	19.994	103.145	20.071	2.003	0.499
1288.499	726.979	80.005	19.994	103.144	20.073	1.858	0.502
1288.999	727.272	80.006	19.994	103.142	20.075	1.722	0.498
1289.499	727.504	80.006	19.995	103.141	20.073	1.833	0.515
1289.999	727.748	80.006	19.994	103.141	20.074	1.781	0.500
1290.499	727.992	80.006	19.995	103.143	20.073	1.878	0.481
1290.999	728.227	80.005	19.994	103.143	20.073	1.876	0.484
1291.499	728.508	80.006	19.994	103.144	20.074	1.797	0.498
1291.999	728.729	80.006	19.994	103.145	20.075	1.744	0.509
1292.499	728.941	80.005	19.995	103.144	20.076	1.676	0.467
1292.999	729.201	80.006	19.994	103.144	20.070	2.044	0.452
1293.499	729.443	80.006	19.995	103.143	20.072	1.933	0.487
1293.999	729.736	80.008	19.995	103.143	20.076	1.679	0.518
1294.499	729.960	80.007	19.993	103.144	20.073	1.890	0.526
1294.999	730.200	80.005	19.993	103.144	20.073	1.863	0.491
1295.499	730.425	80.005	19.994	103.144	20.076	1.640	0.465
1295.999	730.708	80.006	19.994	103.145	20.074	1.806	0.486
1296.499	730.916	80.006	19.994	103.145	20.075	1.710	0.499
1296.999	731.205	80.007	19.994	103.145	20.078	1.538	0.494
1297.499	731.413	80.008	19.994	103.146	20.078	1.546	0.498
1297.999	731.648	80.007	19.993	103.147	20.072	1.929	0.470
1298.499	731.897	80.006	19.993	103.146	20.075	1.721	0.463
1298.999	732.167	80.008	19.993	103.145	20.076	1.696	0.501
1299.499	732.428	80.007	19.993	103.145	20.073	1.854	0.525
1299.999	732.674	80.007	19.993	103.144	20.075	1.721	0.519
1300.499	732.870	80.006	19.994	103.144	20.076	1.690	0.475
1300.999	733.176	80.008	19.995	103.145	20.073	1.874	0.473
1301.499	733.427	80.007	19.993	103.148	20.072	1.931	0.530
1301.999	733.668	80.005	19.993	103.151	20.074	1.795	0.524
1302.500	733.894	80.007	19.993	103.151	20.073	1.885	0.479
1303.000	734.171	80.007	19.994	103.150	20.073	1.885	0.485
1303.499	734.423	80.008	19.995	103.149	20.076	1.653	0.516
1303.999	734.671	80.007	19.993	103.147	20.072	1.908	0.514
1304.499	734.881	80.007	19.993	103.143	20.076	1.656	0.479
1304.999	735.161	80.008	19.994	103.143	20.070	2.035	0.474
1305.500	735.406	80.006	19.994	103.143	20.074	1.799	0.508
1306.000	735.652	80.006	19.994	103.143	20.074	1.828	0.508
1306.499	735.907	80.007	19.993	103.143	20.075	1.744	0.496
1307.000	736.146	80.006	19.995	103.144	20.074	1.822	0.497
1307.500	736.390	80.006	19.994	103.143	20.077	1.576	0.489
1308.000	736.616	80.006	19.994	103.142	20.075	1.710	0.476
1308.500	736.887	80.005	19.993	103.142	20.074	1.820	0.483
1308.999	737.151	80.004	19.992	103.142	20.076	1.637	0.516
1309.499	737.369	80.006	19.994	103.142	20.071	1.999	0.509
1310.000	737.626	80.005	19.993	103.144	20.072	1.901	0.479
1310.500	737.880	80.004	19.993	103.144	20.073	1.876	0.493
1310.999	738.112	80.006	19.994	103.143	20.073	1.869	0.498
1311.499	738.374	80.005	19.994	103.143	20.072	1.929	0.490
1311.999	738.633	80.007	19.994	103.140	20.075	1.751	0.508
1312.499	738.859	80.005	19.994	103.137	20.075	1.715	0.503
1312.999	739.088	80.005	19.995	103.137	20.074	1.790	0.470
1313.500	739.330	80.005	19.994	103.138	20.072	1.917	0.463
1314.001	739.547	80.006	19.995	103.138	20.075	1.749	0.465
1314.500	739.827	80.006	19.995	103.139	20.077	1.572	0.478
1314.999	740.034	80.005	19.994	103.141	20.075	1.704	0.492
1315.499	740.298	80.005	19.995	103.140	20.073	1.878	0.479
1315.999	740.530	80.005	19.996	103.140	20.074	1.794	0.484
1316.499	740.774	80.003	19.996	103.139	20.073	1.888	0.486
1316.999	741.031	80.005	19.996	103.139	20.077	1.610	0.489
1317.499	741.270	80.003	19.995	103.138	20.073	1.856	0.498
1317.999	741.496	80.004	19.996	103.137	20.072	1.945	0.480
1318.499	741.763	80.004	19.994	103.136	20.069	2.099	0.479
1318.999	741.994	80.006	19.996	103.137	20.070	2.027	0.496
1319.499	742.196	80.004	19.994	103.137	20.074	1.790	0.465
1320.000	742.444	80.005	19.994	103.138	20.075	1.719	0.442
1320.500	742.716	80.005	19.995	103.139	20.069	2.120	0.485
1320.999	742.953	80.004	19.995	103.139	20.074	1.783	0.514
1321.499	743.164	80.004	19.995	103.137	20.072	1.938	0.478
1321.999	743.406	80.005	19.995	103.136	20.068	2.197	0.450
1322.500	743.668	80.004	19.994	103.137	20.074	1.787	0.479
1323.000	743.939	80.005	19.995	103.138	20.073	1.840	0.519
