Sample ID:	C:\MCC\MCC Cal\Test\Rebond_Foam_Carpet_Pad_MCC_30K_min_211101_R1.txt
Sample Weight (mg):	4.62
Heating Rate (C/s):	0.5
Combustor Temp (C):	900
N2 Flow Rate (cc/min):	80
O2 Flow Rate (cc/min):	20
Calibration File:	C:\MCC\MCC Cal\Coeff1 JN10440_30_210304.txt.txt
T Correction Coefficients:	0	1.024463	0
Time Shift (s):	14
*
Time (s)	Temperature (C)	N2 flow rate (cc/min)	O2 flow rate (cc/min)	Flow Rate (cc/min)	Oxygen (%)	HRR (W/g)	Heating rate (C/s)
0.000	107.080	80.000	19.996	102.958	20.401	0.202	0.001
0.500	107.071	80.000	19.995	102.954	20.402	0.132	0.003
1.000	107.057	80.000	19.994	102.955	20.399	0.376	-0.013
1.500	107.116	80.000	19.993	102.956	20.402	0.130	0.011
2.000	107.100	80.000	19.995	102.956	20.401	0.237	0.044
2.500	107.074	80.001	19.996	102.956	20.399	0.353	0.001
3.000	107.065	80.001	19.995	102.959	20.397	0.464	-0.038
3.500	107.070	80.001	19.993	102.959	20.401	0.178	-0.019
4.000	107.054	80.000	19.995	102.959	20.400	0.261	-0.007
4.500	107.098	80.001	19.996	102.959	20.400	0.244	0.009
5.000	107.125	80.000	19.997	102.960	20.403	0.044	0.049
5.500	107.095	79.999	19.996	102.961	20.403	0.086	0.033
6.000	107.101	80.000	19.991	102.961	20.401	0.181	-0.013
6.500	107.100	80.002	19.995	102.961	20.402	0.116	-0.009
7.000	107.104	80.001	19.994	102.959	20.399	0.336	0.004
7.500	107.095	80.001	19.995	102.958	20.403	0.032	-0.001
8.000	107.100	80.002	19.994	102.957	20.400	0.263	-0.005
8.500	107.099	80.001	19.996	102.957	20.399	0.368	0.000
9.000	107.086	80.000	19.994	102.956	20.402	0.139	-0.004
9.500	107.061	80.001	19.994	102.956	20.401	0.191	-0.026
10.000	107.060	80.001	19.995	102.955	20.402	0.128	-0.032
10.500	107.097	80.001	19.995	102.955	20.400	0.275	0.005
11.001	107.072	80.001	19.995	102.954	20.401	0.176	0.024
11.501	107.091	80.001	19.996	102.954	20.401	0.197	0.003
12.001	107.075	80.001	19.996	102.956	20.405	-0.052	-0.002
12.501	107.088	80.001	19.996	102.960	20.402	0.128	-0.000
13.000	107.042	80.002	19.996	102.962	20.399	0.325	-0.018
13.500	107.057	80.002	19.996	102.964	20.400	0.256	-0.032
14.000	107.083	80.000	19.995	102.965	20.404	0.008	0.005
14.500	107.044	80.002	19.996	102.966	20.401	0.183	0.014
15.000	107.043	80.001	19.994	102.968	20.400	0.241	-0.026
15.500	107.057	80.000	19.996	102.974	20.399	0.376	-0.014
16.000	107.037	80.001	19.996	102.980	20.399	0.311	0.003
16.500	107.044	80.001	19.993	102.987	20.401	0.202	-0.009
17.000	107.037	80.000	19.996	102.992	20.401	0.189	-0.007
17.500	107.029	80.003	19.996	102.991	20.397	0.449	-0.008
18.000	107.019	80.001	19.994	102.989	20.398	0.390	-0.016
18.500	107.057	80.001	19.995	102.989	20.400	0.298	0.005
19.000	107.053	80.002	19.994	102.989	20.395	0.629	0.031
19.500	107.053	80.001	19.997	102.992	20.394	0.673	0.015
20.000	107.075	80.000	19.995	102.994	20.396	0.556	0.009
20.500	107.095	80.001	19.996	102.996	20.393	0.738	0.032
21.000	107.073	80.001	19.996	103.001	20.396	0.564	0.020
21.500	107.079	80.000	19.996	103.004	20.393	0.784	-0.009
22.000	107.093	80.000	19.992	103.001	20.393	0.757	0.002
22.500	107.122	79.999	19.995	103.004	20.393	0.753	0.032
23.000	107.124	80.001	19.997	103.012	20.388	1.111	0.037
23.500	107.141	80.001	19.995	103.013	20.392	0.864	0.025
24.000	107.142	80.002	19.996	103.014	20.392	0.822	0.019
24.500	107.155	80.001	19.996	103.020	20.390	1.004	0.016
25.000	107.163	80.001	19.997	103.025	20.389	1.017	0.017
25.500	107.170	80.001	19.995	103.025	20.385	1.309	0.019
26.000	107.243	80.001	19.995	103.025	20.386	1.229	0.047
26.500	107.179	80.001	19.996	103.031	20.388	1.086	0.044
27.000	107.226	80.002	19.994	103.039	20.386	1.245	-0.004
27.500	107.263	80.001	19.994	103.047	20.384	1.392	0.033
28.000	107.242	80.001	19.996	103.049	20.385	1.296	0.050
28.500	107.252	80.001	19.995	103.056	20.384	1.409	0.002
29.000	107.280	80.001	19.996	103.063	20.385	1.298	0.014
29.500	107.316	80.001	19.995	103.071	20.380	1.679	0.051
30.000	107.382	80.003	19.995	103.079	20.382	1.526	0.083
30.500	107.366	80.003	19.996	103.092	20.381	1.606	0.076
31.000	107.373	80.000	19.996	103.104	20.379	1.715	0.021
31.500	107.394	80.000	19.993	103.114	20.378	1.835	0.010
32.000	107.437	80.000	19.995	103.121	20.378	1.820	0.046
32.501	107.465	80.001	19.994	103.128	20.377	1.858	0.067
33.001	107.524	80.001	19.995	103.133	20.378	1.811	0.079
33.500	107.528	80.002	19.996	103.132	20.374	2.103	0.075
34.000	107.561	80.002	19.995	103.132	20.374	2.054	0.050
34.500	107.594	80.002	19.996	103.130	20.378	1.790	0.052
35.000	107.666	80.001	19.998	103.123	20.375	2.012	0.086
35.500	107.738	80.003	19.993	103.119	20.376	1.935	0.124
36.000	107.754	80.000	19.994	103.119	20.375	2.037	0.116
36.500	107.828	80.001	19.994	103.121	20.376	1.968	0.089
37.000	107.882	80.001	19.996	103.125	20.370	2.337	0.109
37.500	107.882	80.002	19.995	103.132	20.376	1.955	0.091
38.000	107.961	80.003	19.996	103.140	20.377	1.884	0.066
38.500	108.037	80.002	19.995	103.147	20.372	2.219	0.117
39.001	108.069	80.002	19.996	103.150	20.375	2.046	0.131
39.501	108.112	80.001	19.995	103.150	20.371	2.278	0.091
40.001	108.195	80.002	19.995	103.148	20.371	2.278	0.100
40.500	108.256	80.003	19.994	103.146	20.369	2.404	0.135
41.000	108.321	80.004	19.995	103.145	20.372	2.241	0.135
41.500	108.390	80.002	19.993	103.142	20.373	2.155	0.130
42.000	108.440	80.003	19.993	103.137	20.373	2.153	0.127
42.500	108.505	80.004	19.995	103.139	20.371	2.297	0.117
43.000	108.578	80.003	19.995	103.141	20.371	2.284	0.126
43.500	108.685	80.003	19.996	103.143	20.373	2.135	0.159
44.000	108.708	80.004	19.994	103.148	20.367	2.588	0.155
44.500	108.791	80.001	19.996	103.153	20.369	2.460	0.118
45.000	108.841	80.003	19.994	103.154	20.369	2.456	0.119
45.500	108.938	80.002	19.995	103.154	20.369	2.422	0.140
46.000	109.017	80.002	19.995	103.154	20.370	2.374	0.162
46.500	109.064	80.002	19.995	103.153	20.368	2.508	0.151
47.000	109.199	80.003	19.996	103.158	20.370	2.389	0.154
47.500	109.288	80.003	19.996	103.165	20.370	2.383	0.203
48.000	109.317	80.002	19.994	103.168	20.369	2.412	0.171
48.501	109.399	80.004	19.995	103.172	20.366	2.627	0.114
49.001	109.513	80.003	19.995	103.175	20.368	2.508	0.154
49.500	109.616	80.002	19.995	103.175	20.368	2.495	0.207
50.000	109.689	80.003	19.994	103.170	20.366	2.613	0.197
50.500	109.788	80.002	19.994	103.170	20.364	2.795	0.174
51.001	109.856	80.002	19.995	103.167	20.368	2.533	0.170
51.501	109.929	80.002	19.993	103.167	20.365	2.722	0.154
52.000	110.070	80.002	19.995	103.164	20.369	2.445	0.177
52.500	110.163	80.002	19.995	103.166	20.364	2.751	0.223
53.000	110.218	80.002	19.994	103.169	20.366	2.653	0.191
53.500	110.325	80.001	19.994	103.175	20.362	2.934	0.155
54.000	110.429	80.002	19.995	103.180	20.362	2.892	0.186
54.500	110.546	80.002	19.995	103.186	20.362	2.908	0.216
55.000	110.643	80.001	19.995	103.187	20.362	2.898	0.218
55.500	110.767	80.003	19.995	103.186	20.361	2.982	0.218
56.000	110.838	80.002	19.994	103.185	20.361	2.992	0.208
56.500	110.947	80.002	19.995	103.184	20.362	2.893	0.187
57.000	111.040	80.003	19.994	103.183	20.359	3.126	0.191
57.500	111.172	80.002	19.996	103.183	20.359	3.155	0.213
58.000	111.254	80.001	19.996	103.186	20.359	3.163	0.219
58.500	111.348	80.002	19.995	103.191	20.360	3.059	0.196
59.000	111.466	80.002	19.992	103.196	20.355	3.377	0.194
59.500	111.602	80.001	19.995	103.199	20.361	2.977	0.232
60.000	111.746	80.001	19.995	103.202	20.357	3.249	0.267
60.500	111.884	80.002	19.994	103.200	20.359	3.166	0.281
61.000	112.018	80.003	19.994	103.196	20.360	3.032	0.277
61.501	112.109	80.001	19.994	103.192	20.360	3.036	0.249
62.001	112.227	80.002	19.994	103.193	20.359	3.107	0.217
62.501	112.321	80.003	19.994	103.193	20.360	3.054	0.210
63.000	112.442	80.003	19.994	103.195	20.359	3.152	0.214
63.500	112.629	80.003	19.995	103.196	20.363	2.857	0.261
64.000	112.725	80.003	19.994	103.197	20.362	2.914	0.295
64.500	112.829	80.003	19.994	103.195	20.358	3.196	0.241
65.001	112.984	80.004	19.994	103.193	20.357	3.274	0.230
65.501	113.090	80.005	19.993	103.193	20.357	3.243	0.261
66.001	113.236	80.004	19.996	103.194	20.358	3.205	0.257
66.501	113.372	80.004	19.994	103.196	20.358	3.191	0.266
67.001	113.509	80.004	19.994	103.200	20.359	3.146	0.278
67.500	113.643	80.004	19.994	103.208	20.360	3.061	0.272
68.000	113.750	80.005	19.994	103.213	20.362	2.895	0.255
68.501	113.867	80.004	19.994	103.212	20.359	3.161	0.233
69.001	114.035	80.003	19.996	103.212	20.360	3.079	0.255
69.500	114.185	80.005	19.993	103.211	20.360	3.029	0.302
70.000	114.336	80.004	19.995	103.210	20.360	3.085	0.309
70.500	114.461	80.005	19.995	103.208	20.363	2.857	0.289
71.000	114.606	80.004	19.994	103.208	20.362	2.909	0.273
71.500	114.761	80.004	19.995	103.209	20.360	3.096	0.285
72.000	114.886	80.005	19.993	103.209	20.359	3.100	0.290
72.500	115.041	80.004	19.995	103.209	20.359	3.148	0.279
73.000	115.183	80.003	19.993	103.214	20.357	3.253	0.288
73.500	115.317	80.004	19.993	103.220	20.360	3.035	0.287
74.000	115.504	80.003	19.993	103.223	20.355	3.399	0.299
74.500	115.646	80.004	19.994	103.226	20.359	3.119	0.325
75.000	115.802	80.003	19.995	103.227	20.360	3.066	0.313
75.501	115.942	80.002	19.997	103.226	20.357	3.278	0.297
76.001	116.096	80.002	19.993	103.222	20.359	3.110	0.295
76.501	116.283	80.002	19.995	103.220	20.360	3.077	0.318
77.001	116.423	80.000	19.995	103.216	20.357	3.272	0.335
77.500	116.586	80.001	19.994	103.214	20.357	3.272	0.316
78.000	116.754	80.002	19.995	103.215	20.355	3.433	0.317
78.500	116.906	80.002	19.995	103.220	20.355	3.382	0.325
79.000	117.097	80.003	19.995	103.224	20.355	3.445	0.332
79.500	117.240	80.001	19.997	103.229	20.357	3.277	0.339
80.000	117.381	80.002	19.995	103.232	20.354	3.501	0.309
80.500	117.551	80.002	19.997	103.232	20.355	3.445	0.297
81.000	117.741	80.001	19.995	103.231	20.355	3.443	0.335
81.500	117.882	80.001	19.995	103.231	20.353	3.536	0.345
82.001	118.091	80.001	19.995	103.231	20.355	3.444	0.340
82.501	118.272	80.001	19.996	103.231	20.357	3.305	0.370
83.000	118.415	80.002	19.995	103.231	20.357	3.265	0.357
83.500	118.613	80.002	19.995	103.232	20.353	3.563	0.332
84.000	118.731	80.001	19.996	103.230	20.355	3.378	0.329
84.500	118.932	80.001	19.995	103.230	20.355	3.378	0.318
85.000	119.125	80.000	19.997	103.231	20.356	3.351	0.356
85.500	119.327	80.001	19.995	103.231	20.357	3.296	0.394
86.000	119.555	80.003	19.995	103.231	20.355	3.435	0.412
86.500	119.685	80.002	19.995	103.231	20.355	3.433	0.394
87.000	119.854	80.000	19.996	103.231	20.354	3.512	0.329
87.500	120.049	80.002	19.993	103.230	20.353	3.533	0.332
88.000	120.274	80.002	19.995	103.234	20.352	3.592	0.392
88.500	120.415	80.001	19.995	103.237	20.354	3.502	0.393
89.000	120.608	80.001	19.996	103.239	20.353	3.575	0.350
89.500	120.804	80.001	19.996	103.243	20.353	3.545	0.362
90.000	120.951	80.002	19.996	103.250	20.350	3.759	0.367
90.500	121.156	80.002	19.994	103.250	20.352	3.625	0.347
91.000	121.349	80.002	19.995	103.247	20.352	3.652	0.374
91.500	121.563	80.001	19.995	103.245	20.355	3.392	0.402
92.001	121.736	80.002	19.995	103.240	20.354	3.491	0.397
92.501	121.928	80.003	19.995	103.233	20.353	3.523	0.377
93.000	122.118	80.002	19.995	103.229	20.353	3.546	0.374
93.500	122.296	80.003	19.996	103.230	20.354	3.477	0.375
94.000	122.493	80.002	19.996	103.233	20.352	3.648	0.371
94.500	122.716	80.002	19.995	103.235	20.350	3.788	0.397
95.000	122.909	80.003	19.995	103.239	20.350	3.774	0.418
95.500	123.061	80.000	19.996	103.244	20.352	3.629	0.381
96.000	123.301	80.002	19.994	103.244	20.355	3.439	0.368
96.500	123.469	80.001	19.995	103.240	20.351	3.673	0.400
97.000	123.670	80.002	19.995	103.239	20.353	3.556	0.388
97.500	123.921	80.002	19.996	103.236	20.352	3.602	0.410
98.000	124.089	80.002	19.995	103.233	20.350	3.763	0.436
98.500	124.326	80.002	19.994	103.234	20.350	3.736	0.412
99.001	124.518	80.002	19.994	103.240	20.349	3.838	0.417
99.501	124.690	80.001	19.995	103.247	20.350	3.792	0.397
100.000	124.936	80.002	19.995	103.252	20.351	3.696	0.391
100.500	125.160	80.002	19.996	103.256	20.350	3.790	0.443
101.001	125.337	80.003	19.995	103.258	20.347	3.956	0.435
101.501	125.560	80.002	19.996	103.253	20.352	3.610	0.401
102.000	125.758	80.002	19.996	103.253	20.351	3.684	0.411
102.500	125.953	80.002	19.996	103.250	20.349	3.818	0.407
103.000	126.155	80.002	19.996	103.248	20.351	3.686	0.395
103.500	126.369	80.001	19.996	103.245	20.350	3.755	0.407
104.000	126.601	80.002	19.994	103.245	20.348	3.866	0.431
104.501	126.814	80.002	19.994	103.241	20.351	3.660	0.446
105.001	127.032	80.002	19.995	103.243	20.350	3.731	0.438
105.500	127.222	80.002	19.993	103.244	20.351	3.700	0.420
106.000	127.425	80.000	19.996	103.248	20.347	3.991	0.400
106.500	127.636	80.001	19.996	103.249	20.346	4.006	0.403
107.000	127.904	80.001	19.996	103.249	20.349	3.818	0.446
107.500	128.100	80.002	19.995	103.249	20.348	3.885	0.472
108.000	128.294	80.000	19.995	103.249	20.349	3.846	0.427
108.501	128.500	79.999	19.998	103.250	20.348	3.896	0.395
109.001	128.732	79.998	19.996	103.253	20.348	3.915	0.419
109.501	128.981	79.999	19.996	103.251	20.347	3.967	0.460
110.001	129.167	80.000	19.996	103.250	20.347	3.986	0.458
110.501	129.396	80.000	19.995	103.253	20.350	3.743	0.425
111.001	129.608	79.999	19.996	103.253	20.348	3.916	0.429
111.500	129.853	80.000	19.996	103.254	20.348	3.879	0.449
112.000	130.065	80.000	19.993	103.258	20.348	3.902	0.456
112.500	130.272	80.000	19.996	103.253	20.346	4.027	0.438
113.000	130.493	79.999	19.997	103.247	20.350	3.789	0.424
113.501	130.717	79.999	19.995	103.243	20.349	3.851	0.437
114.001	130.970	79.998	19.998	103.241	20.347	3.937	0.461
114.500	131.196	79.999	19.996	103.245	20.347	3.990	0.478
115.000	131.427	80.001	19.996	103.252	20.349	3.839	0.468
115.500	131.629	80.001	19.995	103.260	20.348	3.915	0.445
116.000	131.847	80.001	19.997	103.266	20.347	3.980	0.426
116.500	132.066	80.001	19.995	103.264	20.346	4.019	0.428
117.000	132.336	80.000	19.998	103.256	20.347	3.940	0.463
117.500	132.562	80.001	19.997	103.248	20.347	3.994	0.492
118.000	132.752	80.002	19.997	103.241	20.348	3.923	0.456
118.500	133.031	80.001	19.995	103.233	20.347	3.971	0.443
119.000	133.217	80.002	19.996	103.230	20.346	4.047	0.467
119.500	133.449	80.002	19.996	103.232	20.349	3.827	0.441
120.001	133.674	80.002	19.995	103.233	20.348	3.869	0.438
120.501	133.959	80.002	19.995	103.234	20.348	3.892	0.484
121.000	134.137	80.002	19.996	103.239	20.345	4.114	0.487
121.500	134.401	80.003	19.994	103.240	20.347	3.948	0.452
122.000	134.670	80.003	19.995	103.239	20.347	3.965	0.487
122.500	134.879	80.003	19.993	103.238	20.344	4.191	0.506
123.000	135.113	80.003	19.995	103.237	20.350	3.741	0.461
123.500	135.346	80.004	19.994	103.238	20.350	3.779	0.455
124.000	135.583	80.002	19.994	103.239	20.347	3.944	0.468
124.501	135.799	80.003	19.995	103.240	20.347	3.994	0.461
125.001	136.015	80.002	19.994	103.240	20.346	4.021	0.443
125.500	136.293	80.003	19.994	103.240	20.346	4.045	0.463
126.000	136.476	80.003	19.995	103.235	20.347	3.982	0.477
126.500	136.765	80.002	19.993	103.233	20.343	4.227	0.467
127.000	136.999	80.002	19.994	103.232	20.346	4.016	0.498
127.500	137.244	80.003	19.994	103.232	20.343	4.282	0.501
128.000	137.505	80.002	19.995	103.232	20.347	3.991	0.492
128.500	137.736	80.002	19.994	103.234	20.345	4.122	0.499
129.000	137.976	80.003	19.993	103.234	20.347	3.966	0.482
129.500	138.230	80.002	19.994	103.233	20.347	3.991	0.483
130.000	138.458	80.003	19.994	103.233	20.349	3.853	0.488
130.500	138.732	80.001	19.994	103.231	20.351	3.718	0.492
131.000	138.918	80.001	19.993	103.229	20.349	3.853	0.481
131.500	139.145	80.003	19.995	103.228	20.346	4.027	0.437
132.000	139.418	80.001	19.994	103.230	20.350	3.767	0.456
132.500	139.645	80.002	19.996	103.231	20.349	3.847	0.500
133.000	139.922	80.002	19.994	103.233	20.350	3.771	0.502
133.500	140.188	80.001	19.995	103.234	20.350	3.729	0.523
134.000	140.378	80.001	19.995	103.234	20.347	3.991	0.500
134.500	140.665	80.002	19.994	103.233	20.344	4.171	0.467
135.000	140.877	80.001	19.994	103.232	20.348	3.889	0.488
135.500	141.149	80.001	19.993	103.232	20.346	4.006	0.491
136.000	141.364	80.001	19.996	103.231	20.347	3.994	0.486
136.500	141.576	80.001	19.994	103.228	20.346	4.006	0.457
137.000	141.821	80.001	19.996	103.223	20.345	4.092	0.442
137.500	142.076	80.001	19.995	103.222	20.351	3.656	0.478
138.000	142.333	80.003	19.995	103.221	20.346	4.006	0.506
138.500	142.577	80.004	19.996	103.220	20.345	4.105	0.507
139.000	142.818	80.001	19.998	103.219	20.346	4.048	0.493
139.500	143.043	80.002	19.995	103.222	20.345	4.090	0.476
140.000	143.310	80.003	19.994	103.219	20.345	4.073	0.479
140.500	143.560	80.002	19.994	103.214	20.346	4.032	0.504
141.000	143.804	80.001	19.995	103.211	20.344	4.189	0.506
141.500	144.023	80.003	19.995	103.214	20.347	3.992	0.478
142.000	144.302	80.004	19.994	103.210	20.347	3.985	0.480
142.500	144.522	80.003	19.995	103.206	20.350	3.786	0.499
143.000	144.779	80.002	19.993	103.204	20.350	3.790	0.488
143.500	145.036	80.003	19.993	103.203	20.347	3.950	0.496
144.000	145.301	80.004	19.994	103.201	20.348	3.891	0.518
144.500	145.533	80.004	19.995	103.203	20.348	3.893	0.509
145.000	145.779	80.005	19.994	103.205	20.349	3.807	0.488
145.500	146.029	80.004	19.993	103.204	20.347	3.965	0.487
146.000	146.247	80.004	19.995	103.202	20.348	3.904	0.482
146.500	146.477	80.005	19.995	103.198	20.348	3.901	0.458
147.000	146.738	80.004	19.995	103.194	20.346	4.048	0.470
147.500	146.974	80.004	19.995	103.193	20.345	4.102	0.494
148.000	147.228	80.003	19.994	103.193	20.348	3.909	0.493
148.500	147.461	80.004	19.994	103.192	20.344	4.169	0.489
149.000	147.681	80.005	19.993	103.193	20.348	3.924	0.471
149.500	147.936	80.004	19.994	103.193	20.347	3.935	0.464
150.000	148.146	80.004	19.994	103.193	20.346	4.019	0.470
150.500	148.419	80.004	19.994	103.192	20.348	3.893	0.474
151.000	148.609	80.005	19.996	103.193	20.345	4.082	0.473
151.500	148.902	80.006	19.995	103.192	20.344	4.178	0.473
152.000	149.161	80.004	19.994	103.190	20.345	4.099	0.517
152.500	149.369	80.003	19.995	103.191	20.346	4.067	0.510
153.000	149.631	80.004	19.993	103.192	20.344	4.170	0.469
153.500	149.842	80.004	19.994	103.192	20.347	3.994	0.472
154.000	150.107	80.002	19.994	103.193	20.344	4.187	0.475
154.500	150.317	80.003	19.995	103.193	20.345	4.096	0.475
155.000	150.585	80.002	19.996	103.193	20.349	3.811	0.476
155.500	150.792	80.003	19.995	103.191	20.347	3.971	0.476
156.000	151.064	80.003	19.993	103.190	20.346	4.023	0.478
156.500	151.296	80.002	19.995	103.192	20.349	3.835	0.492
157.000	151.545	80.002	19.994	103.196	20.346	4.032	0.492
157.500	151.813	80.003	19.994	103.199	20.347	3.960	0.499
158.000	152.058	80.001	19.995	103.205	20.348	3.870	0.515
158.500	152.289	80.003	19.994	103.206	20.350	3.765	0.494
159.000	152.530	80.002	19.995	103.204	20.347	3.998	0.475
159.500	152.761	80.003	19.995	103.200	20.346	4.069	0.473
160.000	152.988	80.002	19.994	103.198	20.344	4.197	0.465
160.500	153.298	80.002	19.994	103.192	20.346	4.063	0.497
161.000	153.478	80.002	19.994	103.191	20.346	4.013	0.513
161.500	153.745	80.002	19.994	103.190	20.345	4.115	0.468
162.000	153.966	80.002	19.995	103.190	20.342	4.316	0.468
162.500	154.193	80.002	19.994	103.189	20.345	4.090	0.468
163.000	154.420	80.002	19.993	103.189	20.341	4.359	0.451
163.500	154.668	80.002	19.995	103.189	20.340	4.449	0.464
164.000	154.904	80.002	19.995	103.191	20.342	4.336	0.480
164.500	155.127	80.002	19.995	103.191	20.343	4.212	0.472
165.000	155.340	80.002	19.996	103.192	20.340	4.440	0.447
165.500	155.593	80.002	19.996	103.192	20.342	4.323	0.451
166.000	155.844	80.002	19.996	103.192	20.343	4.224	0.485
166.500	156.128	80.001	19.995	103.191	20.344	4.191	0.520
167.000	156.299	80.002	19.994	103.192	20.342	4.341	0.495
167.500	156.578	80.002	19.996	103.191	20.341	4.371	0.452
168.000	156.782	80.000	19.994	103.191	20.341	4.373	0.466
168.500	157.049	80.002	19.996	103.191	20.341	4.364	0.477
169.000	157.280	80.001	19.996	103.192	20.338	4.563	0.484
169.500	157.509	80.002	19.993	103.193	20.340	4.461	0.479
170.000	157.759	80.001	19.992	103.193	20.343	4.243	0.470
170.500	158.000	80.001	19.995	103.194	20.342	4.314	0.485
171.000	158.251	80.002	19.996	103.194	20.342	4.289	0.491
171.500	158.479	80.001	19.996	103.192	20.341	4.371	0.485
172.000	158.732	80.001	19.993	103.192	20.342	4.297	0.480
172.500	158.976	80.002	19.996	103.192	20.341	4.373	0.489
173.000	159.217	80.001	19.996	103.192	20.340	4.427	0.491
173.500	159.425	80.001	19.996	103.191	20.340	4.427	0.467
174.000	159.650	80.001	19.995	103.190	20.342	4.330	0.441
174.500	159.872	80.000	19.994	103.189	20.339	4.531	0.440
175.000	160.144	80.001	19.995	103.189	20.340	4.485	0.470
175.500	160.395	80.001	19.995	103.189	20.338	4.565	0.508
176.000	160.554	80.002	19.995	103.191	20.335	4.802	0.467
176.500	160.833	80.001	19.995	103.193	20.337	4.645	0.424
177.000	161.099	80.001	19.995	103.192	20.336	4.722	0.491
177.500	161.308	80.002	19.996	103.193	20.338	4.586	0.510
178.000	161.516	80.003	19.995	103.197	20.336	4.744	0.446
178.500	161.778	80.001	19.996	103.198	20.337	4.689	0.444
179.000	161.991	80.001	19.994	103.204	20.340	4.448	0.473
179.500	162.225	80.001	19.995	103.207	20.339	4.528	0.461
180.000	162.481	80.001	19.995	103.205	20.338	4.609	0.469
180.500	162.731	80.002	19.997	103.202	20.338	4.626	0.498
181.000	162.953	80.002	19.995	103.201	20.334	4.879	0.489
181.500	163.186	80.003	19.996	103.197	20.338	4.596	0.463
182.000	163.439	80.001	19.995	103.194	20.339	4.552	0.470
182.500	163.655	80.001	19.995	103.197	20.338	4.598	0.478
183.000	163.861	80.002	19.995	103.201	20.335	4.822	0.446
183.500	164.135	80.001	19.995	103.204	20.338	4.611	0.451
184.000	164.395	80.001	19.995	103.207	20.337	4.688	0.506
184.500	164.670	80.002	19.996	103.213	20.335	4.826	0.535
185.000	164.890	80.001	19.996	103.214	20.334	4.900	0.515
185.500	165.142	80.001	19.994	103.211	20.332	4.988	0.483
186.000	165.363	80.001	19.996	103.208	20.336	4.758	0.472
186.500	165.595	80.001	19.996	103.209	20.336	4.708	0.463
187.000	165.860	80.001	19.995	103.205	20.336	4.720	0.475
187.500	166.105	80.001	19.996	103.204	20.335	4.797	0.504
188.000	166.354	80.001	19.994	103.202	20.336	4.741	0.502
188.500	166.566	80.001	19.995	103.201	20.333	4.963	0.478
189.000	166.802	80.000	19.995	103.198	20.334	4.844	0.455
189.500	167.046	80.000	19.995	103.196	20.338	4.622	0.463
190.000	167.289	80.000	19.996	103.199	20.337	4.674	0.483
190.500	167.531	80.000	19.995	103.205	20.335	4.808	0.486
191.000	167.758	80.001	19.996	103.208	20.337	4.638	0.477
191.500	168.006	80.000	19.995	103.212	20.340	4.423	0.472
192.000	168.243	80.001	19.995	103.215	20.340	4.435	0.480
192.500	168.518	80.002	19.996	103.214	20.338	4.593	0.499
193.000	168.756	79.999	19.997	103.213	20.339	4.519	0.513
193.500	168.971	80.001	19.995	103.217	20.341	4.353	0.482
194.000	169.204	80.000	19.995	103.219	20.344	4.144	0.451
194.501	169.496	80.000	19.995	103.223	20.342	4.328	0.487
195.001	169.702	80.001	19.995	103.227	20.341	4.402	0.511
195.501	169.961	80.001	19.994	103.223	20.341	4.393	0.482
196.000	170.233	80.000	19.996	103.218	20.343	4.276	0.498
196.500	170.484	80.001	19.995	103.214	20.340	4.427	0.527
197.000	170.722	80.001	19.994	103.211	20.343	4.279	0.506
197.500	170.968	80.001	19.996	103.207	20.343	4.276	0.487
198.000	171.207	80.001	19.996	103.210	20.342	4.335	0.485
198.500	171.397	80.001	19.995	103.210	20.343	4.257	0.457
199.000	171.668	80.002	19.995	103.213	20.340	4.435	0.445
199.500	171.906	80.001	19.995	103.209	20.339	4.523	0.485
200.000	172.097	80.003	19.995	103.206	20.341	4.387	0.469
200.500	172.413	80.002	19.996	103.204	20.341	4.387	0.468
201.000	172.642	80.002	19.996	103.206	20.341	4.387	0.526
201.500	172.873	80.002	19.995	103.205	20.343	4.247	0.503
202.000	173.145	80.002	19.997	103.207	20.342	4.341	0.482
202.500	173.356	80.003	19.995	103.208	20.342	4.314	0.493
203.000	173.623	80.002	19.996	103.208	20.344	4.157	0.480
203.500	173.848	80.002	19.996	103.205	20.339	4.491	0.485
204.000	174.109	80.002	19.995	103.205	20.342	4.294	0.489
204.500	174.317	80.002	19.995	103.208	20.342	4.327	0.477
205.000	174.590	80.002	19.997	103.214	20.340	4.425	0.475
205.500	174.855	80.002	19.995	103.215	20.340	4.457	0.510
206.000	175.074	80.002	19.995	103.213	20.337	4.647	0.512
206.500	175.328	80.002	19.995	103.208	20.336	4.727	0.479
207.000	175.595	80.002	19.994	103.202	20.338	4.603	0.497
207.500	175.846	80.002	19.996	103.195	20.338	4.574	0.519
208.000	176.079	80.003	19.995	103.195	20.334	4.872	0.500
208.500	176.327	80.002	19.996	103.201	20.336	4.765	0.482
209.000	176.556	80.002	19.996	103.201	20.334	4.883	0.479
209.500	176.763	80.002	19.995	103.205	20.330	5.172	0.457
210.000	177.053	80.003	19.995	103.207	20.332	5.044	0.467
210.500	177.299	80.002	19.995	103.205	20.328	5.270	0.517
211.000	177.550	80.002	19.994	103.204	20.329	5.239	0.516
211.500	177.810	80.002	19.995	103.204	20.331	5.084	0.504
212.000	178.022	80.004	19.996	103.200	20.329	5.254	0.491
212.500	178.318	80.003	19.995	103.198	20.328	5.298	0.490
213.000	178.555	80.002	19.995	103.198	20.326	5.462	0.521
213.500	178.787	80.002	19.995	103.191	20.324	5.581	0.501
214.000	179.038	80.002	19.995	103.190	20.325	5.508	0.476
214.500	179.281	80.003	19.995	103.189	20.325	5.509	0.488
215.000	179.530	80.003	19.994	103.191	20.324	5.547	0.493
215.500	179.845	80.003	19.995	103.198	20.324	5.580	0.528
216.000	180.079	80.002	19.997	103.200	20.323	5.664	0.556
216.500	180.299	80.003	19.993	103.200	20.324	5.584	0.502
217.000	180.571	80.003	19.995	103.202	20.323	5.618	0.473
217.500	180.821	80.003	19.995	103.206	20.322	5.744	0.507
218.000	181.080	80.003	19.996	103.201	20.322	5.744	0.516
218.500	181.344	80.003	19.994	103.197	20.322	5.740	0.516
219.000	181.576	80.003	19.993	103.193	20.319	5.931	0.509
219.500	181.784	80.003	19.995	103.191	20.317	6.027	0.468
220.000	182.083	80.004	19.994	103.182	20.319	5.941	0.473
220.500	182.314	80.003	19.995	103.177	20.316	6.151	0.518
221.000	182.551	80.002	19.995	103.179	20.315	6.226	0.499
221.500	182.810	80.005	19.997	103.184	20.314	6.270	0.483
222.000	183.050	80.004	19.997	103.183	20.314	6.258	0.498
222.500	183.262	80.004	19.996	103.184	20.316	6.136	0.475
223.000	183.544	80.003	19.994	103.182	20.313	6.319	0.472
223.500	183.773	80.003	19.994	103.179	20.313	6.340	0.502
224.000	184.042	80.005	19.994	103.176	20.314	6.290	0.505
224.500	184.294	80.003	19.995	103.176	20.313	6.359	0.510
225.000	184.516	80.004	19.996	103.178	20.314	6.258	0.497
225.500	184.815	80.004	19.995	103.180	20.313	6.363	0.497
226.000	185.030	80.007	19.993	103.185	20.312	6.436	0.517
226.500	185.282	80.005	19.994	103.187	20.311	6.491	0.491
227.000	185.555	80.004	19.995	103.187	20.309	6.582	0.497
227.500	185.796	80.004	19.994	103.187	20.309	6.603	0.520
228.000	186.034	80.003	19.994	103.183	20.307	6.733	0.496
228.500	186.283	80.005	19.994	103.181	20.309	6.639	0.483
229.000	186.547	80.005	19.996	103.181	20.308	6.689	0.500
229.500	186.816	80.005	19.994	103.182	20.307	6.725	0.523
230.000	187.079	80.005	19.995	103.182	20.307	6.736	0.533
230.500	187.322	80.005	19.995	103.187	20.306	6.799	0.519
231.000	187.562	80.004	19.995	103.189	20.303	7.021	0.494
231.500	187.828	80.005	19.994	103.184	20.305	6.905	0.494
232.000	188.045	80.003	19.994	103.184	20.304	6.970	0.494
232.500	188.365	80.004	19.995	103.183	20.303	7.054	0.510
233.000	188.568	80.004	19.994	103.177	20.304	6.989	0.530
233.500	188.798	80.003	19.995	103.175	20.300	7.224	0.478
234.000	189.027	80.003	19.995	103.175	20.299	7.280	0.446
234.500	189.306	80.003	19.994	103.170	20.304	6.941	0.483
235.000	189.559	80.002	19.994	103.170	20.300	7.221	0.520
235.500	189.789	80.003	19.995	103.172	20.301	7.160	0.508
236.000	190.048	80.002	19.994	103.171	20.301	7.160	0.486
236.500	190.261	80.001	19.994	103.175	20.299	7.322	0.481
237.000	190.543	80.001	19.995	103.178	20.300	7.252	0.483
237.500	190.782	80.000	19.994	103.177	20.297	7.420	0.507
238.000	191.063	80.002	19.994	103.180	20.297	7.470	0.520
238.500	191.299	80.002	19.994	103.185	20.298	7.372	0.519
239.000	191.568	80.000	19.996	103.185	20.294	7.663	0.511
239.500	191.796	80.002	19.995	103.187	20.298	7.400	0.501
240.000	192.068	80.002	19.995	103.186	20.294	7.641	0.499
240.500	192.302	80.002	19.995	103.183	20.295	7.622	0.504
241.000	192.552	80.002	19.995	103.175	20.292	7.779	0.495
241.500	192.792	80.001	19.995	103.173	20.290	7.905	0.487
242.000	193.054	80.003	19.995	103.174	20.291	7.865	0.496
242.500	193.316	80.002	19.995	103.177	20.291	7.838	0.513
243.000	193.569	80.001	19.995	103.177	20.290	7.947	0.519
243.500	193.803	80.003	19.995	103.183	20.292	7.811	0.501
244.000	194.101	80.002	19.995	103.185	20.288	8.100	0.509
244.500	194.348	80.001	19.993	103.182	20.292	7.829	0.538
245.000	194.568	80.001	19.994	103.183	20.291	7.856	0.506
245.500	194.807	80.000	19.994	103.185	20.290	7.967	0.463
246.000	195.062	80.001	19.994	103.188	20.290	7.919	0.476
246.500	195.313	80.002	19.995	103.188	20.290	7.944	0.500
247.000	195.528	80.002	19.994	103.186	20.287	8.136	0.486
247.500	195.813	80.002	19.993	103.180	20.287	8.124	0.483
248.000	196.038	80.001	19.994	103.173	20.281	8.537	0.506
248.500	196.286	80.001	19.995	103.165	20.284	8.346	0.492
249.000	196.498	80.002	19.994	103.162	20.287	8.147	0.467
249.500	196.784	80.002	19.995	103.164	20.284	8.369	0.479
250.000	197.065	80.001	19.994	103.169	20.284	8.334	0.533
250.500	197.319	80.002	19.993	103.176	20.283	8.460	0.551
251.000	197.551	80.002	19.995	103.182	20.279	8.689	0.510
251.500	197.766	80.001	19.994	103.186	20.283	8.455	0.466
252.000	198.058	80.002	19.993	103.184	20.283	8.447	0.477
252.500	198.285	80.002	19.994	103.181	20.282	8.507	0.513
253.000	198.511	80.001	19.993	103.176	20.277	8.853	0.486
253.500	198.780	80.002	19.994	103.173	20.281	8.574	0.474
254.000	199.044	80.002	19.994	103.172	20.274	9.064	0.514
254.500	199.243	80.000	19.994	103.176	20.279	8.723	0.498
255.000	199.498	80.001	19.994	103.180	20.277	8.842	0.458
255.500	199.791	80.002	19.994	103.186	20.275	9.003	0.501
256.000	200.036	80.001	19.994	103.190	20.273	9.114	0.543
256.500	200.306	80.001	19.993	103.191	20.276	8.914	0.526
257.000	200.537	80.001	19.995	103.192	20.274	9.084	0.508
257.500	200.762	80.002	19.994	103.192	20.277	8.828	0.479
258.000	201.012	80.001	19.994	103.192	20.274	9.075	0.466
258.500	201.273	80.001	19.994	103.193	20.271	9.277	0.493
259.000	201.558	80.002	19.994	103.193	20.271	9.237	0.529
259.500	201.798	80.002	19.995	103.193	20.271	9.248	0.536
260.000	202.063	80.002	19.996	103.193	20.269	9.391	0.515
260.500	202.304	80.001	19.995	103.193	20.270	9.348	0.505
261.000	202.564	80.001	19.994	103.190	20.268	9.506	0.503
261.500	202.792	80.001	19.995	103.183	20.266	9.622	0.494
262.000	203.077	80.000	19.996	103.179	20.268	9.471	0.500
262.500	203.303	80.001	19.996	103.172	20.264	9.749	0.512
263.000	203.571	80.000	19.994	103.170	20.263	9.791	0.503
263.500	203.835	80.001	19.996	103.171	20.264	9.734	0.513
264.000	204.063	80.001	19.995	103.172	20.265	9.713	0.512
264.500	204.322	80.001	19.995	103.170	20.265	9.677	0.489
265.000	204.570	80.002	19.995	103.172	20.264	9.773	0.497
265.500	204.837	80.000	19.995	103.174	20.264	9.742	0.511
266.000	205.066	80.000	19.995	103.173	20.264	9.777	0.506
266.500	205.355	80.001	19.995	103.176	20.259	10.108	0.507
267.000	205.622	80.001	19.995	103.182	20.258	10.199	0.536
267.500	205.906	80.000	19.994	103.187	20.258	10.187	0.554
268.000	206.127	79.999	19.995	103.190	20.256	10.338	0.529
268.500	206.381	80.000	19.994	103.192	20.258	10.161	0.490
269.000	206.633	80.000	19.996	103.189	20.254	10.448	0.490
269.500	206.897	80.000	19.995	103.189	20.253	10.515	0.511
270.000	207.200	80.001	19.996	103.187	20.251	10.632	0.542
270.500	207.419	80.000	19.996	103.182	20.253	10.508	0.544
271.000	207.701	80.001	19.995	103.181	20.251	10.634	0.512
271.500	207.970	80.000	19.995	103.183	20.251	10.635	0.526
272.000	208.216	80.001	19.995	103.180	20.251	10.679	0.533
272.500	208.492	80.001	19.995	103.178	20.250	10.711	0.519
273.000	208.750	80.002	19.996	103.177	20.249	10.820	0.528
273.500	208.953	80.001	19.995	103.178	20.249	10.789	0.498
274.000	209.233	80.001	19.995	103.178	20.247	10.960	0.472
274.500	209.517	80.001	19.996	103.182	20.246	10.985	0.523
275.000	209.766	80.001	19.996	103.185	20.247	10.921	0.548
275.501	209.993	80.002	19.995	103.188	20.245	11.044	0.504
276.000	210.298	80.001	19.995	103.187	20.242	11.283	0.504
276.500	210.529	80.001	19.994	103.183	20.240	11.432	0.534
277.001	210.768	80.001	19.995	103.178	20.241	11.346	0.503
277.500	211.067	80.001	19.995	103.173	20.240	11.452	0.504
278.000	211.312	80.002	19.994	103.167	20.239	11.502	0.541
278.500	211.552	80.003	19.995	103.163	20.238	11.557	0.514
279.000	211.809	80.004	19.996	103.165	20.237	11.631	0.491
279.500	212.078	80.002	19.995	103.168	20.236	11.728	0.512
280.000	212.352	80.004	19.996	103.170	20.237	11.629	0.534
280.500	212.615	80.001	19.994	103.171	20.236	11.699	0.540
281.000	212.870	80.003	19.995	103.175	20.231	12.036	0.528
281.500	213.110	80.004	19.996	103.177	20.233	11.921	0.507
282.000	213.393	80.003	19.995	103.179	20.230	12.122	0.509
282.500	213.656	80.004	19.995	103.181	20.230	12.149	0.535
283.000	213.874	80.003	19.995	103.185	20.227	12.316	0.514
283.500	214.133	80.003	19.995	103.182	20.227	12.322	0.479
284.000	214.370	80.003	19.994	103.179	20.228	12.228	0.487
284.500	214.646	80.004	19.995	103.175	20.225	12.482	0.504
285.000	214.898	80.004	19.993	103.169	20.225	12.498	0.520
285.500	215.152	80.003	19.996	103.164	20.226	12.372	0.517
286.000	215.429	80.003	19.996	103.161	20.222	12.666	0.518
286.500	215.669	80.002	19.995	103.160	20.223	12.582	0.524
287.000	215.923	80.002	19.996	103.161	20.224	12.514	0.506
287.500	216.196	80.002	19.995	103.163	20.222	12.688	0.510
288.000	216.446	80.003	19.996	103.165	20.220	12.809	0.525
288.500	216.735	80.002	19.995	103.170	20.217	13.031	0.531
289.000	216.936	80.003	19.996	103.168	20.218	12.986	0.515
289.500	217.187	80.002	19.995	103.165	20.217	13.022	0.471
290.000	217.428	80.002	19.996	103.164	20.216	13.072	0.472
290.500	217.736	80.003	19.995	103.162	20.216	13.125	0.520
291.001	218.022	80.003	19.995	103.160	20.216	13.090	0.571
291.500	218.257	80.002	19.996	103.157	20.215	13.134	0.558
292.000	218.484	80.001	19.996	103.157	20.213	13.309	0.492
292.500	218.746	80.002	19.995	103.155	20.214	13.248	0.475
293.000	219.012	80.002	19.995	103.158	20.212	13.403	0.508
293.500	219.267	80.001	19.996	103.158	20.208	13.665	0.524
294.000	219.539	80.001	19.997	103.163	20.207	13.740	0.524
294.500	219.763	80.001	19.995	103.165	20.209	13.579	0.512
295.000	220.059	80.001	19.996	103.165	20.206	13.800	0.508
295.500	220.247	80.003	19.996	103.159	20.203	13.965	0.501
296.000	220.557	80.001	19.996	103.155	20.203	13.969	0.491
296.500	220.787	80.000	19.995	103.151	20.201	14.136	0.519
297.000	221.010	80.001	19.995	103.152	20.205	13.864	0.497
297.501	221.317	80.001	19.995	103.156	20.201	14.110	0.492
298.000	221.542	80.000	19.996	103.158	20.200	14.220	0.531
298.500	221.808	80.001	19.996	103.162	20.198	14.331	0.511
299.000	222.085	80.000	19.995	103.165	20.198	14.348	0.517
299.500	222.309	80.001	19.996	103.168	20.196	14.470	0.523
300.000	222.560	80.001	19.995	103.171	20.197	14.451	0.488
300.500	222.775	80.002	19.995	103.171	20.194	14.622	0.470
301.000	223.088	80.002	19.994	103.168	20.191	14.851	0.496
301.500	223.345	80.002	19.995	103.165	20.189	14.972	0.549
302.000	223.582	80.002	19.995	103.165	20.190	14.870	0.533
302.500	223.856	80.004	19.995	103.166	20.187	15.085	0.502
303.000	224.118	80.002	19.995	103.170	20.187	15.140	0.523
303.500	224.350	80.003	19.995	103.174	20.182	15.433	0.515
304.000	224.629	80.003	19.995	103.173	20.185	15.226	0.502
304.500	224.886	80.004	19.994	103.169	20.183	15.367	0.524
305.000	225.121	80.004	19.994	103.162	20.183	15.400	0.514
305.500	225.345	80.004	19.994	103.161	20.181	15.519	0.475
306.000	225.629	80.003	19.995	103.163	20.179	15.703	0.484
306.500	225.899	80.004	19.994	103.171	20.177	15.797	0.531
307.000	226.137	80.004	19.994	103.174	20.178	15.776	0.531
307.500	226.404	80.004	19.994	103.176	20.173	16.055	0.507
308.000	226.668	80.004	19.993	103.172	20.176	15.914	0.518
308.500	226.911	80.004	19.994	103.168	20.173	16.068	0.518
309.000	227.173	80.003	19.995	103.161	20.171	16.258	0.506
309.500	227.430	80.003	19.993	103.158	20.170	16.297	0.513
310.000	227.649	80.004	19.995	103.163	20.170	16.295	0.498
310.500	227.905	80.002	19.994	103.168	20.169	16.363	0.475
311.000	228.168	80.004	19.994	103.173	20.166	16.544	0.497
311.500	228.467	80.003	19.995	103.174	20.166	16.584	0.541
312.000	228.683	80.003	19.995	103.172	20.162	16.827	0.538
312.500	228.955	80.002	19.994	103.165	20.162	16.858	0.501
313.000	229.181	80.002	19.993	103.158	20.162	16.824	0.493
313.500	229.439	80.002	19.994	103.152	20.160	16.963	0.491
314.000	229.718	80.002	19.994	103.151	20.156	17.304	0.511
314.500	229.987	80.002	19.995	103.151	20.158	17.121	0.543
315.000	230.218	80.003	19.994	103.150	20.154	17.404	0.524
315.500	230.472	80.002	19.995	103.155	20.154	17.433	0.492
316.000	230.699	80.002	19.995	103.160	20.156	17.297	0.482
316.500	230.971	80.002	19.994	103.162	20.151	17.587	0.490
317.000	231.191	80.001	19.995	103.166	20.149	17.772	0.496
317.500	231.438	80.001	19.994	103.167	20.149	17.769	0.479
318.000	231.709	80.002	19.994	103.166	20.144	18.090	0.492
318.500	231.964	80.001	19.995	103.167	20.144	18.119	0.522
319.000	232.182	80.000	19.995	103.168	20.146	17.943	0.500
319.500	232.440	80.001	19.994	103.167	20.142	18.228	0.475
320.000	232.702	80.002	19.994	103.167	20.141	18.296	0.498
320.500	232.966	80.001	19.994	103.164	20.138	18.552	0.523
321.000	233.206	80.001	19.995	103.159	20.138	18.519	0.515
321.500	233.496	80.001	19.995	103.156	20.138	18.494	0.517
322.000	233.687	80.000	19.995	103.154	20.137	18.628	0.505
322.500	233.972	80.001	19.995	103.154	20.136	18.660	0.479
323.000	234.203	80.000	19.995	103.154	20.132	18.932	0.496
323.500	234.447	80.002	19.995	103.154	20.133	18.884	0.495
324.000	234.692	80.002	19.996	103.154	20.129	19.140	0.482
324.500	234.936	80.001	19.994	103.154	20.125	19.406	0.489
325.000	235.225	80.000	19.995	103.158	20.126	19.369	0.511
325.500	235.441	80.000	19.995	103.161	20.126	19.351	0.519
326.000	235.659	80.000	19.995	103.162	20.121	19.720	0.469
326.500	235.919	80.001	19.995	103.162	20.121	19.706	0.456
327.000	236.178	80.001	19.994	103.161	20.118	19.918	0.498
327.500	236.397	80.001	19.993	103.157	20.117	20.025	0.499
328.000	236.637	80.002	19.995	103.153	20.114	20.231	0.469
328.500	236.859	80.002	19.995	103.149	20.113	20.253	0.460
329.000	237.113	80.000	19.994	103.149	20.108	20.638	0.468
329.500	237.373	80.001	19.996	103.148	20.109	20.582	0.495
330.000	237.627	80.001	19.995	103.150	20.106	20.729	0.514
330.500	237.869	80.001	19.996	103.150	20.108	20.619	0.506
331.000	238.115	80.003	19.994	103.153	20.108	20.605	0.493
331.500	238.323	80.001	19.995	103.153	20.102	21.037	0.471
332.000	238.543	80.000	19.995	103.153	20.101	21.139	0.440
332.500	238.762	80.002	19.996	103.151	20.100	21.157	0.433
333.000	239.041	80.002	19.995	103.150	20.097	21.382	0.468
333.500	239.265	80.003	19.995	103.150	20.093	21.664	0.500
334.000	239.506	80.002	19.994	103.150	20.093	21.633	0.484
334.500	239.742	80.001	19.995	103.150	20.091	21.809	0.471
335.000	239.956	80.002	19.994	103.150	20.088	21.989	0.464
335.500	240.204	80.002	19.994	103.150	20.089	21.923	0.456
336.000	240.446	80.002	19.994	103.154	20.086	22.136	0.476
336.500	240.686	80.002	19.995	103.161	20.080	22.541	0.486
337.000	240.899	80.001	19.995	103.164	20.082	22.443	0.468
337.500	241.116	80.001	19.994	103.166	20.080	22.580	0.442
338.000	241.417	80.003	19.995	103.167	20.076	22.868	0.474
338.500	241.627	80.002	19.994	103.167	20.076	22.833	0.514
339.000	241.864	80.002	19.995	103.162	20.074	22.984	0.479
339.500	242.075	80.001	19.995	103.159	20.073	23.057	0.448
340.000	242.348	80.001	19.994	103.162	20.069	23.370	0.466
340.500	242.580	80.001	19.995	103.167	20.067	23.461	0.495
341.000	242.787	80.003	19.995	103.170	20.065	23.628	0.472
341.500	243.046	80.001	19.993	103.173	20.062	23.824	0.452
342.000	243.300	80.001	19.993	103.179	20.061	23.903	0.489
342.500	243.516	80.000	19.994	103.179	20.058	24.101	0.491
343.000	243.724	80.001	19.995	103.182	20.058	24.090	0.446
343.500	243.970	80.002	19.994	103.183	20.054	24.403	0.439
344.000	244.215	80.001	19.994	103.182	20.054	24.416	0.473
344.500	244.435	80.001	19.995	103.177	20.051	24.609	0.478
345.000	244.708	80.002	19.994	103.175	20.051	24.601	0.479
345.500	244.922	80.000	19.995	103.174	20.051	24.621	0.490
346.000	245.170	80.002	19.995	103.174	20.048	24.805	0.475
346.500	245.413	80.001	19.994	103.177	20.042	25.236	0.476
347.000	245.653	80.002	19.995	103.185	20.040	25.375	0.487
347.500	245.885	80.002	19.995	103.189	20.038	25.486	0.478
348.000	246.112	80.002	19.996	103.187	20.032	25.927	0.466
348.500	246.358	80.002	19.994	103.183	20.032	25.917	0.466
349.000	246.616	80.001	19.995	103.180	20.033	25.870	0.489
349.500	246.860	80.002	19.994	103.178	20.030	26.081	0.503
350.000	247.065	80.001	19.994	103.178	20.027	26.263	0.475
350.500	247.295	80.001	19.995	103.181	20.024	26.454	0.442
351.000	247.561	80.002	19.995	103.185	20.022	26.626	0.466
351.500	247.730	80.000	19.995	103.187	20.021	26.690	0.465
352.000	247.989	80.001	19.995	103.184	20.016	27.067	0.431
352.500	248.253	80.000	19.996	103.180	20.013	27.251	0.476
353.000	248.530	80.002	19.996	103.179	20.009	27.522	0.532
353.500	248.722	80.002	19.995	103.179	20.007	27.639	0.504
354.000	248.995	80.001	19.995	103.181	20.007	27.685	0.467
354.500	249.265	80.002	19.995	103.186	20.004	27.855	0.504
355.000	249.480	80.001	19.997	103.190	19.999	28.192	0.514
355.500	249.757	80.002	19.996	103.190	19.998	28.270	0.489
356.000	249.964	80.003	19.996	103.188	19.994	28.588	0.488
356.501	250.206	80.002	19.996	103.183	19.995	28.491	0.467
357.001	250.470	80.002	19.996	103.180	19.994	28.575	0.478
357.500	250.715	80.002	19.997	103.174	19.984	29.246	0.508
358.000	250.926	80.003	19.997	103.171	19.987	29.083	0.483
358.500	251.174	80.003	19.995	103.172	19.983	29.304	0.457
359.000	251.412	80.003	19.995	103.176	19.983	29.365	0.472
359.500	251.655	80.003	19.995	103.179	19.978	29.705	0.483
360.000	251.883	80.003	19.996	103.185	19.977	29.778	0.476
360.500	252.138	80.002	19.995	103.186	19.975	29.894	0.478
361.000	252.357	80.002	19.994	103.187	19.968	30.401	0.479
361.500	252.608	80.003	19.995	103.188	19.967	30.479	0.471
362.000	252.818	80.003	19.995	103.188	19.962	30.771	0.465
362.500	253.059	80.004	19.995	103.188	19.959	31.015	0.456
363.000	253.309	80.003	19.996	103.190	19.957	31.127	0.471
363.500	253.566	80.002	19.995	103.190	19.954	31.336	0.499
364.000	253.799	80.004	19.995	103.190	19.953	31.410	0.498
364.500	254.079	80.003	19.995	103.190	19.948	31.796	0.501
365.000	254.263	80.004	19.994	103.190	19.946	31.890	0.489
365.500	254.517	80.003	19.995	103.190	19.943	32.128	0.451
366.000	254.753	80.003	19.995	103.191	19.942	32.218	0.464
366.500	254.981	80.004	19.995	103.191	19.940	32.330	0.477
367.000	255.229	80.001	19.994	103.192	19.937	32.560	0.470
367.501	255.442	80.002	19.993	103.193	19.938	32.493	0.468
368.001	255.682	80.003	19.995	103.193	19.931	32.985	0.457
368.500	255.925	80.002	19.995	103.199	19.926	33.338	0.468
369.000	256.191	80.003	19.996	103.202	19.925	33.406	0.496
369.500	256.442	80.003	19.995	103.201	19.919	33.794	0.513
370.000	256.636	80.003	19.995	103.201	19.919	33.826	0.481
370.501	256.906	80.002	19.995	103.205	19.915	34.102	0.454
371.000	257.166	80.002	19.994	103.203	19.908	34.548	0.497
371.500	257.401	80.001	19.994	103.201	19.908	34.570	0.513
372.000	257.640	80.003	19.995	103.202	19.906	34.730	0.485
372.500	257.865	80.003	19.995	103.202	19.902	34.988	0.469
373.000	258.122	80.001	19.995	103.197	19.899	35.230	0.473
373.500	258.365	80.003	19.995	103.194	19.895	35.479	0.491
374.000	258.592	80.002	19.996	103.200	19.892	35.678	0.485
374.500	258.867	80.002	19.995	103.207	19.887	36.007	0.486
375.000	259.120	80.003	19.996	103.212	19.886	36.084	0.515
375.500	259.327	80.001	19.995	103.216	19.880	36.494	0.494
376.000	259.597	80.002	19.995	103.216	19.878	36.678	0.469
376.500	259.812	80.003	19.995	103.212	19.871	37.126	0.481
377.000	260.025	80.003	19.996	103.209	19.872	37.063	0.456
377.500	260.310	80.001	19.995	103.209	19.870	37.234	0.462
378.000	260.528	80.002	19.995	103.212	19.863	37.702	0.500
378.500	260.782	80.002	19.995	103.219	19.858	38.072	0.488
379.000	261.048	80.002	19.995	103.225	19.858	38.073	0.496
379.500	261.278	80.001	19.995	103.221	19.855	38.247	0.507
380.000	261.532	80.002	19.995	103.207	19.850	38.584	0.490
380.500	261.795	80.002	19.997	103.194	19.851	38.563	0.500
381.000	262.022	80.002	19.996	103.186	19.845	38.950	0.504
381.500	262.272	80.002	19.995	103.181	19.840	39.339	0.484
382.000	262.525	80.003	19.996	103.212	19.839	39.413	0.490
382.500	262.714	80.002	19.996	103.244	19.831	39.959	0.473
383.000	262.972	80.002	19.995	103.264	19.828	40.154	0.445
383.500	263.211	80.002	19.995	103.273	19.825	40.339	0.472
384.000	263.481	80.002	19.996	103.276	19.823	40.501	0.503
384.500	263.730	80.004	19.996	103.253	19.816	40.988	0.514
385.000	263.959	80.001	19.996	103.236	19.814	41.099	0.499
385.500	264.235	80.003	19.996	103.232	19.810	41.440	0.492
386.000	264.481	80.004	19.996	103.232	19.805	41.751	0.514
386.500	264.701	80.002	19.995	103.234	19.804	41.832	0.494
387.000	264.978	80.002	19.996	103.234	19.798	42.282	0.482
387.500	265.187	80.003	19.996	103.236	19.793	42.569	0.492
388.000	265.462	80.002	19.995	103.236	19.791	42.762	0.485
388.500	265.671	80.003	19.996	103.233	19.784	43.195	0.484
389.000	265.919	80.004	19.996	103.232	19.783	43.274	0.471
389.500	266.194	80.003	19.997	103.232	19.777	43.695	0.490
390.000	266.424	80.004	19.996	103.229	19.771	44.108	0.514
390.500	266.605	80.003	19.995	103.229	19.768	44.376	0.458
391.000	266.882	80.005	19.995	103.230	19.765	44.593	0.434
391.500	267.151	80.005	19.996	103.230	19.760	44.895	0.502
392.000	267.440	80.005	19.996	103.235	19.760	44.881	0.552
392.500	267.677	80.004	19.995	103.236	19.755	45.236	0.542
393.000	267.877	80.004	19.995	103.237	19.752	45.477	0.481
393.500	268.153	80.002	19.995	103.237	19.744	45.991	0.456
394.000	268.389	80.002	19.994	103.236	19.739	46.329	0.495
394.500	268.654	80.003	19.995	103.230	19.738	46.427	0.507
395.000	268.870	80.002	19.995	103.229	19.735	46.679	0.491
395.500	269.134	80.002	19.994	103.231	19.729	47.089	0.480
396.000	269.395	80.003	19.995	103.236	19.724	47.427	0.502
396.500	269.618	80.002	19.995	103.243	19.721	47.617	0.505
397.000	269.880	80.002	19.995	103.248	19.719	47.781	0.485
397.500	270.137	80.001	19.995	103.250	19.713	48.162	0.501
398.000	270.409	80.001	19.995	103.247	19.711	48.326	0.524
398.500	270.669	80.002	19.995	103.242	19.706	48.642	0.531
399.001	270.884	80.002	19.995	103.236	19.704	48.788	0.504
399.500	271.115	80.002	19.995	103.233	19.700	49.071	0.461
400.000	271.419	80.001	19.995	103.239	19.697	49.298	0.490
400.500	271.650	80.002	19.994	103.247	19.692	49.639	0.535
401.000	271.900	80.003	19.994	103.255	19.689	49.828	0.508
401.500	272.156	80.001	19.995	103.265	19.688	49.894	0.494
402.000	272.418	80.001	19.994	103.271	19.685	50.111	0.512
402.500	272.647	80.001	19.995	103.270	19.683	50.255	0.504
403.000	272.857	80.002	19.995	103.268	19.682	50.325	0.465
403.500	273.130	80.002	19.995	103.261	19.681	50.372	0.461
404.000	273.370	80.002	19.995	103.251	19.675	50.805	0.498
404.500	273.614	80.001	19.995	103.250	19.675	50.783	0.498
405.000	273.878	80.003	19.994	103.248	19.671	51.111	0.496
405.500	274.127	80.001	19.994	103.249	19.670	51.126	0.510
406.000	274.387	80.001	19.995	103.256	19.669	51.255	0.511
406.500	274.655	80.002	19.994	103.261	19.669	51.242	0.518
407.000	274.872	80.004	19.995	103.261	19.668	51.325	0.506
407.500	275.143	80.000	19.995	103.257	19.663	51.644	0.487
408.000	275.386	80.002	19.995	103.251	19.665	51.559	0.502
408.500	275.625	80.000	19.995	103.244	19.665	51.555	0.498
409.000	275.922	80.001	19.994	103.238	19.664	51.606	0.508
409.501	276.150	80.002	19.995	103.234	19.664	51.624	0.530
410.000	276.365	80.004	19.994	103.239	19.666	51.479	0.484
410.500	276.631	80.003	19.995	103.247	19.662	51.701	0.462
411.000	276.868	80.003	19.995	103.253	19.666	51.433	0.492
411.500	277.143	80.002	19.995	103.254	19.665	51.512	0.508
412.000	277.373	80.002	19.995	103.254	19.669	51.232	0.509
412.500	277.614	80.003	19.994	103.251	19.667	51.365	0.488
413.000	277.855	80.002	19.994	103.244	19.671	51.096	0.476
413.500	278.114	80.003	19.995	103.237	19.671	51.113	0.491
414.000	278.365	80.003	19.995	103.236	19.675	50.828	0.505
414.500	278.599	80.003	19.995	103.233	19.677	50.646	0.498
415.000	278.860	80.004	19.995	103.228	19.680	50.468	0.490
415.500	279.115	80.003	19.994	103.229	19.682	50.343	0.505
416.000	279.349	80.002	19.994	103.223	19.687	49.965	0.502
416.500	279.622	80.003	19.995	103.207	19.693	49.579	0.498
417.000	279.910	80.003	19.994	103.201	19.696	49.354	0.534
417.500	280.129	80.002	19.995	103.202	19.699	49.130	0.534
418.000	280.401	80.003	19.995	103.204	19.706	48.667	0.499
418.500	280.621	80.002	19.994	103.218	19.712	48.254	0.492
419.000	280.915	80.003	19.994	103.255	19.714	48.104	0.503
419.500	281.130	80.002	19.994	103.269	19.722	47.571	0.512
420.000	281.395	80.002	19.995	103.269	19.731	46.923	0.495
420.500	281.706	80.002	19.996	103.266	19.736	46.533	0.528
421.000	281.884	80.002	19.995	103.259	19.739	46.371	0.532
421.500	282.132	80.001	19.995	103.237	19.745	45.963	0.457
422.001	282.424	80.003	19.995	103.228	19.755	45.235	0.483
422.500	282.642	80.001	19.995	103.228	19.759	44.990	0.525
423.000	282.933	80.002	19.995	103.229	19.766	44.473	0.509
423.500	283.199	80.001	19.995	103.231	19.770	44.189	0.533
424.000	283.413	80.001	19.995	103.231	19.777	43.686	0.519
424.500	283.683	80.000	19.995	103.231	19.782	43.337	0.482
425.000	283.890	80.003	19.995	103.231	19.788	42.958	0.480
425.501	284.178	80.001	19.995	103.232	19.792	42.638	0.486
426.001	284.432	80.001	19.994	103.230	19.799	42.154	0.518
426.501	284.660	80.000	19.995	103.231	19.802	41.974	0.512
427.000	284.935	80.002	19.995	103.231	19.804	41.800	0.493
427.500	285.161	80.002	19.995	103.232	19.808	41.552	0.502
428.000	285.425	80.001	19.994	103.231	19.816	41.003	0.496
428.500	285.666	80.002	19.994	103.230	19.817	40.944	0.498
429.000	285.889	80.003	19.995	103.230	19.824	40.449	0.485
429.500	286.154	80.001	19.995	103.231	19.828	40.113	0.476
430.000	286.410	80.001	19.996	103.230	19.832	39.836	0.504
430.500	286.637	80.001	19.994	103.230	19.837	39.488	0.502
431.000	286.907	80.001	19.994	103.233	19.840	39.290	0.491
431.500	287.127	80.002	19.994	103.235	19.843	39.076	0.494
432.000	287.354	80.000	19.995	103.234	19.845	38.948	0.468
432.500	287.663	80.003	19.994	103.234	19.852	38.458	0.491
433.000	287.904	80.002	19.994	103.234	19.853	38.402	0.544
433.500	288.148	80.002	19.994	103.232	19.859	37.958	0.518
434.000	288.410	80.002	19.994	103.231	19.861	37.845	0.495
434.500	288.640	80.002	19.994	103.231	19.867	37.397	0.499
435.000	288.922	80.003	19.995	103.230	19.867	37.394	0.502
435.500	289.134	80.002	19.995	103.230	19.873	37.014	0.503
436.000	289.388	80.001	19.994	103.228	19.873	36.979	0.480
436.500	289.642	80.003	19.994	103.228	19.875	36.868	0.487
437.000	289.917	80.001	19.995	103.228	19.879	36.588	0.519
437.500	290.149	80.003	19.995	103.227	19.884	36.210	0.518
438.000	290.380	80.002	19.994	103.227	19.886	36.088	0.485
438.500	290.651	80.003	19.995	103.226	19.890	35.820	0.483
439.000	290.895	80.000	19.994	103.225	19.893	35.605	0.508
439.500	291.160	80.000	19.993	103.223	19.893	35.614	0.512
440.000	291.407	80.005	19.994	103.222	19.899	35.173	0.511
440.500	291.638	80.001	19.994	103.220	19.902	35.013	0.495
441.000	291.904	80.002	19.995	103.217	19.903	34.920	0.488
441.500	292.146	80.002	19.994	103.217	19.904	34.874	0.503
442.000	292.399	80.003	19.994	103.219	19.909	34.523	0.501
442.500	292.608	80.002	19.994	103.220	19.911	34.380	0.479
443.000	292.884	80.002	19.994	103.221	19.911	34.331	0.474
443.500	293.137	80.002	19.995	103.219	19.911	34.368	0.507
444.000	293.381	80.002	19.995	103.215	19.919	33.811	0.513
444.500	293.619	80.004	19.996	103.214	19.922	33.607	0.489
445.000	293.921	80.002	19.994	103.213	19.925	33.419	0.511
445.500	294.113	80.002	19.994	103.209	19.931	32.969	0.517
446.000	294.382	80.002	19.995	103.208	19.931	32.983	0.477
446.500	294.640	80.002	19.995	103.206	19.935	32.669	0.494
447.000	294.893	80.002	19.995	103.204	19.936	32.636	0.520
447.501	295.180	80.002	19.995	103.205	19.940	32.347	0.526
448.000	295.408	80.002	19.996	103.209	19.940	32.304	0.527
448.500	295.658	80.002	19.995	103.210	19.945	31.993	0.497
449.000	295.902	80.002	19.995	103.210	19.946	31.884	0.486
449.500	296.141	80.002	19.996	103.211	19.951	31.557	0.488
450.000	296.396	80.001	19.995	103.210	19.952	31.477	0.488
450.500	296.655	80.002	19.995	103.208	19.955	31.308	0.504
451.000	296.916	80.002	19.995	103.212	19.957	31.127	0.517
451.500	297.190	80.002	19.995	103.217	19.963	30.758	0.527
452.000	297.413	80.002	19.995	103.214	19.965	30.599	0.516
452.500	297.680	80.001	19.995	103.209	19.969	30.339	0.494
453.000	297.933	80.002	19.994	103.206	19.973	30.023	0.505
453.500	298.196	80.001	19.995	103.202	19.970	30.251	0.518
454.000	298.482	80.001	19.995	103.197	19.977	29.735	0.533
454.500	298.742	80.002	19.996	103.200	19.980	29.545	0.548
455.000	298.954	80.004	19.994	103.205	19.984	29.260	0.509
455.500	299.236	80.004	19.995	103.213	19.987	29.084	0.483
456.000	299.506	80.003	19.995	103.217	19.986	29.126	0.523
456.500	299.764	80.003	19.994	103.217	19.989	28.914	0.540
457.000	300.020	80.002	19.995	103.212	19.994	28.544	0.521
457.500	300.250	80.004	19.995	103.204	19.992	28.734	0.500
458.000	300.534	80.003	19.995	103.196	19.997	28.351	0.500
458.500	300.764	80.003	19.995	103.191	19.994	28.585	0.514
459.000	301.058	80.003	19.995	103.189	20.003	27.962	0.519
459.500	301.313	80.003	19.994	103.190	20.000	28.135	0.537
460.000	301.545	80.004	19.995	103.192	20.004	27.863	0.518
460.500	301.820	80.002	19.995	103.191	20.006	27.748	0.497
461.000	302.065	80.003	19.994	103.191	20.007	27.684	0.514
461.500	302.332	80.004	19.995	103.192	20.010	27.462	0.516
462.000	302.549	80.004	19.994	103.191	20.015	27.079	0.498
462.500	302.844	80.004	19.995	103.192	20.011	27.405	0.499
463.000	303.098	80.004	19.994	103.193	20.019	26.793	0.530
463.500	303.339	80.004	19.994	103.193	20.019	26.830	0.521
464.000	303.632	80.004	19.995	103.193	20.021	26.690	0.514
464.500	303.903	80.005	19.995	103.198	20.020	26.752	0.549
465.000	304.147	80.004	19.994	103.201	20.024	26.478	0.540
465.500	304.394	80.004	19.994	103.200	20.028	26.175	0.503
466.000	304.659	80.005	19.994	103.200	20.029	26.155	0.501
466.500	304.919	80.005	19.996	103.199	20.029	26.094	0.518
467.000	305.179	80.004	19.995	103.193	20.033	25.843	0.523
467.500	305.455	80.004	19.996	103.187	20.034	25.803	0.528
468.000	305.697	80.004	19.994	103.186	20.031	25.965	0.527
468.500	305.971	80.004	19.994	103.186	20.033	25.852	0.517
469.000	306.211	80.005	19.996	103.185	20.034	25.790	0.515
469.500	306.478	80.004	19.996	103.181	20.038	25.476	0.511
470.000	306.728	80.004	19.996	103.183	20.038	25.484	0.512
470.500	307.009	80.004	19.995	103.185	20.040	25.388	0.524
471.000	307.266	80.004	19.994	103.184	20.039	25.452	0.534
471.500	307.529	80.005	19.995	103.183	20.039	25.455	0.529
472.000	307.793	80.004	19.995	103.185	20.039	25.429	0.523
472.500	308.023	80.004	19.995	103.185	20.041	25.261	0.511
473.001	308.291	80.002	19.995	103.185	20.042	25.237	0.496
473.500	308.563	80.005	19.995	103.186	20.041	25.286	0.519
474.000	308.832	80.004	19.995	103.187	20.044	25.045	0.541
474.500	309.077	80.002	19.996	103.190	20.044	25.062	0.528
475.000	309.313	80.002	19.996	103.190	20.046	24.952	0.498
475.500	309.630	80.002	19.995	103.191	20.046	24.908	0.517
476.000	309.876	80.002	19.996	103.190	20.046	24.938	0.558
476.500	310.132	80.002	19.995	103.187	20.046	24.915	0.532
477.000	310.399	80.000	19.996	103.185	20.049	24.706	0.513
477.500	310.671	80.004	19.996	103.184	20.053	24.446	0.532
478.000	310.901	80.001	19.997	103.184	20.052	24.518	0.521
478.500	311.189	80.001	19.996	103.185	20.053	24.448	0.510
479.000	311.479	80.001	19.996	103.188	20.052	24.530	0.547
479.500	311.713	80.001	19.996	103.188	20.050	24.668	0.551
480.000	312.005	80.002	19.997	103.187	20.052	24.526	0.525
480.500	312.254	80.002	19.996	103.186	20.054	24.384	0.533
481.000	312.528	80.002	19.996	103.185	20.053	24.428	0.532
481.500	312.788	80.002	19.996	103.186	20.054	24.390	0.528
482.000	313.060	80.002	19.995	103.186	20.054	24.393	0.533
482.500	313.315	80.002	19.995	103.185	20.057	24.208	0.530
483.000	313.614	80.000	19.996	103.187	20.056	24.219	0.541
483.500	313.838	80.002	19.995	103.182	20.053	24.417	0.538
484.000	314.093	80.002	19.995	103.175	20.054	24.382	0.501
484.500	314.392	80.003	19.996	103.174	20.055	24.278	0.517
485.000	314.594	80.000	19.995	103.175	20.054	24.352	0.527
485.500	314.888	80.001	19.996	103.175	20.055	24.337	0.498
486.000	315.145	80.002	19.995	103.177	20.053	24.418	0.523
486.500	315.413	80.001	19.995	103.176	20.053	24.423	0.538
487.000	315.659	80.001	19.994	103.175	20.055	24.326	0.520
487.500	315.930	80.002	19.994	103.175	20.052	24.518	0.515
488.000	316.127	80.002	19.995	103.173	20.051	24.597	0.492
488.500	316.445	80.002	19.995	103.173	20.052	24.499	0.491
489.000	316.663	80.001	19.994	103.178	20.054	24.393	0.525
489.500	316.939	80.003	19.995	103.178	20.053	24.438	0.515
490.000	317.200	80.001	19.995	103.172	20.052	24.519	0.516
490.500	317.466	80.001	19.995	103.172	20.054	24.387	0.532
491.000	317.746	80.002	19.994	103.170	20.053	24.451	0.537
491.500	317.996	80.002	19.994	103.168	20.054	24.380	0.538
492.000	318.294	80.001	19.995	103.168	20.051	24.596	0.539
492.500	318.521	80.001	19.994	103.171	20.051	24.578	0.536
493.000	318.806	80.003	19.994	103.174	20.051	24.570	0.519
493.500	319.026	80.001	19.995	103.176	20.050	24.667	0.509
494.000	319.282	80.001	19.994	103.174	20.053	24.427	0.491
494.500	319.601	80.002	19.993	103.169	20.050	24.649	0.526
495.000	319.805	80.002	19.994	103.167	20.050	24.649	0.549
495.500	320.044	80.003	19.994	103.167	20.053	24.472	0.483
496.000	320.316	80.002	19.994	103.169	20.051	24.576	0.477
496.500	320.572	80.003	19.994	103.173	20.050	24.674	0.519
497.000	320.843	80.003	19.994	103.174	20.050	24.641	0.527
497.500	321.084	80.003	19.994	103.173	20.051	24.584	0.519
498.000	321.334	80.002	19.995	103.167	20.049	24.727	0.501
498.500	321.641	80.004	19.994	103.163	20.052	24.495	0.524
499.000	321.868	80.001	19.994	103.163	20.049	24.709	0.546
499.500	322.176	80.001	19.994	103.163	20.051	24.564	0.534
500.000	322.382	80.002	19.995	103.165	20.049	24.731	0.524
500.500	322.655	80.003	19.995	103.172	20.050	24.666	0.497
501.000	322.899	80.003	19.994	103.175	20.052	24.554	0.499
501.500	323.162	80.003	19.994	103.173	20.052	24.487	0.512
502.000	323.422	80.002	19.995	103.170	20.053	24.449	0.515
502.500	323.669	80.002	19.995	103.168	20.050	24.672	0.514
503.000	323.921	80.002	19.994	103.161	20.050	24.680	0.503
503.500	324.186	80.001	19.993	103.155	20.051	24.611	0.508
504.000	324.470	80.001	19.994	103.156	20.053	24.479	0.533
504.500	324.705	80.002	19.994	103.162	20.050	24.666	0.534
505.000	324.985	80.000	19.994	103.167	20.054	24.393	0.517
505.500	325.251	80.001	19.994	103.173	20.054	24.369	0.530
506.000	325.496	80.001	19.995	103.180	20.055	24.335	0.529
506.500	325.780	80.001	19.995	103.183	20.055	24.321	0.520
507.001	326.000	80.002	19.994	103.182	20.055	24.324	0.517
507.500	326.269	80.001	19.994	103.182	20.054	24.413	0.497
508.000	326.485	80.001	19.995	103.179	20.054	24.382	0.487
508.500	326.768	80.000	19.994	103.173	20.051	24.572	0.492
509.001	327.008	80.001	19.995	103.171	20.055	24.321	0.511
509.501	327.271	80.001	19.996	103.169	20.056	24.273	0.513
510.000	327.537	80.002	19.994	103.168	20.055	24.324	0.517
510.500	327.789	80.002	19.994	103.168	20.054	24.416	0.524
511.000	328.049	80.002	19.994	103.171	20.053	24.439	0.514
511.500	328.309	80.002	19.994	103.173	20.052	24.522	0.515
512.000	328.578	79.999	19.994	103.175	20.054	24.385	0.525
512.500	328.828	80.001	19.995	103.175	20.053	24.476	0.525
513.000	329.096	80.001	19.994	103.175	20.055	24.298	0.519
513.500	329.345	80.000	19.995	103.175	20.055	24.332	0.517
514.000	329.600	80.000	19.994	103.174	20.055	24.320	0.510
514.500	329.867	80.000	19.994	103.175	20.057	24.194	0.513
515.000	330.119	80.001	19.994	103.181	20.057	24.163	0.520
515.500	330.352	80.000	19.994	103.180	20.055	24.292	0.502
516.000	330.601	80.001	19.994	103.176	20.055	24.276	0.484
516.500	330.887	80.003	19.995	103.178	20.052	24.505	0.508
517.000	331.112	80.004	19.994	103.178	20.052	24.488	0.523
517.500	331.385	80.000	19.995	103.176	20.057	24.176	0.504
518.000	331.621	80.004	19.995	103.180	20.060	23.976	0.504
518.500	331.891	80.004	19.995	103.186	20.056	24.257	0.507
519.000	332.145	80.001	19.994	103.184	20.057	24.194	0.515
519.500	332.411	80.002	19.994	103.179	20.057	24.171	0.523
520.000	332.674	80.004	19.994	103.176	20.056	24.222	0.525
520.500	332.923	80.003	19.994	103.175	20.055	24.296	0.521
521.000	333.184	80.003	19.995	103.173	20.058	24.130	0.511
521.500	333.407	80.004	19.995	103.174	20.056	24.212	0.497
522.000	333.683	80.003	19.995	103.174	20.057	24.156	0.491
522.500	333.949	80.003	19.994	103.170	20.059	24.017	0.520
523.000	334.175	80.004	19.994	103.164	20.057	24.138	0.517
523.500	334.470	80.003	19.994	103.160	20.059	24.022	0.507
524.000	334.689	80.006	19.994	103.154	20.059	24.021	0.518
524.500	334.963	80.004	19.994	103.153	20.059	24.032	0.504
525.000	335.231	80.004	19.994	103.159	20.059	24.023	0.517
525.500	335.505	80.004	19.994	103.164	20.062	23.817	0.542
526.000	335.709	80.003	19.994	103.166	20.057	24.134	0.510
526.500	335.982	80.004	19.993	103.167	20.058	24.130	0.478
527.000	336.206	80.003	19.994	103.166	20.056	24.207	0.487
527.500	336.485	80.003	19.994	103.162	20.056	24.243	0.500
528.000	336.762	80.004	19.994	103.156	20.057	24.169	0.529
528.500	337.014	80.002	19.994	103.156	20.060	23.993	0.543
529.000	337.255	80.003	19.994	103.156	20.056	24.232	0.511
529.500	337.479	80.002	19.995	103.158	20.053	24.424	0.479
530.000	337.752	80.002	19.995	103.156	20.053	24.437	0.481
530.500	337.982	80.000	19.995	103.156	20.053	24.412	0.500
531.000	338.268	80.002	19.995	103.155	20.055	24.290	0.509
531.500	338.486	80.003	19.995	103.152	20.055	24.329	0.510
532.000	338.752	80.002	19.995	103.154	20.055	24.283	0.494
532.500	339.004	80.002	19.994	103.161	20.053	24.417	0.501
533.000	339.259	80.003	19.993	103.166	20.054	24.406	0.513
533.500	339.505	80.001	19.995	103.170	20.054	24.386	0.504
534.000	339.771	80.003	19.995	103.171	20.053	24.466	0.506
534.500	340.019	80.001	19.995	103.167	20.052	24.500	0.513
535.000	340.266	80.003	19.996	103.162	20.057	24.175	0.504
535.500	340.514	80.003	19.995	103.158	20.060	23.981	0.495
536.000	340.787	80.002	19.995	103.155	20.054	24.404	0.508
536.500	341.020	80.004	19.995	103.155	20.052	24.533	0.514
537.000	341.251	80.003	19.995	103.155	20.053	24.476	0.485
537.500	341.563	80.004	19.996	103.153	20.055	24.342	0.503
538.000	341.749	80.003	19.995	103.154	20.052	24.501	0.520
538.500	342.052	80.002	19.995	103.156	20.053	24.424	0.494
539.000	342.295	80.002	19.995	103.155	20.053	24.459	0.518
539.500	342.513	80.004	19.995	103.155	20.052	24.493	0.504
540.000	342.770	80.003	19.995	103.155	20.054	24.371	0.468
540.500	343.046	80.002	19.994	103.153	20.050	24.648	0.504
541.000	343.273	80.003	19.996	103.150	20.055	24.318	0.518
541.500	343.500	80.004	19.995	103.150	20.043	25.128	0.478
542.000	343.770	80.004	19.995	103.153	20.053	24.479	0.475
542.500	344.009	80.003	19.995	103.154	20.048	24.810	0.503
543.000	344.229	80.003	19.995	103.154	20.054	24.396	0.485
543.500	344.480	80.003	19.994	103.155	20.057	24.161	0.465
544.000	344.767	80.003	19.995	103.156	20.053	24.449	0.504
544.500	344.960	80.004	19.996	103.153	20.046	24.935	0.509
545.001	345.236	80.004	19.995	103.152	20.044	25.110	0.474
545.501	345.445	80.005	19.995	103.151	20.040	25.352	0.477
546.000	345.718	80.004	19.995	103.150	20.044	25.094	0.483
546.500	345.926	80.004	19.994	103.148	20.051	24.582	0.481
547.000	346.231	80.005	19.995	103.149	20.044	25.093	0.497
547.500	346.460	80.005	19.994	103.151	20.045	25.006	0.524
548.000	346.694	80.004	19.995	103.152	20.048	24.816	0.498
548.500	346.947	80.005	19.995	103.153	20.047	24.853	0.475
549.000	347.258	80.005	19.995	103.153	20.040	25.362	0.526
549.500	347.452	80.004	19.994	103.152	20.043	25.156	0.535
550.000	347.726	80.005	19.993	103.153	20.042	25.187	0.486
550.500	347.893	80.004	19.995	103.159	20.040	25.333	0.454
551.000	348.196	80.004	19.995	103.161	20.043	25.140	0.455
551.500	348.424	80.002	19.995	103.176	20.040	25.375	0.501
552.000	348.723	80.003	19.995	103.173	20.039	25.431	0.529
552.500	349.005	80.004	19.994	103.162	20.038	25.509	0.554
553.000	349.132	80.002	19.994	103.148	20.035	25.698	0.495
553.500	349.376	80.002	19.995	103.144	20.036	25.652	0.390
554.000	349.739	80.004	19.994	103.129	20.033	25.830	0.489
554.500	349.935	80.004	19.996	103.132	20.029	26.114	0.583
555.000	350.290	80.002	19.995	103.146	20.032	25.931	0.555
555.500	350.296	80.002	19.995	103.160	20.030	26.069	0.456
556.000	350.926	80.002	19.996	103.166	20.027	26.269	0.499
556.500	350.774	80.001	19.995	103.168	20.026	26.360	0.557
557.000	351.416	80.002	19.995	103.171	20.027	26.266	0.484
557.500	351.481	80.000	19.995	103.166	20.023	26.555	0.599
558.000	351.918	80.001	19.995	103.159	20.024	26.457	0.604
558.500	352.077	80.002	19.995	103.153	20.022	26.628	0.549
559.000	352.183	80.001	19.995	103.151	20.019	26.833	0.431
559.500	352.122	80.000	19.994	103.149	20.015	27.084	0.155
560.000	352.332	80.001	19.995	103.149	20.014	27.130	0.097
560.500	352.888	80.000	19.995	103.149	20.014	27.166	0.458
561.000	353.289	80.000	19.994	103.152	20.009	27.478	0.861
561.500	353.434	80.001	19.995	103.154	20.010	27.427	0.751
562.000	353.767	80.002	19.995	103.155	20.005	27.758	0.512
562.500	353.914	80.001	19.995	103.155	20.004	27.842	0.479
563.000	354.143	80.001	19.994	103.158	20.000	28.142	0.428
563.500	354.368	80.000	19.995	103.146	20.001	28.037	0.415
564.000	354.754	80.001	19.996	103.129	19.999	28.182	0.533
564.500	354.926	80.002	19.996	103.115	19.993	28.655	0.585
565.000	355.217	80.001	19.995	103.108	19.991	28.781	0.510
565.500	355.454	80.002	19.996	103.098	19.986	29.086	0.496
566.001	355.723	80.001	19.995	103.108	19.987	29.067	0.518
566.500	356.004	80.000	19.996	103.140	19.981	29.488	0.528
567.000	356.244	80.000	19.995	103.173	19.983	29.328	0.535
567.500	356.440	80.001	19.995	103.186	19.977	29.730	0.478
568.000	356.729	80.000	19.996	103.193	19.975	29.850	0.460
568.500	356.967	80.000	19.995	103.193	19.975	29.915	0.506
569.000	357.178	80.001	19.995	103.177	19.968	30.366	0.488
569.500	357.471	80.000	19.996	103.157	19.964	30.630	0.477
570.000	357.746	80.002	19.996	103.152	19.964	30.624	0.536
570.500	357.963	80.001	19.996	103.151	19.956	31.210	0.530
571.000	358.227	80.000	19.997	103.151	19.955	31.282	0.486
571.500	358.456	80.001	19.995	103.152	19.953	31.437	0.487
572.000	358.730	80.001	19.995	103.154	19.948	31.744	0.498
572.500	358.939	80.002	19.996	103.155	19.943	32.098	0.493
573.000	359.225	79.999	19.995	103.156	19.942	32.153	0.489
573.500	359.504	80.003	19.995	103.156	19.939	32.361	0.530
574.000	359.775	80.002	19.995	103.155	19.935	32.683	0.557
574.500	359.971	80.001	19.995	103.154	19.929	33.084	0.508
575.000	360.259	79.999	19.995	103.153	19.928	33.124	0.475
575.500	360.502	80.001	19.995	103.151	19.923	33.492	0.507
576.000	360.791	80.001	19.995	103.151	19.920	33.706	0.532
576.500	361.019	80.002	19.995	103.151	19.914	34.150	0.525
577.000	361.260	80.001	19.994	103.152	19.909	34.465	0.493
577.500	361.541	80.001	19.995	103.153	19.903	34.912	0.495
578.000	361.799	80.002	19.995	103.156	19.899	35.195	0.531
578.500	362.024	80.003	19.994	103.157	19.897	35.289	0.511
579.000	362.265	80.001	19.995	103.157	19.890	35.779	0.474
579.500	362.525	80.001	19.994	103.156	19.881	36.426	0.483
580.000	362.797	80.001	19.993	103.155	19.877	36.733	0.517
580.500	363.052	80.000	19.994	103.155	19.874	36.942	0.529
581.000	363.303	80.000	19.994	103.154	19.868	37.310	0.516
581.501	363.506	80.000	19.994	103.157	19.862	37.774	0.480
582.000	363.802	80.002	19.993	103.161	19.857	38.109	0.476
582.500	364.079	80.002	19.994	103.163	19.851	38.543	0.536
583.000	364.332	80.000	19.994	103.165	19.845	38.923	0.552
583.500	364.588	80.002	19.993	103.166	19.840	39.289	0.520
584.000	364.860	80.001	19.994	103.165	19.835	39.648	0.518
584.501	365.078	80.000	19.994	103.162	19.827	40.195	0.509
585.001	365.336	80.001	19.994	103.160	19.819	40.753	0.483
585.500	365.610	80.001	19.994	103.158	19.811	41.336	0.504
586.000	365.857	80.001	19.995	103.157	19.808	41.545	0.527
586.500	366.138	80.002	19.995	103.154	19.799	42.147	0.524
587.000	366.389	80.001	19.995	103.159	19.793	42.543	0.530
587.500	366.653	80.001	19.995	103.160	19.786	43.090	0.524
588.000	366.905	80.002	19.993	103.159	19.780	43.450	0.515
588.500	367.103	80.001	19.993	103.158	19.772	44.033	0.483
589.000	367.423	80.002	19.995	103.163	19.765	44.555	0.484
589.500	367.676	80.001	19.995	103.158	19.758	45.003	0.546
590.000	367.945	80.000	19.994	103.160	19.750	45.601	0.547
590.500	368.192	80.000	19.994	103.161	19.740	46.258	0.519
591.000	368.450	80.001	19.995	103.160	19.730	46.945	0.511
591.500	368.722	80.002	19.994	103.159	19.722	47.542	0.518
592.000	368.941	80.002	19.995	103.161	19.718	47.817	0.510
592.500	369.267	80.001	19.995	103.160	19.708	48.498	0.518
593.000	369.520	80.002	19.995	103.165	19.701	48.988	0.562
593.500	369.736	80.003	19.994	103.170	19.693	49.535	0.524
594.000	369.977	80.001	19.995	103.169	19.685	50.100	0.463
594.500	370.276	80.002	19.994	103.172	19.673	50.910	0.499
595.000	370.516	80.003	19.995	103.175	19.663	51.600	0.539
595.500	370.806	80.002	19.994	103.172	19.654	52.293	0.535
596.000	371.032	80.003	19.995	103.174	19.647	52.733	0.523
596.500	371.288	80.003	19.994	103.178	19.636	53.481	0.499
597.000	371.550	80.002	19.995	103.174	19.628	54.079	0.500
597.500	371.788	80.002	19.994	103.174	19.618	54.748	0.509
598.000	372.063	80.003	19.995	103.178	19.609	55.365	0.507
598.500	372.306	80.003	19.995	103.177	19.599	56.116	0.516
599.000	372.541	80.002	19.994	103.179	19.592	56.561	0.498
599.500	372.832	80.003	19.995	103.184	19.577	57.631	0.502
600.000	373.119	80.005	19.994	103.186	19.568	58.270	0.552
600.500	373.347	80.004	19.995	103.184	19.559	58.864	0.546
601.000	373.648	80.003	19.995	103.181	19.549	59.567	0.521
601.500	373.896	80.004	19.995	103.175	19.539	60.241	0.539
602.000	374.179	80.004	19.995	103.172	19.527	61.120	0.540
602.500	374.395	80.002	19.995	103.173	19.516	61.847	0.515
603.000	374.631	80.003	19.996	103.175	19.504	62.714	0.475
603.500	374.913	80.003	19.994	103.179	19.493	63.504	0.485
604.000	375.199	80.004	19.994	103.186	19.483	64.191	0.543
604.500	375.438	80.004	19.995	103.188	19.468	65.236	0.546
605.000	375.708	80.004	19.994	103.187	19.457	65.959	0.517
605.500	375.956	80.004	19.995	103.188	19.449	66.575	0.513
606.000	376.223	80.005	19.994	103.188	19.435	67.490	0.517
606.500	376.452	80.003	19.995	103.187	19.426	68.137	0.506
607.000	376.742	80.003	19.994	103.188	19.410	69.254	0.508
607.500	377.008	80.004	19.994	103.188	19.400	69.956	0.537
608.000	377.269	80.004	19.994	103.187	19.388	70.815	0.541
608.500	377.531	80.003	19.995	103.187	19.374	71.797	0.525
609.000	377.781	80.003	19.995	103.185	19.362	72.636	0.517
609.500	378.035	80.003	19.994	103.183	19.351	73.365	0.509
610.000	378.311	80.003	19.994	103.182	19.334	74.592	0.518
610.500	378.556	80.004	19.994	103.181	19.323	75.318	0.526
611.000	378.817	80.004	19.995	103.181	19.311	76.134	0.513
611.500	379.087	80.003	19.994	103.182	19.296	77.189	0.518
612.000	379.307	80.004	19.995	103.184	19.285	77.949	0.510
612.500	379.596	80.004	19.995	103.185	19.269	79.099	0.500
613.000	379.829	80.004	19.994	103.187	19.258	79.836	0.516
613.500	380.124	80.003	19.994	103.187	19.241	81.036	0.525
614.000	380.349	80.004	19.994	103.188	19.228	81.951	0.524
614.500	380.652	80.004	19.994	103.188	19.219	82.548	0.524
615.000	380.880	80.004	19.994	103.188	19.200	83.872	0.530
615.500	381.138	80.004	19.994	103.189	19.188	84.763	0.508
616.000	381.385	80.003	19.994	103.189	19.174	85.740	0.495
616.500	381.637	80.003	19.994	103.190	19.160	86.709	0.502
617.000	381.924	80.003	19.995	103.191	19.147	87.571	0.520
617.500	382.161	80.002	19.993	103.191	19.131	88.682	0.532
618.000	382.387	80.002	19.994	103.191	19.117	89.693	0.493
618.500	382.662	80.003	19.994	103.191	19.103	90.633	0.482
619.000	382.917	80.002	19.994	103.191	19.091	91.473	0.516
619.500	383.193	80.002	19.994	103.192	19.075	92.621	0.530
620.000	383.444	80.003	19.994	103.191	19.059	93.743	0.529
620.500	383.698	80.003	19.994	103.192	19.044	94.743	0.516
621.000	383.976	80.002	19.994	103.192	19.030	95.776	0.518
621.500	384.210	80.004	19.994	103.193	19.013	96.919	0.522
622.000	384.510	80.003	19.993	103.193	19.001	97.793	0.523
622.500	384.772	80.003	19.994	103.194	18.983	99.009	0.548
623.000	384.982	80.004	19.995	103.193	18.966	100.205	0.517
623.500	385.294	80.003	19.994	103.192	18.953	101.119	0.497
624.000	385.486	80.005	19.994	103.191	18.937	102.233	0.513
624.500	385.792	80.004	19.995	103.190	18.920	103.376	0.501
625.000	385.992	80.004	19.994	103.188	18.907	104.303	0.503
625.500	386.291	80.004	19.994	103.188	18.892	105.382	0.502
626.000	386.533	80.005	19.993	103.188	18.874	106.577	0.520
626.500	386.754	80.004	19.995	103.188	18.860	107.553	0.502
627.000	387.023	80.004	19.995	103.187	18.845	108.664	0.477
627.500	387.274	80.004	19.995	103.189	18.826	109.976	0.505
628.000	387.568	80.004	19.996	103.188	18.811	111.020	0.532
628.500	387.799	80.004	19.994	103.187	18.795	112.150	0.535
629.000	388.057	80.003	19.995	103.187	18.779	113.228	0.507
629.500	388.303	80.004	19.995	103.188	18.763	114.322	0.496
630.000	388.560	80.003	19.995	103.188	18.747	115.429	0.503
630.500	388.849	80.002	19.994	103.188	18.732	116.444	0.524
631.000	389.085	80.002	19.995	103.185	18.717	117.528	0.535
631.500	389.327	80.003	19.994	103.186	18.699	118.743	0.502
632.000	389.589	80.004	19.994	103.186	18.685	119.735	0.491
632.500	389.839	80.002	19.994	103.186	18.669	120.890	0.508
633.000	390.109	80.002	19.996	103.187	18.654	121.940	0.516
633.500	390.354	80.002	19.995	103.189	18.636	123.145	0.518
634.000	390.613	80.001	19.995	103.187	18.619	124.323	0.509
634.500	390.863	80.000	19.995	103.184	18.602	125.493	0.506
635.000	391.127	80.001	19.995	103.183	18.589	126.463	0.511
635.500	391.374	80.000	19.995	103.179	18.575	127.417	0.513
636.000	391.621	80.001	19.995	103.181	18.559	128.520	0.502
636.500	391.843	80.000	19.995	103.181	18.542	129.715	0.482
637.000	392.110	80.001	19.994	103.185	18.534	130.249	0.479
637.501	392.352	80.002	19.996	103.186	18.515	131.552	0.499
638.001	392.606	80.000	19.995	103.190	18.502	132.460	0.503
638.501	392.873	79.999	19.994	103.190	18.490	133.349	0.509
639.001	393.129	80.001	19.995	103.191	18.476	134.316	0.521
639.500	393.396	80.004	19.995	103.189	18.461	135.364	0.523
640.000	393.632	80.001	19.994	103.181	18.446	136.373	0.513
640.500	393.897	80.002	19.995	103.174	18.435	137.114	0.502
641.000	394.139	80.001	19.994	103.167	18.421	138.113	0.504
641.500	394.427	80.000	19.994	103.159	18.406	139.129	0.519
642.000	394.640	80.000	19.995	103.155	18.394	139.969	0.515
642.500	394.897	80.001	19.995	103.157	18.387	140.415	0.486
643.000	395.146	80.002	19.995	103.160	18.373	141.455	0.488
643.500	395.406	80.000	19.995	103.160	18.360	142.324	0.508
644.000	395.677	80.000	19.994	103.160	18.349	143.104	0.520
644.500	395.934	80.001	19.995	103.160	18.339	143.779	0.530
645.000	396.164	80.001	19.995	103.157	18.323	144.873	0.507
645.500	396.435	80.001	19.994	103.153	18.314	145.528	0.494
646.000	396.681	80.002	19.994	103.151	18.302	146.354	0.509
646.500	396.942	80.003	19.995	103.150	18.294	146.922	0.512
647.000	397.177	80.003	19.995	103.148	18.287	147.417	0.502
647.500	397.434	80.002	19.996	103.145	18.274	148.292	0.494
648.000	397.681	80.000	19.995	103.144	18.266	148.847	0.497
648.500	397.894	80.002	19.994	103.146	18.261	149.234	0.482
649.000	398.150	80.001	19.993	103.145	18.250	149.975	0.465
649.500	398.430	80.003	19.994	103.148	18.241	150.605	0.502
650.000	398.663	80.003	19.995	103.148	18.233	151.122	0.524
650.500	398.936	80.002	19.995	103.148	18.225	151.696	0.510
651.000	399.144	80.002	19.996	103.145	18.222	151.933	0.494
651.500	399.415	80.003	19.996	103.138	18.216	152.367	0.480
652.000	399.671	80.003	19.995	103.130	18.208	152.870	0.503
652.500	399.921	80.002	19.996	103.123	18.201	153.406	0.516
653.000	400.158	80.003	19.996	103.116	18.196	153.755	0.496
653.500	400.389	80.002	19.996	103.112	18.194	153.829	0.477
654.000	400.645	80.003	19.996	103.112	18.189	154.208	0.477
654.500	400.899	80.001	19.996	103.112	18.185	154.481	0.498
655.000	401.139	80.001	19.996	103.112	18.180	154.783	0.502
655.500	401.368	80.001	19.995	103.112	18.176	155.082	0.481
656.000	401.641	80.002	19.996	103.111	18.172	155.328	0.486
656.500	401.876	80.000	19.996	103.109	18.170	155.499	0.506
657.000	402.121	80.001	19.996	103.110	18.170	155.494	0.494
657.500	402.393	80.001	19.996	103.110	18.171	155.461	0.498
658.000	402.648	80.003	19.996	103.110	18.170	155.519	0.522
658.500	402.893	80.003	19.996	103.111	18.166	155.766	0.514
659.000	403.142	80.001	19.995	103.111	18.162	156.081	0.497
659.500	403.378	80.001	19.995	103.111	18.162	156.015	0.489
660.000	403.600	80.002	19.996	103.104	18.162	156.063	0.472
660.500	403.852	80.002	19.996	103.096	18.162	156.007	0.466
661.000	404.130	80.000	19.996	103.092	18.163	155.959	0.502
661.500	404.366	80.002	19.995	103.091	18.164	155.908	0.522
662.000	404.551	80.000	19.995	103.091	18.166	155.780	0.467
662.500	404.852	80.000	19.996	103.098	18.167	155.642	0.453
663.000	405.114	80.002	19.995	103.106	18.169	155.556	0.525
663.500	405.317	80.001	19.996	103.108	18.176	155.069	0.515
664.000	405.574	80.000	19.996	103.101	18.172	155.329	0.463
664.500	405.775	80.002	19.996	103.094	18.178	154.932	0.459
665.000	406.044	80.002	19.996	103.088	18.185	154.422	0.464
665.500	406.284	80.002	19.996	103.081	18.187	154.282	0.490
666.000	406.574	80.001	19.996	103.075	18.194	153.798	0.519
666.500	406.817	80.000	19.995	103.076	18.199	153.435	0.531
667.000	407.069	80.002	19.994	103.074	18.206	152.956	0.514
667.500	407.303	80.003	19.995	103.073	18.212	152.550	0.491
668.000	407.525	80.002	19.995	103.077	18.219	152.012	0.471
668.500	407.790	80.002	19.995	103.081	18.228	151.397	0.471
669.000	408.023	80.002	19.996	103.081	18.237	150.835	0.492
669.500	408.302	80.001	19.994	103.079	18.240	150.575	0.505
670.000	408.518	80.002	19.994	103.074	18.254	149.623	0.503
670.500	408.748	80.002	19.995	103.067	18.263	148.967	0.471
671.000	409.020	80.002	19.994	103.060	18.272	148.295	0.474
671.500	409.261	80.003	19.995	103.053	18.281	147.671	0.507
672.000	409.504	79.999	19.994	103.049	18.292	146.945	0.498
672.500	409.759	80.005	19.995	103.052	18.306	145.999	0.491
673.000	409.979	80.003	19.994	103.053	18.319	145.082	0.487
673.500	410.236	80.003	19.995	103.052	18.330	144.362	0.477
674.000	410.485	80.002	19.994	103.054	18.344	143.383	0.492
674.500	410.730	80.001	19.993	103.060	18.358	142.427	0.500
675.000	410.962	80.001	19.994	103.062	18.367	141.841	0.485
675.500	411.224	80.003	19.994	103.062	18.385	140.604	0.485
676.000	411.455	80.003	19.995	103.061	18.398	139.679	0.493
676.500	411.702	80.002	19.994	103.061	18.412	138.693	0.486
677.000	411.945	80.003	19.994	103.055	18.428	137.593	0.484
677.500	412.220	80.003	19.994	103.047	18.443	136.480	0.504
678.000	412.415	80.003	19.995	103.041	18.458	135.428	0.493
678.500	412.696	80.003	19.995	103.039	18.475	134.276	0.473
679.000	412.923	80.003	19.994	103.040	18.489	133.291	0.492
679.500	413.190	80.005	19.995	103.045	18.503	132.294	0.501
680.000	413.397	80.004	19.994	103.051	18.520	131.109	0.484
680.500	413.662	80.005	19.996	103.045	18.542	129.586	0.473
681.000	413.888	80.005	19.995	103.035	18.554	128.770	0.481
681.500	414.166	80.003	19.994	103.024	18.575	127.332	0.498
682.000	414.381	80.002	19.995	103.017	18.589	126.362	0.499
682.500	414.632	80.002	19.993	103.015	18.605	125.226	0.480
683.000	414.843	80.003	19.994	103.024	18.624	123.876	0.464
683.500	415.108	80.003	19.994	103.039	18.643	122.619	0.469
684.000	415.362	80.003	19.995	103.048	18.664	121.141	0.497
684.500	415.580	80.003	19.995	103.051	18.683	119.833	0.495
685.000	415.834	80.003	19.994	103.059	18.698	118.768	0.473
685.500	416.085	80.003	19.994	103.087	18.721	117.155	0.488
686.000	416.339	80.002	19.994	103.099	18.733	116.339	0.505
686.500	416.605	80.003	19.994	103.109	18.754	114.851	0.513
687.000	416.850	80.003	19.994	103.115	18.773	113.547	0.515
687.501	417.099	80.004	19.995	103.111	18.788	112.454	0.503
688.000	417.318	80.002	19.995	103.087	18.807	111.150	0.481
688.500	417.591	80.001	19.994	103.078	18.825	109.899	0.480
689.000	417.783	80.001	19.995	103.075	18.845	108.512	0.478
689.500	418.060	80.002	19.994	103.073	18.861	107.413	0.467
690.000	418.326	80.002	19.995	103.073	18.878	106.246	0.506
690.500	418.556	80.002	19.994	103.074	18.901	104.591	0.519
691.000	418.791	80.004	19.996	103.074	18.916	103.568	0.480
691.500	419.028	80.001	19.994	103.074	18.933	102.384	0.468
692.000	419.318	80.002	19.994	103.075	18.954	100.922	0.500
692.500	419.543	80.002	19.995	103.077	18.970	99.794	0.521
693.000	419.813	80.003	19.995	103.080	18.987	98.632	0.505
693.500	420.017	80.002	19.994	103.081	19.004	97.436	0.484
694.000	420.330	80.003	19.994	103.082	19.021	96.240	0.496
694.500	420.579	80.001	19.993	103.085	19.038	95.085	0.539
695.000	420.848	80.002	19.994	103.087	19.057	93.792	0.540
695.500	421.080	80.002	19.995	103.084	19.070	92.872	0.510
696.000	421.314	80.002	19.995	103.084	19.091	91.383	0.484
696.500	421.584	80.003	19.995	103.084	19.107	90.257	0.485
697.000	421.847	80.003	19.994	103.080	19.123	89.149	0.519
697.500	422.099	80.003	19.994	103.079	19.138	88.116	0.524
698.000	422.355	80.002	19.994	103.080	19.157	86.778	0.511
698.500	422.595	80.003	19.994	103.080	19.172	85.746	0.501
699.001	422.866	80.003	19.994	103.085	19.187	84.720	0.504
699.500	423.082	80.004	19.995	103.085	19.207	83.344	0.500
700.000	423.325	80.002	19.994	103.084	19.220	82.431	0.473
700.500	423.579	80.003	19.994	103.082	19.236	81.316	0.478
701.000	423.871	80.003	19.994	103.082	19.254	80.030	0.522
701.500	424.132	80.003	19.994	103.078	19.266	79.191	0.549
702.000	424.340	80.004	19.993	103.079	19.283	78.029	0.511
702.500	424.642	80.004	19.994	103.084	19.297	77.037	0.489
703.000	424.898	80.003	19.993	103.085	19.313	75.937	0.534
703.500	425.159	80.003	19.994	103.089	19.326	75.061	0.537
704.000	425.414	80.005	19.993	103.089	19.346	73.644	0.516
704.500	425.694	80.004	19.994	103.088	19.360	72.691	0.526
705.000	425.936	80.004	19.994	103.082	19.375	71.644	0.529
705.500	426.179	80.004	19.993	103.081	19.387	70.770	0.504
706.000	426.469	80.004	19.993	103.077	19.404	69.627	0.509
706.500	426.724	80.004	19.993	103.078	19.415	68.817	0.539
707.000	426.997	80.004	19.994	103.082	19.430	67.783	0.537
707.500	427.242	80.003	19.993	103.084	19.442	66.931	0.523
708.000	427.503	80.005	19.993	103.084	19.453	66.187	0.512
708.500	427.812	80.003	19.994	103.083	19.469	65.083	0.538
709.000	428.024	80.004	19.992	103.082	19.480	64.311	0.546
709.500	428.341	80.004	19.993	103.079	19.493	63.386	0.525
710.000	428.599	80.004	19.994	103.078	19.507	62.426	0.552
710.500	428.836	80.004	19.994	103.077	19.520	61.507	0.535
711.000	429.061	80.003	19.994	103.078	19.534	60.593	0.479
711.501	429.365	80.004	19.994	103.080	19.547	59.657	0.496
712.000	429.647	80.002	19.994	103.081	19.556	59.035	0.557
712.500	429.865	80.003	19.993	103.081	19.571	57.983	0.543
713.000	430.134	80.002	19.994	103.081	19.583	57.130	0.493
713.500	430.391	80.002	19.994	103.080	19.594	56.407	0.507
714.000	430.650	80.001	19.995	103.076	19.604	55.728	0.521
714.500	430.916	80.003	19.994	103.075	19.618	54.729	0.521
715.000	431.186	80.001	19.994	103.073	19.631	53.838	0.530
715.500	431.443	80.001	19.995	103.079	19.640	53.199	0.531
716.000	431.689	80.001	19.995	103.088	19.651	52.442	0.515
716.500	431.961	80.002	19.995	103.080	19.661	51.728	0.511
717.000	432.216	80.002	19.995	103.074	19.674	50.845	0.523
717.500	432.465	80.001	19.995	103.073	19.681	50.358	0.515
718.000	432.759	80.002	19.994	103.069	19.693	49.483	0.523
718.500	433.051	80.002	19.995	103.060	19.702	48.855	0.564
719.000	433.318	80.002	19.994	103.068	19.715	47.955	0.573
719.500	433.585	80.001	19.995	103.074	19.721	47.519	0.547
720.000	433.795	80.003	19.995	103.078	19.731	46.847	0.505
720.500	434.091	80.001	19.995	103.077	19.742	46.092	0.492
721.000	434.359	79.998	19.994	103.080	19.750	45.536	0.535
721.500	434.593	80.000	19.995	103.082	19.760	44.845	0.533
722.000	434.877	80.000	19.995	103.087	19.767	44.348	0.511
722.500	435.116	80.000	19.995	103.089	19.780	43.467	0.520
723.000	435.377	80.001	19.995	103.094	19.787	42.936	0.511
723.500	435.639	80.001	19.995	103.098	19.797	42.240	0.511
724.000	435.858	80.001	19.995	103.104	19.806	41.618	0.502
724.500	436.164	80.001	19.995	103.104	19.814	41.034	0.503
725.000	436.439	80.001	19.995	103.106	19.821	40.596	0.553
725.500	436.721	80.002	19.994	103.103	19.828	40.127	0.569
726.000	436.984	80.001	19.995	103.095	19.836	39.538	0.551
726.500	437.247	80.001	19.995	103.090	19.843	39.016	0.536
727.000	437.512	80.003	19.995	103.087	19.849	38.610	0.527
727.500	437.781	80.004	19.996	103.081	19.857	38.083	0.531
728.000	438.024	80.002	19.995	103.079	19.865	37.548	0.523
728.500	438.275	80.002	19.995	103.087	19.873	36.961	0.503
729.000	438.556	80.002	19.994	103.093	19.876	36.772	0.513
729.501	438.798	80.002	19.994	103.095	19.885	36.143	0.527
730.000	439.090	80.002	19.994	103.098	19.890	35.771	0.528
730.500	439.330	80.003	19.995	103.099	19.895	35.417	0.533
731.000	439.558	80.000	19.994	103.090	19.905	34.710	0.500
731.500	439.869	80.003	19.994	103.082	19.912	34.272	0.503
732.000	440.093	80.000	19.994	103.078	19.921	33.638	0.537
732.500	440.370	80.002	19.994	103.080	19.921	33.620	0.518
733.000	440.623	80.002	19.995	103.079	19.927	33.196	0.516
733.500	440.903	80.002	19.994	103.082	19.932	32.850	0.532
734.000	441.123	79.999	19.995	103.084	19.942	32.165	0.516
734.500	441.349	80.003	19.996	103.084	19.945	31.945	0.472
735.000	441.638	80.001	19.995	103.080	19.949	31.651	0.480
735.500	441.905	80.001	19.995	103.083	19.957	31.146	0.536
736.000	442.158	80.003	19.995	103.086	19.959	30.954	0.538
736.500	442.422	80.004	19.994	103.085	19.967	30.441	0.518
737.000	442.702	80.003	19.995	103.084	19.972	30.054	0.531
737.501	442.964	80.001	19.995	103.083	19.976	29.773	0.543
738.000	443.195	80.003	19.996	103.080	19.983	29.311	0.518
738.500	443.444	80.002	19.995	103.081	19.987	29.028	0.487
739.000	443.701	80.000	19.995	103.087	19.990	28.780	0.493
739.500	443.937	80.003	19.995	103.095	19.994	28.514	0.500
740.000	444.204	80.002	19.995	103.102	20.000	28.122	0.498
740.500	444.459	80.001	19.994	103.102	20.003	27.941	0.512
741.000	444.697	80.002	19.995	103.099	20.013	27.234	0.507
741.500	444.970	80.002	19.996	103.092	20.011	27.328	0.502
742.000	445.199	80.002	19.996	103.084	20.019	26.827	0.507
742.500	445.492	80.001	19.996	103.077	20.020	26.724	0.512
743.000	445.676	80.002	19.995	103.079	20.023	26.511	0.499
743.500	445.985	80.001	19.994	103.082	20.025	26.396	0.485
744.000	446.232	80.001	19.995	103.085	20.031	25.930	0.525
744.500	446.470	80.000	19.995	103.088	20.033	25.815	0.521
745.000	446.720	80.001	19.995	103.093	20.037	25.511	0.487
745.500	446.971	80.001	19.995	103.092	20.042	25.214	0.494
746.000	447.238	80.001	19.995	103.087	20.043	25.135	0.509
746.500	447.474	80.000	19.995	103.085	20.047	24.831	0.510
747.000	447.726	80.000	19.996	103.082	20.050	24.654	0.495
747.500	447.999	80.000	19.995	103.077	20.055	24.304	0.507
748.000	448.237	79.999	19.996	103.075	20.058	24.075	0.518
748.500	448.514	79.999	19.995	103.076	20.060	23.934	0.513
749.000	448.763	80.000	19.996	103.076	20.062	23.812	0.521
749.500	449.035	80.001	19.996	103.076	20.064	23.674	0.523
750.000	449.250	80.001	19.996	103.076	20.067	23.445	0.504
750.500	449.565	80.000	19.996	103.076	20.068	23.401	0.509
751.000	449.797	80.000	19.996	103.075	20.073	23.053	0.539
751.500	450.027	80.000	19.996	103.075	20.073	23.039	0.504
752.000	450.287	79.999	19.997	103.075	20.082	22.441	0.476
752.500	450.569	80.002	19.996	103.076	20.077	22.729	0.516
753.000	450.865	80.001	19.996	103.076	20.082	22.437	0.560
753.500	451.050	80.002	19.997	103.076	20.082	22.430	0.529
754.000	451.338	80.003	19.996	103.079	20.085	22.202	0.477
754.500	451.597	80.000	19.995	103.079	20.089	21.954	0.511
755.001	451.869	80.000	19.996	103.079	20.090	21.859	0.539
755.500	452.103	80.004	19.995	103.079	20.091	21.754	0.518
756.000	452.349	80.003	19.995	103.077	20.096	21.427	0.492
756.500	452.578	80.003	19.995	103.074	20.095	21.502	0.477
757.000	452.824	80.005	19.996	103.073	20.097	21.378	0.475
757.500	453.085	80.003	19.995	103.072	20.096	21.431	0.491
758.000	453.355	80.002	19.995	103.072	20.100	21.187	0.519
758.500	453.610	80.002	19.996	103.074	20.097	21.345	0.528
759.000	453.854	80.004	19.995	103.074	20.101	21.053	0.512
759.500	454.164	80.003	19.996	103.075	20.102	20.987	0.527
760.000	454.348	80.005	19.995	103.075	20.102	21.034	0.524
760.500	454.622	80.003	19.995	103.075	20.105	20.843	0.476
761.000	454.883	80.004	19.994	103.075	20.108	20.614	0.497
761.500	455.142	80.003	19.994	103.075	20.107	20.688	0.528
762.000	455.391	80.004	19.995	103.075	20.108	20.619	0.514
762.500	455.660	80.002	19.994	103.073	20.111	20.361	0.513
763.000	455.919	80.001	19.994	103.073	20.110	20.432	0.523
763.500	456.153	80.003	19.994	103.072	20.112	20.304	0.510
764.000	456.384	80.003	19.995	103.072	20.115	20.084	0.479
764.500	456.637	80.002	19.995	103.072	20.116	20.011	0.475
765.000	456.893	80.002	19.995	103.074	20.116	20.030	0.496
765.500	457.151	80.005	19.994	103.074	20.115	20.146	0.512
766.000	457.405	80.003	19.995	103.076	20.117	19.942	0.514
766.500	457.675	80.003	19.994	103.076	20.117	19.937	0.518
767.000	457.862	80.003	19.995	103.076	20.119	19.833	0.490
767.500	458.143	80.003	19.994	103.078	20.116	20.067	0.462
768.000	458.395	80.003	19.995	103.078	20.123	19.539	0.500
768.500	458.672	80.004	19.994	103.078	20.124	19.515	0.531
769.000	458.919	80.003	19.994	103.077	20.125	19.410	0.527
769.500	459.169	80.005	19.993	103.078	20.125	19.391	0.511
770.000	459.438	80.002	19.995	103.080	20.125	19.435	0.508
770.500	459.654	80.004	19.993	103.080	20.124	19.500	0.502
771.000	459.933	80.001	19.993	103.080	20.128	19.211	0.490
771.500	460.174	80.001	19.995	103.080	20.126	19.335	0.507
772.000	460.416	80.002	19.994	103.079	20.129	19.135	0.502
772.500	460.646	80.001	19.995	103.077	20.127	19.308	0.477
773.000	460.909	80.002	19.995	103.077	20.127	19.283	0.483
773.500	461.143	80.001	19.995	103.077	20.129	19.123	0.496
774.000	461.375	80.002	19.995	103.078	20.128	19.176	0.482
774.500	461.618	80.002	19.994	103.077	20.128	19.198	0.470
775.000	461.914	80.003	19.994	103.075	20.129	19.103	0.507
775.500	462.175	80.002	19.994	103.073	20.130	19.038	0.548
776.000	462.382	80.002	19.994	103.071	20.130	19.051	0.513
776.500	462.676	80.002	19.995	103.069	20.129	19.113	0.484
777.000	462.914	80.001	19.994	103.065	20.129	19.152	0.516
777.500	463.155	80.004	19.995	103.065	20.131	18.995	0.505
778.000	463.404	80.003	19.995	103.065	20.129	19.140	0.484
778.500	463.637	80.002	19.994	103.065	20.131	19.008	0.486
779.000	463.903	80.004	19.995	103.065	20.131	18.974	0.490
779.500	464.128	80.003	19.994	103.068	20.127	19.251	0.495
780.000	464.416	80.002	19.994	103.069	20.134	18.762	0.502
780.500	464.651	80.003	19.994	103.070	20.132	18.958	0.518
781.000	464.890	80.004	19.995	103.071	20.132	18.899	0.498
781.500	465.152	80.002	19.993	103.071	20.130	19.095	0.487
782.001	465.388	80.005	19.995	103.068	20.132	18.893	0.500
782.500	465.637	80.004	19.994	103.065	20.131	18.980	0.492
783.000	465.897	80.004	19.995	103.058	20.132	18.943	0.497
783.500	466.156	80.005	19.995	103.053	20.130	19.060	0.514
784.000	466.387	80.005	19.993	103.054	20.135	18.713	0.505
784.500	466.662	80.005	19.995	103.058	20.131	19.014	0.498
785.000	466.880	80.005	19.994	103.056	20.132	18.910	0.499
785.500	467.125	80.004	19.994	103.059	20.132	18.950	0.478
786.000	467.409	80.004	19.995	103.061	20.137	18.552	0.496
786.500	467.646	80.006	19.994	103.061	20.135	18.705	0.525
787.000	467.891	80.006	19.994	103.060	20.136	18.671	0.502
787.500	468.162	80.004	19.995	103.064	20.134	18.801	0.499
788.000	468.396	80.004	19.994	103.067	20.134	18.824	0.510
788.500	468.655	80.003	19.995	103.065	20.132	18.931	0.499
789.000	468.904	80.004	19.994	103.064	20.138	18.535	0.500
789.500	469.156	80.003	19.994	103.065	20.138	18.532	0.505
790.000	469.414	80.002	19.993	103.067	20.138	18.515	0.506
790.501	469.633	80.004	19.993	103.067	20.136	18.680	0.494
791.000	469.918	80.002	19.994	103.067	20.139	18.416	0.490
791.500	470.150	80.003	19.994	103.061	20.137	18.569	0.510
792.000	470.398	80.004	19.994	103.054	20.138	18.486	0.499
792.500	470.639	80.002	19.994	103.050	20.138	18.545	0.485
793.000	470.882	80.004	19.994	103.052	20.142	18.222	0.486
793.500	471.163	80.001	19.994	103.055	20.145	18.000	0.504
794.000	471.398	80.002	19.995	103.062	20.140	18.361	0.520
794.500	471.669	80.004	19.995	103.067	20.141	18.316	0.511
795.000	471.881	80.002	19.994	103.069	20.142	18.217	0.494
795.500	472.148	80.001	19.994	103.065	20.143	18.145	0.481
796.000	472.405	80.001	19.995	103.063	20.145	18.039	0.502
796.500	472.656	80.003	19.995	103.063	20.145	18.028	0.516
797.000	472.899	80.002	19.995	103.066	20.142	18.210	0.501
797.501	473.149	80.001	19.995	103.067	20.146	17.927	0.493
798.000	473.430	80.002	19.995	103.071	20.146	17.924	0.512
798.500	473.700	80.001	19.994	103.073	20.150	17.659	0.541
799.000	473.934	80.002	19.994	103.073	20.145	18.017	0.527
799.500	474.185	80.004	19.995	103.072	20.150	17.674	0.494
800.000	474.475	80.003	19.995	103.069	20.147	17.882	0.513
800.500	474.701	80.002	19.994	103.065	20.152	17.548	0.529
801.000	474.979	80.006	19.996	103.065	20.149	17.713	0.511
801.500	475.226	80.001	19.995	103.066	20.154	17.423	0.515
802.000	475.491	80.001	19.995	103.066	20.154	17.421	0.519
802.500	475.721	80.004	19.994	103.068	20.152	17.537	0.503
803.000	475.988	80.002	19.995	103.071	20.157	17.199	0.496
803.500	476.231	80.003	19.994	103.069	20.158	17.149	0.503
804.000	476.451	80.001	19.995	103.063	20.159	17.028	0.487
804.500	476.707	80.001	19.993	103.057	20.160	16.971	0.469
805.000	476.941	80.000	19.995	103.055	20.161	16.913	0.483
805.500	477.211	80.001	19.995	103.054	20.162	16.823	0.497
806.000	477.488	80.003	19.994	103.053	20.162	16.836	0.526
806.500	477.716	80.001	19.994	103.055	20.163	16.750	0.526
807.000	477.972	80.001	19.994	103.061	20.165	16.643	0.494
807.500	478.212	79.998	19.994	103.064	20.164	16.670	0.490
808.000	478.494	80.001	19.994	103.066	20.168	16.396	0.509
808.500	478.726	80.000	19.994	103.069	20.171	16.193	0.518
809.000	478.981	80.002	19.995	103.072	20.169	16.346	0.500
809.500	479.245	80.001	19.995	103.065	20.170	16.256	0.503
810.000	479.496	80.001	19.994	103.060	20.174	16.038	0.517
810.500	479.762	80.001	19.995	103.059	20.172	16.165	0.516
811.000	479.989	80.002	19.995	103.059	20.173	16.058	0.505
811.500	480.224	80.001	19.996	103.061	20.174	15.984	0.478
812.000	480.501	80.002	19.995	103.067	20.176	15.886	0.487
812.500	480.794	80.001	19.995	103.069	20.177	15.812	0.541
813.000	480.977	80.000	19.995	103.066	20.181	15.490	0.523
813.500	481.275	80.003	19.996	103.065	20.182	15.438	0.479
814.000	481.509	80.002	19.994	103.065	20.185	15.210	0.507
814.500	481.806	80.001	19.995	103.066	20.188	15.037	0.531
815.000	482.067	79.999	19.996	103.070	20.192	14.718	0.544
815.500	482.274	80.000	19.995	103.073	20.194	14.605	0.513
816.000	482.541	80.002	19.995	103.070	20.198	14.336	0.471
816.500	482.751	80.001	19.994	103.067	20.197	14.392	0.476
817.000	483.047	80.001	19.995	103.066	20.197	14.426	0.491
817.500	483.275	80.000	19.995	103.066	20.198	14.334	0.514
818.000	483.548	80.002	19.995	103.065	20.199	14.235	0.512
818.500	483.792	80.001	19.995	103.069	20.203	13.971	0.509
819.000	484.039	80.001	19.996	103.073	20.206	13.753	0.504
819.500	484.339	80.002	19.995	103.075	20.207	13.686	0.519
820.000	484.518	80.000	19.995	103.074	20.211	13.404	0.513
820.500	484.816	79.999	19.994	103.074	20.212	13.335	0.478
821.000	485.061	80.001	19.995	103.070	20.217	13.000	0.510
821.500	485.288	79.999	19.995	103.066	20.215	13.123	0.508
822.000	485.559	80.000	19.995	103.066	20.219	12.878	0.485
822.500	485.823	80.002	19.995	103.066	20.218	12.941	0.516
823.000	486.043	80.003	19.995	103.066	20.219	12.869	0.509
823.500	486.292	80.000	19.994	103.069	20.227	12.300	0.476
824.000	486.519	80.002	19.995	103.073	20.227	12.298	0.472
824.500	486.803	80.001	19.995	103.073	20.229	12.160	0.493
825.000	487.073	80.000	19.995	103.069	20.231	12.013	0.533
825.500	487.318	80.000	19.995	103.071	20.234	11.799	0.534
826.000	487.566	80.000	19.996	103.071	20.235	11.758	0.504
826.500	487.777	80.000	19.995	103.071	20.236	11.709	0.476
827.000	488.031	80.000	19.995	103.072	20.236	11.674	0.462
827.500	488.302	80.000	19.994	103.076	20.238	11.541	0.495
828.000	488.569	79.999	19.995	103.076	20.242	11.296	0.531
828.500	488.816	79.999	19.994	103.072	20.242	11.256	0.526
829.000	489.084	80.000	19.995	103.073	20.246	10.977	0.515
829.500	489.356	79.999	19.996	103.073	20.245	11.061	0.528
830.000	489.609	80.000	19.996	103.073	20.247	10.891	0.533
830.500	489.886	80.001	19.995	103.073	20.252	10.587	0.527
831.000	490.092	80.000	19.995	103.077	20.254	10.421	0.506
831.500	490.370	80.001	19.995	103.074	20.257	10.205	0.483
832.000	490.657	80.000	19.994	103.072	20.259	10.119	0.525
832.500	490.864	80.001	19.994	103.072	20.258	10.176	0.530
833.000	491.111	79.999	19.995	103.073	20.259	10.065	0.474
833.500	491.376	80.002	19.994	103.073	20.262	9.915	0.483
834.000	491.623	80.002	19.996	103.076	20.262	9.863	0.512
834.500	491.922	80.000	19.994	103.078	20.265	9.695	0.529
835.000	492.158	80.003	19.996	103.078	20.269	9.370	0.541
835.500	492.416	80.000	19.995	103.078	20.265	9.643	0.515
836.000	492.627	80.001	19.995	103.076	20.271	9.225	0.481
836.500	492.870	80.002	19.995	103.075	20.266	9.582	0.461
837.000	493.152	80.002	19.994	103.073	20.273	9.143	0.489
837.500	493.416	80.002	19.996	103.073	20.275	9.001	0.536
838.000	493.681	80.002	19.996	103.074	20.274	9.053	0.538
838.500	493.955	80.002	19.995	103.074	20.277	8.839	0.534
839.000	494.209	80.003	19.995	103.075	20.279	8.688	0.533
839.500	494.442	80.001	19.995	103.076	20.281	8.524	0.507
840.000	494.725	80.003	19.995	103.076	20.279	8.726	0.501
840.500	494.914	80.003	19.996	103.074	20.285	8.296	0.494
841.000	495.215	80.002	19.995	103.073	20.285	8.300	0.481
841.500	495.439	80.004	19.995	103.073	20.286	8.235	0.507
842.000	495.694	80.001	19.995	103.073	20.284	8.325	0.502
842.500	495.948	80.004	19.996	103.072	20.287	8.149	0.494
843.000	496.178	80.000	19.996	103.072	20.286	8.212	0.496
843.500	496.441	80.002	19.996	103.072	20.289	7.971	0.488
844.000	496.709	80.002	19.996	103.072	20.292	7.809	0.512
844.500	496.942	80.001	19.995	103.072	20.292	7.827	0.516
845.000	497.209	80.000	19.995	103.073	20.297	7.456	0.501
845.500	497.494	80.002	19.996	103.072	20.294	7.678	0.526
846.000	497.716	80.003	19.996	103.071	20.295	7.584	0.529
846.500	497.972	80.002	19.996	103.071	20.297	7.445	0.492
847.000	498.223	80.001	19.996	103.071	20.296	7.489	0.493
847.500	498.484	80.002	19.995	103.072	20.299	7.283	0.510
848.000	498.723	80.001	19.995	103.074	20.298	7.341	0.506
848.500	498.971	80.000	19.995	103.075	20.299	7.316	0.493
849.000	499.219	80.001	19.996	103.077	20.300	7.201	0.492
849.500	499.472	80.002	19.994	103.077	20.298	7.377	0.499
850.000	499.727	80.001	19.995	103.075	20.300	7.240	0.504
850.500	499.952	80.002	19.995	103.075	20.299	7.288	0.494
851.000	500.230	80.003	19.996	103.074	20.300	7.206	0.492
851.500	500.511	80.002	19.996	103.074	20.305	6.894	0.531
852.000	500.704	80.002	19.994	103.074	20.305	6.891	0.516
852.500	500.983	80.002	19.995	103.074	20.306	6.829	0.472
853.000	501.230	80.003	19.994	103.074	20.307	6.766	0.499
853.500	501.527	80.001	19.994	103.074	20.308	6.644	0.536
854.001	501.728	80.003	19.994	103.072	20.307	6.768	0.521
854.501	501.981	80.002	19.994	103.073	20.310	6.573	0.476
855.000	502.248	80.002	19.995	103.073	20.310	6.537	0.487
855.500	502.509	80.001	19.995	103.077	20.307	6.730	0.524
856.000	502.749	80.003	19.994	103.078	20.311	6.475	0.514
856.500	502.999	80.004	19.994	103.082	20.311	6.458	0.496
857.000	503.249	80.002	19.994	103.084	20.311	6.483	0.495
857.500	503.531	80.004	19.994	103.088	20.308	6.666	0.516
858.000	503.773	80.003	19.994	103.086	20.309	6.586	0.528
858.500	504.020	80.002	19.993	103.087	20.308	6.697	0.506
859.000	504.286	80.005	19.994	103.081	20.312	6.399	0.501
859.500	504.541	80.002	19.994	103.077	20.312	6.399	0.517
860.000	504.815	80.005	19.995	103.072	20.314	6.262	0.525
860.500	505.049	80.004	19.994	103.070	20.314	6.238	0.519
861.000	505.294	80.003	19.995	103.074	20.315	6.215	0.493
861.500	505.538	80.004	19.994	103.079	20.314	6.284	0.484
862.000	505.828	80.002	19.994	103.081	20.313	6.357	0.511
862.500	506.030	80.004	19.994	103.080	20.311	6.477	0.513
863.000	506.306	80.004	19.994	103.082	20.313	6.296	0.485
863.500	506.536	80.003	19.995	103.078	20.317	6.066	0.492
864.000	506.792	80.005	19.994	103.075	20.317	6.055	0.496
864.500	507.064	80.003	19.995	103.077	20.316	6.111	0.507
865.000	507.305	80.004	19.995	103.079	20.315	6.185	0.520
865.500	507.550	80.003	19.994	103.078	20.317	6.048	0.499
866.000	507.797	80.004	19.994	103.077	20.319	5.906	0.489
866.500	508.086	80.004	19.995	103.077	20.316	6.153	0.514
867.000	508.352	80.004	19.994	103.074	20.314	6.233	0.545
867.500	508.612	80.004	19.994	103.071	20.314	6.227	0.541
868.000	508.886	80.003	19.994	103.071	20.319	5.908	0.530
868.500	509.143	80.002	19.994	103.072	20.315	6.164	0.532
869.000	509.406	80.003	19.994	103.075	20.317	6.038	0.526
869.500	509.668	80.001	19.996	103.076	20.318	6.002	0.523
870.000	509.931	80.001	19.995	103.077	20.314	6.241	0.525
870.500	510.145	80.001	19.995	103.077	20.315	6.179	0.501
871.000	510.389	80.002	19.995	103.076	20.319	5.942	0.467
871.500	510.672	80.003	19.994	103.073	20.318	5.948	0.493
872.000	510.898	80.003	19.994	103.069	20.316	6.089	0.518
872.500	511.147	80.000	19.995	103.068	20.317	6.019	0.492
873.000	511.404	80.002	19.994	103.068	20.315	6.181	0.490
873.500	511.655	80.002	19.994	103.068	20.322	5.692	0.507
874.000	511.901	80.001	19.996	103.069	20.319	5.940	0.503
874.500	512.137	80.001	19.994	103.073	20.317	6.017	0.490
875.000	512.438	80.002	19.994	103.077	20.316	6.154	0.510
875.500	512.681	80.001	19.994	103.078	20.318	6.004	0.540
876.000	512.936	80.003	19.994	103.078	20.317	6.074	0.521
876.500	513.161	80.001	19.995	103.078	20.319	5.914	0.489
877.000	513.448	80.001	19.994	103.078	20.322	5.736	0.496
877.500	513.684	80.001	19.996	103.076	20.318	5.962	0.518
878.000	513.922	80.000	19.995	103.076	20.319	5.920	0.499
878.500	514.205	80.002	19.994	103.076	20.321	5.794	0.498
879.000	514.485	80.003	19.994	103.078	20.320	5.851	0.542
879.500	514.728	80.001	19.994	103.078	20.317	6.058	0.543
880.000	514.995	80.001	19.994	103.078	20.323	5.649	0.516
880.500	515.225	80.002	19.994	103.078	20.321	5.749	0.503
881.000	515.485	80.000	19.995	103.078	20.319	5.909	0.494
881.500	515.731	80.001	19.995	103.075	20.320	5.858	0.498
882.000	515.990	80.001	19.995	103.074	20.321	5.806	0.505
882.500	516.255	80.000	19.995	103.073	20.318	5.963	0.514
883.000	516.506	80.002	19.994	103.074	20.321	5.770	0.520
883.500	516.786	80.001	19.995	103.074	20.319	5.896	0.523
884.000	516.986	80.000	19.994	103.072	20.318	5.951	0.506
884.500	517.234	80.001	19.994	103.073	20.320	5.862	0.464
885.000	517.527	80.002	19.995	103.074	20.321	5.799	0.494
885.500	517.739	80.000	19.994	103.072	20.320	5.816	0.523
886.000	518.023	80.000	19.994	103.072	20.323	5.649	0.501
886.500	518.241	80.003	19.994	103.076	20.320	5.834	0.499
887.000	518.525	80.003	19.994	103.077	20.319	5.897	0.502
887.500	518.771	80.001	19.994	103.078	20.322	5.700	0.516
888.000	519.021	80.000	19.994	103.082	20.318	5.966	0.513
888.500	519.287	80.000	19.995	103.083	20.319	5.899	0.506
889.000	519.524	80.005	19.994	103.086	20.321	5.787	0.509
889.500	519.794	80.001	19.994	103.085	20.321	5.781	0.504
890.000	520.039	80.001	19.994	103.089	20.322	5.724	0.511
890.500	520.298	80.004	19.994	103.093	20.322	5.723	0.510
891.000	520.603	80.002	19.994	103.093	20.319	5.928	0.534
891.500	520.843	80.002	19.993	103.095	20.318	5.966	0.554
892.000	521.059	80.002	19.994	103.098	20.323	5.664	0.500
892.500	521.356	80.002	19.995	103.097	20.318	5.985	0.484
893.000	521.678	80.003	19.994	103.097	20.319	5.909	0.566
893.500	521.881	80.001	19.994	103.102	20.323	5.656	0.572
894.000	522.172	80.002	19.994	103.099	20.321	5.746	0.510
894.500	522.426	80.004	19.993	103.095	20.321	5.746	0.519
895.000	522.674	80.002	19.995	103.099	20.322	5.670	0.523
895.500	522.959	80.001	19.995	103.101	20.320	5.844	0.517
896.000	523.200	80.003	19.994	103.100	20.324	5.587	0.530
896.500	523.485	80.002	19.995	103.099	20.322	5.710	0.526
897.000	523.764	80.000	19.994	103.098	20.320	5.878	0.545
897.500	523.993	80.002	19.994	103.091	20.319	5.885	0.536
898.000	524.263	80.000	19.995	103.084	20.323	5.618	0.504
898.500	524.543	80.001	19.995	103.083	20.319	5.945	0.525
899.000	524.795	80.000	19.995	103.089	20.320	5.864	0.541
899.500	525.082	80.001	19.995	103.093	20.322	5.738	0.536
900.000	525.381	80.002	19.995	103.093	20.323	5.654	0.563
900.500	525.627	80.000	19.995	103.095	20.320	5.811	0.565
901.000	525.902	80.001	19.995	103.092	20.321	5.761	0.533
901.500	526.181	80.000	19.994	103.085	20.320	5.818	0.538
902.000	526.445	80.004	19.994	103.087	20.320	5.853	0.549
902.500	526.706	80.002	19.995	103.094	20.318	6.011	0.534
903.000	526.979	79.998	19.995	103.093	20.321	5.758	0.530
903.500	527.268	80.000	19.996	103.092	20.324	5.584	0.548
904.000	527.550	80.001	19.995	103.093	20.321	5.742	0.566
904.500	527.815	80.001	19.995	103.088	20.324	5.567	0.559
905.000	528.072	80.001	19.995	103.082	20.321	5.773	0.535
905.500	528.390	80.001	19.995	103.082	20.325	5.492	0.548
906.000	528.652	80.001	19.995	103.085	20.322	5.683	0.578
906.500	528.923	80.001	19.995	103.084	20.323	5.641	0.557
907.000	529.221	80.002	19.995	103.084	20.324	5.581	0.551
907.500	529.514	80.001	19.995	103.084	20.322	5.696	0.580
908.000	529.749	79.999	19.995	103.082	20.320	5.819	0.560
908.500	530.025	80.001	19.995	103.079	20.321	5.744	0.519
909.000	530.318	80.002	19.995	103.078	20.321	5.802	0.540
909.500	530.600	80.000	19.995	103.080	20.322	5.719	0.572
910.000	530.880	80.000	19.994	103.080	20.320	5.820	0.568
910.500	531.151	80.003	19.996	103.080	20.322	5.681	0.556
911.000	531.447	80.002	19.995	103.078	20.322	5.708	0.559
911.500	531.763	80.002	19.994	103.078	20.322	5.708	0.590
912.000	531.979	80.002	19.995	103.075	20.320	5.839	0.572
912.500	532.264	80.002	19.995	103.076	20.320	5.814	0.517
913.000	532.547	80.001	19.994	103.076	20.322	5.688	0.534
913.500	532.817	80.001	19.994	103.079	20.324	5.593	0.560
914.000	533.127	80.001	19.994	103.083	20.322	5.719	0.566
914.500	533.410	80.002	19.995	103.085	20.323	5.633	0.587
915.000	533.704	80.003	19.994	103.087	20.323	5.616	0.585
915.500	533.936	80.003	19.994	103.092	20.323	5.625	0.552
916.000	534.199	80.004	19.994	103.091	20.327	5.362	0.511
916.500	534.544	80.005	19.995	103.087	20.325	5.505	0.552
917.000	534.848	80.003	19.995	103.084	20.326	5.415	0.628
917.500	535.085	80.003	19.995	103.081	20.322	5.727	0.595
918.000	535.371	80.003	19.994	103.075	20.322	5.698	0.532
918.500	535.668	80.003	19.995	103.079	20.325	5.517	0.554
919.000	535.960	80.003	19.995	103.081	20.326	5.417	0.586
919.500	536.247	80.003	19.995	103.082	20.328	5.293	0.584
920.000	536.532	80.002	19.995	103.085	20.324	5.552	0.576
920.500	536.775	80.003	19.995	103.084	20.324	5.590	0.550
921.000	537.093	80.004	19.995	103.081	20.326	5.445	0.544
921.500	537.363	80.004	19.995	103.082	20.325	5.491	0.574
922.000	537.643	80.002	19.994	103.082	20.327	5.382	0.569
922.500	537.895	80.003	19.994	103.079	20.326	5.434	0.541
923.000	538.173	80.002	19.994	103.078	20.322	5.705	0.531
923.500	538.474	80.002	19.995	103.076	20.326	5.440	0.554
924.000	538.760	80.002	19.995	103.073	20.322	5.731	0.583
924.500	539.001	80.002	19.996	103.072	20.324	5.534	0.557
925.000	539.295	80.002	19.996	103.073	20.326	5.458	0.531
925.500	539.606	80.001	19.995	103.074	20.326	5.429	0.570
926.000	539.870	80.001	19.995	103.075	20.325	5.509	0.590
926.500	540.148	80.001	19.996	103.076	20.323	5.654	0.558
927.000	540.449	80.002	19.995	103.077	20.324	5.567	0.560
927.500	540.713	79.999	19.996	103.081	20.320	5.848	0.572
928.000	541.009	80.001	19.996	103.081	20.326	5.447	0.563
928.500	541.278	80.002	19.995	103.082	20.322	5.736	0.562
929.000	541.575	80.002	19.996	103.081	20.324	5.564	0.565
929.500	541.852	80.002	19.995	103.079	20.327	5.337	0.570
930.000	542.141	80.001	19.995	103.074	20.326	5.417	0.571
930.500	542.416	80.001	19.996	103.072	20.328	5.300	0.565
931.000	542.688	80.001	19.996	103.070	20.327	5.369	0.555
931.500	542.971	80.001	19.996	103.069	20.329	5.191	0.550
932.000	543.272	80.003	19.996	103.070	20.329	5.203	0.569
932.500	543.535	80.002	19.996	103.070	20.327	5.365	0.574
933.000	543.819	80.002	19.995	103.070	20.326	5.419	0.556
933.500	544.130	80.001	19.997	103.071	20.329	5.232	0.571
934.000	544.383	80.003	19.995	103.073	20.327	5.327	0.579
934.500	544.615	80.004	19.996	103.074	20.327	5.362	0.525
935.000	544.945	80.001	19.996	103.080	20.326	5.456	0.524
935.500	545.200	80.001	19.996	103.084	20.327	5.377	0.574
936.000	545.455	80.000	19.996	103.085	20.326	5.400	0.548
936.500	545.711	80.004	19.995	103.085	20.329	5.190	0.510
937.000	546.028	80.002	19.995	103.079	20.327	5.379	0.542
937.500	546.257	80.004	19.996	103.069	20.329	5.232	0.560
938.000	546.558	80.004	19.996	103.064	20.328	5.302	0.538
938.500	546.821	80.004	19.994	103.064	20.329	5.222	0.547
939.000	547.108	80.001	19.994	103.063	20.330	5.132	0.557
939.500	547.374	80.002	19.994	103.069	20.328	5.285	0.552
940.000	547.664	80.005	19.994	103.075	20.328	5.302	0.554
940.501	547.961	80.004	19.995	103.075	20.331	5.073	0.571
941.001	548.252	80.006	19.994	103.074	20.329	5.245	0.587
941.501	548.447	80.006	19.994	103.074	20.329	5.201	0.537
942.000	548.775	80.005	19.994	103.074	20.331	5.090	0.505
942.500	549.040	80.006	19.994	103.073	20.329	5.186	0.558
943.000	549.338	80.003	19.994	103.073	20.331	5.064	0.577
943.500	549.605	80.003	19.994	103.074	20.328	5.284	0.564
944.000	549.910	80.005	19.994	103.079	20.330	5.120	0.569
944.500	550.149	80.004	19.993	103.081	20.331	5.083	0.558
945.000	550.462	80.003	19.993	103.082	20.330	5.158	0.548
945.500	550.726	80.003	19.993	103.082	20.331	5.049	0.564
946.000	551.002	80.004	19.994	103.082	20.331	5.047	0.558
946.500	551.229	80.006	19.994	103.077	20.334	4.881	0.522
947.000	551.532	80.003	19.994	103.075	20.335	4.819	0.516
947.500	551.816	80.003	19.994	103.075	20.334	4.901	0.558
948.000	552.076	80.003	19.994	103.076	20.335	4.833	0.566
948.500	552.346	80.003	19.993	103.077	20.335	4.806	0.537
949.000	552.637	80.004	19.994	103.078	20.329	5.190	0.546
949.500	552.909	80.003	19.993	103.076	20.333	4.966	0.562
950.000	553.165	80.003	19.993	103.073	20.330	5.128	0.545
950.500	553.452	80.001	19.994	103.071	20.333	4.945	0.535
951.000	553.736	80.002	19.994	103.071	20.335	4.769	0.557
951.500	554.013	80.002	19.994	103.070	20.333	4.937	0.566
952.000	554.275	80.001	19.995	103.073	20.335	4.781	0.550
952.500	554.549	80.001	19.993	103.076	20.337	4.668	0.538
953.000	554.843	80.003	19.994	103.077	20.337	4.678	0.552
953.500	555.102	80.001	19.993	103.078	20.337	4.645	0.560
954.000	555.346	80.003	19.995	103.082	20.339	4.515	0.528
954.500	555.645	80.001	19.994	103.086	20.336	4.718	0.524
955.000	555.948	79.999	19.994	103.089	20.333	4.905	0.573
955.500	556.167	80.002	19.994	103.092	20.335	4.786	0.562
956.000	556.421	80.003	19.993	103.094	20.337	4.692	0.497
956.500	556.708	80.004	19.995	103.091	20.338	4.570	0.507
957.000	556.957	80.000	19.994	103.090	20.339	4.494	0.538
957.500	557.255	80.001	19.995	103.088	20.337	4.666	0.542
958.000	557.476	80.001	19.994	103.086	20.338	4.580	0.533
958.500	557.775	80.002	19.994	103.083	20.337	4.662	0.519
959.000	558.013	80.000	19.994	103.083	20.341	4.402	0.529
959.500	558.273	80.000	19.994	103.079	20.341	4.370	0.517
960.000	558.563	80.002	19.995	103.076	20.338	4.593	0.524
960.501	558.836	80.000	19.995	103.076	20.335	4.771	0.557
961.001	559.106	80.001	19.995	103.076	20.338	4.563	0.553
961.500	559.405	80.001	19.995	103.076	20.337	4.633	0.556
962.000	559.655	80.000	19.995	103.076	20.340	4.427	0.559
962.500	559.909	80.000	19.994	103.077	20.337	4.682	0.526
963.000	560.168	80.001	19.994	103.076	20.336	4.733	0.508
963.500	560.443	79.999	19.995	103.076	20.338	4.559	0.523
964.000	560.711	80.002	19.995	103.077	20.337	4.641	0.539
964.500	560.957	79.999	19.994	103.078	20.338	4.567	0.529
965.000	561.237	80.001	19.994	103.076	20.341	4.358	0.520
965.500	561.489	80.002	19.995	103.075	20.338	4.614	0.529
966.000	561.787	80.003	19.995	103.073	20.339	4.553	0.541
966.500	562.053	80.001	19.995	103.070	20.337	4.678	0.557
967.000	562.338	80.003	19.996	103.065	20.339	4.515	0.558
967.500	562.572	80.002	19.995	103.066	20.336	4.706	0.536
968.000	562.831	80.002	19.995	103.066	20.339	4.504	0.506
968.500	563.099	80.003	19.994	103.065	20.338	4.609	0.509
969.000	563.371	80.003	19.994	103.067	20.339	4.506	0.533
969.500	563.631	80.002	19.994	103.070	20.342	4.320	0.536
970.000	563.895	80.004	19.995	103.072	20.341	4.402	0.528
970.500	564.123	80.002	19.994	103.073	20.340	4.456	0.508
971.000	564.415	80.001	19.995	103.074	20.346	4.030	0.506
971.500	564.693	80.003	19.995	103.075	20.344	4.184	0.544
972.000	564.958	80.002	19.994	103.074	20.345	4.116	0.556
972.500	565.196	80.002	19.994	103.073	20.340	4.440	0.523
973.000	565.430	80.002	19.995	103.075	20.343	4.248	0.488
973.500	565.699	80.001	19.994	103.080	20.344	4.181	0.487
974.000	565.970	80.002	19.994	103.081	20.346	4.020	0.521
974.500	566.222	80.002	19.994	103.081	20.344	4.156	0.532
975.000	566.480	80.001	19.995	103.081	20.348	3.902	0.517
975.500	566.736	80.002	19.995	103.079	20.348	3.917	0.512
976.000	566.995	80.002	19.994	103.075	20.347	3.959	0.514
976.500	567.232	80.001	19.994	103.076	20.347	3.990	0.505
977.000	567.521	80.001	19.994	103.076	20.345	4.100	0.511
977.500	567.791	80.003	19.995	103.076	20.348	3.929	0.543
978.000	568.034	80.003	19.995	103.076	20.344	4.164	0.536
978.500	568.289	80.003	19.995	103.077	20.346	4.011	0.506
979.000	568.554	80.003	19.995	103.076	20.347	3.940	0.509
979.500	568.842	80.000	19.995	103.076	20.346	4.009	0.536
980.000	569.070	80.002	19.995	103.076	20.348	3.902	0.534
980.500	569.335	80.002	19.995	103.076	20.347	3.992	0.504
981.000	569.588	80.002	19.995	103.071	20.348	3.921	0.506
981.500	569.860	80.002	19.994	103.071	20.348	3.924	0.522
982.000	570.103	80.002	19.994	103.070	20.344	4.156	0.520
982.500	570.354	80.002	19.994	103.071	20.345	4.068	0.504
983.000	570.637	80.001	19.994	103.071	20.343	4.236	0.513
983.500	570.883	80.004	19.994	103.073	20.346	4.062	0.531
984.000	571.144	80.001	19.995	103.074	20.345	4.072	0.518
984.500	571.382	80.002	19.994	103.075	20.343	4.225	0.503
985.000	571.660	80.000	19.995	103.075	20.345	4.079	0.508
985.500	571.953	80.001	19.995	103.077	20.345	4.102	0.544
986.000	572.202	80.004	19.995	103.078	20.345	4.095	0.557
986.500	572.441	80.003	19.994	103.077	20.343	4.240	0.515
987.000	572.742	80.001	19.995	103.077	20.347	3.940	0.514
987.500	572.993	80.001	19.996	103.077	20.345	4.072	0.546
988.000	573.249	80.003	19.994	103.077	20.349	3.825	0.529
988.500	573.518	80.002	19.994	103.076	20.348	3.890	0.516
989.000	573.774	80.002	19.996	103.078	20.350	3.732	0.525
989.500	574.011	80.002	19.995	103.084	20.347	3.995	0.509
990.000	574.293	80.002	19.995	103.084	20.346	4.007	0.506
990.500	574.593	80.002	19.996	103.080	20.345	4.098	0.551
991.001	574.846	80.004	19.996	103.079	20.345	4.091	0.568
991.500	575.072	80.003	19.995	103.077	20.348	3.871	0.516
992.000	575.361	80.003	19.996	103.071	20.344	4.188	0.496
992.500	575.560	80.003	19.996	103.071	20.346	4.054	0.501
993.000	575.870	80.003	19.995	103.073	20.349	3.806	0.498
993.500	576.131	80.003	19.995	103.073	20.347	3.957	0.540
994.000	576.355	80.003	19.995	103.073	20.348	3.890	0.528
994.500	576.593	80.002	19.995	103.072	20.346	4.003	0.474
995.000	576.863	80.004	19.995	103.072	20.351	3.651	0.485
995.500	577.103	80.003	19.996	103.073	20.349	3.808	0.509
996.000	577.393	80.004	19.995	103.074	20.350	3.737	0.520
996.500	577.616	80.001	19.995	103.074	20.349	3.798	0.521
997.000	577.859	80.003	19.994	103.078	20.349	3.827	0.489
997.500	578.124	80.004	19.995	103.080	20.348	3.863	0.487
998.000	578.364	80.003	19.995	103.079	20.351	3.669	0.507
998.500	578.621	80.003	19.994	103.078	20.349	3.808	0.501
999.000	578.897	80.002	19.994	103.078	20.351	3.671	0.515
999.500	579.110	80.003	19.995	103.074	20.351	3.655	0.511
1000.000	579.391	80.002	19.995	103.073	20.348	3.904	0.491
1000.500	579.614	80.003	19.995	103.072	20.350	3.758	0.499
1001.000	579.865	80.004	19.995	103.072	20.347	3.934	0.489
1001.500	580.137	80.003	19.994	103.072	20.349	3.808	0.499
1002.000	580.428	80.004	19.996	103.072	20.351	3.697	0.543
1002.501	580.620	80.001	19.995	103.072	20.350	3.772	0.523
1003.000	580.880	80.002	19.995	103.073	20.350	3.720	0.468
1003.500	581.135	80.002	19.995	103.073	20.349	3.829	0.484
1004.000	581.347	79.999	19.995	103.073	20.351	3.684	0.491
1004.500	581.617	80.001	19.994	103.074	20.354	3.479	0.474
1005.000	581.908	80.003	19.994	103.075	20.350	3.789	0.521
1005.500	582.168	80.005	19.995	103.074	20.350	3.737	0.556
1006.000	582.351	80.002	19.995	103.073	20.349	3.803	0.497
1006.500	582.642	80.002	19.995	103.072	20.349	3.843	0.458
1007.000	582.883	80.003	19.995	103.071	20.348	3.912	0.503
1007.500	583.165	80.003	19.993	103.071	20.350	3.787	0.527
1008.000	583.391	80.004	19.995	103.073	20.349	3.810	0.516
1008.500	583.676	80.005	19.994	103.074	20.352	3.644	0.510
1009.000	583.892	80.002	19.994	103.074	20.351	3.697	0.506
1009.500	584.159	80.002	19.993	103.075	20.351	3.671	0.492
1010.000	584.414	80.002	19.995	103.075	20.355	3.422	0.502
1010.500	584.705	80.002	19.994	103.075	20.353	3.539	0.534
1011.000	584.896	80.002	19.994	103.075	20.350	3.720	0.514
1011.500	585.149	80.002	19.994	103.075	20.353	3.550	0.463
1012.000	585.415	80.003	19.995	103.075	20.351	3.671	0.481
1012.500	585.643	80.004	19.995	103.075	20.351	3.698	0.507
1013.000	585.910	80.003	19.994	103.074	20.352	3.638	0.495
1013.500	586.149	80.001	19.994	103.072	20.351	3.652	0.501
1014.000	586.394	80.004	19.995	103.072	20.351	3.678	0.495
1014.500	586.661	80.004	19.994	103.072	20.348	3.913	0.498
1015.000	586.912	80.001	19.995	103.071	20.349	3.812	0.515
1015.500	587.151	80.002	19.995	103.072	20.352	3.617	0.504
1016.000	587.407	80.003	19.996	103.075	20.352	3.588	0.492
1016.500	587.634	80.001	19.994	103.076	20.352	3.646	0.490
1017.000	587.897	80.005	19.995	103.080	20.350	3.728	0.487
1017.500	588.132	80.002	19.996	103.086	20.350	3.734	0.494
1018.000	588.382	80.003	19.996	103.085	20.351	3.713	0.491
1018.500	588.627	80.002	19.995	103.084	20.351	3.678	0.490
1019.000	588.894	80.001	19.995	103.083	20.354	3.466	0.503
1019.500	589.103	80.004	19.995	103.079	20.350	3.770	0.494
1020.000	589.364	80.003	19.996	103.075	20.353	3.577	0.473
1020.500	589.603	80.003	19.996	103.075	20.354	3.478	0.485
1021.000	589.873	80.004	19.996	103.076	20.350	3.720	0.505
1021.500	590.150	80.002	19.995	103.075	20.352	3.613	0.528
1022.000	590.374	80.003	19.995	103.076	20.353	3.533	0.524
1022.500	590.658	80.003	19.995	103.074	20.354	3.487	0.504
1023.000	590.918	80.003	19.995	103.077	20.352	3.649	0.526
1023.500	591.160	80.000	19.995	103.082	20.356	3.357	0.523
1024.000	591.366	80.002	19.995	103.083	20.353	3.514	0.475
1024.500	591.627	80.001	19.994	103.084	20.354	3.502	0.458
1025.000	591.871	80.004	19.996	103.084	20.351	3.715	0.486
1025.500	592.131	80.001	19.995	103.082	20.355	3.375	0.504
1026.000	592.372	80.000	19.995	103.075	20.355	3.388	0.502
1026.500	592.592	80.003	19.996	103.076	20.354	3.501	0.481
1027.000	592.819	80.004	19.995	103.075	20.353	3.541	0.454
1027.500	593.104	80.003	19.995	103.076	20.353	3.550	0.480
1028.000	593.346	80.004	19.996	103.075	20.355	3.417	0.520
1028.500	593.611	80.003	19.995	103.076	20.352	3.617	0.517
1029.000	593.862	80.001	19.995	103.076	20.353	3.523	0.512
1029.500	594.129	80.003	19.995	103.077	20.358	3.208	0.517
1030.000	594.344	80.003	19.995	103.077	20.353	3.531	0.500
1030.500	594.623	79.997	19.994	103.077	20.355	3.417	0.488
1031.000	594.862	79.999	19.995	103.076	20.355	3.426	0.506
1031.500	595.093	80.002	19.995	103.074	20.356	3.353	0.494
1032.001	595.329	80.001	19.996	103.072	20.354	3.477	0.469
1032.501	595.586	80.002	19.996	103.072	20.354	3.468	0.480
1033.000	595.814	80.001	19.995	103.072	20.355	3.395	0.489
1033.500	596.084	80.001	19.995	103.072	20.353	3.573	0.491
1034.000	596.315	80.001	19.995	103.072	20.353	3.541	0.500
1034.500	596.562	80.002	19.994	103.073	20.354	3.485	0.489
1035.000	596.838	79.999	19.994	103.072	20.355	3.376	0.500
1035.500	597.081	80.001	19.993	103.073	20.356	3.330	0.521
1036.000	597.298	79.999	19.994	103.078	20.353	3.569	0.490
1036.500	597.562	80.002	19.995	103.081	20.357	3.265	0.471
1037.000	597.800	80.001	19.994	103.087	20.355	3.388	0.491
1037.500	598.062	80.003	19.995	103.089	20.354	3.456	0.501
1038.000	598.265	80.004	19.995	103.088	20.354	3.460	0.483
1038.500	598.538	80.001	19.995	103.084	20.355	3.430	0.471
1039.000	598.766	80.001	19.995	103.082	20.355	3.374	0.489
1039.500	599.026	80.000	19.995	103.076	20.355	3.413	0.494
1040.000	599.263	80.002	19.995	103.076	20.357	3.292	0.492
1040.500	599.542	80.000	19.995	103.081	20.359	3.122	0.507
1041.000	599.751	80.003	19.994	103.080	20.359	3.145	0.502
1041.500	600.007	80.003	19.994	103.078	20.357	3.267	0.477
1042.000	600.269	79.998	19.994	103.079	20.356	3.308	0.491
1042.500	600.474	80.000	19.995	103.078	20.362	2.944	0.492
1043.000	600.748	80.000	19.994	103.074	20.355	3.374	0.473
1043.500	601.007	80.004	19.995	103.074	20.359	3.132	0.506
1044.000	601.228	80.001	19.995	103.073	20.354	3.477	0.506
1044.501	601.459	79.999	19.994	103.073	20.355	3.424	0.466
1045.001	601.742	80.002	19.994	103.073	20.355	3.411	0.483
1045.500	601.962	80.000	19.994	103.072	20.357	3.286	0.509
1046.000	602.206	80.003	19.995	103.073	20.355	3.435	0.484
1046.500	602.435	80.002	19.994	103.074	20.358	3.218	0.468
1047.000	602.691	80.003	19.994	103.074	20.354	3.485	0.479
1047.500	602.924	80.002	19.994	103.074	20.358	3.166	0.487
1048.000	603.148	80.001	19.994	103.074	20.357	3.245	0.473
1048.500	603.399	80.004	19.993	103.072	20.355	3.428	0.466
1049.000	603.678	80.002	19.995	103.072	20.357	3.279	0.502
1049.500	603.910	80.000	19.995	103.073	20.358	3.199	0.520
1050.000	604.159	80.002	19.995	103.074	20.355	3.388	0.496
1050.500	604.402	80.002	19.996	103.074	20.358	3.189	0.487
1051.000	604.644	80.003	19.994	103.075	20.356	3.357	0.488
1051.500	604.902	80.001	19.995	103.076	20.357	3.233	0.492
1052.000	605.128	80.002	19.995	103.078	20.356	3.346	0.493
1052.500	605.357	80.001	19.994	103.077	20.352	3.642	0.470
1053.000	605.573	80.001	19.995	103.077	20.356	3.311	0.450
1053.500	605.864	80.001	19.994	103.077	20.355	3.416	0.476
1054.000	606.117	79.998	19.995	103.077	20.353	3.544	0.525
1054.501	606.393	80.003	19.995	103.074	20.355	3.418	0.537
1055.001	606.619	80.002	19.995	103.074	20.353	3.520	0.516
1055.501	606.851	80.001	19.995	103.075	20.355	3.376	0.480
1056.001	607.107	80.003	19.995	103.074	20.356	3.334	0.473
1056.501	607.350	80.003	19.995	103.073	20.356	3.327	0.494
1057.001	607.583	80.003	19.994	103.073	20.357	3.262	0.488
1057.500	607.859	80.001	19.995	103.075	20.354	3.499	0.492
1058.000	608.054	80.001	19.994	103.080	20.356	3.317	0.490
1058.500	608.338	80.002	19.994	103.084	20.355	3.374	0.475
1059.000	608.567	80.002	19.995	103.088	20.359	3.128	0.496
1059.500	608.827	80.003	19.995	103.092	20.359	3.160	0.501
1060.000	609.062	80.003	19.994	103.095	20.356	3.323	0.492
1060.500	609.302	80.002	19.995	103.090	20.356	3.315	0.485
1061.000	609.579	80.001	19.995	103.086	20.357	3.233	0.496
1061.501	609.800	80.004	19.996	103.082	20.357	3.268	0.507
1062.001	610.042	80.003	19.996	103.079	20.357	3.289	0.480
1062.500	610.284	80.002	19.994	103.074	20.357	3.268	0.474
1063.000	610.542	80.001	19.994	103.073	20.358	3.199	0.492
1063.500	610.790	80.001	19.994	103.074	20.355	3.401	0.503
1064.000	611.032	80.002	19.995	103.074	20.357	3.237	0.498
1064.501	611.266	79.999	19.994	103.073	20.359	3.109	0.483
1065.001	611.501	80.002	19.994	103.074	20.358	3.225	0.473
1065.500	611.761	80.002	19.995	103.074	20.356	3.315	0.482
1066.000	611.995	80.003	19.994	103.074	20.356	3.350	0.494
1066.500	612.207	80.002	19.994	103.077	20.353	3.512	0.470
1067.000	612.515	80.002	19.995	103.078	20.355	3.392	0.483
1067.500	612.756	80.002	19.994	103.080	20.356	3.371	0.534
1068.000	612.973	80.002	19.994	103.080	20.358	3.227	0.503
1068.500	613.222	80.002	19.993	103.080	20.359	3.128	0.462
1069.000	613.489	80.000	19.993	103.080	20.356	3.323	0.491
1069.500	613.725	80.003	19.992	103.079	20.358	3.185	0.509
1070.000	613.961	80.004	19.993	103.079	20.353	3.516	0.487
1070.500	614.235	80.003	19.995	103.080	20.358	3.204	0.491
1071.000	614.508	80.002	19.994	103.079	20.356	3.306	0.528
1071.500	614.748	80.002	19.994	103.081	20.354	3.451	0.530
1072.001	615.025	80.002	19.994	103.083	20.359	3.158	0.515
1072.501	615.302	80.002	19.995	103.083	20.357	3.237	0.536
1073.000	615.547	80.004	19.994	103.083	20.357	3.273	0.538
1073.500	615.798	80.002	19.994	103.083	20.354	3.455	0.509
1074.000	616.061	80.002	19.994	103.079	20.355	3.394	0.505
1074.501	616.273	80.003	19.994	103.078	20.355	3.384	0.495
1075.001	616.532	80.002	19.994	103.077	20.356	3.369	0.473
1075.500	616.788	80.002	19.995	103.076	20.356	3.323	0.493
1076.001	617.027	80.005	19.994	103.076	20.358	3.199	0.505
1076.501	617.285	80.002	19.994	103.081	20.355	3.415	0.496
1077.000	617.566	80.003	19.994	103.081	20.360	3.092	0.518
1077.500	617.794	80.002	19.994	103.081	20.355	3.395	0.524
1078.000	618.039	80.003	19.995	103.080	20.358	3.216	0.491
1078.500	618.279	80.004	19.994	103.079	20.360	3.063	0.479
1079.000	618.545	80.001	19.995	103.076	20.357	3.296	0.496
1079.500	618.801	80.004	19.995	103.076	20.353	3.525	0.514
1080.000	619.031	80.005	19.995	103.076	20.355	3.437	0.504
1080.500	619.308	80.002	19.994	103.077	20.357	3.292	0.497
1081.000	619.552	80.005	19.994	103.077	20.358	3.202	0.514
1081.500	619.785	80.002	19.994	103.076	20.355	3.422	0.499
1082.000	620.102	80.004	19.995	103.074	20.358	3.174	0.513
1082.500	620.317	80.002	19.996	103.074	20.356	3.327	0.541
1083.001	620.533	80.003	19.995	103.073	20.356	3.325	0.482
1083.501	620.825	80.002	19.995	103.074	20.357	3.252	0.469
1084.001	621.101	80.001	19.994	103.075	20.358	3.225	0.537
1084.500	621.328	80.000	19.995	103.077	20.358	3.195	0.536
1085.000	621.605	80.002	19.995	103.077	20.356	3.359	0.504
1085.501	621.857	80.001	19.995	103.078	20.357	3.250	0.517
1086.001	622.101	80.001	19.995	103.077	20.359	3.124	0.513
1086.500	622.342	80.001	19.995	103.076	20.356	3.369	0.491
1087.000	622.600	80.001	19.994	103.076	20.358	3.229	0.492
1087.500	622.844	80.002	19.995	103.076	20.357	3.271	0.500
1088.000	623.118	80.001	19.995	103.076	20.359	3.126	0.510
1088.500	623.379	80.004	19.996	103.075	20.358	3.166	0.526
1089.000	623.650	80.003	19.994	103.075	20.357	3.302	0.533
1089.500	623.889	80.001	19.995	103.075	20.356	3.342	0.521
1090.000	624.133	80.001	19.995	103.075	20.357	3.294	0.497
1090.500	624.402	80.002	19.994	103.075	20.355	3.393	0.498
1091.000	624.654	80.003	19.994	103.074	20.363	2.864	0.517
1091.500	624.863	80.004	19.995	103.074	20.360	3.090	0.490
1092.000	625.140	80.004	19.996	103.074	20.357	3.235	0.473
1092.500	625.413	80.003	19.995	103.074	20.357	3.261	0.518
1093.000	625.648	80.004	19.995	103.074	20.361	3.007	0.529
1093.500	625.889	80.000	19.995	103.075	20.357	3.300	0.492
1094.000	626.129	80.001	19.995	103.074	20.361	2.998	0.479
1094.500	626.390	80.004	19.994	103.074	20.359	3.113	0.491
1095.000	626.684	80.003	19.995	103.074	20.357	3.239	0.528
1095.501	626.915	80.003	19.996	103.074	20.360	3.065	0.539
1096.001	627.180	80.003	19.994	103.074	20.355	3.384	0.510
1096.500	627.416	80.003	19.996	103.073	20.358	3.220	0.499
1097.000	627.708	80.003	19.995	103.073	20.360	3.038	0.514
1097.501	627.929	80.004	19.994	103.072	20.359	3.137	0.520
1098.001	628.197	80.003	19.995	103.072	20.360	3.040	0.501
1098.501	628.461	80.003	19.994	103.070	20.356	3.321	0.511
1099.000	628.691	80.003	19.995	103.069	20.358	3.166	0.513
1099.501	628.950	80.002	19.995	103.068	20.360	3.086	0.492
1100.001	629.199	80.001	19.994	103.069	20.362	2.898	0.499
1100.500	629.445	80.003	19.994	103.069	20.359	3.145	0.501
1101.000	629.714	80.006	19.994	103.069	20.360	3.036	0.505
1101.500	629.972	80.005	19.995	103.071	20.361	3.023	0.520
1102.001	630.207	80.004	19.995	103.071	20.359	3.147	0.510
1102.501	630.483	80.006	19.995	103.070	20.359	3.149	0.502
1103.000	630.740	80.003	19.994	103.070	20.357	3.279	0.522
1103.500	630.979	80.003	19.995	103.070	20.362	2.944	0.515
1104.000	631.213	80.004	19.995	103.072	20.359	3.139	0.484
1104.501	631.478	80.003	19.995	103.075	20.357	3.267	0.486
1105.001	631.789	80.002	19.995	103.076	20.359	3.137	0.538
1105.500	632.020	80.004	19.995	103.081	20.359	3.145	0.559
1106.000	632.252	80.002	19.995	103.082	20.361	3.017	0.503
1106.500	632.482	80.002	19.996	103.081	20.360	3.051	0.463
1107.000	632.783	80.002	19.994	103.078	20.356	3.355	0.496
1107.500	633.007	80.000	19.995	103.077	20.360	3.067	0.528
1108.001	633.246	80.002	19.995	103.071	20.356	3.336	0.494
1108.501	633.529	80.002	19.994	103.071	20.354	3.493	0.492
1109.000	633.793	79.999	19.996	103.069	20.357	3.252	0.534
1109.500	634.020	80.000	19.996	103.069	20.358	3.206	0.519
1110.000	634.321	80.001	19.996	103.069	20.360	3.063	0.510
1110.500	634.530	80.001	19.996	103.071	20.357	3.260	0.519
1111.001	634.820	80.000	19.996	103.071	20.358	3.183	0.504
1111.501	635.066	80.001	19.996	103.071	20.359	3.111	0.518
1112.000	635.334	79.998	19.997	103.071	20.357	3.250	0.525
1112.500	635.570	80.000	19.996	103.071	20.357	3.263	0.509
1113.000	635.802	80.001	19.996	103.070	20.358	3.183	0.486
1113.500	636.105	80.001	19.996	103.070	20.358	3.191	0.502
1114.000	636.351	80.002	19.997	103.070	20.357	3.286	0.542
1114.500	636.576	80.002	19.996	103.069	20.355	3.407	0.510
1115.000	636.858	80.001	19.996	103.070	20.353	3.561	0.489
1115.500	637.068	80.000	19.996	103.070	20.358	3.212	0.499
1116.000	637.312	80.002	19.996	103.070	20.355	3.391	0.473
1116.500	637.569	80.000	19.997	103.070	20.356	3.361	0.477
1117.000	637.808	80.000	19.995	103.072	20.355	3.407	0.499
1117.500	638.082	80.000	19.995	103.072	20.358	3.200	0.504
1118.000	638.364	79.999	19.996	103.072	20.354	3.470	0.534
1118.500	638.583	80.002	19.995	103.072	20.355	3.372	0.528
1119.000	638.844	80.002	19.995	103.074	20.356	3.365	0.491
1119.500	639.076	80.001	19.994	103.072	20.354	3.483	0.486
1120.000	639.351	80.001	19.997	103.076	20.353	3.512	0.500
1120.500	639.623	80.001	19.996	103.080	20.356	3.323	0.527
1121.000	639.876	80.002	19.995	103.080	20.357	3.279	0.536
1121.500	640.092	80.005	19.995	103.079	20.358	3.179	0.497
1122.000	640.353	80.000	19.994	103.079	20.358	3.189	0.473
1122.500	640.607	80.001	19.996	103.076	20.357	3.273	0.497
1123.000	640.875	80.001	19.995	103.072	20.358	3.212	0.519
1123.500	641.113	80.002	19.994	103.072	20.359	3.103	0.514
1124.000	641.372	80.002	19.995	103.072	20.357	3.290	0.501
1124.500	641.630	80.001	19.995	103.072	20.358	3.185	0.507
1125.001	641.871	80.002	19.994	103.072	20.359	3.095	0.508
1125.501	642.086	80.002	19.995	103.072	20.356	3.321	0.478
1126.001	642.370	80.004	19.994	103.071	20.358	3.170	0.477
1126.500	642.620	80.002	19.995	103.072	20.358	3.174	0.516
1127.000	642.891	80.004	19.994	103.071	20.358	3.218	0.527
1127.500	643.164	80.000	19.994	103.071	20.358	3.164	0.532
1128.001	643.377	80.002	19.994	103.072	20.358	3.231	0.515
1128.501	643.642	80.002	19.994	103.072	20.357	3.292	0.482
1129.000	643.844	80.003	19.994	103.073	20.356	3.303	0.473
1129.500	644.105	80.000	19.994	103.073	20.356	3.315	0.465
1130.000	644.411	80.001	19.995	103.072	20.355	3.372	0.515
1130.501	644.647	80.001	19.994	103.072	20.353	3.520	0.555
1131.001	644.876	79.999	19.994	103.072	20.354	3.504	0.504
1131.501	645.165	80.002	19.995	103.072	20.354	3.487	0.491
1132.000	645.382	80.000	19.994	103.074	20.358	3.218	0.512
1132.500	645.652	80.001	19.995	103.075	20.357	3.252	0.497
1133.000	645.887	80.003	19.994	103.072	20.356	3.367	0.496
1133.500	646.150	80.000	19.994	103.073	20.355	3.422	0.501
1134.000	646.379	80.000	19.994	103.072	20.356	3.329	0.495
1134.500	646.642	80.001	19.994	103.071	20.357	3.271	0.492
1135.000	646.903	80.001	19.995	103.071	20.356	3.325	0.508
1135.500	647.139	80.001	19.994	103.073	20.356	3.305	0.510
1136.000	647.406	80.001	19.994	103.074	20.354	3.460	0.500
1136.500	647.664	80.000	19.994	103.076	20.354	3.481	0.514
1137.001	647.897	80.002	19.995	103.077	20.357	3.286	0.508
1137.501	648.149	79.999	19.994	103.076	20.356	3.311	0.488
1138.001	648.380	80.002	19.995	103.076	20.356	3.363	0.484
1138.501	648.649	80.000	19.995	103.073	20.358	3.227	0.491
1139.001	648.922	80.001	19.994	103.071	20.356	3.315	0.521
1139.501	649.128	80.000	19.995	103.071	20.358	3.206	0.511
1140.001	649.397	80.004	19.995	103.069	20.357	3.287	0.477
1140.501	649.632	80.000	19.994	103.070	20.358	3.210	0.490
1141.001	649.916	80.000	19.995	103.072	20.358	3.176	0.512
1141.501	650.162	80.001	19.995	103.074	20.356	3.348	0.524
1142.000	650.413	80.001	19.994	103.074	20.357	3.283	0.513
1142.500	650.645	80.003	19.995	103.076	20.356	3.340	0.490
1143.000	650.914	80.002	19.993	103.076	20.356	3.315	0.492
1143.500	651.177	80.000	19.993	103.075	20.357	3.267	0.517
1144.000	651.365	79.999	19.994	103.075	20.359	3.105	0.492
1144.500	651.622	80.000	19.994	103.075	20.357	3.252	0.448
1145.001	651.853	79.999	19.995	103.075	20.359	3.105	0.466
1145.501	652.087	79.999	19.994	103.073	20.356	3.342	0.477
1146.000	652.358	80.002	19.994	103.072	20.356	3.332	0.486
1146.500	652.657	80.002	19.995	103.071	20.355	3.378	0.538
1147.000	652.839	80.001	19.995	103.072	20.357	3.294	0.525
1147.500	653.110	80.001	19.994	103.071	20.356	3.355	0.467
1148.000	653.364	79.999	19.994	103.074	20.355	3.374	0.489
1148.500	653.600	80.001	19.994	103.075	20.357	3.237	0.507
1149.000	653.885	80.003	19.994	103.075	20.357	3.292	0.506
1149.500	654.128	80.000	19.994	103.075	20.357	3.265	0.525
1150.000	654.357	79.999	19.995	103.075	20.356	3.309	0.500
1150.501	654.604	80.001	19.993	103.075	20.353	3.548	0.473
1151.001	654.861	80.001	19.995	103.077	20.356	3.361	0.490
1151.500	655.127	80.002	19.994	103.079	20.353	3.552	0.514
1152.000	655.373	80.002	19.994	103.080	20.354	3.504	0.517
1152.500	655.611	80.002	19.994	103.079	20.356	3.338	0.498
1153.001	655.857	80.001	19.994	103.078	20.355	3.434	0.484
1153.501	656.088	80.003	19.994	103.075	20.357	3.296	0.481
1154.000	656.346	80.002	19.993	103.075	20.355	3.393	0.483
1154.500	656.613	80.002	19.994	103.077	20.354	3.479	0.507
1155.000	656.854	80.004	19.994	103.079	20.356	3.344	0.516
1155.500	657.069	80.004	19.993	103.079	20.356	3.363	0.482
1156.000	657.329	80.004	19.995	103.080	20.357	3.277	0.466
1156.500	657.556	80.004	19.994	103.077	20.354	3.443	0.481
1157.000	657.801	80.004	19.994	103.069	20.355	3.435	0.479
1157.500	658.069	80.003	19.994	103.063	20.352	3.619	0.493
1158.000	658.314	80.003	19.995	103.063	20.355	3.386	0.513
1158.500	658.524	80.005	19.994	103.063	20.355	3.401	0.484
1159.000	658.783	80.005	19.994	103.064	20.357	3.288	0.461
1159.500	659.027	80.004	19.994	103.069	20.354	3.468	0.486
1160.000	659.318	80.003	19.994	103.072	20.354	3.510	0.519
1160.500	659.539	80.004	19.994	103.071	20.354	3.468	0.523
1161.000	659.790	80.004	19.995	103.071	20.353	3.573	0.492
1161.500	660.042	80.003	19.994	103.071	20.357	3.261	0.488
1162.000	660.306	80.003	19.994	103.075	20.356	3.360	0.510
1162.500	660.500	80.002	19.995	103.080	20.356	3.366	0.487
1163.000	660.753	80.004	19.995	103.081	20.353	3.519	0.452
1163.500	661.013	80.005	19.995	103.081	20.354	3.458	0.480
1164.000	661.243	80.002	19.994	103.081	20.357	3.281	0.502
1164.500	661.498	80.002	19.994	103.076	20.355	3.388	0.487
1165.000	661.763	80.002	19.994	103.074	20.353	3.575	0.502
1165.500	661.960	80.001	19.994	103.072	20.357	3.269	0.491
1166.000	662.233	80.003	19.994	103.068	20.355	3.391	0.466
1166.500	662.486	80.003	19.994	103.068	20.356	3.344	0.498
1167.000	662.725	80.003	19.995	103.068	20.356	3.357	0.509
1167.500	662.989	80.002	19.995	103.066	20.356	3.313	0.497
1168.001	663.270	80.003	19.994	103.068	20.358	3.183	0.525
1168.501	663.456	80.002	19.994	103.074	20.354	3.494	0.506
1169.000	663.724	80.003	19.994	103.075	20.356	3.332	0.460
1169.500	663.970	80.002	19.995	103.077	20.357	3.251	0.483
1170.000	664.257	80.003	19.996	103.078	20.356	3.343	0.523
1170.500	664.473	80.004	19.995	103.078	20.354	3.444	0.518
1171.000	664.702	80.002	19.996	103.074	20.350	3.752	0.474
1171.501	664.945	80.003	19.996	103.067	20.355	3.375	0.459
1172.001	665.219	80.001	19.995	103.059	20.356	3.337	0.495
1172.501	665.476	80.001	19.995	103.058	20.357	3.265	0.524
1173.001	665.687	80.003	19.995	103.057	20.352	3.597	0.499
1173.501	665.902	80.002	19.995	103.058	20.357	3.273	0.447
1174.000	666.148	80.001	19.995	103.064	20.355	3.422	0.443
1174.500	666.438	80.000	19.994	103.070	20.356	3.315	0.499
1175.000	666.666	80.002	19.995	103.069	20.357	3.277	0.527
1175.500	666.931	80.002	19.995	103.068	20.355	3.426	0.505
1176.000	667.186	80.003	19.994	103.067	20.357	3.265	0.506
1176.500	667.453	80.004	19.995	103.066	20.355	3.382	0.522
1177.000	667.702	80.004	19.995	103.066	20.354	3.492	0.519
1177.500	667.900	80.004	19.995	103.068	20.356	3.315	0.481
1178.001	668.195	80.005	19.995	103.066	20.355	3.376	0.470
1178.501	668.402	80.002	19.995	103.065	20.357	3.248	0.497
1179.001	668.660	80.005	19.994	103.059	20.355	3.416	0.483
1179.500	668.902	80.005	19.995	103.058	20.355	3.402	0.483
1180.000	669.158	80.004	19.995	103.056	20.354	3.496	0.499
1180.500	669.395	80.005	19.994	103.054	20.349	3.794	0.496
1181.000	669.679	80.004	19.995	103.049	20.353	3.572	0.507
1181.500	669.894	80.005	19.994	103.047	20.354	3.442	0.509
1182.000	670.146	80.006	19.995	103.043	20.354	3.488	0.483
1182.500	670.399	80.003	19.995	103.042	20.352	3.586	0.486
1183.001	670.658	80.006	19.995	103.046	20.352	3.580	0.509
1183.501	670.868	80.006	19.995	103.053	20.354	3.485	0.490
1184.000	671.121	80.005	19.995	103.060	20.354	3.464	0.466
1184.500	671.396	80.003	19.995	103.065	20.357	3.300	0.496
1185.000	671.596	80.005	19.994	103.066	20.354	3.500	0.502
1185.500	671.899	80.002	19.994	103.068	20.354	3.473	0.490
1186.001	672.150	80.003	19.995	103.069	20.356	3.303	0.529
1186.501	672.386	80.005	19.995	103.068	20.356	3.360	0.520
1187.000	672.638	80.003	19.994	103.066	20.354	3.488	0.488
1187.500	672.917	80.006	19.994	103.063	20.357	3.249	0.509
1188.000	673.122	80.003	19.994	103.060	20.355	3.387	0.507
1188.500	673.369	80.002	19.995	103.058	20.357	3.257	0.468
1189.000	673.671	80.003	19.995	103.056	20.353	3.511	0.501
1189.500	673.935	79.999	19.994	103.053	20.358	3.200	0.557
1190.000	674.152	80.000	19.995	103.053	20.355	3.372	0.523
1190.500	674.397	80.001	19.994	103.057	20.355	3.404	0.471
1191.000	674.666	80.001	19.993	103.057	20.357	3.244	0.488
1191.500	674.935	80.002	19.995	103.053	20.358	3.230	0.526
1192.000	675.189	80.003	19.995	103.051	20.354	3.477	0.531
1192.500	675.420	80.002	19.995	103.049	20.357	3.238	0.504
1193.000	675.666	80.001	19.995	103.048	20.354	3.440	0.481
1193.500	675.956	80.000	19.995	103.050	20.355	3.379	0.507
1194.001	676.228	80.001	19.994	103.052	20.355	3.377	0.549
1194.501	676.436	80.002	19.994	103.058	20.356	3.335	0.522
1195.001	676.693	79.999	19.995	103.064	20.351	3.695	0.473
1195.500	676.937	80.003	19.995	103.066	20.359	3.131	0.483
1196.000	677.188	80.002	19.994	103.062	20.353	3.538	0.498
1196.500	677.425	80.001	19.995	103.062	20.354	3.458	0.491
1197.000	677.713	80.001	19.995	103.058	20.353	3.517	0.507
1197.500	677.945	80.000	19.996	103.051	20.357	3.278	0.522
1198.000	678.159	80.001	19.996	103.043	20.352	3.628	0.482
1198.500	678.451	79.999	19.995	103.040	20.356	3.326	0.476
1199.000	678.717	80.001	19.996	103.042	20.355	3.404	0.532
1199.500	678.984	80.000	19.996	103.046	20.359	3.133	0.546
1200.000	679.174	80.001	19.995	103.053	20.355	3.391	0.495
1200.500	679.439	80.001	19.995	103.057	20.353	3.513	0.456
1201.000	679.668	80.000	19.995	103.059	20.355	3.425	0.475
1201.500	679.947	79.999	19.996	103.058	20.356	3.360	0.501
1202.001	680.213	80.002	19.995	103.054	20.351	3.689	0.526
1202.501	680.433	80.000	19.996	103.048	20.357	3.276	0.515
1203.000	680.652	80.002	19.996	103.045	20.357	3.282	0.463
1203.500	680.912	80.000	19.995	103.044	20.356	3.362	0.459
1204.000	681.161	80.001	19.996	103.043	20.356	3.334	0.494
1204.500	681.452	80.001	19.995	103.040	20.356	3.334	0.525
1205.000	681.641	80.001	19.995	103.042	20.355	3.397	0.510
1205.501	681.925	80.001	19.997	103.048	20.353	3.512	0.476
1206.001	682.146	79.999	19.995	103.054	20.354	3.495	0.489
1206.500	682.401	80.002	19.996	103.059	20.356	3.336	0.491
1207.000	682.644	80.002	19.996	103.063	20.356	3.327	0.487
1207.500	682.883	80.001	19.996	103.063	20.356	3.357	0.490
1208.001	683.158	80.001	19.996	103.057	20.358	3.219	0.498
1208.501	683.355	80.003	19.995	103.053	20.358	3.188	0.493
1209.000	683.614	80.002	19.996	103.048	20.355	3.427	0.465
1209.500	683.882	80.003	19.996	103.045	20.356	3.310	0.492
1210.000	684.107	80.002	19.996	103.046	20.357	3.295	0.510
1210.500	684.379	80.002	19.995	103.050	20.357	3.272	0.494
1211.000	684.643	80.002	19.994	103.049	20.354	3.450	0.516
1211.500	684.852	80.000	19.995	103.048	20.358	3.215	0.505
1212.000	685.099	80.001	19.994	103.047	20.356	3.345	0.465
1212.500	685.364	80.002	19.995	103.049	20.356	3.318	0.484
1213.001	685.631	80.002	19.995	103.051	20.355	3.376	0.522
1213.501	685.875	80.001	19.995	103.052	20.355	3.429	0.521
1214.000	686.088	80.001	19.995	103.056	20.354	3.467	0.484
1214.500	686.368	80.002	19.995	103.059	20.354	3.450	0.476
1215.000	686.603	80.001	19.994	103.057	20.357	3.286	0.504
1215.500	686.849	80.000	19.994	103.057	20.352	3.603	0.498
1216.000	687.108	80.001	19.994	103.061	20.356	3.355	0.493
1216.500	687.364	80.001	19.994	103.066	20.355	3.416	0.510
1217.000	687.569	80.002	19.995	103.071	20.355	3.403	0.488
1217.500	687.846	79.999	19.994	103.074	20.353	3.538	0.472
1218.000	688.130	80.004	19.995	103.074	20.354	3.466	0.522
1218.500	688.379	80.003	19.994	103.068	20.354	3.445	0.547
1219.001	688.572	80.001	19.995	103.059	20.356	3.317	0.487
1219.501	688.850	80.001	19.995	103.051	20.353	3.565	0.456
1220.000	689.128	80.000	19.995	103.049	20.356	3.321	0.513
1220.500	689.352	80.001	19.994	103.045	20.352	3.590	0.529
1221.000	689.635	80.003	19.995	103.043	20.358	3.181	0.504
1221.500	689.893	80.002	19.995	103.046	20.355	3.407	0.524
1222.000	690.141	80.001	19.996	103.049	20.355	3.435	0.524
1222.500	690.389	80.000	19.995	103.045	20.355	3.402	0.501
1223.000	690.647	80.001	19.994	103.051	20.351	3.706	0.501
1223.501	690.876	80.000	19.995	103.057	20.354	3.484	0.497
1224.001	691.148	80.001	19.994	103.060	20.354	3.442	0.494
1224.500	691.421	80.000	19.996	103.057	20.355	3.387	0.523
1225.000	691.632	80.001	19.995	103.055	20.355	3.378	0.514
1225.500	691.936	80.001	19.996	103.050	20.356	3.341	0.499
1226.000	692.199	80.001	19.995	103.049	20.354	3.479	0.541
1226.500	692.418	80.002	19.995	103.051	20.353	3.511	0.524
1227.000	692.678	80.001	19.994	103.058	20.351	3.702	0.481
1227.500	692.929	80.001	19.995	103.065	20.353	3.541	0.495
1228.000	693.194	80.001	19.994	103.071	20.352	3.646	0.513
1228.500	693.472	80.001	19.994	103.070	20.353	3.562	0.529
1229.000	693.731	80.002	19.996	103.068	20.351	3.711	0.540
1229.500	694.005	79.999	19.994	103.069	20.351	3.650	0.536
1230.000	694.262	80.002	19.995	103.068	20.349	3.793	0.532
1230.500	694.543	80.002	19.995	103.065	20.347	3.931	0.534
1231.000	694.754	80.001	19.994	103.066	20.352	3.601	0.515
1231.500	695.052	80.002	19.994	103.067	20.352	3.589	0.501
1232.000	695.324	80.003	19.995	103.067	20.349	3.857	0.539
1232.500	695.635	80.005	19.995	103.067	20.347	3.932	0.576
1233.001	695.880	80.002	19.994	103.065	20.348	3.865	0.569
1233.501	696.140	80.004	19.995	103.059	20.351	3.672	0.530
1234.001	696.399	80.001	19.994	103.056	20.351	3.667	0.512
1234.500	696.654	80.003	19.994	103.053	20.352	3.647	0.517
1235.000	696.953	80.002	19.995	103.053	20.351	3.682	0.534
1235.500	697.203	80.004	19.995	103.058	20.351	3.656	0.551
1236.000	697.462	80.002	19.994	103.061	20.351	3.654	0.529
1236.500	697.726	80.005	19.994	103.060	20.349	3.857	0.516
1237.000	697.975	80.003	19.996	103.059	20.351	3.694	0.518
1237.500	698.257	80.003	19.994	103.053	20.353	3.568	0.522
1238.000	698.551	80.004	19.995	103.047	20.354	3.454	0.554
1238.500	698.821	80.002	19.995	103.043	20.352	3.593	0.570
1239.000	699.095	80.006	19.995	103.040	20.353	3.563	0.554
1239.500	699.354	80.004	19.994	103.038	20.353	3.542	0.538
1240.000	699.593	80.003	19.994	103.039	20.355	3.391	0.516
1240.500	699.856	80.001	19.996	103.038	20.351	3.656	0.500
1241.000	700.132	80.002	19.994	103.039	20.355	3.435	0.520
1241.500	700.408	80.002	19.994	103.039	20.349	3.828	0.546
1242.001	700.692	80.003	19.995	103.046	20.351	3.679	0.556
1242.501	700.952	80.002	19.995	103.050	20.351	3.690	0.552
1243.000	701.219	80.003	19.995	103.056	20.350	3.750	0.535
1243.500	701.470	80.003	19.994	103.062	20.352	3.593	0.523
1244.000	701.776	80.004	19.994	103.068	20.352	3.626	0.538
1244.501	701.998	80.004	19.994	103.069	20.353	3.576	0.543
1245.001	702.298	80.002	19.995	103.070	20.352	3.640	0.525
1245.500	702.558	80.001	19.993	103.068	20.354	3.443	0.541
1246.000	702.836	80.004	19.995	103.062	20.354	3.506	0.548
1246.500	703.097	80.005	19.993	103.054	20.352	3.590	0.538
1247.000	703.374	80.005	19.994	103.047	20.354	3.463	0.539
1247.500	703.673	80.004	19.994	103.041	20.354	3.455	0.557
1248.000	703.950	80.005	19.994	103.041	20.352	3.581	0.576
1248.500	704.172	80.003	19.994	103.048	20.353	3.528	0.537
1249.000	704.454	80.005	19.994	103.055	20.353	3.557	0.502
1249.500	704.745	80.004	19.994	103.057	20.352	3.583	0.539
1250.000	705.002	80.003	19.994	103.057	20.352	3.601	0.560
1250.500	705.271	80.003	19.995	103.056	20.352	3.604	0.537
1251.001	705.509	80.003	19.994	103.054	20.351	3.696	0.517
1251.501	705.794	80.003	19.993	103.048	20.351	3.683	0.516
1252.000	706.089	80.005	19.995	103.048	20.352	3.633	0.552
1252.500	706.350	80.006	19.994	103.052	20.353	3.555	0.568
1253.000	706.622	80.004	19.994	103.047	20.354	3.509	0.544
1253.500	706.884	80.004	19.994	103.044	20.351	3.695	0.533
1254.000	707.141	80.005	19.995	103.050	20.354	3.505	0.527
1254.501	707.386	80.003	19.995	103.054	20.355	3.374	0.511
1255.001	707.663	80.006	19.994	103.056	20.351	3.674	0.512
1255.500	707.932	80.004	19.993	103.062	20.353	3.563	0.534
1256.000	708.184	80.005	19.993	103.066	20.352	3.622	0.534
1256.500	708.462	80.003	19.993	103.066	20.356	3.338	0.526
1257.000	708.736	80.005	19.994	103.059	20.350	3.760	0.541
1257.500	708.973	80.003	19.994	103.054	20.355	3.374	0.531
1258.000	709.278	80.004	19.993	103.048	20.354	3.484	0.526
1258.501	709.497	80.002	19.994	103.044	20.355	3.406	0.533
1259.001	709.766	80.002	19.994	103.038	20.354	3.471	0.506
1259.500	710.056	80.004	19.994	103.039	20.359	3.106	0.523
1260.000	710.281	80.003	19.994	103.038	20.355	3.372	0.537
1260.500	710.589	80.004	19.995	103.039	20.356	3.349	0.524
1261.000	710.842	80.002	19.993	103.041	20.357	3.232	0.547
1261.500	711.141	80.003	19.994	103.042	20.354	3.448	0.557
1262.000	711.375	80.002	19.994	103.042	20.356	3.329	0.543
1262.501	711.624	80.003	19.995	103.042	20.355	3.385	0.508
1263.001	711.912	80.004	19.995	103.043	20.359	3.123	0.510
1263.500	712.139	80.005	19.995	103.043	20.356	3.343	0.526
1264.000	712.406	80.003	19.994	103.048	20.355	3.426	0.504
1264.500	712.713	80.003	19.995	103.052	20.354	3.494	0.534
1265.000	712.919	80.004	19.995	103.053	20.356	3.368	0.543
1265.500	713.189	80.003	19.995	103.053	20.353	3.563	0.494
1266.000	713.465	80.003	19.995	103.059	20.354	3.452	0.511
1266.501	713.716	80.004	19.995	103.060	20.358	3.207	0.537
1267.001	713.988	80.003	19.995	103.062	20.354	3.480	0.525
1267.500	714.241	80.000	19.995	103.063	20.354	3.473	0.525
1268.000	714.521	79.999	19.994	103.059	20.356	3.370	0.529
1268.501	714.755	80.001	19.996	103.052	20.357	3.248	0.523
1269.001	715.078	80.000	19.994	103.050	20.357	3.244	0.535
1269.500	715.294	80.002	19.994	103.048	20.356	3.305	0.548
1270.000	715.584	80.000	19.995	103.049	20.353	3.540	0.523
1270.500	715.844	80.001	19.995	103.055	20.357	3.236	0.528
1271.000	716.131	80.003	19.995	103.059	20.351	3.656	0.549
1271.501	716.338	79.998	19.994	103.054	20.351	3.689	0.521
1272.001	716.643	80.001	19.995	103.049	20.357	3.272	0.503
1272.500	716.923	80.000	19.994	103.046	20.355	3.377	0.548
1273.000	717.176	80.002	19.995	103.046	20.353	3.560	0.559
1273.500	717.449	80.002	19.995	103.045	20.353	3.549	0.529
1274.000	717.715	80.002	19.995	103.053	20.348	3.893	0.533
1274.500	718.013	80.003	19.994	103.062	20.354	3.486	0.551
1275.000	718.215	80.001	19.994	103.064	20.356	3.320	0.532
1275.500	718.471	80.001	19.994	103.062	20.352	3.629	0.479
1276.000	718.764	80.001	19.994	103.060	20.354	3.497	0.504
1276.500	718.986	80.004	19.994	103.052	20.352	3.623	0.532
1277.001	719.257	80.000	19.995	103.045	20.352	3.648	0.504
1277.501	719.487	80.002	19.995	103.043	20.354	3.494	0.497
1278.001	719.735	80.002	19.994	103.038	20.353	3.523	0.489
1278.501	719.996	79.999	19.994	103.041	20.353	3.571	0.494
1279.001	720.283	80.004	19.994	103.044	20.353	3.527	0.529
1279.501	720.506	80.002	19.994	103.051	20.358	3.217	0.529
1280.000	720.801	80.000	19.995	103.058	20.354	3.444	0.514
1280.500	721.033	80.001	19.994	103.062	20.352	3.599	0.522
1281.000	721.289	80.000	19.994	103.061	20.350	3.740	0.507
1281.500	721.540	80.000	19.994	103.059	20.355	3.385	0.498
1282.000	721.811	80.001	19.994	103.052	20.352	3.622	0.514
1282.500	722.053	80.002	19.995	103.045	20.355	3.393	0.517
1283.000	722.320	80.001	19.995	103.042	20.350	3.742	0.511
1283.500	722.535	80.002	19.993	103.041	20.352	3.624	0.495
1284.000	722.771	80.002	19.995	103.039	20.355	3.410	0.466
1284.500	723.051	80.002	19.995	103.040	20.350	3.723	0.484
1285.000	723.301	80.003	19.994	103.041	20.353	3.538	0.523
1285.501	723.519	80.001	19.994	103.043	20.350	3.775	0.499
1286.001	723.788	80.004	19.996	103.040	20.354	3.480	0.478
1286.500	724.015	80.002	19.996	103.039	20.354	3.453	0.492
1287.000	724.269	80.002	19.996	103.040	20.353	3.562	0.489
1287.500	724.496	80.001	19.995	103.042	20.352	3.604	0.481
1288.000	724.772	80.002	19.995	103.046	20.356	3.369	0.492
1288.500	725.014	80.001	19.994	103.052	20.355	3.423	0.510
1289.001	725.251	80.004	19.995	103.060	20.352	3.589	0.498
1289.501	725.532	80.005	19.996	103.066	20.352	3.585	0.498
1290.000	725.752	80.002	19.996	103.067	20.352	3.645	0.510
1290.500	725.987	80.001	19.994	103.061	20.354	3.450	0.479
1291.000	726.250	80.001	19.996	103.055	20.352	3.586	0.477
1291.500	726.460	80.000	19.996	103.047	20.351	3.712	0.485
1292.000	726.681	80.003	19.996	103.040	20.353	3.567	0.452
1292.500	726.974	80.002	19.995	103.038	20.351	3.695	0.473
1293.000	727.233	80.000	19.995	103.045	20.354	3.475	0.532
1293.500	727.446	80.001	19.996	103.050	20.351	3.683	0.512
1294.000	727.681	80.000	19.995	103.053	20.348	3.859	0.460
1294.500	727.940	80.000	19.996	103.056	20.348	3.912	0.471
1295.000	728.177	79.999	19.995	103.057	20.352	3.593	0.495
1295.500	728.413	80.001	19.996	103.054	20.355	3.419	0.484
1296.000	728.661	80.001	19.995	103.051	20.352	3.645	0.479
1296.500	728.895	80.000	19.996	103.048	20.348	3.912	0.483
1297.000	729.125	80.000	19.994	103.044	20.349	3.803	0.473
1297.500	729.378	80.001	19.995	103.039	20.352	3.616	0.474
1298.000	729.601	80.003	19.997	103.037	20.351	3.681	0.480
1298.500	729.841	79.998	19.997	103.039	20.347	3.933	0.469
1299.000	730.113	80.001	19.996	103.040	20.353	3.566	0.487
1299.500	730.357	80.002	19.995	103.044	20.350	3.746	0.515
1300.000	730.601	80.001	19.995	103.043	20.348	3.868	0.502
1300.500	730.830	80.003	19.995	103.042	20.352	3.609	0.480
1301.000	731.056	80.001	19.995	103.047	20.348	3.859	0.464
1301.500	731.326	80.001	19.995	103.048	20.351	3.664	0.476
1302.000	731.566	80.002	19.996	103.049	20.349	3.790	0.503
1302.500	731.776	80.001	19.995	103.052	20.346	4.050	0.480
1303.000	732.018	80.002	19.996	103.053	20.350	3.777	0.451
1303.500	732.258	80.001	19.996	103.053	20.350	3.766	0.467
1304.000	732.504	80.001	19.995	103.057	20.348	3.917	0.484
1304.501	732.739	80.001	19.995	103.053	20.349	3.832	0.483
1305.001	732.977	80.002	19.995	103.051	20.350	3.744	0.477
1305.500	733.193	80.002	19.995	103.051	20.349	3.813	0.463
1306.000	733.465	80.003	19.995	103.045	20.348	3.893	0.471
1306.500	733.693	80.003	19.994	103.040	20.351	3.700	0.494
1307.000	733.911	80.002	19.996	103.042	20.349	3.804	0.473
1307.500	734.141	80.003	19.994	103.043	20.350	3.727	0.447
1308.000	734.399	80.003	19.994	103.044	20.352	3.645	0.468
1308.500	734.652	80.002	19.994	103.044	20.348	3.886	0.500
1309.000	734.881	80.002	19.995	103.045	20.346	4.033	0.497
1309.501	735.117	80.003	19.994	103.045	20.349	3.796	0.473
1310.001	735.337	80.003	19.995	103.044	20.346	4.013	0.460
1310.500	735.575	80.003	19.995	103.042	20.347	3.970	0.457
1311.000	735.808	80.003	19.995	103.047	20.350	3.758	0.465
1311.500	736.030	80.005	19.996	103.053	20.350	3.756	0.463
1312.001	736.308	80.005	19.995	103.058	20.350	3.727	0.478
1312.501	736.538	80.004	19.994	103.064	20.353	3.511	0.504
1313.000	736.763	80.005	19.994	103.064	20.348	3.872	0.481
1313.500	737.023	80.003	19.994	103.063	20.345	4.124	0.470
1314.000	737.265	80.004	19.995	103.062	20.351	3.708	0.493
1314.500	737.482	80.004	19.995	103.063	20.343	4.236	0.481
1315.000	737.741	80.002	19.994	103.063	20.345	4.085	0.468
1315.500	737.992	80.004	19.995	103.063	20.347	3.953	0.493
1316.000	738.222	80.003	19.995	103.058	20.348	3.879	0.496
1316.500	738.494	80.003	19.994	103.056	20.348	3.926	0.492
1317.001	738.724	80.002	19.995	103.054	20.350	3.783	0.501
1317.501	738.989	80.003	19.994	103.055	20.347	3.984	0.498
1318.000	739.246	80.005	19.994	103.060	20.350	3.724	0.509
1318.500	739.490	80.003	19.995	103.065	20.348	3.913	0.512
1319.000	739.762	80.002	19.994	103.063	20.347	3.974	0.509
1319.500	740.010	80.004	19.994	103.057	20.348	3.888	0.518
1320.000	740.296	80.002	19.994	103.049	20.349	3.803	0.527
1320.500	740.535	80.002	19.995	103.046	20.348	3.870	0.529
1321.000	740.794	80.002	19.994	103.047	20.345	4.071	0.511
1321.500	741.041	80.003	19.994	103.052	20.347	3.987	0.502
1322.001	741.308	80.003	19.994	103.056	20.350	3.786	0.510
1322.501	741.555	80.002	19.994	103.057	20.348	3.874	0.514
1323.000	741.832	80.001	19.995	103.057	20.346	4.053	0.519
1323.500	742.085	80.002	19.994	103.055	20.345	4.071	0.527
1324.000	742.357	80.002	19.994	103.053	20.350	3.723	0.528
1324.500	742.657	80.002	19.995	103.056	20.345	4.075	0.549
1325.000	742.904	80.002	19.994	103.062	20.347	3.991	0.559
1325.500	743.220	80.002	19.995	103.067	20.347	3.935	0.555
