Sample ID:	C:\MCC\MCC Cal\Test\Polyester_Carpet_MedPile_MCC_30K_min_211029_R2.txt
Sample Weight (mg):	4.17
Heating Rate (C/s):	0.5
Combustor Temp (C):	900
N2 Flow Rate (cc/min):	80
O2 Flow Rate (cc/min):	20
Calibration File:	C:\MCC\MCC Cal\Coeff1 JN10440_30_210304.txt.txt
T Correction Coefficients:	0	1.024463	0
Time Shift (s):	14
*
Time (s)	Temperature (C)	N2 flow rate (cc/min)	O2 flow rate (cc/min)	Flow Rate (cc/min)	Oxygen (%)	HRR (W/g)	Heating rate (C/s)
0.000	108.847	79.996	19.996	102.883	20.094	0.099	0.019
0.500	108.855	80.001	19.993	102.875	20.099	-0.295	-0.017
1.000	108.831	79.976	19.996	102.868	20.093	0.192	-0.022
1.500	108.843	79.983	19.995	102.867	20.095	0.069	-0.014
2.000	108.817	79.985	19.996	102.869	20.091	0.323	-0.013
2.500	108.853	79.993	19.996	102.867	20.094	0.099	-0.002
3.000	108.857	79.996	19.996	102.868	20.095	0.065	0.025
3.500	108.837	80.000	19.995	102.865	20.096	-0.052	0.012
4.000	108.865	79.994	19.995	102.865	20.094	0.104	-0.004
4.500	108.829	79.997	19.996	102.861	20.094	0.114	0.000
5.000	108.854	79.994	19.995	102.859	20.093	0.216	-0.010
5.500	108.861	79.986	19.996	102.859	20.097	-0.091	0.010
6.000	108.816	80.003	19.996	102.863	20.095	0.052	-0.003
6.500	108.821	79.998	19.995	102.864	20.095	0.065	-0.039
7.000	108.859	79.991	19.995	102.871	20.091	0.341	0.001
7.500	108.825	80.000	19.995	102.877	20.097	-0.078	0.023
8.001	108.843	79.999	19.995	102.881	20.094	0.136	-0.006
8.501	108.847	79.995	19.995	102.885	20.093	0.203	0.004
9.000	108.868	80.001	19.995	102.889	20.093	0.183	0.024
9.501	108.829	79.987	19.997	102.887	20.095	0.039	0.003
10.001	108.848	79.997	19.994	102.888	20.094	0.140	-0.019
10.500	108.861	79.992	19.996	102.890	20.089	0.505	0.006
11.000	108.825	79.988	19.996	102.889	20.093	0.157	0.005
11.501	108.827	79.987	19.997	102.884	20.094	0.155	-0.028
12.001	108.812	79.988	19.998	102.885	20.092	0.287	-0.024
12.500	108.814	79.996	19.997	102.884	20.090	0.401	-0.013
13.000	108.828	79.975	19.998	102.885	20.091	0.371	0.001
13.500	108.817	79.996	19.996	102.882	20.089	0.516	0.009
14.000	108.865	79.988	19.994	102.892	20.088	0.556	0.020
14.501	108.866	80.001	19.994	102.899	20.090	0.406	0.043
15.001	108.806	79.968	19.998	102.905	20.086	0.744	-0.005
15.500	108.829	79.993	19.996	102.897	20.088	0.576	-0.048
16.000	108.804	79.967	19.997	102.903	20.090	0.388	-0.020
16.500	108.826	79.992	19.996	102.901	20.089	0.505	-0.002
17.000	108.842	79.986	19.996	102.899	20.089	0.475	0.018
17.500	108.861	79.989	19.995	102.903	20.091	0.330	0.037
18.000	108.871	79.992	19.994	102.916	20.088	0.593	0.032
18.500	108.877	79.996	19.995	102.917	20.091	0.315	0.022
19.000	108.868	79.984	19.995	102.916	20.089	0.483	0.007
19.500	108.874	79.995	19.995	102.911	20.092	0.276	-0.003
20.000	108.899	79.992	19.995	102.904	20.090	0.445	0.014
20.500	108.916	80.003	19.993	102.896	20.087	0.695	0.036
21.000	108.891	79.994	19.994	102.896	20.089	0.501	0.017
21.500	108.876	79.991	19.996	102.898	20.086	0.736	-0.024
22.000	108.910	79.992	19.994	102.900	20.086	0.701	-0.011
22.500	108.903	79.990	19.995	102.902	20.086	0.753	0.023
23.000	108.926	79.991	19.995	102.901	20.089	0.527	0.021
23.500	108.975	79.997	19.993	102.904	20.090	0.436	0.044
24.000	108.950	79.992	19.994	102.909	20.090	0.462	0.048
24.500	108.896	79.982	19.995	102.913	20.089	0.522	-0.027
25.000	108.966	79.998	19.995	102.912	20.089	0.483	-0.032
25.500	108.938	79.991	19.995	102.921	20.087	0.626	0.028
26.000	108.990	80.011	19.994	102.926	20.088	0.546	0.033
26.500	108.998	80.001	19.993	102.923	20.087	0.639	0.042
27.000	109.000	80.006	19.992	102.926	20.086	0.743	0.035
27.500	108.985	79.983	19.995	102.936	20.086	0.743	-0.001
28.000	108.986	79.996	19.995	102.935	20.084	0.900	-0.013
28.500	109.017	80.005	19.994	102.934	20.085	0.823	0.009
29.000	109.043	80.000	19.993	102.935	20.084	0.890	0.044
29.500	109.054	79.998	19.994	102.938	20.085	0.810	0.047
30.000	109.052	79.993	19.997	102.939	20.087	0.624	0.022
30.500	109.077	79.997	19.993	102.945	20.085	0.793	0.016
31.000	109.090	80.000	19.995	102.954	20.085	0.838	0.031
31.500	109.105	80.006	19.994	102.957	20.085	0.844	0.033
32.001	109.141	79.997	19.993	102.957	20.083	0.991	0.040
32.500	109.143	79.995	19.996	102.961	20.085	0.795	0.045
33.000	109.160	79.980	19.997	102.961	20.080	1.171	0.028
33.500	109.177	80.003	19.993	102.954	20.081	1.082	0.026
34.000	109.198	80.000	19.996	102.961	20.081	1.093	0.036
34.500	109.179	79.983	19.995	102.960	20.074	1.644	0.020
35.000	109.224	79.994	19.995	102.954	20.078	1.374	0.014
35.500	109.245	79.970	19.997	102.958	20.078	1.383	0.046
36.000	109.294	79.995	19.996	102.965	20.077	1.446	0.068
36.500	109.327	80.006	19.992	102.972	20.079	1.279	0.076
37.000	109.298	79.999	19.995	102.991	20.079	1.264	0.043
37.500	109.356	80.004	19.993	103.005	20.076	1.543	0.017
38.000	109.388	79.995	19.995	103.016	20.073	1.727	0.060
38.500	109.456	80.002	19.994	103.023	20.068	2.087	0.095
39.000	109.475	80.000	19.996	103.028	20.072	1.832	0.093
39.500	109.478	79.994	19.998	103.029	20.068	2.152	0.055
40.000	109.538	80.005	19.996	103.035	20.068	2.150	0.043
40.500	109.561	79.990	19.997	103.044	20.069	2.020	0.072
41.000	109.563	79.994	19.998	103.048	20.063	2.472	0.054
41.500	109.620	79.978	19.997	103.048	20.068	2.098	0.043
42.000	109.695	79.981	19.995	103.043	20.066	2.301	0.096
42.500	109.765	79.987	19.996	103.042	20.065	2.334	0.138
43.000	109.804	79.993	19.995	103.038	20.065	2.368	0.127
43.500	109.860	79.976	19.997	103.041	20.064	2.426	0.102
44.000	109.913	80.005	19.994	103.041	20.064	2.426	0.102
44.500	110.001	80.010	19.991	103.051	20.064	2.426	0.125
45.000	110.007	79.990	19.994	103.062	20.062	2.578	0.117
45.500	110.064	79.988	19.996	103.070	20.063	2.478	0.078
46.000	110.097	79.986	19.995	103.076	20.060	2.770	0.076
46.501	110.238	80.004	19.992	103.088	20.059	2.789	0.132
47.001	110.207	79.982	19.997	103.098	20.061	2.629	0.143
47.500	110.293	79.984	19.998	103.091	20.059	2.804	0.083
48.000	110.403	80.000	19.993	103.088	20.061	2.698	0.125
48.500	110.431	79.973	19.995	103.097	20.059	2.856	0.167
49.000	110.489	79.990	19.994	103.098	20.062	2.608	0.112
49.500	110.577	80.007	19.992	103.093	20.056	3.029	0.116
50.000	110.662	79.995	19.995	103.100	20.060	2.757	0.159
50.500	110.717	79.990	19.997	103.102	20.055	3.094	0.156
51.000	110.797	80.004	19.995	103.089	20.057	2.971	0.138
51.500	110.910	79.999	19.993	103.090	20.058	2.869	0.164
52.000	110.974	79.996	19.995	103.093	20.055	3.120	0.185
52.500	111.046	79.982	19.995	103.091	20.058	2.915	0.157
53.000	111.132	80.002	19.994	103.093	20.059	2.828	0.147
53.500	111.196	79.982	19.998	103.099	20.054	3.191	0.154
54.000	111.307	79.993	19.994	103.094	20.057	2.952	0.162
54.500	111.380	80.003	19.995	103.090	20.057	3.010	0.179
55.000	111.447	79.991	19.994	103.089	20.058	2.883	0.163
55.500	111.563	79.996	19.994	103.089	20.057	2.980	0.162
56.000	111.685	79.989	19.996	103.086	20.054	3.190	0.211
56.500	111.776	80.009	19.994	103.089	20.058	2.898	0.226
57.001	111.861	79.990	19.996	103.087	20.055	3.099	0.194
57.501	111.940	79.989	19.995	103.082	20.053	3.308	0.170
58.000	112.067	80.003	19.995	103.081	20.055	3.129	0.185
58.500	112.180	79.977	19.997	103.082	20.055	3.148	0.223
59.000	112.265	79.993	19.996	103.079	20.053	3.285	0.219
59.500	112.343	80.006	19.994	103.080	20.053	3.263	0.180
60.000	112.475	79.994	19.995	103.084	20.053	3.248	0.186
60.500	112.554	79.999	19.994	103.086	20.052	3.357	0.211
61.000	112.648	79.992	19.995	103.089	20.055	3.126	0.192
61.500	112.788	79.983	19.996	103.091	20.053	3.249	0.204
62.000	112.849	79.988	19.998	103.090	20.056	3.015	0.218
62.500	113.020	79.988	19.995	103.084	20.055	3.102	0.216
63.000	113.105	79.991	19.994	103.085	20.054	3.225	0.244
63.500	113.220	79.994	19.994	103.085	20.054	3.210	0.228
64.000	113.336	80.002	19.995	103.086	20.056	3.058	0.216
64.501	113.500	79.992	19.995	103.089	20.053	3.255	0.256
65.001	113.574	79.989	19.995	103.099	20.056	3.048	0.259
65.501	113.690	79.992	19.996	103.098	20.055	3.138	0.214
66.000	113.817	79.987	19.996	103.104	20.056	3.013	0.216
66.500	113.968	79.989	19.997	103.107	20.055	3.132	0.260
67.000	114.053	79.991	19.996	103.105	20.053	3.257	0.257
67.500	114.183	79.991	19.995	103.099	20.053	3.251	0.225
68.000	114.326	79.991	19.995	103.097	20.053	3.303	0.244
68.500	114.448	79.993	19.995	103.091	20.053	3.262	0.269
69.000	114.573	80.001	19.996	103.089	20.052	3.387	0.256
69.500	114.708	80.010	19.993	103.097	20.053	3.305	0.254
70.000	114.806	79.997	19.996	103.107	20.054	3.218	0.246
70.500	114.955	79.993	19.997	103.114	20.051	3.411	0.240
71.000	115.091	80.010	19.994	103.119	20.051	3.465	0.266
71.500	115.214	79.990	19.995	103.127	20.053	3.260	0.272
72.000	115.371	79.995	19.994	103.128	20.051	3.446	0.270
72.501	115.499	80.003	19.994	103.126	20.053	3.245	0.283
73.001	115.627	79.993	19.995	103.128	20.050	3.493	0.271
73.500	115.749	79.985	19.996	103.132	20.053	3.301	0.253
74.000	115.880	79.999	19.998	103.129	20.051	3.415	0.252
74.500	116.013	79.984	19.996	103.126	20.051	3.409	0.258
75.000	116.153	79.981	19.998	103.127	20.049	3.581	0.268
75.500	116.294	79.991	19.996	103.124	20.050	3.491	0.277
76.000	116.488	79.991	19.995	103.121	20.050	3.486	0.308
76.500	116.626	79.987	19.996	103.122	20.052	3.337	0.333
77.000	116.779	79.995	19.995	103.125	20.052	3.329	0.312
77.500	116.944	79.985	19.996	103.126	20.050	3.530	0.305
78.001	117.078	79.996	19.994	103.126	20.050	3.476	0.309
78.501	117.216	79.993	19.994	103.128	20.049	3.616	0.286
79.001	117.390	79.992	19.994	103.127	20.048	3.675	0.292
79.500	117.519	79.994	19.995	103.128	20.050	3.536	0.307
80.000	117.676	79.998	19.995	103.128	20.049	3.625	0.294
80.500	117.827	79.995	19.996	103.130	20.047	3.765	0.297
81.000	117.984	79.993	19.995	103.129	20.049	3.567	0.308
81.500	118.132	79.992	19.995	103.130	20.047	3.729	0.306
82.000	118.285	80.006	19.995	103.130	20.048	3.694	0.303
82.500	118.463	79.990	19.995	103.132	20.049	3.556	0.316
83.001	118.655	79.996	19.996	103.131	20.047	3.770	0.351
83.501	118.799	79.993	19.995	103.131	20.050	3.534	0.353
84.000	118.955	79.995	19.994	103.132	20.049	3.610	0.318
84.500	119.094	79.993	19.995	103.130	20.047	3.774	0.297
85.000	119.284	79.997	19.994	103.126	20.046	3.848	0.312
85.500	119.441	79.992	19.995	103.123	20.052	3.344	0.338
86.000	119.599	79.990	19.996	103.123	20.047	3.709	0.331
86.500	119.780	80.006	19.993	103.122	20.049	3.608	0.327
87.000	119.939	79.982	19.996	103.124	20.048	3.671	0.339
87.500	120.121	79.998	19.994	103.124	20.050	3.502	0.341
88.000	120.301	79.996	19.994	103.126	20.047	3.781	0.352
88.501	120.482	79.994	19.994	103.127	20.047	3.759	0.361
89.001	120.657	79.992	19.996	103.128	20.048	3.671	0.359
89.500	120.819	79.994	19.995	103.127	20.047	3.722	0.347
90.000	121.010	80.007	19.993	103.130	20.047	3.778	0.345
90.500	121.182	79.997	19.994	103.132	20.046	3.785	0.358
91.000	121.345	79.992	19.995	103.131	20.045	3.921	0.349
91.500	121.550	79.993	19.996	103.131	20.048	3.647	0.352
92.000	121.733	79.994	19.993	103.131	20.045	3.919	0.378
92.500	121.917	79.994	19.995	103.132	20.046	3.844	0.377
93.000	122.088	79.981	19.996	103.129	20.046	3.786	0.361
93.500	122.252	79.992	19.995	103.134	20.047	3.710	0.345
94.000	122.486	79.990	19.995	103.137	20.049	3.615	0.366
94.500	122.644	79.990	19.995	103.139	20.047	3.777	0.395
95.000	122.840	79.988	19.997	103.142	20.049	3.598	0.373
95.500	123.022	79.994	19.996	103.142	20.044	3.974	0.366
96.000	123.205	79.989	19.995	103.136	20.049	3.570	0.372
96.500	123.391	79.989	19.996	103.135	20.046	3.792	0.367
97.000	123.549	79.988	19.997	103.137	20.046	3.790	0.357
97.500	123.797	80.000	19.994	103.137	20.047	3.722	0.375
98.001	123.961	79.986	19.996	103.148	20.050	3.528	0.409
98.501	124.163	79.993	19.995	103.153	20.046	3.792	0.389
99.001	124.354	79.970	19.999	103.152	20.048	3.649	0.380
99.501	124.568	79.994	19.998	103.145	20.050	3.537	0.399
100.000	124.788	79.990	19.996	103.138	20.049	3.570	0.420
100.500	124.939	79.994	19.996	103.126	20.045	3.924	0.402
101.000	125.153	79.989	19.997	103.127	20.045	3.904	0.368
101.500	125.308	79.995	19.996	103.127	20.045	3.937	0.367
102.000	125.544	79.988	19.995	103.132	20.047	3.724	0.380
102.500	125.704	79.993	19.996	103.141	20.048	3.662	0.393
103.000	125.935	79.993	19.997	103.146	20.048	3.666	0.393
103.500	126.128	79.991	19.996	103.144	20.045	3.884	0.407
104.000	126.329	79.987	19.995	103.149	20.048	3.679	0.409
104.500	126.494	79.990	19.994	103.150	20.042	4.098	0.380
105.000	126.727	79.993	19.995	103.150	20.046	3.830	0.382
105.501	126.934	79.989	19.996	103.153	20.048	3.653	0.419
106.001	127.137	80.004	19.993	103.158	20.044	3.960	0.425
106.500	127.361	79.995	19.996	103.159	20.043	4.064	0.419
107.000	127.540	79.985	19.996	103.156	20.043	4.049	0.415
107.500	127.760	79.992	19.996	103.149	20.043	4.066	0.401
108.000	128.020	79.991	19.995	103.143	20.043	4.018	0.439
108.500	128.213	79.994	19.994	103.136	20.046	3.787	0.466
109.000	128.407	79.986	19.997	103.135	20.045	3.884	0.420
109.501	128.601	79.981	19.996	103.140	20.043	4.070	0.387
110.001	128.813	80.000	19.995	103.147	20.044	4.012	0.397
110.500	129.009	79.992	19.995	103.153	20.043	4.040	0.407
111.000	129.204	79.993	19.997	103.157	20.045	3.900	0.400
111.500	129.485	79.991	19.994	103.150	20.044	3.954	0.433
112.000	129.698	80.001	19.993	103.144	20.045	3.895	0.485
112.500	129.857	79.986	19.995	103.141	20.047	3.766	0.433
113.000	130.092	79.990	19.997	103.133	20.046	3.809	0.383
113.500	130.299	79.992	19.995	103.127	20.044	3.977	0.418
114.000	130.488	79.986	19.996	103.126	20.044	3.984	0.419
114.500	130.693	79.993	19.996	103.124	20.047	3.762	0.395
115.000	130.927	79.994	19.994	103.121	20.045	3.909	0.417
115.501	131.131	79.989	19.995	103.123	20.047	3.758	0.439
116.001	131.356	79.992	19.995	103.128	20.050	3.548	0.433
116.500	131.581	80.003	19.994	103.135	20.045	3.888	0.439
117.000	131.808	79.995	19.996	103.141	20.046	3.788	0.451
117.501	132.030	79.995	19.994	103.141	20.046	3.849	0.451
118.001	132.242	79.997	19.994	103.140	20.046	3.860	0.441
118.501	132.456	79.995	19.995	103.139	20.044	3.961	0.430
119.000	132.681	79.994	19.994	103.134	20.046	3.849	0.433
119.500	132.864	79.992	19.995	103.130	20.046	3.818	0.423
120.000	133.098	79.990	19.996	103.130	20.047	3.710	0.413
120.500	133.308	79.983	19.996	103.130	20.047	3.738	0.431
121.000	133.545	79.993	19.995	103.128	20.045	3.905	0.445
121.500	133.764	79.992	19.994	103.133	20.045	3.903	0.451
122.000	133.984	79.987	19.997	103.133	20.043	4.067	0.448
122.500	134.222	79.994	19.995	103.132	20.046	3.862	0.449
123.001	134.449	79.986	19.996	103.133	20.045	3.925	0.462
123.501	134.660	79.990	19.996	103.134	20.044	3.948	0.451
124.000	134.862	79.989	19.996	103.132	20.043	4.093	0.425
124.500	135.100	79.985	19.996	103.134	20.041	4.202	0.426
125.000	135.345	79.992	19.995	103.142	20.044	3.985	0.462
125.500	135.589	79.993	19.995	103.149	20.046	3.832	0.487
126.000	135.824	79.998	19.995	103.155	20.044	3.977	0.484
126.500	136.012	79.990	19.995	103.158	20.040	4.249	0.451
127.000	136.252	79.996	19.995	103.159	20.041	4.242	0.425
127.501	136.490	79.994	19.994	103.160	20.042	4.138	0.453
128.001	136.714	79.991	19.995	103.160	20.044	4.015	0.470
128.501	136.960	79.992	19.995	103.162	20.043	4.080	0.466
129.000	137.186	79.992	19.995	103.164	20.042	4.106	0.471
129.501	137.441	79.993	19.996	103.166	20.040	4.298	0.476
130.001	137.660	79.994	19.995	103.163	20.041	4.170	0.477
130.500	137.913	79.993	19.995	103.156	20.041	4.192	0.473
131.000	138.189	79.994	19.994	103.154	20.040	4.302	0.501
131.500	138.393	79.992	19.995	103.155	20.041	4.244	0.504
132.000	138.596	79.993	19.995	103.155	20.043	4.073	0.443
132.500	138.827	79.991	19.995	103.159	20.042	4.120	0.421
133.000	139.075	79.993	19.995	103.165	20.041	4.170	0.457
133.500	139.295	79.994	19.995	103.167	20.038	4.427	0.474
134.000	139.538	79.995	19.995	103.166	20.041	4.233	0.465
134.500	139.803	79.993	19.996	103.165	20.039	4.354	0.485
135.000	140.070	79.991	19.995	103.166	20.041	4.189	0.520
135.501	140.300	79.988	19.996	103.172	20.043	4.031	0.514
136.001	140.510	79.997	19.996	103.173	20.046	3.857	0.468
136.500	140.823	79.995	19.995	103.174	20.043	4.092	0.482
137.000	141.049	79.994	19.995	103.176	20.040	4.248	0.531
137.500	141.290	79.992	19.996	103.169	20.043	4.092	0.503
138.000	141.508	79.987	19.997	103.160	20.044	3.993	0.463
138.500	141.757	79.995	19.995	103.160	20.041	4.213	0.463
139.000	142.049	79.994	19.995	103.158	20.040	4.313	0.504
139.500	142.303	79.993	19.995	103.153	20.040	4.254	0.543
140.000	142.501	79.993	19.994	103.150	20.045	3.865	0.499
140.500	142.763	79.994	19.996	103.148	20.045	3.917	0.456
141.000	143.004	79.991	19.996	103.146	20.043	4.032	0.481
141.500	143.257	79.992	19.996	103.141	20.044	3.939	0.499
142.000	143.566	79.994	19.995	103.139	20.043	4.030	0.528
142.500	143.794	79.994	19.995	103.145	20.045	3.911	0.549
143.000	144.024	79.986	19.997	103.144	20.046	3.825	0.498
143.500	144.264	79.991	19.996	103.145	20.040	4.255	0.464
144.000	144.562	79.996	19.995	103.147	20.041	4.175	0.504
144.500	144.825	79.996	19.995	103.145	20.043	4.040	0.550
145.000	145.073	79.995	19.995	103.141	20.045	3.928	0.536
145.500	145.318	79.993	19.995	103.139	20.046	3.852	0.502
146.000	145.546	79.995	19.994	103.136	20.046	3.816	0.483
146.500	145.833	79.995	19.995	103.135	20.045	3.922	0.494
147.000	146.080	79.990	19.996	103.139	20.049	3.595	0.524
147.500	146.321	79.994	19.995	103.140	20.047	3.751	0.510
148.000	146.574	79.993	19.994	103.141	20.045	3.934	0.491
148.500	146.799	79.996	19.994	103.139	20.046	3.822	0.486
149.000	147.057	79.988	19.995	103.137	20.043	4.044	0.481
149.500	147.354	79.993	19.995	103.136	20.045	3.925	0.519
150.000	147.568	79.995	19.996	103.137	20.047	3.770	0.533
150.500	147.831	79.987	19.996	103.136	20.047	3.716	0.494
151.000	148.123	79.993	19.995	103.137	20.045	3.917	0.516
151.501	148.370	79.997	19.995	103.142	20.048	3.668	0.547
152.001	148.597	79.990	19.994	103.145	20.045	3.899	0.507
152.500	148.882	79.993	19.995	103.144	20.048	3.679	0.493
153.000	149.141	79.994	19.994	103.151	20.047	3.739	0.528
153.500	149.417	79.993	19.995	103.156	20.049	3.553	0.539
154.000	149.658	79.993	19.994	103.152	20.049	3.620	0.526
154.500	149.953	79.992	19.996	103.150	20.047	3.761	0.527
155.001	150.178	79.993	19.997	103.149	20.047	3.709	0.529
155.501	150.449	79.994	19.997	103.145	20.047	3.731	0.508
156.000	150.667	79.995	19.996	103.142	20.051	3.465	0.492
156.500	150.925	79.996	19.996	103.144	20.049	3.614	0.482
157.000	151.174	79.998	19.996	103.144	20.051	3.404	0.492
157.500	151.436	80.000	19.994	103.144	20.049	3.584	0.509
158.001	151.710	79.995	19.996	103.145	20.048	3.631	0.523
158.501	151.952	79.994	19.997	103.141	20.047	3.744	0.526
159.000	152.235	79.995	19.997	103.137	20.048	3.705	0.520
159.500	152.428	79.994	19.995	103.134	20.051	3.437	0.501
160.000	152.732	79.994	19.996	103.133	20.050	3.513	0.487
160.500	152.997	79.984	19.997	103.129	20.053	3.271	0.533
161.000	153.288	80.002	19.994	103.128	20.048	3.662	0.562
161.500	153.473	79.991	19.995	103.131	20.049	3.565	0.516
162.001	153.765	79.987	19.996	103.129	20.055	3.150	0.477
162.501	154.012	79.991	19.996	103.128	20.051	3.469	0.508
163.000	154.247	79.988	19.996	103.128	20.050	3.495	0.510
163.500	154.517	80.005	19.993	103.128	20.052	3.354	0.493
164.000	154.767	79.996	19.995	103.125	20.051	3.445	0.512
164.500	155.042	79.999	19.996	103.127	20.050	3.508	0.522
165.000	155.282	79.996	19.996	103.126	20.048	3.653	0.520
165.500	155.516	79.994	19.995	103.127	20.052	3.395	0.495
166.000	155.815	79.999	19.996	103.129	20.047	3.748	0.503
166.500	156.060	79.998	19.994	103.128	20.049	3.614	0.538
167.000	156.312	79.990	19.995	103.129	20.052	3.356	0.521
167.500	156.587	79.997	19.994	103.131	20.048	3.650	0.512
168.000	156.815	79.998	19.995	103.132	20.050	3.550	0.515
168.500	157.044	79.994	19.994	103.129	20.049	3.598	0.480
169.000	157.355	79.997	19.995	103.125	20.051	3.417	0.499
169.500	157.607	79.993	19.994	103.126	20.049	3.609	0.552
170.000	157.876	79.993	19.995	103.125	20.047	3.713	0.542
170.500	158.105	79.990	19.996	103.126	20.050	3.530	0.510
171.000	158.385	80.000	19.996	103.134	20.050	3.540	0.504
171.500	158.664	79.995	19.995	103.143	20.049	3.592	0.534
172.000	158.864	79.993	19.995	103.141	20.049	3.575	0.519
172.501	159.156	79.995	19.995	103.140	20.051	3.430	0.486
173.001	159.405	79.992	19.994	103.136	20.053	3.283	0.516
173.500	159.673	79.995	19.995	103.127	20.053	3.281	0.529
174.000	159.951	79.991	19.995	103.121	20.053	3.313	0.532
174.500	160.191	79.985	19.996	103.119	20.052	3.360	0.532
175.000	160.466	79.993	19.994	103.119	20.049	3.566	0.516
175.500	160.695	79.990	19.995	103.124	20.054	3.233	0.510
176.000	160.954	79.994	19.995	103.126	20.052	3.384	0.496
176.500	161.199	79.996	19.995	103.120	20.050	3.518	0.496
177.000	161.487	79.993	19.995	103.116	20.048	3.685	0.518
177.500	161.727	79.992	19.995	103.114	20.051	3.397	0.530
178.000	161.966	79.993	19.995	103.106	20.051	3.436	0.503
178.500	162.197	79.989	19.995	103.100	20.048	3.631	0.475
179.000	162.477	79.991	19.996	103.104	20.050	3.499	0.491
179.500	162.725	79.992	19.995	103.109	20.050	3.501	0.520
180.000	162.993	79.989	19.995	103.111	20.052	3.369	0.522
180.500	163.243	79.993	19.995	103.115	20.050	3.501	0.517
181.000	163.435	79.993	19.996	103.122	20.052	3.330	0.480
181.500	163.755	79.995	19.995	103.122	20.051	3.436	0.477
182.000	163.965	79.993	19.996	103.123	20.054	3.229	0.521
182.500	164.250	79.991	19.996	103.123	20.052	3.365	0.513
183.000	164.534	79.992	19.995	103.123	20.053	3.274	0.532
183.500	164.758	79.991	19.995	103.124	20.050	3.503	0.539
184.001	165.005	79.991	19.996	103.124	20.054	3.195	0.489
184.501	165.265	79.992	19.997	103.118	20.051	3.454	0.489
185.000	165.526	79.991	19.996	103.114	20.051	3.473	0.514
185.500	165.785	79.990	19.995	103.108	20.053	3.304	0.521
186.001	166.019	79.992	19.996	103.105	20.051	3.423	0.507
186.501	166.354	79.992	19.997	103.099	20.052	3.388	0.531
187.000	166.572	79.991	19.996	103.098	20.051	3.404	0.561
187.500	166.848	79.991	19.997	103.100	20.052	3.332	0.523
188.000	167.081	79.993	19.996	103.106	20.054	3.224	0.501
188.500	167.358	79.993	19.996	103.109	20.058	2.896	0.510
189.000	167.593	79.992	19.997	103.116	20.053	3.246	0.511
189.500	167.835	79.992	19.997	103.117	20.054	3.222	0.494
190.000	168.118	79.991	19.996	103.112	20.054	3.170	0.501
190.500	168.379	79.991	19.996	103.107	20.050	3.505	0.535
191.000	168.611	79.992	19.995	103.101	20.051	3.404	0.519
191.500	168.865	79.992	19.996	103.095	20.053	3.248	0.490
192.000	169.107	79.991	19.996	103.097	20.054	3.226	0.491
192.500	169.421	79.991	19.996	103.100	20.052	3.358	0.525
193.000	169.626	79.990	19.996	103.106	20.053	3.310	0.538
193.500	169.864	79.992	19.996	103.110	20.051	3.427	0.482
194.000	170.136	79.990	19.995	103.114	20.052	3.367	0.477
194.500	170.369	79.992	19.996	103.118	20.051	3.457	0.507
195.000	170.639	79.990	19.995	103.122	20.053	3.254	0.503
195.500	170.883	79.991	19.997	103.117	20.055	3.105	0.508
196.000	171.151	79.993	19.995	103.113	20.051	3.397	0.513
196.501	171.406	79.993	19.995	103.113	20.054	3.213	0.517
197.001	171.666	79.992	19.995	103.109	20.054	3.237	0.519
197.500	171.892	79.992	19.995	103.103	20.054	3.220	0.501
198.000	172.145	79.992	19.995	103.103	20.053	3.310	0.482
198.500	172.414	79.992	19.994	103.104	20.050	3.499	0.501
199.000	172.647	79.993	19.995	103.102	20.053	3.302	0.512
199.500	172.884	79.993	19.994	103.100	20.050	3.529	0.486
200.000	173.122	79.992	19.994	103.102	20.053	3.250	0.473
200.500	173.391	79.992	19.994	103.104	20.050	3.518	0.491
201.000	173.632	79.991	19.994	103.102	20.053	3.284	0.508
201.500	173.882	79.991	19.994	103.104	20.052	3.375	0.500
202.000	174.167	79.992	19.994	103.106	20.052	3.375	0.513
202.500	174.415	79.993	19.993	103.104	20.051	3.410	0.534
203.000	174.651	79.993	19.994	103.103	20.054	3.231	0.508
203.500	174.894	79.992	19.995	103.104	20.052	3.352	0.481
204.000	175.197	79.992	19.994	103.099	20.052	3.356	0.512
204.500	175.416	79.992	19.995	103.097	20.052	3.391	0.534
205.000	175.678	79.993	19.995	103.098	20.050	3.496	0.502
205.500	175.882	79.991	19.995	103.098	20.050	3.481	0.474
206.000	176.162	79.993	19.996	103.096	20.049	3.598	0.475
206.500	176.367	79.990	19.996	103.098	20.052	3.328	0.485
207.000	176.644	79.992	19.994	103.098	20.052	3.366	0.484
207.500	176.878	79.992	19.995	103.097	20.052	3.338	0.496
208.000	177.142	79.992	19.995	103.094	20.051	3.401	0.504
208.500	177.385	79.990	19.995	103.095	20.051	3.444	0.503
209.000	177.635	79.992	19.995	103.097	20.053	3.271	0.500
209.500	177.894	79.990	19.995	103.102	20.052	3.345	0.501
210.000	178.129	79.991	19.995	103.105	20.053	3.261	0.502
210.500	178.407	79.990	19.996	103.105	20.052	3.360	0.503
211.000	178.641	79.993	19.996	103.105	20.053	3.302	0.513
211.500	178.852	79.992	19.997	103.101	20.053	3.317	0.478
212.001	179.088	79.991	19.996	103.097	20.055	3.148	0.446
212.501	179.346	79.993	19.996	103.095	20.055	3.159	0.471
213.001	179.603	79.993	19.996	103.097	20.053	3.263	0.505
213.501	179.832	79.992	19.996	103.100	20.054	3.232	0.501
214.001	180.066	79.993	19.995	103.102	20.049	3.554	0.474
214.501	180.326	79.991	19.996	103.103	20.055	3.142	0.478
215.001	180.601	79.992	19.994	103.103	20.055	3.152	0.514
215.500	180.830	79.991	19.996	103.102	20.052	3.330	0.520
216.001	181.059	79.993	19.995	103.098	20.054	3.232	0.481
216.501	181.326	79.992	19.995	103.095	20.053	3.267	0.477
217.000	181.583	79.993	19.995	103.093	20.053	3.308	0.510
217.501	181.811	79.991	19.996	103.093	20.052	3.338	0.504
218.001	182.086	79.992	19.995	103.092	20.054	3.182	0.494
218.500	182.336	79.992	19.996	103.092	20.052	3.390	0.514
219.000	182.595	79.992	19.995	103.094	20.051	3.455	0.517
219.500	182.797	79.993	19.996	103.095	20.050	3.492	0.485
220.000	183.018	79.994	19.995	103.095	20.049	3.574	0.443
220.500	183.330	79.992	19.995	103.096	20.051	3.451	0.478
221.000	183.526	79.994	19.995	103.095	20.052	3.362	0.520
221.500	183.783	79.996	19.995	103.093	20.051	3.459	0.481
222.000	184.032	79.993	19.996	103.091	20.054	3.237	0.479
222.500	184.265	79.992	19.995	103.089	20.053	3.269	0.494
223.000	184.532	79.995	19.996	103.088	20.053	3.312	0.491
223.500	184.757	79.993	19.995	103.087	20.054	3.202	0.496
224.000	185.042	79.994	19.995	103.086	20.052	3.343	0.501
224.500	185.271	79.993	19.996	103.086	20.051	3.449	0.512
225.001	185.512	79.993	19.995	103.087	20.051	3.459	0.492
225.501	185.775	79.994	19.996	103.088	20.049	3.595	0.487
226.000	186.021	79.993	19.995	103.087	20.050	3.474	0.506
226.500	186.283	79.992	19.996	103.088	20.050	3.520	0.509
227.000	186.522	79.994	19.996	103.089	20.051	3.431	0.505
227.501	186.775	79.994	19.994	103.089	20.048	3.673	0.496
228.001	187.004	79.991	19.994	103.087	20.049	3.606	0.487
228.500	187.251	79.992	19.999	103.082	20.051	3.472	0.479
229.000	187.494	79.994	20.003	103.080	20.050	3.496	0.483
229.500	187.729	79.994	20.002	103.085	20.049	3.609	0.484
230.000	187.976	79.992	20.001	103.088	20.050	3.487	0.480
230.500	188.263	79.994	20.000	103.091	20.051	3.405	0.508
231.000	188.445	79.994	19.999	103.097	20.051	3.448	0.502
231.500	188.704	79.993	19.998	103.098	20.050	3.533	0.455
232.000	188.950	79.995	19.997	103.092	20.050	3.483	0.473
232.500	189.165	79.994	19.997	103.088	20.051	3.448	0.483
233.000	189.366	79.994	19.997	103.087	20.051	3.466	0.439
233.500	189.672	79.993	19.995	103.087	20.048	3.641	0.461
234.000	189.882	79.992	19.996	103.087	20.046	3.837	0.511
234.500	190.134	79.994	19.995	103.090	20.049	3.621	0.489
235.000	190.380	79.994	19.996	103.092	20.051	3.437	0.480
235.500	190.634	79.993	19.996	103.093	20.050	3.487	0.498
236.000	190.892	79.993	19.995	103.092	20.051	3.422	0.506
236.500	191.141	79.992	19.994	103.090	20.054	3.219	0.510
237.000	191.389	79.995	19.995	103.084	20.054	3.204	0.502
237.500	191.622	79.991	19.996	103.083	20.053	3.273	0.489
238.000	191.874	79.993	19.994	103.083	20.053	3.250	0.483
238.500	192.111	79.996	19.997	103.090	20.056	3.059	0.486
239.000	192.330	79.993	19.997	103.094	20.053	3.280	0.472
239.500	192.567	79.993	19.996	103.097	20.054	3.234	0.456
240.000	192.825	79.993	19.996	103.097	20.055	3.113	0.476
240.500	193.064	79.993	19.996	103.097	20.054	3.221	0.496
241.001	193.308	79.994	19.995	103.091	20.052	3.364	0.490
241.501	193.550	79.995	19.995	103.090	20.051	3.402	0.484
242.000	193.763	79.993	19.996	103.090	20.053	3.264	0.470
242.500	194.051	79.993	19.998	103.088	20.054	3.197	0.478
243.000	194.264	79.995	19.998	103.087	20.056	3.077	0.501
243.500	194.495	79.994	19.994	103.086	20.055	3.154	0.473
244.000	194.809	79.995	19.996	103.085	20.054	3.178	0.495
244.500	194.986	79.995	19.995	103.085	20.054	3.193	0.518
245.001	195.235	79.995	19.995	103.081	20.054	3.219	0.459
245.501	195.511	79.994	19.995	103.075	20.053	3.310	0.476
246.000	195.740	79.995	19.996	103.071	20.053	3.256	0.515
246.500	195.982	79.996	19.995	103.070	20.053	3.262	0.488
247.000	196.192	79.995	19.996	103.071	20.054	3.204	0.462
247.500	196.461	79.995	19.998	103.077	20.056	3.031	0.466
248.001	196.671	79.995	19.996	103.082	20.053	3.312	0.479
248.501	196.949	79.992	19.996	103.086	20.052	3.383	0.483
249.000	197.199	79.994	19.996	103.084	20.054	3.182	0.508
249.500	197.460	79.994	19.996	103.083	20.053	3.264	0.519
250.000	197.713	79.995	19.996	103.083	20.053	3.308	0.512
250.500	197.975	79.994	19.996	103.083	20.052	3.371	0.514
251.000	198.169	79.996	19.996	103.079	20.055	3.103	0.486
251.500	198.438	79.994	19.996	103.074	20.055	3.103	0.459
252.000	198.692	79.995	19.996	103.071	20.056	3.055	0.493
252.500	198.925	79.993	19.996	103.068	20.056	3.046	0.505
253.001	199.166	79.993	19.996	103.068	20.056	3.079	0.481
253.501	199.433	79.991	19.995	103.072	20.055	3.135	0.491
254.000	199.648	79.991	19.996	103.079	20.051	3.418	0.495
254.500	199.932	79.992	19.996	103.083	20.055	3.133	0.491
255.000	200.159	79.992	19.996	103.085	20.054	3.241	0.505
255.500	200.352	79.992	19.996	103.085	20.054	3.211	0.466
256.000	200.625	79.991	19.995	103.082	20.053	3.267	0.443
256.500	200.860	79.991	19.995	103.080	20.054	3.196	0.487
257.000	201.120	79.990	19.995	103.076	20.052	3.375	0.502
257.500	201.394	79.990	19.996	103.076	20.056	3.077	0.515
258.000	201.619	79.992	19.996	103.072	20.053	3.273	0.517
258.500	201.848	79.991	19.996	103.068	20.056	3.014	0.477
259.000	202.080	79.991	19.995	103.065	20.055	3.118	0.458
259.500	202.318	79.991	19.995	103.066	20.056	3.040	0.465
260.000	202.561	79.992	19.996	103.068	20.054	3.237	0.475
260.500	202.828	79.992	19.995	103.073	20.055	3.118	0.495
261.000	203.078	79.993	19.996	103.080	20.057	2.988	0.514
261.500	203.277	79.992	19.995	103.086	20.056	3.020	0.483
262.000	203.550	79.992	19.995	103.089	20.053	3.255	0.461
262.500	203.780	79.993	19.995	103.090	20.057	3.009	0.487
263.000	204.019	79.993	19.995	103.084	20.057	2.981	0.486
263.500	204.263	79.991	19.996	103.082	20.057	2.989	0.476
264.000	204.537	79.993	19.995	103.077	20.055	3.104	0.501
264.500	204.777	79.992	19.996	103.077	20.054	3.164	0.517
265.000	205.016	79.993	19.995	103.076	20.056	3.063	0.497
265.500	205.262	79.991	19.995	103.080	20.055	3.141	0.482
266.000	205.483	79.993	19.995	103.082	20.052	3.387	0.476
266.500	205.786	79.992	19.995	103.087	20.054	3.231	0.496
267.000	206.002	79.992	19.995	103.088	20.054	3.204	0.522
267.500	206.225	79.992	19.996	103.088	20.054	3.202	0.479
268.000	206.469	79.992	19.996	103.090	20.055	3.148	0.453
268.500	206.703	79.991	19.996	103.090	20.056	3.051	0.473
269.000	206.968	79.991	19.995	103.091	20.053	3.263	0.488
269.500	207.239	79.992	19.995	103.090	20.056	3.072	0.517
270.000	207.461	79.992	19.995	103.091	20.051	3.416	0.515
270.500	207.700	79.992	19.996	103.089	20.054	3.184	0.478
271.000	207.989	79.992	19.998	103.086	20.052	3.366	0.495
271.500	208.192	79.990	19.996	103.080	20.056	3.016	0.510
272.000	208.445	79.991	19.996	103.074	20.052	3.392	0.473
272.500	208.727	79.993	19.995	103.067	20.055	3.133	0.495
273.000	208.955	79.994	19.996	103.062	20.053	3.249	0.523
273.500	209.190	79.992	19.995	103.057	20.054	3.191	0.486
274.000	209.446	79.994	19.996	103.057	20.054	3.198	0.477
274.500	209.700	79.993	19.996	103.058	20.054	3.215	0.501
275.000	209.906	79.993	19.996	103.058	20.052	3.340	0.485
275.500	210.190	79.991	19.995	103.058	20.052	3.329	0.475
276.000	210.418	79.992	19.997	103.057	20.053	3.243	0.501
276.500	210.646	79.991	19.997	103.057	20.055	3.116	0.484
277.000	210.926	79.993	19.997	103.057	20.056	3.088	0.482
277.500	211.172	79.992	19.997	103.059	20.054	3.241	0.517
278.000	211.375	79.993	19.997	103.065	20.055	3.146	0.488
278.500	211.642	79.990	19.996	103.074	20.054	3.236	0.459
279.000	211.906	79.991	19.996	103.079	20.054	3.176	0.500
279.500	212.119	79.994	19.997	103.084	20.055	3.135	0.504
280.000	212.390	79.991	19.997	103.086	20.053	3.254	0.480
280.500	212.617	79.991	19.996	103.081	20.056	3.049	0.491
281.000	212.854	79.992	19.995	103.075	20.053	3.305	0.481
281.500	213.134	79.992	19.996	103.074	20.054	3.212	0.491
282.000	213.372	79.991	19.995	103.070	20.057	2.942	0.517
282.500	213.578	79.993	19.995	103.069	20.060	2.750	0.481
283.000	213.838	79.991	19.996	103.074	20.052	3.354	0.455
283.500	214.108	79.992	19.995	103.077	20.056	3.082	0.498
284.000	214.322	79.993	19.994	103.077	20.057	2.959	0.507
284.500	214.550	79.993	19.995	103.081	20.055	3.104	0.463
285.000	214.840	79.991	19.995	103.083	20.053	3.242	0.480
285.500	215.074	79.991	19.994	103.084	20.057	2.981	0.521
286.000	215.314	79.991	19.996	103.085	20.053	3.258	0.499
286.500	215.557	79.992	19.995	103.086	20.053	3.284	0.478
287.000	215.803	79.992	19.996	103.085	20.054	3.169	0.486
287.500	216.057	79.990	19.996	103.086	20.057	2.975	0.495
288.000	216.308	79.991	19.996	103.086	20.056	3.012	0.503
288.500	216.546	79.990	19.996	103.082	20.056	3.061	0.497
289.000	216.771	79.992	19.996	103.081	20.057	2.990	0.476
289.500	217.033	79.992	19.996	103.082	20.060	2.776	0.475
290.000	217.295	79.992	19.996	103.083	20.058	2.890	0.506
290.500	217.548	79.992	19.995	103.083	20.059	2.806	0.520
291.000	217.770	79.990	19.997	103.085	20.057	2.970	0.495
291.500	218.048	79.992	19.994	103.083	20.058	2.918	0.487
292.000	218.264	79.991	19.996	103.075	20.058	2.910	0.497
292.500	218.501	79.992	19.995	103.068	20.056	3.039	0.474
293.000	218.776	79.991	19.996	103.064	20.055	3.147	0.483
293.500	219.025	79.991	19.995	103.060	20.055	3.128	0.518
294.000	219.253	79.992	19.995	103.056	20.055	3.093	0.501
294.500	219.550	79.991	19.996	103.056	20.054	3.229	0.501
295.001	219.737	79.992	19.994	103.056	20.055	3.124	0.504
295.501	220.000	79.994	19.994	103.055	20.052	3.394	0.467
296.000	220.279	79.991	19.995	103.057	20.055	3.092	0.496
296.500	220.472	79.991	19.995	103.062	20.054	3.230	0.507
297.000	220.739	79.993	19.995	103.070	20.055	3.124	0.466
297.500	220.990	79.993	19.995	103.077	20.054	3.215	0.489
298.000	221.216	79.994	19.995	103.077	20.053	3.249	0.497
298.500	221.462	79.994	19.995	103.077	20.055	3.113	0.474
299.000	221.701	79.993	19.995	103.079	20.055	3.152	0.479
299.500	221.936	79.993	19.996	103.077	20.054	3.191	0.480
300.000	222.208	79.994	19.995	103.074	20.057	2.960	0.490
300.500	222.469	79.994	19.995	103.073	20.054	3.167	0.519
301.000	222.717	79.993	19.995	103.070	20.055	3.089	0.521
301.500	222.985	79.995	19.994	103.065	20.059	2.813	0.513
302.000	223.241	79.993	19.995	103.065	20.058	2.901	0.520
302.500	223.463	79.994	19.995	103.064	20.054	3.169	0.501
303.000	223.731	79.995	19.996	103.065	20.055	3.102	0.484
303.500	223.963	79.992	19.994	103.066	20.053	3.255	0.495
304.000	224.206	79.993	19.995	103.068	20.053	3.314	0.487
304.500	224.474	79.994	19.996	103.065	20.056	3.061	0.493
305.000	224.710	79.992	19.996	103.061	20.054	3.195	0.508
305.500	224.956	79.994	19.995	103.062	20.057	2.983	0.493
306.000	225.204	79.994	19.995	103.068	20.054	3.229	0.488
306.500	225.459	79.993	19.995	103.071	20.059	2.843	0.499
307.000	225.711	79.994	19.995	103.077	20.059	2.806	0.505
307.500	225.931	79.992	19.995	103.077	20.054	3.177	0.489
308.000	226.204	79.993	19.996	103.075	20.057	2.955	0.482
308.500	226.415	79.990	19.997	103.071	20.057	3.007	0.488
309.000	226.672	79.994	19.997	103.071	20.054	3.206	0.476
309.500	226.907	79.992	19.995	103.070	20.057	2.947	0.480
310.000	227.153	79.995	19.995	103.074	20.057	2.981	0.487
310.501	227.407	79.993	19.995	103.076	20.058	2.931	0.491
311.000	227.667	79.994	19.996	103.075	20.056	3.074	0.507
311.500	227.924	79.992	19.995	103.074	20.059	2.845	0.516
312.000	228.177	79.992	19.995	103.071	20.057	2.985	0.513
312.500	228.407	79.992	19.994	103.067	20.056	3.043	0.496
313.000	228.687	79.993	19.996	103.064	20.057	2.946	0.497
313.500	228.943	79.992	19.996	103.061	20.059	2.821	0.523
314.000	229.170	79.992	19.996	103.061	20.058	2.869	0.510
314.500	229.464	79.993	19.994	103.064	20.059	2.797	0.502
315.000	229.713	79.992	19.995	103.067	20.056	3.037	0.532
315.500	229.934	79.992	19.995	103.067	20.056	3.076	0.507
316.000	230.196	79.993	19.996	103.066	20.054	3.221	0.476
316.500	230.459	79.994	19.994	103.061	20.053	3.257	0.504
317.000	230.669	79.993	19.995	103.056	20.053	3.266	0.499
317.500	230.943	79.994	19.996	103.056	20.059	2.845	0.478
318.000	231.179	79.993	19.996	103.058	20.056	3.028	0.498
318.500	231.410	79.991	19.995	103.060	20.056	3.072	0.489
319.000	231.669	79.994	19.995	103.062	20.057	3.005	0.478
319.500	231.908	79.993	19.995	103.063	20.058	2.877	0.494
320.000	232.178	79.995	19.995	103.067	20.056	3.080	0.504
320.500	232.414	79.995	19.994	103.068	20.058	2.916	0.508
321.000	232.676	79.995	19.994	103.066	20.057	3.002	0.502
321.500	232.951	79.995	19.994	103.066	20.059	2.805	0.518
322.000	233.186	79.995	19.994	103.067	20.057	2.957	0.523
322.501	233.419	79.994	19.994	103.061	20.055	3.088	0.489
323.001	233.708	79.993	19.994	103.058	20.058	2.929	0.495
323.501	233.889	79.994	19.995	103.058	20.055	3.132	0.496
324.001	234.194	79.995	19.995	103.057	20.059	2.821	0.478
324.500	234.433	79.995	19.994	103.053	20.058	2.905	0.515
325.000	234.688	79.994	19.995	103.058	20.060	2.734	0.519
325.500	234.925	79.994	19.995	103.063	20.058	2.931	0.493
326.000	235.183	79.995	19.995	103.063	20.059	2.838	0.494
326.500	235.393	79.995	19.994	103.063	20.059	2.825	0.481
327.000	235.683	79.995	19.995	103.062	20.060	2.739	0.484
327.500	235.940	79.994	19.995	103.055	20.062	2.590	0.523
328.000	236.174	79.995	19.995	103.050	20.059	2.825	0.519
328.500	236.411	79.995	19.994	103.052	20.060	2.739	0.481
329.000	236.659	79.995	19.994	103.059	20.061	2.683	0.478
329.500	236.916	79.994	19.995	103.062	20.059	2.797	0.495
330.000	237.162	79.993	19.995	103.063	20.061	2.679	0.504
330.500	237.429	79.993	19.994	103.063	20.060	2.703	0.508
331.000	237.672	79.992	19.995	103.060	20.060	2.750	0.512
331.500	237.972	79.995	19.995	103.051	20.058	2.871	0.526
332.000	238.212	79.993	19.996	103.043	20.060	2.726	0.541
332.500	238.434	79.991	19.995	103.043	20.060	2.769	0.501
333.000	238.705	79.991	19.994	103.043	20.061	2.698	0.478
333.500	238.890	79.993	19.995	103.045	20.059	2.789	0.474
334.000	239.127	79.992	19.996	103.051	20.060	2.752	0.438
334.500	239.424	79.992	19.995	103.056	20.062	2.564	0.478
335.000	239.681	79.992	19.995	103.056	20.062	2.560	0.544
335.500	239.927	79.991	19.996	103.056	20.060	2.731	0.529
336.000	240.171	79.991	19.996	103.054	20.063	2.532	0.497
336.500	240.409	79.991	19.995	103.051	20.061	2.670	0.486
337.000	240.668	79.991	19.996	103.051	20.061	2.633	0.490
337.500	240.913	79.993	19.996	103.053	20.062	2.598	0.500
338.000	241.151	79.990	19.995	103.059	20.062	2.549	0.493
338.500	241.411	79.991	19.996	103.060	20.059	2.821	0.490
339.000	241.662	79.990	19.997	103.061	20.060	2.711	0.505
339.500	241.945	79.989	19.996	103.063	20.061	2.678	0.522
340.000	242.172	79.991	19.996	103.068	20.057	2.974	0.522
340.500	242.436	79.991	19.995	103.067	20.060	2.732	0.500
341.000	242.716	79.991	19.995	103.069	20.060	2.726	0.517
341.500	242.958	79.991	19.996	103.070	20.058	2.894	0.533
342.000	243.215	79.990	19.997	103.069	20.056	3.011	0.511
342.500	243.486	79.991	19.996	103.063	20.060	2.728	0.513
343.000	243.695	79.992	19.995	103.059	20.061	2.648	0.504
343.500	243.963	79.991	19.996	103.057	20.063	2.507	0.479
344.000	244.208	79.991	19.995	103.057	20.062	2.581	0.495
344.500	244.436	79.991	19.995	103.062	20.064	2.469	0.493
345.000	244.741	79.992	19.997	103.068	20.062	2.549	0.503
345.500	244.964	79.993	19.998	103.070	20.061	2.631	0.530
346.000	245.217	79.992	19.996	103.070	20.061	2.631	0.502
346.500	245.459	79.991	19.996	103.067	20.059	2.831	0.486
347.000	245.772	79.993	19.996	103.061	20.058	2.872	0.525
347.500	245.960	79.991	19.996	103.054	20.060	2.754	0.528
348.000	246.260	79.994	19.995	103.052	20.062	2.613	0.494
348.501	246.528	79.993	19.997	103.051	20.060	2.760	0.528
349.001	246.769	79.991	19.998	103.051	20.060	2.745	0.539
349.500	246.973	79.992	19.996	103.052	20.060	2.736	0.477
350.000	247.250	79.993	19.996	103.052	20.061	2.656	0.463
350.500	247.501	79.992	19.996	103.050	20.058	2.866	0.505
351.000	247.724	79.992	19.996	103.047	20.060	2.741	0.501
351.500	247.983	79.992	19.996	103.046	20.059	2.805	0.478
352.000	248.221	79.993	19.996	103.045	20.059	2.842	0.489
352.500	248.473	79.991	19.995	103.045	20.055	3.160	0.493
353.000	248.744	79.991	19.996	103.046	20.058	2.873	0.506
353.500	248.960	79.992	19.995	103.047	20.059	2.851	0.505
354.000	249.227	79.993	19.996	103.045	20.057	2.998	0.485
354.500	249.492	79.993	19.995	103.045	20.057	2.989	0.507
355.001	249.762	79.992	19.996	103.044	20.057	2.952	0.534
355.500	249.990	79.993	19.995	103.044	20.059	2.836	0.517
356.000	250.266	79.992	19.995	103.046	20.061	2.691	0.501
356.500	250.523	79.992	19.996	103.047	20.058	2.890	0.518
357.000	250.782	79.992	19.996	103.044	20.059	2.816	0.524
357.500	251.025	79.992	19.996	103.042	20.055	3.151	0.509
358.000	251.256	79.991	19.996	103.042	20.054	3.216	0.488
358.500	251.525	79.991	19.995	103.042	20.058	2.927	0.487
359.000	251.754	79.992	19.996	103.042	20.056	3.037	0.499
359.500	252.019	79.992	19.995	103.046	20.057	2.963	0.496
360.000	252.296	79.992	19.997	103.048	20.061	2.665	0.518
360.500	252.509	79.993	19.997	103.046	20.057	2.948	0.516
361.000	252.770	79.989	19.997	103.044	20.058	2.875	0.482
361.500	252.992	79.991	19.996	103.043	20.060	2.756	0.479
362.000	253.266	79.993	19.995	103.042	20.059	2.780	0.489
362.500	253.494	79.991	19.997	103.042	20.059	2.838	0.499
363.000	253.732	79.991	19.996	103.044	20.058	2.914	0.484
363.500	253.997	79.992	19.996	103.046	20.059	2.799	0.485
364.000	254.248	79.990	19.996	103.047	20.057	3.008	0.510
364.500	254.478	79.990	19.997	103.048	20.060	2.764	0.498
365.001	254.752	79.990	19.996	103.048	20.061	2.689	0.492
365.501	254.984	79.991	19.995	103.048	20.062	2.576	0.505
366.000	255.250	79.990	19.997	103.047	20.061	2.650	0.503
366.500	255.516	79.990	19.996	103.046	20.061	2.624	0.516
367.000	255.774	79.991	19.996	103.046	20.063	2.471	0.528
367.500	256.038	79.990	19.995	103.047	20.063	2.501	0.523
368.000	256.289	79.990	19.996	103.048	20.059	2.823	0.518
368.500	256.510	79.991	19.997	103.050	20.061	2.652	0.493
369.000	256.756	79.991	19.996	103.051	20.063	2.521	0.470
369.500	257.010	79.990	19.996	103.052	20.063	2.512	0.483
370.000	257.270	79.992	19.996	103.051	20.064	2.397	0.507
370.500	257.512	79.990	19.997	103.051	20.063	2.499	0.508
371.000	257.779	79.992	19.996	103.050	20.062	2.572	0.505
371.500	257.990	79.993	19.996	103.050	20.062	2.615	0.494
372.000	258.228	79.993	19.995	103.049	20.060	2.752	0.464
372.500	258.474	79.994	19.996	103.048	20.059	2.823	0.466
373.000	258.756	79.992	19.996	103.047	20.062	2.581	0.506
373.500	258.983	79.994	19.996	103.048	20.062	2.611	0.519
374.000	259.265	79.994	19.996	103.047	20.059	2.792	0.509
374.500	259.507	79.993	19.995	103.042	20.061	2.652	0.517
375.000	259.763	79.992	19.995	103.036	20.059	2.827	0.511
375.500	260.002	79.992	19.994	103.036	20.061	2.667	0.497
376.000	260.270	79.993	19.995	103.034	20.061	2.650	0.501
376.500	260.513	79.993	19.995	103.035	20.063	2.477	0.509
377.000	260.696	79.994	19.996	103.041	20.061	2.663	0.468
377.500	260.970	79.994	19.997	103.049	20.059	2.853	0.441
378.000	261.240	79.993	19.996	103.049	20.059	2.806	0.500
378.500	261.459	79.994	19.995	103.051	20.062	2.551	0.516
379.000	261.755	79.994	19.995	103.053	20.063	2.521	0.502
379.500	262.000	79.993	19.995	103.052	20.058	2.894	0.528
380.000	262.243	79.993	19.995	103.050	20.059	2.804	0.515
380.500	262.520	79.994	19.996	103.049	20.062	2.605	0.504
381.000	262.753	79.995	19.997	103.048	20.059	2.786	0.515
381.500	263.009	79.993	19.995	103.044	20.061	2.681	0.499
382.000	263.263	79.993	19.995	103.045	20.063	2.523	0.499
382.500	263.480	79.993	19.996	103.045	20.063	2.538	0.491
383.000	263.747	79.995	19.995	103.045	20.060	2.769	0.478
383.500	263.960	79.993	19.995	103.043	20.060	2.745	0.482
384.000	264.272	79.995	19.995	103.039	20.064	2.430	0.503
384.500	264.488	79.992	19.995	103.034	20.060	2.728	0.527
385.000	264.745	79.993	19.995	103.032	20.062	2.594	0.500
385.500	264.996	79.994	19.995	103.032	20.061	2.648	0.490
386.000	265.229	79.992	19.996	103.035	20.063	2.534	0.496
386.500	265.466	79.993	19.995	103.041	20.058	2.896	0.477
387.000	265.756	79.994	19.995	103.046	20.060	2.762	0.498
387.500	265.982	79.992	19.995	103.050	20.058	2.907	0.521
388.000	266.193	79.994	19.995	103.051	20.059	2.836	0.476
388.500	266.460	79.994	19.996	103.052	20.059	2.795	0.458
389.000	266.716	79.994	19.995	103.053	20.058	2.875	0.500
389.500	267.023	79.993	19.996	103.054	20.057	3.004	0.543
390.000	267.236	79.994	19.996	103.056	20.058	2.898	0.542
390.500	267.509	79.992	19.996	103.057	20.058	2.873	0.503
391.000	267.742	79.992	19.995	103.057	20.059	2.812	0.496
391.500	267.976	79.991	19.996	103.057	20.057	2.940	0.487
392.000	268.232	79.993	19.995	103.058	20.058	2.862	0.478
392.500	268.485	79.993	19.995	103.055	20.062	2.579	0.499
393.000	268.740	79.992	19.996	103.055	20.060	2.771	0.509
393.500	268.973	79.991	19.995	103.055	20.059	2.812	0.498
394.000	269.244	79.993	19.995	103.054	20.059	2.829	0.496
394.500	269.493	79.993	19.996	103.053	20.058	2.924	0.512
395.000	269.704	79.994	19.996	103.052	20.060	2.719	0.490
395.500	269.986	79.994	19.996	103.051	20.062	2.581	0.476
396.000	270.254	79.994	19.996	103.051	20.062	2.557	0.521
396.500	270.520	79.994	19.996	103.051	20.059	2.855	0.542
397.000	270.808	79.993	19.995	103.050	20.063	2.512	0.544
397.500	271.010	79.995	19.996	103.050	20.062	2.551	0.522
398.000	271.271	79.993	19.995	103.049	20.060	2.734	0.477
398.500	271.543	79.992	19.995	103.048	20.062	2.594	0.498
399.000	271.777	79.994	19.995	103.047	20.060	2.760	0.520
399.500	272.063	79.995	19.995	103.048	20.061	2.700	0.513
400.000	272.314	79.994	19.996	103.046	20.062	2.603	0.529
400.500	272.550	79.995	19.995	103.046	20.057	3.002	0.512
401.000	272.806	79.994	19.995	103.048	20.064	2.417	0.489
401.500	273.040	79.994	19.995	103.048	20.059	2.786	0.491
402.000	273.260	79.995	19.994	103.048	20.062	2.613	0.472
402.500	273.501	79.995	19.995	103.050	20.059	2.842	0.458
403.000	273.759	79.994	19.995	103.051	20.061	2.650	0.480
403.500	274.038	79.994	19.994	103.045	20.058	2.890	0.518
404.000	274.260	79.996	19.996	103.040	20.060	2.741	0.519
404.500	274.516	79.994	19.994	103.039	20.058	2.883	0.489
405.000	274.772	79.995	19.995	103.037	20.057	2.996	0.495
405.500	275.035	79.995	19.995	103.032	20.057	2.940	0.515
406.000	275.256	79.995	19.993	103.035	20.057	2.996	0.501
406.500	275.545	79.994	19.994	103.040	20.056	3.071	0.497
407.000	275.816	79.993	19.994	103.040	20.056	3.047	0.535
407.500	276.031	79.995	19.995	103.042	20.058	2.900	0.523
408.001	276.291	79.994	19.995	103.047	20.057	2.935	0.481
408.500	276.546	79.994	19.994	103.044	20.059	2.842	0.495
409.000	276.799	79.994	19.996	103.039	20.060	2.723	0.512
409.500	277.052	79.993	19.996	103.038	20.058	2.861	0.507
410.000	277.309	79.994	19.995	103.041	20.061	2.628	0.507
410.500	277.562	79.994	19.995	103.043	20.057	2.993	0.510
411.000	277.831	79.993	19.995	103.050	20.057	3.008	0.516
411.500	278.061	79.992	19.994	103.055	20.055	3.095	0.511
412.000	278.307	79.993	19.995	103.053	20.058	2.904	0.488
412.500	278.556	79.993	19.996	103.044	20.057	2.937	0.485
413.000	278.775	79.993	19.995	103.037	20.056	3.071	0.482
413.500	279.050	79.992	19.995	103.036	20.058	2.931	0.481
414.000	279.312	79.994	19.995	103.034	20.058	2.922	0.515
414.500	279.567	79.993	19.996	103.037	20.058	2.909	0.527
415.000	279.834	79.994	19.994	103.042	20.057	2.955	0.520
415.500	280.080	79.992	19.996	103.046	20.057	2.980	0.518
416.000	280.303	79.992	19.995	103.047	20.058	2.866	0.491
416.500	280.575	79.993	19.995	103.048	20.056	3.058	0.482
417.000	280.795	79.992	19.995	103.047	20.056	3.015	0.494
417.500	281.066	79.992	19.994	103.047	20.060	2.712	0.491
418.000	281.304	79.992	19.995	103.044	20.057	3.006	0.500
418.500	281.574	79.993	19.995	103.039	20.058	2.879	0.508
419.000	281.786	79.992	19.995	103.038	20.059	2.805	0.495
419.500	282.061	79.992	19.996	103.033	20.060	2.743	0.485
420.000	282.310	79.992	19.995	103.031	20.060	2.777	0.506
420.500	282.548	79.992	19.995	103.033	20.057	2.944	0.505
421.000	282.795	79.993	19.995	103.037	20.058	2.905	0.486
421.500	283.028	79.993	19.995	103.035	20.057	2.959	0.483
422.000	283.312	79.993	19.996	103.040	20.057	2.954	0.499
422.500	283.539	79.993	19.996	103.034	20.058	2.894	0.514
423.000	283.822	79.992	19.996	103.032	20.056	3.082	0.510
423.500	284.087	79.992	19.995	103.033	20.056	3.050	0.529
424.000	284.332	79.993	19.995	103.035	20.053	3.263	0.529
424.500	284.545	79.992	19.995	103.036	20.055	3.129	0.484
425.000	284.804	79.991	19.996	103.043	20.053	3.259	0.465
425.500	285.008	79.992	19.995	103.043	20.055	3.109	0.468
426.000	285.290	79.992	19.995	103.044	20.056	3.064	0.474
426.500	285.580	79.994	19.996	103.041	20.056	3.075	0.529
427.000	285.814	79.994	19.995	103.039	20.056	3.084	0.547
427.500	286.051	79.992	19.996	103.035	20.056	3.056	0.497
428.000	286.299	79.993	19.995	103.031	20.059	2.799	0.478
428.500	286.538	79.993	19.995	103.031	20.056	3.043	0.486
429.000	286.811	79.994	19.996	103.034	20.059	2.818	0.500
429.500	287.046	79.993	19.996	103.037	20.061	2.678	0.510
430.000	287.326	79.992	19.996	103.040	20.059	2.790	0.512
430.500	287.565	79.992	19.996	103.042	20.058	2.902	0.517
431.000	287.792	79.993	19.995	103.040	20.057	2.993	0.493
431.500	288.084	79.994	19.996	103.040	20.057	2.984	0.493
432.000	288.359	79.994	19.995	103.040	20.059	2.824	0.543
432.500	288.584	79.993	19.996	103.040	20.057	2.954	0.534
433.000	288.819	79.992	19.996	103.042	20.058	2.919	0.480
433.500	289.054	79.993	19.997	103.044	20.058	2.889	0.465
434.000	289.315	79.993	19.996	103.044	20.057	2.976	0.483
434.500	289.594	79.992	19.996	103.044	20.059	2.790	0.518
435.000	289.830	79.992	19.996	103.041	20.056	3.023	0.528
435.500	290.071	79.993	19.995	103.037	20.058	2.911	0.496
436.000	290.338	79.994	19.995	103.031	20.062	2.606	0.492
436.500	290.575	79.993	19.996	103.026	20.059	2.818	0.506
437.000	290.865	79.993	19.996	103.020	20.059	2.807	0.516
437.500	291.089	79.993	19.995	103.018	20.058	2.891	0.520
438.000	291.339	79.993	19.996	103.024	20.056	3.047	0.494
438.500	291.594	79.994	19.996	103.029	20.061	2.664	0.489
439.000	291.857	79.992	19.996	103.032	20.057	3.003	0.511
439.500	292.117	79.993	19.996	103.036	20.058	2.859	0.520
440.000	292.310	79.993	19.997	103.036	20.057	2.932	0.488
440.500	292.620	79.992	19.996	103.030	20.059	2.846	0.479
441.000	292.850	79.993	19.995	103.025	20.057	2.978	0.522
441.500	293.099	79.990	19.996	103.025	20.056	3.053	0.509
442.000	293.375	79.991	19.996	103.021	20.057	2.958	0.502
442.500	293.609	79.992	19.995	103.020	20.055	3.120	0.517
443.000	293.885	79.992	19.996	103.023	20.056	3.079	0.510
443.500	294.125	79.991	19.996	103.025	20.057	2.993	0.513
444.000	294.408	79.991	19.996	103.023	20.056	3.016	0.520
444.500	294.609	79.991	19.996	103.025	20.056	3.040	0.504
445.000	294.886	79.990	19.996	103.028	20.056	3.049	0.481
445.500	295.117	79.990	19.996	103.026	20.055	3.148	0.493
446.000	295.349	79.992	19.996	103.023	20.054	3.181	0.485
446.500	295.617	79.990	19.996	103.019	20.055	3.114	0.481
447.000	295.872	79.991	19.996	103.019	20.057	2.989	0.512
447.500	296.140	79.991	19.996	103.020	20.056	3.043	0.523
448.000	296.340	79.991	19.996	103.020	20.056	3.017	0.495
448.500	296.622	79.991	19.997	103.021	20.057	2.969	0.475
449.001	296.867	79.991	19.995	103.021	20.053	3.317	0.504
449.501	297.110	79.991	19.997	103.019	20.055	3.159	0.507
450.000	297.376	79.991	19.996	103.014	20.055	3.116	0.498
450.500	297.656	79.991	19.996	103.012	20.056	3.038	0.527
451.000	297.890	79.990	19.996	103.013	20.055	3.097	0.530
451.500	298.147	79.992	19.996	103.018	20.057	2.971	0.503
452.000	298.413	79.992	19.996	103.020	20.055	3.109	0.507
452.500	298.641	79.992	19.997	103.021	20.054	3.237	0.508
453.000	298.903	79.992	19.996	103.021	20.056	3.084	0.492
453.500	299.137	79.992	19.996	103.021	20.052	3.328	0.493
454.000	299.396	79.991	19.996	103.017	20.060	2.764	0.494
454.500	299.613	79.993	19.997	103.016	20.054	3.220	0.485
455.000	299.868	79.994	19.996	103.016	20.054	3.200	0.474
455.500	300.103	79.992	19.997	103.016	20.055	3.151	0.481
456.000	300.361	79.993	19.996	103.020	20.055	3.106	0.492
456.500	300.621	79.994	19.995	103.026	20.054	3.214	0.506
457.000	300.845	79.992	19.996	103.033	20.054	3.199	0.501
457.500	301.101	79.992	19.995	103.039	20.054	3.164	0.482
458.000	301.346	79.994	19.996	103.039	20.055	3.097	0.490
458.500	301.611	79.993	19.995	103.033	20.055	3.095	0.505
459.000	301.855	79.994	19.996	103.026	20.056	3.078	0.510
459.501	302.106	79.994	19.996	103.020	20.053	3.296	0.502
460.001	302.360	79.993	19.995	103.020	20.054	3.172	0.500
460.500	302.583	79.992	19.995	103.023	20.057	3.006	0.491
461.000	302.887	79.993	19.996	103.025	20.055	3.133	0.502
461.500	303.076	79.993	19.995	103.026	20.056	3.056	0.510
462.000	303.405	79.993	19.995	103.029	20.057	2.937	0.505
462.500	303.632	79.993	19.995	103.026	20.058	2.922	0.537
463.000	303.816	79.991	19.994	103.024	20.058	2.903	0.484
463.500	304.106	79.993	19.995	103.028	20.056	3.063	0.442
464.000	304.387	79.991	19.997	103.032	20.058	2.920	0.522
464.500	304.639	79.994	19.994	103.027	20.057	2.983	0.552
465.000	304.846	79.993	19.995	103.024	20.056	3.069	0.496
465.500	305.123	79.992	19.995	103.029	20.054	3.192	0.472
466.000	305.342	79.993	19.994	103.031	20.055	3.105	0.490
466.500	305.604	79.993	19.994	103.033	20.055	3.099	0.489
467.000	305.850	79.993	19.995	103.041	20.053	3.263	0.495
467.500	306.113	79.991	19.996	103.048	20.052	3.362	0.509
468.000	306.397	79.993	19.995	103.047	20.054	3.215	0.528
468.500	306.633	79.992	19.995	103.047	20.054	3.172	0.534
469.000	306.849	79.993	19.996	103.047	20.054	3.220	0.486
469.500	307.107	79.993	19.995	103.046	20.054	3.213	0.463
470.000	307.395	79.992	19.995	103.043	20.053	3.289	0.510
470.500	307.603	79.992	19.995	103.039	20.055	3.155	0.521
471.000	307.872	79.992	19.996	103.036	20.052	3.343	0.487
471.500	308.134	79.992	19.994	103.034	20.054	3.216	0.504
472.000	308.379	79.993	19.994	103.030	20.053	3.265	0.519
472.500	308.659	79.994	19.996	103.033	20.056	3.017	0.516
473.000	308.898	79.994	19.995	103.039	20.056	3.081	0.522
473.500	309.162	79.993	19.996	103.043	20.053	3.280	0.511
474.000	309.405	79.992	19.996	103.043	20.053	3.256	0.505
474.500	309.673	79.993	19.995	103.047	20.056	3.066	0.509
475.000	309.911	79.994	19.995	103.046	20.054	3.185	0.508
475.500	310.188	79.994	19.995	103.041	20.053	3.245	0.510
476.000	310.420	79.994	19.996	103.035	20.053	3.269	0.512
476.500	310.679	79.993	19.995	103.029	20.054	3.187	0.500
477.000	310.930	79.994	19.995	103.022	20.053	3.244	0.500
477.500	311.210	79.993	19.996	103.021	20.054	3.235	0.520
478.000	311.429	79.994	19.995	103.023	20.053	3.259	0.515
478.500	311.689	79.994	19.996	103.025	20.055	3.147	0.489
479.000	311.990	79.994	19.994	103.027	20.054	3.231	0.520
479.500	312.190	79.994	19.995	103.027	20.053	3.296	0.531
480.000	312.500	79.994	19.995	103.024	20.055	3.162	0.506
480.500	312.748	79.994	19.995	103.025	20.051	3.403	0.534
481.000	312.949	79.995	19.995	103.029	20.054	3.189	0.504
481.500	313.219	79.994	19.995	103.033	20.051	3.433	0.460
482.000	313.495	79.995	19.995	103.038	20.053	3.241	0.508
482.500	313.749	79.994	19.996	103.039	20.052	3.362	0.538
483.000	313.981	79.995	19.995	103.035	20.054	3.215	0.508
483.500	314.269	79.994	19.995	103.031	20.056	3.055	0.503
484.000	314.482	79.993	19.996	103.023	20.055	3.118	0.510
484.500	314.775	79.996	19.995	103.018	20.053	3.295	0.504
485.000	315.001	79.995	19.996	103.015	20.053	3.261	0.513
485.501	315.257	79.994	19.996	103.014	20.052	3.384	0.501
486.000	315.519	79.994	19.995	103.012	20.052	3.336	0.500
486.500	315.764	79.993	19.995	103.017	20.050	3.494	0.512
487.000	316.005	79.995	19.995	103.023	20.053	3.284	0.496
487.500	316.241	79.994	19.995	103.030	20.055	3.159	0.481
488.000	316.534	79.995	19.995	103.036	20.048	3.656	0.503
488.500	316.821	79.994	19.995	103.043	20.052	3.377	0.555
489.000	317.038	79.994	19.995	103.046	20.052	3.366	0.542
489.500	317.284	79.994	19.995	103.048	20.053	3.302	0.484
490.000	317.520	79.993	19.996	103.048	20.051	3.418	0.472
490.500	317.800	79.992	19.993	103.046	20.051	3.410	0.499
491.000	318.047	79.993	19.995	103.041	20.053	3.265	0.522
491.500	318.329	79.993	19.996	103.036	20.053	3.284	0.529
492.000	318.589	79.992	19.995	103.029	20.049	3.580	0.535
492.500	318.820	79.994	19.994	103.022	20.052	3.334	0.516
493.000	319.043	79.994	19.997	103.016	20.051	3.446	0.473
493.500	319.289	79.993	19.994	103.016	20.050	3.524	0.461
494.000	319.520	79.993	19.995	103.020	20.049	3.574	0.473
494.500	319.784	79.993	19.995	103.022	20.052	3.328	0.486
495.000	320.039	79.993	19.994	103.022	20.050	3.505	0.507
495.500	320.289	79.993	19.995	103.024	20.052	3.390	0.512
496.000	320.545	79.993	19.995	103.025	20.050	3.496	0.505
496.500	320.805	79.993	19.995	103.020	20.050	3.504	0.511
497.000	321.052	79.993	19.995	103.022	20.049	3.584	0.512
497.500	321.340	79.993	19.995	103.026	20.051	3.450	0.521
498.000	321.573	79.993	19.996	103.026	20.049	3.576	0.528
498.500	321.837	79.995	19.995	103.029	20.051	3.401	0.509
499.000	322.095	79.992	19.995	103.029	20.050	3.509	0.509
499.500	322.317	79.992	19.994	103.025	20.050	3.546	0.501
500.000	322.610	79.993	19.994	103.024	20.049	3.556	0.498
500.500	322.842	79.993	19.995	103.022	20.049	3.610	0.520
501.000	323.088	79.993	19.995	103.024	20.047	3.703	0.501
501.500	323.347	79.994	19.995	103.027	20.049	3.556	0.491
502.000	323.570	79.992	19.996	103.028	20.046	3.804	0.493
502.500	323.831	79.993	19.995	103.026	20.049	3.599	0.483
503.000	324.125	79.993	19.995	103.025	20.046	3.785	0.520
503.500	324.286	79.992	19.995	103.018	20.048	3.636	0.505
504.000	324.599	79.993	19.995	103.014	20.045	3.884	0.465
504.500	324.787	79.992	19.995	103.015	20.045	3.895	0.488
505.000	325.110	79.993	19.994	103.023	20.044	3.967	0.506
505.500	325.357	79.991	19.995	103.027	20.048	3.651	0.541
506.000	325.608	79.992	19.995	103.027	20.046	3.837	0.534
506.500	325.849	79.994	19.996	103.026	20.048	3.671	0.495
507.000	326.095	79.993	19.996	103.023	20.045	3.859	0.489
507.500	326.402	79.993	19.997	103.015	20.044	3.954	0.519
508.000	326.612	79.991	19.996	103.011	20.046	3.833	0.535
508.500	326.887	79.992	19.995	103.015	20.047	3.773	0.502
509.000	327.134	79.993	19.996	103.022	20.043	4.023	0.504
509.500	327.384	79.993	19.995	103.024	20.042	4.138	0.509
510.000	327.630	79.992	19.995	103.025	20.042	4.148	0.496
510.500	327.876	79.993	19.995	103.025	20.045	3.867	0.494
511.000	328.107	79.992	19.995	103.022	20.041	4.219	0.485
511.500	328.369	79.993	19.995	103.016	20.043	4.085	0.485
512.000	328.618	79.992	19.995	103.014	20.043	4.055	0.502
512.500	328.871	79.993	19.995	103.013	20.044	3.979	0.506
513.000	329.119	79.992	19.996	103.013	20.040	4.266	0.502
513.500	329.391	79.991	19.996	103.013	20.044	3.990	0.510
514.000	329.605	79.993	19.995	103.014	20.043	4.064	0.503
514.500	329.869	79.993	19.997	103.018	20.041	4.204	0.483
515.000	330.128	79.992	19.997	103.018	20.042	4.156	0.501
515.500	330.387	79.994	19.995	103.019	20.041	4.217	0.520
516.000	330.604	79.993	19.997	103.020	20.041	4.191	0.497
516.500	330.866	79.992	19.996	103.019	20.041	4.181	0.478
517.000	331.128	79.994	19.996	103.019	20.041	4.198	0.501
517.500	331.372	79.992	19.997	103.021	20.042	4.094	0.515
518.000	331.614	79.991	19.996	103.023	20.043	4.075	0.496
518.500	331.858	79.992	19.996	103.030	20.040	4.271	0.486
519.000	332.119	79.992	19.996	103.036	20.039	4.349	0.495
519.500	332.386	79.992	19.996	103.036	20.039	4.364	0.517
520.000	332.643	79.991	19.996	103.036	20.040	4.271	0.526
520.500	332.882	79.991	19.996	103.035	20.037	4.485	0.510
521.000	333.155	79.993	19.994	103.028	20.039	4.351	0.504
521.500	333.411	79.991	19.995	103.024	20.038	4.446	0.520
522.000	333.649	79.991	19.996	103.020	20.040	4.275	0.511
522.500	333.915	79.990	19.996	103.018	20.037	4.530	0.499
523.000	334.141	79.991	19.995	103.017	20.037	4.500	0.498
523.500	334.443	79.992	19.996	103.017	20.036	4.562	0.510
524.000	334.657	79.991	19.996	103.016	20.036	4.567	0.522
524.500	334.950	79.991	19.994	103.017	20.041	4.228	0.511
525.000	335.158	79.991	19.994	103.016	20.035	4.645	0.504
525.500	335.436	79.991	19.995	103.016	20.038	4.425	0.494
526.000	335.666	79.991	19.997	103.017	20.038	4.412	0.497
526.500	335.926	79.991	19.995	103.019	20.037	4.476	0.499
527.000	336.174	79.990	19.995	103.026	20.037	4.513	0.499
527.500	336.406	79.992	19.995	103.031	20.036	4.623	0.494
528.000	336.659	79.991	19.996	103.033	20.038	4.441	0.482
528.500	336.895	79.990	19.995	103.033	20.035	4.700	0.487
529.001	337.191	79.991	19.996	103.030	20.033	4.782	0.511
529.501	337.431	79.991	19.996	103.024	20.036	4.551	0.534
530.001	337.664	79.990	19.996	103.019	20.036	4.620	0.504
530.500	337.954	79.991	19.996	103.020	20.034	4.758	0.498
531.000	338.197	79.992	19.996	103.020	20.033	4.786	0.528
531.500	338.443	79.991	19.996	103.019	20.035	4.674	0.511
532.000	338.673	79.992	19.996	103.018	20.035	4.694	0.483
532.500	338.921	79.991	19.995	103.018	20.033	4.852	0.477
533.000	339.207	79.991	19.996	103.017	20.032	4.917	0.506
533.500	339.434	79.993	19.996	103.017	20.033	4.837	0.524
534.000	339.674	79.993	19.997	103.017	20.032	4.919	0.490
534.500	339.919	79.994	19.996	103.017	20.032	4.886	0.476
535.001	340.191	79.993	19.995	103.020	20.031	5.003	0.501
535.501	340.419	79.994	19.997	103.022	20.028	5.216	0.508
536.000	340.714	79.993	19.996	103.022	20.026	5.387	0.512
536.500	340.961	79.994	19.994	103.026	20.024	5.497	0.532
537.000	341.160	79.992	19.995	103.028	20.028	5.242	0.494
537.500	341.428	79.993	19.996	103.024	20.024	5.501	0.456
538.000	341.702	79.993	19.996	103.019	20.027	5.286	0.505
538.500	341.903	79.994	19.996	103.016	20.027	5.312	0.509
539.000	342.165	79.993	19.995	103.010	20.026	5.385	0.469
539.500	342.452	79.994	19.996	103.007	20.028	5.213	0.506
540.000	342.655	79.993	19.995	103.007	20.025	5.433	0.519
540.500	342.930	79.994	19.996	103.008	20.026	5.396	0.484
541.000	343.155	79.994	19.996	103.009	20.026	5.381	0.489
541.500	343.438	79.993	19.996	103.008	20.024	5.526	0.504
542.000	343.664	79.993	19.997	103.008	20.024	5.523	0.509
542.500	343.919	79.992	19.997	103.008	20.026	5.335	0.495
543.000	344.164	79.993	19.996	103.012	20.021	5.707	0.490
543.500	344.399	79.993	19.997	103.020	20.021	5.743	0.491
544.001	344.659	79.993	19.996	103.023	20.020	5.787	0.487
544.501	344.909	79.994	19.998	103.024	20.021	5.737	0.502
545.000	345.155	79.992	19.998	103.023	20.021	5.741	0.503
545.500	345.400	79.993	19.996	103.020	20.019	5.884	0.494
546.000	345.626	79.994	19.996	103.013	20.020	5.799	0.481
546.500	345.907	79.993	19.997	103.010	20.019	5.896	0.488
547.001	346.131	79.993	19.997	103.009	20.018	5.983	0.506
547.500	346.430	79.992	19.996	103.013	20.022	5.698	0.515
548.000	346.660	79.992	19.996	103.013	20.018	5.987	0.526
548.500	346.915	79.992	19.996	103.013	20.020	5.799	0.507
549.000	347.160	79.992	19.996	103.018	20.018	6.004	0.493
549.500	347.379	79.994	19.995	103.022	20.018	5.983	0.482
550.000	347.648	79.995	19.995	103.021	20.018	5.963	0.476
550.500	347.906	79.991	19.995	103.027	20.017	6.076	0.507
551.000	348.164	79.994	19.996	103.028	20.016	6.151	0.521
551.500	348.397	79.993	19.994	103.029	20.018	5.972	0.503
552.000	348.659	79.992	19.995	103.027	20.014	6.289	0.493
552.500	348.930	79.995	19.996	103.026	20.012	6.475	0.514
553.000	349.199	79.993	19.995	103.020	20.014	6.278	0.537
553.500	349.429	79.994	19.996	103.019	20.012	6.475	0.520
554.000	349.694	79.993	19.995	103.014	20.012	6.410	0.496
554.500	349.946	79.994	19.995	103.016	20.008	6.740	0.506
555.000	350.214	79.994	19.995	103.017	20.008	6.721	0.519
555.500	350.423	79.993	19.995	103.017	20.009	6.694	0.498
556.000	350.701	79.994	19.995	103.015	20.012	6.420	0.482
556.500	350.963	79.995	19.996	103.015	20.008	6.725	0.514
557.000	351.206	79.995	19.996	103.010	20.009	6.695	0.523
557.500	351.463	79.995	19.995	103.010	20.006	6.902	0.502
558.000	351.683	79.995	19.995	103.009	20.006	6.904	0.489
558.500	351.946	79.994	19.996	103.009	20.005	6.956	0.480
559.000	352.199	79.995	19.995	103.009	20.002	7.213	0.499
559.500	352.452	79.995	19.995	103.009	20.006	6.880	0.511
560.000	352.681	79.996	19.995	103.008	20.004	7.027	0.494
560.500	352.977	79.996	19.995	103.009	20.004	7.036	0.503
561.000	353.260	79.994	19.996	103.012	20.004	7.066	0.552
561.500	353.492	79.996	19.996	103.013	20.003	7.135	0.547
562.000	353.760	79.995	19.994	103.013	20.001	7.252	0.507
562.500	354.033	79.996	19.994	103.013	20.003	7.154	0.521
563.000	354.266	79.995	19.995	103.012	19.998	7.484	0.524
563.500	354.493	79.996	19.994	103.009	19.999	7.441	0.483
564.000	354.770	79.996	19.994	103.008	19.999	7.416	0.482
564.500	355.016	79.995	19.996	103.008	19.996	7.649	0.513
565.000	355.273	79.996	19.995	103.008	19.997	7.610	0.513
565.500	355.492	79.995	19.995	103.009	19.999	7.471	0.490
566.000	355.762	79.994	19.995	103.017	19.997	7.622	0.482
566.500	356.003	79.995	19.996	103.024	19.995	7.760	0.500
567.000	356.257	79.995	19.996	103.030	19.997	7.630	0.503
567.500	356.516	79.994	19.995	103.035	19.993	7.868	0.504
568.000	356.775	79.995	19.996	103.041	19.996	7.684	0.515
568.501	357.035	79.993	19.995	103.040	19.992	7.995	0.519
569.000	357.268	79.994	19.995	103.038	19.991	8.087	0.506
569.500	357.578	79.993	19.995	103.035	19.992	7.977	0.518
570.000	357.793	79.993	19.996	103.036	19.991	8.091	0.534
570.500	358.048	79.991	19.995	103.034	19.991	8.032	0.497
571.000	358.301	79.992	19.996	103.035	19.987	8.349	0.489
571.500	358.551	79.991	19.996	103.036	19.987	8.336	0.506
572.000	358.766	79.993	19.995	103.036	19.987	8.375	0.484
572.500	359.047	79.993	19.996	103.033	19.984	8.601	0.480
573.000	359.277	79.991	19.996	103.034	19.986	8.474	0.504
573.500	359.542	79.992	19.995	103.031	19.984	8.595	0.503
574.000	359.812	79.992	19.994	103.025	19.983	8.671	0.515
574.500	360.049	79.991	19.995	103.026	19.981	8.824	0.521
575.000	360.334	79.991	19.995	103.031	19.981	8.795	0.514
575.500	360.556	79.991	19.996	103.033	19.981	8.796	0.514
576.000	360.840	79.991	19.994	103.037	19.981	8.794	0.506
576.500	361.080	79.992	19.995	103.044	19.980	8.895	0.515
577.000	361.365	79.993	19.995	103.046	19.975	9.267	0.525
577.500	361.618	79.992	19.995	103.042	19.981	8.856	0.531
578.000	361.866	79.992	19.994	103.039	19.980	8.940	0.519
578.500	362.119	79.993	19.995	103.039	19.975	9.294	0.501
579.000	362.360	79.992	19.995	103.039	19.975	9.264	0.497
579.500	362.630	79.991	19.996	103.036	19.973	9.478	0.503
580.000	362.901	79.992	19.996	103.032	19.973	9.421	0.526
580.500	363.126	79.993	19.995	103.027	19.971	9.607	0.518
581.000	363.406	79.992	19.995	103.020	19.970	9.702	0.501
581.500	363.638	79.993	19.996	103.010	19.968	9.810	0.509
582.000	363.898	79.991	19.994	103.007	19.966	10.022	0.502
582.500	364.103	79.991	19.994	103.007	19.966	10.020	0.478
583.000	364.393	79.992	19.995	103.007	19.964	10.168	0.480
583.500	364.652	79.992	19.996	103.007	19.962	10.300	0.522
584.000	364.871	79.993	19.995	103.007	19.963	10.243	0.514
584.500	365.138	79.991	19.996	103.008	19.960	10.457	0.482
585.000	365.375	79.993	19.996	103.009	19.961	10.359	0.495
585.500	365.660	79.992	19.995	103.017	19.960	10.484	0.513
586.001	365.921	79.992	19.995	103.025	19.957	10.677	0.534
586.501	366.147	79.991	19.995	103.032	19.957	10.683	0.517
587.000	366.396	79.992	19.996	103.035	19.954	10.911	0.481
587.500	366.666	79.992	19.996	103.038	19.954	10.935	0.497
588.000	366.935	79.993	19.994	103.035	19.953	10.977	0.528
588.500	367.197	79.992	19.996	103.028	19.953	10.955	0.535
589.000	367.469	79.993	19.995	103.027	19.950	11.192	0.533
589.500	367.698	79.992	19.995	103.028	19.950	11.229	0.518
590.000	367.944	79.993	19.996	103.030	19.948	11.346	0.488
590.500	368.214	79.994	19.995	103.028	19.946	11.527	0.495
591.000	368.491	79.990	19.995	103.028	19.947	11.477	0.532
591.500	368.759	79.992	19.996	103.027	19.944	11.691	0.546
592.000	368.994	79.992	19.996	103.027	19.946	11.540	0.524
592.500	369.245	79.992	19.995	103.026	19.943	11.777	0.495
593.000	369.501	79.991	19.996	103.028	19.940	12.001	0.497
593.500	369.753	79.993	19.994	103.034	19.938	12.117	0.507
594.000	369.989	79.993	19.995	103.039	19.939	12.050	0.498
594.500	370.244	79.992	19.994	103.042	19.935	12.342	0.489
595.000	370.487	79.993	19.996	103.039	19.937	12.236	0.494
595.500	370.751	79.992	19.996	103.035	19.937	12.245	0.502
596.000	371.016	79.993	19.996	103.032	19.930	12.725	0.518
596.500	371.237	79.992	19.995	103.032	19.934	12.421	0.507
597.000	371.494	79.990	19.996	103.033	19.932	12.626	0.482
597.500	371.722	79.991	19.996	103.036	19.932	12.593	0.482
598.000	372.021	79.991	19.995	103.043	19.928	12.939	0.506
598.500	372.274	79.991	19.997	103.042	19.928	12.941	0.539
599.000	372.495	79.992	19.996	103.035	19.927	13.014	0.513
599.500	372.760	79.991	19.996	103.031	19.922	13.367	0.480
600.000	373.005	79.992	19.996	103.028	19.925	13.147	0.498
600.500	373.275	79.992	19.997	103.027	19.922	13.371	0.512
601.000	373.560	79.992	19.996	103.028	19.923	13.278	0.535
601.500	373.842	79.992	19.995	103.030	19.919	13.572	0.561
602.000	374.036	79.992	19.996	103.028	19.918	13.712	0.522
602.500	374.294	79.991	19.996	103.031	19.915	13.916	0.464
603.000	374.526	79.993	19.996	103.027	19.917	13.772	0.471
603.500	374.833	79.992	19.995	103.022	19.912	14.172	0.515
604.000	375.088	79.992	19.996	103.021	19.913	14.080	0.551
604.500	375.300	79.992	19.996	103.019	19.910	14.302	0.515
605.000	375.547	79.991	19.996	103.013	19.906	14.607	0.464
605.500	375.792	79.992	19.996	103.017	19.906	14.627	0.475
606.000	376.072	79.991	19.997	103.019	19.905	14.694	0.508
606.500	376.314	79.989	19.997	103.020	19.902	14.958	0.523
607.000	376.568	79.993	19.996	103.024	19.900	15.074	0.509
607.500	376.806	79.992	19.996	103.030	19.900	15.066	0.494
608.000	377.060	79.993	19.995	103.027	19.899	15.114	0.492
608.500	377.305	79.993	19.995	103.025	19.897	15.337	0.496
609.000	377.605	79.992	19.996	103.028	19.896	15.412	0.523
609.500	377.813	79.994	19.996	103.029	19.896	15.388	0.527
610.000	378.059	79.991	19.996	103.026	19.894	15.528	0.481
610.500	378.302	79.993	19.996	103.028	19.893	15.625	0.471
611.000	378.553	79.994	19.996	103.031	19.890	15.828	0.492
611.500	378.812	79.992	19.996	103.030	19.887	16.049	0.502
612.000	379.064	79.994	19.995	103.028	19.884	16.313	0.511
612.500	379.338	79.994	19.995	103.026	19.886	16.143	0.518
613.000	379.569	79.993	19.996	103.024	19.880	16.605	0.516
613.500	379.832	79.995	19.995	103.022	19.877	16.854	0.500
614.000	380.068	79.994	19.995	103.023	19.875	16.981	0.496
614.500	380.359	79.995	19.995	103.025	19.878	16.784	0.512
615.000	380.580	79.994	19.996	103.030	19.873	17.170	0.520
615.500	380.848	79.995	19.995	103.033	19.871	17.299	0.501
616.000	381.099	79.995	19.996	103.035	19.873	17.174	0.504
616.500	381.332	79.994	19.996	103.036	19.872	17.267	0.501
617.000	381.610	79.996	19.995	103.038	19.866	17.692	0.497
617.500	381.820	79.995	19.996	103.039	19.865	17.744	0.499
618.000	382.105	79.994	19.996	103.041	19.864	17.871	0.491
618.500	382.328	79.993	19.996	103.044	19.862	18.001	0.502
619.000	382.598	79.995	19.995	103.047	19.862	18.038	0.501
619.500	382.836	79.994	19.995	103.046	19.859	18.216	0.501
620.000	383.081	79.994	19.996	103.046	19.856	18.441	0.495
620.500	383.356	79.994	19.995	103.042	19.856	18.456	0.501
621.000	383.604	79.995	19.995	103.042	19.851	18.821	0.522
621.500	383.840	79.994	19.996	103.041	19.848	19.080	0.503
622.000	384.123	79.995	19.997	103.042	19.851	18.883	0.501
622.500	384.339	79.993	19.995	103.042	19.848	19.103	0.509
623.000	384.592	79.994	19.997	103.047	19.844	19.371	0.484
623.500	384.887	79.995	19.995	103.052	19.840	19.715	0.509
624.000	385.141	79.994	19.995	103.052	19.840	19.678	0.548
624.500	385.353	79.994	19.996	103.053	19.838	19.827	0.507
625.000	385.603	79.994	19.997	103.050	19.837	19.899	0.464
625.500	385.857	79.993	19.996	103.048	19.836	20.045	0.483
626.000	386.089	79.994	19.996	103.044	19.835	20.070	0.495
626.500	386.366	79.993	19.996	103.043	19.832	20.351	0.497
627.000	386.590	79.993	19.996	103.041	19.831	20.379	0.505
627.500	386.853	79.992	19.996	103.044	19.827	20.736	0.494
628.000	387.121	79.993	19.996	103.043	19.828	20.606	0.509
628.500	387.361	79.994	19.996	103.040	19.826	20.788	0.519
629.001	387.622	79.992	19.996	103.040	19.823	21.041	0.504
629.500	387.867	79.993	19.996	103.043	19.820	21.238	0.504
630.000	388.110	79.992	19.997	103.045	19.818	21.377	0.498
630.500	388.410	79.992	19.996	103.046	19.817	21.443	0.516
631.000	388.665	79.993	19.996	103.050	19.812	21.829	0.548
631.500	388.911	79.992	19.996	103.049	19.813	21.767	0.528
632.000	389.154	79.993	19.996	103.049	19.807	22.229	0.495
632.500	389.396	79.995	19.996	103.048	19.808	22.193	0.487
633.000	389.652	79.993	19.996	103.048	19.804	22.510	0.492
633.500	389.915	79.993	19.995	103.047	19.801	22.709	0.509
634.000	390.150	79.993	19.997	103.047	19.799	22.845	0.509
634.500	390.396	79.992	19.996	103.047	19.797	23.010	0.490
635.000	390.667	79.994	19.996	103.048	19.795	23.206	0.499
635.500	390.893	79.994	19.996	103.048	19.796	23.105	0.507
636.000	391.138	79.993	19.995	103.052	19.790	23.549	0.484
636.500	391.384	79.994	19.996	103.055	19.790	23.589	0.481
637.000	391.667	79.994	19.996	103.055	19.786	23.839	0.510
637.500	391.913	79.995	19.995	103.052	19.785	23.960	0.529
638.000	392.164	79.994	19.995	103.051	19.783	24.135	0.513
638.500	392.456	79.994	19.995	103.048	19.779	24.412	0.520
639.000	392.694	79.995	19.995	103.045	19.777	24.564	0.537
639.500	392.939	79.995	19.996	103.045	19.774	24.764	0.507
640.000	393.203	79.994	19.995	103.047	19.773	24.870	0.496
640.500	393.464	79.996	19.994	103.048	19.772	24.965	0.517
641.000	393.751	79.997	19.994	103.053	19.768	25.294	0.536
641.500	394.025	79.994	19.994	103.058	19.767	25.342	0.554
642.000	394.244	79.997	19.995	103.059	19.763	25.640	0.527
642.500	394.512	79.995	19.995	103.058	19.762	25.747	0.491
643.000	394.758	79.996	19.995	103.058	19.759	25.959	0.501
643.500	395.017	79.995	19.994	103.054	19.756	26.203	0.509
644.000	395.263	79.995	19.995	103.050	19.753	26.386	0.505
644.500	395.486	79.996	19.994	103.053	19.751	26.597	0.487
645.000	395.783	79.996	19.995	103.058	19.749	26.713	0.495
645.500	395.983	79.995	19.996	103.064	19.749	26.762	0.508
646.000	396.282	79.995	19.995	103.064	19.746	26.952	0.498
646.500	396.531	79.995	19.994	103.064	19.742	27.266	0.524
647.000	396.798	79.994	19.994	103.061	19.742	27.257	0.532
647.500	397.043	79.993	19.995	103.056	19.738	27.571	0.513
648.000	397.267	79.994	19.995	103.053	19.734	27.869	0.491
648.500	397.538	79.993	19.994	103.052	19.735	27.786	0.482
649.000	397.774	79.992	19.996	103.053	19.731	28.136	0.501
649.500	398.043	79.993	19.996	103.055	19.728	28.327	0.506
650.000	398.307	79.993	19.995	103.059	19.726	28.478	0.519
650.500	398.547	79.993	19.995	103.064	19.725	28.596	0.518
651.000	398.775	79.993	19.996	103.073	19.724	28.649	0.486
651.500	399.044	79.994	19.995	103.081	19.719	29.053	0.483
652.000	399.291	79.993	19.996	103.086	19.716	29.261	0.507
652.500	399.564	79.991	19.996	103.085	19.714	29.424	0.518
653.000	399.764	79.992	19.995	103.078	19.714	29.429	0.496
653.500	400.065	79.994	19.994	103.073	19.708	29.866	0.487
654.000	400.301	79.993	19.997	103.067	19.707	29.964	0.520
654.500	400.564	79.992	19.994	103.064	19.702	30.342	0.518
655.000	400.794	79.993	19.996	103.065	19.700	30.539	0.496
655.500	401.062	79.993	19.996	103.067	19.695	30.875	0.495
656.000	401.320	79.992	19.996	103.068	19.691	31.199	0.512
656.500	401.554	79.991	19.995	103.070	19.689	31.352	0.509
657.000	401.792	79.994	19.995	103.070	19.689	31.331	0.482
657.500	402.062	79.992	19.996	103.068	19.684	31.720	0.490
658.000	402.291	79.993	19.994	103.064	19.683	31.827	0.504
658.500	402.579	79.991	19.996	103.060	19.678	32.235	0.508
659.000	402.822	79.993	19.995	103.059	19.678	32.243	0.524
659.500	403.080	79.994	19.996	103.063	19.671	32.781	0.516
660.000	403.328	79.991	19.996	103.070	19.672	32.676	0.504
660.500	403.578	79.992	19.995	103.076	19.669	32.862	0.503
661.000	403.821	79.992	19.996	103.082	19.662	33.446	0.496
661.500	404.093	79.992	19.996	103.085	19.662	33.444	0.503
662.000	404.348	79.992	19.997	103.085	19.656	33.890	0.521
662.500	404.606	79.993	19.995	103.084	19.651	34.268	0.520
663.001	404.816	79.991	19.995	103.085	19.649	34.466	0.491
663.501	405.106	79.994	19.994	103.082	19.649	34.416	0.484
664.000	405.377	79.992	19.996	103.083	19.642	34.965	0.530
664.500	405.618	79.992	19.995	103.079	19.642	34.970	0.537
665.000	405.877	79.992	19.996	103.074	19.638	35.279	0.506
665.500	406.129	79.992	19.996	103.074	19.632	35.735	0.505
666.000	406.399	79.991	19.996	103.074	19.632	35.759	0.516
666.500	406.597	79.992	19.996	103.072	19.625	36.314	0.495
667.000	406.878	79.990	19.996	103.076	19.624	36.407	0.474
667.500	407.120	79.993	19.995	103.084	19.618	36.847	0.501
668.000	407.387	79.993	19.995	103.086	19.615	37.037	0.516
668.500	407.616	79.992	19.994	103.095	19.611	37.362	0.503
669.000	407.827	79.994	19.996	103.096	19.607	37.658	0.468
669.500	408.126	79.994	19.996	103.096	19.603	37.981	0.475
670.000	408.362	79.994	19.994	103.094	19.603	38.020	0.522
670.500	408.621	79.993	19.995	103.093	19.598	38.415	0.515
671.000	408.862	79.995	19.995	103.089	19.592	38.865	0.498
671.500	409.118	79.993	19.995	103.091	19.589	39.111	0.498
672.000	409.414	79.992	19.996	103.091	19.584	39.466	0.524
672.500	409.646	79.993	19.995	103.093	19.582	39.639	0.540
673.000	409.869	79.993	19.995	103.093	19.576	40.098	0.492
673.500	410.108	79.994	19.996	103.093	19.574	40.228	0.459
674.000	410.380	79.991	19.995	103.092	19.574	40.252	0.487
674.500	410.655	79.994	19.995	103.092	19.568	40.699	0.529
675.000	410.886	79.994	19.995	103.092	19.562	41.180	0.527
675.500	411.163	79.993	19.996	103.100	19.559	41.427	0.507
676.000	411.369	79.993	19.995	103.106	19.555	41.671	0.495
676.500	411.657	79.991	19.995	103.106	19.550	42.060	0.488
677.000	411.918	79.993	19.994	103.107	19.543	42.649	0.521
677.500	412.152	79.991	19.995	103.105	19.542	42.713	0.522
678.000	412.403	79.993	19.995	103.105	19.540	42.871	0.490
678.500	412.657	79.994	19.995	103.104	19.532	43.509	0.495
679.000	412.861	79.991	19.995	103.110	19.529	43.680	0.482
679.500	413.131	79.994	19.995	103.117	19.523	44.146	0.466
680.000	413.393	79.992	19.995	103.123	19.517	44.621	0.503
680.500	413.615	79.994	19.995	103.125	19.513	44.962	0.508
681.000	413.867	79.992	19.996	103.126	19.509	45.309	0.479
681.500	414.119	79.993	19.995	103.125	19.500	46.005	0.489
682.000	414.378	79.993	19.995	103.125	19.499	46.044	0.507
682.500	414.605	79.991	19.995	103.123	19.492	46.595	0.499
683.000	414.890	79.992	19.996	103.121	19.489	46.854	0.500
683.500	415.114	79.992	19.996	103.121	19.482	47.321	0.511
684.000	415.386	79.993	19.996	103.123	19.480	47.544	0.502
684.500	415.625	79.993	19.995	103.123	19.474	47.981	0.503
685.000	415.868	79.993	19.995	103.125	19.470	48.305	0.497
685.500	416.107	79.993	19.996	103.129	19.464	48.747	0.482
686.000	416.377	79.993	19.996	103.131	19.459	49.170	0.495
686.501	416.632	79.991	19.996	103.132	19.453	49.598	0.517
687.001	416.877	79.994	19.996	103.132	19.446	50.105	0.513
687.500	417.164	79.990	19.996	103.132	19.443	50.370	0.516
688.000	417.422	79.994	19.996	103.130	19.437	50.862	0.538
688.500	417.677	79.993	19.996	103.128	19.431	51.304	0.529
689.000	417.897	79.993	19.997	103.122	19.423	51.926	0.494
689.500	418.159	79.993	19.995	103.123	19.421	52.045	0.479
690.000	418.419	79.992	19.997	103.130	19.416	52.454	0.502
690.500	418.665	79.993	19.997	103.137	19.412	52.752	0.514
691.000	418.911	79.993	19.996	103.145	19.404	53.365	0.499
691.500	419.198	79.993	19.994	103.159	19.400	53.674	0.512
692.000	419.436	79.993	19.995	103.166	19.393	54.221	0.529
692.500	419.696	79.994	19.996	103.166	19.387	54.716	0.511
693.000	419.949	79.995	19.996	103.166	19.385	54.824	0.506
693.500	420.205	79.993	19.997	103.166	19.376	55.502	0.511
694.000	420.411	79.993	19.995	103.165	19.370	55.973	0.485
694.500	420.716	79.995	19.995	103.164	19.362	56.636	0.486
695.000	420.961	79.993	19.995	103.164	19.359	56.878	0.530
695.500	421.233	79.994	19.996	103.165	19.351	57.460	0.534
696.000	421.484	79.994	19.994	103.165	19.348	57.690	0.520
696.500	421.714	79.994	19.996	103.166	19.339	58.391	0.502
697.000	421.995	79.995	19.995	103.170	19.335	58.701	0.496
697.500	422.214	79.996	19.995	103.169	19.329	59.185	0.506
698.000	422.453	79.994	19.995	103.167	19.323	59.648	0.479
698.500	422.732	79.994	19.995	103.160	19.318	60.039	0.488
699.000	422.994	79.993	19.996	103.154	19.310	60.637	0.529
699.500	423.273	79.994	19.994	103.148	19.302	61.238	0.540
700.000	423.501	79.994	19.995	103.146	19.300	61.453	0.524
700.500	423.770	79.996	19.995	103.151	19.294	61.860	0.503
701.000	424.016	79.994	19.996	103.159	19.288	62.332	0.506
701.500	424.260	79.994	19.995	103.168	19.283	62.720	0.503
702.000	424.489	79.994	19.996	103.177	19.276	63.292	0.482
702.501	424.753	79.993	19.996	103.181	19.271	63.656	0.483
703.000	425.000	79.995	19.994	103.177	19.263	64.308	0.502
703.500	425.283	79.995	19.994	103.173	19.258	64.709	0.520
704.000	425.515	79.994	19.995	103.172	19.248	65.451	0.522
704.500	425.773	79.995	19.995	103.167	19.245	65.668	0.502
705.000	426.046	79.993	19.995	103.170	19.239	66.177	0.511
705.500	426.279	79.992	19.996	103.177	19.235	66.448	0.519
706.000	426.533	79.993	19.996	103.187	19.227	67.039	0.497
706.500	426.801	79.991	19.994	103.192	19.223	67.377	0.504
707.000	427.035	79.992	19.995	103.193	19.218	67.786	0.512
707.500	427.308	79.995	19.994	103.187	19.213	68.178	0.505
708.000	427.514	79.993	19.996	103.183	19.202	69.013	0.493
708.500	427.787	79.992	19.996	103.179	19.197	69.385	0.479
709.000	428.028	79.993	19.996	103.180	19.194	69.667	0.496
709.500	428.277	79.992	19.995	103.186	19.187	70.147	0.502
710.000	428.543	79.992	19.995	103.195	19.181	70.602	0.503
710.500	428.798	79.992	19.996	103.199	19.176	70.989	0.518
711.000	429.074	79.993	19.996	103.204	19.168	71.611	0.526
711.500	429.316	79.992	19.995	103.204	19.162	72.076	0.524
712.000	429.573	79.993	19.997	103.202	19.155	72.626	0.508
712.500	429.804	79.994	19.996	103.199	19.151	72.977	0.493
713.000	430.037	79.993	19.995	103.201	19.146	73.365	0.476
713.500	430.318	79.994	19.996	103.202	19.140	73.838	0.489
714.000	430.544	79.993	19.996	103.202	19.136	74.161	0.511
714.500	430.799	79.994	19.995	103.204	19.133	74.362	0.494
715.000	431.037	79.992	19.996	103.209	19.125	74.935	0.487
715.500	431.342	79.993	19.996	103.209	19.119	75.415	0.518
716.000	431.567	79.993	19.998	103.210	19.113	75.895	0.536
716.500	431.815	79.992	19.996	103.211	19.108	76.287	0.502
717.000	432.049	79.993	19.997	103.218	19.100	76.940	0.477
717.500	432.335	79.994	19.995	103.222	19.096	77.232	0.501
718.000	432.598	79.994	19.997	103.226	19.091	77.634	0.535
718.500	432.840	79.994	19.996	103.230	19.090	77.682	0.528
719.000	433.095	79.994	19.995	103.236	19.082	78.302	0.501
719.500	433.336	79.996	19.996	103.235	19.074	78.881	0.497
720.000	433.607	79.995	19.996	103.233	19.071	79.144	0.504
720.500	433.888	79.996	19.996	103.232	19.064	79.682	0.532
721.000	434.142	79.996	19.998	103.234	19.059	80.080	0.543
721.500	434.382	79.996	19.996	103.231	19.051	80.657	0.514
722.000	434.647	79.994	19.997	103.232	19.048	80.963	0.499
722.500	434.892	79.995	19.996	103.235	19.044	81.207	0.508
723.000	435.119	79.994	19.998	103.238	19.038	81.738	0.491
723.500	435.389	79.995	19.995	103.241	19.031	82.239	0.484
724.001	435.637	79.992	19.997	103.248	19.025	82.732	0.508
724.501	435.912	79.992	19.996	103.248	19.020	83.107	0.521
725.001	436.143	79.994	19.995	103.251	19.016	83.426	0.515
725.500	436.376	79.992	19.996	103.251	19.010	83.860	0.485
726.000	436.648	79.993	19.996	103.248	19.004	84.313	0.484
726.500	436.891	79.993	19.995	103.244	18.997	84.890	0.510
727.000	437.183	79.997	19.994	103.243	18.993	85.157	0.525
727.500	437.402	79.992	19.997	103.244	18.986	85.713	0.523
728.000	437.649	79.992	19.995	103.246	18.981	86.098	0.489
728.500	437.936	79.994	19.996	103.248	18.976	86.493	0.500
729.000	438.159	79.995	19.995	103.252	18.972	86.827	0.522
729.500	438.450	79.993	19.995	103.255	18.969	87.091	0.512
730.000	438.666	79.992	19.996	103.256	18.961	87.635	0.510
730.500	438.900	79.994	19.994	103.255	18.954	88.236	0.479
731.000	439.166	79.994	19.995	103.256	18.953	88.319	0.475
731.500	439.419	79.993	19.995	103.254	18.945	88.909	0.509
732.000	439.708	79.992	19.996	103.251	18.941	89.251	0.531
732.500	439.950	79.994	19.996	103.251	18.936	89.577	0.537
733.000	440.216	79.994	19.995	103.254	18.932	89.938	0.519
733.500	440.469	79.993	19.994	103.259	18.929	90.141	0.513
734.000	440.711	79.990	19.997	103.266	18.925	90.486	0.507
734.500	440.957	79.993	19.994	103.268	18.919	90.895	0.492
735.000	441.202	79.991	19.995	103.271	18.914	91.272	0.490
735.500	441.457	79.994	19.994	103.273	18.913	91.391	0.496
736.000	441.713	79.994	19.995	103.274	18.906	91.891	0.505
736.500	441.958	79.989	19.995	103.273	18.905	91.992	0.506
737.000	442.217	79.991	19.995	103.278	18.902	92.211	0.502
737.500	442.462	79.996	19.994	103.277	18.898	92.555	0.504
738.000	442.723	79.992	19.995	103.278	18.895	92.745	0.505
738.500	442.984	79.991	19.995	103.278	18.890	93.137	0.515
739.000	443.244	79.994	19.994	103.278	18.890	93.170	0.522
739.500	443.489	79.992	19.995	103.279	18.890	93.174	0.513
740.000	443.744	79.991	19.995	103.281	18.886	93.519	0.503
740.500	443.988	79.993	19.996	103.281	18.881	93.848	0.500
741.000	444.234	79.993	19.995	103.283	18.880	93.939	0.494
741.500	444.490	79.992	19.995	103.287	18.877	94.161	0.495
742.000	444.719	79.992	19.994	103.288	18.873	94.501	0.493
742.500	445.017	79.994	19.995	103.286	18.875	94.350	0.506
743.000	445.247	79.993	19.994	103.286	18.872	94.538	0.528
743.500	445.478	79.994	19.994	103.285	18.871	94.587	0.494
744.001	445.744	79.994	19.995	103.283	18.866	95.044	0.478
744.501	446.001	79.994	19.995	103.282	18.870	94.701	0.510
745.000	446.256	79.993	19.997	103.283	18.868	94.837	0.518
745.500	446.508	79.996	19.995	103.282	18.869	94.785	0.509
746.000	446.741	79.996	19.994	103.283	18.867	94.915	0.496
746.500	447.027	79.994	19.996	103.283	18.867	94.905	0.502
747.000	447.254	79.991	19.995	103.281	18.867	94.888	0.515
747.500	447.502	79.994	19.996	103.279	18.871	94.632	0.494
748.000	447.741	79.991	19.996	103.280	18.870	94.637	0.482
748.500	447.988	79.992	19.996	103.280	18.870	94.690	0.487
749.000	448.228	79.992	19.996	103.284	18.873	94.415	0.486
749.500	448.501	79.992	19.996	103.294	18.874	94.387	0.500
750.000	448.741	79.991	19.995	103.299	18.874	94.348	0.513
750.500	448.991	79.993	19.996	103.301	18.879	93.996	0.502
751.000	449.249	79.991	19.996	103.297	18.879	93.981	0.499
751.500	449.496	79.994	19.995	103.290	18.883	93.695	0.506
752.000	449.726	79.991	19.995	103.283	18.888	93.298	0.491
752.500	450.000	79.992	19.996	103.279	18.890	93.117	0.490
753.000	450.251	79.992	19.996	103.278	18.894	92.835	0.514
753.501	450.522	79.992	19.995	103.280	18.898	92.464	0.524
754.001	450.763	79.993	19.995	103.280	18.902	92.133	0.517
754.500	451.025	79.992	19.995	103.279	18.910	91.552	0.508
755.000	451.241	79.992	19.995	103.275	18.916	91.118	0.491
755.500	451.517	79.992	19.995	103.272	18.919	90.838	0.485
756.000	451.745	79.991	19.996	103.273	18.927	90.270	0.498
756.500	451.995	79.992	19.994	103.270	18.936	89.573	0.491
757.000	452.244	79.992	19.995	103.264	18.944	88.955	0.488
757.500	452.504	79.992	19.996	103.262	18.953	88.232	0.504
758.000	452.756	79.991	19.995	103.257	18.955	88.057	0.510
758.500	452.998	79.992	19.996	103.250	18.965	87.320	0.503
759.000	453.266	79.993	19.996	103.246	18.970	86.902	0.502
759.500	453.495	79.992	19.995	103.245	18.980	86.157	0.504
760.000	453.767	79.993	19.996	103.245	18.989	85.401	0.499
760.500	454.005	79.992	19.994	103.245	18.999	84.650	0.505
761.000	454.251	79.990	19.996	103.245	19.007	83.998	0.497
761.500	454.528	79.992	19.995	103.244	19.018	83.206	0.503
762.000	454.772	79.991	19.995	103.244	19.028	82.424	0.522
762.500	455.039	79.991	19.996	103.243	19.041	81.385	0.516
763.000	455.284	79.993	19.993	103.237	19.053	80.460	0.511
763.500	455.533	79.991	19.996	103.233	19.062	79.741	0.502
764.000	455.744	79.991	19.994	103.227	19.074	78.830	0.477
764.500	456.040	79.992	19.996	103.222	19.088	77.771	0.484
765.000	456.272	79.991	19.995	103.215	19.097	77.041	0.518
765.500	456.511	79.993	19.995	103.215	19.111	75.939	0.499
766.000	456.781	79.992	19.995	103.213	19.118	75.461	0.490
766.500	456.995	79.992	19.994	103.213	19.128	74.631	0.497
767.000	457.277	79.992	19.995	103.211	19.142	73.576	0.490
767.500	457.507	79.991	19.995	103.211	19.155	72.599	0.504
768.000	457.789	79.993	19.994	103.207	19.164	71.859	0.512
768.500	458.034	79.992	19.995	103.206	19.177	70.902	0.519
769.000	458.282	79.992	19.996	103.204	19.187	70.085	0.510
769.500	458.542	79.992	19.995	103.200	19.198	69.236	0.501
770.000	458.813	79.993	19.995	103.194	19.208	68.518	0.520
770.500	459.076	79.992	19.995	103.190	19.220	67.532	0.533
771.000	459.344	79.993	19.996	103.183	19.234	66.484	0.532
771.500	459.609	79.993	19.995	103.177	19.245	65.614	0.532
772.000	459.832	79.992	19.995	103.173	19.254	64.887	0.511
772.500	460.105	79.994	19.995	103.170	19.266	64.017	0.492
773.000	460.327	79.993	19.996	103.168	19.276	63.207	0.495
773.500	460.609	79.993	19.996	103.167	19.287	62.357	0.499
774.000	460.855	79.992	19.995	103.162	19.300	61.333	0.516
774.500	461.111	79.994	19.995	103.155	19.312	60.472	0.515
775.000	461.351	79.992	19.995	103.148	19.323	59.601	0.499
775.500	461.593	79.993	19.996	103.140	19.334	58.722	0.489
776.000	461.850	79.993	19.995	103.133	19.345	57.892	0.491
776.500	462.144	79.993	19.996	103.130	19.357	56.998	0.525
777.000	462.401	79.994	19.995	103.129	19.365	56.338	0.551
777.500	462.664	79.993	19.996	103.129	19.375	55.591	0.535
778.000	462.900	79.994	19.996	103.129	19.386	54.717	0.509
778.500	463.176	79.993	19.995	103.129	19.400	53.645	0.506
779.000	463.434	79.994	19.996	103.129	19.410	52.884	0.523
779.500	463.640	79.993	19.995	103.129	19.420	52.057	0.499
780.000	463.884	79.992	19.996	103.129	19.430	51.299	0.457
780.500	464.166	79.993	19.996	103.129	19.441	50.487	0.488
781.000	464.408	79.992	19.996	103.129	19.452	49.649	0.525
781.500	464.656	79.994	19.995	103.128	19.457	49.223	0.507
782.000	464.905	79.991	19.995	103.126	19.467	48.478	0.494
782.500	465.168	79.993	19.995	103.121	19.476	47.743	0.504
783.000	465.422	79.992	19.996	103.113	19.487	46.945	0.515
783.500	465.655	79.993	19.996	103.107	19.493	46.425	0.502
784.000	465.922	79.993	19.995	103.101	19.502	45.742	0.493
784.500	466.195	79.993	19.996	103.095	19.506	45.473	0.520
785.000	466.420	79.993	19.995	103.089	19.514	44.811	0.519
785.500	466.700	79.993	19.994	103.087	19.515	44.724	0.501
786.000	466.956	79.993	19.995	103.087	19.525	43.996	0.520
786.500	467.209	79.994	19.996	103.084	19.531	43.543	0.523
787.000	467.479	79.993	19.996	103.083	19.529	43.642	0.516
787.500	467.735	79.994	19.994	103.084	19.536	43.128	0.525
788.000	467.984	79.995	19.996	103.081	19.540	42.859	0.516
788.500	468.249	79.992	19.996	103.075	19.541	42.724	0.510
789.000	468.464	79.995	19.995	103.073	19.542	42.642	0.497
789.500	468.716	79.994	19.995	103.067	19.550	42.082	0.474
790.000	468.985	79.994	19.995	103.062	19.551	41.989	0.494
790.500	469.258	79.993	19.996	103.058	19.549	42.157	0.531
791.000	469.486	79.992	19.997	103.055	19.551	41.997	0.521
791.500	469.789	79.996	19.994	103.047	19.551	41.987	0.516
792.000	470.025	79.994	19.994	103.045	19.552	41.897	0.535
792.500	470.256	79.993	19.994	103.045	19.551	41.959	0.503
793.000	470.527	79.995	19.996	103.045	19.554	41.731	0.485
793.500	470.785	79.994	19.996	103.045	19.552	41.866	0.516
794.000	471.080	79.993	19.995	103.046	19.553	41.783	0.541
794.500	471.313	79.995	19.995	103.047	19.552	41.907	0.540
795.000	471.575	79.994	19.995	103.046	19.552	41.885	0.511
795.500	471.804	79.996	19.996	103.043	19.550	42.011	0.493
796.000	472.087	79.995	19.995	103.042	19.548	42.169	0.501
796.500	472.329	79.995	19.996	103.040	19.547	42.311	0.518
797.000	472.615	79.996	19.996	103.040	19.545	42.405	0.527
797.500	472.829	79.995	19.994	103.036	19.541	42.739	0.514
798.000	473.116	79.996	19.995	103.034	19.539	42.855	0.501
798.500	473.363	79.994	19.995	103.030	19.538	42.951	0.518
799.000	473.621	79.994	19.997	103.026	19.536	43.086	0.520
799.500	473.873	79.996	19.996	103.024	19.531	43.511	0.508
800.000	474.173	79.996	19.995	103.023	19.530	43.593	0.531
800.500	474.452	79.995	19.996	103.021	19.528	43.689	0.565
801.000	474.699	79.995	19.995	103.021	19.525	43.932	0.552
801.500	474.924	79.993	19.997	103.021	19.521	44.286	0.499
802.000	475.173	79.995	19.996	103.015	19.519	44.423	0.473
802.501	475.440	79.994	19.995	103.011	19.513	44.876	0.495
803.001	475.687	79.994	19.995	103.007	19.509	45.183	0.515
803.500	475.925	79.993	19.995	103.005	19.509	45.187	0.500
804.000	476.179	79.995	19.996	102.997	19.502	45.735	0.489
804.500	476.446	79.992	19.996	102.990	19.500	45.897	0.506
805.000	476.696	79.993	19.995	102.988	19.493	46.386	0.518
805.500	476.925	79.993	19.997	102.991	19.493	46.400	0.498
806.000	477.184	79.992	19.996	102.994	19.492	46.449	0.484
806.500	477.438	79.990	19.996	103.001	19.486	46.917	0.501
807.000	477.703	79.992	19.996	103.009	19.481	47.334	0.516
807.500	477.986	79.991	19.997	103.006	19.480	47.397	0.534
808.000	478.249	79.991	19.997	102.998	19.473	47.973	0.547
808.500	478.495	79.992	19.997	102.987	19.474	47.883	0.527
809.000	478.746	79.993	19.998	102.979	19.471	48.080	0.503
809.500	478.997	79.993	19.997	102.972	19.467	48.398	0.500
810.000	479.264	79.992	19.997	102.969	19.464	48.642	0.510
810.500	479.500	79.993	19.997	102.969	19.459	49.009	0.511
811.000	479.766	79.992	19.998	102.969	19.461	48.842	0.502
811.500	479.992	79.993	19.997	102.962	19.461	48.896	0.497
812.000	480.259	79.993	19.997	102.956	19.461	48.898	0.492
812.500	480.553	79.992	19.995	102.950	19.461	48.880	0.527
813.001	480.792	79.992	19.997	102.943	19.461	48.844	0.547
813.501	481.072	79.992	19.995	102.937	19.464	48.665	0.526
814.000	481.285	79.992	19.995	102.943	19.466	48.516	0.506
814.500	481.569	79.993	19.995	102.944	19.469	48.265	0.495
815.000	481.812	79.993	19.996	102.943	19.471	48.089	0.512
815.500	482.034	79.993	19.994	102.942	19.478	47.547	0.496
816.000	482.320	79.993	19.996	102.941	19.484	47.110	0.487
816.500	482.590	79.992	19.996	102.935	19.484	47.096	0.532
817.000	482.829	79.993	19.995	102.933	19.489	46.717	0.532
817.500	483.116	79.993	19.995	102.933	19.495	46.299	0.517
818.000	483.356	79.993	19.996	102.934	19.502	45.712	0.526
818.500	483.591	79.993	19.995	102.934	19.511	45.043	0.501
819.000	483.828	79.992	19.996	102.935	19.518	44.500	0.474
819.500	484.109	79.992	19.994	102.937	19.525	43.946	0.496
820.000	484.379	79.994	19.995	102.937	19.529	43.658	0.535
820.500	484.632	79.992	19.995	102.936	19.539	42.871	0.537
821.000	484.884	79.993	19.995	102.936	19.548	42.199	0.514
821.500	485.132	79.992	19.995	102.935	19.554	41.719	0.503
822.000	485.382	79.992	19.996	102.935	19.565	40.902	0.499
822.501	485.623	79.994	19.996	102.933	19.575	40.068	0.494
823.001	485.897	79.993	19.995	102.933	19.584	39.411	0.503
823.500	486.159	79.994	19.996	102.933	19.595	38.583	0.525
824.000	486.374	79.994	19.996	102.935	19.602	37.994	0.506
824.500	486.660	79.991	19.995	102.938	19.612	37.267	0.488
825.000	486.918	79.993	19.996	102.942	19.621	36.525	0.522
825.500	487.156	79.994	19.995	102.946	19.632	35.688	0.520
826.000	487.377	79.993	19.995	102.949	19.641	35.053	0.478
826.500	487.672	79.992	19.994	102.951	19.653	34.112	0.488
827.000	487.932	79.994	19.995	102.953	19.663	33.299	0.535
827.500	488.158	79.994	19.994	102.957	19.674	32.514	0.520
828.000	488.440	79.991	19.994	102.962	19.685	31.662	0.497
828.500	488.668	79.992	19.994	102.964	19.692	31.118	0.509
829.000	488.955	79.993	19.995	102.963	19.701	30.369	0.513
829.500	489.194	79.993	19.995	102.965	19.713	29.490	0.521
830.000	489.499	79.991	19.995	102.966	19.718	29.067	0.535
830.500	489.726	79.994	19.996	102.967	19.730	28.164	0.537
831.000	489.979	79.995	19.995	102.970	19.743	27.171	0.506
831.500	490.230	79.992	19.995	102.972	19.752	26.480	0.492
832.000	490.485	79.993	19.996	102.969	19.760	25.819	0.505
832.500	490.745	79.994	19.995	102.968	19.771	25.029	0.510
833.000	491.005	79.992	19.995	102.965	19.784	23.988	0.518
833.500	491.211	79.992	19.995	102.963	19.790	23.536	0.493
834.000	491.478	79.993	19.995	102.966	19.802	22.636	0.469
834.500	491.776	79.992	19.995	102.972	19.813	21.797	0.519
835.000	491.980	79.993	19.994	102.979	19.819	21.339	0.533
835.500	492.294	79.992	19.995	102.981	19.825	20.826	0.510
836.000	492.527	79.993	19.995	102.983	19.838	19.868	0.533
836.500	492.767	79.992	19.996	102.983	19.847	19.141	0.510
837.000	493.050	79.991	19.996	102.982	19.852	18.736	0.498
837.500	493.320	79.992	19.994	102.976	19.863	17.950	0.538
838.000	493.543	79.993	19.995	102.978	19.872	17.241	0.523
838.500	493.812	79.993	19.995	102.979	19.879	16.666	0.493
839.000	494.054	79.991	19.995	102.981	19.885	16.220	0.502
839.500	494.344	79.992	19.996	102.988	19.895	15.428	0.521
840.000	494.582	79.991	19.996	102.988	19.900	15.075	0.530
840.500	494.858	79.992	19.995	102.986	19.910	14.277	0.521
841.000	495.122	79.991	19.995	102.989	19.912	14.157	0.527
841.500	495.355	79.993	19.995	102.992	19.918	13.666	0.518
842.000	495.630	79.991	19.996	102.991	19.928	12.943	0.502
842.500	495.896	79.992	19.995	102.993	19.929	12.815	0.525
843.000	496.140	79.993	19.995	103.000	19.937	12.217	0.526
843.500	496.360	79.992	19.994	103.001	19.942	11.869	0.487
844.000	496.598	79.991	19.994	102.996	19.949	11.316	0.461
844.500	496.851	79.992	19.996	102.993	19.953	10.994	0.475
845.000	497.129	79.993	19.995	102.996	19.954	10.896	0.511
845.500	497.388	79.992	19.995	102.995	19.959	10.544	0.534
846.000	497.641	79.992	19.995	102.996	19.966	9.948	0.525
846.500	497.883	79.993	19.995	103.001	19.969	9.716	0.503
847.000	498.156	79.993	19.996	103.004	19.973	9.451	0.505
847.500	498.405	79.993	19.996	103.004	19.976	9.205	0.519
848.000	498.649	79.993	19.996	102.999	19.977	9.100	0.508
848.500	498.909	79.995	19.995	102.995	19.981	8.843	0.498
849.000	499.163	79.993	19.996	102.993	19.982	8.747	0.509
849.500	499.388	79.991	19.995	102.987	19.985	8.518	0.497
850.000	499.660	79.994	19.995	102.980	19.988	8.326	0.488
850.500	499.879	79.994	19.995	102.981	19.993	7.892	0.494
851.000	500.149	79.995	19.995	102.987	19.993	7.883	0.490
851.500	500.392	79.996	19.995	102.992	19.995	7.714	0.502
852.000	500.681	79.995	19.994	102.998	19.995	7.759	0.523
852.500	500.914	79.994	19.994	103.005	19.999	7.414	0.527
853.001	501.158	79.994	19.995	103.007	20.001	7.295	0.499
853.501	501.431	79.995	19.995	103.005	20.004	7.026	0.497
854.000	501.676	79.995	19.993	103.002	20.002	7.244	0.518
854.500	501.938	79.994	19.995	102.999	20.001	7.255	0.513
855.000	502.163	79.994	19.994	102.995	20.003	7.139	0.497
855.500	502.417	79.995	19.994	102.990	20.007	6.809	0.483
856.000	502.691	79.994	19.995	102.985	20.009	6.644	0.504
856.500	502.925	79.994	19.994	102.983	20.011	6.504	0.518
857.000	503.173	79.994	19.995	102.982	20.010	6.576	0.495
857.500	503.434	79.994	19.994	102.987	20.010	6.610	0.495
858.000	503.631	79.994	19.995	102.994	20.010	6.587	0.484
858.500	503.929	79.993	19.996	103.001	20.009	6.699	0.477
859.000	504.160	79.994	19.994	103.006	20.014	6.282	0.512
859.500	504.407	79.993	19.995	103.012	20.013	6.323	0.503
860.000	504.680	79.994	19.995	103.014	20.014	6.319	0.499
860.500	504.918	79.995	19.995	103.014	20.015	6.198	0.515
861.000	505.177	79.994	19.996	103.014	20.016	6.117	0.504
861.500	505.434	79.993	19.996	103.014	20.016	6.128	0.506
862.000	505.685	79.993	19.996	103.011	20.016	6.165	0.512
862.500	505.932	79.993	19.995	103.008	20.017	6.040	0.503
863.000	506.196	79.993	19.996	103.009	20.017	6.042	0.505
863.500	506.441	79.992	19.996	103.009	20.018	5.969	0.510
864.000	506.688	79.992	19.995	103.009	20.020	5.788	0.500
864.500	506.941	79.993	19.996	103.012	20.017	6.054	0.496
865.000	507.201	79.994	19.996	103.018	20.017	6.028	0.507
865.500	507.414	79.994	19.996	103.024	20.018	6.011	0.493
866.000	507.686	79.995	19.996	103.027	20.019	5.877	0.479
866.500	507.938	79.993	19.995	103.028	20.021	5.749	0.505
867.000	508.210	79.993	19.995	103.028	20.021	5.765	0.524
867.500	508.438	79.994	19.996	103.020	20.020	5.827	0.512
868.000	508.717	79.994	19.995	103.005	20.022	5.661	0.503
868.500	508.986	79.994	19.995	103.001	20.021	5.739	0.527
869.000	509.202	79.993	19.995	103.000	20.024	5.493	0.517
869.500	509.458	79.996	19.996	103.000	20.022	5.687	0.478
870.000	509.699	79.995	19.996	103.001	20.021	5.749	0.484
870.500	509.981	79.993	19.995	103.005	20.021	5.710	0.510
871.000	510.211	79.994	19.996	102.999	20.020	5.857	0.518
871.500	510.474	79.994	19.996	102.993	20.024	5.522	0.503
872.000	510.729	79.995	19.996	102.989	20.022	5.690	0.506
872.500	510.941	79.995	19.995	102.985	20.022	5.673	0.492
873.000	511.230	79.995	19.996	102.988	20.021	5.773	0.484
873.500	511.468	79.995	19.995	102.993	20.020	5.792	0.514
874.000	511.696	79.995	19.995	102.998	20.020	5.838	0.497
874.500	511.977	79.995	19.996	103.002	20.018	6.013	0.488
875.000	512.251	79.996	19.996	103.006	20.022	5.702	0.532
875.500	512.496	79.997	19.994	103.007	20.021	5.742	0.537
876.000	512.742	79.995	19.996	103.007	20.018	5.945	0.505
876.500	512.969	79.996	19.995	103.008	20.022	5.699	0.482
877.000	513.244	79.995	19.995	103.008	20.020	5.800	0.488
877.500	513.487	79.996	19.996	103.008	20.019	5.870	0.510
878.000	513.755	79.996	19.995	103.011	20.021	5.710	0.515
878.500	514.004	79.996	19.995	103.011	20.023	5.602	0.514
879.000	514.252	79.995	19.995	103.012	20.022	5.672	0.507
879.500	514.558	79.996	19.995	103.012	20.021	5.760	0.525
880.000	514.807	79.995	19.995	103.012	20.019	5.905	0.554
880.500	515.092	79.997	19.995	103.008	20.020	5.812	0.544
881.000	515.314	79.996	19.994	103.007	20.021	5.749	0.521
881.500	515.559	79.992	19.996	103.006	20.021	5.782	0.487
882.000	515.809	79.994	19.995	103.005	20.020	5.795	0.481
882.500	516.118	79.995	19.995	103.003	20.019	5.864	0.527
883.001	516.351	79.993	19.995	102.997	20.020	5.860	0.550
883.500	516.604	79.993	19.995	102.997	20.023	5.603	0.514
884.000	516.862	79.993	19.995	102.999	20.020	5.836	0.499
884.500	517.148	79.993	19.995	102.998	20.019	5.913	0.528
885.000	517.413	79.992	19.995	103.002	20.021	5.762	0.547
885.500	517.680	79.992	19.995	103.008	20.021	5.717	0.542
886.000	517.883	79.992	19.995	103.006	20.023	5.554	0.501
886.500	518.149	79.993	19.995	102.999	20.020	5.793	0.469
887.000	518.391	79.992	19.996	102.996	20.024	5.493	0.488
887.500	518.633	79.993	19.996	102.992	20.022	5.700	0.496
888.000	518.904	79.992	19.995	102.993	20.019	5.872	0.499
888.500	519.164	79.992	19.994	102.995	20.020	5.792	0.522
889.000	519.443	79.992	19.996	103.002	20.022	5.680	0.535
889.500	519.690	79.991	19.996	103.007	20.021	5.732	0.533
890.000	519.948	79.992	19.996	103.011	20.022	5.672	0.515
890.500	520.183	79.991	19.997	103.009	20.022	5.631	0.499
891.000	520.466	79.992	19.996	103.005	20.021	5.747	0.506
891.500	520.714	79.993	19.996	103.003	20.021	5.721	0.525
892.000	520.954	79.992	19.996	103.003	20.022	5.704	0.510
892.500	521.217	79.991	19.996	103.004	20.023	5.627	0.495
893.000	521.471	79.992	19.997	103.006	20.022	5.681	0.510
893.500	521.725	79.991	19.996	103.011	20.020	5.784	0.512
894.000	521.977	79.992	19.996	103.012	20.023	5.568	0.507
894.500	522.220	79.992	19.997	103.008	20.023	5.622	0.501
895.000	522.480	79.993	19.997	103.005	20.022	5.657	0.499
895.500	522.738	79.992	19.997	103.005	20.024	5.551	0.510
896.000	522.975	79.992	19.995	103.008	20.018	6.007	0.506
896.500	523.235	79.992	19.996	103.016	20.022	5.655	0.496
897.000	523.510	79.992	19.996	103.022	20.021	5.716	0.516
897.500	523.758	79.992	19.996	103.024	20.020	5.850	0.529
898.000	524.047	79.992	19.997	103.024	20.018	5.998	0.530
898.500	524.296	79.993	19.996	103.020	20.020	5.810	0.538
899.000	524.545	79.992	19.997	103.009	20.020	5.798	0.518
899.500	524.774	79.993	19.996	103.006	20.019	5.888	0.488
900.000	525.108	79.991	19.995	103.006	20.020	5.806	0.521
900.501	525.315	79.993	19.996	103.004	20.021	5.754	0.551
901.001	525.606	79.992	19.996	103.007	20.020	5.843	0.520
901.500	525.823	79.993	19.995	103.011	20.019	5.884	0.503
902.000	526.106	79.992	19.995	103.011	20.021	5.776	0.504
902.500	526.392	79.992	19.996	103.011	20.019	5.916	0.534
903.000	526.613	79.993	19.996	103.013	20.017	6.039	0.538
903.500	526.862	79.993	19.996	103.013	20.018	5.989	0.489
904.000	527.131	79.994	19.995	103.012	20.021	5.771	0.494
904.500	527.368	79.993	19.995	103.012	20.018	5.944	0.512
905.000	527.606	79.991	19.995	103.013	20.016	6.095	0.491
905.500	527.872	79.992	19.994	103.013	20.019	5.916	0.489
906.000	528.142	79.993	19.994	103.015	20.021	5.709	0.520
906.500	528.404	79.992	19.994	103.021	20.017	6.085	0.534
907.000	528.661	79.991	19.995	103.025	20.017	6.055	0.526
907.500	528.907	79.992	19.995	103.028	20.018	6.007	0.511
908.000	529.179	79.992	19.995	103.027	20.020	5.819	0.510
908.500	529.434	79.993	19.995	103.026	20.018	6.013	0.522
909.000	529.697	79.992	19.995	103.022	20.019	5.918	0.522
909.500	529.929	79.992	19.994	103.019	20.017	6.035	0.507
910.000	530.175	79.992	19.994	103.020	20.017	6.026	0.487
910.500	530.447	79.992	19.995	103.024	20.019	5.888	0.498
911.000	530.722	79.991	19.995	103.024	20.020	5.806	0.532
911.500	530.950	79.992	19.996	103.022	20.019	5.913	0.525
912.000	531.203	79.990	19.996	103.021	20.022	5.643	0.492
912.500	531.484	79.991	19.995	103.017	20.018	5.939	0.507
913.000	531.738	79.994	19.995	103.013	20.016	6.141	0.534
913.500	531.996	79.992	19.996	103.012	20.015	6.178	0.524
914.000	532.251	79.992	19.996	103.011	20.018	5.979	0.513
914.500	532.489	79.992	19.996	103.008	20.018	5.954	0.503
915.000	532.805	79.992	19.996	103.007	20.015	6.170	0.523
915.500	533.036	79.992	19.996	103.007	20.020	5.838	0.550
916.000	533.288	79.992	19.997	103.012	20.020	5.840	0.515
916.500	533.551	79.993	19.996	103.016	20.019	5.879	0.499
917.000	533.796	79.991	19.996	103.020	20.019	5.929	0.511
917.500	534.051	79.991	19.997	103.022	20.019	5.877	0.504
918.000	534.324	79.992	19.997	103.024	20.019	5.909	0.514
918.500	534.560	79.994	19.996	103.019	20.019	5.900	0.519
919.000	534.844	79.993	19.996	103.016	20.019	5.909	0.514
919.500	535.117	79.992	19.996	103.014	20.017	6.062	0.538
920.000	535.345	79.992	19.996	103.013	20.017	6.023	0.529
920.500	535.620	79.992	19.996	103.012	20.020	5.849	0.502
921.000	535.882	79.991	19.998	103.012	20.019	5.935	0.520
921.500	536.114	79.993	19.996	103.010	20.016	6.093	0.516
922.000	536.404	79.992	19.996	103.009	20.019	5.872	0.508
922.500	536.659	79.993	19.995	103.006	20.016	6.131	0.533
923.000	536.861	79.992	19.995	103.000	20.017	6.028	0.501
923.500	537.139	79.992	19.997	102.996	20.019	5.875	0.469
924.000	537.378	79.992	19.996	102.994	20.015	6.218	0.499
924.500	537.628	79.992	19.996	102.990	20.015	6.179	0.503
925.000	537.920	79.992	19.995	102.989	20.015	6.231	0.515
925.500	538.193	79.993	19.996	102.995	20.019	5.907	0.553
926.000	538.449	79.994	19.995	102.998	20.017	6.030	0.547
926.500	538.721	79.994	19.996	103.002	20.016	6.147	0.529
927.000	538.946	79.993	19.996	103.006	20.019	5.916	0.513
927.500	539.215	79.993	19.996	103.009	20.016	6.123	0.495
928.000	539.457	79.994	19.996	103.009	20.015	6.170	0.502
928.500	539.745	79.992	19.995	103.007	20.015	6.186	0.521
929.000	539.973	79.994	19.996	103.001	20.017	6.015	0.523
929.500	540.210	79.995	19.995	103.000	20.017	6.089	0.490
930.000	540.501	79.994	19.996	103.000	20.021	5.773	0.496
930.500	540.719	79.994	19.995	103.001	20.019	5.911	0.518
931.001	541.023	79.995	19.996	103.002	20.019	5.929	0.515
931.500	541.268	79.995	19.996	103.009	20.019	5.927	0.535
932.000	541.531	79.993	19.995	103.009	20.019	5.890	0.529
932.500	541.768	79.994	19.997	103.009	20.017	6.086	0.504
933.000	542.040	79.994	19.996	103.009	20.018	6.006	0.505
933.500	542.286	79.994	19.996	103.007	20.018	5.957	0.514
934.000	542.544	79.995	19.996	103.007	20.019	5.866	0.511
934.500	542.824	79.993	19.995	103.008	20.020	5.849	0.521
935.000	543.056	79.995	19.995	103.008	20.019	5.933	0.525
935.500	543.292	79.994	19.995	103.010	20.020	5.836	0.490
936.000	543.565	79.994	19.994	103.012	20.018	5.940	0.488
936.500	543.828	79.994	19.994	103.011	20.020	5.788	0.523
937.000	544.072	79.994	19.995	103.011	20.018	6.004	0.522
937.500	544.341	79.993	19.995	103.011	20.018	6.002	0.510
938.000	544.587	79.994	19.995	103.008	20.018	5.978	0.514
938.500	544.828	79.994	19.995	103.009	20.018	6.002	0.501
939.000	545.067	79.994	19.995	103.009	20.016	6.110	0.483
939.500	545.322	79.995	19.996	103.009	20.017	6.015	0.487
940.000	545.595	79.993	19.995	103.009	20.017	6.035	0.511
940.500	545.840	79.993	19.995	103.011	20.020	5.845	0.523
941.000	546.094	79.993	19.996	103.010	20.019	5.926	0.508
941.500	546.350	79.994	19.996	103.011	20.017	6.050	0.505
942.000	546.631	79.993	19.995	103.011	20.015	6.192	0.524
942.500	546.864	79.994	19.995	103.012	20.019	5.931	0.525
943.000	547.133	79.994	19.994	103.010	20.020	5.829	0.507
943.500	547.422	79.994	19.994	103.010	20.020	5.851	0.530
944.000	547.663	79.994	19.996	103.010	20.020	5.842	0.544
944.500	547.967	79.994	19.996	103.009	20.022	5.650	0.538
945.000	548.155	79.992	19.996	103.008	20.021	5.726	0.518
945.500	548.436	79.994	19.996	103.009	20.022	5.670	0.480
946.000	548.698	79.993	19.996	103.010	20.017	6.015	0.506
946.500	548.929	79.994	19.995	103.011	20.016	6.158	0.518
947.000	549.215	79.993	19.995	103.011	20.017	6.052	0.505
947.500	549.463	79.992	19.995	103.012	20.014	6.250	0.526
948.000	549.669	79.994	19.996	103.011	20.017	6.039	0.494
948.500	550.002	79.992	19.996	103.009	20.018	5.954	0.497
949.000	550.232	79.993	19.997	103.009	20.017	6.019	0.551
949.500	550.486	79.995	19.996	103.011	20.017	6.086	0.523
950.000	550.727	79.992	19.997	103.010	20.019	5.922	0.489
950.500	551.024	79.995	19.997	103.011	20.018	6.006	0.516
951.000	551.267	79.993	19.997	103.012	20.019	5.890	0.539
951.500	551.535	79.994	19.996	103.011	20.020	5.845	0.526
952.000	551.779	79.994	19.996	103.009	20.020	5.810	0.511
952.500	552.020	79.994	19.996	103.009	20.017	6.039	0.498
953.000	552.275	79.992	19.996	103.009	20.018	5.989	0.491
953.500	552.506	79.993	19.996	103.007	20.018	5.989	0.491
954.000	552.772	79.995	19.996	103.007	20.017	6.089	0.492
954.500	553.041	79.993	19.996	103.008	20.020	5.814	0.516
955.000	553.265	79.995	19.995	103.008	20.018	5.948	0.514
955.500	553.520	79.994	19.995	103.008	20.018	5.959	0.486
956.000	553.770	79.994	19.996	103.013	20.019	5.931	0.492
956.500	554.045	79.993	19.996	103.017	20.018	5.991	0.515
957.000	554.295	79.995	19.996	103.017	20.018	5.970	0.525
957.500	554.601	79.995	19.996	103.016	20.017	6.017	0.540
958.000	554.826	79.993	19.995	103.016	20.018	5.981	0.544
958.500	555.102	79.994	19.996	103.011	20.018	6.002	0.516
959.000	555.342	79.994	19.996	103.006	20.016	6.147	0.508
959.500	555.594	79.994	19.995	103.006	20.020	5.819	0.504
960.000	555.824	79.995	19.996	103.006	20.016	6.121	0.487
960.500	556.101	79.993	19.995	103.006	20.019	5.892	0.494
961.000	556.346	79.994	19.995	103.008	20.017	6.089	0.514
961.500	556.614	79.994	19.995	103.011	20.016	6.158	0.518
962.000	556.865	79.993	19.996	103.011	20.015	6.227	0.516
962.500	557.117	79.994	19.995	103.012	20.016	6.095	0.511
963.000	557.351	79.992	19.996	103.013	20.016	6.104	0.494
963.500	557.602	79.993	19.995	103.013	20.015	6.199	0.485
964.000	557.889	79.992	19.996	103.012	20.015	6.232	0.512
964.500	558.137	79.991	19.995	103.012	20.018	5.994	0.537
965.000	558.398	79.992	19.996	103.012	20.018	6.001	0.522
965.500	558.672	79.992	19.995	103.013	20.018	5.972	0.521
966.000	558.921	79.994	19.995	103.011	20.017	6.043	0.529
966.500	559.157	79.993	19.995	103.010	20.015	6.181	0.504
967.000	559.399	79.992	19.995	103.011	20.011	6.484	0.482
967.500	559.650	79.992	19.995	103.010	20.013	6.335	0.486
968.000	559.936	79.992	19.995	103.010	20.017	6.030	0.515
968.500	560.151	79.991	19.995	103.012	20.015	6.231	0.519
969.000	560.448	79.991	19.995	103.014	20.016	6.116	0.507
969.500	560.736	79.992	19.995	103.014	20.014	6.289	0.549
970.000	560.940	79.992	19.995	103.014	20.012	6.408	0.539
970.500	561.197	79.991	19.996	103.014	20.017	6.054	0.476
971.000	561.477	79.993	19.995	103.014	20.015	6.173	0.498
971.500	561.744	79.993	19.996	103.014	20.013	6.382	0.541
972.000	562.004	79.991	19.995	103.014	20.011	6.488	0.537
972.500	562.262	79.991	19.995	103.013	20.012	6.408	0.523
973.000	562.498	79.991	19.997	103.013	20.014	6.320	0.506
973.500	562.761	79.992	19.996	103.015	20.015	6.199	0.496
974.000	563.018	79.991	19.996	103.019	20.015	6.216	0.509
974.500	563.273	79.992	19.996	103.021	20.015	6.173	0.516
975.000	563.515	79.992	19.996	103.022	20.014	6.302	0.505
975.500	563.780	79.992	19.997	103.022	20.013	6.386	0.502
976.000	564.027	79.991	19.995	103.020	20.013	6.391	0.510
976.500	564.227	79.992	19.996	103.015	20.012	6.449	0.480
977.000	564.527	79.992	19.995	103.012	20.014	6.272	0.473
977.500	564.783	79.992	19.997	103.012	20.014	6.274	0.528
978.000	565.033	79.992	19.996	103.012	20.011	6.537	0.531
978.500	565.298	79.992	19.997	103.010	20.012	6.408	0.511
979.000	565.547	79.992	19.996	103.009	20.013	6.399	0.514
979.500	565.797	79.991	19.997	103.008	20.012	6.472	0.507
980.000	566.050	79.991	19.998	103.008	20.012	6.442	0.501
980.500	566.337	79.991	19.996	103.007	20.012	6.414	0.521
981.000	566.554	79.991	19.997	103.008	20.013	6.395	0.522
981.500	566.833	79.991	19.996	103.009	20.011	6.499	0.500
982.000	567.056	79.991	19.996	103.011	20.009	6.665	0.499
982.500	567.321	79.991	19.996	103.014	20.008	6.717	0.495
983.000	567.606	79.991	19.996	103.014	20.014	6.261	0.519
983.500	567.865	79.991	19.997	103.014	20.014	6.250	0.547
984.000	568.104	79.992	19.996	103.012	20.010	6.596	0.521
984.500	568.362	79.993	19.997	103.011	20.008	6.736	0.498
985.000	568.625	79.991	19.995	103.008	20.011	6.488	0.509
985.500	568.876	79.993	19.996	103.008	20.008	6.745	0.517
986.000	569.142	79.992	19.996	103.008	20.008	6.708	0.516
986.500	569.384	79.991	19.996	103.008	20.011	6.544	0.513
987.000	569.641	79.990	19.996	103.008	20.010	6.587	0.504
987.500	569.883	79.992	19.996	103.009	20.008	6.715	0.499
988.000	570.155	79.992	19.997	103.009	20.010	6.583	0.506
988.500	570.414	79.991	19.996	103.008	20.007	6.853	0.522
989.000	570.635	79.991	19.997	103.006	20.008	6.762	0.505
989.500	570.908	79.992	19.995	103.006	20.008	6.763	0.487
990.000	571.157	79.991	19.995	103.006	20.007	6.799	0.508
990.500	571.415	79.991	19.997	103.005	20.003	7.115	0.515
991.000	571.669	79.991	19.997	103.005	20.006	6.882	0.509
991.501	571.928	79.991	19.995	103.008	20.004	7.037	0.512
992.001	572.165	79.991	19.995	103.008	20.006	6.888	0.505
992.501	572.437	79.991	19.996	103.008	20.001	7.257	0.502
993.000	572.686	79.991	19.994	103.008	20.004	7.037	0.515
993.500	572.948	79.989	19.996	103.008	20.002	7.246	0.516
994.001	573.226	79.992	19.996	103.008	20.003	7.143	0.526
994.500	573.490	79.991	19.995	103.008	20.001	7.318	0.541
995.000	573.713	79.990	19.996	103.009	20.000	7.365	0.514
995.500	574.005	79.991	19.996	103.007	19.997	7.575	0.501
996.000	574.304	79.992	19.996	103.008	19.998	7.495	0.554
996.500	574.517	79.992	19.994	103.007	20.002	7.220	0.551
997.000	574.824	79.992	19.996	103.007	20.001	7.313	0.516
997.500	575.070	79.991	19.995	103.007	20.000	7.369	0.537
998.000	575.309	79.990	19.996	103.009	19.998	7.542	0.519
998.500	575.595	79.990	19.996	103.009	19.996	7.642	0.505
999.000	575.826	79.990	19.995	103.010	20.000	7.331	0.521
999.500	576.068	79.992	19.996	103.012	19.996	7.662	0.495
1000.000	576.338	79.991	19.994	103.015	19.997	7.587	0.493
1000.500	576.618	79.990	19.995	103.019	19.996	7.647	0.531
1001.000	576.850	79.992	19.997	103.021	19.997	7.634	0.531
1001.500	577.130	79.992	19.996	103.020	19.995	7.740	0.512
1002.000	577.373	79.992	19.996	103.023	19.997	7.634	0.518
1002.500	577.650	79.992	19.997	103.020	19.995	7.729	0.522
1003.000	577.908	79.992	19.996	103.018	19.994	7.792	0.527
1003.500	578.171	79.993	19.996	103.018	19.994	7.855	0.528
1004.000	578.407	79.991	19.996	103.021	19.991	8.064	0.510
1004.500	578.654	79.992	19.996	103.020	19.990	8.133	0.491
1005.000	578.903	79.992	19.996	103.023	19.989	8.211	0.490
1005.500	579.164	79.993	19.996	103.024	19.989	8.230	0.503
1006.000	579.419	79.992	19.996	103.022	19.989	8.215	0.513
1006.500	579.661	79.992	19.996	103.022	19.988	8.321	0.507
1007.000	579.922	79.993	19.995	103.022	19.988	8.307	0.500
1007.500	580.190	79.992	19.996	103.020	19.989	8.201	0.516
1008.000	580.453	79.993	19.995	103.017	19.985	8.499	0.530
1008.500	580.705	79.993	19.995	103.018	19.990	8.127	0.523
1009.000	580.959	79.992	19.997	103.021	19.984	8.596	0.510
1009.500	581.203	79.992	19.997	103.023	19.985	8.534	0.502
1010.000	581.448	79.992	19.995	103.030	19.986	8.469	0.494
1010.500	581.707	79.992	19.997	103.038	19.983	8.653	0.497
1011.000	581.983	79.994	19.996	103.045	19.985	8.517	0.519
1011.500	582.226	79.993	19.995	103.042	19.981	8.806	0.527
1012.000	582.494	79.992	19.996	103.038	19.986	8.406	0.515
1012.500	582.717	79.992	19.996	103.035	19.982	8.786	0.501
1013.000	582.968	79.992	19.996	103.035	19.981	8.840	0.482
1013.500	583.215	79.992	19.997	103.034	19.974	9.371	0.486
1014.000	583.471	79.993	19.995	103.040	19.979	8.981	0.501
1014.500	583.719	79.993	19.995	103.043	19.972	9.498	0.504
1015.000	583.985	79.992	19.995	103.042	19.977	9.166	0.509
1015.500	584.244	79.992	19.996	103.041	19.972	9.508	0.520
1016.000	584.495	79.993	19.997	103.041	19.971	9.583	0.517
1016.500	584.748	79.992	19.997	103.036	19.971	9.578	0.506
1017.000	584.988	79.992	19.996	103.036	19.968	9.869	0.498
1017.500	585.253	79.993	19.995	103.037	19.964	10.134	0.499
1018.000	585.485	79.992	19.996	103.031	19.963	10.195	0.501
1018.500	585.763	79.992	19.994	103.025	19.970	9.713	0.503
1019.000	585.980	79.992	19.994	103.022	19.962	10.255	0.502
1019.500	586.269	79.993	19.996	103.021	19.962	10.292	0.501
1020.000	586.500	79.993	19.996	103.022	19.956	10.766	0.513
1020.500	586.739	79.992	19.996	103.025	19.955	10.861	0.495
1021.000	587.021	79.993	19.996	103.027	19.953	10.982	0.496
1021.500	587.241	79.993	19.996	103.031	19.954	10.929	0.511
1022.000	587.528	79.993	19.996	103.033	19.955	10.845	0.504
1022.500	587.784	79.994	19.996	103.030	19.952	11.076	0.525
1023.000	588.054	79.992	19.996	103.027	19.953	10.957	0.535
1023.500	588.285	79.993	19.996	103.026	19.950	11.251	0.514
1024.000	588.521	79.992	19.996	103.022	19.943	11.733	0.485
1024.500	588.775	79.992	19.994	103.022	19.942	11.834	0.479
1025.000	589.025	79.993	19.995	103.026	19.943	11.755	0.497
1025.500	589.315	79.991	19.995	103.034	19.937	12.247	0.522
1026.000	589.544	79.992	19.995	103.041	19.936	12.295	0.529
1026.500	589.786	79.992	19.994	103.048	19.933	12.567	0.495
1027.000	590.036	79.992	19.995	103.046	19.928	12.901	0.482
1027.500	590.276	79.994	19.996	103.041	19.928	12.944	0.491
1028.000	590.541	79.993	19.995	103.036	19.926	13.091	0.497
1028.500	590.800	79.993	19.996	103.031	19.921	13.486	0.514
1029.001	591.061	79.995	19.997	103.028	19.920	13.559	0.522
1029.501	591.277	79.993	19.995	103.030	19.919	13.648	0.499
1030.000	591.535	79.995	19.996	103.030	19.913	14.071	0.476
1030.500	591.750	79.992	19.994	103.033	19.910	14.279	0.473
1031.000	592.027	79.994	19.994	103.038	19.909	14.402	0.482
1031.500	592.274	79.994	19.994	103.041	19.907	14.531	0.508
1032.000	592.557	79.995	19.994	103.044	19.906	14.635	0.527
1032.500	592.796	79.995	19.994	103.050	19.902	14.895	0.526
1033.000	593.029	79.995	19.996	103.052	19.899	15.167	0.497
1033.500	593.291	79.996	19.995	103.052	19.897	15.271	0.483
1034.000	593.537	79.996	19.993	103.052	19.894	15.544	0.501
1034.500	593.791	79.994	19.995	103.052	19.892	15.678	0.504
1035.000	594.046	79.995	19.996	103.053	19.888	15.969	0.505
1035.500	594.303	79.996	19.995	103.054	19.889	15.939	0.511
1036.000	594.575	79.995	19.995	103.056	19.882	16.502	0.521
1036.500	594.844	79.996	19.995	103.056	19.885	16.203	0.535
1037.000	595.083	79.995	19.996	103.057	19.875	16.988	0.524
1037.500	595.388	79.996	19.994	103.055	19.879	16.679	0.526
1038.000	595.600	79.995	19.995	103.053	19.870	17.390	0.531
1038.500	595.852	79.993	19.995	103.051	19.870	17.396	0.490
1039.000	596.107	79.994	19.994	103.050	19.871	17.276	0.485
1039.501	596.418	79.994	19.995	103.049	19.867	17.658	0.536
1040.001	596.617	79.994	19.996	103.049	19.860	18.185	0.538
1040.501	596.861	79.993	19.995	103.048	19.858	18.301	0.477
1041.000	597.129	79.994	19.996	103.048	19.858	18.280	0.478
1041.500	597.336	79.992	19.995	103.048	19.858	18.322	0.494
1042.000	597.634	79.992	19.996	103.048	19.854	18.650	0.490
1042.500	597.878	79.992	19.997	103.047	19.852	18.806	0.523
1043.000	598.148	79.994	19.995	103.047	19.851	18.856	0.528
1043.500	598.382	79.992	19.997	103.054	19.846	19.247	0.509
1044.000	598.632	79.994	19.997	103.056	19.843	19.510	0.494
1044.500	598.874	79.994	19.996	103.058	19.842	19.566	0.488
1045.000	599.121	79.992	19.996	103.063	19.838	19.898	0.491
1045.500	599.387	79.992	19.996	103.064	19.838	19.839	0.501
1046.000	599.643	79.994	19.996	103.058	19.837	19.961	0.517
1046.500	599.897	79.992	19.996	103.056	19.827	20.672	0.516
1047.000	600.155	79.993	19.995	103.055	19.827	20.712	0.511
1047.500	600.404	79.993	19.996	103.051	19.826	20.820	0.510
1048.001	600.663	79.992	19.996	103.052	19.824	20.913	0.508
1048.501	600.901	79.992	19.996	103.056	19.824	20.968	0.503
1049.000	601.165	79.992	19.996	103.056	19.818	21.414	0.499
1049.500	601.439	79.994	19.996	103.055	19.816	21.535	0.520
1050.001	601.661	79.991	19.996	103.057	19.813	21.780	0.517
1050.501	601.923	79.993	19.996	103.059	19.811	21.950	0.490
1051.000	602.175	79.993	19.996	103.058	19.808	22.179	0.499
1051.500	602.417	79.994	19.996	103.064	19.807	22.249	0.504
1052.000	602.673	79.992	19.996	103.071	19.807	22.256	0.496
1052.500	602.946	79.993	19.996	103.071	19.801	22.713	0.514
1053.000	603.214	79.992	19.996	103.074	19.799	22.866	0.535
1053.500	603.456	79.993	19.996	103.074	19.801	22.740	0.526
1054.000	603.689	79.993	19.994	103.075	19.798	22.950	0.492
1054.500	603.953	79.994	19.996	103.075	19.790	23.528	0.486
1055.000	604.207	79.993	19.996	103.075	19.793	23.336	0.507
1055.500	604.473	79.992	19.996	103.069	19.788	23.722	0.518
1056.000	604.733	79.993	19.996	103.068	19.786	23.890	0.523
1056.500	604.975	79.993	19.995	103.067	19.786	23.853	0.514
1057.000	605.239	79.993	19.995	103.061	19.785	23.931	0.505
1057.500	605.497	79.993	19.995	103.058	19.783	24.091	0.514
1058.000	605.743	79.992	19.996	103.057	19.781	24.252	0.513
1058.501	606.041	79.993	19.995	103.056	19.780	24.303	0.524
1059.001	606.277	79.992	19.996	103.057	19.778	24.475	0.539
1059.501	606.519	79.991	19.996	103.062	19.775	24.689	0.506
1060.001	606.767	79.993	19.996	103.064	19.776	24.645	0.484
1060.500	607.011	79.992	19.996	103.068	19.775	24.714	0.491
1061.000	607.294	79.992	19.996	103.069	19.772	24.950	0.509
1061.500	607.542	79.992	19.996	103.066	19.769	25.222	0.529
1062.000	607.789	79.993	19.996	103.068	19.769	25.166	0.513
1062.500	608.059	79.993	19.996	103.072	19.766	25.423	0.506
1063.000	608.310	79.992	19.996	103.075	19.769	25.181	0.519
1063.500	608.584	79.993	19.997	103.078	19.765	25.492	0.523
1064.000	608.802	79.993	19.996	103.078	19.764	25.535	0.509
1064.500	609.072	79.992	19.997	103.075	19.766	25.427	0.490
1065.000	609.326	79.993	19.997	103.074	19.761	25.780	0.506
1065.500	609.583	79.993	19.998	103.071	19.761	25.786	0.518
1066.000	609.807	79.994	19.995	103.072	19.760	25.859	0.496
1066.500	610.091	79.993	19.997	103.069	19.757	26.087	0.495
1067.000	610.339	79.992	19.996	103.067	19.758	26.018	0.520
1067.500	610.650	79.994	19.996	103.066	19.759	25.967	0.545
1068.000	610.874	79.992	19.997	103.067	19.757	26.073	0.546
1068.500	611.116	79.991	19.996	103.069	19.754	26.347	0.501
1069.000	611.393	79.992	19.997	103.075	19.753	26.407	0.493
1069.500	611.612	79.991	19.996	103.078	19.757	26.112	0.507
1070.000	611.860	79.991	19.997	103.075	19.753	26.387	0.481
1070.500	612.145	79.992	19.998	103.075	19.756	26.188	0.500
1071.000	612.398	79.992	19.996	103.073	19.755	26.232	0.536
1071.500	612.659	79.991	19.996	103.072	19.755	26.255	0.526
1072.001	612.944	79.991	19.997	103.075	19.754	26.363	0.530
1072.501	613.143	79.992	19.997	103.081	19.752	26.455	0.515
1073.001	613.403	79.991	19.997	103.081	19.754	26.314	0.472
1073.501	613.716	79.990	19.997	103.081	19.756	26.165	0.516
1074.001	613.958	79.990	19.997	103.082	19.754	26.372	0.564
1074.500	614.207	79.990	19.996	103.082	19.756	26.158	0.523
1075.000	614.481	79.991	19.997	103.081	19.759	25.929	0.507
1075.500	614.715	79.990	19.997	103.082	19.759	25.926	0.515
1076.000	615.007	79.991	19.997	103.085	19.759	25.958	0.517
1076.501	615.256	79.991	19.996	103.084	19.759	25.958	0.534
1077.001	615.484	79.991	19.995	103.082	19.758	25.990	0.509
1077.500	615.781	79.992	19.996	103.076	19.763	25.621	0.500
1078.000	616.049	79.993	19.996	103.070	19.760	25.869	0.545
1078.500	616.291	79.992	19.995	103.064	19.766	25.381	0.537
1079.000	616.564	79.991	19.996	103.065	19.767	25.306	0.513
1079.500	616.834	79.992	19.996	103.064	19.769	25.213	0.529
1080.000	617.083	79.993	19.996	103.070	19.776	24.656	0.531
1080.500	617.296	79.992	19.995	103.073	19.773	24.839	0.490
1081.000	617.582	79.991	19.996	103.075	19.778	24.506	0.480
1081.500	617.851	79.991	19.996	103.073	19.781	24.218	0.527
1082.000	618.112	79.991	19.996	103.070	19.785	23.931	0.543
1082.501	618.312	79.991	19.996	103.066	19.785	23.959	0.496
1083.001	618.581	79.992	19.995	103.064	19.785	23.931	0.465
1083.500	618.855	79.993	19.995	103.062	19.792	23.432	0.506
1084.000	619.108	79.992	19.996	103.059	19.790	23.519	0.535
1084.500	619.353	79.992	19.996	103.058	19.798	22.907	0.512
1085.000	619.627	79.993	19.996	103.058	19.803	22.591	0.508
1085.500	619.873	79.992	19.996	103.057	19.809	22.111	0.519
1086.001	620.134	79.994	19.996	103.060	19.812	21.856	0.514
1086.501	620.380	79.992	19.996	103.064	19.813	21.817	0.507
1087.000	620.659	79.994	19.995	103.062	19.818	21.422	0.516
1087.500	620.915	79.994	19.995	103.060	19.822	21.097	0.530
1088.000	621.158	79.993	19.995	103.059	19.829	20.532	0.517
1088.500	621.432	79.993	19.996	103.054	19.834	20.192	0.508
1089.001	621.660	79.994	19.994	103.050	19.839	19.775	0.509
1089.501	621.930	79.993	19.995	103.051	19.844	19.410	0.500
1090.002	622.182	79.995	19.995	103.053	19.849	19.019	0.510
1090.501	622.408	79.993	19.996	103.053	19.857	18.385	0.500
1091.000	622.690	79.994	19.996	103.053	19.861	18.116	0.493
1091.500	622.928	79.991	19.994	103.051	19.866	17.682	0.514
1092.000	623.187	79.994	19.995	103.049	19.874	17.078	0.509
1092.500	623.450	79.994	19.995	103.049	19.877	16.867	0.510
1093.001	623.691	79.993	19.994	103.049	19.882	16.448	0.513
1093.501	623.965	79.993	19.995	103.049	19.887	16.095	0.509
1094.000	624.238	79.992	19.995	103.049	19.898	15.264	0.531
1094.500	624.490	79.993	19.993	103.050	19.902	14.900	0.536
1095.000	624.730	79.994	19.996	103.050	19.903	14.807	0.509
1095.500	624.989	79.993	19.996	103.046	19.913	14.084	0.495
1096.000	625.256	79.993	19.996	103.044	19.918	13.651	0.513
1096.500	625.476	79.992	19.996	103.043	19.925	13.148	0.507
1097.000	625.735	79.993	19.994	103.043	19.927	13.016	0.483
1097.500	625.994	79.994	19.995	103.043	19.936	12.309	0.499
1098.000	626.259	79.992	19.996	103.042	19.938	12.142	0.521
1098.500	626.522	79.993	19.995	103.036	19.948	11.356	0.526
1099.000	626.750	79.991	19.995	103.030	19.952	11.036	0.510
1099.500	627.023	79.992	19.995	103.024	19.958	10.617	0.496
1100.000	627.280	79.993	19.995	103.022	19.961	10.385	0.515
1100.500	627.543	79.994	19.995	103.022	19.969	9.719	0.525
1101.000	627.801	79.992	19.995	103.022	19.969	9.786	0.521
1101.500	628.033	79.992	19.996	103.025	19.975	9.311	0.505
1102.000	628.309	79.992	19.995	103.030	19.977	9.121	0.499
1102.500	628.559	79.994	19.995	103.032	19.980	8.899	0.516
1103.000	628.759	79.992	19.996	103.037	19.984	8.628	0.488
1103.500	629.120	79.994	19.995	103.040	19.987	8.377	0.506
1104.000	629.310	79.993	19.996	103.039	19.988	8.289	0.556
1104.500	629.582	79.992	19.995	103.033	19.994	7.859	0.507
1105.000	629.809	79.993	19.996	103.024	19.997	7.572	0.480
1105.500	630.114	79.994	19.994	103.017	19.998	7.554	0.515
1106.000	630.327	79.993	19.996	103.013	20.003	7.168	0.525
1106.500	630.601	79.994	19.995	103.017	20.000	7.397	0.503
1107.001	630.831	79.992	19.997	103.021	20.004	7.056	0.495
1107.501	631.078	79.994	19.995	103.022	20.006	6.935	0.490
1108.000	631.337	79.994	19.996	103.024	20.008	6.730	0.492
1108.501	631.613	79.995	19.995	103.029	20.010	6.602	0.521
1109.001	631.825	79.994	19.995	103.026	20.008	6.715	0.511
1109.500	632.073	79.994	19.996	103.024	20.011	6.542	0.474
1110.000	632.325	79.994	19.995	103.024	20.015	6.207	0.480
1110.500	632.574	79.996	19.994	103.019	20.013	6.334	0.501
1111.000	632.795	79.994	19.995	103.008	20.015	6.218	0.485
1111.500	633.076	79.994	19.994	102.999	20.012	6.427	0.486
1112.000	633.316	79.995	19.995	102.996	20.015	6.233	0.512
1112.500	633.573	79.996	19.995	102.995	20.017	6.062	0.509
1113.000	633.828	79.995	19.995	102.996	20.016	6.160	0.504
1113.500	634.076	79.994	19.995	103.007	20.015	6.209	0.508
1114.001	634.358	79.996	19.995	103.015	20.015	6.170	0.516
1114.501	634.592	79.996	19.995	103.015	20.020	5.853	0.523
1115.001	634.833	79.995	19.994	103.017	20.022	5.669	0.496
1115.500	635.102	79.995	19.995	103.014	20.021	5.767	0.493
1116.000	635.382	79.997	19.994	103.009	20.017	6.028	0.529
1116.500	635.616	79.995	19.994	103.006	20.020	5.812	0.531
1117.000	635.836	79.995	19.994	103.006	20.021	5.741	0.484
1117.500	636.133	79.994	19.995	103.006	20.018	5.956	0.486
1118.000	636.377	79.995	19.995	103.008	20.021	5.779	0.529
1118.500	636.621	79.996	19.995	103.008	20.019	5.868	0.514
1119.000	636.827	79.993	19.994	103.009	20.022	5.678	0.469
1119.501	637.081	79.994	19.994	103.011	20.020	5.831	0.455
1120.001	637.348	79.993	19.995	103.010	20.020	5.806	0.491
1120.500	637.599	79.995	19.995	103.007	20.020	5.799	0.520
1121.000	637.817	79.995	19.995	103.006	20.024	5.490	0.493
1121.500	638.124	79.994	19.995	103.005	20.021	5.711	0.497
1122.000	638.377	79.994	19.995	103.003	20.023	5.624	0.543
1122.500	638.578	79.993	19.994	103.004	20.025	5.473	0.507
1123.000	638.807	79.993	19.995	103.008	20.023	5.566	0.442
1123.500	639.073	79.993	19.996	103.008	20.022	5.674	0.463
1124.000	639.303	79.992	19.996	103.009	20.023	5.607	0.496
1124.500	639.564	79.993	19.996	103.008	20.025	5.404	0.493
1125.000	639.803	79.993	19.995	103.008	20.026	5.327	0.496
1125.500	640.069	79.993	19.996	103.008	20.020	5.819	0.502
1126.000	640.283	79.992	19.996	103.007	20.019	5.892	0.492
1126.501	640.524	79.992	19.996	103.008	20.017	6.052	0.467
1127.001	640.814	79.993	19.996	103.008	20.022	5.631	0.493
1127.500	641.032	79.993	19.996	103.006	20.018	5.953	0.520
1128.000	641.292	79.992	19.996	103.005	20.024	5.547	0.493
1128.500	641.515	79.992	19.995	103.006	20.019	5.867	0.480
1129.000	641.791	79.993	19.997	103.005	20.021	5.748	0.491
1129.500	642.070	79.992	19.997	103.005	20.018	5.997	0.527
1130.000	642.264	79.991	19.997	103.007	20.023	5.558	0.514
1130.500	642.477	79.991	19.997	103.008	20.023	5.556	0.440
1131.000	642.762	79.992	19.997	103.008	20.022	5.703	0.452
1131.500	643.003	79.992	19.996	103.009	20.020	5.828	0.512
1132.000	643.233	79.992	19.996	103.009	20.023	5.595	0.499
1132.500	643.499	79.992	19.996	103.010	20.021	5.746	0.484
1133.000	643.716	79.993	19.995	103.009	20.022	5.703	0.490
1133.500	643.992	79.992	19.997	103.010	20.020	5.787	0.488
1134.000	644.219	79.994	19.995	103.010	20.027	5.308	0.497
1134.500	644.496	79.993	19.996	103.011	20.023	5.567	0.503
1135.000	644.734	79.992	19.996	103.012	20.024	5.545	0.509
1135.500	644.971	79.992	19.998	103.016	20.023	5.575	0.495
1136.000	645.251	79.991	19.996	103.016	20.024	5.521	0.496
1136.500	645.428	79.993	19.995	103.016	20.023	5.607	0.487
1137.000	645.637	79.992	19.995	103.017	20.022	5.698	0.421
1137.500	645.943	79.991	19.997	103.016	20.023	5.590	0.451
1138.000	646.226	79.991	19.995	103.013	20.024	5.547	0.552
1138.500	646.479	79.993	19.996	103.020	20.026	5.372	0.562
1139.001	646.739	79.991	19.994	103.027	20.022	5.677	0.525
1139.501	646.984	79.992	19.997	103.028	20.023	5.588	0.509
1140.000	647.199	79.992	19.995	103.027	20.020	5.817	0.482
1140.500	647.458	79.992	19.995	103.029	20.020	5.838	0.467
1141.000	647.612	79.992	19.995	103.024	20.021	5.745	0.444
1141.500	647.990	79.993	19.996	103.021	20.017	6.024	0.473
1142.000	648.205	79.993	19.996	103.020	20.019	5.866	0.563
1142.500	648.439	79.992	19.995	103.020	20.018	5.944	0.521
1143.000	648.709	79.993	19.995	103.020	20.021	5.722	0.476
1143.500	648.897	79.993	19.996	103.023	20.017	6.062	0.481
1144.000	649.219	79.991	19.996	103.027	20.023	5.628	0.484
1144.500	649.472	79.991	19.996	103.033	20.021	5.720	0.542
1145.000	649.683	79.993	19.994	103.034	20.017	6.023	0.520
1145.500	649.956	79.993	19.994	103.031	20.018	5.960	0.474
1146.000	650.206	79.992	19.994	103.026	20.018	5.955	0.503
1146.500	650.523	79.992	19.995	103.019	20.016	6.095	0.545
1147.001	650.781	79.992	19.995	103.015	20.017	6.022	0.571
1147.501	650.969	79.992	19.996	103.014	20.018	5.996	0.511
1148.001	651.237	79.992	19.996	103.014	20.018	5.979	0.451
1148.501	651.445	79.993	19.996	103.014	20.018	5.945	0.466
1149.001	651.682	79.991	19.996	103.019	20.015	6.187	0.461
1149.501	651.948	79.992	19.995	103.020	20.015	6.228	0.474
1150.000	652.198	79.991	19.996	103.019	20.019	5.932	0.509
1150.500	652.459	79.992	19.996	103.019	20.015	6.176	0.513
1151.000	652.748	79.992	19.996	103.018	20.018	5.953	0.531
1151.500	652.909	79.992	19.995	103.014	20.016	6.162	0.500
1152.000	653.213	79.990	19.996	103.012	20.015	6.227	0.457
1152.501	653.458	79.992	19.995	103.012	20.018	5.977	0.507
1153.001	653.706	79.991	19.996	103.014	20.016	6.100	0.521
1153.500	653.955	79.991	19.996	103.020	20.018	5.982	0.495
1154.000	654.212	79.990	19.995	103.023	20.014	6.308	0.502
1154.501	654.465	79.990	19.994	103.030	20.013	6.369	0.508
1155.001	654.691	79.991	19.996	103.032	20.018	5.965	0.495
1155.500	654.959	79.989	19.996	103.032	20.014	6.253	0.486
1156.000	655.169	79.991	19.996	103.029	20.015	6.218	0.485
1156.500	655.436	79.990	19.997	103.025	20.017	6.036	0.477
1157.000	655.686	79.990	19.995	103.021	20.017	6.060	0.497
1157.500	655.938	79.991	19.996	103.018	20.014	6.302	0.509
1158.000	656.169	79.990	19.996	103.021	20.016	6.170	0.493
1158.500	656.446	79.990	19.996	103.019	20.016	6.166	0.496
1159.000	656.673	79.991	19.997	103.020	20.014	6.297	0.506
1159.501	656.944	79.992	19.996	103.026	20.015	6.201	0.501
1160.001	657.177	79.991	19.997	103.033	20.013	6.337	0.502
1160.500	657.432	79.992	19.997	103.029	20.014	6.270	0.496
1161.000	657.689	79.993	19.997	103.030	20.019	5.905	0.500
1161.500	657.893	79.992	19.995	103.030	20.017	6.091	0.486
1162.000	658.148	79.992	19.997	103.025	20.018	5.985	0.460
1162.500	658.386	79.993	19.996	103.019	20.015	6.185	0.476
1163.000	658.678	79.993	19.996	103.022	20.015	6.202	0.512
1163.500	658.921	79.995	19.997	103.023	20.011	6.520	0.532
1164.000	659.138	79.992	19.996	103.027	20.017	6.023	0.497
1164.500	659.435	79.992	19.995	103.031	20.016	6.142	0.487
1165.000	659.673	79.994	19.996	103.037	20.013	6.378	0.524
1165.500	659.938	79.993	19.995	103.041	20.012	6.406	0.519
1166.000	660.164	79.994	19.996	103.045	20.014	6.311	0.497
1166.501	660.478	79.994	19.996	103.046	20.014	6.322	0.515
1167.001	660.665	79.994	19.997	103.046	20.013	6.387	0.521
1167.500	660.940	79.995	19.996	103.042	20.015	6.205	0.481
1168.000	661.169	79.994	19.994	103.035	20.016	6.130	0.483
1168.500	661.453	79.995	19.995	103.034	20.016	6.158	0.509
1169.000	661.684	79.994	19.994	103.035	20.011	6.497	0.514
1169.500	661.968	79.994	19.996	103.035	20.013	6.352	0.514
1170.000	662.203	79.993	19.994	103.039	20.013	6.376	0.517
1170.500	662.467	79.993	19.995	103.046	20.015	6.199	0.509
1171.000	662.676	79.994	19.996	103.047	20.013	6.343	0.486
1171.500	662.958	79.993	19.994	103.046	20.015	6.181	0.482
1172.000	663.221	79.994	19.994	103.046	20.015	6.199	0.518
1172.500	663.455	79.992	19.996	103.046	20.013	6.374	0.521
1173.000	663.717	79.995	19.996	103.046	20.016	6.117	0.496
1173.500	663.957	79.993	19.996	103.042	20.014	6.257	0.499
1174.001	664.188	79.994	19.996	103.038	20.016	6.112	0.487
1174.501	664.476	79.994	19.994	103.038	20.015	6.195	0.495
1175.000	664.698	79.995	19.996	103.038	20.012	6.413	0.514
1175.500	664.967	79.994	19.997	103.038	20.016	6.125	0.501
1176.000	665.201	79.995	19.995	103.044	20.014	6.307	0.497
1176.500	665.493	79.995	19.995	103.049	20.013	6.394	0.514
1177.000	665.693	79.994	19.996	103.052	20.015	6.189	0.509
1177.500	665.949	79.995	19.996	103.053	20.014	6.277	0.474
1178.000	666.200	79.992	19.995	103.053	20.013	6.342	0.481
1178.500	666.465	79.993	19.997	103.053	20.011	6.493	0.512
1179.000	666.678	79.994	19.997	103.054	20.015	6.197	0.497
1179.500	666.946	79.993	19.994	103.052	20.015	6.182	0.480
1180.000	667.160	79.994	19.994	103.050	20.014	6.298	0.482
1180.501	667.428	79.993	19.994	103.050	20.013	6.363	0.482
1181.001	667.660	79.993	19.994	103.049	20.011	6.482	0.491
1181.500	667.921	79.993	19.996	103.046	20.017	6.035	0.496
1182.000	668.159	79.994	19.995	103.047	20.012	6.456	0.496
1182.500	668.426	79.994	19.995	103.048	20.014	6.322	0.502
1183.000	668.609	79.994	19.996	103.048	20.017	6.050	0.478
1183.500	668.883	79.993	19.995	103.049	20.014	6.264	0.454
1184.000	669.151	79.995	19.995	103.050	20.012	6.420	0.500
1184.500	669.363	79.995	19.995	103.050	20.014	6.252	0.511
1185.000	669.645	79.994	19.996	103.051	20.012	6.408	0.486
1185.500	669.887	79.994	19.996	103.052	20.014	6.269	0.509
1186.000	670.168	79.992	19.995	103.051	20.013	6.401	0.524
1186.500	670.353	79.994	19.996	103.051	20.014	6.266	0.495
1187.000	670.619	79.993	19.996	103.052	20.013	6.381	0.459
1187.500	670.861	79.994	19.994	103.056	20.014	6.271	0.480
1188.000	671.110	79.994	19.995	103.060	20.013	6.329	0.500
1188.501	671.391	79.993	19.995	103.061	20.012	6.407	0.510
1189.001	671.611	79.995	19.995	103.061	20.012	6.457	0.515
1189.500	671.852	79.995	19.995	103.059	20.013	6.362	0.481
1190.001	672.088	79.994	19.996	103.058	20.010	6.602	0.469
1190.501	672.327	79.993	19.995	103.055	20.009	6.636	0.476
1191.000	672.576	79.995	19.994	103.055	20.012	6.463	0.481
1191.500	672.797	79.993	19.994	103.056	20.012	6.410	0.479
1192.000	673.066	79.995	19.995	103.057	20.010	6.559	0.480
1192.500	673.288	79.996	19.995	103.051	20.013	6.334	0.491
1193.000	673.558	79.996	19.996	103.051	20.011	6.525	0.492
1193.500	673.823	79.995	19.995	103.052	20.011	6.495	0.514
1194.000	674.066	79.995	19.995	103.055	20.013	6.374	0.521
1194.500	674.282	79.996	19.996	103.061	20.013	6.402	0.483
1195.000	674.536	79.996	19.995	103.067	20.013	6.350	0.464
1195.500	674.793	79.994	19.996	103.070	20.013	6.369	0.491
1196.000	675.013	79.994	19.995	103.074	20.011	6.512	0.494
1196.500	675.260	79.995	19.994	103.073	20.014	6.270	0.472
1197.000	675.516	79.995	19.996	103.066	20.011	6.529	0.485
1197.500	675.792	79.996	19.995	103.061	20.012	6.435	0.518
1198.000	676.036	79.996	19.995	103.060	20.012	6.458	0.526
1198.500	676.260	79.995	19.997	103.062	20.013	6.355	0.494
1199.000	676.506	79.997	19.990	103.066	20.010	6.575	0.469
1199.500	676.754	79.994	19.997	103.069	20.014	6.292	0.482
1200.001	676.974	79.992	19.994	103.070	20.014	6.273	0.481
1200.501	677.203	79.992	19.995	103.069	20.014	6.292	0.458
1201.000	677.444	79.994	19.995	103.065	20.012	6.452	0.459
1201.500	677.703	79.992	19.996	103.062	20.011	6.537	0.485
1202.000	677.960	79.994	19.995	103.066	20.014	6.321	0.508
1202.500	678.226	79.992	19.995	103.071	20.011	6.504	0.520
1203.000	678.460	79.993	19.995	103.073	20.011	6.483	0.512
1203.500	678.684	79.995	19.995	103.077	20.011	6.517	0.479
1204.000	678.896	79.994	19.994	103.081	20.013	6.351	0.447
1204.500	679.114	79.992	19.995	103.083	20.009	6.660	0.433
1205.001	679.391	79.993	19.995	103.085	20.010	6.597	0.462
1205.501	679.489	79.994	19.995	103.087	20.010	6.564	0.435
1206.002	679.936	79.989	19.996	103.085	20.014	6.264	0.460
1206.501	680.141	79.995	19.992	103.085	20.011	6.504	0.599
1207.000	680.366	79.994	19.994	103.084	20.009	6.655	0.541
1207.500	680.568	79.994	19.994	103.085	20.010	6.605	0.428
1208.000	680.834	79.993	19.994	103.087	20.010	6.599	0.448
1208.500	681.057	79.989	19.999	103.090	20.009	6.668	0.479
1209.000	681.293	79.992	19.996	103.089	20.008	6.720	0.474
1209.500	681.609	79.992	19.995	103.090	20.012	6.446	0.505
1210.000	681.817	79.993	19.995	103.090	20.003	7.138	0.538
1210.500	682.035	79.994	19.997	103.089	20.015	6.217	0.475
1211.000	682.310	79.991	19.995	103.090	20.010	6.613	0.460
1211.500	682.533	79.995	19.995	103.094	20.013	6.347	0.496
1212.000	682.789	79.992	19.995	103.096	20.008	6.766	0.489
1212.501	683.040	79.993	19.997	103.096	20.009	6.638	0.493
1213.001	683.271	79.991	19.996	103.099	20.008	6.761	0.494
1213.500	683.512	79.994	19.997	103.101	20.008	6.783	0.477
1214.000	683.750	79.993	19.997	103.103	20.007	6.852	0.475
1214.500	683.995	79.992	19.996	103.101	20.010	6.598	0.481
1215.001	684.249	79.993	19.994	103.101	20.009	6.665	0.491
1215.501	684.488	79.993	19.996	103.098	20.010	6.620	0.496
1216.000	684.741	79.993	19.995	103.095	20.008	6.773	0.493
1216.500	684.950	79.993	19.996	103.091	20.012	6.426	0.477
1217.000	685.213	79.993	19.995	103.091	20.008	6.739	0.467
1217.500	685.459	79.993	19.995	103.090	20.005	6.951	0.491
1218.000	685.723	79.993	19.997	103.090	20.006	6.878	0.509
1218.500	685.926	79.993	19.995	103.091	20.010	6.593	0.488
1219.001	686.201	79.994	19.996	103.091	20.007	6.863	0.472
1219.501	686.463	79.994	19.994	103.092	20.008	6.781	0.508
1220.000	686.712	79.994	19.996	103.095	20.007	6.822	0.524
1220.500	686.926	79.993	19.995	103.098	20.007	6.853	0.487
1221.000	687.181	79.992	19.999	103.101	20.006	6.883	0.466
1221.500	687.409	79.993	19.995	103.101	20.005	6.958	0.476
1222.000	687.654	79.992	19.995	103.104	20.006	6.902	0.478
1222.500	687.949	79.998	19.991	103.104	20.007	6.858	0.507
1223.001	688.132	79.995	19.993	103.103	20.007	6.850	0.509
1223.501	688.344	79.994	19.993	103.098	20.006	6.875	0.437
1224.001	688.606	79.991	19.996	103.099	20.008	6.767	0.435
1224.501	689.108	79.992	19.994	103.096	20.002	7.201	0.619
1225.000	689.239	79.991	19.997	103.099	20.007	6.816	0.699
1225.500	689.372	79.995	19.994	103.104	20.005	6.971	0.448
1226.000	689.652	79.994	19.994	103.110	20.003	7.118	0.338
1226.500	689.848	79.991	19.996	103.113	20.004	7.036	0.444
1227.000	690.121	79.993	19.995	103.118	20.006	6.929	0.473
1227.501	690.353	79.991	19.995	103.121	20.004	7.091	0.487
1228.001	690.640	79.993	19.994	103.122	20.002	7.230	0.511
1228.500	690.866	79.993	19.995	103.124	20.006	6.876	0.516
1229.000	691.110	79.993	19.993	103.128	20.001	7.256	0.492
1229.501	691.353	79.990	19.998	103.128	20.001	7.256	0.478
1230.001	691.635	79.991	19.996	103.127	20.002	7.251	0.506
1230.500	691.902	79.993	19.997	103.127	20.005	7.016	0.537
1231.000	692.138	79.992	19.996	103.126	20.004	7.046	0.526
1231.500	692.420	79.991	19.996	103.119	20.008	6.785	0.511
1232.000	692.644	79.989	19.997	103.110	20.002	7.183	0.512
1232.500	692.932	79.992	19.997	103.102	20.006	6.885	0.509
1233.000	693.163	79.993	19.995	103.094	20.008	6.770	0.515
1233.500	693.427	79.991	19.995	103.095	20.004	7.060	0.507
1234.000	693.650	79.992	19.994	103.103	20.003	7.135	0.491
1234.500	693.914	79.992	19.995	103.111	20.000	7.351	0.487
1235.001	694.196	79.994	19.996	103.115	20.001	7.295	0.517
1235.501	694.444	79.990	19.997	103.116	20.003	7.128	0.538
1236.000	694.696	79.991	19.998	103.109	20.001	7.286	0.515
1236.500	694.990	79.992	19.995	103.103	20.003	7.163	0.523
1237.000	695.219	79.993	19.997	103.101	20.002	7.182	0.535
1237.500	695.485	79.991	19.996	103.105	20.000	7.375	0.509
1238.000	695.730	79.993	19.998	103.113	19.999	7.476	0.503
1238.500	696.004	79.992	19.998	103.122	20.000	7.349	0.515
1239.000	696.271	79.991	19.998	103.126	20.001	7.295	0.530
1239.500	696.487	79.993	19.990	103.128	19.996	7.714	0.512
1240.000	696.789	79.996	19.991	103.127	20.001	7.289	0.500
1240.500	697.012	79.990	19.997	103.124	19.999	7.442	0.522
1241.000	697.295	79.999	19.992	103.121	20.000	7.377	0.516
1241.500	697.526	79.995	19.996	103.122	19.997	7.602	0.510
1242.000	697.806	79.995	19.994	103.123	19.999	7.485	0.512
1242.500	698.064	79.992	19.998	103.127	20.001	7.292	0.524
1243.000	698.294	79.996	19.997	103.131	19.998	7.558	0.513
1243.501	698.568	79.993	19.999	103.132	19.997	7.593	0.496
1244.001	698.842	79.994	19.995	103.131	20.000	7.404	0.526
1244.500	699.122	79.998	19.993	103.131	19.997	7.635	0.552
1245.000	699.338	79.991	19.994	103.130	19.999	7.462	0.525
1245.500	699.619	79.993	19.999	103.127	19.999	7.443	0.496
1246.000	699.880	79.993	19.999	103.127	19.999	7.434	0.519
1246.500	700.132	79.996	19.996	103.126	19.997	7.576	0.528
1247.001	700.384	79.996	19.998	103.125	19.998	7.487	0.509
1247.501	700.659	79.992	19.994	103.124	19.998	7.533	0.516
1248.001	700.929	79.994	19.996	103.125	20.000	7.408	0.536
1248.501	701.194	79.993	19.995	103.124	20.000	7.410	0.540
1249.000	701.411	79.993	19.996	103.126	19.998	7.494	0.509
1249.500	701.666	79.994	19.995	103.126	19.995	7.793	0.477
1250.000	701.945	79.992	19.998	103.127	19.993	7.901	0.503
1250.500	702.179	79.993	19.998	103.127	20.001	7.287	0.524
1251.000	702.463	79.996	19.995	103.129	19.993	7.892	0.515
1251.500	702.716	79.995	19.998	103.128	19.996	7.709	0.527
1252.000	702.986	79.995	19.997	103.128	19.998	7.495	0.530
1252.500	703.214	79.996	19.995	103.127	19.993	7.932	0.510
1253.000	703.470	79.995	19.995	103.123	19.993	7.887	0.491
1253.501	703.730	79.995	19.992	103.122	19.994	7.875	0.500
1254.001	703.955	79.998	19.996	103.123	19.993	7.902	0.501
1254.501	704.240	79.994	19.997	103.129	19.994	7.863	0.498
1255.000	704.496	79.993	19.998	103.135	19.992	7.971	0.525
1255.500	704.756	79.993	19.993	103.137	19.992	7.977	0.528
1256.000	704.976	79.993	19.999	103.138	19.995	7.735	0.498
1256.500	705.278	79.996	19.993	103.137	19.992	8.015	0.501
1257.000	705.517	79.990	19.996	103.133	19.989	8.207	0.532
1257.501	705.775	79.995	19.996	103.127	19.990	8.130	0.519
1258.001	706.012	79.993	19.995	103.128	19.987	8.359	0.496
1258.501	706.262	79.991	19.990	103.128	19.989	8.240	0.491
1259.001	706.484	79.996	19.995	103.130	19.993	7.888	0.479
1259.500	706.730	79.991	20.006	103.130	19.991	8.057	0.470
1260.000	707.000	79.994	19.997	103.132	19.989	8.215	0.492
1260.500	707.257	79.991	19.995	103.138	19.990	8.145	0.521
1261.000	707.509	79.994	19.992	103.137	19.988	8.334	0.518
1261.500	707.768	79.993	19.994	103.137	19.986	8.480	0.510
1262.000	708.033	79.994	19.995	103.137	19.989	8.199	0.517
1262.500	708.284	79.993	19.997	103.143	19.992	7.989	0.520
1263.000	708.494	79.994	19.994	103.144	19.993	7.920	0.489
1263.500	708.779	79.998	19.993	103.151	19.993	7.879	0.478
1264.000	709.012	79.994	19.994	103.159	19.992	8.020	0.507
1264.501	709.282	79.992	19.996	103.160	19.989	8.189	0.511
1265.001	709.528	79.994	19.994	103.155	19.993	7.912	0.509
1265.500	709.780	79.990	19.997	103.152	19.987	8.370	0.507
1266.000	710.029	80.002	19.993	103.149	19.991	8.106	0.500
1266.500	710.262	79.994	19.996	103.145	19.995	7.788	0.492
1267.000	710.536	79.992	19.996	103.146	19.992	8.009	0.494
1267.500	710.781	79.993	19.997	103.153	19.990	8.139	0.513
1268.000	711.031	79.991	19.998	103.156	19.991	8.052	0.507
1268.500	711.296	79.993	19.999	103.161	19.991	8.035	0.505
1269.000	711.510	79.995	19.993	103.163	19.992	7.985	0.497
1269.500	711.773	79.998	19.992	103.165	19.991	8.057	0.478
1270.000	712.041	79.998	19.995	103.167	19.990	8.184	0.504
1270.501	712.285	79.997	19.994	103.168	19.993	7.938	0.521
1271.001	712.513	79.995	19.994	103.168	19.990	8.115	0.492
1271.501	712.744	79.994	19.996	103.167	19.990	8.141	0.466
1272.001	713.035	79.996	19.995	103.166	19.989	8.193	0.491
1272.500	713.256	79.995	19.996	103.165	19.991	8.058	0.517
1273.001	713.526	79.996	19.994	103.163	19.989	8.257	0.501
1273.501	713.788	79.995	19.997	103.163	19.992	7.984	0.512
1274.000	714.022	79.995	19.995	103.163	19.989	8.216	0.514
1274.500	714.286	79.995	19.996	103.164	19.992	8.028	0.497
1275.000	714.515	79.996	19.993	103.164	19.989	8.255	0.495
1275.500	714.792	79.995	19.994	103.165	19.990	8.151	0.499
1276.000	715.051	79.993	19.996	103.166	19.988	8.279	0.521
1276.500	715.295	79.996	19.993	103.166	19.987	8.339	0.519
1277.000	715.565	79.993	19.994	103.164	19.990	8.171	0.509
1277.500	715.817	79.995	19.996	103.164	19.987	8.405	0.518
1278.000	716.049	79.992	19.992	103.165	19.989	8.225	0.503
1278.501	716.299	79.993	19.995	103.165	19.987	8.392	0.483
1279.001	716.571	79.991	19.996	103.166	19.990	8.175	0.502
1279.501	716.822	79.992	19.992	103.168	19.986	8.480	0.523
1280.001	717.086	79.992	19.995	103.166	19.986	8.427	0.519
1280.500	717.333	79.995	19.993	103.166	19.985	8.555	0.512
1281.000	717.545	79.992	19.997	103.166	19.987	8.390	0.485
1281.500	717.810	79.996	19.990	103.164	19.985	8.504	0.468
1282.000	718.072	79.994	19.995	103.163	19.987	8.342	0.502
1282.500	718.335	79.992	19.996	103.165	19.989	8.208	0.526
1283.000	718.592	79.991	19.999	103.161	19.986	8.469	0.522
1283.500	718.816	79.989	20.002	103.155	19.987	8.409	0.500
1284.000	719.045	79.989	19.994	103.154	19.987	8.351	0.467
1284.500	719.284	79.993	19.997	103.154	19.987	8.343	0.461
1285.000	719.563	79.991	19.996	103.154	19.983	8.663	0.493
1285.501	719.820	79.991	19.994	103.153	19.983	8.680	0.527
1286.001	720.090	79.992	19.995	103.158	19.988	8.315	0.531
1286.500	720.306	79.992	19.998	103.161	19.987	8.394	0.506
1287.000	720.554	79.993	19.994	103.160	19.985	8.496	0.475
1287.500	720.806	79.993	19.996	103.159	19.987	8.381	0.482
1288.000	721.077	79.991	19.994	103.162	19.985	8.535	0.512
1288.500	721.324	79.992	19.994	103.163	19.986	8.464	0.521
1289.000	721.565	79.993	19.994	103.164	19.983	8.654	0.503
1289.501	721.799	79.994	19.994	103.163	19.988	8.319	0.481
1290.001	722.023	79.992	19.995	103.162	19.986	8.431	0.467
1290.500	722.300	79.992	19.996	103.155	19.989	8.186	0.480
1291.000	722.539	79.992	19.994	103.149	19.983	8.651	0.509
1291.500	722.818	79.992	19.994	103.147	19.988	8.335	0.517
1292.001	723.015	79.994	19.995	103.145	19.988	8.324	0.497
1292.501	723.261	79.995	19.996	103.141	19.985	8.566	0.459
1293.000	723.505	79.993	19.997	103.141	19.985	8.525	0.466
1293.500	723.785	79.993	19.997	103.139	19.985	8.538	0.507
1294.000	724.009	79.993	19.995	103.134	19.984	8.635	0.514
1294.500	724.237	79.993	19.996	103.136	19.985	8.490	0.478
1295.000	724.509	79.994	19.996	103.141	19.988	8.315	0.476
1295.500	724.757	79.994	19.995	103.149	19.990	8.104	0.510
1296.000	725.007	79.994	19.996	103.152	19.988	8.275	0.509
1296.501	725.234	79.991	19.996	103.150	19.987	8.371	0.487
1297.001	725.500	79.996	19.995	103.145	19.989	8.224	0.485
1297.501	725.738	79.993	19.996	103.143	19.991	8.058	0.499
1298.001	726.008	79.993	19.995	103.140	19.985	8.488	0.506
1298.500	726.256	79.992	19.995	103.142	19.989	8.194	0.513
1299.001	726.532	79.994	19.995	103.150	19.990	8.175	0.521
1299.501	726.797	79.993	19.996	103.152	19.987	8.369	0.533
1300.000	727.087	79.994	19.994	103.152	19.989	8.252	0.548
1300.500	727.380	79.992	19.996	103.148	19.988	8.270	0.569
1301.000	727.583	79.993	19.996	103.143	19.987	8.362	0.540
1301.500	727.874	79.996	19.996	103.135	19.986	8.411	0.495
1302.000	728.144	79.993	19.996	103.131	19.989	8.182	0.528
1302.501	728.375	79.994	19.996	103.127	19.987	8.372	0.532
1303.001	728.655	79.993	19.995	103.127	19.990	8.132	0.506
1303.500	728.966	79.993	19.997	103.128	19.986	8.480	0.551
1304.000	729.243	79.993	19.996	103.128	19.994	7.827	0.589
1304.500	729.499	79.995	19.995	103.128	19.993	7.931	0.560
1305.000	729.771	79.992	19.995	103.128	19.990	8.100	0.531
1305.500	730.039	79.994	19.995	103.127	19.992	7.953	0.534
1306.000	730.341	79.992	19.997	103.120	19.993	7.933	0.555
1306.500	730.587	79.994	19.996	103.114	19.995	7.764	0.559
1307.000	730.861	79.993	19.995	103.105	19.997	7.571	0.534
1307.500	731.129	79.993	19.995	103.097	19.993	7.899	0.531
1308.000	731.437	79.992	19.995	103.091	19.998	7.552	0.559
1308.500	731.699	79.993	19.996	103.093	19.996	7.701	0.573
1309.000	731.977	79.992	19.996	103.099	19.994	7.829	0.555
1309.500	732.299	79.992	19.998	103.104	19.997	7.604	0.570
1310.000	732.576	79.995	19.996	103.103	19.995	7.722	0.599
1310.500	732.886	79.993	19.997	103.101	19.997	7.575	0.593
1311.000	733.177	79.993	19.996	103.090	20.000	7.399	0.594
1311.500	733.453	79.993	19.997	103.076	19.999	7.438	0.584
1312.000	733.737	79.991	19.996	103.065	19.999	7.423	0.564
1312.500	734.038	79.992	19.996	103.058	19.999	7.473	0.572
1313.000	734.325	79.994	19.995	103.051	20.004	7.084	0.587
1313.500	734.630	79.993	19.994	103.051	20.003	7.097	0.590
1314.000	734.929	79.990	20.000	103.051	20.004	7.093	0.598
1314.500	735.182	79.992	19.997	103.050	20.002	7.200	0.578
1315.000	735.506	79.994	19.996	103.050	20.002	7.183	0.564
1315.500	735.786	79.992	19.996	103.052	20.008	6.732	0.590
1316.000	736.074	79.993	19.996	103.052	20.009	6.641	0.586
1316.500	736.338	79.991	19.996	103.049	20.007	6.799	0.560
1317.000	736.609	79.992	19.998	103.042	20.007	6.850	0.544
1317.500	736.969	79.996	19.995	103.037	20.012	6.429	0.583
1318.000	737.262	79.994	19.996	103.032	20.006	6.882	0.642
1318.500	737.563	79.994	19.997	103.032	20.006	6.934	0.624
1319.000	737.846	79.993	19.996	103.034	20.010	6.586	0.590
1319.500	738.145	79.993	19.994	103.042	20.009	6.657	0.583
1320.000	738.444	79.992	19.996	103.041	20.013	6.362	0.590
1320.500	738.734	79.992	19.995	103.039	20.011	6.507	0.593
1321.000	739.048	79.994	19.996	103.031	20.010	6.563	0.596
1321.501	739.336	79.992	19.997	103.025	20.011	6.489	0.603
1322.001	739.600	79.995	19.996	103.017	20.014	6.277	0.577
1322.500	739.901	79.999	19.993	103.017	20.014	6.292	0.559
1323.000	740.216	79.994	19.995	103.015	20.012	6.407	0.590
1323.500	740.498	79.994	19.996	103.015	20.014	6.318	0.606
1324.000	740.807	79.993	19.996	103.014	20.014	6.273	0.595
1324.500	741.107	79.995	19.994	103.014	20.014	6.254	0.601
1325.000	741.348	79.988	20.007	103.012	20.014	6.287	0.575
1325.500	741.677	79.995	19.998	103.009	20.011	6.505	0.555
1326.000	741.971	79.992	19.998	103.008	20.012	6.409	0.596
1326.500	742.304	79.994	19.995	103.007	20.014	6.266	0.625
1327.000	742.579	79.994	19.995	103.008	20.017	6.059	0.617
