Sample ID:	C:\MCC\MCC Cal\Test\Fiberglas_Insulation3A_MCC_30K_min_220218_R2.txt
Sample Weight (mg):	4.78
Heating Rate (C/s):	0.5
Combustor Temp (C):	900
N2 Flow Rate (cc/min):	80
O2 Flow Rate (cc/min):	20
Calibration File:	C:\MCC\MCC Cal\Coeff1 JN10440_30_210304.txt.txt
T Correction Coefficients:	0	1.024463	0
Time Shift (s):	14
*
Time (s)	Temperature (C)	N2 flow rate (cc/min)	O2 flow rate (cc/min)	Flow Rate (cc/min)	Oxygen (%)	HRR (W/g)	Heating rate (C/s)
0.000	113.134	80.004	19.997	103.689	19.966	-0.087	-0.030
0.500	113.104	80.005	19.995	103.695	19.963	0.133	-0.001
1.000	113.119	80.005	19.995	103.697	19.963	0.142	-0.005
1.500	113.112	80.004	19.994	103.697	19.963	0.144	-0.004
2.000	113.131	80.004	19.995	103.697	19.963	0.101	0.010
2.500	113.133	80.004	19.994	103.696	19.965	-0.015	0.016
3.000	113.135	80.005	19.995	103.691	19.963	0.129	0.012
3.500	113.174	80.004	19.996	103.686	19.963	0.146	0.022
4.000	113.161	80.003	19.997	103.686	19.960	0.349	0.034
4.500	113.162	80.004	19.994	103.689	19.958	0.428	0.008
5.000	113.150	80.004	19.994	103.691	19.957	0.557	-0.011
5.500	113.160	80.004	19.995	103.690	19.961	0.260	-0.007
6.000	113.131	80.004	19.993	103.690	19.958	0.441	-0.011
6.500	113.180	80.004	19.995	103.689	19.959	0.365	0.000
7.000	113.148	80.004	19.993	103.686	19.957	0.498	0.018
7.500	113.132	80.004	19.994	103.684	19.956	0.603	-0.016
8.000	113.158	80.003	19.994	103.689	19.960	0.341	-0.019
8.500	113.143	80.005	19.993	103.694	19.957	0.530	0.010
9.000	113.166	80.005	19.994	103.695	19.957	0.546	0.010
9.500	113.167	80.005	19.995	103.695	19.959	0.395	0.016
10.000	113.170	80.005	19.995	103.696	19.959	0.395	0.014
10.500	113.172	80.005	19.993	103.697	19.957	0.506	0.004
11.000	113.154	80.006	19.993	103.694	19.956	0.589	-0.006
11.500	113.174	80.006	19.992	103.693	19.952	0.835	-0.007
12.000	113.186	80.005	19.993	103.700	19.951	0.932	0.018
12.500	113.204	80.005	19.995	103.706	19.953	0.787	0.031
13.000	113.151	80.005	19.994	103.707	19.950	0.971	-0.003
13.500	113.160	80.006	19.992	103.715	19.950	1.030	-0.040
14.000	113.167	80.006	19.993	103.729	19.949	1.076	-0.014
14.500	113.190	80.006	19.992	103.738	19.948	1.171	0.023
15.000	113.193	80.007	19.992	103.749	19.949	1.079	0.028
15.501	113.200	80.006	19.995	103.764	19.949	1.099	0.018
16.001	113.217	80.006	19.995	103.777	19.951	0.957	0.017
16.500	113.230	80.005	19.993	103.787	19.949	1.068	0.027
17.000	113.212	80.006	19.994	103.794	19.945	1.328	0.013
17.500	113.248	80.007	19.994	103.799	19.945	1.324	0.007
18.000	113.234	80.007	19.993	103.801	19.945	1.315	0.020
18.500	113.232	80.006	19.993	103.801	19.941	1.579	0.003
19.000	113.247	80.007	19.992	103.805	19.942	1.517	-0.001
19.500	113.260	80.007	19.993	103.812	19.939	1.742	0.021
20.000	113.296	80.006	19.994	103.820	19.940	1.674	0.038
20.500	113.345	80.006	19.994	103.833	19.937	1.856	0.067
21.000	113.342	80.007	19.993	103.846	19.940	1.712	0.065
21.500	113.394	80.006	19.993	103.857	19.937	1.901	0.047
22.000	113.406	80.007	19.992	103.865	19.935	2.017	0.057
22.500	113.449	80.006	19.993	103.866	19.932	2.231	0.059
23.000	113.469	80.007	19.994	103.861	19.935	2.021	0.059
23.500	113.503	80.005	19.994	103.858	19.930	2.366	0.059
24.000	113.541	80.007	19.993	103.855	19.933	2.132	0.063
24.500	113.575	80.006	19.994	103.855	19.930	2.335	0.072
25.000	113.613	80.006	19.993	103.862	19.930	2.388	0.072
25.500	113.675	80.007	19.992	103.871	19.929	2.420	0.085
26.000	113.691	80.007	19.993	103.878	19.930	2.364	0.089
26.500	113.751	80.007	19.992	103.882	19.928	2.495	0.077
27.000	113.773	80.006	19.993	103.885	19.927	2.568	0.079
27.500	113.863	80.006	19.995	103.891	19.922	2.884	0.097
28.000	113.884	80.006	19.993	103.896	19.927	2.571	0.112
28.501	113.972	80.007	19.993	103.897	19.923	2.856	0.110
29.001	114.071	80.006	19.993	103.898	19.924	2.782	0.148
29.500	114.082	80.007	19.993	103.903	19.924	2.743	0.149
30.000	114.155	80.006	19.991	103.904	19.925	2.728	0.097
30.500	114.227	80.007	19.990	103.901	19.921	2.997	0.114
31.000	114.248	80.006	19.994	103.898	19.923	2.838	0.119
31.500	114.343	80.006	19.993	103.898	19.925	2.687	0.105
32.000	114.404	80.008	19.993	103.894	19.925	2.706	0.136
32.500	114.466	80.006	19.992	103.890	19.922	2.909	0.139
33.000	114.591	80.006	19.993	103.889	19.922	2.931	0.154
33.500	114.634	80.008	19.994	103.892	19.921	2.979	0.177
34.000	114.721	80.007	19.995	103.896	19.924	2.735	0.149
34.500	114.774	80.006	19.994	103.899	19.921	2.973	0.135
35.001	114.902	80.007	19.994	103.900	19.921	2.964	0.160
35.501	114.946	80.007	19.993	103.897	19.921	2.939	0.177
36.000	115.028	80.005	19.993	103.894	19.923	2.822	0.149
36.501	115.136	80.006	19.994	103.895	19.919	3.077	0.158
37.001	115.214	80.006	19.993	103.896	19.918	3.157	0.188
37.501	115.346	80.007	19.994	103.896	19.922	2.926	0.197
38.001	115.370	80.007	19.993	103.903	19.921	2.943	0.183
38.501	115.489	80.006	19.994	103.908	19.918	3.142	0.150
39.000	115.576	80.006	19.994	103.902	19.919	3.126	0.175
39.500	115.679	80.006	19.993	103.895	19.920	3.046	0.198
40.000	115.761	80.007	19.992	103.889	19.919	3.087	0.187
40.500	115.872	80.007	19.995	103.882	19.920	3.058	0.189
41.000	115.969	80.007	19.991	103.877	19.921	3.002	0.201
41.500	116.061	80.006	19.993	103.876	19.920	3.032	0.199
42.000	116.154	80.007	19.994	103.876	19.919	3.106	0.187
42.500	116.264	80.007	19.995	103.878	19.917	3.208	0.194
43.000	116.363	80.008	19.995	103.882	19.916	3.291	0.206
43.500	116.450	80.007	19.994	103.881	19.916	3.310	0.197
44.000	116.571	80.008	19.994	103.882	19.917	3.227	0.197
44.500	116.672	80.007	19.994	103.881	19.918	3.171	0.215
45.000	116.775	80.007	19.994	103.883	19.915	3.404	0.213
45.500	116.902	80.008	19.994	103.884	19.917	3.214	0.217
46.000	117.000	80.009	19.992	103.890	19.915	3.352	0.228
46.500	117.104	80.009	19.994	103.893	19.918	3.191	0.213
47.000	117.231	80.008	19.994	103.899	19.916	3.328	0.217
47.501	117.341	80.008	19.994	103.902	19.917	3.234	0.235
48.001	117.442	80.007	19.995	103.906	19.917	3.235	0.224
48.500	117.546	80.009	19.992	103.908	19.916	3.284	0.208
49.000	117.675	80.007	19.994	103.913	19.915	3.404	0.219
49.501	117.789	80.008	19.993	103.914	19.914	3.428	0.238
50.001	117.901	80.007	19.995	103.915	19.915	3.369	0.235
50.501	117.988	80.007	19.995	103.914	19.912	3.606	0.213
51.000	118.097	80.006	19.993	103.919	19.918	3.186	0.197
51.500	118.233	80.007	19.994	103.923	19.914	3.437	0.221
52.000	118.359	80.006	19.993	103.924	19.913	3.535	0.254
52.500	118.474	80.007	19.993	103.930	19.911	3.676	0.251
53.000	118.574	80.005	19.994	103.937	19.913	3.482	0.227
53.500	118.716	80.005	19.993	103.939	19.911	3.679	0.229
54.000	118.844	80.007	19.993	103.943	19.911	3.637	0.257
54.500	118.979	80.006	19.993	103.950	19.909	3.798	0.266
55.000	119.127	80.005	19.993	103.951	19.910	3.700	0.273
55.500	119.254	80.007	19.996	103.949	19.912	3.554	0.279
56.000	119.384	80.005	19.994	103.946	19.913	3.530	0.266
56.501	119.465	80.004	19.993	103.945	19.909	3.790	0.234
57.001	119.628	80.006	19.995	103.939	19.909	3.809	0.228
57.500	119.792	80.005	19.993	103.933	19.909	3.803	0.285
58.000	119.899	80.006	19.992	103.930	19.907	3.936	0.299
58.501	120.025	80.005	19.995	103.933	19.907	3.933	0.252
59.001	120.209	80.005	19.995	103.933	19.907	3.892	0.271
59.500	120.363	80.006	19.994	103.940	19.905	4.066	0.324
60.000	120.506	80.005	19.997	103.948	19.908	3.859	0.317
60.500	120.627	80.005	19.997	103.954	19.909	3.776	0.281
61.001	120.778	80.006	19.994	103.955	19.907	3.920	0.268
61.501	120.960	80.006	19.993	103.955	19.906	3.994	0.302
62.000	121.110	80.006	19.993	103.954	19.907	3.911	0.332
62.501	121.261	80.006	19.993	103.953	19.907	3.898	0.317
63.001	121.439	80.005	19.995	103.951	19.909	3.794	0.315
63.501	121.583	80.005	19.993	103.951	19.906	4.005	0.325
64.001	121.757	80.005	19.993	103.950	19.909	3.813	0.320
64.500	121.921	80.004	19.993	103.949	19.905	4.055	0.328
65.000	122.095	80.006	19.994	103.948	19.905	4.060	0.338
65.500	122.235	80.004	19.996	103.951	19.907	3.937	0.326
66.000	122.389	80.005	19.991	103.951	19.905	4.068	0.304
66.500	122.546	80.005	19.994	103.951	19.903	4.164	0.303
67.000	122.723	80.005	19.998	103.952	19.902	4.227	0.322
67.500	122.857	80.005	19.995	103.953	19.903	4.212	0.322
68.001	123.047	80.005	19.995	103.953	19.904	4.125	0.318
68.501	123.229	80.004	19.995	103.952	19.899	4.452	0.348
69.000	123.371	80.005	19.992	103.953	19.902	4.260	0.348
69.500	123.559	80.004	19.994	103.953	19.900	4.363	0.327
70.000	123.699	80.005	19.996	103.953	19.902	4.260	0.329
70.500	123.896	80.004	19.994	103.953	19.900	4.371	0.333
71.000	124.090	80.005	19.995	103.954	19.899	4.438	0.364
71.500	124.261	80.004	19.994	103.958	19.898	4.549	0.378
72.000	124.388	80.005	19.995	103.962	19.899	4.488	0.331
72.500	124.542	80.005	19.995	103.962	19.900	4.424	0.290
73.000	124.733	80.004	19.994	103.963	19.900	4.376	0.313
73.500	124.921	80.005	19.995	103.963	19.897	4.607	0.362
74.000	125.130	80.006	19.993	103.960	19.901	4.341	0.388
74.500	125.305	80.005	19.994	103.958	19.898	4.552	0.390
75.000	125.502	80.005	19.995	103.959	19.897	4.604	0.377
75.500	125.682	80.005	19.995	103.958	19.896	4.689	0.375
76.000	125.846	80.005	19.995	103.958	19.898	4.543	0.361
76.501	126.040	80.005	19.997	103.960	19.898	4.539	0.351
77.001	126.246	80.005	19.997	103.959	19.897	4.611	0.379
77.500	126.427	80.006	19.995	103.960	19.897	4.609	0.393
78.000	126.595	80.005	19.994	103.960	19.895	4.744	0.367
78.500	126.796	80.006	19.993	103.960	19.896	4.661	0.359
79.000	126.995	80.005	19.995	103.957	19.898	4.500	0.384
79.500	127.158	80.005	19.995	103.956	19.898	4.548	0.381
80.000	127.360	80.005	19.994	103.956	19.896	4.652	0.364
80.500	127.551	80.005	19.994	103.956	19.895	4.722	0.379
81.000	127.767	80.005	19.993	103.957	19.895	4.726	0.400
81.500	127.936	80.006	19.994	103.960	19.899	4.483	0.396
82.000	128.106	80.004	19.995	103.962	19.897	4.603	0.362
82.500	128.332	80.006	19.993	103.965	19.897	4.621	0.367
83.000	128.528	80.005	19.994	103.971	19.899	4.479	0.409
83.500	128.705	80.005	19.995	103.978	19.896	4.695	0.398
84.000	128.953	80.006	19.992	103.982	19.896	4.662	0.398
84.501	129.123	80.004	19.993	103.989	19.894	4.800	0.422
85.001	129.334	80.005	19.994	103.991	19.896	4.638	0.400
85.500	129.546	80.003	19.994	103.993	19.899	4.477	0.402
86.000	129.722	80.005	19.994	103.993	19.897	4.631	0.405
86.500	129.916	80.004	19.995	103.993	19.898	4.535	0.379
87.000	130.140	80.005	19.993	103.993	19.899	4.448	0.395
87.500	130.348	80.004	19.994	103.994	19.899	4.447	0.425
88.000	130.551	80.004	19.994	103.993	19.899	4.495	0.422
88.500	130.750	80.004	19.995	103.993	19.899	4.488	0.406
89.000	130.945	80.005	19.993	103.993	19.900	4.410	0.398
89.500	131.122	80.003	19.993	103.994	19.898	4.550	0.383
90.000	131.382	80.004	19.994	103.994	19.898	4.535	0.404
90.500	131.588	80.004	19.996	103.996	19.895	4.731	0.451
91.000	131.749	80.002	19.994	103.995	19.897	4.580	0.417
91.500	132.007	80.004	19.992	103.996	19.899	4.489	0.393
92.000	132.199	80.003	19.992	103.996	19.898	4.541	0.434
92.500	132.454	80.003	19.993	103.994	19.894	4.792	0.448
93.000	132.670	80.003	19.993	103.987	19.896	4.663	0.459
93.500	132.863	80.004	19.993	103.980	19.896	4.654	0.440
94.000	133.092	80.004	19.994	103.974	19.894	4.770	0.416
94.501	133.318	80.005	19.993	103.968	19.895	4.763	0.439
95.001	133.531	80.006	19.993	103.969	19.898	4.563	0.447
95.500	133.751	80.005	19.994	103.972	19.896	4.697	0.436
96.000	133.966	80.006	19.996	103.977	19.896	4.669	0.434
96.501	134.208	80.006	19.993	103.979	19.895	4.735	0.446
97.001	134.395	80.005	19.994	103.982	19.895	4.709	0.443
97.500	134.607	80.006	19.992	103.980	19.895	4.720	0.414
98.000	134.805	80.006	19.994	103.976	19.894	4.809	0.404
98.500	135.039	80.006	19.994	103.970	19.896	4.679	0.421
99.000	135.262	80.006	19.993	103.969	19.896	4.691	0.445
99.501	135.502	80.006	19.992	103.963	19.891	5.012	0.460
100.001	135.694	80.007	19.992	103.958	19.897	4.618	0.448
100.500	135.979	80.007	19.993	103.957	19.894	4.818	0.454
101.000	136.173	80.007	19.994	103.957	19.893	4.881	0.478
101.500	136.393	80.007	19.995	103.953	19.896	4.670	0.447
102.000	136.625	80.006	19.994	103.953	19.897	4.621	0.433
102.500	136.855	80.007	19.992	103.953	19.896	4.662	0.457
103.000	137.064	80.005	19.994	103.952	19.896	4.697	0.451
103.500	137.318	80.007	19.993	103.952	19.894	4.778	0.451
104.000	137.541	80.006	19.994	103.953	19.894	4.771	0.470
104.500	137.812	80.007	19.995	103.955	19.897	4.630	0.486
105.000	137.994	80.006	19.995	103.956	19.897	4.569	0.474
105.500	138.235	80.005	19.993	103.960	19.895	4.726	0.438
106.000	138.469	80.007	19.992	103.963	19.895	4.722	0.449
106.501	138.709	80.006	19.994	103.964	19.896	4.680	0.474
107.001	138.922	80.008	19.993	103.962	19.894	4.792	0.463
107.500	139.191	80.006	19.994	103.961	19.898	4.563	0.467
108.000	139.383	80.006	19.994	103.960	19.895	4.707	0.472
108.500	139.609	80.005	19.994	103.956	19.896	4.691	0.440
109.000	139.850	80.006	19.993	103.954	19.893	4.892	0.443
109.500	140.096	80.006	19.995	103.954	19.895	4.739	0.478
110.000	140.322	80.007	19.993	103.954	19.895	4.706	0.479
110.500	140.563	80.005	19.993	103.952	19.894	4.796	0.469
111.000	140.812	80.006	19.994	103.955	19.896	4.694	0.479
111.500	141.045	80.007	19.995	103.955	19.895	4.726	0.486
112.000	141.285	80.004	19.992	103.955	19.894	4.790	0.478
112.500	141.535	80.007	19.995	103.959	19.897	4.598	0.481
113.000	141.776	80.006	19.994	103.966	19.895	4.731	0.490
113.500	141.981	80.006	19.995	103.969	19.896	4.633	0.468
114.001	142.245	80.006	19.992	103.974	19.892	4.916	0.457
114.501	142.453	80.006	19.994	103.974	19.896	4.700	0.471
115.000	142.713	80.006	19.993	103.971	19.897	4.589	0.470
115.500	142.954	80.006	19.993	103.968	19.896	4.654	0.485
116.000	143.223	80.005	19.993	103.963	19.895	4.748	0.506
116.500	143.450	80.005	19.992	103.959	19.898	4.550	0.503
117.000	143.708	80.006	19.994	103.959	19.898	4.509	0.491
117.500	143.933	80.006	19.994	103.959	19.895	4.720	0.484
118.000	144.227	80.007	19.992	103.958	19.901	4.310	0.501
118.500	144.463	80.006	19.991	103.956	19.899	4.492	0.525
119.000	144.682	80.006	19.994	103.957	19.899	4.434	0.492
119.500	144.948	80.006	19.993	103.958	19.897	4.622	0.470
120.000	145.163	80.006	19.992	103.957	19.897	4.593	0.483
120.500	145.383	80.007	19.992	103.958	19.896	4.698	0.459
121.000	145.641	80.007	19.992	103.961	19.895	4.710	0.456
121.500	145.912	80.007	19.995	103.961	19.897	4.607	0.503
122.000	146.180	80.007	19.992	103.959	19.893	4.899	0.534
122.500	146.400	80.008	19.993	103.960	19.897	4.613	0.513
123.001	146.637	80.009	19.993	103.956	19.895	4.751	0.473
123.501	146.863	80.008	19.993	103.952	19.896	4.669	0.461
124.000	147.089	80.009	19.992	103.952	19.895	4.728	0.457
124.500	147.377	80.007	19.992	103.952	19.898	4.509	0.483
125.000	147.626	80.007	19.995	103.952	19.897	4.612	0.526
125.500	147.860	80.007	19.994	103.952	19.896	4.636	0.511
126.000	148.097	80.008	19.992	103.952	19.898	4.525	0.477
126.500	148.315	80.008	19.992	103.953	19.894	4.805	0.462
127.000	148.605	80.008	19.992	103.952	19.892	4.961	0.481
127.500	148.845	80.009	19.993	103.953	19.893	4.888	0.519
128.000	149.116	80.009	19.993	103.954	19.895	4.702	0.521
128.500	149.396	80.008	19.993	103.959	19.895	4.750	0.531
129.000	149.608	80.008	19.994	103.965	19.895	4.705	0.521
129.501	149.841	80.008	19.992	103.969	19.895	4.737	0.469
130.000	150.123	80.008	19.992	103.969	19.894	4.796	0.480
130.500	150.358	80.007	19.993	103.959	19.895	4.746	0.516
131.000	150.599	80.008	19.993	103.930	19.895	4.742	0.496
131.500	150.849	80.007	19.991	103.907	19.896	4.656	0.484
132.000	151.103	80.007	19.995	103.899	19.895	4.702	0.497
132.500	151.384	80.007	19.994	103.900	19.897	4.606	0.519
133.000	151.605	80.008	19.994	103.917	19.898	4.550	0.519
133.500	151.877	80.006	19.995	103.967	19.897	4.574	0.498
134.000	152.126	80.005	19.994	104.025	19.895	4.705	0.507
134.500	152.379	80.005	19.995	104.041	19.898	4.520	0.511
135.000	152.591	80.006	19.993	104.045	19.898	4.542	0.483
135.500	152.867	80.005	19.992	104.037	19.894	4.780	0.477
136.000	153.129	80.005	19.995	104.013	19.894	4.796	0.513
136.500	153.371	80.005	19.994	103.974	19.896	4.649	0.521
137.000	153.624	80.005	19.993	103.962	19.896	4.678	0.500
137.500	153.843	80.004	19.993	103.958	19.892	4.915	0.483
138.000	154.120	80.004	19.994	103.959	19.898	4.560	0.484
138.500	154.363	80.004	19.994	103.957	19.895	4.736	0.508
139.000	154.605	80.004	19.995	103.956	19.898	4.518	0.502
139.500	154.850	80.005	19.993	103.955	19.894	4.791	0.486
140.000	155.110	80.004	19.995	103.955	19.895	4.732	0.496
140.500	155.344	80.006	19.993	103.955	19.894	4.769	0.499
141.000	155.601	80.004	19.994	103.956	19.897	4.592	0.492
141.500	155.814	80.004	19.993	103.957	19.896	4.665	0.481
142.000	156.098	80.005	19.993	103.958	19.894	4.811	0.483
142.500	156.345	80.004	19.994	103.958	19.892	4.964	0.514
143.000	156.615	80.005	19.994	103.958	19.892	4.923	0.524
143.500	156.872	80.005	19.994	103.957	19.894	4.835	0.522
144.000	157.093	80.006	19.994	103.955	19.891	4.992	0.502
144.500	157.346	80.004	19.994	103.951	19.894	4.827	0.476
145.000	157.585	80.005	19.993	103.945	19.896	4.635	0.483
145.500	157.909	80.005	19.995	103.942	19.893	4.877	0.528
146.000	158.128	80.005	19.994	103.936	19.893	4.845	0.553
146.500	158.390	80.004	19.995	103.929	19.892	4.957	0.512
147.000	158.615	80.005	19.995	103.927	19.893	4.869	0.484
147.500	158.853	80.006	19.994	103.931	19.892	4.948	0.475
148.000	159.137	80.005	19.993	103.931	19.892	4.928	0.493
148.500	159.365	80.005	19.993	103.934	19.896	4.640	0.517
149.000	159.600	80.005	19.994	103.935	19.893	4.858	0.487
149.500	159.839	80.006	19.993	103.933	19.894	4.787	0.469
150.000	160.116	80.004	19.994	103.928	19.894	4.832	0.495
150.501	160.362	80.005	19.994	103.928	19.893	4.893	0.519
151.000	160.571	80.004	19.994	103.930	19.893	4.888	0.489
151.500	160.893	80.006	19.994	103.937	19.892	4.965	0.493
152.000	161.129	80.005	19.994	103.945	19.892	4.923	0.544
152.500	161.424	80.005	19.993	103.951	19.895	4.747	0.545
153.000	161.626	80.005	19.994	103.955	19.895	4.755	0.514
153.500	161.898	80.004	19.994	103.954	19.896	4.690	0.485
154.000	162.143	80.004	19.994	103.954	19.895	4.725	0.495
154.500	162.405	80.005	19.993	103.954	19.892	4.915	0.512
155.000	162.634	80.006	19.993	103.954	19.892	4.946	0.499
155.500	162.925	80.006	19.994	103.949	19.895	4.750	0.506
156.000	163.155	80.004	19.994	103.946	19.892	4.938	0.521
156.500	163.419	80.005	19.993	103.940	19.895	4.715	0.507
157.000	163.666	80.005	19.993	103.934	19.895	4.737	0.503
157.500	163.924	80.005	19.993	103.930	19.894	4.818	0.509
158.000	164.160	80.005	19.995	103.931	19.895	4.728	0.499
158.500	164.453	80.005	19.994	103.934	19.895	4.754	0.511
159.000	164.699	80.004	19.993	103.932	19.895	4.750	0.535
159.500	164.938	80.004	19.993	103.935	19.892	4.939	0.512
160.000	165.205	80.004	19.993	103.933	19.889	5.148	0.495
160.500	165.478	80.005	19.992	103.932	19.890	5.046	0.523
161.000	165.720	80.004	19.994	103.932	19.892	4.937	0.528
161.501	165.971	80.004	19.993	103.936	19.890	5.065	0.504
162.000	166.253	80.004	19.995	103.939	19.890	5.043	0.513
162.500	166.533	80.004	19.993	103.943	19.893	4.853	0.548
163.000	166.772	80.005	19.992	103.945	19.891	4.999	0.540
163.500	167.021	80.005	19.995	103.944	19.892	4.914	0.503
164.000	167.229	80.005	19.994	103.944	19.892	4.958	0.473
164.500	167.485	80.004	19.994	103.939	19.895	4.757	0.461
165.000	167.747	80.004	19.994	103.933	19.889	5.126	0.491
165.500	168.003	80.004	19.995	103.928	19.891	5.006	0.518
166.000	168.291	80.002	19.995	103.923	19.889	5.132	0.531
166.500	168.535	80.003	19.995	103.919	19.892	4.945	0.538
167.000	168.786	80.004	19.994	103.917	19.895	4.751	0.513
167.500	169.009	80.004	19.996	103.916	19.896	4.697	0.484
168.000	169.275	80.004	19.995	103.918	19.894	4.817	0.482
168.500	169.549	80.005	19.995	103.920	19.892	4.927	0.514
169.000	169.798	80.004	19.994	103.926	19.893	4.836	0.531
169.500	170.037	80.003	19.995	103.930	19.896	4.669	0.505
170.000	170.284	80.004	19.995	103.930	19.896	4.695	0.487
170.501	170.563	80.004	19.995	103.929	19.896	4.676	0.506
171.000	170.801	80.004	19.995	103.933	19.895	4.759	0.521
171.500	171.050	80.005	19.994	103.933	19.896	4.697	0.502
172.001	171.285	80.004	19.995	103.933	19.894	4.790	0.486
172.500	171.518	80.004	19.995	103.938	19.896	4.642	0.477
173.000	171.761	80.004	19.995	103.944	19.893	4.856	0.472
173.500	172.042	80.005	19.994	103.943	19.898	4.519	0.499
174.000	172.290	80.005	19.995	103.942	19.895	4.703	0.526
174.500	172.584	80.004	19.994	103.944	19.895	4.703	0.536
175.000	172.787	80.004	19.995	103.946	19.897	4.609	0.520
175.500	173.041	80.005	19.994	103.947	19.895	4.703	0.477
176.000	173.285	80.005	19.993	103.949	19.893	4.842	0.477
176.500	173.523	80.006	19.995	103.950	19.895	4.755	0.490
177.000	173.810	80.005	19.994	103.946	19.894	4.785	0.503
177.500	174.075	80.006	19.993	103.941	19.895	4.763	0.539
178.000	174.329	80.005	19.993	103.939	19.891	5.027	0.535
178.500	174.549	80.006	19.996	103.939	19.892	4.946	0.496
179.000	174.830	80.007	19.993	103.939	19.894	4.778	0.488
179.500	175.045	80.006	19.995	103.942	19.894	4.812	0.499
180.000	175.308	80.007	19.994	103.939	19.896	4.683	0.487
180.500	175.551	80.007	19.994	103.933	19.894	4.779	0.492
181.000	175.815	80.007	19.997	103.925	19.892	4.939	0.507
181.500	176.041	80.008	19.994	103.917	19.893	4.900	0.498
182.000	176.310	80.008	19.993	103.907	19.894	4.787	0.492
182.500	176.543	80.007	19.992	103.903	19.896	4.688	0.499
183.000	176.796	80.008	19.994	103.903	19.894	4.807	0.494
183.500	177.059	80.007	19.993	103.903	19.893	4.899	0.501
184.000	177.304	80.007	19.993	103.904	19.895	4.739	0.512
184.500	177.541	80.007	19.993	103.908	19.892	4.909	0.495
185.000	177.820	80.007	19.993	103.910	19.891	4.996	0.499
185.500	178.085	80.007	19.994	103.909	19.890	5.063	0.530
186.000	178.316	80.007	19.995	103.908	19.892	4.913	0.520
186.500	178.556	80.006	19.996	103.908	19.893	4.884	0.484
187.000	178.806	80.007	19.993	103.908	19.889	5.128	0.481
187.500	179.082	80.008	19.993	103.910	19.892	4.950	0.508
188.000	179.309	80.007	19.992	103.911	19.890	5.083	0.515
188.500	179.552	80.006	19.993	103.912	19.892	4.921	0.487
189.000	179.834	80.006	19.991	103.915	19.891	4.972	0.498
189.500	180.058	80.007	19.994	103.925	19.893	4.850	0.515
190.000	180.289	80.007	19.993	103.936	19.893	4.842	0.481
190.500	180.524	80.008	19.994	103.946	19.891	5.030	0.460
191.000	180.791	80.007	19.992	103.951	19.893	4.894	0.484
191.500	181.033	80.007	19.993	103.949	19.890	5.082	0.506
192.000	181.266	80.006	19.995	103.939	19.893	4.899	0.492
192.500	181.517	80.007	19.992	103.924	19.894	4.818	0.479
193.000	181.785	80.007	19.994	103.913	19.892	4.925	0.501
193.500	182.031	80.006	19.993	103.907	19.895	4.762	0.517
194.000	182.261	80.006	19.992	103.909	19.890	5.071	0.495
194.500	182.510	80.006	19.992	103.912	19.891	4.995	0.477
195.000	182.784	80.006	19.994	103.917	19.890	5.084	0.502
195.500	183.038	80.006	19.994	103.922	19.894	4.785	0.526
196.000	183.292	80.006	19.994	103.927	19.893	4.853	0.518
196.500	183.508	80.006	19.994	103.929	19.894	4.777	0.489
197.000	183.805	80.007	19.994	103.927	19.893	4.885	0.491
197.500	184.034	80.005	19.993	103.932	19.891	5.005	0.520
198.000	184.269	80.006	19.993	103.937	19.894	4.796	0.495
198.500	184.470	80.006	19.993	103.938	19.891	5.021	0.450
199.000	184.768	80.006	19.994	103.940	19.892	4.949	0.467
199.500	184.999	80.007	19.994	103.938	19.891	5.003	0.514
200.000	185.280	80.007	19.995	103.932	19.889	5.139	0.520
200.500	185.511	80.006	19.994	103.925	19.887	5.305	0.512
201.001	185.754	80.007	19.995	103.917	19.894	4.777	0.493
201.501	186.023	80.006	19.995	103.911	19.890	5.056	0.493
202.000	186.315	80.006	19.993	103.908	19.891	5.008	0.537
202.500	186.531	80.006	19.994	103.908	19.891	5.019	0.535
203.000	186.811	80.005	19.992	103.909	19.890	5.077	0.502
203.500	187.033	80.007	19.992	103.907	19.889	5.138	0.499
204.000	187.291	80.007	19.994	103.910	19.889	5.119	0.491
204.500	187.534	80.007	19.993	103.910	19.888	5.225	0.490
205.000	187.786	80.007	19.992	103.911	19.886	5.363	0.498
205.500	188.031	80.007	19.994	103.911	19.889	5.153	0.496
206.000	188.289	80.007	19.994	103.913	19.888	5.219	0.500
206.500	188.504	80.007	19.993	103.912	19.886	5.365	0.488
207.000	188.795	80.008	19.995	103.915	19.885	5.428	0.489
207.500	189.024	80.008	19.993	103.915	19.888	5.202	0.513
208.000	189.297	80.008	19.991	103.915	19.887	5.278	0.511
208.500	189.496	80.007	19.996	103.915	19.888	5.193	0.487
209.000	189.761	80.008	19.992	103.916	19.888	5.208	0.468
209.500	190.017	80.008	19.993	103.916	19.890	5.100	0.492
210.000	190.247	80.008	19.992	103.915	19.888	5.221	0.504
210.500	190.493	80.007	19.992	103.915	19.886	5.372	0.481
211.000	190.790	80.008	19.992	103.911	19.890	5.101	0.509
211.500	191.017	80.007	19.994	103.906	19.885	5.391	0.533
212.000	191.221	80.008	19.993	103.904	19.888	5.223	0.477
212.500	191.493	80.007	19.993	103.904	19.889	5.167	0.454
213.000	191.734	80.009	19.993	103.904	19.887	5.284	0.495
213.500	191.981	80.006	19.994	103.907	19.884	5.491	0.501
214.000	192.196	80.007	19.990	103.912	19.882	5.633	0.475
214.500	192.436	80.006	19.992	103.914	19.882	5.585	0.458
215.000	192.685	80.006	19.993	103.915	19.887	5.300	0.472
215.501	192.967	80.006	19.992	103.915	19.883	5.532	0.510
216.001	193.214	80.006	19.992	103.916	19.886	5.368	0.530
216.500	193.433	80.006	19.993	103.916	19.883	5.515	0.497
217.000	193.661	80.005	19.992	103.916	19.882	5.615	0.457
217.500	193.940	80.006	19.993	103.916	19.883	5.577	0.477
218.000	194.172	80.006	19.993	103.917	19.882	5.620	0.509
218.500	194.426	80.006	19.993	103.916	19.882	5.603	0.498
219.000	194.652	80.005	19.992	103.915	19.883	5.577	0.483
219.500	194.902	80.005	19.992	103.911	19.881	5.666	0.478
220.000	195.158	80.006	19.992	103.909	19.882	5.589	0.491
220.500	195.370	80.005	19.993	103.909	19.884	5.446	0.487
221.000	195.637	80.005	19.992	103.909	19.882	5.601	0.473
221.500	195.902	80.005	19.992	103.910	19.880	5.777	0.505
222.000	196.128	80.005	19.992	103.915	19.884	5.464	0.512
222.500	196.365	80.005	19.994	103.917	19.882	5.632	0.477
223.000	196.610	80.004	19.993	103.916	19.881	5.670	0.472
223.500	196.902	80.005	19.994	103.916	19.879	5.810	0.510
224.000	197.128	80.004	19.992	103.916	19.878	5.852	0.528
224.500	197.351	80.004	19.993	103.917	19.883	5.529	0.483
225.000	197.600	80.005	19.994	103.914	19.880	5.771	0.461
225.500	197.883	80.004	19.993	103.911	19.880	5.751	0.502
226.000	198.107	80.005	19.992	103.907	19.879	5.832	0.519
226.500	198.307	80.005	19.995	103.900	19.879	5.809	0.465
227.000	198.607	80.005	19.993	103.896	19.879	5.818	0.462
227.500	198.847	80.004	19.993	103.897	19.877	5.968	0.520
228.000	199.071	80.006	19.993	103.900	19.877	5.932	0.502
228.500	199.297	80.004	19.994	103.903	19.880	5.779	0.457
229.000	199.563	80.006	19.993	103.911	19.880	5.768	0.471
229.500	199.808	80.006	19.994	103.914	19.878	5.920	0.502
230.000	200.054	80.004	19.994	103.916	19.878	5.874	0.501
230.500	200.292	80.006	19.995	103.916	19.876	6.006	0.487
231.000	200.520	80.004	19.992	103.917	19.876	6.026	0.475
231.500	200.795	80.005	19.993	103.916	19.878	5.920	0.485
232.000	201.014	80.004	19.993	103.914	19.879	5.817	0.498
232.501	201.269	80.006	19.993	103.910	19.875	6.059	0.484
233.001	201.513	80.006	19.994	103.902	19.876	5.994	0.487
233.500	201.770	80.006	19.994	103.893	19.874	6.156	0.500
234.000	202.010	80.005	19.992	103.886	19.876	6.007	0.499
234.501	202.250	80.005	19.994	103.879	19.873	6.245	0.489
235.000	202.505	80.006	19.994	103.874	19.874	6.183	0.487
235.500	202.776	80.006	19.994	103.873	19.875	6.090	0.510
236.000	203.009	80.006	19.993	103.874	19.874	6.135	0.515
236.500	203.273	80.006	19.992	103.877	19.873	6.196	0.501
237.000	203.484	80.006	19.995	103.882	19.874	6.140	0.486
237.500	203.698	80.006	19.993	103.890	19.872	6.297	0.450
238.000	204.000	80.004	19.994	103.898	19.875	6.078	0.471
238.500	204.191	80.005	19.995	103.904	19.873	6.257	0.505
239.000	204.478	80.005	19.997	103.910	19.873	6.209	0.485
239.500	204.690	80.006	19.995	103.917	19.877	5.952	0.488
240.000	204.946	80.005	19.994	103.924	19.872	6.284	0.484
240.500	205.209	80.005	19.993	103.932	19.871	6.359	0.493
241.000	205.423	80.006	19.994	103.940	19.873	6.237	0.497
241.500	205.742	80.005	19.994	103.944	19.873	6.256	0.505
242.000	205.932	80.006	19.996	103.939	19.869	6.471	0.522
242.500	206.204	80.006	19.994	103.927	19.872	6.322	0.486
243.000	206.440	80.005	19.992	103.913	19.866	6.714	0.485
243.500	206.690	80.006	19.993	103.901	19.869	6.504	0.496
244.000	206.950	80.006	19.992	103.896	19.870	6.453	0.498
244.500	207.168	80.005	19.992	103.895	19.868	6.540	0.494
245.000	207.404	80.005	19.993	103.898	19.864	6.852	0.466
245.500	207.686	80.005	19.995	103.902	19.868	6.592	0.486
246.000	207.974	80.005	19.994	103.906	19.868	6.597	0.544
246.500	208.186	80.005	19.995	103.906	19.868	6.589	0.535
247.000	208.434	80.004	19.993	103.904	19.867	6.617	0.480
247.500	208.682	80.005	19.993	103.906	19.866	6.678	0.478
248.000	208.924	80.005	19.994	103.907	19.865	6.793	0.493
248.501	209.157	80.004	19.992	103.907	19.865	6.784	0.482
249.000	209.401	80.004	19.994	103.908	19.866	6.687	0.476
249.500	209.691	80.004	19.994	103.912	19.865	6.776	0.506
250.000	209.912	80.003	19.994	103.909	19.867	6.609	0.522
250.500	210.155	80.004	19.996	103.902	19.864	6.847	0.487
251.000	210.386	80.004	19.992	103.894	19.867	6.600	0.469
251.500	210.681	80.004	19.994	103.889	19.865	6.792	0.500
252.000	210.868	80.005	19.992	103.890	19.863	6.886	0.504
252.500	211.141	80.005	19.994	103.896	19.861	7.052	0.471
253.000	211.421	80.004	19.994	103.904	19.865	6.797	0.507
253.500	211.638	80.004	19.994	103.913	19.864	6.818	0.525
254.000	211.895	80.005	19.994	103.922	19.859	7.174	0.485
254.500	212.117	80.003	19.994	103.925	19.864	6.807	0.476
255.000	212.373	80.005	19.994	103.922	19.860	7.087	0.479
255.500	212.641	80.004	19.995	103.919	19.862	6.943	0.501
256.000	212.856	80.005	19.994	103.918	19.861	7.054	0.504
256.500	213.112	80.005	19.994	103.914	19.862	6.980	0.477
257.000	213.354	80.006	19.994	103.909	19.861	7.005	0.484
257.500	213.628	80.004	19.995	103.908	19.861	7.018	0.507
258.000	213.841	80.005	19.994	103.906	19.860	7.130	0.502
258.500	214.094	80.005	19.994	103.902	19.861	7.034	0.476
259.000	214.383	80.005	19.994	103.894	19.862	6.966	0.504
259.500	214.597	80.004	19.994	103.888	19.860	7.098	0.523
260.000	214.818	80.004	19.993	103.883	19.863	6.888	0.469
260.500	215.060	80.005	19.993	103.887	19.862	6.982	0.449
261.000	215.321	80.006	19.995	103.891	19.860	7.100	0.483
261.500	215.583	80.005	19.997	103.898	19.859	7.197	0.513
262.000	215.799	80.004	19.993	103.903	19.857	7.325	0.500
262.500	216.013	80.005	19.994	103.907	19.858	7.232	0.454
263.000	216.300	80.006	19.995	103.901	19.860	7.115	0.466
263.500	216.548	80.006	19.994	103.894	19.856	7.408	0.518
264.000	216.789	80.005	19.995	103.893	19.855	7.445	0.512
264.500	217.056	80.005	19.994	103.895	19.855	7.461	0.498
265.000	217.313	80.006	19.996	103.897	19.855	7.421	0.516
265.500	217.580	80.006	19.993	103.907	19.853	7.548	0.524
266.000	217.824	80.007	19.994	103.919	19.856	7.386	0.517
266.500	218.049	80.006	19.995	103.923	19.855	7.431	0.489
267.000	218.313	80.006	19.994	103.922	19.852	7.662	0.479
267.500	218.564	80.005	19.995	103.917	19.851	7.727	0.502
268.000	218.848	80.007	19.992	103.914	19.853	7.591	0.526
268.500	219.072	80.006	19.992	103.909	19.854	7.510	0.522
269.000	219.289	80.006	19.996	103.905	19.852	7.617	0.474
269.500	219.554	80.006	19.995	103.904	19.849	7.822	0.462
270.000	219.756	80.007	19.994	103.901	19.850	7.759	0.475
270.500	220.041	80.005	19.994	103.895	19.849	7.874	0.477
271.000	220.328	80.005	19.992	103.896	19.848	7.896	0.529
271.500	220.506	80.006	19.993	103.897	19.849	7.842	0.518
272.000	220.830	80.007	19.996	103.900	19.848	7.935	0.483
272.500	221.035	80.005	19.992	103.908	19.849	7.868	0.515
273.000	221.277	80.006	19.993	103.910	19.846	8.045	0.488
273.500	221.542	80.005	19.992	103.902	19.847	7.986	0.477
274.000	221.791	80.006	19.993	103.894	19.846	8.053	0.510
274.500	222.021	80.006	19.995	103.888	19.845	8.123	0.496
275.000	222.305	80.006	19.994	103.881	19.846	8.054	0.497
275.500	222.526	80.006	19.993	103.880	19.846	8.061	0.510
276.000	222.789	80.007	19.994	103.883	19.846	8.053	0.495
276.500	223.050	80.007	19.994	103.886	19.846	8.049	0.504
277.000	223.288	80.005	19.994	103.891	19.845	8.128	0.511
277.500	223.532	80.006	19.993	103.896	19.845	8.140	0.490
278.000	223.784	80.006	19.993	103.900	19.848	7.934	0.489
278.500	224.051	80.005	19.993	103.904	19.846	8.052	0.508
279.000	224.306	80.005	19.993	103.909	19.844	8.194	0.520
279.500	224.566	80.006	19.993	103.911	19.843	8.267	0.518
280.000	224.810	80.006	19.993	103.913	19.842	8.344	0.510
280.500	225.053	80.007	19.993	103.914	19.843	8.237	0.496
281.000	225.289	80.006	19.993	103.915	19.841	8.401	0.483
281.501	225.546	80.006	19.992	103.914	19.845	8.144	0.485
282.001	225.806	80.006	19.992	103.914	19.848	7.907	0.504
282.500	226.081	80.007	19.994	103.913	19.842	8.341	0.526
283.000	226.304	80.007	19.993	103.914	19.843	8.258	0.517
283.500	226.497	80.007	19.993	103.914	19.844	8.186	0.457
284.000	226.752	80.006	19.992	103.914	19.845	8.095	0.432
284.500	227.040	80.007	19.993	103.912	19.843	8.231	0.495
285.000	227.289	80.006	19.993	103.912	19.843	8.247	0.540
285.500	227.538	80.007	19.992	103.909	19.840	8.428	0.517
286.000	227.773	80.007	19.994	103.902	19.842	8.351	0.491
286.500	228.011	80.007	19.993	103.895	19.843	8.253	0.479
287.000	228.274	80.007	19.991	103.891	19.844	8.211	0.487
287.500	228.526	80.008	19.993	103.886	19.841	8.403	0.508
288.000	228.840	80.008	19.994	103.888	19.840	8.486	0.541
288.500	229.075	80.008	19.993	103.894	19.840	8.441	0.557
289.000	229.336	80.007	19.992	103.901	19.838	8.576	0.522
289.500	229.575	80.007	19.992	103.904	19.840	8.488	0.498
290.000	229.822	80.007	19.993	103.904	19.840	8.494	0.494
290.500	230.105	80.007	19.994	103.906	19.839	8.523	0.508
291.001	230.339	80.007	19.991	103.906	19.838	8.619	0.523
291.500	230.625	80.007	19.993	103.901	19.834	8.838	0.519
292.000	230.842	80.007	19.993	103.896	19.833	8.963	0.511
292.500	231.080	80.007	19.992	103.897	19.833	8.924	0.479
293.000	231.305	80.008	19.992	103.893	19.835	8.778	0.459
293.500	231.582	80.006	19.993	103.893	19.838	8.606	0.482
294.000	231.834	80.007	19.992	103.892	19.833	8.928	0.515
294.500	232.075	80.007	19.993	103.890	19.834	8.900	0.512
295.000	232.351	80.007	19.991	103.883	19.832	9.030	0.505
295.500	232.569	80.007	19.993	103.879	19.831	9.087	0.505
296.000	232.848	80.007	19.992	103.872	19.830	9.110	0.495
296.500	233.092	80.006	19.994	103.871	19.827	9.327	0.511
297.000	233.372	80.007	19.992	103.872	19.829	9.202	0.524
297.500	233.606	80.006	19.992	103.876	19.832	8.980	0.519
298.000	233.868	80.005	19.993	103.876	19.829	9.240	0.505
298.500	234.107	80.005	19.993	103.876	19.826	9.426	0.499
299.000	234.391	80.006	19.994	103.875	19.827	9.364	0.512
299.500	234.606	80.005	19.995	103.876	19.827	9.340	0.511
300.000	234.853	80.005	19.994	103.877	19.827	9.311	0.480
300.500	235.142	80.007	19.993	103.880	19.824	9.566	0.499
301.000	235.405	80.005	19.993	103.884	19.823	9.587	0.544
301.500	235.658	80.006	19.992	103.885	19.824	9.576	0.534
302.001	235.855	80.005	19.996	103.884	19.825	9.476	0.483
302.500	236.100	80.006	19.993	103.887	19.824	9.547	0.446
303.000	236.322	80.005	19.994	103.887	19.820	9.828	0.454
303.500	236.641	80.005	19.995	103.884	19.821	9.723	0.504
304.000	236.910	80.005	19.994	103.883	19.820	9.830	0.564
304.500	237.090	80.006	19.994	103.883	19.820	9.824	0.519
305.000	237.367	80.006	19.994	103.885	19.823	9.602	0.454
305.500	237.617	80.006	19.993	103.887	19.818	9.969	0.492
306.000	237.836	80.005	19.993	103.894	19.822	9.674	0.497
306.500	238.106	80.005	19.994	103.907	19.820	9.833	0.479
307.000	238.384	80.006	19.995	103.914	19.821	9.731	0.518
307.500	238.587	80.005	19.996	103.908	19.822	9.686	0.515
308.000	238.849	80.006	19.995	103.909	19.818	9.987	0.473
308.500	239.125	80.005	19.994	103.907	19.821	9.761	0.502
309.000	239.384	80.007	19.992	103.901	19.820	9.840	0.536
309.500	239.583	80.005	19.993	103.902	19.817	10.019	0.496
310.000	239.831	80.006	19.992	103.909	19.817	10.032	0.453
310.500	240.131	80.007	19.994	103.911	19.818	9.979	0.497
311.000	240.345	80.006	19.993	103.913	19.818	9.931	0.531
311.500	240.593	80.006	19.993	103.915	19.817	10.032	0.489
312.000	240.822	80.006	19.993	103.918	19.815	10.167	0.469
312.500	241.072	80.006	19.992	103.921	19.817	10.043	0.478
313.000	241.350	80.006	19.993	103.925	19.817	10.039	0.503
313.500	241.587	80.006	19.994	103.931	19.815	10.153	0.522
314.000	241.817	80.006	19.995	103.934	19.818	9.935	0.491
314.500	242.080	80.005	19.993	103.933	19.817	10.042	0.480
315.000	242.338	80.007	19.990	103.931	19.816	10.117	0.507
315.500	242.620	80.006	19.993	103.931	19.817	10.030	0.530
316.000	242.833	80.006	19.996	103.927	19.814	10.218	0.518
316.500	243.131	80.006	19.993	103.923	19.814	10.214	0.503
317.000	243.371	80.006	19.993	103.921	19.814	10.228	0.524
317.500	243.595	80.006	19.994	103.921	19.813	10.311	0.501
318.000	243.854	80.006	19.993	103.918	19.813	10.306	0.474
318.500	244.081	80.006	19.994	103.913	19.812	10.375	0.485
319.000	244.368	80.005	19.994	103.908	19.809	10.525	0.500
319.500	244.610	80.005	19.993	103.903	19.810	10.499	0.521
320.000	244.884	80.007	19.994	103.902	19.814	10.216	0.522
320.500	245.126	80.006	19.992	103.900	19.809	10.556	0.516
321.000	245.391	80.006	19.992	103.900	19.810	10.519	0.512
321.500	245.646	80.006	19.993	103.905	19.809	10.584	0.513
322.000	245.852	80.005	19.993	103.906	19.808	10.625	0.490
322.500	246.096	80.007	19.994	103.903	19.808	10.628	0.455
323.000	246.345	80.006	19.993	103.901	19.804	10.913	0.472
323.501	246.672	80.006	19.993	103.899	19.804	10.935	0.534
324.000	246.899	80.005	19.994	103.895	19.803	10.998	0.565
324.500	247.134	80.005	19.995	103.894	19.802	11.025	0.508
325.000	247.368	80.004	19.998	103.890	19.801	11.132	0.465
325.500	247.630	80.005	19.993	103.887	19.802	11.033	0.482
326.000	247.888	80.006	19.994	103.882	19.799	11.248	0.508
326.500	248.107	80.007	19.994	103.879	19.798	11.337	0.499
327.000	248.391	80.006	19.994	103.877	19.798	11.324	0.489
327.500	248.629	80.005	19.995	103.876	19.800	11.213	0.512
328.000	248.935	80.006	19.995	103.868	19.795	11.506	0.533
328.500	249.177	80.005	19.995	103.860	19.795	11.490	0.546
329.001	249.428	80.006	19.994	103.852	19.792	11.692	0.521
329.500	249.685	80.006	19.995	103.843	19.791	11.773	0.501
330.000	249.952	80.006	19.990	103.840	19.794	11.609	0.516
330.500	250.185	80.005	19.994	103.847	19.791	11.768	0.512
331.000	250.504	80.005	19.995	103.854	19.788	11.964	0.526
331.500	250.729	80.006	19.994	103.862	19.792	11.684	0.548
332.000	250.966	80.007	19.995	103.874	19.790	11.856	0.503
332.500	251.234	80.006	19.996	103.881	19.791	11.764	0.483
333.000	251.454	80.005	19.995	103.886	19.788	11.982	0.497
333.501	251.693	80.004	19.995	103.891	19.785	12.162	0.474
334.000	251.983	80.005	19.994	103.895	19.786	12.134	0.494
334.500	252.217	80.006	19.993	103.897	19.787	12.092	0.527
335.000	252.498	80.005	19.992	103.879	19.786	12.134	0.519
335.500	252.702	80.003	19.994	103.872	19.787	12.079	0.500
336.000	252.991	80.005	19.993	103.876	19.786	12.125	0.489
336.500	253.250	80.005	19.994	103.882	19.788	12.021	0.521
337.000	253.471	80.004	19.993	103.910	19.782	12.413	0.514
337.500	253.728	80.005	19.996	103.942	19.784	12.281	0.478
338.000	253.960	80.005	19.991	103.955	19.784	12.252	0.483
338.500	254.230	80.005	19.994	103.956	19.784	12.275	0.496
339.000	254.472	80.006	19.992	103.952	19.781	12.436	0.507
339.500	254.715	80.005	19.995	103.924	19.781	12.478	0.499
340.000	255.017	80.005	19.994	103.912	19.779	12.625	0.515
340.500	255.212	80.005	19.994	103.906	19.778	12.686	0.521
341.000	255.459	80.006	19.994	103.900	19.779	12.612	0.470
341.500	255.755	80.006	19.994	103.899	19.777	12.751	0.492
342.000	255.989	80.006	19.994	103.902	19.778	12.700	0.536
342.500	256.240	80.007	19.994	103.902	19.776	12.827	0.508
343.000	256.451	80.007	19.993	103.907	19.778	12.678	0.473
343.500	256.728	80.007	19.993	103.911	19.778	12.697	0.475
344.000	256.991	80.005	19.994	103.914	19.778	12.662	0.514
344.501	257.207	80.007	19.994	103.915	19.774	12.917	0.509
345.000	257.467	80.006	19.992	103.916	19.774	12.973	0.478
345.500	257.723	80.007	19.994	103.917	19.774	12.941	0.496
346.000	257.957	80.007	19.993	103.918	19.774	12.925	0.503
346.500	258.236	80.007	19.993	103.918	19.775	12.878	0.501
347.000	258.457	80.006	19.992	103.916	19.774	12.969	0.507
347.500	258.709	80.007	19.994	103.914	19.770	13.242	0.487
348.000	258.981	80.006	19.994	103.913	19.773	13.006	0.499
348.500	259.231	80.006	19.993	103.912	19.769	13.257	0.523
349.000	259.518	80.006	19.992	103.911	19.773	13.004	0.529
349.500	259.718	80.006	19.994	103.907	19.771	13.141	0.512
350.000	259.979	80.007	19.994	103.904	19.768	13.328	0.474
350.500	260.208	80.007	19.993	103.900	19.769	13.300	0.476
351.000	260.438	80.006	19.993	103.898	19.768	13.373	0.474
351.500	260.712	80.007	19.993	103.895	19.766	13.497	0.481
352.000	260.944	80.006	19.994	103.897	19.763	13.654	0.505
352.500	261.220	80.006	19.994	103.901	19.763	13.668	0.507
353.000	261.468	80.006	19.994	103.904	19.766	13.501	0.516
353.500	261.685	80.005	19.994	103.906	19.764	13.635	0.494
354.000	261.921	80.005	19.994	103.910	19.764	13.619	0.459
354.500	262.177	80.006	19.994	103.914	19.762	13.771	0.473
355.000	262.411	80.006	19.993	103.915	19.762	13.773	0.491
355.500	262.684	80.005	19.993	103.917	19.760	13.892	0.498
356.000	262.937	80.005	19.994	103.917	19.755	14.195	0.517
356.500	263.172	80.004	19.994	103.916	19.760	13.904	0.507
357.000	263.405	80.005	19.994	103.915	19.758	14.023	0.478
357.500	263.687	80.006	19.994	103.915	19.757	14.086	0.491
358.000	263.964	80.006	19.994	103.915	19.760	13.866	0.537
358.500	264.196	80.004	19.995	103.915	19.753	14.345	0.535
359.000	264.432	80.006	19.995	103.916	19.754	14.270	0.489
359.500	264.703	80.005	19.995	103.917	19.752	14.428	0.487
360.000	264.980	80.005	19.995	103.917	19.754	14.304	0.527
360.500	265.238	80.004	19.995	103.917	19.755	14.228	0.541
361.000	265.491	80.005	19.996	103.917	19.753	14.329	0.523
361.500	265.702	80.005	19.994	103.916	19.749	14.663	0.487
362.000	265.939	80.006	19.995	103.914	19.751	14.498	0.456
362.500	266.193	80.005	19.994	103.914	19.753	14.375	0.469
363.000	266.446	80.004	19.994	103.909	19.749	14.619	0.499
363.500	266.726	80.005	19.993	103.904	19.747	14.791	0.520
364.000	266.962	80.006	19.994	103.903	19.748	14.715	0.525
364.500	267.184	80.005	19.994	103.898	19.749	14.663	0.487
365.000	267.418	80.006	19.994	103.897	19.746	14.824	0.457
365.500	267.699	80.007	19.995	103.901	19.744	14.957	0.485
366.000	267.966	80.006	19.994	103.903	19.743	15.067	0.531
366.500	268.183	80.006	19.994	103.897	19.745	14.878	0.516
367.000	268.439	80.007	19.994	103.894	19.739	15.320	0.478
367.500	268.642	80.006	19.994	103.888	19.744	14.989	0.466
368.000	268.906	80.007	19.994	103.881	19.742	15.099	0.464
368.500	269.203	80.006	19.994	103.879	19.741	15.198	0.514
369.000	269.427	80.007	19.993	103.883	19.739	15.330	0.541
369.500	269.660	80.008	19.994	103.889	19.739	15.302	0.489
370.000	269.896	80.008	19.993	103.893	19.737	15.416	0.463
370.500	270.168	80.007	19.995	103.896	19.737	15.479	0.489
371.000	270.392	80.007	19.992	103.896	19.733	15.696	0.502
371.500	270.715	80.007	19.992	103.892	19.737	15.422	0.521
372.000	270.971	80.009	19.991	103.892	19.732	15.796	0.563
372.500	271.183	80.009	19.994	103.892	19.731	15.877	0.524
373.000	271.389	80.007	19.993	103.896	19.730	15.924	0.443
373.500	271.655	80.008	19.992	103.900	19.729	15.991	0.445
374.000	271.954	80.008	19.993	103.906	19.728	16.032	0.519
374.500	272.184	80.008	19.993	103.908	19.729	15.982	0.547
375.000	272.431	80.007	19.995	103.907	19.727	16.130	0.503
375.500	272.686	80.008	19.993	103.904	19.727	16.147	0.489
376.000	272.927	80.008	19.994	103.904	19.723	16.380	0.499
376.500	273.172	80.009	19.991	103.905	19.722	16.433	0.491
377.000	273.429	80.008	19.994	103.899	19.722	16.439	0.494
377.500	273.666	80.007	19.993	103.897	19.720	16.576	0.498
378.000	273.915	80.008	19.993	103.898	19.718	16.717	0.490
378.500	274.154	80.007	19.993	103.895	19.721	16.542	0.487
379.000	274.449	80.006	19.993	103.892	19.720	16.594	0.511
379.500	274.649	80.006	19.993	103.897	19.719	16.668	0.515
380.000	274.910	80.006	19.993	103.903	19.718	16.753	0.478
380.500	275.164	80.004	19.994	103.904	19.714	17.013	0.488
381.000	275.406	80.005	19.993	103.908	19.714	17.040	0.505
381.500	275.651	80.006	19.992	103.914	19.713	17.082	0.492
382.000	275.931	80.005	19.993	103.915	19.712	17.141	0.506
382.500	276.150	80.004	19.994	103.916	19.712	17.167	0.512
383.000	276.419	80.005	19.994	103.915	19.711	17.208	0.493
383.500	276.639	80.005	19.994	103.914	19.710	17.309	0.488
384.000	276.894	80.004	19.993	103.913	19.708	17.422	0.482
384.500	277.122	80.005	19.993	103.912	19.708	17.390	0.479
385.000	277.384	80.005	19.992	103.912	19.707	17.478	0.487
385.500	277.620	80.005	19.993	103.913	19.706	17.538	0.494
386.000	277.855	80.005	19.994	103.914	19.702	17.810	0.485
386.500	278.115	80.005	19.993	103.917	19.704	17.704	0.483
387.000	278.349	80.005	19.994	103.917	19.702	17.796	0.495
387.500	278.607	80.006	19.994	103.918	19.700	17.966	0.493
388.000	278.891	80.005	19.995	103.917	19.700	17.979	0.517
388.500	279.141	80.005	19.994	103.918	19.698	18.081	0.538
389.000	279.347	80.005	19.993	103.922	19.699	18.038	0.495
389.500	279.634	80.005	19.994	103.928	19.696	18.223	0.475
390.000	279.856	80.006	19.994	103.929	19.696	18.229	0.501
390.500	280.082	80.005	19.993	103.931	19.695	18.326	0.478
391.000	280.348	80.006	19.994	103.931	19.692	18.493	0.470
391.500	280.592	80.007	19.993	103.924	19.694	18.382	0.501
392.000	280.850	80.006	19.994	103.920	19.690	18.640	0.506
392.500	281.108	80.006	19.995	103.920	19.691	18.577	0.509
393.000	281.353	80.006	19.994	103.920	19.687	18.816	0.509
393.500	281.564	80.005	19.993	103.922	19.684	19.018	0.480
394.000	281.843	80.006	19.994	103.922	19.682	19.169	0.473
394.500	282.068	80.005	19.994	103.919	19.682	19.154	0.497
395.000	282.314	80.005	19.993	103.917	19.680	19.299	0.487
395.500	282.572	80.006	19.995	103.914	19.679	19.368	0.487
396.000	282.815	80.006	19.994	103.915	19.679	19.394	0.503
396.500	283.104	80.006	19.994	103.915	19.679	19.387	0.517
397.000	283.316	80.006	19.994	103.918	19.676	19.580	0.516
397.500	283.575	80.005	19.994	103.927	19.676	19.627	0.485
398.000	283.807	80.006	19.994	103.934	19.674	19.716	0.481
398.500	284.052	80.007	19.994	103.936	19.675	19.649	0.485
399.000	284.282	80.006	19.994	103.938	19.670	20.002	0.477
399.500	284.564	80.005	19.993	103.937	19.669	20.045	0.494
400.000	284.788	80.005	19.995	103.934	19.666	20.242	0.509
400.500	285.045	80.005	19.993	103.933	19.666	20.273	0.494
401.000	285.284	80.006	19.993	103.938	19.664	20.425	0.488
401.500	285.517	80.006	19.994	103.944	19.662	20.515	0.484
402.000	285.785	80.006	19.994	103.948	19.665	20.362	0.486
402.500	286.027	80.005	19.992	103.948	19.659	20.726	0.505
403.000	286.283	80.005	19.993	103.945	19.660	20.673	0.504
403.500	286.535	80.005	19.993	103.944	19.659	20.762	0.503
404.000	286.757	80.005	19.994	103.943	19.658	20.806	0.491
404.500	287.010	80.006	19.993	103.941	19.657	20.895	0.475
405.000	287.255	80.006	19.993	103.944	19.655	21.038	0.487
405.500	287.502	80.006	19.994	103.946	19.651	21.287	0.495
406.000	287.731	80.004	19.993	103.941	19.653	21.123	0.484
406.501	288.019	80.005	19.993	103.942	19.650	21.355	0.496
407.000	288.239	80.006	19.993	103.946	19.649	21.407	0.512
407.500	288.520	80.006	19.994	103.946	19.651	21.259	0.504
408.000	288.751	80.005	19.993	103.949	19.649	21.459	0.506
408.501	288.991	80.005	19.993	103.953	19.646	21.645	0.491
409.000	289.195	80.006	19.993	103.954	19.641	21.945	0.457
409.500	289.451	80.005	19.994	103.954	19.640	22.010	0.452
410.000	289.737	80.005	19.993	103.954	19.641	21.938	0.501
410.500	289.961	80.006	19.992	103.954	19.639	22.121	0.526
411.000	290.230	80.005	19.993	103.952	19.637	22.251	0.501
411.500	290.468	80.005	19.993	103.950	19.632	22.548	0.500
412.000	290.730	80.005	19.992	103.949	19.632	22.580	0.504
412.500	290.965	80.005	19.993	103.950	19.631	22.665	0.498
413.000	291.222	80.005	19.994	103.949	19.628	22.844	0.494
413.500	291.460	80.004	19.994	103.948	19.631	22.668	0.494
414.000	291.706	80.004	19.993	103.951	19.626	22.986	0.490
414.500	291.957	80.004	19.994	103.953	19.624	23.115	0.490
415.000	292.242	80.004	19.994	103.953	19.621	23.321	0.516
415.500	292.447	80.004	19.993	103.953	19.623	23.188	0.513
416.000	292.696	80.004	19.994	103.958	19.620	23.366	0.473
416.500	292.974	80.005	19.993	103.957	19.617	23.578	0.491
417.000	293.208	80.005	19.993	103.956	19.616	23.681	0.519
417.500	293.429	80.005	19.994	103.955	19.615	23.728	0.483
418.000	293.710	80.004	19.993	103.954	19.614	23.796	0.478
418.500	293.970	80.003	19.993	103.954	19.612	23.950	0.522
419.000	294.201	80.005	19.996	103.954	19.612	23.934	0.516
419.500	294.466	80.004	19.995	103.954	19.611	24.008	0.494
420.000	294.684	80.004	19.994	103.956	19.609	24.164	0.490
420.500	294.984	80.005	19.994	103.957	19.608	24.219	0.500
421.000	295.210	80.005	19.994	103.957	19.605	24.406	0.521
421.500	295.473	80.006	19.993	103.958	19.604	24.509	0.507
422.000	295.714	80.005	19.994	103.959	19.600	24.722	0.497
422.500	295.957	80.006	19.995	103.960	19.599	24.838	0.494
423.000	296.231	80.004	19.994	103.960	19.599	24.822	0.500
423.500	296.469	80.004	19.994	103.960	19.596	25.023	0.514
424.000	296.700	80.003	19.993	103.960	19.595	25.092	0.491
424.500	296.976	80.006	19.994	103.958	19.590	25.421	0.489
425.000	297.197	80.005	19.994	103.957	19.587	25.634	0.502
425.500	297.453	80.006	19.993	103.958	19.586	25.736	0.487
426.000	297.699	80.004	19.994	103.962	19.584	25.834	0.489
426.500	297.940	80.005	19.995	103.967	19.583	25.891	0.495
427.000	298.209	80.005	19.993	103.972	19.583	25.940	0.499
427.500	298.470	80.006	19.995	103.976	19.578	26.232	0.520
428.000	298.736	80.006	19.993	103.981	19.578	26.260	0.529
428.500	298.973	80.005	19.993	103.984	19.577	26.314	0.515
429.000	299.194	80.005	19.994	103.985	19.573	26.610	0.480
429.500	299.451	80.007	19.994	103.987	19.574	26.523	0.468
430.000	299.720	80.006	19.993	103.989	19.572	26.673	0.502
430.500	299.944	80.006	19.993	103.984	19.571	26.726	0.510
431.001	300.223	80.006	19.994	103.979	19.565	27.161	0.498
431.500	300.463	80.006	19.995	103.976	19.565	27.114	0.511
432.000	300.758	80.006	19.994	103.975	19.564	27.207	0.527
432.500	301.006	80.006	19.995	103.973	19.560	27.473	0.539
433.000	301.251	80.006	19.992	103.977	19.557	27.697	0.518
433.500	301.516	80.007	19.994	103.980	19.558	27.643	0.502
434.000	301.765	80.006	19.994	103.983	19.555	27.790	0.512
434.500	301.987	80.006	19.994	103.983	19.555	27.801	0.493
435.000	302.260	80.005	19.993	103.984	19.552	28.034	0.483
435.500	302.510	80.005	19.994	103.985	19.548	28.278	0.509
436.000	302.794	80.006	19.995	103.985	19.549	28.202	0.529
436.500	303.048	80.006	19.993	103.986	19.547	28.367	0.536
437.000	303.269	80.005	19.994	103.986	19.543	28.635	0.506
437.500	303.567	80.006	19.993	103.988	19.539	28.897	0.497
438.000	303.774	80.006	19.993	103.989	19.538	28.939	0.512
438.500	304.024	80.005	19.993	103.989	19.536	29.091	0.482
439.000	304.289	80.006	19.993	103.989	19.537	29.034	0.486
439.500	304.508	80.005	19.994	103.990	19.532	29.373	0.499
440.000	304.762	80.006	19.994	103.991	19.530	29.492	0.479
440.500	305.028	80.005	19.994	103.991	19.527	29.693	0.496
441.000	305.279	80.006	19.993	103.992	19.525	29.823	0.518
441.500	305.526	80.005	19.994	103.993	19.525	29.881	0.507
442.000	305.780	80.006	19.994	103.993	19.522	30.048	0.500
442.500	306.046	80.006	19.995	103.992	19.517	30.403	0.511
443.001	306.277	80.004	19.994	103.992	19.519	30.260	0.509
443.500	306.553	80.005	19.995	103.991	19.514	30.630	0.502
444.000	306.768	80.007	19.994	103.991	19.513	30.698	0.499
444.500	307.038	80.004	19.994	103.993	19.510	30.893	0.488
445.000	307.311	80.007	19.993	103.994	19.507	31.074	0.514
445.500	307.580	80.005	19.995	103.995	19.507	31.086	0.542
446.000	307.802	80.006	19.995	103.995	19.499	31.604	0.517
446.500	308.049	80.005	19.993	103.995	19.501	31.468	0.480
447.000	308.311	80.007	19.994	103.993	19.499	31.644	0.488
447.500	308.582	80.006	19.994	103.990	19.498	31.698	0.521
448.000	308.830	80.007	19.994	103.988	19.496	31.852	0.526
448.500	309.090	80.007	19.994	103.986	19.489	32.306	0.513
449.000	309.349	80.008	19.994	103.986	19.490	32.225	0.514
449.500	309.573	80.006	19.994	103.986	19.487	32.469	0.501
450.000	309.759	80.006	19.994	103.987	19.483	32.709	0.447
450.500	310.061	80.006	19.995	103.989	19.482	32.768	0.449
451.000	310.356	80.006	19.994	103.991	19.474	33.313	0.542
451.500	310.592	80.006	19.994	103.991	19.476	33.175	0.564
452.000	310.815	80.007	19.993	103.993	19.473	33.376	0.494
452.501	311.077	80.007	19.994	103.994	19.472	33.451	0.472
453.000	311.343	80.007	19.994	103.996	19.466	33.879	0.506
453.500	311.589	80.007	19.995	103.995	19.464	33.963	0.520
454.000	311.905	80.007	19.994	103.996	19.464	33.987	0.537
454.500	312.138	80.007	19.994	104.001	19.461	34.214	0.555
455.000	312.355	80.007	19.993	104.006	19.457	34.460	0.500
455.500	312.651	80.007	19.995	104.010	19.459	34.326	0.482
456.000	312.892	80.005	19.994	104.010	19.454	34.699	0.525
456.500	313.153	80.008	19.994	104.012	19.450	34.979	0.519
457.000	313.456	80.008	19.995	104.011	19.443	35.457	0.533
457.500	313.649	80.008	19.995	104.008	19.448	35.087	0.530
458.000	313.940	80.007	19.994	104.010	19.442	35.530	0.490
458.500	314.165	80.006	19.994	104.016	19.438	35.759	0.500
459.000	314.448	80.006	19.995	104.020	19.437	35.811	0.513
459.500	314.716	80.007	19.994	104.022	19.437	35.822	0.529
460.000	314.946	80.007	19.995	104.024	19.427	36.487	0.524
460.500	315.185	80.007	19.994	104.018	19.433	36.109	0.484
461.000	315.447	80.006	19.994	104.017	19.427	36.536	0.485
461.500	315.721	80.006	19.994	104.016	19.426	36.592	0.518
462.001	315.974	80.005	19.994	104.014	19.420	37.004	0.532
462.501	316.171	80.006	19.995	104.010	19.420	37.020	0.489
463.001	316.502	80.006	19.994	104.013	19.416	37.238	0.489
463.500	316.732	80.005	19.994	104.013	19.410	37.640	0.544
464.000	316.979	80.005	19.994	104.008	19.411	37.588	0.519
464.500	317.256	80.005	19.994	104.006	19.409	37.764	0.500
465.000	317.475	80.005	19.994	104.006	19.405	37.988	0.510
465.500	317.755	80.005	19.994	104.008	19.402	38.244	0.498
466.000	317.931	80.005	19.994	104.011	19.397	38.588	0.478
466.500	318.290	80.005	19.995	104.017	19.396	38.601	0.496
467.000	318.493	80.005	19.994	104.023	19.394	38.727	0.548
467.500	318.716	80.005	19.993	104.028	19.392	38.912	0.494
468.000	319.048	80.005	19.994	104.031	19.386	39.298	0.491
468.500	319.228	80.005	19.994	104.031	19.384	39.445	0.533
469.000	319.515	80.005	19.993	104.028	19.382	39.593	0.489
469.500	319.801	80.005	19.993	104.029	19.378	39.852	0.520
470.000	319.997	80.005	19.993	104.030	19.376	39.963	0.528
470.500	320.273	80.005	19.994	104.030	19.372	40.253	0.477
471.000	320.427	80.006	19.994	104.032	19.367	40.589	0.450
471.500	320.833	80.005	19.993	104.035	19.362	40.912	0.495
472.000	321.012	80.006	19.993	104.035	19.362	40.911	0.573
472.500	321.221	80.005	19.993	104.036	19.359	41.168	0.487
473.000	321.615	80.006	19.993	104.035	19.355	41.446	0.495
473.500	321.921	80.005	19.993	104.034	19.354	41.474	0.651
474.000	321.918	80.005	19.994	104.033	19.348	41.870	0.502
474.500	322.355	80.005	19.992	104.033	19.346	42.029	0.368
475.000	322.497	80.006	19.993	104.033	19.345	42.090	0.507
475.500	322.946	80.005	19.993	104.034	19.340	42.453	0.585
476.000	323.012	80.004	19.993	104.035	19.337	42.611	0.553
476.500	323.339	80.005	19.993	104.036	19.331	43.020	0.454
477.000	323.566	80.006	19.994	104.036	19.328	43.241	0.474
477.500	323.784	80.004	19.993	104.037	19.327	43.352	0.499
478.000	324.140	80.004	19.992	104.037	19.325	43.495	0.510
478.500	324.315	80.004	19.993	104.038	19.318	43.938	0.553
479.000	324.607	80.005	19.994	104.041	19.317	44.040	0.499
479.500	324.834	80.006	19.993	104.043	19.314	44.220	0.493
480.000	325.037	80.004	19.993	104.043	19.310	44.499	0.474
480.500	325.321	80.005	19.992	104.049	19.307	44.717	0.459
481.000	325.606	80.005	19.994	104.053	19.301	45.104	0.528
481.500	325.850	80.006	19.994	104.053	19.301	45.083	0.549
482.000	326.067	80.006	19.994	104.055	19.293	45.607	0.494
482.500	326.396	80.004	19.994	104.062	19.290	45.844	0.503
483.000	326.598	80.005	19.994	104.064	19.290	45.851	0.539
483.500	326.824	80.004	19.993	104.065	19.287	46.016	0.479
484.000	327.142	80.005	19.992	104.069	19.281	46.460	0.486
484.500	327.370	80.005	19.993	104.072	19.278	46.663	0.545
485.000	327.591	80.005	19.993	104.072	19.275	46.865	0.498
485.500	327.860	80.005	19.995	104.072	19.267	47.390	0.469
486.000	328.153	80.005	19.992	104.072	19.263	47.644	0.526
486.500	328.384	80.006	19.995	104.072	19.261	47.800	0.543
487.000	328.632	80.004	19.993	104.073	19.259	47.954	0.501
487.500	328.897	80.005	19.993	104.074	19.253	48.326	0.496
488.000	329.185	80.004	19.994	104.075	19.249	48.631	0.533
488.500	329.443	80.005	19.993	104.076	19.244	48.978	0.549
489.000	329.680	80.006	19.994	104.077	19.243	49.009	0.520
489.500	329.901	80.005	19.993	104.082	19.239	49.341	0.477
490.000	330.192	80.005	19.994	104.088	19.233	49.752	0.485
490.500	330.427	80.005	19.993	104.093	19.230	49.914	0.519
491.000	330.690	80.006	19.993	104.096	19.227	50.153	0.512
491.500	330.921	80.005	19.994	104.097	19.222	50.428	0.496
492.000	331.173	80.006	19.993	104.093	19.214	51.002	0.488
492.500	331.482	80.005	19.993	104.087	19.212	51.133	0.522
493.000	331.681	80.006	19.993	104.083	19.208	51.401	0.535
493.500	331.967	80.005	19.994	104.078	19.205	51.584	0.497
494.000	332.189	80.004	19.994	104.077	19.200	51.960	0.496
494.500	332.459	80.005	19.994	104.075	19.198	52.115	0.500
495.000	332.727	80.005	19.993	104.075	19.190	52.613	0.515
495.500	332.977	80.006	19.992	104.073	19.189	52.690	0.528
496.000	333.256	80.004	19.994	104.073	19.184	53.061	0.523
496.501	333.516	80.005	19.994	104.076	19.177	53.502	0.534
497.000	333.763	80.006	19.993	104.078	19.174	53.710	0.523
497.500	333.992	80.006	19.993	104.079	19.169	54.084	0.492
498.000	334.242	80.004	19.994	104.081	19.166	54.278	0.478
498.500	334.526	80.005	19.993	104.087	19.160	54.668	0.506
499.000	334.764	80.006	19.992	104.088	19.155	55.007	0.528
499.500	335.016	80.005	19.994	104.093	19.156	54.965	0.506
500.000	335.278	80.005	19.994	104.097	19.153	55.171	0.502
500.500	335.518	80.005	19.994	104.102	19.145	55.709	0.508
501.000	335.795	80.004	19.994	104.099	19.144	55.793	0.509
501.500	336.039	80.006	19.993	104.095	19.137	56.237	0.519
502.000	336.222	80.005	19.994	104.089	19.133	56.552	0.474
502.500	336.543	80.005	19.993	104.085	19.129	56.804	0.466
503.001	336.779	80.005	19.994	104.080	19.124	57.145	0.531
503.500	337.026	80.006	19.993	104.077	19.116	57.644	0.520
504.000	337.266	80.005	19.994	104.076	19.113	57.894	0.485
504.500	337.530	80.005	19.993	104.079	19.108	58.212	0.495
505.000	337.776	80.006	19.993	104.084	19.104	58.523	0.507
505.500	338.042	80.007	19.993	104.087	19.097	58.991	0.511
506.000	338.280	80.006	19.993	104.095	19.098	58.943	0.507
506.500	338.572	80.007	19.993	104.100	19.090	59.427	0.517
507.000	338.834	80.007	19.993	104.105	19.087	59.648	0.542
507.500	339.054	80.008	19.994	104.106	19.084	59.882	0.518
508.000	339.322	80.005	19.993	104.108	19.076	60.386	0.485
508.500	339.571	80.008	19.994	104.108	19.075	60.479	0.503
509.000	339.803	80.006	19.993	104.115	19.066	61.056	0.500
509.500	340.060	80.007	19.993	104.120	19.063	61.284	0.485
510.000	340.272	80.007	19.993	104.127	19.058	61.656	0.479
510.500	340.532	80.007	19.993	104.140	19.056	61.794	0.470
511.000	340.770	80.007	19.993	104.155	19.050	62.167	0.485
511.500	341.091	80.007	19.993	104.157	19.047	62.359	0.528
512.000	341.334	80.008	19.994	104.155	19.042	62.719	0.562
512.500	341.583	80.008	19.993	104.140	19.037	63.084	0.528
513.000	341.836	80.007	19.992	104.119	19.031	63.479	0.497
513.500	342.093	80.006	19.993	104.103	19.028	63.695	0.506
514.000	342.379	80.007	19.993	104.095	19.023	64.036	0.526
514.500	342.603	80.007	19.993	104.094	19.017	64.417	0.526
515.000	342.829	80.007	19.994	104.101	19.016	64.500	0.480
515.501	343.084	80.006	19.993	104.113	19.008	65.023	0.466
516.001	343.354	80.007	19.993	104.120	19.005	65.254	0.503
516.500	343.598	80.005	19.993	104.121	18.998	65.707	0.519
517.000	343.825	80.006	19.993	104.126	18.993	66.066	0.493
517.500	344.067	80.006	19.994	104.133	18.992	66.138	0.470
518.000	344.300	80.006	19.994	104.131	18.986	66.516	0.472
518.500	344.577	80.006	19.993	104.128	18.983	66.718	0.492
519.000	344.835	80.005	19.993	104.127	18.979	66.996	0.522
519.500	345.035	80.006	19.993	104.124	18.974	67.379	0.496
520.000	345.287	80.006	19.993	104.123	18.966	67.890	0.455
520.500	345.557	80.006	19.994	104.127	18.966	67.914	0.487
521.000	345.798	80.007	19.994	104.134	18.961	68.244	0.516
521.500	346.096	80.006	19.994	104.141	18.954	68.734	0.525
522.000	346.306	80.008	19.994	104.146	18.952	68.864	0.524
522.500	346.535	80.007	19.995	104.148	18.949	69.025	0.473
523.000	346.808	80.006	19.995	104.147	18.943	69.427	0.471
523.500	347.079	80.004	19.994	104.147	18.939	69.700	0.523
524.000	347.299	80.006	19.994	104.151	18.937	69.892	0.517
524.500	347.559	80.005	19.994	104.155	18.930	70.314	0.485
525.000	347.802	80.006	19.994	104.159	18.925	70.683	0.491
525.500	348.065	80.005	19.995	104.162	18.925	70.681	0.505
526.000	348.331	80.007	19.994	104.164	18.919	71.112	0.517
526.500	348.628	80.005	19.995	104.160	18.915	71.330	0.546
527.000	348.860	80.008	19.994	104.155	18.913	71.525	0.546
527.500	349.076	80.006	19.995	104.145	18.909	71.796	0.488
528.000	349.360	80.006	19.994	104.136	18.903	72.174	0.474
528.500	349.607	80.006	19.994	104.134	18.899	72.450	0.515
529.000	349.863	80.006	19.994	104.134	18.901	72.317	0.517
529.500	350.112	80.006	19.994	104.133	18.891	72.970	0.504
530.000	350.352	80.007	19.993	104.137	18.890	73.081	0.498
530.500	350.619	80.007	19.993	104.143	18.887	73.274	0.498
531.000	350.859	80.006	19.994	104.143	18.882	73.633	0.507
531.500	351.087	80.007	19.993	104.143	18.877	73.956	0.487
532.000	351.350	80.007	19.993	104.144	18.877	73.923	0.479
532.500	351.605	80.007	19.994	104.145	18.874	74.149	0.504
533.000	351.863	80.007	19.993	104.146	18.870	74.420	0.516
533.500	352.116	80.007	19.994	104.146	18.868	74.547	0.513
534.000	352.356	80.008	19.993	104.147	18.869	74.491	0.502
534.500	352.586	80.007	19.994	104.148	18.862	74.933	0.481
535.000	352.896	80.008	19.993	104.149	18.861	74.990	0.505
535.500	353.138	80.008	19.993	104.149	18.858	75.241	0.546
536.000	353.415	80.008	19.994	104.149	18.856	75.358	0.536
536.500	353.655	80.008	19.993	104.149	18.853	75.585	0.518
537.000	353.879	80.007	19.993	104.146	18.851	75.717	0.491
537.500	354.156	80.008	19.992	104.143	18.848	75.893	0.482
538.000	354.394	80.008	19.991	104.138	18.849	75.816	0.508
538.500	354.663	80.006	19.994	104.137	18.850	75.746	0.511
539.000	354.894	80.006	19.994	104.137	18.843	76.230	0.504
539.500	355.145	80.008	19.993	104.139	18.844	76.151	0.492
540.000	355.419	80.007	19.994	104.143	18.844	76.179	0.504
540.500	355.669	80.008	19.994	104.149	18.842	76.326	0.524
541.000	355.942	80.007	19.993	104.150	18.837	76.624	0.524
541.500	356.170	80.006	19.994	104.150	18.840	76.453	0.512
542.000	356.421	80.008	19.993	104.152	18.839	76.458	0.490
542.500	356.681	80.006	19.994	104.152	18.837	76.645	0.495
543.000	356.948	80.006	19.994	104.152	18.838	76.548	0.519
543.500	357.190	80.007	19.993	104.152	18.835	76.745	0.517
544.000	357.441	80.006	19.994	104.148	18.834	76.788	0.501
544.500	357.708	80.006	19.993	104.143	18.834	76.799	0.506
545.000	357.957	80.004	19.994	104.136	18.838	76.562	0.517
545.500	358.195	80.006	19.994	104.129	18.838	76.574	0.501
546.000	358.459	80.005	19.994	104.125	18.837	76.627	0.495
546.500	358.671	80.006	19.995	104.121	18.837	76.633	0.489
547.000	358.962	80.005	19.995	104.119	18.839	76.481	0.489
547.500	359.201	80.005	19.995	104.122	18.838	76.542	0.516
548.000	359.458	80.005	19.994	104.121	18.838	76.559	0.513
548.500	359.715	80.004	19.995	104.119	18.839	76.429	0.505
549.000	359.975	80.005	19.994	104.120	18.844	76.085	0.515
549.500	360.246	80.005	19.994	104.117	18.844	76.093	0.524
550.000	360.484	80.004	19.995	104.113	18.846	75.997	0.521
550.500	360.718	80.004	19.994	104.112	18.846	75.949	0.491
551.000	361.002	80.005	19.995	104.113	18.849	75.734	0.495
551.500	361.256	80.004	19.994	104.106	18.851	75.651	0.528
552.000	361.519	80.004	19.994	104.099	18.852	75.539	0.527
552.500	361.791	80.004	19.995	104.093	18.856	75.266	0.526
553.000	362.070	80.004	19.994	104.089	18.860	75.020	0.543
553.500	362.261	80.003	19.995	104.087	18.864	74.726	0.511
554.000	362.572	80.004	19.995	104.085	18.869	74.406	0.486
554.500	362.811	80.004	19.995	104.085	18.871	74.213	0.526
555.000	363.029	80.004	19.994	104.083	18.875	73.941	0.503
555.500	363.262	80.005	19.995	104.079	18.880	73.617	0.454
556.000	363.539	80.003	19.996	104.074	18.885	73.296	0.480
556.500	363.787	80.004	19.994	104.072	18.888	73.061	0.517
557.000	364.043	80.004	19.994	104.072	18.893	72.720	0.515
557.500	364.317	80.003	19.993	104.073	18.897	72.434	0.517
558.000	364.580	80.005	19.994	104.070	18.904	71.972	0.534
558.500	364.825	80.005	19.994	104.065	18.909	71.612	0.522
559.000	365.085	80.005	19.994	104.057	18.915	71.247	0.506
559.500	365.356	80.005	19.994	104.049	18.921	70.798	0.519
560.000	365.579	80.005	19.994	104.041	18.929	70.280	0.513
560.500	365.835	80.005	19.995	104.036	18.933	70.032	0.486
561.000	366.096	80.005	19.994	104.033	18.943	69.364	0.498
561.500	366.343	80.006	19.994	104.033	18.948	69.012	0.513
562.000	366.596	80.005	19.994	104.030	18.954	68.591	0.504
562.500	366.852	80.006	19.994	104.025	18.961	68.129	0.504
563.000	367.110	80.006	19.993	104.021	18.970	67.510	0.512
563.500	367.363	80.006	19.994	104.014	18.977	66.991	0.513
564.000	367.592	80.006	19.994	104.007	18.984	66.562	0.496
564.500	367.896	80.007	19.993	104.004	18.993	65.955	0.507
565.000	368.105	80.006	19.994	104.001	19.000	65.432	0.523
565.500	368.359	80.006	19.994	103.998	19.006	65.030	0.488
566.000	368.643	80.006	19.993	103.997	19.018	64.236	0.501
566.500	368.900	80.007	19.994	103.996	19.022	63.925	0.540
567.000	369.133	80.005	19.994	103.993	19.032	63.303	0.516
567.500	369.377	80.006	19.993	103.990	19.040	62.756	0.483
568.000	369.662	80.006	19.993	103.984	19.050	62.030	0.503
568.500	369.913	80.006	19.993	103.975	19.060	61.387	0.532
569.000	370.187	80.007	19.993	103.968	19.067	60.882	0.531
569.500	370.432	80.005	19.993	103.964	19.075	60.305	0.522
570.000	370.696	80.006	19.994	103.960	19.090	59.324	0.514
570.500	370.918	80.006	19.993	103.960	19.094	59.035	0.498
571.000	371.183	80.006	19.994	103.961	19.107	58.127	0.486
571.500	371.432	80.006	19.993	103.961	19.117	57.464	0.500
572.000	371.686	80.006	19.993	103.958	19.123	57.064	0.509
572.500	371.951	80.006	19.994	103.956	19.136	56.189	0.511
573.000	372.215	80.007	19.993	103.953	19.146	55.526	0.524
573.500	372.499	80.006	19.992	103.951	19.156	54.809	0.539
574.000	372.745	80.006	19.993	103.948	19.167	54.107	0.539
574.500	373.007	80.006	19.994	103.948	19.177	53.427	0.519
575.000	373.258	80.006	19.993	103.948	19.188	52.688	0.511
575.500	373.546	80.006	19.993	103.947	19.197	52.025	0.527
576.000	373.773	80.006	19.993	103.944	19.205	51.494	0.527
576.500	374.034	80.005	19.993	103.942	19.218	50.636	0.501
577.000	374.288	80.006	19.993	103.935	19.226	50.044	0.501
577.500	374.546	80.005	19.993	103.930	19.237	49.326	0.513
578.000	374.811	80.005	19.993	103.923	19.245	48.813	0.517
578.500	375.070	80.005	19.993	103.919	19.256	48.049	0.523
579.000	375.293	80.004	19.992	103.910	19.267	47.278	0.503
579.501	375.532	80.005	19.994	103.903	19.277	46.617	0.472
580.000	375.808	80.004	19.993	103.893	19.288	45.836	0.488
580.500	376.026	80.004	19.993	103.886	19.298	45.205	0.504
581.000	376.275	80.005	19.993	103.879	19.308	44.514	0.481
581.500	376.544	80.005	19.994	103.877	19.318	43.823	0.493
582.000	376.808	80.004	19.994	103.875	19.327	43.226	0.525
582.500	377.041	80.004	19.994	103.875	19.337	42.553	0.515
583.000	377.312	80.005	19.993	103.872	19.346	41.913	0.501
583.500	377.604	80.005	19.993	103.870	19.358	41.127	0.534
584.000	377.822	80.005	19.994	103.863	19.366	40.575	0.536
584.500	378.074	80.006	19.994	103.861	19.376	39.926	0.489
585.000	378.340	80.005	19.993	103.860	19.385	39.320	0.494
585.500	378.580	80.005	19.994	103.860	19.395	38.600	0.512
586.000	378.804	80.006	19.993	103.855	19.403	38.076	0.485
586.500	379.106	80.006	19.993	103.856	19.411	37.512	0.495
587.000	379.316	80.005	19.993	103.849	19.422	36.776	0.519
587.500	379.608	80.006	19.993	103.844	19.433	36.073	0.507
588.000	379.869	80.006	19.993	103.841	19.436	35.833	0.528
588.500	380.137	80.005	19.993	103.840	19.446	35.170	0.541
589.000	380.392	80.006	19.993	103.841	19.454	34.651	0.526
589.500	380.616	80.006	19.993	103.841	19.461	34.130	0.501
590.000	380.873	80.006	19.994	103.838	19.464	33.931	0.480
590.500	381.148	80.007	19.993	103.835	19.475	33.197	0.507
591.000	381.400	80.006	19.994	103.835	19.481	32.800	0.529
591.500	381.621	80.006	19.994	103.834	19.487	32.382	0.500
592.000	381.879	80.006	19.993	103.834	19.494	31.883	0.476
592.500	382.153	80.008	19.993	103.835	19.500	31.522	0.506
593.000	382.418	80.006	19.993	103.836	19.506	31.103	0.536
593.500	382.651	80.007	19.994	103.836	19.511	30.725	0.519
594.000	382.889	80.007	19.993	103.835	19.519	30.189	0.484
594.500	383.130	80.008	19.993	103.835	19.525	29.798	0.475
595.000	383.376	80.007	19.992	103.836	19.530	29.481	0.483
595.500	383.696	80.007	19.993	103.836	19.536	29.093	0.527
596.000	383.901	80.007	19.992	103.835	19.541	28.733	0.545
596.500	384.155	80.006	19.992	103.836	19.545	28.484	0.492
597.000	384.418	80.007	19.994	103.835	19.551	28.065	0.488
597.500	384.633	80.006	19.993	103.834	19.556	27.735	0.497
598.000	384.937	80.006	19.992	103.835	19.560	27.436	0.498
598.500	385.203	80.007	19.992	103.835	19.562	27.289	0.545
599.000	385.430	80.007	19.993	103.839	19.566	27.006	0.532
599.500	385.684	80.007	19.994	103.844	19.570	26.737	0.487
600.000	385.955	80.007	19.993	103.845	19.573	26.550	0.503
600.500	386.215	80.005	19.994	103.845	19.577	26.309	0.528
601.000	386.469	80.006	19.992	103.845	19.578	26.193	0.523
601.500	386.674	80.006	19.993	103.841	19.581	25.990	0.487
602.000	386.949	80.006	19.993	103.837	19.584	25.779	0.470
602.500	387.203	80.006	19.993	103.837	19.588	25.530	0.504
603.000	387.458	80.005	19.993	103.837	19.592	25.260	0.519
603.500	387.698	80.005	19.993	103.839	19.594	25.153	0.502
604.000	387.953	80.006	19.993	103.841	19.596	25.015	0.495
604.500	388.217	80.005	19.993	103.847	19.599	24.821	0.507
605.000	388.422	80.006	19.993	103.851	19.599	24.765	0.494
605.500	388.704	80.005	19.993	103.854	19.601	24.681	0.478
606.001	388.960	80.006	19.994	103.855	19.603	24.553	0.513
606.500	389.204	80.006	19.992	103.854	19.605	24.418	0.519
607.000	389.405	80.006	19.992	103.848	19.608	24.152	0.472
607.500	389.675	80.006	19.994	103.844	19.607	24.253	0.458
608.000	389.942	80.006	19.993	103.841	19.608	24.193	0.504
608.500	390.193	80.007	19.993	103.839	19.604	24.464	0.528
609.000	390.449	80.006	19.992	103.839	19.606	24.331	0.513
609.500	390.721	80.007	19.993	103.840	19.610	24.019	0.517
610.000	390.967	80.007	19.993	103.839	19.610	24.076	0.523
610.500	391.233	80.006	19.993	103.839	19.609	24.085	0.515
611.000	391.436	80.006	19.993	103.838	19.608	24.163	0.490
611.500	391.708	80.006	19.993	103.840	19.611	23.997	0.472
612.000	391.971	80.007	19.993	103.840	19.611	24.002	0.505
612.500	392.272	80.007	19.993	103.841	19.611	23.967	0.550
613.000	392.497	80.007	19.993	103.841	19.610	24.041	0.545
613.500	392.728	80.007	19.993	103.841	19.612	23.934	0.491
614.000	393.009	80.007	19.993	103.839	19.613	23.869	0.484
614.500	393.253	80.006	19.994	103.839	19.612	23.932	0.519
615.000	393.475	80.006	19.994	103.841	19.610	24.037	0.496
615.500	393.721	80.007	19.994	103.841	19.608	24.148	0.467
616.000	394.006	80.007	19.993	103.840	19.607	24.235	0.499
616.500	394.294	80.007	19.992	103.840	19.615	23.734	0.552
617.000	394.531	80.007	19.994	103.839	19.609	24.144	0.549
617.500	394.814	80.008	19.993	103.837	19.608	24.153	0.522
618.000	395.076	80.007	19.992	103.837	19.606	24.336	0.533
618.500	395.295	80.007	19.993	103.837	19.608	24.179	0.513
619.000	395.582	80.006	19.993	103.838	19.607	24.221	0.493
619.500	395.785	80.007	19.993	103.838	19.606	24.323	0.498
620.000	396.082	80.006	19.992	103.839	19.604	24.461	0.495
620.500	396.334	80.007	19.993	103.838	19.602	24.603	0.524
621.000	396.616	80.008	19.993	103.838	19.605	24.384	0.542
621.501	396.864	80.008	19.993	103.838	19.603	24.506	0.532
622.000	397.116	80.007	19.993	103.837	19.606	24.306	0.515
622.500	397.335	80.007	19.993	103.837	19.600	24.702	0.486
623.000	397.627	80.007	19.993	103.838	19.599	24.810	0.491
623.500	397.859	80.006	19.993	103.838	19.599	24.783	0.517
624.000	398.099	80.009	19.994	103.837	19.602	24.595	0.497
624.500	398.312	80.008	19.993	103.836	19.601	24.691	0.462
625.000	398.589	80.008	19.993	103.835	19.598	24.854	0.471
625.500	398.865	80.007	19.995	103.835	19.601	24.675	0.522
626.000	399.104	80.007	19.994	103.835	19.595	25.039	0.535
626.500	399.373	80.007	19.993	103.835	19.596	24.976	0.511
627.000	399.623	80.007	19.994	103.837	19.595	25.070	0.513
627.500	399.912	80.007	19.993	103.837	19.594	25.106	0.529
628.000	400.153	80.006	19.994	103.837	19.592	25.266	0.535
628.500	400.405	80.006	19.993	103.835	19.592	25.269	0.512
629.000	400.637	80.006	19.994	103.835	19.592	25.248	0.489
629.500	400.881	80.007	19.993	103.835	19.593	25.167	0.480
630.000	401.106	80.007	19.994	103.835	19.590	25.395	0.472
630.500	401.403	80.006	19.994	103.834	19.589	25.487	0.495
631.001	401.654	80.006	19.994	103.835	19.589	25.445	0.535
631.500	401.935	80.005	19.994	103.835	19.589	25.448	0.540
632.000	402.167	80.005	19.994	103.834	19.589	25.493	0.522
632.500	402.421	80.005	19.994	103.834	19.586	25.706	0.499
633.000	402.658	80.006	19.994	103.834	19.584	25.827	0.488
633.500	402.904	80.005	19.993	103.839	19.584	25.846	0.487
634.000	403.204	80.006	19.993	103.843	19.584	25.789	0.515
634.500	403.425	80.004	19.995	103.845	19.585	25.773	0.534
635.000	403.679	80.005	19.993	103.846	19.583	25.860	0.498
635.500	403.951	80.005	19.993	103.852	19.585	25.762	0.501
636.000	404.206	80.005	19.995	103.856	19.583	25.898	0.527
636.500	404.455	80.004	19.994	103.855	19.581	26.041	0.515
637.000	404.704	80.005	19.994	103.858	19.584	25.812	0.501
637.500	404.961	80.005	19.993	103.865	19.579	26.155	0.502
638.000	405.198	80.005	19.993	103.863	19.577	26.269	0.499
638.500	405.436	80.005	19.994	103.860	19.579	26.137	0.484
639.000	405.702	80.004	19.994	103.857	19.576	26.342	0.490
639.500	405.939	80.005	19.993	103.855	19.575	26.387	0.504
640.000	406.159	80.005	19.994	103.849	19.575	26.389	0.480
640.500	406.415	80.005	19.994	103.851	19.575	26.396	0.466
641.000	406.693	80.005	19.993	103.849	19.572	26.590	0.505
641.500	406.984	80.006	19.993	103.849	19.571	26.686	0.552
642.000	407.228	80.005	19.993	103.848	19.569	26.841	0.552
642.500	407.462	80.005	19.994	103.853	19.568	26.906	0.506
643.000	407.751	80.006	19.996	103.855	19.567	26.968	0.501
643.500	407.976	80.006	19.994	103.859	19.564	27.187	0.519
644.000	408.274	80.006	19.994	103.864	19.562	27.282	0.518
644.500	408.501	80.005	19.994	103.866	19.564	27.126	0.524
645.000	408.746	80.006	19.993	103.864	19.561	27.364	0.499
645.500	409.003	80.006	19.995	103.862	19.562	27.296	0.487
646.000	409.278	80.006	19.995	103.855	19.569	26.845	0.517
646.500	409.520	80.005	19.993	103.854	19.560	27.401	0.524
647.000	409.775	80.005	19.995	103.852	19.566	27.012	0.507
647.500	410.050	80.006	19.994	103.853	19.559	27.526	0.513
648.000	410.289	80.005	19.995	103.854	19.555	27.779	0.522
648.500	410.521	80.003	19.994	103.853	19.561	27.334	0.493
649.000	410.811	80.005	19.995	103.850	19.567	26.973	0.497
649.500	411.061	80.005	19.994	103.847	19.554	27.852	0.531
650.000	411.362	80.005	19.996	103.841	19.549	28.207	0.545
650.500	411.581	80.005	19.995	103.835	19.541	28.733	0.536
651.000	411.818	80.005	19.994	103.835	19.544	28.507	0.488
651.500	412.094	80.005	19.994	103.835	19.542	28.686	0.484
652.000	412.351	80.005	19.995	103.835	19.541	28.719	0.523
652.500	412.602	80.005	19.995	103.835	19.543	28.569	0.520
653.000	412.835	80.005	19.995	103.835	19.543	28.617	0.496
653.500	413.096	80.005	19.996	103.835	19.539	28.855	0.489
654.000	413.377	80.005	19.995	103.835	19.541	28.705	0.519
654.500	413.623	80.005	19.995	103.831	19.537	28.976	0.535
655.000	413.859	80.005	19.995	103.826	19.536	29.050	0.504
655.500	414.089	80.005	19.995	103.825	19.534	29.217	0.474
656.000	414.362	80.006	19.995	103.824	19.532	29.296	0.485
656.500	414.598	80.005	19.995	103.824	19.531	29.362	0.506
657.000	414.841	80.005	19.995	103.828	19.531	29.379	0.494
657.500	415.085	80.005	19.994	103.832	19.530	29.468	0.483
658.000	415.331	80.005	19.994	103.833	19.531	29.383	0.489
658.500	415.604	80.004	19.995	103.834	19.526	29.714	0.505
659.000	415.875	80.006	19.994	103.835	19.525	29.782	0.532
659.500	416.119	80.006	19.995	103.837	19.524	29.908	0.530
660.000	416.356	80.005	19.995	103.838	19.524	29.886	0.498
660.500	416.675	80.006	19.994	103.840	19.520	30.139	0.518
661.000	416.860	80.006	19.994	103.841	19.517	30.355	0.530
661.500	417.155	80.006	19.994	103.847	19.517	30.381	0.492
662.000	417.418	80.006	19.994	103.852	19.514	30.544	0.519
662.500	417.624	80.005	19.994	103.859	19.513	30.609	0.514
663.000	417.877	80.005	19.994	103.865	19.514	30.588	0.464
663.500	418.146	80.005	19.993	103.870	19.511	30.748	0.490
664.000	418.389	80.004	19.995	103.868	19.514	30.593	0.517
664.500	418.679	80.004	19.993	103.861	19.511	30.770	0.523
665.000	418.911	80.006	19.994	103.854	19.508	30.944	0.528
665.500	419.200	80.005	19.993	103.845	19.506	31.127	0.521
666.000	419.502	80.004	19.994	103.834	19.505	31.184	0.555
666.500	419.731	80.004	19.993	103.829	19.500	31.498	0.561
667.000	420.002	80.006	19.993	103.827	19.499	31.539	0.516
667.500	420.253	80.004	19.993	103.821	19.502	31.383	0.511
668.000	420.507	80.005	19.993	103.822	19.501	31.430	0.514
668.500	420.805	80.005	19.994	103.828	19.496	31.738	0.529
669.000	421.056	80.007	19.994	103.830	19.494	31.883	0.551
669.500	421.312	80.005	19.993	103.831	19.494	31.892	0.528
670.001	421.585	80.006	19.993	103.844	19.493	31.952	0.518
670.500	421.818	80.006	19.993	103.856	19.491	32.105	0.517
671.000	422.080	80.006	19.993	103.871	19.491	32.134	0.501
671.500	422.333	80.007	19.994	103.884	19.492	32.030	0.505
672.000	422.545	80.006	19.993	103.889	19.489	32.277	0.490
672.500	422.821	80.008	19.993	103.882	19.488	32.341	0.477
673.000	423.121	80.008	19.993	103.866	19.486	32.469	0.533
673.500	423.403	80.008	19.994	103.856	19.483	32.631	0.579
674.000	423.645	80.008	19.993	103.854	19.482	32.698	0.552
674.500	423.855	80.007	19.994	103.857	19.480	32.842	0.488
675.000	424.114	80.008	19.994	103.862	19.479	32.905	0.461
675.500	424.364	80.007	19.993	103.867	19.476	33.101	0.489
676.000	424.650	80.008	19.993	103.859	19.479	32.930	0.522
676.500	424.907	80.008	19.994	103.841	19.473	33.315	0.540
677.000	425.144	80.008	19.993	103.826	19.470	33.560	0.518
677.500	425.423	80.008	19.994	103.817	19.470	33.538	0.505
678.000	425.714	80.008	19.993	103.815	19.469	33.577	0.543
678.500	425.948	80.009	19.993	103.818	19.466	33.776	0.548
679.000	426.194	80.008	19.993	103.824	19.465	33.884	0.502
679.500	426.447	80.008	19.993	103.828	19.462	34.061	0.489
680.000	426.718	80.008	19.994	103.833	19.464	33.924	0.512
680.500	426.963	80.007	19.993	103.835	19.463	34.013	0.520
681.000	427.245	80.009	19.994	103.838	19.457	34.429	0.522
681.500	427.463	80.007	19.994	103.844	19.457	34.397	0.513
682.000	427.750	80.008	19.993	103.848	19.457	34.409	0.502
682.500	428.012	80.007	19.993	103.848	19.455	34.587	0.527
683.000	428.225	80.006	19.993	103.846	19.454	34.649	0.512
683.500	428.547	80.007	19.994	103.843	19.453	34.703	0.505
684.000	428.761	80.006	19.993	103.839	19.449	34.935	0.535
684.500	428.998	80.007	19.993	103.839	19.449	34.925	0.493
685.000	429.282	80.006	19.993	103.841	19.448	35.058	0.486
685.501	429.535	80.006	19.994	103.841	19.446	35.142	0.530
686.001	429.805	80.007	19.993	103.841	19.443	35.340	0.531
686.500	430.061	80.007	19.994	103.841	19.446	35.131	0.524
687.000	430.284	80.008	19.993	103.839	19.443	35.332	0.502
687.500	430.508	80.006	19.993	103.834	19.439	35.608	0.463
688.000	430.806	80.007	19.994	103.834	19.440	35.585	0.485
688.501	431.059	80.006	19.992	103.834	19.437	35.728	0.536
689.000	431.302	80.007	19.993	103.834	19.438	35.721	0.523
689.500	431.562	80.006	19.993	103.835	19.436	35.811	0.500
690.000	431.804	80.005	19.994	103.838	19.435	35.881	0.503
690.501	432.086	80.007	19.993	103.837	19.432	36.105	0.513
691.000	432.346	80.006	19.993	103.836	19.432	36.088	0.532
691.500	432.587	80.007	19.993	103.836	19.431	36.195	0.522
692.000	432.841	80.007	19.994	103.839	19.428	36.344	0.498
692.500	433.088	80.006	19.994	103.843	19.428	36.376	0.498
693.000	433.351	80.007	19.993	103.845	19.425	36.602	0.506
693.500	433.604	80.007	19.993	103.846	19.422	36.743	0.513
694.000	433.880	80.006	19.993	103.846	19.420	36.878	0.522
694.500	434.117	80.008	19.993	103.847	19.420	36.926	0.521
695.000	434.392	80.008	19.993	103.844	19.418	37.070	0.512
695.500	434.641	80.008	19.993	103.842	19.416	37.161	0.518
696.000	434.905	80.007	19.993	103.841	19.418	37.063	0.519
696.500	435.152	80.008	19.993	103.840	19.415	37.272	0.513
697.000	435.422	80.007	19.993	103.836	19.415	37.282	0.514
697.500	435.660	80.008	19.993	103.830	19.412	37.446	0.512
698.000	435.942	80.008	19.993	103.822	19.413	37.433	0.514
698.500	436.162	80.010	19.994	103.814	19.409	37.694	0.511
699.000	436.465	80.009	19.993	103.806	19.409	37.652	0.512
699.500	436.698	80.009	19.993	103.799	19.410	37.600	0.529
700.000	436.931	80.011	19.993	103.795	19.406	37.846	0.501
700.500	437.201	80.008	19.993	103.794	19.402	38.111	0.485
701.000	437.456	80.011	19.993	103.797	19.404	37.983	0.514
701.500	437.692	80.010	19.993	103.804	19.403	38.056	0.508
702.000	437.953	80.010	19.993	103.811	19.403	38.084	0.494
702.500	438.205	80.010	19.993	103.816	19.400	38.276	0.505
703.000	438.465	80.009	19.993	103.818	19.397	38.456	0.513
703.500	438.712	80.011	19.992	103.815	19.397	38.497	0.509
704.000	438.964	80.009	19.994	103.808	19.392	38.803	0.503
704.500	439.210	80.009	19.993	103.803	19.395	38.617	0.498
705.000	439.450	80.010	19.992	103.805	19.397	38.458	0.492
705.500	439.675	80.010	19.993	103.811	19.390	38.943	0.476
706.000	439.931	80.007	19.992	103.819	19.392	38.849	0.473
706.500	440.199	80.009	19.992	103.833	19.387	39.146	0.503
707.000	440.454	80.009	19.993	103.847	19.390	38.929	0.524
707.500	440.699	80.008	19.993	103.855	19.390	38.955	0.511
708.000	440.943	80.008	19.992	103.861	19.385	39.264	0.495
708.500	441.188	80.007	19.992	103.859	19.383	39.421	0.489
709.000	441.460	80.007	19.992	103.854	19.384	39.353	0.503
709.500	441.717	80.009	19.992	103.845	19.381	39.565	0.523
710.000	441.950	80.008	19.993	103.832	19.384	39.343	0.509
710.500	442.201	80.008	19.994	103.820	19.380	39.598	0.487
711.000	442.423	80.008	19.993	103.811	19.381	39.596	0.479
711.500	442.688	80.006	19.993	103.806	19.381	39.553	0.481
712.000	442.923	80.006	19.993	103.809	19.382	39.514	0.494
712.500	443.164	80.007	19.995	103.823	19.379	39.723	0.488
713.000	443.402	80.006	19.994	103.838	19.382	39.513	0.477
713.500	443.673	80.006	19.993	103.854	19.379	39.670	0.494
714.000	443.939	80.006	19.994	103.860	19.380	39.615	0.523
714.500	444.158	80.005	19.994	103.857	19.379	39.718	0.511
715.000	444.437	80.006	19.994	103.849	19.380	39.625	0.491
715.500	444.669	80.005	19.993	103.841	19.378	39.752	0.505
716.000	444.873	80.006	19.994	103.841	19.376	39.874	0.474
716.500	445.127	80.006	19.994	103.844	19.378	39.743	0.447
717.000	445.393	80.006	19.993	103.845	19.377	39.823	0.489
717.500	445.619	80.005	19.994	103.845	19.380	39.605	0.506
718.000	445.870	80.005	19.992	103.845	19.376	39.889	0.484
718.500	446.139	80.005	19.995	103.837	19.378	39.727	0.499
719.000	446.366	80.006	19.995	103.834	19.377	39.837	0.509
719.500	446.626	80.006	19.995	103.833	19.374	40.029	0.491
720.000	446.830	80.007	19.995	103.833	19.374	40.065	0.475
720.500	447.138	80.006	19.995	103.833	19.376	39.880	0.488
721.000	447.345	80.006	19.995	103.832	19.374	40.012	0.514
721.500	447.599	80.006	19.994	103.828	19.378	39.785	0.487
722.000	447.859	80.005	19.993	103.827	19.373	40.063	0.487
722.500	448.068	80.006	19.994	103.826	19.374	40.000	0.492
723.000	448.310	80.006	19.995	103.821	19.373	40.117	0.461
723.500	448.549	80.006	19.994	103.817	19.375	39.979	0.466
724.000	448.829	80.007	19.994	103.819	19.371	40.250	0.500
724.500	449.057	80.006	19.994	103.823	19.376	39.883	0.513
725.000	449.331	80.007	19.994	103.825	19.372	40.141	0.505
725.500	449.555	80.006	19.994	103.828	19.375	39.985	0.500
726.000	449.776	80.006	19.995	103.831	19.373	40.068	0.471
726.500	450.032	80.007	19.994	103.826	19.369	40.359	0.461
727.000	450.278	80.007	19.994	103.816	19.375	39.937	0.490
727.500	450.563	80.004	19.993	103.807	19.371	40.228	0.516
728.000	450.787	80.006	19.994	103.805	19.375	39.970	0.520
728.500	451.035	80.006	19.994	103.802	19.371	40.225	0.491
729.000	451.271	80.006	19.994	103.802	19.376	39.877	0.478
729.500	451.507	80.006	19.994	103.809	19.377	39.860	0.478
730.000	451.761	80.007	19.994	103.817	19.374	39.998	0.481
730.500	452.035	80.006	19.994	103.821	19.374	40.029	0.509
731.000	452.269	80.006	19.994	103.823	19.374	40.044	0.518
731.500	452.515	80.007	19.994	103.821	19.377	39.802	0.494
732.000	452.776	80.007	19.993	103.814	19.374	40.011	0.494
732.500	453.008	80.005	19.994	103.806	19.373	40.077	0.500
733.000	453.209	80.006	19.993	103.798	19.378	39.748	0.463
733.500	453.482	80.005	19.994	103.799	19.377	39.823	0.454
734.000	453.710	80.007	19.994	103.799	19.374	40.014	0.488
734.500	454.026	80.005	19.992	103.801	19.378	39.792	0.522
735.000	454.228	80.006	19.994	103.805	19.376	39.923	0.531
735.500	454.522	80.006	19.995	103.806	19.380	39.629	0.507
736.000	454.801	80.006	19.992	103.805	19.379	39.721	0.535
736.500	455.007	80.006	19.993	103.807	19.380	39.600	0.529
737.000	455.290	80.004	19.992	103.806	19.383	39.450	0.487
737.500	455.495	80.004	19.993	103.805	19.381	39.549	0.489
738.000	455.756	80.006	19.993	103.807	19.380	39.612	0.477
738.500	456.021	80.005	19.995	103.812	19.384	39.378	0.496
739.000	456.236	80.006	19.994	103.816	19.388	39.099	0.503
739.500	456.476	80.005	19.994	103.817	19.387	39.147	0.467
740.000	456.735	80.005	19.993	103.815	19.386	39.240	0.477
740.501	456.979	80.004	19.993	103.813	19.390	38.934	0.501
741.001	457.238	80.005	19.994	103.812	19.388	39.074	0.503
741.501	457.460	80.004	19.994	103.812	19.393	38.765	0.493
742.000	457.710	80.006	19.994	103.816	19.393	38.778	0.477
742.500	457.971	80.004	19.993	103.821	19.392	38.844	0.491
743.000	458.254	80.004	19.995	103.823	19.393	38.741	0.528
743.500	458.489	80.004	19.995	103.826	19.398	38.391	0.531
744.000	458.758	80.003	19.992	103.826	19.403	38.055	0.511
744.500	459.012	80.005	19.995	103.828	19.404	38.025	0.513
745.000	459.291	80.003	19.993	103.831	19.403	38.056	0.528
745.500	459.511	80.008	19.997	103.833	19.406	37.886	0.516
746.000	459.751	80.004	19.996	103.832	19.407	37.819	0.480
746.500	460.015	80.005	19.995	103.831	19.409	37.638	0.482
747.000	460.281	80.021	19.999	103.831	19.411	37.514	0.517
747.500	460.486	80.023	20.000	103.832	19.412	37.474	0.500
748.000	460.758	80.022	20.002	103.837	19.413	37.390	0.474
748.500	461.017	80.022	20.002	103.839	19.419	37.003	0.504
749.000	461.262	80.023	20.002	103.841	19.419	36.966	0.518
749.500	461.540	80.024	20.002	103.842	19.415	37.251	0.513
750.000	461.756	80.022	20.000	103.842	19.418	37.048	0.509
750.500	462.047	80.024	20.001	103.841	19.422	36.804	0.501
751.000	462.292	80.023	20.000	103.839	19.426	36.539	0.521
751.500	462.540	80.022	20.002	103.838	19.426	36.500	0.514
752.000	462.783	80.023	20.002	103.837	19.428	36.387	0.492
752.500	463.035	80.022	20.002	103.837	19.428	36.348	0.493
753.000	463.298	80.023	20.003	103.837	19.436	35.839	0.505
753.500	463.541	80.022	20.002	103.840	19.435	35.896	0.510
754.000	463.777	80.024	20.003	103.842	19.438	35.692	0.492
754.500	464.027	80.025	20.003	103.843	19.438	35.704	0.483
755.000	464.304	80.023	20.001	103.844	19.442	35.413	0.507
755.500	464.544	80.024	20.001	103.844	19.443	35.356	0.522
756.000	464.813	80.024	20.001	103.842	19.444	35.276	0.513
756.500	465.058	80.023	19.999	103.841	19.445	35.191	0.511
757.000	465.288	80.023	20.000	103.839	19.450	34.872	0.495
757.500	465.583	80.024	20.002	103.839	19.448	35.048	0.500
758.000	465.815	80.026	20.002	103.845	19.452	34.771	0.526
758.500	466.093	80.025	20.001	103.850	19.456	34.498	0.519
759.000	466.300	80.025	19.998	103.849	19.456	34.484	0.498
759.500	466.557	80.024	19.998	103.850	19.462	34.077	0.474
760.000	466.857	80.014	19.996	103.851	19.460	34.210	0.510
760.500	467.074	80.008	19.994	103.846	19.465	33.858	0.537
761.000	467.344	80.006	19.995	103.841	19.466	33.788	0.502
761.500	467.620	80.006	19.993	103.840	19.472	33.393	0.516
762.000	467.879	80.007	19.993	103.839	19.472	33.372	0.540
762.500	468.098	80.008	19.995	103.838	19.475	33.189	0.507
763.000	468.373	80.007	19.995	103.837	19.478	32.971	0.486
763.500	468.605	80.007	19.993	103.837	19.479	32.938	0.501
764.000	468.842	80.006	19.994	103.836	19.480	32.843	0.488
764.500	469.106	80.007	19.993	103.832	19.485	32.516	0.484
765.000	469.344	80.007	19.993	103.828	19.489	32.220	0.501
765.500	469.604	80.007	19.993	103.821	19.492	32.068	0.500
766.000	469.893	80.007	19.992	103.818	19.493	31.981	0.524
766.500	470.141	80.006	19.993	103.817	19.497	31.710	0.543
767.000	470.394	80.006	19.994	103.822	19.500	31.474	0.519
767.500	470.673	80.007	19.993	103.825	19.499	31.537	0.516
768.000	470.923	80.007	19.993	103.832	19.503	31.269	0.530
768.500	471.146	80.007	19.994	103.835	19.504	31.231	0.501
769.000	471.420	80.007	19.993	103.833	19.509	30.904	0.485
769.500	471.657	80.006	19.994	103.830	19.510	30.827	0.504
770.000	471.927	80.006	19.993	103.827	19.513	30.625	0.509
770.500	472.152	80.005	19.993	103.819	19.513	30.596	0.502
771.000	472.429	80.007	19.994	103.811	19.520	30.122	0.499
771.500	472.673	80.006	19.993	103.808	19.522	30.036	0.511
772.000	472.949	80.006	19.993	103.810	19.525	29.817	0.520
772.500	473.174	80.008	19.994	103.809	19.530	29.500	0.511
773.000	473.437	80.005	19.994	103.817	19.532	29.306	0.494
773.500	473.699	80.007	19.994	103.821	19.534	29.210	0.507
774.000	473.928	80.006	19.994	103.822	19.535	29.132	0.508
774.500	474.239	80.006	19.994	103.823	19.540	28.775	0.516
775.000	474.486	80.007	19.993	103.826	19.545	28.483	0.549
775.500	474.751	80.006	19.993	103.824	19.546	28.356	0.535
776.000	475.009	80.006	19.993	103.827	19.546	28.367	0.517
776.500	475.240	80.006	19.994	103.832	19.550	28.109	0.506
777.000	475.538	80.007	19.994	103.832	19.551	28.029	0.509
777.500	475.773	80.007	19.993	103.832	19.557	27.616	0.531
778.000	476.034	80.006	19.992	103.833	19.559	27.503	0.514
778.500	476.270	80.006	19.993	103.834	19.565	27.104	0.496
779.000	476.530	80.007	19.994	103.834	19.564	27.141	0.497
779.500	476.792	80.006	19.994	103.834	19.572	26.586	0.509
780.000	477.032	80.007	19.994	103.835	19.572	26.611	0.512
780.500	477.332	80.007	19.993	103.836	19.580	26.074	0.521
781.000	477.538	80.008	19.994	103.836	19.580	26.053	0.523
781.500	477.829	80.007	19.993	103.838	19.584	25.771	0.501
782.000	478.062	80.007	19.993	103.842	19.586	25.664	0.510
782.500	478.304	80.006	19.993	103.846	19.588	25.515	0.500
783.000	478.564	80.009	19.994	103.847	19.591	25.326	0.489
783.500	478.783	80.008	19.994	103.850	19.594	25.153	0.491
784.000	479.065	80.008	19.993	103.850	19.597	24.932	0.490
784.500	479.344	80.008	19.993	103.845	19.599	24.769	0.530
785.000	479.586	80.009	19.992	103.841	19.600	24.736	0.541
785.500	479.854	80.008	19.993	103.839	19.602	24.571	0.516
786.000	480.100	80.007	19.993	103.837	19.609	24.134	0.512
786.500	480.362	80.009	19.994	103.834	19.610	24.041	0.511
787.000	480.634	80.009	19.993	103.834	19.610	24.061	0.521
787.500	480.884	80.009	19.994	103.834	19.615	23.730	0.528
788.000	481.127	80.008	19.993	103.833	19.621	23.317	0.507
788.500	481.410	80.009	19.993	103.833	19.619	23.406	0.509
789.000	481.651	80.009	19.992	103.833	19.620	23.341	0.525
789.500	481.889	80.010	19.994	103.833	19.622	23.211	0.502
790.000	482.170	80.008	19.994	103.833	19.625	23.031	0.499
790.500	482.460	80.007	19.992	103.832	19.629	22.739	0.545
791.000	482.703	80.010	19.994	103.830	19.628	22.805	0.552
791.500	482.936	80.009	19.993	103.825	19.630	22.689	0.504
792.000	483.207	80.007	19.993	103.822	19.631	22.592	0.490
792.500	483.453	80.007	19.992	103.815	19.635	22.332	0.511
793.000	483.745	80.007	19.993	103.810	19.641	21.970	0.528
793.500	483.981	80.007	19.993	103.809	19.642	21.893	0.533
794.000	484.230	80.008	19.994	103.808	19.642	21.850	0.507
794.500	484.502	80.007	19.993	103.803	19.646	21.605	0.502
795.000	484.748	80.008	19.992	103.803	19.646	21.620	0.519
795.500	485.016	80.006	19.994	103.808	19.647	21.514	0.516
796.000	485.290	80.007	19.992	103.809	19.649	21.423	0.528
796.500	485.559	80.007	19.993	103.815	19.653	21.137	0.543
797.000	485.814	80.005	19.993	103.822	19.653	21.115	0.533
797.500	486.070	80.006	19.993	103.822	19.655	21.008	0.517
798.000	486.368	80.006	19.993	103.818	19.659	20.724	0.532
798.500	486.624	80.006	19.993	103.815	19.657	20.859	0.554
799.000	486.879	80.004	19.993	103.809	19.665	20.307	0.533
799.500	487.108	80.007	19.993	103.805	19.668	20.092	0.498
800.000	487.388	80.006	19.993	103.811	19.667	20.214	0.496
800.500	487.643	80.007	19.994	103.816	19.669	20.048	0.522
801.000	487.922	80.005	19.992	103.820	19.672	19.849	0.535
801.500	488.161	80.004	19.991	103.827	19.671	19.882	0.526
802.000	488.411	80.007	19.993	103.832	19.671	19.930	0.503
802.500	488.682	80.006	19.993	103.834	19.678	19.411	0.505
803.000	488.947	80.006	19.992	103.836	19.681	19.248	0.528
803.500	489.191	80.006	19.992	103.838	19.683	19.096	0.522
804.000	489.468	80.006	19.994	103.839	19.683	19.073	0.516
804.500	489.737	80.006	19.993	103.839	19.683	19.099	0.534
805.000	489.969	80.004	19.993	103.839	19.687	18.814	0.523
805.500	490.238	80.005	19.994	103.839	19.688	18.768	0.501
806.000	490.535	80.005	19.993	103.840	19.689	18.701	0.534
806.500	490.752	80.008	19.994	103.840	19.694	18.361	0.540
807.000	491.013	80.006	19.993	103.845	19.692	18.508	0.496
807.500	491.261	80.006	19.994	103.847	19.694	18.328	0.494
808.000	491.553	80.005	19.992	103.847	19.693	18.447	0.524
808.500	491.794	80.007	19.993	103.847	19.696	18.211	0.536
809.000	492.064	80.006	19.993	103.845	19.698	18.109	0.522
809.500	492.320	80.006	19.991	103.840	19.694	18.324	0.519
810.000	492.547	80.005	19.992	103.838	19.700	17.939	0.505
810.500	492.828	80.006	19.993	103.837	19.706	17.560	0.495
811.000	493.078	80.005	19.993	103.837	19.704	17.684	0.519
811.500	493.338	80.006	19.993	103.837	19.705	17.606	0.521
812.000	493.593	80.008	19.993	103.838	19.706	17.512	0.512
812.500	493.875	80.007	19.994	103.838	19.704	17.678	0.526
813.000	494.178	80.008	19.994	103.835	19.708	17.390	0.561
813.500	494.413	80.006	19.994	103.835	19.711	17.184	0.561
814.000	494.653	80.007	19.993	103.835	19.715	16.958	0.507
814.500	494.904	80.006	19.993	103.837	19.714	16.976	0.483
815.000	495.180	80.006	19.993	103.844	19.715	16.892	0.509
815.500	495.477	80.006	19.993	103.854	19.715	16.926	0.550
816.000	495.725	80.005	19.993	103.862	19.717	16.815	0.559
816.500	495.954	80.005	19.993	103.864	19.719	16.680	0.510
817.000	496.236	80.005	19.993	103.861	19.718	16.707	0.494
817.500	496.509	80.007	19.994	103.849	19.720	16.578	0.533
818.000	496.757	80.008	19.993	103.837	19.721	16.525	0.538
818.500	497.008	80.007	19.993	103.828	19.721	16.529	0.511
819.000	497.254	80.005	19.994	103.824	19.719	16.674	0.498
819.500	497.531	80.005	19.993	103.826	19.725	16.228	0.510
820.000	497.773	80.007	19.993	103.833	19.726	16.214	0.521
820.500	498.023	80.006	19.994	103.838	19.728	16.019	0.505
821.000	498.317	80.006	19.994	103.840	19.726	16.163	0.518
821.500	498.540	80.005	19.995	103.842	19.727	16.108	0.531
822.000	498.829	80.005	19.994	103.842	19.730	15.929	0.515
822.500	499.069	80.005	19.994	103.840	19.729	15.954	0.520
823.000	499.323	80.006	19.995	103.840	19.732	15.747	0.511
823.500	499.612	80.005	19.993	103.840	19.733	15.739	0.519
824.000	499.837	80.005	19.993	103.839	19.737	15.448	0.529
824.500	500.090	80.006	19.994	103.835	19.736	15.507	0.496
825.000	500.359	80.005	19.993	103.829	19.737	15.427	0.500
825.500	500.647	80.006	19.993	103.824	19.736	15.481	0.540
826.000	500.893	80.006	19.994	103.816	19.737	15.414	0.546
826.500	501.123	80.005	19.993	103.810	19.738	15.372	0.505
827.000	501.398	80.005	19.993	103.813	19.739	15.279	0.490
827.500	501.656	80.006	19.993	103.822	19.743	15.016	0.519
828.000	501.891	80.005	19.994	103.830	19.742	15.089	0.513
828.501	502.180	80.008	19.994	103.842	19.741	15.152	0.509
829.001	502.420	80.008	19.993	103.857	19.743	15.049	0.526
829.500	502.666	80.007	19.994	103.858	19.746	14.838	0.507
830.000	502.905	80.006	19.994	103.852	19.747	14.789	0.485
830.500	503.160	80.006	19.993	103.845	19.747	14.774	0.490
831.000	503.438	80.007	19.993	103.840	19.746	14.828	0.513
831.500	503.660	80.007	19.993	103.832	19.747	14.770	0.517
832.000	503.929	80.004	19.993	103.831	19.745	14.900	0.496
832.500	504.167	80.007	19.994	103.834	19.749	14.605	0.499
833.000	504.440	80.005	19.994	103.836	19.752	14.413	0.509
833.500	504.707	80.007	19.994	103.837	19.756	14.173	0.525
834.000	504.932	80.006	19.994	103.836	19.750	14.569	0.516
834.500	505.196	80.008	19.994	103.836	19.755	14.213	0.491
835.000	505.422	80.005	19.994	103.836	19.755	14.218	0.489
835.500	505.652	80.007	19.994	103.836	19.754	14.280	0.473
836.000	505.930	80.006	19.993	103.836	19.754	14.304	0.482
836.500	506.178	80.006	19.993	103.836	19.756	14.153	0.517
837.000	506.448	80.008	19.995	103.835	19.755	14.245	0.522
837.500	506.734	80.008	19.994	103.835	19.751	14.459	0.537
838.000	507.007	80.007	19.994	103.836	19.752	14.413	0.558
838.500	507.252	80.006	19.995	103.836	19.752	14.389	0.539
839.000	507.484	80.007	19.994	103.836	19.756	14.175	0.498
839.500	507.741	80.007	19.994	103.836	19.761	13.837	0.483
840.000	507.943	80.005	19.994	103.837	19.756	14.180	0.474
840.500	508.231	80.007	19.993	103.836	19.760	13.883	0.475
841.000	508.495	80.007	19.994	103.838	19.760	13.881	0.521
841.500	508.774	80.007	19.994	103.839	19.763	13.708	0.547
842.000	509.019	80.008	19.994	103.839	19.760	13.846	0.534
842.500	509.260	80.009	19.996	103.839	19.759	13.955	0.505
843.000	509.511	80.007	19.994	103.840	19.763	13.691	0.489
843.500	509.811	80.006	19.993	103.843	19.763	13.687	0.521
844.000	510.026	80.007	19.994	103.842	19.764	13.631	0.533
844.500	510.268	80.010	19.994	103.842	19.764	13.610	0.486
845.000	510.544	80.007	19.994	103.840	19.767	13.427	0.488
845.500	510.758	80.008	19.994	103.838	19.766	13.494	0.504
846.000	511.027	80.006	19.994	103.833	19.769	13.254	0.486
846.500	511.282	80.006	19.994	103.832	19.768	13.316	0.504
847.000	511.546	80.008	19.994	103.831	19.765	13.562	0.522
847.500	511.786	80.008	19.995	103.830	19.766	13.439	0.511
848.000	512.061	80.008	19.994	103.832	19.764	13.638	0.509
848.500	512.290	80.007	19.994	103.831	19.764	13.594	0.510
849.000	512.518	80.007	19.994	103.831	19.761	13.797	0.481
849.500	512.791	80.008	19.994	103.832	19.767	13.413	0.479
850.000	513.014	80.005	19.995	103.830	19.764	13.623	0.498
850.500	513.284	80.007	19.994	103.830	19.766	13.485	0.494
851.000	513.559	80.006	19.994	103.830	19.766	13.465	0.519
851.500	513.792	80.006	19.994	103.829	19.766	13.461	0.527
852.000	514.053	80.007	19.993	103.829	19.765	13.517	0.501
852.500	514.295	80.006	19.994	103.831	19.766	13.478	0.499
853.001	514.579	80.006	19.994	103.831	19.769	13.290	0.515
853.501	514.810	80.007	19.995	103.832	19.769	13.246	0.521
854.000	515.088	80.007	19.994	103.831	19.765	13.554	0.512
854.500	515.357	80.007	19.994	103.828	19.765	13.573	0.528
855.000	515.614	80.008	19.996	103.821	19.769	13.288	0.537
855.500	515.841	80.007	19.994	103.816	19.770	13.196	0.505
856.000	516.108	80.008	19.995	103.816	19.770	13.202	0.489
856.500	516.392	80.005	19.994	103.818	19.767	13.397	0.522
857.000	516.612	80.008	19.994	103.822	19.765	13.527	0.527
857.500	516.894	80.007	19.994	103.829	19.768	13.314	0.503
858.000	517.145	80.006	19.994	103.834	19.767	13.408	0.518
858.500	517.377	80.008	19.993	103.834	19.771	13.159	0.509
859.000	517.656	80.008	19.994	103.834	19.769	13.245	0.497
859.500	517.935	80.008	19.994	103.834	19.771	13.117	0.534
860.000	518.170	80.009	19.994	103.834	19.771	13.140	0.536
860.500	518.405	80.007	19.994	103.834	19.771	13.110	0.492
861.000	518.647	80.008	19.994	103.834	19.772	13.091	0.473
861.500	518.911	80.007	19.994	103.835	19.772	13.076	0.492
862.000	519.178	80.006	19.994	103.838	19.770	13.226	0.519
862.500	519.463	80.008	19.993	103.846	19.777	12.745	0.542
863.000	519.683	80.007	19.992	103.854	19.775	12.884	0.528
863.500	519.929	80.009	19.993	103.863	19.770	13.176	0.485
864.000	520.158	80.010	19.993	103.870	19.774	12.951	0.471
864.500	520.429	80.007	19.992	103.874	19.778	12.647	0.487
865.000	520.719	80.008	19.993	103.866	19.773	12.987	0.530
865.500	520.988	80.006	19.992	103.859	19.774	12.928	0.560
866.000	521.217	80.008	19.993	103.851	19.773	13.001	0.529
866.500	521.436	80.007	19.993	103.843	19.776	12.806	0.474
867.000	521.720	80.007	19.993	103.834	19.775	12.846	0.476
867.500	521.980	80.008	19.992	103.826	19.774	12.942	0.523
868.000	522.233	80.007	19.992	103.818	19.771	13.137	0.528
868.500	522.494	80.009	19.992	103.815	19.772	13.047	0.513
869.000	522.729	80.008	19.994	103.813	19.772	13.089	0.505
869.500	523.001	80.008	19.994	103.815	19.775	12.888	0.501
870.000	523.237	80.006	19.993	103.823	19.775	12.893	0.508
870.500	523.492	80.011	19.994	103.830	19.774	12.921	0.500
871.000	523.764	80.008	19.992	103.838	19.775	12.891	0.509
871.500	524.004	80.009	19.993	103.844	19.777	12.730	0.519
872.001	524.278	80.009	19.993	103.844	19.778	12.634	0.513
872.500	524.520	80.008	19.993	103.843	19.779	12.587	0.515
873.000	524.753	80.008	19.993	103.843	19.772	13.073	0.495
873.500	525.031	80.009	19.993	103.840	19.776	12.781	0.493
874.000	525.283	80.007	19.992	103.840	19.776	12.819	0.521
874.500	525.540	80.009	19.993	103.842	19.775	12.858	0.520
875.000	525.813	80.006	19.992	103.843	19.775	12.857	0.520
875.500	526.087	80.007	19.992	103.849	19.780	12.552	0.538
876.000	526.316	80.006	19.992	103.853	19.778	12.657	0.525
876.500	526.550	80.007	19.994	103.854	19.776	12.804	0.483
877.000	526.851	80.005	19.993	103.858	19.776	12.802	0.499
877.500	527.060	80.007	19.993	103.863	19.778	12.679	0.522
878.000	527.328	80.007	19.993	103.865	19.777	12.714	0.494
878.500	527.595	80.004	19.992	103.861	19.777	12.703	0.506
879.000	527.870	80.005	19.994	103.857	19.776	12.785	0.538
879.500	528.120	80.008	19.994	103.857	19.772	13.095	0.534
880.000	528.391	80.006	19.993	103.852	19.775	12.857	0.523
880.500	528.650	80.005	19.994	103.845	19.779	12.604	0.525
881.000	528.880	80.004	19.993	103.843	19.779	12.617	0.509
881.500	529.129	80.005	19.994	103.843	19.774	12.904	0.484
882.000	529.374	80.004	19.993	103.838	19.780	12.548	0.487
882.500	529.661	80.005	19.993	103.837	19.779	12.581	0.513
883.000	529.908	80.007	19.993	103.835	19.781	12.434	0.532
883.500	530.148	80.005	19.994	103.830	19.776	12.774	0.510
884.000	530.387	80.005	19.994	103.829	19.780	12.548	0.483
884.500	530.663	80.003	19.993	103.828	19.779	12.565	0.497
885.000	530.925	80.003	19.993	103.827	19.779	12.593	0.527
885.500	531.210	80.006	19.993	103.826	19.776	12.806	0.543
886.000	531.467	80.007	19.993	103.829	19.781	12.459	0.544
886.500	531.724	80.006	19.993	103.829	19.778	12.673	0.528
887.000	531.952	80.009	19.993	103.830	19.775	12.888	0.500
887.500	532.217	80.005	19.993	103.832	19.776	12.789	0.489
888.000	532.491	80.006	19.993	103.835	19.778	12.667	0.516
888.500	532.739	80.006	19.994	103.836	19.777	12.720	0.530
889.000	532.966	80.006	19.993	103.839	19.775	12.870	0.499
889.500	533.254	80.006	19.993	103.837	19.781	12.440	0.496
890.000	533.496	80.006	19.992	103.834	19.777	12.749	0.522
890.500	533.758	80.006	19.993	103.832	19.779	12.570	0.516
891.000	534.014	80.006	19.994	103.830	19.779	12.570	0.511
891.500	534.245	80.007	19.993	103.829	19.782	12.416	0.503
892.000	534.504	80.005	19.993	103.831	19.780	12.513	0.488
892.500	534.792	80.006	19.992	103.834	19.780	12.544	0.518
893.000	534.994	80.007	19.992	103.837	19.780	12.491	0.519
893.500	535.287	80.006	19.992	103.839	19.780	12.542	0.493
894.000	535.548	80.005	19.992	103.832	19.780	12.547	0.524
894.500	535.797	80.005	19.992	103.828	19.780	12.516	0.532
895.000	536.054	80.006	19.993	103.828	19.782	12.364	0.508
895.500	536.311	80.007	19.994	103.828	19.780	12.508	0.510
896.000	536.595	80.006	19.992	103.828	19.782	12.383	0.527
896.501	536.830	80.006	19.993	103.836	19.781	12.451	0.530
897.000	537.087	80.007	19.993	103.839	19.783	12.306	0.506
897.500	537.347	80.007	19.992	103.839	19.785	12.171	0.504
898.000	537.612	80.007	19.992	103.843	19.783	12.308	0.521
898.500	537.848	80.005	19.992	103.847	19.785	12.208	0.513
899.000	538.114	80.007	19.993	103.850	19.783	12.349	0.502
899.500	538.384	80.007	19.992	103.857	19.784	12.262	0.519
900.000	538.592	80.007	19.993	103.863	19.786	12.124	0.507
900.500	538.875	80.006	19.992	103.868	19.785	12.166	0.485
901.000	539.139	80.006	19.993	103.870	19.783	12.326	0.519
901.500	539.385	80.006	19.993	103.873	19.784	12.226	0.528
902.000	539.643	80.007	19.993	103.871	19.778	12.690	0.507
902.501	539.876	80.007	19.993	103.867	19.783	12.335	0.498
903.000	540.149	80.005	19.993	103.858	19.783	12.292	0.498
903.500	540.356	80.008	19.993	103.850	19.781	12.483	0.492
904.000	540.673	80.005	19.992	103.844	19.781	12.463	0.502
904.500	540.904	80.008	19.993	103.838	19.780	12.502	0.536
905.000	541.168	80.007	19.992	103.835	19.777	12.705	0.521
905.500	541.397	80.006	19.992	103.834	19.785	12.216	0.494
906.000	541.639	80.006	19.993	103.834	19.783	12.304	0.482
906.500	541.948	80.007	19.992	103.833	19.779	12.561	0.511
907.000	542.212	80.006	19.994	103.834	19.781	12.428	0.562
907.500	542.455	80.007	19.993	103.834	19.780	12.537	0.540
908.000	542.707	80.006	19.993	103.835	19.782	12.362	0.501
908.500	542.955	80.006	19.994	103.836	19.778	12.641	0.498
909.000	543.222	80.005	19.993	103.838	19.778	12.631	0.507
909.500	543.495	80.005	19.994	103.839	19.783	12.291	0.528
910.000	543.761	80.005	19.993	103.843	19.782	12.389	0.540
910.500	543.987	80.005	19.994	103.844	19.784	12.279	0.515
911.000	544.247	80.005	19.993	103.844	19.780	12.524	0.489
911.500	544.512	80.006	19.994	103.843	19.780	12.554	0.505
912.000	544.780	80.007	19.994	103.840	19.779	12.581	0.529
912.500	544.980	80.006	19.994	103.836	19.781	12.450	0.501
913.000	545.243	80.007	19.994	103.836	19.782	12.352	0.466
913.500	545.534	80.004	19.994	103.836	19.780	12.554	0.508
914.000	545.783	80.004	19.993	103.830	19.782	12.410	0.546
914.500	546.056	80.005	19.994	103.826	19.782	12.388	0.531
915.000	546.288	80.005	19.995	103.825	19.777	12.733	0.514
915.500	546.553	80.006	19.993	103.825	19.781	12.457	0.501
916.000	546.821	80.006	19.994	103.825	19.778	12.632	0.515
916.500	547.077	80.005	19.994	103.830	19.785	12.165	0.528
917.000	547.313	80.006	19.995	103.835	19.784	12.248	0.508
917.500	547.575	80.006	19.994	103.838	19.785	12.213	0.495
918.000	547.853	80.006	19.993	103.840	19.780	12.553	0.519
918.500	548.100	80.005	19.993	103.844	19.782	12.399	0.533
919.000	548.365	80.006	19.994	103.843	19.780	12.519	0.518
919.500	548.631	80.005	19.994	103.843	19.780	12.545	0.521
920.000	548.933	80.006	19.995	103.842	19.777	12.694	0.550
920.500	549.130	80.005	19.996	103.840	19.779	12.580	0.534
921.000	549.384	80.007	19.994	103.835	19.777	12.707	0.475
921.500	549.647	80.005	19.995	103.832	19.782	12.383	0.484
922.000	549.910	80.006	19.994	103.829	19.781	12.479	0.521
922.500	550.165	80.006	19.994	103.826	19.780	12.503	0.522
923.000	550.404	80.007	19.993	103.824	19.777	12.743	0.506
923.500	550.687	80.007	19.993	103.824	19.778	12.650	0.508
924.000	550.957	80.007	19.994	103.825	19.782	12.370	0.537
924.500	551.220	80.008	19.995	103.828	19.778	12.656	0.543
925.000	551.454	80.008	19.995	103.830	19.778	12.680	0.515
925.500	551.721	80.007	19.996	103.832	19.777	12.710	0.499
926.000	552.009	80.007	19.993	103.832	19.777	12.756	0.528
926.500	552.252	80.008	19.993	103.833	19.778	12.662	0.543
927.000	552.533	80.008	19.994	103.834	19.778	12.640	0.528
927.500	552.745	80.007	19.993	103.834	19.779	12.585	0.508
928.000	553.025	80.008	19.993	103.833	19.780	12.542	0.492
928.500	553.276	80.009	19.994	103.834	19.779	12.590	0.511
929.000	553.540	80.008	19.993	103.834	19.778	12.638	0.523
929.500	553.830	80.008	19.994	103.832	19.779	12.573	0.535
930.000	554.078	80.008	19.993	103.832	19.783	12.307	0.546
930.500	554.316	80.007	19.994	103.832	19.781	12.429	0.512
931.000	554.634	80.008	19.993	103.830	19.782	12.387	0.521
931.500	554.886	80.007	19.993	103.830	19.777	12.705	0.562
932.000	555.154	80.008	19.993	103.831	19.782	12.412	0.545
932.500	555.375	80.008	19.993	103.831	19.784	12.261	0.505
933.000	555.665	80.007	19.993	103.831	19.782	12.357	0.500
933.500	555.908	80.008	19.993	103.832	19.780	12.492	0.522
934.000	556.209	80.008	19.993	103.833	19.783	12.347	0.539
934.500	556.430	80.007	19.993	103.833	19.780	12.494	0.533
935.000	556.721	80.007	19.994	103.832	19.782	12.389	0.517
935.500	556.956	80.006	19.994	103.832	19.777	12.707	0.519
936.000	557.229	80.006	19.994	103.833	19.780	12.535	0.518
936.500	557.458	80.006	19.994	103.833	19.785	12.173	0.505
937.000	557.751	80.006	19.994	103.833	19.779	12.584	0.511
937.500	557.979	80.007	19.994	103.835	19.780	12.553	0.521
938.000	558.228	80.005	19.993	103.836	19.780	12.514	0.499
938.501	558.518	80.006	19.993	103.837	19.781	12.444	0.509
939.001	558.779	80.007	19.992	103.837	19.782	12.393	0.545
939.500	559.022	80.007	19.994	103.837	19.777	12.693	0.527
940.000	559.308	80.006	19.994	103.837	19.778	12.677	0.516
940.500	559.551	80.005	19.994	103.836	19.782	12.413	0.530
941.000	559.810	80.007	19.994	103.835	19.777	12.732	0.516
941.500	560.101	80.007	19.994	103.835	19.781	12.427	0.526
942.000	560.357	80.008	19.994	103.836	19.776	12.772	0.549
942.500	560.591	80.006	19.995	103.837	19.782	12.372	0.519
943.000	560.870	80.005	19.994	103.844	19.778	12.663	0.501
943.500	561.130	80.005	19.993	103.845	19.779	12.621	0.526
944.000	561.401	80.006	19.994	103.845	19.778	12.636	0.535
944.500	561.655	80.006	19.995	103.847	19.781	12.442	0.529
945.000	561.924	80.005	19.994	103.846	19.777	12.750	0.524
945.500	562.206	80.006	19.993	103.840	19.778	12.663	0.537
946.000	562.444	80.006	19.995	103.838	19.781	12.470	0.536
946.500	562.732	80.007	19.993	103.839	19.775	12.891	0.523
947.000	562.959	80.010	19.994	103.837	19.780	12.511	0.520
947.500	563.214	80.006	19.995	103.837	19.780	12.542	0.498
948.000	563.482	80.007	19.994	103.836	19.787	12.029	0.503
948.500	563.753	80.008	19.994	103.837	19.785	12.152	0.531
949.000	563.997	80.007	19.994	103.836	19.781	12.457	0.527
949.500	564.285	80.007	19.993	103.836	19.788	11.957	0.523
950.000	564.471	80.008	19.993	103.838	19.780	12.527	0.503
950.501	564.781	80.006	19.993	103.838	19.782	12.371	0.485
951.000	565.008	80.008	19.993	103.837	19.782	12.376	0.517
951.500	565.270	80.007	19.993	103.837	19.782	12.360	0.513
952.000	565.529	80.008	19.993	103.837	19.776	12.771	0.505
952.500	565.827	80.011	19.994	103.834	19.778	12.629	0.540
953.000	566.043	80.008	19.994	103.835	19.778	12.651	0.536
953.500	566.300	80.007	19.993	103.835	19.778	12.681	0.493
954.000	566.589	80.008	19.993	103.834	19.786	12.084	0.509
954.500	566.846	80.008	19.993	103.835	19.779	12.586	0.546
955.000	567.073	80.010	19.993	103.836	19.788	11.970	0.515
955.500	567.313	80.008	19.993	103.833	19.782	12.414	0.475
956.000	567.593	80.007	19.993	103.833	19.781	12.486	0.493
956.500	567.851	80.007	19.993	103.834	19.774	12.931	0.529
957.000	568.088	80.010	19.992	103.834	19.784	12.265	0.517
957.500	568.367	80.007	19.993	103.835	19.776	12.764	0.506
958.000	568.624	80.007	19.991	103.838	19.784	12.276	0.526
958.500	568.886	80.007	19.992	103.838	19.781	12.470	0.527
959.000	569.129	80.007	19.994	103.836	19.784	12.247	0.512
959.500	569.442	80.007	19.993	103.836	19.779	12.593	0.531
960.000	569.681	80.006	19.993	103.835	19.786	12.129	0.554
960.500	569.953	80.009	19.992	103.835	19.780	12.508	0.531
961.000	570.190	80.007	19.994	103.836	19.785	12.192	0.510
961.500	570.454	80.007	19.993	103.840	19.781	12.461	0.505
962.000	570.697	80.007	19.994	103.840	19.783	12.310	0.504
962.500	570.959	80.007	19.994	103.840	19.785	12.205	0.506
963.000	571.257	80.005	19.993	103.840	19.782	12.359	0.533
963.500	571.474	80.006	19.994	103.840	19.785	12.189	0.537
964.000	571.751	80.006	19.994	103.838	19.785	12.211	0.505
964.500	572.055	80.006	19.992	103.837	19.782	12.382	0.537
965.000	572.269	80.008	19.993	103.837	19.786	12.088	0.549
965.500	572.522	80.006	19.994	103.837	19.785	12.148	0.493
966.000	572.810	80.006	19.993	103.837	19.787	12.063	0.504
966.500	573.049	80.007	19.992	103.835	19.783	12.334	0.534
967.000	573.290	80.007	19.993	103.835	19.786	12.122	0.504
967.500	573.566	80.006	19.992	103.835	19.786	12.128	0.499
968.000	573.854	80.007	19.993	103.836	19.787	12.018	0.540
968.500	574.134	80.006	19.992	103.842	19.786	12.101	0.566
969.000	574.409	80.008	19.994	103.849	19.786	12.146	0.562
969.500	574.633	80.005	19.994	103.852	19.781	12.446	0.527
970.000	574.914	80.008	19.994	103.852	19.789	11.914	0.502
970.500	575.174	80.006	19.991	103.850	19.786	12.113	0.523
971.000	575.461	80.005	19.992	103.841	19.783	12.320	0.543
971.500	575.733	80.005	19.992	103.833	19.781	12.447	0.553
972.000	575.972	80.007	19.994	103.827	19.787	12.045	0.535
972.500	576.251	80.007	19.993	103.826	19.790	11.832	0.514
973.001	576.481	80.005	19.993	103.827	19.787	12.044	0.513
973.500	576.752	80.006	19.994	103.830	19.784	12.241	0.505
974.000	576.996	80.007	19.994	103.831	19.782	12.364	0.509
974.501	577.303	80.005	19.994	103.835	19.788	11.964	0.533
975.000	577.557	80.006	19.993	103.833	19.782	12.364	0.556
975.500	577.774	80.006	19.993	103.828	19.784	12.252	0.516
976.000	578.053	80.005	19.994	103.821	19.785	12.215	0.484
976.500	578.309	80.006	19.993	103.815	19.779	12.584	0.516
977.000	578.518	80.007	19.995	103.812	19.787	12.027	0.500
977.500	578.819	80.007	19.994	103.810	19.787	12.023	0.487
978.000	579.071	80.004	19.993	103.809	19.781	12.435	0.531
978.500	579.345	80.006	19.993	103.816	19.775	12.872	0.540
979.000	579.608	80.007	19.993	103.822	19.784	12.241	0.531
979.500	579.855	80.007	19.994	103.824	19.783	12.291	0.523
980.000	580.106	80.006	19.993	103.829	19.779	12.568	0.504
980.500	580.372	80.007	19.993	103.835	19.781	12.487	0.508
981.000	580.642	80.005	19.993	103.837	19.784	12.265	0.527
981.500	580.885	80.005	19.994	103.845	19.780	12.522	0.525
982.000	581.186	80.006	19.993	103.847	19.781	12.474	0.528
982.500	581.422	80.007	19.993	103.847	19.779	12.562	0.540
983.000	581.650	80.007	19.994	103.848	19.779	12.564	0.501
983.500	581.903	80.007	19.995	103.847	19.783	12.291	0.473
984.000	582.182	80.007	19.994	103.838	19.781	12.430	0.506
984.500	582.464	80.008	19.994	103.833	19.780	12.512	0.546
985.000	582.668	80.008	19.994	103.833	19.782	12.373	0.524
985.500	582.962	80.006	19.993	103.831	19.777	12.731	0.492
986.000	583.205	80.007	19.993	103.830	19.781	12.482	0.517
986.500	583.465	80.006	19.993	103.831	19.778	12.627	0.520
987.000	583.690	80.007	19.994	103.834	19.782	12.419	0.494
987.500	583.970	80.009	19.995	103.835	19.778	12.684	0.495
988.000	584.194	80.007	19.993	103.836	19.784	12.274	0.505
988.500	584.487	80.007	19.993	103.836	19.788	11.966	0.511
989.000	584.710	80.007	19.994	103.836	19.784	12.259	0.517
989.500	584.972	80.009	19.994	103.835	19.778	12.690	0.500
990.000	585.234	80.007	19.993	103.835	19.780	12.522	0.504
990.500	585.494	80.006	19.992	103.835	19.779	12.589	0.523
991.000	585.771	80.006	19.993	103.837	19.784	12.266	0.529
991.501	586.027	80.007	19.993	103.837	19.784	12.265	0.535
992.000	586.232	80.006	19.992	103.838	19.779	12.607	0.497
992.500	586.508	80.007	19.992	103.838	19.784	12.229	0.471
993.000	586.745	80.008	19.994	103.838	19.790	11.836	0.497
993.500	587.029	80.007	19.993	103.836	19.785	12.179	0.517
994.000	587.268	80.007	19.994	103.836	19.784	12.238	0.522
994.500	587.498	80.007	19.993	103.835	19.786	12.109	0.496
995.000	587.772	80.007	19.993	103.828	19.783	12.334	0.487
995.500	588.006	80.006	19.993	103.821	19.781	12.472	0.506
996.000	588.310	80.007	19.993	103.815	19.790	11.824	0.523
996.500	588.535	80.006	19.993	103.813	19.784	12.252	0.533
997.000	588.793	80.008	19.993	103.814	19.777	12.730	0.506
997.500	589.041	80.007	19.994	103.820	19.777	12.693	0.495
998.000	589.312	80.006	19.992	103.824	19.785	12.184	0.513
998.500	589.589	80.006	19.993	103.824	19.780	12.554	0.533
999.000	589.838	80.007	19.993	103.819	19.781	12.449	0.537
999.500	590.060	80.006	19.992	103.818	19.781	12.442	0.499
1000.000	590.367	80.006	19.994	103.817	19.777	12.741	0.500
1000.500	590.633	80.007	19.992	103.821	19.776	12.782	0.551
1001.000	590.838	80.006	19.992	103.827	19.781	12.426	0.522
1001.500	591.127	80.007	19.994	103.828	19.781	12.450	0.483
1002.000	591.347	80.007	19.994	103.825	19.777	12.734	0.501
1002.500	591.604	80.007	19.994	103.824	19.778	12.640	0.493
1003.000	591.871	80.008	19.994	103.825	19.777	12.742	0.501
1003.500	592.140	80.007	19.993	103.826	19.778	12.636	0.530
1004.000	592.413	80.006	19.993	103.830	19.778	12.646	0.538
1004.500	592.640	80.006	19.993	103.831	19.779	12.587	0.521
1005.000	592.939	80.007	19.994	103.830	19.776	12.786	0.513
1005.500	593.170	80.006	19.994	103.828	19.781	12.478	0.528
1006.000	593.414	80.008	19.993	103.825	19.781	12.485	0.502
1006.500	593.707	80.006	19.992	103.820	19.779	12.566	0.506
1007.000	593.965	80.008	19.993	103.822	19.778	12.675	0.544
1007.500	594.253	80.007	19.994	103.820	19.781	12.442	0.548
1008.000	594.494	80.008	19.994	103.817	19.780	12.518	0.537
1008.500	594.733	80.009	19.994	103.820	19.780	12.540	0.505
1009.000	594.993	80.009	19.993	103.826	19.777	12.723	0.490
1009.500	595.249	80.009	19.993	103.828	19.780	12.549	0.508
1010.000	595.509	80.007	19.993	103.832	19.778	12.651	0.516
1010.500	595.727	80.010	19.995	103.837	19.781	12.453	0.497
1011.000	595.992	80.007	19.992	103.838	19.778	12.651	0.481
1011.500	596.226	80.008	19.994	103.837	19.778	12.661	0.491
1012.000	596.517	80.007	19.993	103.837	19.778	12.679	0.512
1012.500	596.745	80.007	19.993	103.840	19.773	13.019	0.522
1013.000	597.009	80.009	19.993	103.840	19.774	12.952	0.505
1013.500	597.254	80.008	19.993	103.839	19.771	13.126	0.501
1014.000	597.519	80.009	19.994	103.839	19.779	12.600	0.510
1014.500	597.771	80.006	19.993	103.840	19.779	12.568	0.514
1015.000	597.976	80.008	19.994	103.839	19.773	13.020	0.487
1015.500	598.236	80.008	19.994	103.839	19.779	12.619	0.461
1016.000	598.520	80.007	19.994	103.839	19.773	13.007	0.505
1016.500	598.779	80.008	19.993	103.839	19.774	12.898	0.543
1017.000	599.040	80.006	19.993	103.838	19.778	12.645	0.531
1017.500	599.289	80.007	19.995	103.836	19.780	12.491	0.515
1018.000	599.563	80.006	19.993	103.835	19.780	12.547	0.517
1018.500	599.816	80.006	19.994	103.836	19.772	13.051	0.525
1019.000	600.040	80.007	19.994	103.836	19.777	12.745	0.502
1019.500	600.308	80.007	19.994	103.834	19.775	12.837	0.484
1020.000	600.566	80.006	19.995	103.834	19.775	12.843	0.509
1020.500	600.817	80.007	19.994	103.834	19.778	12.658	0.518
1021.000	601.081	80.007	19.994	103.835	19.777	12.717	0.512
1021.500	601.323	80.007	19.994	103.834	19.775	12.853	0.511
1022.001	601.556	80.008	19.995	103.836	19.779	12.604	0.491
1022.500	601.821	80.007	19.993	103.833	19.777	12.706	0.487
1023.000	602.068	80.006	19.993	103.828	19.777	12.752	0.505
1023.500	602.303	80.006	19.994	103.827	19.775	12.835	0.497
1024.000	602.587	80.006	19.993	103.827	19.776	12.763	0.500
1024.500	602.825	80.007	19.993	103.828	19.778	12.665	0.520
1025.000	603.087	80.006	19.993	103.832	19.776	12.802	0.511
1025.500	603.301	80.006	19.993	103.836	19.773	12.994	0.488
1026.001	603.606	80.007	19.994	103.837	19.774	12.949	0.497
1026.501	603.853	80.006	19.993	103.836	19.774	12.920	0.536
1027.000	604.096	80.007	19.993	103.834	19.776	12.811	0.522
1027.501	604.359	80.006	19.993	103.834	19.775	12.837	0.498
1028.001	604.616	80.006	19.993	103.832	19.774	12.944	0.512
1028.501	604.862	80.006	19.993	103.831	19.774	12.907	0.511
1029.001	605.105	80.007	19.993	103.833	19.777	12.698	0.497
1029.501	605.363	80.008	19.994	103.834	19.777	12.692	0.495
1030.000	605.624	80.007	19.993	103.834	19.776	12.762	0.509
1030.500	605.893	80.008	19.993	103.836	19.778	12.634	0.524
1031.001	606.116	80.008	19.994	103.835	19.773	12.996	0.511
1031.501	606.390	80.007	19.993	103.834	19.775	12.864	0.494
1032.000	606.659	80.008	19.993	103.833	19.776	12.775	0.520
1032.500	606.873	80.006	19.993	103.833	19.772	13.063	0.514
1033.000	607.158	80.007	19.993	103.832	19.775	12.846	0.491
1033.500	607.393	80.008	19.992	103.832	19.778	12.643	0.509
1034.000	607.629	80.008	19.993	103.832	19.771	13.110	0.495
1034.500	607.905	80.008	19.993	103.833	19.772	13.066	0.492
1035.000	608.128	80.008	19.992	103.832	19.771	13.098	0.505
1035.500	608.430	80.008	19.993	103.833	19.777	12.741	0.512
1036.000	608.675	80.008	19.994	103.832	19.772	13.041	0.536
1036.500	608.923	80.009	19.994	103.832	19.774	12.903	0.520
1037.000	609.153	80.009	19.995	103.832	19.774	12.911	0.486
1037.500	609.449	80.010	19.994	103.833	19.777	12.732	0.502
1038.000	609.698	80.008	19.993	103.833	19.775	12.895	0.535
1038.500	609.952	80.010	19.994	103.834	19.777	12.722	0.524
1039.000	610.201	80.009	19.994	103.834	19.773	13.015	0.503
1039.500	610.460	80.008	19.994	103.832	19.776	12.785	0.505
1040.000	610.688	80.007	19.995	103.827	19.775	12.868	0.497
1040.500	610.929	80.009	19.995	103.823	19.775	12.838	0.478
1041.000	611.172	80.009	19.994	103.824	19.773	12.976	0.477
1041.501	611.433	80.007	19.993	103.823	19.775	12.842	0.494
1042.001	611.684	80.008	19.993	103.824	19.775	12.836	0.508
1042.500	611.948	80.008	19.994	103.827	19.777	12.748	0.513
1043.000	612.178	80.007	19.994	103.828	19.777	12.742	0.504
1043.500	612.461	80.007	19.995	103.822	19.773	12.986	0.503
1044.000	612.691	80.008	19.994	103.816	19.776	12.790	0.513
1044.500	612.934	80.008	19.994	103.816	19.774	12.928	0.493
1045.000	613.212	80.005	19.993	103.816	19.773	12.963	0.497
1045.500	613.456	80.006	19.993	103.818	19.771	13.141	0.522
1046.000	613.717	80.007	19.995	103.824	19.775	12.857	0.514
1046.500	613.962	80.005	19.993	103.830	19.770	13.226	0.505
1047.000	614.202	80.005	19.995	103.830	19.773	13.016	0.495
1047.500	614.475	80.005	19.995	103.833	19.773	12.999	0.499
1048.000	614.753	80.005	19.993	103.834	19.778	12.630	0.532
1048.500	614.937	80.006	19.994	103.836	19.774	12.950	0.507
1049.000	615.227	80.006	19.993	103.841	19.775	12.878	0.468
1049.501	615.489	80.006	19.994	103.847	19.775	12.852	0.513
1050.001	615.767	80.006	19.993	103.854	19.775	12.841	0.546
1050.501	615.999	80.006	19.995	103.858	19.776	12.774	0.525
1051.001	616.266	80.006	19.993	103.861	19.773	13.018	0.504
1051.501	616.516	80.005	19.994	103.859	19.773	13.007	0.508
1052.001	616.766	80.007	19.994	103.853	19.775	12.883	0.509
1052.500	616.963	80.006	19.995	103.846	19.772	13.097	0.474
1053.000	617.240	80.006	19.993	103.841	19.775	12.857	0.461
1053.500	617.486	80.007	19.994	103.835	19.777	12.743	0.499
1054.000	617.803	80.006	19.994	103.830	19.773	13.008	0.543
1054.500	618.003	80.006	19.993	103.828	19.772	13.080	0.540
1055.000	618.269	80.006	19.994	103.826	19.771	13.126	0.491
1055.500	618.518	80.006	19.994	103.826	19.773	12.989	0.491
1056.000	618.763	80.007	19.995	103.825	19.776	12.782	0.505
1056.500	618.986	80.006	19.994	103.826	19.776	12.786	0.481
1057.000	619.267	80.006	19.993	103.829	19.771	13.112	0.486
1057.500	619.486	80.006	19.993	103.830	19.775	12.852	0.502
1058.000	619.738	80.007	19.993	103.831	19.777	12.728	0.485
1058.500	620.029	80.007	19.993	103.832	19.772	13.081	0.507
1059.000	620.260	80.006	19.993	103.834	19.772	13.077	0.533
1059.501	620.484	80.007	19.993	103.834	19.771	13.158	0.488
1060.001	620.764	80.007	19.994	103.834	19.769	13.244	0.480
1060.500	620.940	80.007	19.992	103.834	19.771	13.150	0.480
1061.000	621.251	80.006	19.993	103.834	19.772	13.093	0.471
1061.500	621.548	80.006	19.994	103.833	19.774	12.903	0.547
1062.000	621.725	80.006	19.993	103.833	19.771	13.112	0.541
1062.500	621.987	80.008	19.993	103.834	19.775	12.894	0.456
1063.000	622.276	80.007	19.993	103.833	19.772	13.071	0.495
1063.500	622.535	80.007	19.993	103.833	19.774	12.911	0.550
1064.000	622.783	80.007	19.992	103.835	19.772	13.041	0.528
1064.500	623.021	80.007	19.993	103.838	19.772	13.050	0.497
1065.000	623.281	80.007	19.992	103.840	19.771	13.164	0.492
1065.500	623.502	80.007	19.993	103.840	19.771	13.129	0.490
1066.000	623.795	80.006	19.993	103.842	19.771	13.113	0.497
1066.500	624.048	80.007	19.993	103.841	19.772	13.065	0.530
1067.000	624.296	80.005	19.993	103.839	19.769	13.277	0.524
1067.500	624.551	80.007	19.992	103.837	19.772	13.076	0.502
1068.000	624.784	80.007	19.992	103.837	19.770	13.173	0.495
1068.500	625.071	80.006	19.993	103.836	19.772	13.057	0.504
1069.000	625.282	80.007	19.993	103.837	19.771	13.166	0.509
1069.500	625.505	80.007	19.993	103.836	19.775	12.889	0.466
1070.000	625.852	80.007	19.994	103.836	19.769	13.295	0.502
1070.500	626.070	80.007	19.994	103.836	19.777	12.752	0.567
1071.000	626.305	80.006	19.992	103.838	19.771	13.123	0.508
1071.500	626.591	80.008	19.993	103.840	19.770	13.170	0.487
1072.001	626.835	80.008	19.994	103.843	19.771	13.142	0.526
1072.501	627.103	80.005	19.993	103.846	19.769	13.266	0.521
1073.000	627.347	80.007	19.992	103.845	19.772	13.092	0.512
1073.500	627.582	80.006	19.993	103.844	19.774	12.928	0.496
1074.000	627.769	80.008	19.994	103.841	19.772	13.054	0.450
1074.500	628.118	80.006	19.993	103.839	19.773	12.993	0.479
1075.000	628.361	80.008	19.993	103.839	19.773	12.991	0.564
1075.500	628.656	80.006	19.993	103.840	19.775	12.895	0.565
1076.000	628.882	80.007	19.993	103.840	19.773	12.985	0.529
1076.500	629.117	80.007	19.993	103.840	19.770	13.233	0.491
1077.000	629.389	80.007	19.993	103.840	19.774	12.928	0.484
1077.500	629.617	80.006	19.994	103.838	19.770	13.218	0.504
1078.000	629.862	80.006	19.992	103.837	19.773	12.968	0.487
1078.501	630.140	80.006	19.994	103.837	19.770	13.193	0.498
1079.001	630.388	80.007	19.994	103.838	19.776	12.801	0.524
1079.501	630.675	80.005	19.993	103.838	19.771	13.113	0.531
1080.000	630.912	80.007	19.994	103.838	19.772	13.036	0.529
1080.500	631.192	80.006	19.994	103.838	19.773	12.982	0.520
1081.000	631.445	80.006	19.992	103.838	19.771	13.102	0.525
1081.500	631.669	80.006	19.993	103.837	19.772	13.034	0.505
1082.000	631.935	80.005	19.993	103.837	19.774	12.945	0.484
1082.501	632.197	80.005	19.992	103.837	19.769	13.290	0.510
1083.001	632.432	80.005	19.993	103.838	19.775	12.832	0.513
1083.501	632.692	80.006	19.994	103.838	19.771	13.167	0.496
1084.001	632.949	80.005	19.994	103.838	19.771	13.101	0.506
1084.501	633.205	80.006	19.994	103.838	19.772	13.063	0.515
1085.001	633.466	80.006	19.994	103.838	19.768	13.350	0.515
1085.501	633.750	80.008	19.994	103.839	19.767	13.382	0.531
1086.000	634.031	80.006	19.993	103.840	19.766	13.479	0.555
1086.500	634.260	80.007	19.993	103.840	19.767	13.418	0.538
1087.000	634.530	80.007	19.992	103.839	19.767	13.399	0.504
1087.500	634.817	80.007	19.993	103.840	19.769	13.258	0.528
1088.000	635.068	80.007	19.993	103.839	19.768	13.358	0.548
1088.500	635.327	80.006	19.993	103.841	19.765	13.530	0.524
1089.000	635.605	80.007	19.993	103.845	19.762	13.746	0.523
1089.500	635.841	80.007	19.993	103.845	19.766	13.465	0.526
1090.001	636.120	80.008	19.993	103.845	19.761	13.824	0.515
1090.501	636.403	80.007	19.992	103.844	19.762	13.752	0.538
1091.001	636.627	80.008	19.993	103.843	19.766	13.443	0.535
1091.501	636.913	80.007	19.993	103.842	19.764	13.614	0.509
1092.000	637.222	80.007	19.993	103.843	19.760	13.900	0.552
1092.500	637.425	80.007	19.991	103.843	19.761	13.813	0.553
1093.000	637.703	80.008	19.993	103.843	19.766	13.509	0.496
1093.500	637.967	80.008	19.992	103.842	19.764	13.607	0.512
1094.000	638.236	80.009	19.993	103.840	19.767	13.432	0.538
1094.500	638.507	80.008	19.993	103.841	19.767	13.417	0.537
1095.000	638.747	80.009	19.993	103.849	19.767	13.413	0.526
1095.501	638.995	80.008	19.992	103.856	19.769	13.253	0.499
1096.001	639.257	80.008	19.992	103.862	19.765	13.548	0.499
1096.500	639.506	80.008	19.993	103.867	19.765	13.535	0.511
1097.000	639.754	80.008	19.993	103.872	19.770	13.229	0.504
1097.501	640.033	80.008	19.992	103.872	19.766	13.470	0.512
1098.001	640.290	80.008	19.993	103.868	19.771	13.151	0.531
1098.500	640.512	80.008	19.992	103.865	19.766	13.451	0.507
1099.000	640.807	80.009	19.993	103.865	19.767	13.434	0.498
1099.501	641.013	80.009	19.994	103.866	19.768	13.332	0.508
1100.001	641.332	80.010	19.993	103.864	19.766	13.476	0.513
1100.501	641.575	80.009	19.993	103.868	19.769	13.287	0.544
1101.001	641.816	80.009	19.994	103.870	19.770	13.228	0.523
1101.500	642.032	80.008	19.993	103.869	19.766	13.466	0.471
1102.000	642.281	80.007	19.992	103.865	19.769	13.277	0.461
1102.500	642.558	80.008	19.993	103.859	19.768	13.312	0.495
1103.000	642.804	80.008	19.993	103.857	19.768	13.326	0.525
1103.500	643.051	80.008	19.993	103.858	19.769	13.269	0.508
1104.000	643.319	80.008	19.992	103.860	19.763	13.697	0.504
1104.500	643.600	80.008	19.993	103.863	19.765	13.573	0.532
1105.000	643.838	80.008	19.993	103.867	19.768	13.311	0.534
1105.500	644.112	80.007	19.994	103.866	19.769	13.252	0.516
1106.000	644.366	80.008	19.994	103.860	19.765	13.521	0.520
1106.500	644.584	80.008	19.993	103.853	19.767	13.422	0.500
1107.000	644.879	80.008	19.993	103.853	19.767	13.376	0.492
1107.500	645.126	80.007	19.993	103.853	19.767	13.387	0.527
1108.000	645.381	80.006	19.992	103.855	19.765	13.574	0.522
1108.500	645.655	80.008	19.994	103.861	19.771	13.140	0.516
1109.000	645.894	80.008	19.994	103.868	19.767	13.385	0.521
1109.500	646.183	80.007	19.993	103.867	19.768	13.356	0.520
1110.000	646.442	80.008	19.994	103.865	19.768	13.315	0.538
1110.500	646.710	80.008	19.994	103.864	19.765	13.519	0.537
1111.000	646.975	80.008	19.993	103.864	19.765	13.564	0.530
1111.500	647.225	80.009	19.994	103.861	19.769	13.302	0.524
1112.000	647.463	80.006	19.993	103.859	19.769	13.255	0.501
1112.500	647.721	80.008	19.994	103.860	19.763	13.684	0.492
1113.000	647.988	80.009	19.994	103.857	19.763	13.702	0.510
1113.500	648.224	80.008	19.993	103.851	19.765	13.510	0.514
1114.000	648.496	80.007	19.993	103.850	19.764	13.617	0.505
1114.500	648.763	80.007	19.994	103.849	19.764	13.621	0.524
1115.000	649.010	80.008	19.993	103.845	19.763	13.648	0.527
1115.500	649.282	80.008	19.994	103.846	19.764	13.597	0.516
1116.000	649.501	80.007	19.993	103.847	19.760	13.881	0.505
1116.500	649.747	80.007	19.993	103.844	19.760	13.876	0.478
1117.000	650.065	80.008	19.993	103.842	19.762	13.738	0.514
1117.500	650.290	80.009	19.994	103.845	19.767	13.385	0.554
1118.000	650.503	80.010	19.993	103.848	19.762	13.743	0.491
1118.500	650.795	80.009	19.994	103.848	19.759	13.929	0.471
1119.000	651.058	80.010	19.993	103.850	19.764	13.588	0.530
1119.500	651.296	80.008	19.994	103.849	19.758	13.997	0.528
1120.000	651.590	80.009	19.993	103.843	19.761	13.792	0.517
1120.500	651.848	80.009	19.993	103.837	19.756	14.158	0.542
1121.000	652.099	80.008	19.993	103.836	19.760	13.893	0.530
1121.500	652.361	80.010	19.994	103.838	19.762	13.753	0.511
1122.001	652.614	80.010	19.993	103.843	19.761	13.832	0.514
1122.501	652.862	80.010	19.994	103.846	19.757	14.087	0.508
1123.001	653.123	80.010	19.993	103.853	19.759	13.940	0.505
1123.500	653.376	80.009	19.993	103.857	19.757	14.055	0.511
1124.000	653.654	80.011	19.993	103.858	19.762	13.742	0.523
1124.500	653.897	80.010	19.993	103.854	19.759	13.943	0.526
1125.000	654.141	80.009	19.993	103.855	19.756	14.152	0.504
1125.501	654.410	80.009	19.994	103.855	19.761	13.836	0.500
1126.001	654.684	80.008	19.994	103.854	19.760	13.863	0.528
1126.500	654.903	80.011	19.994	103.859	19.763	13.716	0.517
1127.000	655.178	80.010	19.993	103.866	19.757	14.086	0.493
1127.500	655.415	80.009	19.992	103.873	19.762	13.716	0.503
1128.000	655.683	80.009	19.994	103.874	19.761	13.821	0.509
1128.501	655.978	80.010	19.993	103.874	19.762	13.731	0.534
1129.001	656.214	80.007	19.994	103.871	19.757	14.091	0.547
1129.500	656.457	80.008	19.994	103.866	19.760	13.862	0.505
1130.001	656.694	80.008	19.993	103.856	19.756	14.179	0.480
1130.501	656.953	80.008	19.994	103.851	19.755	14.207	0.488
1131.000	657.191	80.007	19.994	103.853	19.756	14.152	0.496
1131.500	657.480	80.006	19.993	103.854	19.757	14.114	0.512
1132.000	657.734	80.006	19.993	103.860	19.759	13.950	0.535
1132.500	657.954	80.007	19.993	103.868	19.761	13.808	0.509
1133.000	658.204	80.006	19.994	103.873	19.758	14.006	0.472
1133.500	658.481	80.008	19.994	103.876	19.757	14.063	0.498
1134.000	658.759	80.005	19.993	103.881	19.758	14.002	0.541
1134.500	659.010	80.007	19.994	103.887	19.760	13.904	0.542
1135.000	659.258	80.006	19.994	103.895	19.761	13.843	0.514
1135.500	659.517	80.006	19.993	103.902	19.756	14.183	0.503
1136.000	659.801	80.007	19.995	103.905	19.760	13.913	0.525
1136.500	660.030	80.006	19.993	103.904	19.760	13.873	0.528
1137.000	660.306	80.007	19.995	103.899	19.761	13.816	0.510
1137.500	660.541	80.007	19.994	103.891	19.762	13.779	0.508
1138.001	660.776	80.005	19.992	103.885	19.761	13.828	0.490
1138.501	661.030	80.006	19.994	103.881	19.758	13.993	0.479
1139.000	661.284	80.006	19.995	103.877	19.756	14.182	0.499
1139.500	661.544	80.005	19.994	103.877	19.760	13.904	0.511
1140.000	661.790	80.005	19.994	103.877	19.755	14.222	0.510
1140.500	662.060	80.005	19.994	103.876	19.758	14.043	0.511
1141.000	662.324	80.006	19.994	103.875	19.758	14.044	0.525
1141.500	662.578	80.006	19.994	103.875	19.753	14.380	0.526
1142.001	662.835	80.005	19.995	103.880	19.760	13.916	0.515
1142.501	663.103	80.005	19.995	103.884	19.756	14.160	0.518
1143.000	663.310	80.005	19.994	103.885	19.759	13.962	0.500
1143.500	663.579	80.005	19.994	103.890	19.757	14.103	0.476
1144.000	663.831	80.006	19.994	103.895	19.756	14.179	0.498
1144.500	664.081	80.007	19.993	103.891	19.754	14.311	0.511
1145.000	664.298	80.006	19.995	103.888	19.750	14.538	0.485
1145.500	664.591	80.006	19.993	103.890	19.751	14.518	0.489
1146.000	664.860	80.007	19.994	103.892	19.757	14.115	0.536
1146.500	665.117	80.005	19.994	103.889	19.757	14.079	0.544
1147.000	665.358	80.005	19.995	103.889	19.754	14.298	0.512
1147.500	665.605	80.005	19.995	103.896	19.750	14.589	0.493
1148.000	665.875	80.005	19.993	103.894	19.750	14.552	0.503
1148.500	666.130	80.004	19.993	103.891	19.752	14.412	0.521
1149.000	666.390	80.006	19.994	103.890	19.751	14.514	0.520
1149.500	666.641	80.007	19.993	103.895	19.752	14.442	0.513
1150.000	666.905	80.005	19.994	103.895	19.753	14.352	0.512
1150.500	667.164	80.007	19.995	103.900	19.750	14.556	0.519
1151.000	667.411	80.007	19.994	103.905	19.750	14.538	0.515
1151.500	667.704	80.006	19.994	103.910	19.755	14.213	0.523
1152.000	667.940	80.005	19.993	103.911	19.753	14.381	0.534
1152.500	668.189	80.006	19.994	103.912	19.751	14.490	0.507
1153.000	668.385	80.006	19.994	103.914	19.753	14.353	0.465
1153.500	668.671	80.006	19.993	103.914	19.745	14.888	0.463
1154.000	668.935	80.006	19.993	103.909	19.752	14.396	0.516
1154.500	669.181	80.006	19.993	103.901	19.747	14.774	0.530
1155.000	669.463	80.007	19.993	103.891	19.747	14.738	0.519
1155.500	669.699	80.007	19.993	103.879	19.749	14.652	0.523
1156.000	669.939	80.006	19.994	103.870	19.750	14.560	0.497
1156.500	670.182	80.006	19.992	103.867	19.748	14.727	0.480
1157.000	670.455	80.006	19.992	103.868	19.751	14.480	0.499
1157.500	670.732	80.006	19.993	103.873	19.749	14.606	0.533
1158.000	670.938	80.005	19.992	103.883	19.750	14.589	0.516
1158.500	671.177	80.008	19.993	103.888	19.746	14.855	0.464
1159.000	671.450	80.006	19.994	103.890	19.748	14.704	0.479
1159.500	671.719	80.006	19.993	103.893	19.746	14.846	0.527
1160.001	671.925	80.006	19.993	103.893	19.745	14.923	0.508
1160.501	672.218	80.006	19.992	103.894	19.745	14.873	0.487
1161.000	672.434	80.006	19.992	103.893	19.748	14.680	0.504
1161.500	672.663	80.006	19.993	103.892	19.747	14.779	0.477
1162.000	672.938	80.006	19.993	103.891	19.748	14.702	0.475
1162.501	673.212	80.005	19.992	103.893	19.748	14.694	0.527
1163.001	673.441	80.006	19.993	103.891	19.747	14.791	0.526
1163.500	673.702	80.008	19.993	103.889	19.747	14.749	0.496
1164.000	673.975	80.007	19.993	103.890	19.747	14.772	0.511
1164.500	674.195	80.007	19.993	103.888	19.743	15.031	0.514
1165.000	674.443	80.007	19.993	103.883	19.748	14.689	0.481
1165.500	674.725	80.007	19.993	103.879	19.749	14.638	0.499
1166.001	675.002	80.007	19.994	103.882	19.742	15.084	0.544
1166.501	675.246	80.006	19.993	103.887	19.748	14.703	0.540
1167.001	675.468	80.006	19.993	103.891	19.745	14.912	0.493
1167.500	675.779	80.007	19.993	103.895	19.743	15.037	0.499
1168.000	675.990	80.008	19.993	103.901	19.745	14.875	0.527
1168.500	676.256	80.007	19.993	103.904	19.746	14.853	0.499
1169.000	676.506	80.006	19.993	103.904	19.740	15.213	0.497
1169.500	676.774	80.006	19.993	103.903	19.748	14.735	0.517
1170.000	677.002	80.006	19.993	103.903	19.740	15.217	0.507
1170.500	677.288	80.006	19.993	103.903	19.743	15.075	0.505
1171.000	677.558	80.007	19.994	103.901	19.744	14.945	0.535
1171.500	677.807	80.007	19.994	103.901	19.747	14.757	0.538
1172.000	678.028	80.007	19.994	103.902	19.742	15.140	0.494
1172.501	678.288	80.007	19.994	103.900	19.748	14.693	0.476
1173.001	678.504	80.008	19.993	103.901	19.745	14.902	0.479
1173.500	678.780	80.007	19.994	103.898	19.744	14.969	0.484
1174.000	679.032	80.008	19.993	103.896	19.739	15.316	0.510
1174.500	679.290	80.006	19.993	103.896	19.741	15.159	0.519
1175.000	679.527	80.007	19.993	103.900	19.745	14.883	0.502
1175.500	679.757	80.009	19.993	103.902	19.747	14.779	0.481
1176.000	680.064	80.007	19.993	103.905	19.745	14.879	0.502
1176.500	680.312	80.009	19.994	103.909	19.743	15.034	0.545
1177.000	680.541	80.008	19.993	103.911	19.743	15.072	0.516
1177.500	680.790	80.007	19.993	103.911	19.748	14.736	0.478
1178.000	681.040	80.008	19.994	103.911	19.749	14.657	0.489
1178.500	681.250	80.008	19.993	103.911	19.747	14.777	0.480
1179.000	681.547	80.007	19.993	103.910	19.743	15.023	0.484
1179.500	681.814	80.009	19.993	103.911	19.741	15.150	0.535
1180.000	682.058	80.008	19.994	103.911	19.743	15.049	0.537
1180.500	682.326	80.009	19.994	103.911	19.745	14.929	0.512
1181.001	682.552	80.008	19.993	103.911	19.744	14.974	0.503
1181.501	682.833	80.009	19.993	103.912	19.745	14.936	0.500
1182.001	683.091	80.008	19.994	103.912	19.745	14.895	0.523
1182.501	683.309	80.009	19.992	103.912	19.743	15.032	0.508
1183.001	683.580	80.008	19.993	103.914	19.743	15.015	0.483
1183.501	683.851	80.009	19.993	103.917	19.744	14.984	0.515
1184.001	684.083	80.008	19.993	103.921	19.743	15.025	0.523
1184.501	684.329	80.009	19.993	103.920	19.746	14.822	0.491
1185.001	684.574	80.008	19.993	103.920	19.748	14.717	0.485
1185.501	684.834	80.009	19.994	103.919	19.741	15.197	0.498
1186.000	685.078	80.006	19.992	103.916	19.741	15.164	0.505
1186.501	685.356	80.008	19.993	103.912	19.741	15.206	0.513
1187.001	685.608	80.007	19.994	103.914	19.742	15.093	0.526
1187.500	685.831	80.009	19.992	103.913	19.743	15.022	0.503
1188.000	686.106	80.009	19.994	103.917	19.743	15.047	0.486
1188.500	686.359	80.007	19.993	103.922	19.742	15.123	0.513
1189.000	686.596	80.008	19.993	103.924	19.743	15.076	0.509
1189.500	686.880	80.008	19.993	103.923	19.741	15.180	0.506
1190.000	687.137	80.009	19.994	103.924	19.741	15.186	0.531
1190.500	687.415	80.008	19.993	103.921	19.744	15.000	0.538
1191.000	687.624	80.008	19.994	103.915	19.741	15.213	0.511
1191.500	687.876	80.008	19.994	103.912	19.741	15.178	0.474
1192.000	688.135	80.007	19.993	103.910	19.739	15.327	0.486
1192.500	688.383	80.006	19.993	103.909	19.741	15.154	0.509
1193.000	688.640	80.009	19.993	103.910	19.740	15.245	0.506
1193.500	688.883	80.008	19.994	103.908	19.738	15.354	0.502
1194.001	689.145	80.009	19.992	103.909	19.740	15.241	0.503
1194.501	689.334	80.007	19.992	103.911	19.734	15.644	0.478
1195.000	689.631	80.007	19.993	103.911	19.740	15.245	0.469
1195.500	689.880	80.009	19.993	103.914	19.736	15.500	0.516
1196.000	690.140	80.009	19.992	103.921	19.739	15.343	0.528
1196.500	690.348	80.006	19.993	103.925	19.741	15.171	0.489
1197.000	690.643	80.007	19.993	103.927	19.741	15.204	0.485
1197.500	690.868	80.008	19.993	103.927	19.742	15.136	0.511
1198.000	691.119	80.008	19.992	103.923	19.739	15.303	0.498
1198.501	691.402	80.008	19.993	103.917	19.741	15.198	0.505
1199.001	691.660	80.008	19.993	103.914	19.738	15.355	0.537
1199.500	691.845	80.009	19.993	103.916	19.738	15.368	0.492
1200.000	692.112	80.007	19.993	103.921	19.741	15.204	0.448
1200.500	692.380	80.008	19.993	103.925	19.739	15.342	0.493
1201.000	692.632	80.008	19.994	103.927	19.741	15.184	0.527
1201.500	692.859	80.008	19.993	103.932	19.739	15.286	0.499
1202.000	693.154	80.008	19.993	103.936	19.737	15.478	0.501
1202.500	693.411	80.008	19.993	103.939	19.739	15.290	0.538
1203.000	693.637	80.009	19.993	103.943	19.738	15.396	0.517
1203.501	693.898	80.009	19.994	103.949	19.736	15.504	0.485
1204.001	694.159	80.008	19.993	103.951	19.737	15.474	0.505
1204.501	694.431	80.009	19.994	103.951	19.737	15.472	0.527
1205.001	694.666	80.009	19.993	103.952	19.738	15.415	0.520
1205.500	694.912	80.010	19.993	103.952	19.738	15.419	0.494
1206.000	695.178	80.008	19.992	103.952	19.736	15.491	0.496
1206.500	695.429	80.008	19.993	103.952	19.735	15.620	0.514
1207.000	695.722	80.010	19.993	103.952	19.738	15.382	0.531
1207.500	695.947	80.009	19.993	103.952	19.734	15.659	0.531
1208.000	696.176	80.009	19.993	103.951	19.735	15.583	0.486
1208.500	696.427	80.008	19.993	103.950	19.736	15.525	0.467
1209.000	696.703	80.008	19.993	103.948	19.738	15.407	0.503
1209.500	696.972	80.008	19.993	103.947	19.734	15.657	0.536
1210.000	697.182	80.008	19.993	103.946	19.731	15.842	0.512
1210.500	697.479	80.008	19.994	103.946	19.733	15.735	0.493
1211.000	697.739	80.008	19.994	103.947	19.730	15.912	0.532
1211.500	697.983	80.008	19.995	103.944	19.737	15.479	0.531
1212.000	698.265	80.007	19.993	103.939	19.737	15.464	0.515
1212.500	698.513	80.008	19.993	103.933	19.733	15.719	0.528
1213.001	698.752	80.007	19.994	103.932	19.734	15.678	0.509
1213.501	699.030	80.007	19.993	103.931	19.731	15.859	0.502
1214.001	699.294	80.007	19.993	103.936	19.733	15.733	0.529
1214.501	699.509	80.006	19.994	103.943	19.736	15.536	0.510
1215.000	699.805	80.007	19.994	103.950	19.733	15.697	0.495
1215.500	700.035	80.007	19.994	103.951	19.736	15.523	0.518
1216.000	700.312	80.007	19.994	103.953	19.732	15.823	0.517
1216.501	700.551	80.008	19.994	103.952	19.731	15.875	0.512
1217.001	700.794	80.006	19.994	103.951	19.731	15.893	0.499
1217.501	701.030	80.006	19.994	103.951	19.730	15.914	0.481
1218.001	701.317	80.007	19.994	103.952	19.731	15.842	0.501
1218.500	701.575	80.006	19.993	103.950	19.731	15.886	0.534
1219.000	701.819	80.006	19.994	103.949	19.730	15.919	0.523
1219.500	702.075	80.005	19.994	103.949	19.728	16.050	0.500
1220.000	702.331	80.008	19.995	103.950	19.729	15.977	0.505
1220.500	702.559	80.006	19.994	103.950	19.729	16.021	0.498
1221.000	702.841	80.006	19.993	103.951	19.731	15.864	0.497
1221.500	703.113	80.005	19.992	103.952	19.732	15.807	0.532
1222.000	703.389	80.005	19.993	103.952	19.729	16.001	0.551
1222.500	703.592	80.005	19.993	103.949	19.729	15.989	0.514
1223.000	703.853	80.006	19.993	103.947	19.730	15.912	0.471
1223.501	704.098	80.006	19.994	103.946	19.728	16.042	0.485
1224.001	704.399	80.006	19.993	103.944	19.730	15.935	0.526
1224.500	704.604	80.006	19.993	103.942	19.728	16.046	0.526
1225.000	704.841	80.006	19.993	103.944	19.726	16.224	0.474
1225.500	705.133	80.005	19.993	103.946	19.730	15.934	0.486
1226.000	705.366	80.007	19.993	103.947	19.727	16.103	0.527
1226.500	705.663	80.005	19.994	103.949	19.727	16.111	0.528
1227.001	705.906	80.005	19.994	103.949	19.729	15.966	0.535
1227.501	706.155	80.005	19.993	103.950	19.728	16.096	0.516
1228.000	706.395	80.006	19.992	103.950	19.726	16.193	0.491
1228.500	706.712	80.005	19.993	103.950	19.727	16.155	0.523
1229.000	706.926	80.006	19.992	103.951	19.728	16.049	0.544
1229.500	707.200	80.006	19.993	103.953	19.727	16.137	0.509
1230.000	707.436	80.006	19.993	103.949	19.724	16.333	0.499
1230.500	707.691	80.006	19.993	103.947	19.727	16.143	0.501
1231.000	707.946	80.007	19.993	103.941	19.725	16.285	0.500
1231.500	708.205	80.007	19.993	103.937	19.723	16.373	0.512
1232.001	708.487	80.006	19.993	103.937	19.726	16.201	0.527
1232.501	708.713	80.008	19.994	103.941	19.727	16.152	0.524
1233.001	709.003	80.008	19.994	103.942	19.724	16.338	0.512
1233.500	709.182	80.007	19.993	103.946	19.726	16.175	0.493
1234.000	709.490	80.007	19.994	103.949	19.725	16.258	0.478
1234.500	709.722	80.007	19.993	103.943	19.727	16.138	0.514
1235.000	709.977	80.007	19.993	103.935	19.724	16.332	0.514
1235.500	710.249	80.006	19.994	103.934	19.727	16.152	0.507
1236.000	710.506	80.006	19.994	103.935	19.729	15.970	0.528
1236.500	710.755	80.007	19.994	103.936	19.727	16.106	0.517
1237.000	711.006	80.005	19.993	103.941	19.728	16.084	0.503
1237.500	711.210	80.006	19.994	103.947	19.727	16.144	0.478
1238.000	711.502	80.006	19.994	103.943	19.730	15.934	0.476
1238.500	711.733	80.006	19.993	103.936	19.728	16.078	0.509
1239.001	712.020	80.006	19.994	103.930	19.727	16.122	0.520
1239.501	712.268	80.007	19.994	103.923	19.730	15.936	0.527
1240.001	712.542	80.006	19.994	103.916	19.726	16.165	0.528
1240.501	712.767	80.007	19.994	103.913	19.732	15.759	0.510
1241.001	713.046	80.006	19.994	103.912	19.730	15.919	0.501
1241.501	713.292	80.006	19.994	103.913	19.731	15.821	0.514
1242.001	713.568	80.005	19.995	103.917	19.727	16.114	0.523
1242.501	713.793	80.007	19.993	103.919	19.728	16.022	0.512
1243.001	714.085	80.005	19.994	103.920	19.728	16.025	0.509
1243.500	714.318	80.006	19.995	103.917	19.728	16.059	0.522
1244.000	714.614	80.006	19.993	103.914	19.728	16.022	0.527
1244.501	714.794	80.005	19.994	103.909	19.729	15.967	0.502
1245.001	715.066	80.006	19.994	103.906	19.728	16.075	0.464
1245.501	715.328	80.005	19.994	103.905	19.728	16.068	0.493
1246.001	715.621	80.006	19.994	103.906	19.730	15.911	0.545
1246.501	715.870	80.005	19.994	103.902	19.728	16.021	0.549
1247.001	716.144	80.006	19.993	103.898	19.725	16.263	0.532
1247.500	716.347	80.005	19.994	103.895	19.729	15.987	0.500
1248.000	716.644	80.006	19.994	103.891	19.729	16.006	0.489
1248.500	716.892	80.005	19.995	103.886	19.730	15.915	0.523
1249.000	717.130	80.006	19.994	103.887	19.732	15.787	0.515
1249.500	717.409	80.005	19.994	103.888	19.731	15.843	0.501
1250.000	717.649	80.007	19.995	103.885	19.733	15.728	0.518
1250.500	717.856	80.005	19.994	103.882	19.734	15.618	0.483
1251.000	718.207	80.007	19.995	103.882	19.734	15.671	0.503
1251.500	718.423	80.006	19.994	103.883	19.734	15.634	0.563
1252.000	718.676	80.008	19.993	103.879	19.736	15.525	0.518
1252.500	718.971	80.006	19.993	103.879	19.734	15.630	0.508
1253.000	719.176	80.006	19.993	103.883	19.733	15.723	0.524
1253.500	719.438	80.006	19.994	103.883	19.734	15.647	0.483
1254.000	719.724	80.007	19.994	103.884	19.734	15.668	0.508
1254.500	719.952	80.006	19.994	103.888	19.731	15.832	0.531
1255.000	720.222	80.006	19.994	103.887	19.733	15.686	0.506
1255.500	720.491	80.006	19.994	103.888	19.736	15.528	0.518
1256.000	720.707	80.006	19.994	103.892	19.733	15.707	0.512
1256.500	720.967	80.006	19.994	103.886	19.735	15.541	0.481
1257.000	721.249	80.006	19.993	103.883	19.736	15.507	0.509
1257.500	721.515	80.007	19.994	103.882	19.736	15.521	0.545
1258.000	721.782	80.005	19.993	103.877	19.738	15.368	0.541
1258.500	722.018	80.007	19.993	103.872	19.738	15.362	0.518
1259.000	722.226	80.006	19.994	103.868	19.739	15.329	0.474
1259.500	722.531	80.007	19.994	103.865	19.742	15.093	0.478
1260.000	722.804	80.008	19.994	103.858	19.735	15.569	0.546
1260.500	723.008	80.006	19.994	103.851	19.740	15.225	0.528
1261.000	723.294	80.008	19.993	103.844	19.739	15.301	0.483
1261.500	723.542	80.008	19.994	103.840	19.739	15.283	0.512
1262.000	723.789	80.008	19.993	103.835	19.739	15.285	0.515
1262.500	724.049	80.008	19.993	103.837	19.745	14.891	0.501
1263.000	724.306	80.009	19.993	103.837	19.740	15.207	0.512
1263.500	724.564	80.009	19.993	103.836	19.742	15.100	0.516
1264.000	724.822	80.008	19.993	103.836	19.744	14.956	0.516
1264.500	725.072	80.008	19.993	103.835	19.746	14.851	0.512
1265.001	725.353	80.007	19.994	103.829	19.743	14.997	0.520
1265.501	725.568	80.008	19.993	103.826	19.743	15.041	0.514
1266.000	725.824	80.008	19.993	103.828	19.743	15.012	0.483
1266.500	726.050	80.008	19.994	103.828	19.745	14.863	0.476
1267.000	726.302	80.008	19.994	103.828	19.745	14.867	0.480
1267.500	726.564	80.008	19.993	103.833	19.744	14.976	0.496
1268.000	726.851	80.009	19.993	103.835	19.741	15.196	0.531
1268.500	727.057	80.008	19.993	103.834	19.743	15.015	0.522
1269.001	727.299	80.010	19.993	103.834	19.743	15.017	0.471
1269.501	727.605	80.007	19.994	103.833	19.741	15.192	0.498
1270.000	727.885	80.008	19.993	103.833	19.745	14.924	0.567
1270.500	728.090	80.009	19.993	103.832	19.747	14.778	0.536
1271.000	728.353	80.009	19.993	103.832	19.745	14.928	0.476
1271.501	728.610	80.008	19.993	103.832	19.742	15.110	0.494
1272.001	728.854	80.007	19.993	103.833	19.747	14.770	0.511
1272.501	729.109	80.008	19.993	103.834	19.743	15.001	0.500
1273.001	729.357	80.008	19.993	103.832	19.745	14.881	0.501
1273.500	729.609	80.007	19.993	103.833	19.744	14.944	0.502
1274.000	729.862	80.008	19.993	103.833	19.744	14.946	0.503
1274.500	730.080	80.007	19.994	103.832	19.747	14.757	0.488
1275.000	730.360	80.007	19.993	103.833	19.744	14.937	0.485
1275.500	730.649	80.006	19.992	103.835	19.744	14.942	0.533
1276.000	730.887	80.006	19.994	103.835	19.742	15.099	0.547
1276.501	731.143	80.008	19.993	103.836	19.744	14.933	0.510
1277.001	731.385	80.008	19.994	103.839	19.744	14.948	0.496
1277.500	731.634	80.006	19.993	103.839	19.742	15.102	0.495
1278.001	731.901	80.007	19.993	103.840	19.746	14.832	0.503
1278.501	732.187	80.007	19.993	103.841	19.742	15.102	0.534
1279.001	732.421	80.007	19.993	103.844	19.743	15.024	0.537
1279.501	732.719	80.007	19.992	103.843	19.744	14.952	0.526
1280.000	732.943	80.007	19.994	103.843	19.748	14.676	0.527
1280.500	733.185	80.007	19.993	103.843	19.746	14.853	0.494
1281.000	733.443	80.006	19.992	103.845	19.744	14.931	0.483
1281.500	733.675	80.007	19.993	103.842	19.744	14.957	0.495
1282.000	733.948	80.007	19.993	103.840	19.747	14.790	0.497
1282.501	734.198	80.007	19.994	103.838	19.743	15.035	0.514
1283.001	734.432	80.008	19.992	103.838	19.744	14.945	0.504
1283.501	734.664	80.008	19.993	103.835	19.746	14.841	0.475
1284.000	734.946	80.008	19.993	103.836	19.745	14.890	0.490
1284.500	735.201	80.008	19.993	103.836	19.744	14.979	0.526
1285.000	735.463	80.007	19.993	103.838	19.741	15.186	0.527
1285.500	735.705	80.009	19.993	103.838	19.746	14.854	0.510
1286.000	735.946	80.009	19.992	103.839	19.745	14.885	0.494
1286.500	736.214	80.008	19.992	103.839	19.747	14.758	0.496
1287.000	736.483	80.009	19.992	103.838	19.745	14.910	0.523
1287.500	736.733	80.009	19.992	103.838	19.746	14.812	0.528
1288.000	736.976	80.009	19.993	103.840	19.741	15.176	0.506
1288.500	737.226	80.010	19.992	103.845	19.747	14.750	0.493
1289.000	737.463	80.010	19.992	103.845	19.745	14.920	0.490
1289.500	737.729	80.009	19.992	103.845	19.747	14.790	0.495
1290.000	738.001	80.008	19.993	103.844	19.743	15.043	0.520
1290.500	738.239	80.010	19.992	103.842	19.743	15.043	0.524
1291.000	738.483	80.010	19.992	103.838	19.742	15.074	0.496
1291.500	738.751	80.009	19.991	103.838	19.745	14.913	0.497
1292.000	739.004	80.009	19.992	103.841	19.744	14.972	0.517
1292.500	739.241	80.009	19.992	103.843	19.746	14.831	0.506
1293.000	739.490	80.010	19.992	103.843	19.743	15.016	0.488
1293.500	739.715	80.009	19.992	103.844	19.743	15.011	0.480
1294.000	740.021	80.009	19.991	103.843	19.742	15.133	0.502
1294.500	740.279	80.010	19.992	103.840	19.745	14.903	0.548
1295.000	740.491	80.008	19.992	103.837	19.740	15.203	0.517
1295.500	740.760	80.008	19.992	103.836	19.744	14.962	0.475
1296.000	740.993	80.008	19.992	103.831	19.742	15.111	0.492
1296.500	741.278	80.009	19.992	103.830	19.745	14.869	0.510
1297.000	741.517	80.007	19.993	103.829	19.746	14.825	0.521
1297.500	741.814	80.008	19.993	103.829	19.744	14.956	0.530
1298.000	742.037	80.008	19.993	103.831	19.745	14.874	0.528
1298.500	742.298	80.008	19.993	103.836	19.743	15.012	0.501
1299.000	742.533	80.007	19.994	103.844	19.744	14.955	0.490
1299.500	742.774	80.007	19.993	103.849	19.747	14.788	0.487
1300.000	743.023	80.007	19.993	103.855	19.745	14.923	0.483
1300.500	743.335	80.008	19.994	103.858	19.746	14.805	0.525
1301.001	743.577	80.006	19.994	103.857	19.745	14.865	0.558
1301.501	743.808	80.008	19.993	103.849	19.747	14.733	0.514
1302.000	744.044	80.007	19.993	103.844	19.746	14.825	0.470
1302.500	744.366	80.007	19.994	103.840	19.746	14.836	0.512
1303.000	744.576	80.007	19.993	103.841	19.746	14.852	0.545
1303.500	744.838	80.006	19.993	103.847	19.743	15.004	0.502
1304.000	745.096	80.006	19.994	103.855	19.743	15.005	0.496
1304.500	745.326	80.007	19.993	103.856	19.743	15.010	0.504
