Sample ID:	C:\MCC\MCC Cal\Test\Nylon_Carpet_LowPile_MCC_30K_min_211028_R3.txt
Sample Weight (mg):	4.63
Heating Rate (C/s):	0.5
Combustor Temp (C):	900
N2 Flow Rate (cc/min):	80
O2 Flow Rate (cc/min):	20
Calibration File:	C:\MCC\MCC Cal\Coeff1 JN10440_30_210304.txt.txt
T Correction Coefficients:	0	1.024463	0
Time Shift (s):	14
*
Time (s)	Temperature (C)	N2 flow rate (cc/min)	O2 flow rate (cc/min)	Flow Rate (cc/min)	Oxygen (%)	HRR (W/g)	Heating rate (C/s)
0.000	107.823	80.001	19.994	102.950	20.100	0.052	0.001
0.500	107.814	79.998	19.994	102.943	20.098	0.189	-0.011
1.000	107.797	80.002	19.994	102.938	20.099	0.115	-0.019
1.500	107.806	79.999	19.993	102.933	20.100	0.082	-0.017
2.000	107.796	80.000	19.994	102.928	20.102	-0.069	-0.005
2.500	107.792	80.000	19.993	102.931	20.101	-0.008	-0.008
3.000	107.760	80.000	19.993	102.939	20.099	0.126	-0.025
3.500	107.782	80.000	19.994	102.944	20.102	-0.046	-0.023
4.000	107.767	79.998	19.995	102.947	20.100	0.099	-0.001
4.500	107.777	80.002	19.994	102.949	20.099	0.147	0.001
5.000	107.762	80.000	19.994	102.946	20.098	0.201	-0.005
5.500	107.733	79.999	19.994	102.939	20.101	0.034	-0.025
6.000	107.757	80.000	20.000	102.934	20.101	0.027	-0.024
6.500	107.778	80.002	19.995	102.936	20.100	0.069	0.020
7.000	107.786	80.000	19.995	102.941	20.099	0.155	0.037
7.500	107.779	80.001	19.995	102.945	20.098	0.189	0.015
8.000	107.786	80.002	19.996	102.947	20.100	0.101	0.001
8.501	107.811	80.003	19.995	102.951	20.102	-0.082	0.016
9.001	107.770	80.000	20.000	102.951	20.100	0.096	0.008
9.500	107.761	80.000	19.993	102.949	20.100	0.094	-0.033
10.000	107.796	80.002	19.994	102.949	20.096	0.320	-0.013
10.500	107.791	80.001	19.994	102.953	20.096	0.358	0.028
11.000	107.792	80.005	19.995	102.953	20.095	0.410	0.014
11.500	107.783	80.002	19.993	102.953	20.101	0.031	-0.006
12.000	107.756	80.002	19.996	102.956	20.099	0.157	-0.023
12.500	107.785	80.002	19.995	102.956	20.098	0.205	-0.017
13.000	107.753	80.004	19.993	102.956	20.096	0.331	-0.001
13.500	107.785	80.002	19.994	102.955	20.096	0.381	-0.002
14.000	107.765	80.002	19.995	102.955	20.097	0.247	0.006
14.500	107.798	80.001	19.994	102.955	20.096	0.337	0.013
15.000	107.789	80.003	19.995	102.958	20.095	0.391	0.019
15.500	107.746	80.002	19.994	102.957	20.096	0.320	-0.014
16.000	107.810	80.003	19.996	102.958	20.095	0.452	-0.016
16.500	107.844	80.002	19.994	102.959	20.095	0.418	0.059
17.000	107.823	80.002	19.994	102.958	20.094	0.458	0.055
17.500	107.800	80.001	19.994	102.958	20.090	0.740	-0.015
18.000	107.820	80.002	19.996	102.963	20.094	0.508	-0.023
18.500	107.768	80.002	19.994	102.968	20.096	0.374	-0.017
19.000	107.802	80.002	19.994	102.975	20.093	0.575	-0.025
19.500	107.794	80.001	19.994	102.981	20.093	0.542	0.004
20.000	107.866	80.001	19.994	102.987	20.091	0.669	0.044
20.500	107.835	80.000	19.994	102.989	20.092	0.659	0.053
21.000	107.827	80.000	19.995	102.992	20.091	0.686	0.001
21.500	107.829	80.000	19.994	102.992	20.092	0.602	-0.022
22.000	107.824	80.001	19.993	102.994	20.091	0.665	-0.004
22.500	107.847	80.000	19.996	103.000	20.090	0.782	0.007
23.000	107.880	79.999	19.993	103.007	20.087	0.948	0.037
23.500	107.871	79.999	19.994	103.012	20.084	1.163	0.040
24.000	107.865	80.000	19.994	103.019	20.085	1.140	0.005
24.500	107.917	79.999	19.994	103.030	20.081	1.366	0.015
25.000	107.909	80.001	19.993	103.037	20.084	1.200	0.045
25.500	107.948	80.000	19.995	103.042	20.081	1.378	0.037
26.000	107.972	80.000	19.994	103.049	20.079	1.552	0.047
26.500	107.942	80.000	19.995	103.063	20.080	1.480	0.029
27.000	108.013	79.999	19.994	103.075	20.074	1.857	0.017
27.500	108.043	79.999	19.995	103.087	20.076	1.750	0.071
28.000	108.056	80.001	19.994	103.100	20.077	1.660	0.072
28.500	108.056	79.998	19.995	103.111	20.075	1.800	0.028
29.000	108.117	79.999	19.993	103.114	20.075	1.798	0.037
29.500	108.143	80.000	19.995	103.113	20.073	1.970	0.074
30.000	108.175	80.000	19.994	103.113	20.072	1.986	0.073
30.500	108.221	80.000	19.995	103.114	20.074	1.909	0.068
31.000	108.288	80.001	19.993	103.115	20.071	2.061	0.095
31.500	108.293	80.002	19.994	103.118	20.072	2.038	0.093
32.000	108.313	80.001	19.994	103.120	20.069	2.195	0.049
32.500	108.377	79.999	19.995	103.120	20.069	2.199	0.054
33.000	108.424	80.001	19.995	103.119	20.070	2.172	0.097
33.500	108.475	80.000	19.994	103.117	20.073	1.975	0.104
34.000	108.541	80.001	19.994	103.116	20.071	2.088	0.108
34.500	108.538	80.001	19.995	103.114	20.068	2.277	0.090
35.000	108.607	80.001	19.995	103.117	20.069	2.254	0.065
35.500	108.681	80.001	19.995	103.120	20.070	2.157	0.105
36.000	108.747	79.999	19.994	103.125	20.069	2.247	0.142
36.500	108.816	80.000	19.995	103.131	20.069	2.220	0.138
37.000	108.896	80.001	19.995	103.138	20.066	2.437	0.142
37.500	108.965	80.001	19.996	103.142	20.069	2.249	0.149
38.000	109.015	80.001	19.994	103.145	20.065	2.472	0.134
38.500	109.046	80.000	19.997	103.147	20.066	2.426	0.100
39.000	109.136	80.003	19.993	103.147	20.067	2.393	0.101
39.500	109.201	80.001	19.994	103.148	20.066	2.445	0.138
40.001	109.252	80.000	19.995	103.148	20.064	2.552	0.135
40.501	109.364	80.001	19.995	103.150	20.063	2.671	0.140
41.001	109.408	80.001	19.996	103.152	20.064	2.571	0.159
41.501	109.501	80.000	19.995	103.155	20.062	2.717	0.146
42.001	109.583	80.001	19.997	103.160	20.062	2.738	0.156
42.501	109.708	80.000	19.996	103.165	20.063	2.623	0.191
43.000	109.752	80.001	19.995	103.172	20.061	2.781	0.188
43.501	109.825	80.002	19.994	103.174	20.062	2.683	0.144
44.001	109.896	80.001	19.994	103.172	20.061	2.804	0.131
44.500	110.013	80.002	19.995	103.167	20.062	2.715	0.166
45.000	110.104	80.001	19.995	103.163	20.061	2.800	0.198
45.500	110.183	79.997	19.994	103.159	20.059	2.922	0.189
46.000	110.311	79.999	19.997	103.159	20.061	2.773	0.188
46.500	110.425	80.000	19.993	103.162	20.062	2.717	0.225
47.000	110.464	80.000	19.994	103.170	20.061	2.773	0.198
47.500	110.606	80.000	19.996	103.177	20.059	2.942	0.167
48.000	110.698	79.999	19.997	103.182	20.058	2.961	0.207
48.500	110.795	79.996	19.998	103.187	20.063	2.673	0.211
49.000	110.906	79.998	19.994	103.192	20.059	2.915	0.199
49.500	111.028	80.001	19.993	103.192	20.057	3.072	0.220
50.000	111.144	80.002	19.994	103.191	20.056	3.120	0.235
50.500	111.227	80.003	19.989	103.191	20.058	3.014	0.219
51.001	111.365	79.999	19.996	103.191	20.056	3.143	0.210
51.501	111.479	79.999	19.998	103.191	20.056	3.154	0.236
52.001	111.559	79.994	19.994	103.190	20.059	2.922	0.223
52.500	111.692	79.998	19.994	103.191	20.056	3.114	0.203
53.000	111.816	79.998	19.996	103.193	20.057	3.043	0.235
53.500	111.936	79.999	19.996	103.193	20.057	3.055	0.251
54.000	112.082	80.000	19.995	103.194	20.058	2.984	0.255
54.500	112.180	80.000	19.996	103.195	20.060	2.884	0.255
55.000	112.310	80.001	19.994	103.195	20.056	3.116	0.236
55.500	112.428	79.999	19.996	103.194	20.056	3.137	0.238
56.000	112.518	79.998	19.996	103.193	20.054	3.258	0.228
56.500	112.656	79.999	19.999	103.192	20.057	3.085	0.218
57.000	112.801	79.999	19.997	103.192	20.056	3.139	0.255
57.500	112.958	80.000	19.996	103.191	20.056	3.109	0.292
58.001	113.080	79.999	19.994	103.191	20.055	3.176	0.290
58.501	113.187	80.001	19.995	103.192	20.053	3.337	0.254
59.000	113.317	79.999	19.996	103.192	20.056	3.128	0.233
59.500	113.459	79.998	19.994	103.192	20.056	3.139	0.254
60.000	113.640	80.000	19.993	103.191	20.053	3.344	0.297
60.500	113.767	79.995	19.997	103.191	20.055	3.214	0.315
61.001	113.902	80.001	19.993	103.191	20.056	3.156	0.285
61.501	114.063	79.998	19.995	103.191	20.056	3.158	0.279
62.000	114.192	79.999	19.994	103.191	20.051	3.454	0.293
62.500	114.337	80.002	19.993	103.193	20.056	3.153	0.282
63.000	114.478	79.999	19.992	103.194	20.054	3.300	0.280
63.500	114.606	79.997	19.996	103.196	20.051	3.469	0.278
64.000	114.774	80.001	19.995	103.195	20.053	3.337	0.283
64.500	114.927	79.999	19.995	103.195	20.053	3.356	0.308
65.000	115.090	79.999	19.994	103.195	20.053	3.331	0.318
65.500	115.216	79.999	19.995	103.194	20.054	3.241	0.303
66.000	115.374	80.000	19.996	103.194	20.051	3.469	0.286
66.500	115.509	80.000	19.996	103.194	20.054	3.249	0.288
67.000	115.670	79.999	19.995	103.194	20.051	3.448	0.295
67.500	115.854	80.001	19.994	103.196	20.052	3.414	0.321
68.000	116.006	80.000	19.995	103.199	20.054	3.289	0.341
68.500	116.159	79.999	19.995	103.198	20.053	3.369	0.320
69.000	116.302	79.999	19.996	103.198	20.055	3.193	0.300
69.500	116.475	79.999	19.996	103.197	20.050	3.561	0.305
70.000	116.621	80.000	19.995	103.196	20.053	3.365	0.317
70.500	116.784	79.999	19.996	103.193	20.051	3.456	0.314
71.000	117.003	79.998	19.995	103.193	20.054	3.268	0.346
71.500	117.115	80.000	19.995	103.194	20.053	3.314	0.357
72.000	117.303	80.000	19.994	103.195	20.053	3.342	0.315
72.500	117.472	79.999	19.996	103.195	20.052	3.389	0.328
73.000	117.670	80.000	19.996	103.195	20.052	3.402	0.362
73.500	117.834	80.001	19.995	103.194	20.050	3.550	0.365
74.000	117.993	80.000	19.995	103.196	20.051	3.486	0.343
74.500	118.152	80.001	19.996	103.197	20.052	3.413	0.320
75.000	118.337	79.999	19.995	103.199	20.051	3.467	0.331
75.500	118.502	80.000	19.995	103.203	20.051	3.479	0.347
76.000	118.642	80.001	19.996	103.208	20.052	3.413	0.327
76.500	118.831	80.000	19.997	103.208	20.052	3.381	0.317
77.000	119.010	80.000	19.996	103.205	20.050	3.551	0.348
77.500	119.181	80.000	19.996	103.203	20.046	3.835	0.359
78.000	119.352	79.999	19.996	103.203	20.050	3.574	0.346
78.500	119.546	80.001	19.995	103.199	20.050	3.528	0.354
79.000	119.701	79.999	19.995	103.201	20.050	3.513	0.357
79.500	119.919	80.000	19.995	103.201	20.048	3.720	0.361
80.000	120.100	80.000	19.996	103.201	20.050	3.557	0.386
80.500	120.304	80.000	19.996	103.198	20.049	3.613	0.392
81.000	120.466	80.001	19.996	103.197	20.052	3.379	0.376
81.500	120.637	80.001	19.995	103.195	20.053	3.366	0.350
82.000	120.858	80.001	19.995	103.194	20.052	3.430	0.363
82.500	121.032	80.001	19.994	103.196	20.051	3.451	0.393
83.000	121.177	80.001	19.995	103.197	20.051	3.493	0.356
83.500	121.408	80.001	19.996	103.197	20.051	3.491	0.347
84.000	121.567	80.000	19.995	103.197	20.050	3.571	0.383
84.500	121.781	80.000	19.994	103.196	20.049	3.602	0.382
85.000	122.007	80.001	19.994	103.196	20.049	3.589	0.407
85.500	122.174	79.999	19.996	103.195	20.049	3.633	0.416
86.000	122.382	80.001	19.993	103.194	20.051	3.485	0.384
86.500	122.588	80.000	19.996	103.193	20.050	3.558	0.395
87.000	122.769	80.000	19.995	103.193	20.052	3.414	0.401
87.500	122.931	80.000	19.994	103.192	20.053	3.322	0.365
88.000	123.145	80.001	19.994	103.193	20.051	3.483	0.359
88.500	123.351	80.001	19.994	103.193	20.047	3.740	0.398
89.000	123.542	80.001	19.994	103.195	20.052	3.412	0.409
89.500	123.737	80.000	19.994	103.197	20.050	3.525	0.391
90.000	123.948	80.002	19.996	103.197	20.054	3.259	0.396
90.500	124.145	80.001	19.994	103.197	20.049	3.642	0.407
91.000	124.321	80.001	19.995	103.203	20.051	3.501	0.391
91.500	124.560	80.003	19.994	103.209	20.048	3.712	0.394
92.000	124.749	80.002	19.995	103.215	20.048	3.662	0.421
92.500	124.937	80.001	19.995	103.222	20.049	3.612	0.402
93.000	125.125	80.003	19.995	103.227	20.051	3.445	0.377
93.500	125.365	80.002	19.995	103.227	20.049	3.623	0.402
94.000	125.556	80.003	19.995	103.226	20.050	3.556	0.429
94.500	125.769	80.002	19.994	103.223	20.044	3.936	0.417
95.000	125.992	80.002	19.994	103.217	20.045	3.886	0.420
95.500	126.234	80.003	19.994	103.215	20.047	3.756	0.451
96.000	126.405	80.003	19.995	103.216	20.045	3.899	0.439
96.500	126.649	80.002	19.994	103.214	20.046	3.855	0.414
97.000	126.825	80.001	19.995	103.214	20.046	3.850	0.418
97.500	127.041	80.003	19.995	103.217	20.050	3.556	0.406
98.000	127.256	80.003	19.995	103.218	20.049	3.631	0.411
98.500	127.481	80.002	19.994	103.217	20.050	3.537	0.435
99.000	127.669	80.003	19.994	103.218	20.047	3.746	0.427
99.500	127.929	80.003	19.994	103.216	20.050	3.518	0.430
100.000	128.104	80.002	19.994	103.214	20.051	3.491	0.442
100.500	128.367	80.001	19.995	103.214	20.048	3.667	0.437
101.000	128.575	80.001	19.995	103.214	20.050	3.574	0.455
101.500	128.808	80.002	19.995	103.216	20.052	3.441	0.456
102.000	128.992	80.003	19.994	103.220	20.049	3.620	0.429
102.500	129.214	80.001	19.995	103.224	20.050	3.514	0.411
103.000	129.446	80.000	19.995	103.222	20.047	3.736	0.430
103.500	129.669	80.001	19.995	103.222	20.050	3.522	0.455
104.000	129.880	80.000	19.995	103.221	20.052	3.426	0.444
104.500	130.082	80.000	19.993	103.222	20.049	3.637	0.423
105.000	130.295	79.999	19.994	103.222	20.051	3.499	0.414
105.500	130.547	80.000	19.995	103.223	20.050	3.520	0.440
106.000	130.770	80.000	19.995	103.224	20.050	3.535	0.470
106.500	130.985	79.999	19.995	103.224	20.049	3.612	0.457
107.000	131.213	80.000	19.994	103.220	20.047	3.771	0.441
107.500	131.420	79.999	19.996	103.218	20.052	3.416	0.439
108.000	131.634	80.000	19.994	103.219	20.048	3.702	0.428
108.500	131.859	80.000	19.996	103.216	20.055	3.213	0.430
109.000	132.077	80.000	19.995	103.216	20.052	3.389	0.441
109.500	132.294	79.999	19.994	103.215	20.050	3.564	0.439
110.000	132.546	79.999	19.994	103.214	20.050	3.568	0.452
110.500	132.756	80.000	19.996	103.216	20.053	3.322	0.465
111.000	133.000	79.999	19.995	103.219	20.054	3.303	0.458
111.500	133.219	79.999	19.995	103.220	20.053	3.362	0.458
112.000	133.503	80.000	19.994	103.226	20.054	3.291	0.483
112.500	133.748	79.998	19.996	103.225	20.051	3.502	0.517
113.000	133.934	79.999	19.995	103.222	20.054	3.270	0.480
113.500	134.191	79.999	19.995	103.221	20.051	3.498	0.436
114.001	134.405	80.001	19.995	103.221	20.052	3.398	0.457
114.501	134.692	79.999	19.996	103.222	20.051	3.500	0.486
115.000	134.867	80.000	19.994	103.227	20.053	3.352	0.482
115.500	135.125	80.000	19.995	103.230	20.049	3.586	0.447
116.001	135.344	80.000	19.995	103.231	20.052	3.440	0.455
116.501	135.623	80.000	19.996	103.226	20.054	3.297	0.488
117.000	135.843	80.000	19.994	103.218	20.050	3.550	0.499
117.500	136.061	80.000	19.996	103.213	20.050	3.578	0.469
118.000	136.308	79.999	19.994	103.211	20.053	3.320	0.451
118.500	136.544	80.001	19.995	103.212	20.049	3.607	0.474
119.000	136.778	80.000	19.995	103.216	20.052	3.425	0.476
119.500	137.056	80.000	19.996	103.223	20.049	3.602	0.491
120.000	137.222	80.001	19.994	103.225	20.049	3.650	0.478
120.500	137.508	80.001	19.995	103.225	20.051	3.473	0.448
121.000	137.715	80.001	19.994	103.224	20.054	3.289	0.472
121.500	137.935	80.000	19.994	103.223	20.052	3.427	0.460
122.000	138.224	80.000	19.995	103.221	20.053	3.356	0.468
122.500	138.462	79.999	19.994	103.221	20.051	3.454	0.517
123.000	138.696	80.001	19.994	103.219	20.051	3.446	0.499
123.500	138.954	80.000	19.995	103.215	20.051	3.450	0.482
124.001	139.182	80.000	19.995	103.209	20.051	3.460	0.489
124.501	139.423	80.000	19.994	103.206	20.054	3.272	0.477
125.000	139.674	80.000	19.994	103.203	20.054	3.283	0.481
125.500	139.907	80.000	19.995	103.200	20.050	3.561	0.489
126.000	140.133	79.999	19.995	103.198	20.051	3.490	0.471
126.500	140.398	80.000	19.993	103.200	20.050	3.527	0.475
127.000	140.636	80.000	19.993	103.200	20.052	3.425	0.497
127.500	140.846	80.001	19.994	103.199	20.051	3.461	0.476
128.000	141.138	80.000	19.994	103.199	20.056	3.156	0.475
128.500	141.358	79.999	19.995	103.199	20.054	3.298	0.506
129.000	141.634	80.000	19.994	103.199	20.055	3.195	0.504
129.500	141.852	80.000	19.994	103.199	20.053	3.342	0.495
130.000	142.077	79.999	19.994	103.203	20.055	3.216	0.469
130.500	142.286	79.998	19.995	103.205	20.052	3.433	0.439
131.000	142.575	79.999	19.995	103.206	20.053	3.354	0.466
131.500	142.821	79.999	19.994	103.207	20.052	3.390	0.517
132.000	143.071	80.000	19.995	103.210	20.048	3.711	0.515
132.500	143.350	80.000	19.994	103.211	20.050	3.519	0.512
133.000	143.562	79.999	19.995	103.211	20.052	3.442	0.510
133.500	143.782	79.999	19.995	103.210	20.050	3.547	0.462
134.000	144.078	79.999	19.995	103.208	20.053	3.358	0.474
134.500	144.305	79.999	19.995	103.204	20.047	3.770	0.520
135.000	144.562	80.000	19.995	103.200	20.048	3.663	0.504
135.500	144.813	79.999	19.995	103.198	20.052	3.415	0.496
136.001	145.052	80.000	19.995	103.196	20.050	3.549	0.499
136.501	145.318	80.001	19.995	103.196	20.049	3.597	0.498
137.000	145.533	79.998	19.996	103.196	20.051	3.492	0.493
137.500	145.808	79.999	19.995	103.196	20.049	3.599	0.485
138.000	146.061	79.999	19.994	103.195	20.047	3.764	0.509
138.500	146.327	79.999	19.995	103.195	20.052	3.404	0.524
139.000	146.555	79.998	19.996	103.196	20.047	3.726	0.507
139.500	146.794	79.999	19.995	103.195	20.050	3.524	0.480
140.000	147.055	79.999	19.996	103.195	20.049	3.620	0.483
140.500	147.283	80.000	19.995	103.195	20.052	3.409	0.495
141.000	147.562	80.000	19.996	103.195	20.051	3.490	0.498
141.500	147.791	79.999	19.996	103.194	20.049	3.643	0.507
142.000	148.026	80.000	19.997	103.194	20.047	3.735	0.486
142.500	148.269	79.999	19.996	103.194	20.050	3.565	0.471
143.000	148.555	80.000	19.995	103.193	20.048	3.664	0.504
143.500	148.782	80.000	19.996	103.193	20.049	3.601	0.521
144.000	149.031	80.000	19.995	103.193	20.050	3.572	0.494
144.500	149.306	80.001	19.996	103.192	20.056	3.114	0.500
145.000	149.583	80.000	19.996	103.191	20.052	3.409	0.538
145.500	149.827	79.999	19.996	103.192	20.048	3.695	0.536
146.000	150.031	80.000	19.995	103.192	20.050	3.563	0.484
146.500	150.304	80.000	19.995	103.192	20.053	3.325	0.463
147.000	150.557	80.000	19.996	103.192	20.053	3.363	0.502
147.500	150.796	80.000	19.995	103.192	20.053	3.340	0.509
148.000	151.032	80.000	19.995	103.192	20.053	3.312	0.483
148.500	151.300	80.000	19.995	103.190	20.053	3.314	0.490
149.000	151.511	80.000	19.995	103.188	20.054	3.254	0.492
149.500	151.778	80.000	19.995	103.188	20.054	3.239	0.478
150.000	152.050	80.001	19.995	103.188	20.053	3.331	0.508
150.500	152.275	80.001	19.996	103.189	20.055	3.170	0.518
151.000	152.553	80.001	19.994	103.191	20.053	3.346	0.500
151.500	152.752	80.001	19.995	103.193	20.057	3.030	0.490
152.000	152.994	80.000	19.995	103.192	20.054	3.296	0.460
152.500	153.242	80.001	19.995	103.192	20.054	3.292	0.466
153.000	153.497	80.001	19.995	103.192	20.053	3.311	0.496
153.500	153.762	80.002	19.996	103.191	20.055	3.169	0.511
154.000	154.008	80.002	19.995	103.191	20.054	3.242	0.516
154.500	154.237	80.001	19.996	103.192	20.052	3.405	0.493
155.000	154.489	80.001	19.995	103.191	20.052	3.422	0.478
155.500	154.742	80.002	19.994	103.188	20.053	3.313	0.493
156.000	154.979	80.001	19.995	103.188	20.054	3.286	0.497
156.500	155.258	80.001	19.995	103.188	20.054	3.246	0.502
157.000	155.441	80.001	19.994	103.188	20.055	3.191	0.489
157.500	155.734	80.002	19.996	103.189	20.055	3.225	0.469
158.000	155.986	79.998	19.997	103.191	20.054	3.252	0.511
158.500	156.263	79.999	19.998	103.193	20.056	3.107	0.537
159.001	156.479	80.000	19.997	103.193	20.054	3.289	0.511
159.500	156.746	80.000	19.999	103.193	20.052	3.395	0.488
160.000	157.009	79.999	19.996	103.193	20.055	3.179	0.507
160.500	157.275	80.000	19.995	103.194	20.055	3.212	0.529
161.000	157.500	80.000	19.997	103.191	20.054	3.290	0.510
161.500	157.745	79.999	19.996	103.191	20.051	3.440	0.481
162.000	158.025	80.001	19.996	103.189	20.053	3.296	0.498
162.500	158.272	79.999	19.996	103.189	20.054	3.256	0.526
163.000	158.538	80.000	19.994	103.187	20.053	3.311	0.520
163.500	158.759	80.000	19.996	103.186	20.055	3.168	0.500
164.000	159.022	80.000	19.996	103.183	20.055	3.200	0.485
164.500	159.268	80.002	19.995	103.179	20.055	3.154	0.496
165.000	159.520	80.000	19.996	103.177	20.052	3.397	0.503
165.500	159.784	80.002	19.998	103.177	20.051	3.465	0.507
166.000	160.054	80.001	19.996	103.176	20.057	3.062	0.525
166.500	160.242	80.000	19.996	103.180	20.059	2.934	0.496
167.000	160.506	80.000	19.996	103.184	20.059	2.940	0.455
167.500	160.784	79.999	19.996	103.185	20.062	2.734	0.497
168.000	161.013	80.000	19.996	103.184	20.068	2.298	0.525
168.500	161.308	80.000	19.996	103.171	20.070	2.144	0.515
169.000	161.552	79.998	19.997	103.139	20.070	2.130	0.531
169.500	161.776	79.999	19.995	103.092	20.073	1.973	0.503
170.000	162.000	79.999	19.998	103.037	20.076	1.746	0.458
170.500	162.229	79.999	19.996	102.979	20.083	1.267	0.451
171.000	162.466	79.999	19.996	102.928	20.085	1.076	0.460
171.500	162.659	80.000	19.996	102.889	20.092	0.628	0.448
172.000	162.859	80.000	19.996	102.866	20.093	0.527	0.412
172.500	163.067	80.001	19.995	102.847	20.095	0.388	0.401
173.000	163.281	80.000	19.996	102.835	20.100	0.048	0.415
173.500	163.480	80.000	19.996	102.826	20.101	0.002	0.417
174.000	163.692	80.001	19.996	102.821	20.104	-0.237	0.412
174.500	163.840	80.001	19.998	102.814	20.108	-0.510	0.386
175.000	164.020	80.000	19.996	102.809	20.109	-0.562	0.344
175.500	164.160	80.000	19.996	102.807	20.111	-0.674	0.324
176.000	164.308	80.001	19.996	102.803	20.112	-0.730	0.304
176.500	164.481	80.001	19.997	102.801	20.112	-0.747	0.305
177.000	164.631	80.001	19.997	102.801	20.113	-0.858	0.322
177.500	164.787	80.001	19.995	102.802	20.118	-1.203	0.315
178.000	164.869	80.002	19.994	102.807	20.117	-1.135	0.272
178.500	164.995	80.002	19.995	102.807	20.116	-1.068	0.223
179.000	165.111	80.002	19.995	102.808	20.117	-1.074	0.225
179.500	165.280	80.002	19.995	102.808	20.121	-1.375	0.264
180.000	165.402	80.001	19.994	102.807	20.120	-1.318	0.288
180.500	165.481	80.002	19.995	102.803	20.120	-1.345	0.246
181.000	165.571	80.003	19.994	102.802	20.123	-1.498	0.185
181.500	165.671	80.002	19.995	102.802	20.121	-1.402	0.179
182.000	165.743	80.002	19.995	102.802	20.124	-1.595	0.181
182.500	165.802	80.001	19.995	102.802	20.124	-1.618	0.152
183.000	165.910	80.002	19.994	102.802	20.126	-1.723	0.149
183.500	166.011	80.001	19.994	102.801	20.124	-1.587	0.189
184.000	166.040	80.001	19.993	102.801	20.124	-1.616	0.170
184.500	166.101	80.002	19.993	102.801	20.121	-1.404	0.110
185.000	166.201	80.000	19.994	102.801	20.127	-1.811	0.125
185.500	166.263	80.000	19.994	102.801	20.127	-1.776	0.161
186.000	166.284	80.001	19.994	102.802	20.125	-1.689	0.122
186.500	166.320	80.001	19.994	102.801	20.126	-1.706	0.070
187.000	166.415	80.000	19.995	102.799	20.126	-1.738	0.094
187.500	166.410	79.999	19.995	102.799	20.129	-1.950	0.111
188.000	166.499	80.001	19.995	102.799	20.127	-1.813	0.087
188.500	166.539	79.999	19.995	102.798	20.126	-1.710	0.106
189.000	166.531	79.999	19.995	102.799	20.130	-2.031	0.081
189.500	166.558	79.999	19.995	102.801	20.127	-1.775	0.026
190.000	166.600	79.998	19.995	102.802	20.129	-1.908	0.043
190.500	166.580	79.999	19.993	102.801	20.129	-1.972	0.046
191.000	166.605	79.998	19.994	102.801	20.129	-1.935	0.014
191.500	166.628	79.999	19.994	102.802	20.127	-1.788	0.026
192.000	166.644	79.999	19.995	102.802	20.129	-1.916	0.043
192.500	166.604	80.000	19.995	102.802	20.128	-1.855	0.007
193.000	166.612	79.998	19.995	102.803	20.130	-2.017	-0.028
193.500	166.639	80.000	19.994	102.803	20.131	-2.044	0.002
194.000	166.602	79.999	19.995	102.803	20.130	-2.010	0.013
194.500	166.607	79.998	19.995	102.797	20.133	-2.239	-0.021
195.000	166.614	79.998	19.995	102.791	20.130	-1.996	-0.010
195.500	166.570	80.000	19.995	102.787	20.134	-2.250	-0.013
196.000	166.573	79.998	19.995	102.787	20.133	-2.182	-0.040
196.500	166.547	80.000	19.995	102.787	20.132	-2.115	-0.032
197.000	166.526	79.998	19.995	102.792	20.132	-2.159	-0.035
197.500	166.486	79.999	19.995	102.798	20.134	-2.254	-0.054
198.000	166.446	79.999	19.995	102.802	20.132	-2.118	-0.071
198.500	166.406	79.999	19.994	102.801	20.132	-2.159	-0.080
199.000	166.401	79.999	19.993	102.800	20.132	-2.166	-0.062
199.500	166.378	79.998	19.994	102.800	20.134	-2.254	-0.037
200.000	166.288	80.000	19.995	102.800	20.132	-2.124	-0.071
200.500	166.304	79.998	19.994	102.802	20.130	-1.990	-0.094
201.000	166.229	79.999	19.994	102.803	20.131	-2.078	-0.066
201.500	166.198	80.000	19.995	102.805	20.132	-2.115	-0.082
202.000	166.149	80.000	19.994	102.805	20.129	-1.954	-0.093
202.500	166.121	79.998	19.996	102.805	20.132	-2.128	-0.079
203.000	166.078	79.999	19.995	102.802	20.127	-1.820	-0.074
203.500	165.974	79.999	19.994	102.802	20.129	-1.971	-0.109
204.000	165.911	79.999	19.994	102.800	20.133	-2.218	-0.157
204.500	165.895	79.999	19.995	102.799	20.133	-2.187	-0.123
205.000	165.787	80.000	19.996	102.798	20.130	-1.979	-0.101
205.500	165.751	80.001	19.994	102.800	20.132	-2.113	-0.134
206.000	165.664	80.000	19.995	102.801	20.130	-1.983	-0.134
206.500	165.622	79.999	19.994	102.802	20.129	-1.910	-0.126
207.000	165.527	80.001	19.995	102.802	20.131	-2.055	-0.133
207.500	165.472	79.999	19.995	102.801	20.132	-2.139	-0.143
208.000	165.424	80.000	19.995	102.799	20.129	-1.964	-0.126
208.500	165.306	80.000	19.994	102.798	20.133	-2.218	-0.134
209.000	165.261	80.000	19.996	102.795	20.133	-2.227	-0.165
209.500	165.152	80.000	19.996	102.795	20.132	-2.170	-0.159
210.000	165.117	80.000	19.995	102.791	20.130	-2.033	-0.149
210.500	164.994	80.000	19.994	102.786	20.132	-2.117	-0.151
211.000	164.922	80.001	19.994	102.788	20.131	-2.103	-0.177
211.500	164.857	80.000	19.995	102.789	20.130	-2.004	-0.166
212.000	164.750	79.999	19.994	102.789	20.133	-2.202	-0.155
212.500	164.665	79.999	19.995	102.792	20.133	-2.244	-0.182
213.000	164.541	79.999	19.994	102.798	20.129	-1.914	-0.201
213.500	164.451	79.999	19.995	102.796	20.134	-2.313	-0.212
214.000	164.398	80.001	19.995	102.794	20.133	-2.222	-0.178
214.500	164.282	80.000	19.993	102.793	20.133	-2.244	-0.156
215.000	164.157	80.000	19.994	102.795	20.133	-2.191	-0.205
215.500	164.062	79.999	19.995	102.792	20.129	-1.908	-0.231
216.000	163.978	79.999	19.995	102.790	20.132	-2.130	-0.199
216.500	163.877	80.000	19.993	102.791	20.132	-2.149	-0.182
217.000	163.773	80.001	19.994	102.791	20.133	-2.239	-0.195
217.500	163.665	80.001	19.995	102.791	20.131	-2.090	-0.208
218.000	163.588	79.999	19.995	102.790	20.134	-2.262	-0.198
218.500	163.501	80.000	19.993	102.791	20.132	-2.166	-0.174
219.000	163.378	79.999	19.994	102.794	20.133	-2.243	-0.187
219.500	163.260	79.999	19.995	102.795	20.129	-1.929	-0.225
220.000	163.174	79.999	19.995	102.795	20.133	-2.218	-0.223
220.500	163.050	79.998	19.994	102.799	20.132	-2.145	-0.207
221.000	162.960	79.999	19.994	102.801	20.132	-2.153	-0.212
221.500	162.855	80.000	19.994	102.800	20.132	-2.168	-0.204
222.000	162.725	80.000	19.995	102.798	20.134	-2.254	-0.215
222.500	162.600	79.999	19.994	102.796	20.132	-2.155	-0.245
223.000	162.528	80.000	19.994	102.795	20.134	-2.260	-0.226
223.500	162.377	79.999	19.995	102.792	20.132	-2.159	-0.210
224.000	162.293	79.999	19.993	102.791	20.132	-2.128	-0.229
224.500	162.137	80.000	19.995	102.793	20.131	-2.055	-0.237
225.000	162.081	79.998	19.996	102.794	20.134	-2.298	-0.226
225.500	161.968	79.999	19.995	102.795	20.131	-2.096	-0.191
226.000	161.826	79.999	19.996	102.799	20.131	-2.084	-0.212
226.500	161.686	80.001	19.995	102.801	20.133	-2.203	-0.269
227.000	161.581	80.000	19.995	102.801	20.129	-1.958	-0.263
227.500	161.482	80.000	19.995	102.800	20.132	-2.122	-0.224
228.000	161.370	80.000	19.994	102.799	20.133	-2.224	-0.208
228.500	161.288	80.001	19.996	102.799	20.130	-2.002	-0.202
229.000	161.134	80.001	19.995	102.798	20.132	-2.124	-0.215
229.500	161.017	79.999	19.996	102.798	20.130	-2.017	-0.253
230.000	160.889	80.001	19.996	102.800	20.133	-2.214	-0.258
230.500	160.758	80.001	19.996	102.800	20.126	-1.742	-0.252
231.000	160.623	80.000	19.995	102.799	20.129	-1.912	-0.262
231.500	160.493	79.999	19.996	102.800	20.133	-2.237	-0.266
232.000	160.379	80.000	19.995	102.800	20.131	-2.048	-0.255
232.500	160.255	79.999	19.996	102.801	20.130	-2.021	-0.241
233.000	160.135	80.001	19.996	102.801	20.132	-2.149	-0.241
233.500	160.020	80.002	19.996	102.801	20.134	-2.300	-0.239
234.000	159.915	80.001	19.995	102.800	20.132	-2.122	-0.228
234.500	159.749	80.001	19.997	102.800	20.130	-2.025	-0.246
235.000	159.639	80.001	19.997	102.800	20.134	-2.262	-0.273
235.500	159.542	80.001	19.995	102.800	20.134	-2.300	-0.241
236.000	159.365	80.001	19.996	102.799	20.132	-2.117	-0.241
236.500	159.249	80.001	19.996	102.799	20.132	-2.141	-0.284
237.000	159.098	80.001	19.996	102.798	20.135	-2.321	-0.280
237.500	159.014	80.000	19.995	102.798	20.130	-1.998	-0.251
238.000	158.844	80.000	19.997	102.798	20.132	-2.168	-0.245
238.500	158.754	80.001	19.995	102.799	20.133	-2.220	-0.257
239.000	158.601	80.000	19.995	102.799	20.133	-2.212	-0.252
239.500	158.464	80.001	19.996	102.799	20.133	-2.197	-0.266
240.000	158.315	80.002	19.996	102.800	20.134	-2.279	-0.287
240.500	158.217	80.000	19.995	102.800	20.131	-2.082	-0.266
241.000	158.064	80.000	19.995	102.800	20.137	-2.491	-0.249
241.500	157.942	80.001	19.995	102.800	20.134	-2.298	-0.263
242.000	157.843	80.002	19.995	102.800	20.134	-2.273	-0.248
242.500	157.683	79.999	19.997	102.800	20.130	-1.977	-0.240
243.000	157.529	80.001	19.996	102.800	20.134	-2.281	-0.287
243.500	157.395	79.999	19.995	102.801	20.132	-2.151	-0.301
244.000	157.258	80.000	19.995	102.798	20.131	-2.077	-0.280
244.500	157.152	80.000	19.994	102.798	20.132	-2.119	-0.257
245.000	157.029	80.000	19.996	102.798	20.133	-2.214	-0.236
245.500	156.878	80.000	19.994	102.798	20.133	-2.229	-0.252
246.000	156.760	80.000	19.995	102.798	20.131	-2.063	-0.272
246.500	156.595	79.999	19.996	102.801	20.132	-2.174	-0.276
247.000	156.486	79.998	19.995	102.801	20.129	-1.920	-0.278
247.500	156.340	79.999	19.994	102.802	20.130	-2.014	-0.264
248.000	156.210	79.998	19.995	102.802	20.133	-2.233	-0.266
248.500	156.075	79.999	19.995	102.803	20.131	-2.104	-0.271
249.000	155.961	80.000	19.995	102.803	20.133	-2.182	-0.257
249.500	155.834	79.998	19.995	102.803	20.131	-2.058	-0.245
250.000	155.704	80.000	19.994	102.804	20.134	-2.296	-0.249
250.500	155.540	80.000	19.995	102.806	20.131	-2.074	-0.276
251.000	155.433	80.000	19.996	102.806	20.135	-2.371	-0.282
251.500	155.290	79.999	19.996	102.806	20.133	-2.225	-0.260
252.000	155.178	80.000	19.996	102.806	20.136	-2.437	-0.252
252.500	155.041	80.001	19.995	102.805	20.134	-2.325	-0.252
253.000	154.914	79.999	19.995	102.805	20.131	-2.081	-0.257
253.500	154.781	80.001	19.996	102.804	20.135	-2.366	-0.262
254.000	154.639	80.000	19.995	102.805	20.134	-2.325	-0.267
254.500	154.524	80.001	19.996	102.805	20.136	-2.446	-0.265
255.000	154.398	80.001	19.995	102.805	20.136	-2.441	-0.249
255.500	154.216	80.001	19.995	102.806	20.137	-2.485	-0.275
256.000	154.113	80.000	19.995	102.807	20.133	-2.221	-0.297
256.500	153.974	80.000	19.996	102.808	20.132	-2.195	-0.264
257.000	153.866	80.000	19.995	102.808	20.135	-2.360	-0.244
257.500	153.703	80.001	19.997	102.811	20.131	-2.074	-0.259
258.000	153.567	80.000	19.996	102.814	20.130	-1.999	-0.285
258.500	153.449	80.001	19.996	102.814	20.125	-1.650	-0.276
259.000	153.303	80.001	19.995	102.817	20.122	-1.433	-0.259
259.500	153.190	80.001	19.996	102.823	20.115	-0.943	-0.262
260.000	153.007	80.000	19.996	102.825	20.106	-0.381	-0.278
260.500	152.850	80.001	19.995	102.836	20.099	0.150	-0.318
261.000	152.747	80.002	19.996	102.885	20.089	0.826	-0.299
261.500	152.604	80.001	19.996	102.969	20.085	1.122	-0.253
262.000	152.513	80.002	19.996	103.076	20.074	1.875	-0.240
262.500	152.431	80.002	19.996	103.201	20.067	2.393	-0.204
263.000	152.353	80.001	19.996	103.327	20.059	2.957	-0.166
263.500	152.250	80.001	19.995	103.423	20.050	3.542	-0.170
264.000	152.199	80.003	19.995	103.490	20.044	3.948	-0.167
264.500	152.114	80.001	19.997	103.532	20.039	4.317	-0.145
265.000	152.098	79.999	19.995	103.558	20.035	4.581	-0.119
265.500	152.082	80.000	19.996	103.574	20.029	5.022	-0.067
266.000	152.055	80.000	19.995	103.584	20.021	5.558	-0.037
266.500	152.058	80.000	19.996	103.589	20.017	5.871	-0.034
267.000	152.024	79.999	19.996	103.593	20.011	6.297	-0.028
267.500	152.083	79.999	19.995	103.595	20.008	6.510	-0.003
268.000	152.136	80.001	19.996	103.603	20.009	6.400	0.069
268.500	152.194	80.001	19.996	103.609	20.002	6.932	0.112
269.000	152.228	80.000	19.995	103.612	20.000	7.048	0.102
269.500	152.323	80.001	19.994	103.615	19.998	7.198	0.111
270.000	152.372	80.000	19.996	103.621	19.996	7.328	0.136
270.500	152.490	79.998	19.995	103.619	19.995	7.412	0.155
271.000	152.563	79.999	19.994	103.615	19.994	7.445	0.179
271.500	152.671	79.999	19.996	103.607	19.991	7.706	0.186
272.000	152.800	80.000	19.996	103.600	19.990	7.723	0.209
272.500	152.920	80.000	19.994	103.592	19.990	7.732	0.243
273.000	153.079	79.998	19.995	103.586	19.992	7.617	0.264
273.500	153.217	80.001	19.994	103.583	19.987	7.920	0.288
274.000	153.360	79.999	19.995	103.582	19.988	7.889	0.289
274.500	153.571	80.000	19.995	103.581	19.989	7.777	0.317
275.000	153.759	80.001	19.996	103.583	19.989	7.779	0.377
275.500	153.935	79.999	19.995	103.583	19.989	7.833	0.382
276.000	154.103	80.000	19.995	103.583	19.990	7.756	0.354
276.500	154.325	80.000	19.995	103.577	19.995	7.360	0.367
277.000	154.499	79.998	19.997	103.568	19.992	7.608	0.393
277.500	154.738	80.000	19.995	103.552	19.992	7.627	0.404
278.000	154.980	80.001	19.995	103.536	19.991	7.685	0.447
278.500	155.196	80.000	19.996	103.524	19.993	7.564	0.470
279.000	155.470	80.000	19.995	103.519	19.994	7.481	0.474
279.500	155.701	80.000	19.993	103.513	19.994	7.469	0.497
280.000	155.983	80.000	19.995	103.511	19.993	7.510	0.509
280.500	156.241	80.000	19.994	103.511	19.992	7.587	0.527
281.000	156.475	80.000	19.995	103.508	19.992	7.590	0.516
281.500	156.747	80.000	19.996	103.501	19.992	7.629	0.499
282.000	157.024	79.999	19.995	103.500	19.995	7.407	0.528
282.500	157.348	80.001	19.996	103.496	19.996	7.300	0.575
283.000	157.615	79.999	19.995	103.492	19.998	7.188	0.596
283.500	157.942	79.999	19.994	103.486	19.998	7.157	0.592
284.000	158.213	79.999	19.994	103.480	19.999	7.139	0.596
284.500	158.523	79.998	19.996	103.473	19.994	7.487	0.590
285.000	158.843	79.999	19.995	103.469	19.996	7.314	0.606
285.500	159.171	79.998	19.996	103.464	19.999	7.142	0.639
286.000	159.467	79.999	19.994	103.463	19.999	7.119	0.636
286.500	159.793	79.999	19.994	103.461	19.999	7.109	0.623
287.000	160.124	79.999	19.995	103.460	19.997	7.250	0.640
287.500	160.480	79.999	19.995	103.460	19.999	7.136	0.672
288.000	160.773	80.000	19.995	103.461	19.998	7.147	0.668
288.500	161.156	79.999	19.995	103.461	19.998	7.179	0.663
289.000	161.497	80.001	19.995	103.463	20.001	6.979	0.700
289.500	161.885	80.000	19.995	103.463	20.001	7.002	0.726
290.000	162.243	80.000	19.995	103.463	19.998	7.165	0.738
290.500	162.588	79.999	19.994	103.462	20.003	6.820	0.725
291.000	162.971	79.999	19.995	103.462	20.000	7.059	0.716
291.500	163.349	79.999	19.996	103.462	19.998	7.176	0.745
292.000	163.693	79.999	19.994	103.461	20.000	7.073	0.742
292.500	164.074	80.000	19.995	103.460	20.003	6.846	0.723
293.001	164.463	79.998	19.998	103.458	20.000	7.023	0.747
293.501	164.864	80.000	19.995	103.455	20.006	6.636	0.780
294.000	165.241	79.998	19.997	103.451	20.005	6.695	0.784
294.500	165.627	79.998	19.996	103.444	20.005	6.659	0.771
295.000	166.072	79.999	19.995	103.439	20.007	6.565	0.797
295.500	166.439	79.999	19.995	103.437	20.006	6.621	0.821
296.000	166.796	80.000	19.994	103.435	20.010	6.338	0.768
296.500	167.237	79.999	19.995	103.431	20.003	6.826	0.761
297.000	167.618	80.000	19.995	103.432	20.007	6.522	0.810
297.500	168.015	79.999	19.995	103.431	20.008	6.511	0.800
298.000	168.444	79.999	19.996	103.427	20.010	6.351	0.802
298.500	168.824	80.001	19.996	103.423	20.008	6.451	0.818
299.000	169.237	79.999	19.995	103.417	20.008	6.504	0.801
299.500	169.671	79.999	19.995	103.411	20.009	6.377	0.820
300.000	170.100	79.998	19.995	103.407	20.011	6.256	0.855
300.500	170.507	79.999	19.995	103.405	20.010	6.346	0.850
301.000	170.894	79.997	19.996	103.407	20.011	6.246	0.815
301.500	171.335	79.999	19.995	103.412	20.012	6.179	0.810
302.000	171.728	79.999	19.996	103.417	20.013	6.129	0.831
302.500	172.187	80.001	19.996	103.414	20.014	6.073	0.843
303.000	172.625	79.999	19.994	103.410	20.014	6.057	0.875
303.500	173.041	79.998	19.995	103.404	20.017	5.846	0.875
304.000	173.463	79.998	19.996	103.397	20.016	5.938	0.846
304.500	173.934	79.999	19.995	103.390	20.013	6.107	0.866
305.000	174.375	79.998	19.994	103.389	20.018	5.787	0.903
305.500	174.801	79.999	19.995	103.389	20.015	6.021	0.889
306.000	175.239	80.000	19.995	103.388	20.015	5.997	0.865
306.500	175.682	79.998	19.995	103.388	20.017	5.830	0.872
307.000	176.138	79.998	19.995	103.388	20.016	5.912	0.890
307.500	176.590	79.999	19.994	103.388	20.016	5.898	0.904
308.000	177.065	79.999	19.996	103.385	20.018	5.812	0.918
308.500	177.519	79.999	19.995	103.381	20.016	5.884	0.928
309.000	177.982	79.998	19.995	103.381	20.019	5.698	0.923
309.500	178.433	79.999	19.995	103.376	20.020	5.669	0.915
310.000	178.866	80.000	19.995	103.369	20.018	5.786	0.899
310.500	179.317	79.999	19.996	103.366	20.019	5.744	0.884
311.000	179.785	79.999	19.994	103.362	20.021	5.598	0.902
311.500	180.245	79.998	19.995	103.356	20.019	5.708	0.924
312.000	180.730	80.001	19.995	103.353	20.022	5.510	0.937
312.500	181.188	79.999	19.994	103.354	20.020	5.621	0.944
313.000	181.625	80.000	19.995	103.353	20.022	5.506	0.919
313.500	182.101	80.000	19.995	103.352	20.020	5.613	0.904
314.000	182.553	80.000	19.996	103.352	20.026	5.191	0.920
314.500	183.052	80.001	19.995	103.351	20.021	5.592	0.939
315.000	183.489	80.000	19.995	103.351	20.023	5.454	0.944
315.500	183.962	80.001	19.995	103.351	20.024	5.348	0.923
316.000	184.424	80.002	19.995	103.351	20.024	5.332	0.923
316.500	184.920	80.002	19.994	103.349	20.025	5.317	0.947
317.000	185.396	80.000	19.996	103.343	20.027	5.171	0.965
317.500	185.849	79.999	19.995	103.338	20.026	5.234	0.950
318.000	186.339	80.002	19.995	103.331	20.025	5.301	0.936
318.500	186.824	80.001	19.995	103.325	20.029	4.998	0.959
319.000	187.287	80.000	19.995	103.320	20.030	4.967	0.961
319.500	187.721	80.001	19.994	103.318	20.029	4.986	0.923
320.000	188.195	80.001	19.994	103.315	20.029	4.994	0.903
320.500	188.651	80.002	19.994	103.314	20.031	4.838	0.919
321.000	189.142	80.001	19.995	103.312	20.030	4.913	0.938
321.500	189.564	80.001	19.996	103.312	20.033	4.731	0.930
322.000	190.052	80.000	19.996	103.312	20.032	4.823	0.912
322.500	190.504	80.001	19.994	103.311	20.032	4.777	0.925
323.000	190.980	80.001	19.995	103.311	20.031	4.902	0.934
323.500	191.420	80.001	19.995	103.309	20.034	4.679	0.922
324.000	191.857	80.000	19.995	103.309	20.030	4.940	0.896
324.500	192.333	80.000	19.995	103.309	20.035	4.619	0.895
325.000	192.805	80.001	19.994	103.308	20.032	4.780	0.930
325.500	193.256	80.000	19.995	103.308	20.034	4.671	0.935
326.000	193.745	80.001	19.995	103.306	20.033	4.711	0.932
326.500	194.183	79.999	19.996	103.300	20.033	4.707	0.934
327.000	194.626	80.000	19.996	103.298	20.032	4.769	0.905
327.500	195.104	79.999	19.996	103.295	20.035	4.561	0.901
328.000	195.550	79.999	19.995	103.291	20.035	4.625	0.922
328.500	196.002	79.998	19.995	103.290	20.036	4.538	0.911
329.000	196.496	79.999	19.995	103.289	20.038	4.371	0.922
329.500	196.948	79.999	19.995	103.284	20.035	4.609	0.946
330.000	197.351	79.998	19.995	103.282	20.033	4.751	0.900
330.500	197.839	79.998	19.995	103.278	20.038	4.413	0.873
331.000	198.311	79.999	19.996	103.275	20.036	4.557	0.925
331.500	198.741	79.999	19.995	103.276	20.036	4.524	0.931
332.000	199.185	79.999	19.995	103.276	20.039	4.333	0.888
332.500	199.654	79.999	19.996	103.276	20.039	4.344	0.893
333.000	200.097	80.000	19.996	103.281	20.036	4.536	0.912
333.500	200.532	80.000	19.995	103.283	20.040	4.244	0.895
334.000	200.979	80.000	19.995	103.282	20.038	4.418	0.880
334.500	201.454	79.999	19.995	103.282	20.038	4.374	0.902
335.000	201.896	79.999	19.995	103.279	20.041	4.199	0.920
335.500	202.344	80.000	19.995	103.274	20.039	4.349	0.904
336.000	202.791	80.000	19.995	103.273	20.038	4.393	0.892
336.500	203.239	80.000	19.996	103.272	20.039	4.309	0.895
337.000	203.670	79.999	19.997	103.271	20.044	3.975	0.887
337.500	204.123	80.000	19.995	103.271	20.043	4.025	0.881
338.000	204.517	80.001	19.995	103.271	20.039	4.290	0.865
338.500	205.021	80.001	19.995	103.270	20.042	4.105	0.872
339.000	205.473	80.001	19.995	103.268	20.042	4.073	0.927
339.500	205.915	80.002	19.996	103.267	20.044	3.996	0.926
340.000	206.368	80.002	19.996	103.264	20.043	4.003	0.895
340.500	206.785	80.001	19.997	103.261	20.042	4.080	0.882
341.000	207.211	80.001	19.995	103.258	20.046	3.833	0.856
341.500	207.730	80.002	19.994	103.257	20.042	4.132	0.894
342.000	208.081	80.002	19.995	103.258	20.043	4.034	0.907
342.500	208.569	80.000	19.995	103.257	20.046	3.800	0.854
343.000	209.001	80.002	19.994	103.259	20.046	3.842	0.880
343.500	209.459	80.003	19.994	103.255	20.044	3.963	0.906
344.000	209.870	80.003	19.995	103.251	20.048	3.683	0.879
344.500	210.326	80.002	19.994	103.245	20.045	3.913	0.868
345.000	210.761	80.002	19.995	103.240	20.043	4.011	0.879
345.500	211.194	80.003	19.995	103.235	20.046	3.808	0.880
346.000	211.619	80.003	19.996	103.236	20.047	3.741	0.863
346.500	212.021	80.002	19.996	103.236	20.043	4.015	0.842
347.000	212.435	80.003	19.996	103.237	20.045	3.883	0.821
347.500	212.900	80.002	19.994	103.236	20.046	3.858	0.848
348.000	213.331	80.002	19.995	103.238	20.045	3.886	0.888
348.500	213.811	80.002	19.995	103.238	20.046	3.815	0.903
349.000	214.206	80.000	19.995	103.237	20.048	3.673	0.893
349.500	214.634	80.001	19.996	103.234	20.047	3.779	0.849
350.000	215.060	80.001	19.996	103.233	20.047	3.752	0.838
350.500	215.475	80.000	19.997	103.231	20.048	3.707	0.848
351.000	215.921	80.001	19.996	103.228	20.049	3.638	0.851
351.500	216.328	80.000	19.996	103.227	20.046	3.861	0.857
352.000	216.751	80.000	19.996	103.227	20.047	3.774	0.842
352.500	217.220	79.999	19.996	103.227	20.047	3.734	0.861
353.000	217.635	79.999	19.998	103.227	20.046	3.836	0.887
353.500	218.060	80.000	19.996	103.228	20.047	3.769	0.862
354.000	218.499	79.998	19.997	103.231	20.045	3.865	0.852
354.500	218.890	80.000	19.997	103.234	20.047	3.777	0.847
355.000	219.306	79.998	19.997	103.234	20.046	3.826	0.818
355.500	219.738	79.999	19.996	103.234	20.046	3.832	0.827
356.000	220.163	79.998	19.997	103.234	20.048	3.713	0.853
356.500	220.562	79.998	19.997	103.231	20.048	3.705	0.841
357.000	220.978	79.999	19.997	103.228	20.048	3.695	0.820
357.500	221.399	79.998	19.998	103.228	20.047	3.747	0.826
358.000	221.793	79.999	19.996	103.228	20.047	3.774	0.826
358.500	222.195	79.999	19.996	103.228	20.047	3.724	0.805
359.000	222.671	79.999	19.996	103.228	20.045	3.891	0.837
359.500	223.066	79.999	19.996	103.228	20.047	3.772	0.874
360.000	223.460	79.999	19.996	103.226	20.049	3.588	0.830
360.500	223.854	79.999	19.996	103.224	20.048	3.697	0.789
361.000	224.257	79.998	19.996	103.218	20.047	3.747	0.792
361.500	224.671	79.999	19.996	103.212	20.053	3.327	0.807
362.000	225.096	80.000	19.996	103.209	20.050	3.576	0.828
362.500	225.494	79.999	19.996	103.211	20.050	3.568	0.831
363.000	225.909	79.998	19.995	103.210	20.051	3.484	0.818
363.500	226.298	80.000	19.996	103.215	20.050	3.528	0.809
364.000	226.706	80.000	19.996	103.220	20.048	3.664	0.801
364.500	227.094	79.999	19.995	103.221	20.049	3.593	0.797
365.000	227.518	80.000	19.996	103.218	20.049	3.645	0.805
365.500	227.874	79.999	19.995	103.220	20.049	3.641	0.796
366.000	228.319	80.000	19.996	103.218	20.047	3.756	0.790
366.500	228.701	79.999	19.995	103.216	20.051	3.496	0.814
367.000	229.105	79.999	19.994	103.210	20.050	3.536	0.806
367.500	229.497	79.999	19.995	103.206	20.046	3.795	0.791
368.000	229.887	80.000	19.995	103.200	20.053	3.328	0.789
368.500	230.282	79.999	19.995	103.195	20.049	3.630	0.784
369.000	230.682	80.001	19.995	103.191	20.051	3.503	0.790
369.500	231.066	80.000	19.995	103.191	20.051	3.447	0.789
370.000	231.490	80.000	19.995	103.191	20.050	3.566	0.796
370.500	231.856	79.998	19.995	103.191	20.052	3.382	0.799
371.000	232.213	80.000	19.994	103.190	20.050	3.540	0.757
371.500	232.605	80.000	19.995	103.190	20.051	3.451	0.736
372.000	232.996	80.000	19.995	103.188	20.050	3.524	0.766
372.500	233.354	80.000	19.995	103.187	20.049	3.584	0.766
373.000	233.745	80.000	19.994	103.187	20.051	3.470	0.749
373.500	234.148	80.000	19.994	103.189	20.053	3.359	0.772
374.000	234.466	79.999	19.995	103.189	20.055	3.212	0.757
374.500	234.864	80.001	19.995	103.190	20.054	3.244	0.718
375.000	235.232	80.000	19.995	103.188	20.052	3.411	0.741
375.501	235.640	80.000	19.995	103.187	20.054	3.298	0.771
376.000	236.003	80.000	19.995	103.186	20.053	3.315	0.773
376.500	236.346	79.999	19.994	103.186	20.056	3.146	0.738
377.000	236.722	80.000	19.994	103.183	20.053	3.338	0.713
377.500	237.098	79.999	19.995	103.186	20.054	3.275	0.736
378.000	237.435	80.000	19.994	103.184	20.057	3.046	0.733
378.500	237.830	79.999	19.995	103.183	20.055	3.221	0.723
379.000	238.206	80.000	19.995	103.178	20.055	3.171	0.751
379.500	238.562	79.999	19.995	103.180	20.056	3.140	0.751
380.000	238.892	80.000	19.995	103.181	20.056	3.157	0.709
380.500	239.291	80.000	19.994	103.183	20.055	3.201	0.708
381.000	239.585	79.999	19.995	103.185	20.054	3.257	0.711
381.500	239.971	80.000	19.995	103.187	20.054	3.284	0.686
382.000	240.329	79.999	19.995	103.187	20.054	3.268	0.712
382.500	240.700	79.999	19.994	103.182	20.055	3.215	0.737
383.000	241.036	79.998	19.995	103.180	20.057	3.069	0.718
383.500	241.397	79.999	19.995	103.180	20.054	3.234	0.701
384.000	241.763	79.999	19.995	103.181	20.057	3.077	0.712
384.500	242.109	79.999	19.995	103.180	20.055	3.171	0.720
385.000	242.431	79.999	19.996	103.182	20.058	3.010	0.690
385.500	242.811	79.998	19.994	103.183	20.057	3.036	0.685
386.000	243.158	79.998	19.995	103.179	20.057	3.071	0.714
386.500	243.499	79.998	19.994	103.179	20.056	3.105	0.708
387.000	243.831	80.000	19.994	103.180	20.054	3.280	0.681
387.500	244.206	79.999	19.996	103.180	20.057	3.067	0.690
388.000	244.587	79.998	19.996	103.178	20.056	3.125	0.731
388.500	244.920	79.999	19.996	103.175	20.055	3.169	0.735
389.000	245.253	79.999	19.995	103.171	20.058	3.006	0.690
389.500	245.572	79.999	19.995	103.170	20.059	2.939	0.659
390.000	245.930	80.000	19.995	103.167	20.056	3.161	0.664
390.500	246.285	79.999	19.995	103.164	20.057	3.048	0.695
391.000	246.645	80.000	19.995	103.162	20.058	3.008	0.714
391.500	246.968	79.998	19.995	103.163	20.057	3.092	0.698
392.000	247.285	79.999	19.995	103.159	20.056	3.140	0.661
392.500	247.621	79.998	19.995	103.159	20.056	3.125	0.647
393.000	247.946	79.999	19.995	103.160	20.058	2.967	0.657
393.500	248.297	80.000	19.995	103.163	20.057	3.054	0.669
394.000	248.621	79.999	19.995	103.163	20.059	2.908	0.676
394.500	248.977	79.999	19.995	103.163	20.060	2.875	0.677
395.000	249.309	79.999	19.994	103.163	20.056	3.105	0.684
395.500	249.642	79.999	19.995	103.161	20.057	3.028	0.676
396.000	249.992	80.000	19.994	103.159	20.056	3.105	0.674
396.500	250.340	79.999	19.996	103.158	20.060	2.833	0.690
397.000	250.647	80.001	19.995	103.157	20.058	2.958	0.677
397.500	250.981	79.999	19.995	103.156	20.058	3.017	0.648
398.000	251.331	80.000	19.994	103.156	20.059	2.938	0.662
398.500	251.661	80.000	19.994	103.156	20.058	3.005	0.682
399.000	251.988	80.001	19.993	103.156	20.057	3.067	0.669
399.500	252.284	80.000	19.994	103.155	20.058	2.961	0.640
400.000	252.615	80.000	19.994	103.156	20.058	3.024	0.625
400.500	252.969	80.001	19.995	103.156	20.057	3.038	0.656
401.000	253.278	80.000	19.995	103.156	20.057	3.036	0.674
401.500	253.606	80.002	19.995	103.156	20.056	3.159	0.650
402.000	253.898	80.002	19.995	103.156	20.061	2.774	0.628
402.500	254.244	80.001	19.994	103.155	20.057	3.034	0.629
403.000	254.526	80.000	19.995	103.156	20.057	3.051	0.633
403.500	254.886	80.001	19.994	103.158	20.060	2.819	0.635
404.000	255.167	80.003	19.995	103.157	20.061	2.766	0.642
404.500	255.522	80.003	19.994	103.157	20.062	2.743	0.639
405.000	255.831	80.002	19.995	103.156	20.060	2.850	0.650
405.500	256.155	80.002	19.994	103.152	20.058	2.990	0.649
406.000	256.367	80.002	19.995	103.150	20.060	2.821	0.584
406.500	256.746	80.002	19.995	103.149	20.060	2.861	0.563
407.000	257.064	80.002	19.995	103.148	20.064	2.539	0.644
407.500	257.370	80.002	19.994	103.149	20.061	2.790	0.660
408.000	257.691	80.001	19.995	103.149	20.059	2.900	0.626
408.500	258.005	80.002	19.995	103.149	20.059	2.915	0.632
409.000	258.298	80.002	19.995	103.148	20.061	2.794	0.621
409.500	258.645	80.002	19.995	103.147	20.058	2.955	0.623
410.000	258.938	80.001	19.996	103.141	20.061	2.758	0.640
410.500	259.259	80.001	19.995	103.136	20.064	2.553	0.627
411.000	259.531	80.002	19.995	103.134	20.063	2.629	0.603
411.500	259.829	80.002	19.995	103.136	20.063	2.612	0.582
412.000	260.142	80.002	19.994	103.137	20.062	2.691	0.591
412.500	260.440	80.002	19.995	103.143	20.060	2.844	0.611
413.000	260.712	80.002	19.996	103.149	20.058	2.963	0.590
413.500	261.030	80.001	19.996	103.151	20.062	2.706	0.579
414.000	261.312	80.001	19.996	103.149	20.064	2.570	0.595
414.500	261.596	80.000	19.995	103.146	20.059	2.911	0.583
415.000	261.914	80.000	19.996	103.145	20.064	2.562	0.584
415.500	262.215	80.000	19.996	103.144	20.063	2.675	0.610
416.000	262.497	80.000	19.996	103.140	20.062	2.698	0.601
416.500	262.803	80.000	19.995	103.137	20.060	2.817	0.586
417.000	263.104	80.000	19.996	103.138	20.063	2.610	0.598
417.500	263.412	80.001	19.997	103.133	20.060	2.876	0.608
418.000	263.731	80.000	19.996	103.132	20.064	2.579	0.618
418.500	264.016	80.000	19.995	103.136	20.061	2.786	0.615
419.000	264.270	80.000	19.996	103.140	20.062	2.738	0.571
419.500	264.559	80.000	19.996	103.140	20.060	2.853	0.541
420.000	264.858	80.001	19.995	103.143	20.062	2.746	0.565
420.500	265.184	80.001	19.996	103.139	20.061	2.800	0.606
421.000	265.478	80.001	19.996	103.134	20.061	2.752	0.623
421.500	265.770	80.001	19.995	103.128	20.062	2.696	0.603
422.000	266.023	80.002	19.996	103.125	20.062	2.688	0.566
422.500	266.280	80.001	19.996	103.123	20.061	2.750	0.528
423.000	266.623	80.003	19.995	103.125	20.061	2.757	0.555
423.500	266.910	80.001	19.995	103.131	20.063	2.619	0.615
424.000	267.204	80.002	19.997	103.132	20.063	2.644	0.605
424.500	267.468	80.002	19.995	103.128	20.064	2.568	0.570
425.000	267.766	80.002	19.996	103.124	20.066	2.455	0.560
425.500	268.016	80.003	19.995	103.120	20.065	2.518	0.555
426.000	268.310	80.002	19.995	103.113	20.064	2.595	0.546
426.500	268.583	80.002	19.996	103.110	20.065	2.526	0.556
427.000	268.859	80.002	19.996	103.110	20.062	2.681	0.558
427.500	269.139	80.004	19.996	103.111	20.063	2.612	0.553
428.000	269.450	80.004	19.995	103.112	20.063	2.612	0.574
428.500	269.736	80.001	19.995	103.118	20.064	2.558	0.594
429.000	269.992	80.002	19.996	103.120	20.065	2.495	0.570
429.500	270.237	80.001	19.995	103.120	20.063	2.631	0.521
430.000	270.564	80.003	19.996	103.119	20.068	2.267	0.536
430.500	270.840	80.003	19.996	103.122	20.068	2.317	0.588
431.000	271.115	80.001	19.995	103.119	20.063	2.658	0.577
431.500	271.423	80.002	19.996	103.119	20.063	2.641	0.567
432.000	271.705	80.002	19.996	103.118	20.067	2.384	0.587
432.500	271.991	80.002	19.995	103.119	20.066	2.432	0.579
433.000	272.215	80.001	19.996	103.115	20.064	2.579	0.539
433.500	272.482	80.003	19.995	103.113	20.064	2.589	0.501
434.000	272.770	80.000	19.995	103.112	20.064	2.541	0.523
434.500	273.034	80.001	19.996	103.112	20.065	2.508	0.553
435.000	273.308	80.002	19.995	103.112	20.064	2.560	0.545
435.500	273.614	80.001	19.996	103.116	20.065	2.512	0.559
436.000	273.880	80.000	19.994	103.120	20.062	2.746	0.576
436.500	274.118	80.000	19.996	103.123	20.064	2.583	0.538
437.000	274.394	79.999	19.996	103.126	20.064	2.554	0.509
437.500	274.648	79.998	19.995	103.126	20.063	2.642	0.522
438.000	274.955	79.999	19.996	103.122	20.065	2.533	0.545
438.500	275.183	79.999	19.996	103.119	20.065	2.526	0.548
439.000	275.486	79.999	19.997	103.116	20.064	2.589	0.533
439.500	275.804	80.000	19.996	103.114	20.062	2.688	0.577
440.000	276.018	79.999	19.996	103.114	20.064	2.541	0.577
440.500	276.283	79.999	19.996	103.114	20.063	2.663	0.505
441.000	276.545	79.998	19.995	103.116	20.060	2.821	0.503
441.500	276.814	79.999	19.996	103.117	20.062	2.729	0.530
442.000	277.080	79.999	19.995	103.118	20.062	2.708	0.533
442.500	277.327	79.998	19.996	103.120	20.067	2.372	0.524
443.000	277.614	79.998	19.996	103.121	20.063	2.646	0.524
443.500	277.844	79.999	19.996	103.122	20.062	2.729	0.525
444.000	278.111	79.999	19.995	103.122	20.063	2.658	0.507
444.500	278.376	79.999	19.996	103.122	20.066	2.458	0.514
445.000	278.618	79.999	19.996	103.120	20.061	2.763	0.520
445.500	278.894	79.998	19.996	103.120	20.064	2.554	0.513
446.000	279.153	80.000	19.996	103.118	20.066	2.462	0.526
446.500	279.413	79.999	19.997	103.116	20.063	2.612	0.527
447.000	279.641	79.999	19.996	103.114	20.064	2.541	0.504
447.500	279.951	79.998	19.996	103.114	20.065	2.537	0.513
448.000	280.151	79.997	19.997	103.113	20.065	2.522	0.524
448.500	280.435	80.000	19.997	103.115	20.062	2.731	0.496
449.000	280.665	79.999	19.996	103.116	20.065	2.478	0.499
449.500	280.920	79.998	19.997	103.117	20.066	2.424	0.500
450.000	281.160	79.999	19.997	103.117	20.066	2.437	0.490
450.500	281.395	79.999	19.996	103.118	20.064	2.560	0.485
451.000	281.654	79.999	19.997	103.116	20.063	2.675	0.485
451.500	281.908	79.999	19.998	103.115	20.064	2.550	0.504
452.000	282.165	79.999	19.996	103.115	20.064	2.598	0.512
452.500	282.417	79.999	19.996	103.114	20.063	2.619	0.510
453.000	282.657	79.999	19.996	103.115	20.063	2.610	0.501
453.500	282.903	79.999	19.996	103.115	20.062	2.729	0.489
454.000	283.146	80.000	19.996	103.115	20.065	2.506	0.488
454.500	283.409	79.998	19.996	103.115	20.065	2.503	0.497
455.000	283.664	79.999	19.996	103.115	20.062	2.706	0.511
455.500	283.933	79.999	19.997	103.114	20.063	2.633	0.521
456.000	284.209	79.999	19.996	103.115	20.066	2.401	0.535
456.500	284.410	79.999	19.995	103.115	20.064	2.589	0.512
457.000	284.679	79.999	19.996	103.115	20.065	2.501	0.474
457.500	284.922	80.000	19.996	103.116	20.064	2.545	0.491
458.000	285.184	79.999	19.996	103.116	20.064	2.583	0.508
458.500	285.463	79.999	19.996	103.115	20.064	2.606	0.523
459.000	285.673	79.999	19.996	103.115	20.067	2.397	0.515
459.500	285.916	80.000	19.995	103.116	20.063	2.638	0.471
460.000	286.171	80.000	19.995	103.116	20.062	2.707	0.475
460.500	286.422	79.999	19.995	103.115	20.063	2.614	0.501
461.000	286.665	79.997	19.995	103.116	20.061	2.815	0.500
461.500	286.886	79.998	19.995	103.116	20.065	2.516	0.480
462.000	287.150	79.999	19.995	103.116	20.066	2.466	0.475
462.500	287.369	79.999	19.994	103.116	20.064	2.579	0.484
463.000	287.616	79.998	19.994	103.117	20.065	2.529	0.475
463.500	287.860	79.999	19.995	103.117	20.063	2.658	0.479
464.000	288.076	79.998	19.995	103.117	20.063	2.675	0.476
464.500	288.371	79.999	19.995	103.117	20.061	2.798	0.485
465.000	288.584	79.999	19.995	103.119	20.063	2.665	0.509
465.500	288.851	79.999	19.996	103.120	20.063	2.615	0.494
466.000	289.076	79.999	19.995	103.120	20.063	2.637	0.486
466.500	289.319	79.998	19.994	103.120	20.062	2.719	0.480
467.000	289.551	79.999	19.995	103.120	20.062	2.736	0.471
467.500	289.800	79.998	19.995	103.119	20.064	2.579	0.478
468.000	290.054	80.000	19.995	103.116	20.062	2.740	0.492
468.500	290.304	80.000	19.995	103.116	20.061	2.771	0.504
469.000	290.547	79.999	19.995	103.116	20.062	2.682	0.499
469.500	290.786	80.000	19.995	103.114	20.064	2.602	0.487
470.000	291.026	79.999	19.996	103.114	20.063	2.671	0.480
470.500	291.270	80.001	19.995	103.114	20.061	2.792	0.481
471.000	291.536	79.999	19.995	103.114	20.062	2.703	0.497
471.500	291.776	79.998	19.996	103.114	20.061	2.790	0.508
472.000	292.003	79.999	19.996	103.114	20.061	2.784	0.486
472.500	292.251	79.999	19.995	103.114	20.062	2.709	0.471
473.000	292.510	79.999	19.996	103.113	20.061	2.813	0.491
473.500	292.753	80.000	19.995	103.113	20.061	2.790	0.504
474.000	292.963	79.999	19.996	103.112	20.061	2.803	0.477
474.500	293.194	79.999	19.996	103.113	20.060	2.872	0.447
475.000	293.460	80.000	19.996	103.114	20.061	2.752	0.469
475.500	293.701	80.000	19.996	103.114	20.060	2.844	0.502
476.000	293.938	79.999	19.997	103.114	20.058	2.991	0.492
476.500	294.162	80.000	19.996	103.113	20.061	2.750	0.469
477.000	294.429	79.999	19.995	103.113	20.059	2.928	0.476
477.500	294.639	80.001	19.996	103.113	20.061	2.807	0.484
478.000	294.905	80.000	19.995	103.113	20.059	2.903	0.477
478.500	295.156	79.999	19.995	103.113	20.060	2.855	0.496
479.000	295.361	80.000	19.996	103.113	20.060	2.859	0.487
479.500	295.586	80.000	19.994	103.112	20.061	2.799	0.443
480.000	295.830	80.001	19.995	103.111	20.058	2.995	0.449
480.500	296.074	80.001	19.996	103.107	20.058	2.995	0.479
481.000	296.305	80.000	19.995	103.107	20.057	3.041	0.482
481.500	296.575	80.001	19.995	103.107	20.061	2.786	0.488
482.000	296.775	80.001	19.994	103.108	20.058	3.004	0.485
482.500	297.014	80.001	19.995	103.108	20.058	2.970	0.455
483.000	297.251	80.001	19.996	103.113	20.057	3.062	0.458
483.500	297.470	80.000	19.995	103.112	20.058	2.957	0.466
484.000	297.715	80.001	19.995	103.114	20.055	3.223	0.460
484.500	297.988	80.001	19.995	103.113	20.054	3.288	0.491
485.000	298.229	80.002	19.995	103.115	20.055	3.223	0.516
485.500	298.497	80.001	19.995	103.115	20.057	3.035	0.511
486.000	298.688	80.001	19.995	103.115	20.056	3.139	0.484
486.500	298.930	80.001	19.995	103.114	20.054	3.246	0.447
487.000	299.193	80.002	19.996	103.115	20.056	3.114	0.469
487.500	299.454	80.002	19.995	103.115	20.051	3.476	0.514
488.000	299.654	80.001	19.996	103.117	20.053	3.361	0.492
488.500	299.901	80.001	19.995	103.118	20.052	3.389	0.454
489.000	300.145	80.001	19.995	103.117	20.052	3.393	0.469
489.500	300.385	80.002	19.996	103.117	20.054	3.238	0.488
490.000	300.627	80.002	19.996	103.115	20.053	3.359	0.483
490.500	300.871	80.002	19.995	103.113	20.049	3.610	0.484
491.000	301.099	80.002	19.995	103.112	20.049	3.612	0.479
491.500	301.339	80.001	19.995	103.111	20.052	3.426	0.470
492.000	301.576	80.000	19.995	103.108	20.051	3.445	0.472
492.500	301.834	80.001	19.996	103.108	20.051	3.508	0.486
493.000	302.059	80.000	19.995	103.109	20.052	3.432	0.489
493.500	302.293	80.002	19.995	103.109	20.050	3.568	0.471
494.000	302.514	80.002	19.995	103.109	20.050	3.528	0.457
494.500	302.794	80.002	19.995	103.112	20.053	3.330	0.478
495.000	303.013	80.002	19.995	103.112	20.052	3.390	0.500
495.500	303.280	80.000	19.995	103.112	20.048	3.652	0.493
496.000	303.521	80.000	19.995	103.113	20.051	3.451	0.497
496.500	303.771	80.001	19.995	103.113	20.050	3.579	0.499
497.000	304.011	80.001	19.995	103.113	20.047	3.734	0.490
497.500	304.231	80.000	19.994	103.112	20.048	3.654	0.475
498.000	304.471	80.002	19.995	103.112	20.046	3.807	0.460
498.500	304.679	80.001	19.996	103.112	20.048	3.666	0.454
499.000	304.951	80.001	19.995	103.110	20.045	3.886	0.464
499.500	305.189	80.001	19.994	103.109	20.047	3.752	0.495
500.000	305.464	80.000	19.995	103.111	20.044	3.938	0.512
500.500	305.636	80.000	19.994	103.112	20.045	3.920	0.480
501.000	305.887	80.001	19.995	103.113	20.045	3.886	0.435
501.500	306.168	80.001	19.995	103.114	20.046	3.848	0.478
502.000	306.369	80.002	19.995	103.116	20.048	3.696	0.507
502.500	306.596	80.002	19.995	103.116	20.048	3.690	0.455
503.000	306.846	80.001	19.995	103.114	20.046	3.846	0.452
503.500	307.111	80.002	19.995	103.114	20.044	3.986	0.496
504.000	307.324	80.002	19.995	103.114	20.042	4.091	0.497
504.500	307.556	80.002	19.994	103.115	20.045	3.871	0.461
505.000	307.801	80.002	19.995	103.115	20.043	4.012	0.460
505.500	308.045	80.001	19.995	103.115	20.040	4.219	0.483
506.000	308.319	80.002	19.995	103.112	20.041	4.194	0.504
506.500	308.545	80.001	19.995	103.111	20.039	4.344	0.509
507.000	308.797	80.003	19.995	103.110	20.038	4.359	0.489
507.500	309.011	80.002	19.996	103.110	20.037	4.470	0.473
508.000	309.266	80.002	19.995	103.110	20.039	4.323	0.467
508.500	309.544	80.002	19.994	103.113	20.036	4.509	0.500
509.000	309.781	80.002	19.994	103.114	20.035	4.593	0.524
509.500	310.013	80.002	19.995	103.115	20.031	4.833	0.492
510.000	310.234	80.002	19.995	103.116	20.034	4.633	0.461
510.500	310.467	80.001	19.994	103.116	20.032	4.789	0.454
511.000	310.702	80.003	19.995	103.116	20.033	4.733	0.461
511.500	310.967	80.002	19.995	103.116	20.031	4.881	0.484
512.000	311.236	80.001	19.995	103.116	20.030	4.940	0.517
512.500	311.461	80.002	19.993	103.116	20.030	4.911	0.514
513.000	311.709	80.001	19.996	103.116	20.030	4.917	0.484
513.500	311.935	80.002	19.995	103.115	20.031	4.838	0.473
514.000	312.183	80.002	19.995	103.115	20.029	4.980	0.474
514.500	312.463	80.001	19.995	103.115	20.029	5.032	0.501
515.000	312.714	80.002	19.994	103.114	20.029	5.015	0.529
515.500	312.975	79.999	19.995	103.113	20.029	4.973	0.522
516.000	313.192	80.000	19.995	103.113	20.027	5.112	0.495
516.500	313.467	80.000	19.995	103.113	20.028	5.063	0.485
517.000	313.670	80.002	19.995	103.114	20.028	5.088	0.485
517.500	313.922	80.001	19.996	103.114	20.024	5.348	0.466
518.000	314.167	79.999	19.995	103.114	20.027	5.139	0.476
518.500	314.406	80.001	19.996	103.114	20.022	5.467	0.491
519.000	314.692	80.000	19.995	103.115	20.024	5.331	0.504
519.500	314.910	79.999	19.995	103.115	20.021	5.549	0.514
520.000	315.107	79.999	19.995	103.116	20.021	5.572	0.459
520.500	315.366	80.000	19.996	103.117	20.024	5.360	0.436
521.000	315.617	80.000	19.996	103.117	20.021	5.561	0.484
521.500	315.846	80.000	19.996	103.118	20.023	5.425	0.495
522.000	316.102	80.001	19.997	103.118	20.024	5.381	0.483
522.500	316.377	79.999	19.994	103.118	20.021	5.580	0.508
523.000	316.601	79.998	19.995	103.117	20.021	5.540	0.515
523.500	316.826	79.999	19.995	103.118	20.021	5.565	0.474
524.000	317.056	79.998	19.995	103.118	20.021	5.545	0.452
524.500	317.347	79.999	19.995	103.118	20.017	5.829	0.488
525.000	317.566	80.000	19.995	103.120	20.017	5.871	0.515
525.500	317.821	80.000	19.995	103.119	20.017	5.819	0.492
526.000	318.059	80.000	19.995	103.119	20.016	5.892	0.483
526.500	318.310	79.999	19.995	103.119	20.013	6.089	0.491
527.000	318.571	79.999	19.995	103.119	20.011	6.235	0.501
527.500	318.849	79.998	19.995	103.118	20.012	6.199	0.526
528.000	319.085	79.998	19.995	103.118	20.010	6.325	0.527
528.500	319.310	80.000	19.995	103.119	20.009	6.379	0.487
529.000	319.535	79.999	19.995	103.120	20.009	6.379	0.455
529.500	319.798	79.999	19.994	103.120	20.008	6.465	0.469
530.000	320.063	79.999	19.995	103.120	20.010	6.354	0.508
530.500	320.312	79.999	19.995	103.120	20.007	6.544	0.521
531.000	320.573	79.999	19.995	103.121	20.008	6.446	0.512
531.500	320.802	79.999	19.995	103.120	20.003	6.793	0.500
532.000	321.039	80.000	19.995	103.120	20.005	6.693	0.478
532.500	321.316	79.998	19.994	103.119	20.005	6.662	0.490
533.000	321.533	80.000	19.995	103.119	20.001	6.915	0.504
533.501	321.812	79.999	19.996	103.118	20.000	6.998	0.495
534.001	322.017	80.001	19.996	103.118	20.002	6.910	0.490
534.500	322.315	80.000	19.997	103.117	20.000	7.053	0.493
535.000	322.552	79.998	19.996	103.118	19.996	7.312	0.519
535.500	322.829	80.000	19.997	103.118	19.997	7.253	0.524
536.000	323.019	79.999	19.996	103.118	19.995	7.354	0.491
536.500	323.315	79.999	19.995	103.117	19.994	7.406	0.477
537.000	323.546	80.000	19.996	103.116	19.994	7.402	0.506
537.500	323.844	80.000	19.997	103.115	19.994	7.423	0.528
538.000	324.046	80.000	19.996	103.114	19.993	7.473	0.515
538.500	324.315	79.999	19.996	103.113	19.991	7.666	0.486
539.000	324.553	79.999	19.996	103.113	19.991	7.651	0.489
539.500	324.810	80.000	19.995	103.114	19.985	8.030	0.501
540.000	325.064	79.999	19.997	103.114	19.987	7.904	0.503
540.500	325.326	80.001	19.994	103.114	19.985	8.050	0.513
541.000	325.553	80.000	19.996	103.114	19.987	7.912	0.502
541.500	325.854	80.000	19.996	103.114	19.982	8.255	0.508
542.000	326.086	79.999	19.996	103.114	19.981	8.335	0.531
542.500	326.299	80.000	19.996	103.113	19.981	8.373	0.489
543.000	326.564	79.998	19.997	103.114	19.984	8.117	0.461
543.500	326.814	79.999	19.996	103.115	19.980	8.429	0.497
544.000	327.077	80.000	19.996	103.114	19.978	8.575	0.514
544.500	327.348	79.998	19.996	103.114	19.973	8.868	0.524
545.000	327.586	79.999	19.996	103.115	19.974	8.794	0.522
545.500	327.860	80.000	19.996	103.115	19.976	8.667	0.511
546.000	328.085	79.999	19.997	103.114	19.975	8.757	0.506
546.500	328.351	79.999	19.997	103.115	19.972	8.997	0.495
547.000	328.616	79.999	19.996	103.114	19.969	9.207	0.510
547.500	328.885	79.999	19.996	103.115	19.971	9.010	0.532
548.000	329.133	80.000	19.996	103.113	19.967	9.278	0.526
548.500	329.370	79.999	19.996	103.114	19.967	9.310	0.501
549.000	329.621	80.000	19.995	103.113	19.965	9.420	0.486
549.500	329.897	79.999	19.997	103.114	19.965	9.424	0.507
550.000	330.134	79.999	19.996	103.113	19.963	9.625	0.519
550.500	330.417	80.000	19.996	103.115	19.962	9.684	0.516
551.000	330.661	79.998	19.996	103.116	19.959	9.845	0.524
551.500	330.944	79.999	19.996	103.116	19.961	9.736	0.528
552.000	331.175	79.999	19.997	103.115	19.961	9.730	0.521
552.500	331.415	79.998	19.995	103.116	19.959	9.903	0.492
553.000	331.712	79.999	19.997	103.115	19.954	10.217	0.504
553.500	331.929	80.000	19.995	103.114	19.953	10.299	0.526
554.000	332.215	79.999	19.996	103.114	19.952	10.322	0.509
554.500	332.429	80.000	19.995	103.115	19.949	10.593	0.502
555.000	332.715	79.999	19.995	103.115	19.949	10.554	0.500
555.500	332.983	79.999	19.995	103.119	19.945	10.866	0.527
556.000	333.234	80.000	19.996	103.123	19.945	10.842	0.537
556.500	333.517	79.998	19.995	103.124	19.943	11.014	0.527
557.001	333.739	80.000	19.996	103.123	19.940	11.186	0.520
557.500	334.002	80.000	19.996	103.123	19.941	11.150	0.495
558.000	334.264	80.001	19.995	103.118	19.939	11.280	0.505
558.500	334.489	80.001	19.995	103.114	19.937	11.430	0.506
559.000	334.792	79.999	19.996	103.115	19.933	11.660	0.508
559.500	335.034	80.001	19.995	103.115	19.934	11.614	0.537
560.000	335.294	80.001	19.995	103.116	19.929	11.978	0.524
560.500	335.566	80.001	19.994	103.116	19.929	11.987	0.517
561.000	335.829	80.001	19.995	103.116	19.925	12.206	0.533
561.500	336.097	80.001	19.995	103.116	19.927	12.062	0.533
562.000	336.327	80.001	19.995	103.115	19.921	12.516	0.515
562.500	336.577	80.001	19.996	103.115	19.921	12.482	0.489
563.000	336.832	80.001	19.995	103.115	19.921	12.514	0.492
563.500	337.093	80.001	19.995	103.116	19.918	12.729	0.511
564.000	337.372	80.001	19.995	103.116	19.917	12.787	0.528
564.500	337.627	80.001	19.996	103.116	19.913	13.051	0.536
565.000	337.886	80.001	19.994	103.116	19.909	13.333	0.524
565.500	338.153	80.001	19.995	103.116	19.910	13.254	0.520
566.000	338.399	80.002	19.995	103.116	19.908	13.438	0.520
566.500	338.683	80.002	19.996	103.115	19.905	13.599	0.522
567.000	338.876	80.001	19.995	103.115	19.901	13.894	0.504
567.500	339.201	80.000	19.995	103.115	19.901	13.917	0.497
568.000	339.414	80.002	19.994	103.114	19.897	14.201	0.528
568.500	339.701	80.000	19.995	103.113	19.896	14.265	0.519
569.000	339.937	80.002	19.996	103.114	19.894	14.395	0.511
569.500	340.198	80.002	19.994	103.114	19.892	14.543	0.510
570.000	340.467	80.001	19.995	103.114	19.888	14.807	0.514
570.500	340.685	80.001	19.995	103.113	19.887	14.882	0.508
571.000	340.966	80.003	19.995	103.114	19.889	14.720	0.493
571.500	341.250	80.002	19.995	103.114	19.882	15.218	0.532
572.000	341.458	80.001	19.996	103.114	19.882	15.247	0.529
572.500	341.749	80.001	19.995	103.114	19.874	15.749	0.496
573.000	341.987	80.000	19.995	103.115	19.880	15.389	0.514
573.500	342.231	80.000	19.995	103.116	19.874	15.763	0.505
574.000	342.496	80.001	19.995	103.117	19.870	16.023	0.495
574.500	342.787	80.000	19.994	103.117	19.868	16.184	0.532
575.000	343.010	80.001	19.995	103.117	19.862	16.600	0.535
575.500	343.267	80.001	19.995	103.117	19.862	16.577	0.497
576.000	343.485	79.999	19.995	103.116	19.857	16.981	0.478
576.500	343.765	80.000	19.996	103.116	19.857	16.943	0.487
577.000	344.036	79.999	19.995	103.116	19.855	17.067	0.525
577.500	344.314	80.000	19.995	103.117	19.848	17.550	0.549
578.000	344.568	80.000	19.996	103.117	19.853	17.245	0.540
578.500	344.822	80.000	19.996	103.117	19.847	17.678	0.520
579.000	345.068	80.000	19.995	103.116	19.843	17.916	0.504
579.500	345.342	80.000	19.995	103.111	19.842	18.018	0.510
580.000	345.577	80.001	19.995	103.111	19.840	18.146	0.515
580.500	345.845	80.002	19.995	103.110	19.834	18.524	0.506
581.000	346.114	80.001	19.995	103.110	19.831	18.765	0.520
581.500	346.362	80.001	19.995	103.111	19.833	18.646	0.527
582.000	346.608	80.001	19.994	103.116	19.825	19.152	0.505
582.500	346.924	80.001	19.994	103.115	19.823	19.311	0.528
583.000	347.108	80.001	19.995	103.117	19.822	19.372	0.531
583.500	347.415	80.002	19.995	103.118	19.819	19.597	0.495
584.000	347.611	80.001	19.994	103.118	19.816	19.786	0.497
584.500	347.866	80.001	19.995	103.118	19.816	19.798	0.478
585.000	348.150	80.001	19.994	103.118	19.807	20.461	0.495
585.500	348.429	80.001	19.994	103.116	19.805	20.539	0.551
586.000	348.651	80.001	19.995	103.116	19.799	20.992	0.532
586.500	348.949	80.000	19.995	103.116	19.799	21.015	0.511
587.000	349.230	80.001	19.994	103.116	19.797	21.111	0.549
587.500	349.408	80.001	19.995	103.116	19.792	21.455	0.519
588.000	349.722	80.002	19.994	103.116	19.787	21.814	0.476
588.500	349.971	80.001	19.994	103.115	19.786	21.898	0.527
589.000	350.211	80.002	19.994	103.116	19.781	22.235	0.526
589.500	350.472	80.003	19.995	103.116	19.780	22.306	0.495
590.000	350.709	80.001	19.994	103.117	19.775	22.652	0.500
590.500	351.054	80.002	19.995	103.117	19.773	22.823	0.540
591.000	351.199	80.002	19.995	103.118	19.769	23.076	0.536
591.500	351.495	80.002	19.994	103.117	19.763	23.486	0.466
592.000	351.803	80.002	19.994	103.118	19.761	23.633	0.522
592.500	352.109	80.002	19.993	103.116	19.753	24.174	0.609
593.000	352.120	80.001	19.994	103.116	19.753	24.201	0.465
593.500	352.781	80.003	19.994	103.116	19.744	24.781	0.495
594.000	353.166	80.003	19.994	103.117	19.744	24.829	0.859
594.500	353.286	80.003	19.995	103.117	19.739	25.143	0.775
595.000	353.082	80.002	19.995	103.117	19.736	25.379	0.211
595.500	353.786	80.002	19.996	103.117	19.731	25.732	0.208
596.000	353.841	80.002	19.995	103.117	19.729	25.860	0.630
596.500	353.999	80.001	19.994	103.117	19.723	26.251	0.486
597.000	354.339	80.000	19.995	103.117	19.722	26.354	0.356
597.500	354.597	80.001	19.995	103.117	19.716	26.753	0.548
598.000	354.924	80.001	19.994	103.117	19.712	27.033	0.591
598.500	355.157	80.001	19.995	103.117	19.707	27.352	0.572
599.000	355.336	80.001	19.994	103.117	19.704	27.564	0.486
599.500	355.715	80.001	19.994	103.116	19.701	27.803	0.485
600.000	355.820	79.999	19.994	103.115	19.696	28.131	0.522
600.500	356.167	79.999	19.995	103.115	19.692	28.414	0.468
601.000	356.440	80.001	19.995	103.115	19.689	28.619	0.536
601.500	356.581	80.001	19.994	103.114	19.683	29.061	0.517
602.000	356.934	79.999	19.995	103.114	19.679	29.320	0.453
602.500	357.183	79.999	19.996	103.114	19.673	29.749	0.548
603.000	357.439	80.001	19.995	103.114	19.671	29.879	0.554
603.500	357.678	80.000	19.995	103.114	19.666	30.241	0.500
604.000	357.991	79.999	19.995	103.114	19.662	30.475	0.524
604.500	358.173	80.000	19.995	103.114	19.658	30.776	0.523
605.000	358.495	79.998	19.996	103.115	19.654	31.054	0.499
605.500	358.682	80.000	19.995	103.115	19.649	31.441	0.507
606.000	358.937	79.998	19.997	103.115	19.643	31.830	0.475
606.500	359.199	79.998	19.996	103.114	19.644	31.765	0.479
607.000	359.452	79.998	19.997	103.114	19.637	32.244	0.516
607.500	359.686	79.999	19.997	103.114	19.631	32.672	0.501
608.000	359.960	79.998	19.997	103.115	19.624	33.140	0.497
608.500	360.184	79.997	19.997	103.115	19.619	33.523	0.503
609.000	360.487	79.998	19.995	103.116	19.616	33.706	0.513
609.500	360.714	79.999	19.996	103.120	19.614	33.814	0.528
610.000	360.928	79.998	19.995	103.123	19.607	34.358	0.486
610.500	361.208	79.998	19.995	103.127	19.603	34.571	0.468
611.000	361.470	79.999	19.995	103.130	19.598	34.978	0.518
611.500	361.759	79.998	19.996	103.129	19.591	35.425	0.546
612.000	361.964	79.999	19.996	103.126	19.589	35.568	0.523
612.500	362.205	80.000	19.996	103.124	19.583	36.010	0.470
613.000	362.497	79.999	19.997	103.119	19.579	36.283	0.490
613.500	362.756	79.999	19.996	103.120	19.571	36.810	0.542
614.000	362.974	80.000	19.995	103.125	19.569	36.977	0.514
614.500	363.225	79.999	19.996	103.125	19.563	37.356	0.473
615.000	363.484	79.998	19.995	103.124	19.559	37.678	0.489
615.500	363.749	79.999	19.996	103.125	19.555	37.952	0.517
616.000	363.957	79.999	19.996	103.124	19.548	38.453	0.499
616.500	364.254	79.998	19.996	103.119	19.542	38.850	0.490
617.000	364.493	79.999	19.995	103.118	19.537	39.198	0.521
617.500	364.740	79.999	19.996	103.118	19.532	39.533	0.511
618.000	364.976	80.000	19.997	103.117	19.528	39.846	0.484
618.500	365.230	79.998	19.996	103.115	19.520	40.361	0.486
619.000	365.551	80.000	19.996	103.115	19.515	40.747	0.532
619.500	365.774	79.998	19.995	103.115	19.509	41.153	0.560
620.000	366.006	79.999	19.995	103.114	19.503	41.563	0.500
620.500	366.286	79.999	19.995	103.114	19.495	42.095	0.484
621.000	366.485	79.999	19.995	103.114	19.493	42.221	0.495
621.500	366.777	80.000	19.997	103.116	19.490	42.494	0.485
622.001	366.990	79.999	19.996	103.118	19.481	43.106	0.498
622.500	367.234	79.999	19.996	103.119	19.476	43.438	0.481
623.000	367.477	80.000	19.996	103.121	19.471	43.756	0.472
623.500	367.731	80.001	19.996	103.122	19.464	44.241	0.492
624.000	367.967	80.000	19.995	103.122	19.457	44.732	0.494
624.500	368.271	80.000	19.997	103.124	19.455	44.868	0.515
625.000	368.494	80.000	19.996	103.128	19.448	45.379	0.533
625.501	368.760	79.999	19.996	103.129	19.446	45.537	0.508
626.000	369.037	79.999	19.996	103.129	19.438	46.056	0.516
626.500	369.258	79.998	19.996	103.127	19.430	46.630	0.521
627.000	369.561	79.999	19.996	103.130	19.426	46.936	0.511
627.500	369.792	79.998	19.996	103.131	19.421	47.278	0.529
628.000	370.028	79.999	19.995	103.134	19.415	47.651	0.501
628.500	370.251	79.999	19.997	103.134	19.407	48.248	0.463
629.000	370.509	79.997	19.996	103.134	19.402	48.579	0.470
629.500	370.791	79.998	19.997	103.133	19.397	48.954	0.510
630.000	370.997	79.998	19.996	103.129	19.394	49.160	0.514
630.500	371.277	79.997	19.996	103.126	19.387	49.618	0.487
631.000	371.492	79.997	19.996	103.129	19.380	50.114	0.491
631.500	371.779	79.997	19.996	103.128	19.372	50.681	0.499
632.000	372.059	79.998	19.996	103.123	19.364	51.195	0.535
632.500	372.286	79.999	19.996	103.124	19.361	51.423	0.537
633.000	372.553	79.997	19.997	103.121	19.354	51.938	0.500
633.500	372.782	79.998	19.996	103.117	19.348	52.306	0.495
634.000	373.071	79.998	19.996	103.118	19.344	52.638	0.507
634.500	373.287	79.999	19.997	103.119	19.335	53.271	0.512
635.000	373.566	79.998	19.996	103.118	19.326	53.871	0.500
635.500	373.841	79.997	19.996	103.123	19.322	54.132	0.524
636.000	374.088	79.998	19.996	103.126	19.313	54.805	0.538
636.500	374.312	79.998	19.996	103.128	19.307	55.206	0.496
637.000	374.567	79.997	19.997	103.126	19.300	55.641	0.475
637.501	374.812	79.997	19.996	103.126	19.297	55.854	0.489
638.000	375.091	79.998	19.996	103.123	19.286	56.674	0.512
638.500	375.347	79.997	19.996	103.123	19.281	56.998	0.530
639.000	375.621	79.998	19.997	103.123	19.274	57.482	0.533
639.500	375.857	79.997	19.997	103.126	19.268	57.879	0.520
640.000	376.135	79.997	19.996	103.126	19.262	58.313	0.512
640.500	376.400	79.998	19.997	103.125	19.254	58.895	0.528
641.000	376.661	79.998	19.996	103.127	19.246	59.429	0.534
641.500	376.918	79.999	19.996	103.129	19.239	59.874	0.522
642.000	377.144	79.999	19.996	103.129	19.231	60.493	0.500
642.500	377.401	79.998	19.996	103.128	19.223	61.013	0.483
643.000	377.688	79.998	19.996	103.129	19.215	61.560	0.514
643.500	377.916	79.998	19.996	103.129	19.207	62.126	0.530
644.000	378.205	79.999	19.996	103.129	19.202	62.468	0.516
644.500	378.456	79.999	19.995	103.129	19.194	63.025	0.528
645.000	378.711	79.999	19.995	103.133	19.183	63.834	0.523
645.500	378.944	79.999	19.995	103.138	19.176	64.309	0.497
646.000	379.163	80.000	19.995	103.142	19.167	64.898	0.470
646.500	379.433	80.000	19.995	103.142	19.165	65.041	0.471
647.000	379.689	80.001	19.995	103.143	19.154	65.859	0.507
647.500	380.002	80.000	19.994	103.141	19.146	66.404	0.547
648.000	380.223	79.998	19.995	103.141	19.139	66.835	0.552
648.500	380.508	80.002	19.995	103.141	19.129	67.583	0.520
649.000	380.740	80.001	19.994	103.143	19.120	68.207	0.511
649.500	380.975	80.001	19.995	103.147	19.112	68.754	0.492
650.000	381.213	80.001	19.996	103.150	19.104	69.269	0.470
650.500	381.489	80.000	19.995	103.146	19.097	69.806	0.493
651.000	381.755	80.000	19.995	103.141	19.088	70.440	0.528
651.500	381.998	80.001	19.995	103.136	19.081	70.874	0.526
652.000	382.276	80.000	19.994	103.131	19.070	71.666	0.515
652.500	382.510	79.999	19.995	103.132	19.065	72.027	0.517
653.000	382.793	80.000	19.996	103.135	19.059	72.457	0.514
653.500	383.031	80.001	19.996	103.139	19.047	73.276	0.519
654.000	383.261	79.999	19.994	103.145	19.040	73.775	0.495
654.500	383.510	79.999	19.995	103.148	19.029	74.529	0.474
655.000	383.782	79.999	19.995	103.150	19.021	75.033	0.500
655.500	384.064	80.000	19.996	103.152	19.014	75.582	0.537
656.000	384.296	79.999	19.994	103.152	19.004	76.212	0.534
656.500	384.537	80.000	19.995	103.151	18.995	76.851	0.493
657.000	384.823	79.999	19.996	103.149	18.984	77.623	0.500
657.500	385.025	80.000	19.996	103.148	18.975	78.228	0.508
658.000	385.327	80.000	19.996	103.147	18.967	78.816	0.496
658.500	385.563	79.999	19.995	103.145	18.959	79.384	0.521
659.000	385.858	80.000	19.995	103.142	18.948	80.116	0.535
659.500	386.040	80.000	19.995	103.142	18.937	80.890	0.504
660.000	386.297	79.998	19.994	103.141	18.932	81.224	0.458
660.500	386.576	79.999	19.994	103.143	18.922	81.931	0.488
661.000	386.836	80.000	19.995	103.145	18.911	82.724	0.538
661.500	387.104	80.000	19.995	103.149	18.903	83.260	0.533
662.000	387.310	80.000	19.994	103.151	18.894	83.878	0.501
662.500	387.581	80.000	19.995	103.152	18.884	84.580	0.475
663.000	387.824	80.001	19.995	103.149	18.874	85.248	0.496
663.500	388.098	80.000	19.995	103.145	18.865	85.858	0.516
664.000	388.365	80.001	19.994	103.143	18.852	86.819	0.529
664.500	388.633	79.999	19.995	103.141	18.843	87.422	0.538
665.000	388.872	80.001	19.995	103.141	18.838	87.777	0.521
665.500	389.101	80.001	19.996	103.143	18.827	88.507	0.488
666.000	389.364	80.001	19.996	103.145	18.815	89.364	0.480
666.500	389.637	80.001	19.995	103.143	18.807	89.880	0.514
667.000	389.883	80.001	19.995	103.141	18.799	90.449	0.528
667.500	390.135	80.002	19.995	103.136	18.789	91.180	0.509
668.000	390.374	80.000	19.995	103.134	18.777	91.988	0.494
668.500	390.603	80.002	19.994	103.133	18.766	92.741	0.479
669.000	390.873	80.001	19.994	103.132	18.757	93.381	0.484
669.500	391.176	80.002	19.996	103.138	18.748	94.020	0.536
670.000	391.425	80.001	19.994	103.140	18.734	94.980	0.563
670.500	391.658	80.001	19.994	103.137	18.727	95.505	0.517
671.000	391.837	80.004	19.995	103.133	18.718	96.104	0.446
671.500	392.121	80.002	19.995	103.131	18.707	96.888	0.437
672.000	392.404	80.002	19.994	103.123	18.697	97.551	0.515
672.500	392.608	80.003	19.994	103.118	18.687	98.236	0.527
673.000	392.941	80.003	19.994	103.116	18.681	98.696	0.512
673.500	393.131	80.003	19.994	103.115	18.671	99.360	0.530
674.000	393.405	80.001	19.995	103.113	18.658	100.295	0.494
674.500	393.664	80.002	19.995	103.115	18.650	100.807	0.498
675.000	393.930	80.002	19.994	103.116	18.645	101.199	0.529
675.500	394.187	80.002	19.994	103.115	18.637	101.712	0.524
676.000	394.402	80.003	19.995	103.114	18.626	102.497	0.498
676.500	394.645	80.003	19.994	103.113	18.617	103.112	0.465
677.000	394.917	80.003	19.994	103.111	18.608	103.768	0.487
677.500	395.204	80.001	19.995	103.111	18.603	104.099	0.537
678.000	395.421	80.002	19.994	103.112	18.590	105.017	0.531
678.500	395.657	80.002	19.994	103.114	18.584	105.378	0.479
679.000	395.944	80.001	19.995	103.115	18.575	106.040	0.489
679.500	396.165	80.001	19.995	103.115	18.567	106.584	0.516
680.000	396.441	80.002	19.995	103.115	18.563	106.805	0.502
680.500	396.681	80.002	19.995	103.113	18.552	107.602	0.506
681.000	396.923	80.001	19.996	103.112	18.546	107.987	0.499
681.500	397.163	80.002	19.995	103.112	18.541	108.364	0.482
682.000	397.407	80.001	19.994	103.113	18.535	108.813	0.483
682.500	397.641	79.999	19.994	103.113	18.526	109.388	0.481
683.000	397.884	80.001	19.995	103.114	18.516	110.089	0.477
683.500	398.141	79.999	19.995	103.114	18.515	110.187	0.489
684.000	398.388	80.000	19.995	103.114	18.507	110.734	0.502
684.500	398.618	80.001	19.994	103.114	18.502	111.081	0.490
685.000	398.886	80.000	19.995	103.114	18.495	111.529	0.487
685.500	399.149	80.001	19.994	103.112	18.492	111.729	0.514
686.000	399.386	79.999	19.994	103.111	18.486	112.189	0.516
686.500	399.644	80.001	19.995	103.109	18.481	112.552	0.498
687.000	399.907	80.000	19.994	103.108	18.474	112.984	0.509
687.500	400.126	80.001	19.994	103.108	18.469	113.362	0.502
688.000	400.394	79.999	19.995	103.109	18.468	113.393	0.484
688.500	400.629	80.000	19.994	103.106	18.462	113.845	0.495
689.000	400.864	80.000	19.994	103.105	18.460	114.008	0.486
689.500	401.134	79.999	19.995	103.100	18.453	114.430	0.487
690.000	401.384	80.000	19.995	103.093	18.451	114.574	0.513
690.500	401.633	79.999	19.994	103.088	18.450	114.626	0.509
691.000	401.898	80.001	19.995	103.085	18.446	114.934	0.507
691.500	402.118	80.000	19.993	103.085	18.447	114.832	0.500
692.000	402.377	80.001	19.995	103.087	18.445	114.997	0.482
692.500	402.603	80.000	19.996	103.090	18.443	115.106	0.482
693.000	402.849	80.000	19.995	103.089	18.442	115.202	0.478
693.500	403.114	80.000	19.995	103.088	18.443	115.149	0.492
694.000	403.390	79.999	19.995	103.084	18.442	115.162	0.526
694.500	403.650	79.999	19.996	103.080	18.441	115.239	0.538
695.000	403.866	79.998	19.996	103.077	18.446	114.922	0.506
695.500	404.143	80.000	19.995	103.077	18.444	115.081	0.484
696.000	404.369	79.999	19.995	103.077	18.447	114.876	0.498
696.500	404.622	80.000	19.995	103.077	18.450	114.664	0.491
697.000	404.860	79.999	19.994	103.076	18.449	114.718	0.485
697.500	405.115	80.000	19.995	103.075	18.453	114.412	0.492
698.000	405.353	79.999	19.996	103.074	18.458	114.113	0.494
698.500	405.630	80.000	19.995	103.074	18.461	113.862	0.504
699.000	405.867	80.000	19.995	103.073	18.466	113.494	0.514
699.500	406.114	80.000	19.995	103.071	18.469	113.303	0.498
700.000	406.376	80.000	19.995	103.068	18.474	112.957	0.496
700.500	406.610	79.999	19.996	103.064	18.484	112.272	0.503
701.000	406.841	79.999	19.994	103.057	18.486	112.140	0.480
701.500	407.106	80.000	19.996	103.054	18.493	111.646	0.480
702.000	407.374	80.000	19.996	103.052	18.502	111.047	0.514
702.500	407.592	79.999	19.996	103.048	18.507	110.690	0.510
703.000	407.864	80.000	19.996	103.048	18.513	110.262	0.488
703.500	408.118	79.999	19.994	103.048	18.525	109.452	0.508
704.000	408.377	79.999	19.995	103.045	18.533	108.874	0.520
704.500	408.608	79.999	19.995	103.042	18.540	108.334	0.501
705.000	408.859	79.999	19.995	103.042	18.550	107.694	0.485
705.500	409.097	80.000	19.996	103.039	18.563	106.790	0.486
706.000	409.383	79.999	19.995	103.038	18.571	106.232	0.507
706.500	409.629	80.000	19.995	103.038	18.584	105.337	0.528
707.000	409.877	80.001	19.995	103.038	18.593	104.671	0.513
707.500	410.112	80.000	19.996	103.038	18.607	103.703	0.488
708.000	410.361	80.001	19.996	103.037	18.618	102.988	0.484
708.500	410.641	80.001	19.995	103.037	18.632	102.014	0.507
709.000	410.910	80.001	19.996	103.037	18.643	101.225	0.539
709.500	411.132	80.000	19.995	103.036	18.658	100.176	0.519
710.000	411.427	80.000	19.997	103.036	18.673	99.147	0.503
710.500	411.644	80.000	19.995	103.033	18.687	98.131	0.515
711.000	411.899	80.000	19.995	103.032	18.702	97.147	0.493
711.500	412.180	80.001	19.996	103.032	18.716	96.121	0.504
712.000	412.435	80.000	19.996	103.032	18.733	94.997	0.536
712.500	412.658	79.999	19.995	103.033	18.749	93.870	0.507
713.000	412.898	79.999	19.997	103.036	18.768	92.582	0.471
713.500	413.159	80.000	19.996	103.037	18.784	91.470	0.482
714.000	413.403	79.998	19.996	103.033	18.798	90.455	0.503
714.500	413.682	79.999	19.996	103.029	18.814	89.372	0.514
715.000	413.893	79.999	19.996	103.022	18.833	88.039	0.507
715.500	414.160	80.000	19.997	103.018	18.850	86.876	0.484
716.000	414.425	79.999	19.996	103.017	18.867	85.682	0.505
716.500	414.680	79.998	19.994	103.017	18.882	84.643	0.526
717.000	414.907	79.999	19.996	103.014	18.901	83.336	0.501
717.500	415.157	79.998	19.995	103.021	18.914	82.446	0.480
718.000	415.411	79.998	19.994	103.025	18.932	81.194	0.490
718.500	415.659	79.999	19.995	103.021	18.947	80.096	0.503
719.000	415.930	79.999	19.995	103.021	18.964	78.926	0.511
719.500	416.167	79.998	19.996	103.021	18.981	77.765	0.513
720.000	416.439	79.999	19.995	103.020	18.998	76.623	0.509
720.500	416.705	79.999	19.996	103.021	19.016	75.372	0.523
721.000	416.918	79.999	19.996	103.019	19.029	74.412	0.508
721.500	417.202	80.000	19.996	103.019	19.043	73.442	0.488
722.000	417.426	79.998	19.996	103.022	19.058	72.420	0.503
722.500	417.691	79.999	19.995	103.021	19.077	71.128	0.498
723.000	417.958	79.999	19.996	103.021	19.092	70.042	0.510
723.500	418.176	79.999	19.995	103.027	19.106	69.094	0.508
724.000	418.471	80.000	19.996	103.032	19.119	68.188	0.499
724.500	418.690	80.000	19.996	103.035	19.132	67.270	0.514
725.000	418.977	80.000	19.995	103.036	19.147	66.233	0.511
725.500	419.211	80.000	19.996	103.035	19.159	65.412	0.514
726.000	419.422	79.999	19.996	103.032	19.173	64.447	0.483
726.500	419.721	79.999	19.996	103.031	19.184	63.658	0.478
727.000	419.957	80.000	19.996	103.032	19.199	62.602	0.522
727.500	420.207	80.001	19.996	103.032	19.210	61.834	0.510
728.000	420.520	80.000	19.996	103.034	19.223	60.945	0.524
728.500	420.782	80.000	19.996	103.037	19.236	60.034	0.569
729.000	421.026	79.999	19.996	103.039	19.249	59.198	0.541
729.500	421.285	80.000	19.996	103.041	19.261	58.311	0.505
730.000	421.527	80.001	19.997	103.040	19.270	57.736	0.502
730.500	421.817	80.000	19.996	103.040	19.280	57.047	0.517
731.000	422.033	80.000	19.996	103.041	19.288	56.437	0.519
731.500	422.248	80.001	19.995	103.040	19.301	55.559	0.468
732.000	422.535	80.001	19.996	103.038	19.309	55.036	0.467
732.500	422.759	80.001	19.995	103.041	19.317	54.433	0.507
733.000	423.032	80.000	19.997	103.046	19.327	53.718	0.504
733.500	423.292	80.001	19.996	103.047	19.335	53.212	0.515
734.000	423.537	80.002	19.997	103.047	19.343	52.640	0.519
734.500	423.760	80.001	19.997	103.046	19.349	52.250	0.486
735.000	424.052	80.000	19.995	103.044	19.357	51.677	0.492
735.500	424.303	80.000	19.997	103.039	19.364	51.148	0.529
736.000	424.553	79.999	19.996	103.037	19.372	50.625	0.522
736.500	424.789	80.002	19.995	103.037	19.378	50.199	0.494
737.000	425.046	80.000	19.996	103.041	19.382	49.899	0.490
737.500	425.339	80.001	19.996	103.041	19.389	49.437	0.521
738.000	425.566	80.001	19.996	103.040	19.395	49.042	0.535
738.500	425.800	80.001	19.996	103.039	19.401	48.619	0.491
739.000	426.075	80.000	19.998	103.041	19.405	48.323	0.485
739.500	426.331	80.002	19.996	103.041	19.414	47.704	0.520
740.000	426.582	80.001	19.996	103.047	19.416	47.600	0.519
740.500	426.850	80.002	19.995	103.053	19.421	47.202	0.513
741.000	427.091	80.000	19.995	103.059	19.427	46.774	0.514
741.500	427.335	80.000	19.995	103.063	19.429	46.661	0.497
742.000	427.620	80.001	19.995	103.065	19.434	46.287	0.507
742.500	427.904	80.000	19.994	103.059	19.438	46.052	0.550
743.000	428.149	80.001	19.994	103.055	19.440	45.871	0.549
743.500	428.411	80.000	19.994	103.053	19.445	45.547	0.518
744.000	428.636	80.000	19.995	103.050	19.448	45.352	0.497
744.500	428.901	80.000	19.995	103.047	19.451	45.140	0.488
745.000	429.194	80.002	19.996	103.052	19.454	44.941	0.524
745.500	429.450	80.002	19.994	103.053	19.455	44.858	0.554
746.000	429.705	80.000	19.995	103.052	19.457	44.724	0.530
746.500	429.954	80.002	19.994	103.050	19.460	44.481	0.507
747.000	430.205	80.002	19.994	103.053	19.463	44.316	0.502
747.500	430.443	80.001	19.995	103.052	19.464	44.256	0.495
748.000	430.676	80.001	19.995	103.049	19.468	43.938	0.480
748.500	430.990	80.001	19.996	103.049	19.469	43.902	0.509
749.000	431.254	80.002	19.996	103.048	19.473	43.631	0.562
749.500	431.482	80.002	19.995	103.047	19.475	43.467	0.535
750.000	431.757	80.001	19.996	103.049	19.477	43.332	0.497
750.500	431.992	80.001	19.996	103.052	19.481	43.059	0.506
751.000	432.262	80.001	19.996	103.055	19.479	43.194	0.508
751.500	432.527	80.002	19.995	103.061	19.482	43.016	0.521
752.000	432.794	80.003	19.996	103.058	19.482	43.012	0.534
752.500	433.041	80.002	19.995	103.053	19.481	43.039	0.523
753.000	433.319	80.002	19.996	103.054	19.486	42.722	0.519
753.500	433.585	80.002	19.995	103.055	19.485	42.810	0.535
754.000	433.851	80.004	19.995	103.055	19.488	42.566	0.538
754.500	434.111	80.003	19.994	103.060	19.490	42.424	0.529
755.000	434.352	80.003	19.995	103.066	19.487	42.655	0.514
755.500	434.599	80.004	19.995	103.066	19.489	42.516	0.494
756.000	434.844	80.002	19.994	103.062	19.492	42.306	0.490
756.500	435.125	80.002	19.995	103.057	19.492	42.316	0.509
757.000	435.406	80.004	19.995	103.053	19.492	42.296	0.544
757.500	435.675	80.002	19.996	103.047	19.494	42.130	0.556
758.000	435.916	80.002	19.996	103.044	19.496	42.023	0.530
758.500	436.174	80.003	19.996	103.042	19.496	42.043	0.504
759.000	436.429	80.003	19.995	103.041	19.493	42.198	0.506
759.500	436.648	80.004	19.995	103.038	19.496	42.025	0.494
760.000	436.921	80.003	19.996	103.038	19.495	42.099	0.483
760.500	437.183	80.003	19.994	103.038	19.495	42.103	0.513
761.000	437.416	80.001	19.995	103.039	19.496	42.025	0.515
761.500	437.660	80.001	19.995	103.040	19.497	41.947	0.486
762.000	437.925	80.002	19.995	103.042	19.498	41.889	0.493
762.500	438.203	80.003	19.995	103.043	19.497	41.934	0.526
763.000	438.465	80.002	19.995	103.043	19.499	41.803	0.541
763.500	438.731	80.002	19.995	103.044	19.498	41.849	0.533
764.000	438.985	80.001	19.995	103.044	19.497	41.931	0.524
764.500	439.227	80.000	19.995	103.049	19.497	41.937	0.509
765.000	439.459	80.000	19.994	103.052	19.497	41.948	0.485
765.500	439.737	80.001	19.995	103.052	19.497	41.967	0.491
766.000	439.978	80.000	19.995	103.050	19.496	42.035	0.514
766.500	440.236	80.000	19.995	103.047	19.496	42.033	0.509
767.000	440.494	79.999	19.993	103.043	19.496	42.001	0.508
767.500	440.737	80.000	19.995	103.040	19.493	42.195	0.509
768.000	441.004	80.000	19.995	103.043	19.492	42.262	0.506
768.500	441.235	80.001	19.995	103.044	19.494	42.128	0.504
769.000	441.504	79.999	19.995	103.045	19.496	41.986	0.499
769.500	441.790	80.000	19.995	103.048	19.495	42.066	0.527
770.000	442.013	80.000	19.995	103.047	19.495	42.087	0.532
770.500	442.270	80.000	19.994	103.045	19.496	42.035	0.495
771.000	442.551	79.999	19.995	103.048	19.495	42.072	0.509
771.500	442.769	80.000	19.995	103.049	19.493	42.242	0.518
772.000	443.053	80.001	19.995	103.046	19.492	42.279	0.500
772.500	443.290	80.001	19.994	103.046	19.491	42.332	0.511
773.000	443.543	79.998	19.995	103.046	19.491	42.367	0.506
773.500	443.797	80.000	19.995	103.042	19.493	42.240	0.499
774.000	444.085	80.000	19.995	103.041	19.491	42.324	0.524
774.500	444.329	80.001	19.995	103.041	19.488	42.551	0.537
775.000	444.583	80.001	19.995	103.041	19.491	42.385	0.515
775.500	444.859	80.001	19.995	103.040	19.484	42.815	0.514
776.000	445.085	80.000	19.995	103.040	19.488	42.570	0.516
776.500	445.339	80.001	19.994	103.040	19.487	42.607	0.491
777.000	445.578	80.000	19.995	103.041	19.485	42.783	0.486
777.500	445.845	80.000	19.995	103.041	19.486	42.733	0.500
778.000	446.096	79.999	19.995	103.042	19.487	42.611	0.512
778.500	446.353	80.000	19.995	103.043	19.486	42.699	0.513
779.000	446.584	80.000	19.994	103.044	19.484	42.875	0.498
779.500	446.859	80.001	19.994	103.044	19.481	43.074	0.497
780.000	447.085	79.999	19.993	103.043	19.479	43.198	0.504
780.500	447.364	79.999	19.995	103.043	19.477	43.307	0.503
781.000	447.613	80.000	19.994	103.042	19.482	42.954	0.516
781.500	447.877	79.999	19.994	103.041	19.480	43.153	0.520
782.000	448.138	80.001	19.994	103.043	19.480	43.151	0.519
782.500	448.387	80.002	19.995	103.043	19.478	43.283	0.518
783.000	448.622	80.001	19.994	103.043	19.473	43.576	0.497
783.500	448.903	80.001	19.995	103.043	19.474	43.507	0.500
784.000	449.145	80.000	19.995	103.043	19.472	43.700	0.519
784.500	449.439	80.001	19.994	103.041	19.474	43.550	0.530
785.000	449.643	80.002	19.994	103.041	19.473	43.602	0.517
785.500	449.948	80.000	19.994	103.040	19.472	43.698	0.504
786.000	450.188	80.002	19.995	103.040	19.469	43.852	0.527
786.500	450.428	80.002	19.994	103.040	19.472	43.679	0.512
787.000	450.673	80.001	19.995	103.039	19.468	43.974	0.482
787.500	450.969	80.001	19.994	103.040	19.464	44.204	0.513
788.000	451.171	80.000	19.995	103.040	19.465	44.175	0.520
788.500	451.468	80.001	19.993	103.040	19.464	44.260	0.499
789.000	451.728	80.000	19.994	103.040	19.463	44.296	0.528
789.500	451.960	80.000	19.995	103.040	19.461	44.463	0.524
790.000	452.245	80.000	19.995	103.040	19.461	44.420	0.504
790.500	452.477	79.999	19.994	103.040	19.460	44.533	0.517
791.000	452.697	80.000	19.995	103.040	19.457	44.734	0.485
791.500	452.998	79.999	19.994	103.038	19.458	44.627	0.487
792.000	453.262	80.000	19.995	103.037	19.453	44.984	0.543
792.500	453.506	80.000	19.995	103.037	19.456	44.751	0.536
793.000	453.764	79.998	19.995	103.037	19.456	44.771	0.505
793.500	453.985	80.000	19.995	103.037	19.453	45.003	0.491
794.000	454.255	79.999	19.995	103.036	19.454	44.924	0.485
794.500	454.528	79.998	19.995	103.036	19.453	44.997	0.517
795.000	454.795	80.000	19.995	103.036	19.452	45.066	0.541
795.500	455.075	80.001	19.996	103.034	19.446	45.463	0.544
796.000	455.337	79.999	19.996	103.033	19.449	45.261	0.545
796.500	455.552	80.000	19.996	103.035	19.446	45.448	0.509
797.000	455.774	79.998	19.996	103.036	19.446	45.500	0.457
797.500	456.070	79.999	19.996	103.035	19.444	45.577	0.478
798.000	456.317	79.999	19.995	103.036	19.443	45.683	0.531
798.500	456.589	79.999	19.996	103.036	19.441	45.783	0.531
799.000	456.820	79.999	19.996	103.035	19.443	45.676	0.511
799.500	457.096	80.000	19.995	103.034	19.441	45.839	0.505
800.000	457.371	79.999	19.996	103.033	19.437	46.073	0.529
800.500	457.573	79.999	19.996	103.033	19.442	45.776	0.514
801.000	457.841	80.000	19.995	103.032	19.440	45.904	0.474
801.500	458.074	80.000	19.996	103.030	19.439	45.967	0.486
802.000	458.351	80.001	19.996	103.026	19.438	46.050	0.505
802.500	458.644	80.001	19.997	103.022	19.437	46.068	0.540
803.000	458.845	80.001	19.995	103.020	19.437	46.067	0.532
803.500	459.129	80.000	19.994	103.017	19.436	46.122	0.490
804.000	459.354	80.000	19.996	103.014	19.435	46.246	0.497
804.500	459.628	80.001	19.996	103.015	19.435	46.217	0.503
805.000	459.876	79.999	19.995	103.015	19.436	46.141	0.510
805.500	460.127	80.000	19.995	103.011	19.431	46.476	0.511
806.000	460.358	80.000	19.995	103.007	19.432	46.413	0.491
806.500	460.610	80.001	19.997	103.009	19.430	46.570	0.483
807.000	460.847	80.000	19.994	103.006	19.426	46.819	0.486
807.500	461.129	80.000	19.996	103.008	19.428	46.731	0.504
808.000	461.385	80.000	19.995	103.009	19.429	46.623	0.528
808.500	461.630	80.000	19.995	103.011	19.427	46.793	0.519
809.000	461.886	80.000	19.995	103.007	19.425	46.917	0.502
809.500	462.165	80.001	19.996	103.008	19.424	46.975	0.518
810.000	462.387	80.000	19.995	103.004	19.425	46.927	0.518
810.500	462.635	80.001	19.995	103.005	19.425	46.918	0.486
811.000	462.913	80.002	19.996	103.010	19.425	46.902	0.498
811.500	463.158	80.001	19.995	103.011	19.425	46.910	0.524
812.000	463.372	80.001	19.995	103.009	19.425	46.919	0.490
812.500	463.643	80.002	19.996	103.010	19.423	47.065	0.472
813.000	463.902	80.002	19.996	103.007	19.425	46.887	0.508
813.500	464.141	80.002	19.995	103.000	19.424	46.956	0.514
814.000	464.405	80.001	19.995	102.998	19.422	47.145	0.500
814.500	464.630	80.000	19.995	102.997	19.424	46.990	0.496
815.000	464.884	79.999	19.995	102.996	19.422	47.139	0.484
815.500	465.137	80.001	19.996	102.996	19.424	46.978	0.493
816.000	465.383	80.001	19.996	102.995	19.422	47.135	0.503
816.500	465.627	80.002	19.996	102.996	19.420	47.267	0.494
817.000	465.901	80.001	19.998	102.997	19.423	47.049	0.503
817.500	466.143	80.000	19.996	102.997	19.419	47.340	0.517
818.000	466.391	80.000	19.996	102.997	19.422	47.147	0.504
818.500	466.652	80.000	19.996	102.997	19.419	47.313	0.500
819.000	466.902	80.000	19.995	102.996	19.418	47.419	0.510
819.500	467.174	79.999	19.996	102.995	19.421	47.195	0.517
820.000	467.414	80.001	19.996	102.995	19.422	47.125	0.518
820.500	467.635	80.000	19.996	102.995	19.422	47.153	0.487
821.000	467.857	80.000	19.996	102.995	19.423	47.057	0.452
821.500	468.143	80.000	19.996	102.995	19.421	47.208	0.475
822.000	468.385	79.999	19.996	102.995	19.422	47.122	0.518
822.500	468.634	79.999	19.996	102.995	19.420	47.250	0.509
823.000	468.892	79.999	19.996	102.995	19.424	47.019	0.499
823.500	469.148	79.999	19.996	102.995	19.422	47.124	0.511
824.000	469.386	80.000	19.995	102.996	19.425	46.922	0.504
824.500	469.639	80.002	19.996	102.996	19.425	46.947	0.493
825.000	469.896	80.001	19.996	102.995	19.425	46.892	0.500
825.500	470.196	80.000	19.996	102.995	19.426	46.833	0.533
826.000	470.425	80.000	19.996	102.994	19.427	46.754	0.543
826.500	470.657	80.000	19.996	102.994	19.427	46.780	0.495
827.000	470.895	80.001	19.997	102.993	19.427	46.766	0.465
827.500	471.159	79.999	19.996	102.993	19.430	46.577	0.485
828.000	471.410	80.000	19.995	102.994	19.432	46.437	0.508
828.500	471.659	80.000	19.996	102.994	19.432	46.431	0.508
829.000	471.919	80.001	19.997	102.994	19.436	46.110	0.505
829.500	472.163	80.000	19.995	102.994	19.437	46.081	0.506
830.000	472.420	80.001	19.996	102.994	19.437	46.106	0.502
830.500	472.631	80.001	19.996	102.994	19.440	45.851	0.485
831.000	472.911	80.001	19.996	102.993	19.441	45.775	0.479
831.500	473.146	80.000	19.996	102.992	19.444	45.597	0.503
832.000	473.427	80.000	19.995	102.990	19.447	45.372	0.516
832.500	473.665	80.000	19.995	102.990	19.447	45.386	0.517
833.000	473.938	80.001	19.995	102.990	19.450	45.194	0.515
833.500	474.192	80.000	19.996	102.990	19.455	44.835	0.519
834.000	474.453	80.001	19.997	102.991	19.460	44.508	0.521
834.500	474.724	80.002	19.995	102.994	19.464	44.180	0.524
835.000	474.928	80.003	19.995	102.993	19.466	44.032	0.504
835.500	475.199	80.002	19.995	102.992	19.472	43.653	0.475
836.000	475.432	80.001	19.995	102.993	19.475	43.441	0.489
836.500	475.701	80.003	19.994	102.991	19.481	42.991	0.503
837.000	475.957	80.002	19.995	102.986	19.486	42.714	0.514
837.500	476.193	80.002	19.995	102.982	19.489	42.474	0.509
838.000	476.430	80.003	19.994	102.977	19.495	42.073	0.482
838.500	476.700	80.004	19.994	102.971	19.503	41.521	0.490
839.000	476.927	80.003	19.994	102.970	19.507	41.231	0.502
839.500	477.190	80.003	19.994	102.969	19.509	41.068	0.493
840.000	477.444	80.003	19.994	102.969	19.518	40.490	0.503
840.500	477.666	80.003	19.994	102.968	19.529	39.711	0.496
841.000	477.947	80.003	19.994	102.969	19.534	39.367	0.489
841.500	478.203	80.003	19.996	102.969	19.540	38.932	0.520
842.000	478.432	80.002	19.996	102.975	19.549	38.331	0.511
842.500	478.669	80.002	19.995	102.978	19.558	37.671	0.476
843.000	478.933	80.002	19.995	102.984	19.566	37.146	0.484
843.500	479.222	80.001	19.995	102.989	19.570	36.866	0.527
844.000	479.447	80.002	19.994	102.988	19.580	36.156	0.534
844.500	479.704	80.001	19.995	102.982	19.586	35.719	0.498
845.000	479.962	80.002	19.994	102.977	19.600	34.783	0.498
845.500	480.216	80.001	19.995	102.972	19.606	34.399	0.514
846.000	480.413	80.001	19.995	102.971	19.617	33.586	0.482
846.500	480.684	80.001	19.994	102.973	19.623	33.153	0.459
847.000	480.959	79.999	19.994	102.974	19.637	32.248	0.507
847.500	481.210	80.000	19.994	102.979	19.645	31.686	0.536
848.000	481.465	79.999	19.995	102.985	19.657	30.836	0.516
848.500	481.693	80.000	19.996	102.987	19.668	30.044	0.495
849.000	481.958	80.000	19.995	102.990	19.679	29.295	0.488
849.500	482.209	79.999	19.995	102.996	19.688	28.646	0.505
850.000	482.510	80.000	19.995	102.994	19.700	27.854	0.534
850.500	482.733	79.998	19.996	102.994	19.714	26.893	0.538
851.000	482.999	79.999	19.996	102.994	19.725	26.141	0.507
851.500	483.201	79.999	19.995	102.994	19.735	25.387	0.478
852.000	483.465	79.999	19.995	102.995	19.747	24.596	0.467
852.500	483.707	79.999	19.994	102.998	19.758	23.815	0.486
853.000	483.955	80.000	19.995	102.999	19.773	22.801	0.498
853.500	484.219	80.000	19.995	103.000	19.781	22.220	0.501
854.000	484.481	80.000	19.995	103.003	19.791	21.554	0.519
854.500	484.735	80.000	19.995	103.006	19.802	20.736	0.521
855.000	484.988	80.000	19.995	103.006	19.812	20.041	0.511
855.500	485.230	79.999	19.995	103.011	19.822	19.348	0.501
856.000	485.502	80.000	19.995	103.017	19.832	18.654	0.505
856.500	485.745	80.000	19.996	103.019	19.844	17.866	0.514
857.000	485.994	80.000	19.996	103.021	19.854	17.120	0.504
857.500	486.243	80.000	19.996	103.027	19.866	16.312	0.495
858.000	486.468	80.000	19.995	103.029	19.873	15.818	0.486
858.500	486.740	80.000	19.995	103.029	19.885	14.989	0.485
859.000	487.015	80.001	19.995	103.031	19.895	14.307	0.522
859.500	487.230	79.999	19.995	103.033	19.903	13.750	0.519
860.000	487.475	80.000	19.995	103.033	19.911	13.162	0.475
860.500	487.758	80.000	19.995	103.033	19.918	12.703	0.494
861.000	488.004	80.001	19.995	103.033	19.927	12.064	0.528
861.500	488.240	80.000	19.995	103.033	19.937	11.401	0.506
862.000	488.488	80.001	19.995	103.035	19.942	11.070	0.483
862.500	488.733	79.999	19.995	103.036	19.953	10.273	0.488
863.000	489.024	80.001	19.995	103.036	19.963	9.605	0.514
863.500	489.286	80.001	19.995	103.038	19.966	9.379	0.545
864.000	489.494	80.001	19.995	103.039	19.974	8.802	0.512
864.500	489.806	80.001	19.995	103.039	19.976	8.672	0.495
865.000	490.036	80.001	19.994	103.039	19.982	8.266	0.531
865.500	490.293	80.000	19.995	103.039	19.992	7.576	0.514
866.000	490.521	80.000	19.994	103.038	19.997	7.233	0.486
866.500	490.778	80.001	19.995	103.040	20.000	7.028	0.485
867.000	491.056	80.001	19.994	103.042	20.001	6.949	0.510
867.500	491.325	80.001	19.995	103.047	20.008	6.453	0.541
868.000	491.536	80.000	19.994	103.053	20.011	6.241	0.514
868.500	491.802	80.001	19.995	103.056	20.014	6.017	0.478
869.000	492.036	80.001	19.995	103.055	20.020	5.638	0.488
869.500	492.318	80.002	19.995	103.056	20.025	5.263	0.508
870.000	492.584	80.000	19.995	103.054	20.030	4.954	0.532
870.500	492.851	80.001	19.994	103.056	20.034	4.634	0.541
871.000	493.106	80.000	19.994	103.058	20.036	4.540	0.528
871.500	493.364	80.000	19.995	103.064	20.038	4.370	0.517
872.000	493.632	80.000	19.995	103.067	20.041	4.192	0.520
872.500	493.841	80.001	19.995	103.067	20.044	3.989	0.502
873.000	494.132	80.000	19.995	103.062	20.046	3.804	0.488
873.500	494.394	80.000	19.996	103.063	20.048	3.704	0.526
874.000	494.635	80.000	19.994	103.063	20.049	3.600	0.528
874.500	494.896	79.999	19.996	103.063	20.052	3.415	0.503
875.000	495.171	80.000	19.996	103.060	20.053	3.361	0.519
875.500	495.430	80.000	19.995	103.065	20.051	3.441	0.535
876.000	495.673	80.000	19.996	103.063	20.057	3.089	0.518
876.500	495.959	80.000	19.994	103.060	20.056	3.131	0.516
877.000	496.180	80.000	19.996	103.056	20.058	2.974	0.518
877.500	496.464	80.000	19.995	103.056	20.055	3.175	0.506
878.000	496.733	79.999	19.996	103.052	20.059	2.936	0.529
878.500	496.967	79.999	19.995	103.053	20.061	2.806	0.528
879.000	497.201	80.000	19.995	103.054	20.060	2.815	0.485
879.500	497.493	79.999	19.995	103.057	20.061	2.762	0.497
880.000	497.737	80.000	19.994	103.059	20.067	2.384	0.531
880.500	497.990	79.998	19.995	103.056	20.065	2.516	0.517
881.000	498.252	79.999	19.995	103.050	20.065	2.532	0.506
881.500	498.465	79.999	19.996	103.044	20.066	2.453	0.495
882.000	498.775	79.999	19.995	103.044	20.064	2.603	0.498
882.500	499.055	80.001	19.995	103.048	20.067	2.377	0.556
883.000	499.279	79.998	19.995	103.055	20.066	2.409	0.547
883.500	499.500	80.001	19.995	103.059	20.065	2.503	0.474
884.000	499.796	80.000	19.995	103.064	20.070	2.147	0.481
884.500	500.046	80.001	19.996	103.064	20.067	2.350	0.531
885.000	500.329	80.000	19.996	103.058	20.070	2.155	0.539
885.500	500.557	80.000	19.996	103.056	20.066	2.448	0.522
886.000	500.814	80.001	19.996	103.059	20.068	2.306	0.498
886.500	501.113	80.000	19.995	103.057	20.069	2.195	0.521
887.000	501.350	80.000	19.995	103.056	20.069	2.245	0.546
887.500	501.611	80.001	19.996	103.059	20.074	1.852	0.517
888.000	501.877	80.001	19.996	103.061	20.073	1.917	0.512
888.500	502.142	80.001	19.996	103.061	20.071	2.113	0.529
889.000	502.356	80.001	19.996	103.061	20.072	1.988	0.506
889.500	502.621	79.999	19.996	103.062	20.073	1.913	0.479
890.000	502.886	80.001	19.998	103.063	20.074	1.890	0.505
890.500	503.141	80.001	19.997	103.059	20.076	1.741	0.525
891.000	503.403	80.002	19.996	103.057	20.076	1.722	0.518
891.500	503.642	80.001	19.996	103.060	20.072	2.000	0.509
892.000	503.918	80.002	19.996	103.063	20.078	1.572	0.508
892.500	504.149	80.001	19.995	103.065	20.075	1.775	0.511
893.000	504.450	80.002	19.997	103.068	20.077	1.701	0.519
893.500	504.687	80.002	19.996	103.071	20.073	1.925	0.535
894.000	504.943	80.002	19.996	103.071	20.076	1.718	0.516
894.500	505.204	80.002	19.996	103.070	20.076	1.771	0.505
895.000	505.451	80.001	19.996	103.066	20.074	1.881	0.513
895.500	505.715	80.001	19.996	103.067	20.076	1.722	0.509
896.000	506.005	80.002	19.996	103.065	20.076	1.764	0.533
896.500	506.253	80.001	19.996	103.065	20.077	1.674	0.546
897.000	506.502	80.001	19.996	103.065	20.076	1.747	0.517
897.500	506.782	80.002	19.995	103.069	20.075	1.779	0.513
898.000	507.024	80.002	19.995	103.070	20.076	1.707	0.526
898.500	507.287	80.001	19.995	103.072	20.074	1.846	0.513
899.000	507.537	80.002	19.996	103.073	20.074	1.854	0.509
899.500	507.787	80.002	19.995	103.074	20.077	1.670	0.506
900.000	508.065	80.001	19.996	103.073	20.075	1.816	0.514
900.500	508.307	80.001	19.996	103.070	20.077	1.666	0.524
901.000	508.588	80.001	19.995	103.069	20.079	1.496	0.521
901.500	508.850	80.002	19.995	103.069	20.078	1.620	0.532
902.000	509.113	80.001	19.996	103.068	20.079	1.511	0.534
902.500	509.374	80.001	19.995	103.069	20.080	1.484	0.525
903.000	509.626	80.001	19.995	103.072	20.078	1.611	0.519
903.500	509.925	80.001	19.995	103.069	20.079	1.532	0.532
904.000	510.170	80.000	19.995	103.064	20.082	1.354	0.547
904.500	510.415	80.000	19.995	103.057	20.080	1.467	0.517
905.000	510.694	80.001	19.996	103.053	20.081	1.362	0.507
905.500	510.977	80.000	19.996	103.053	20.079	1.563	0.543
906.000	511.208	80.000	19.995	103.057	20.082	1.304	0.538
906.500	511.448	80.000	19.995	103.064	20.082	1.304	0.493
907.000	511.729	80.000	19.995	103.070	20.081	1.373	0.496
907.500	511.971	80.000	19.995	103.075	20.082	1.327	0.522
908.000	512.263	79.998	19.994	103.075	20.084	1.153	0.528
908.500	512.480	80.000	19.995	103.074	20.084	1.184	0.522
909.000	512.762	80.001	19.996	103.071	20.083	1.262	0.505
909.500	512.990	80.000	19.995	103.066	20.084	1.187	0.505
910.000	513.271	80.000	19.995	103.065	20.084	1.212	0.509
910.500	513.548	80.001	19.995	103.067	20.084	1.176	0.533
911.000	513.766	80.001	19.995	103.067	20.084	1.193	0.527
911.500	514.039	80.001	19.997	103.066	20.081	1.366	0.494
912.001	514.327	80.000	19.996	103.065	20.083	1.230	0.526
912.500	514.589	80.000	19.996	103.063	20.085	1.132	0.555
913.000	514.867	80.000	19.995	103.063	20.085	1.126	0.545
913.500	515.113	80.000	19.995	103.063	20.083	1.256	0.532
914.000	515.379	80.000	19.995	103.065	20.086	1.055	0.518
914.500	515.649	80.000	19.995	103.070	20.085	1.134	0.524
915.000	515.905	80.001	19.997	103.071	20.086	1.011	0.531
915.500	516.182	80.000	19.996	103.069	20.083	1.241	0.529
916.000	516.457	80.000	19.996	103.067	20.084	1.212	0.543
916.500	516.702	80.001	19.996	103.068	20.087	0.956	0.536
917.000	516.961	80.001	19.996	103.069	20.085	1.103	0.512
917.500	517.201	80.001	19.995	103.070	20.083	1.252	0.501
918.000	517.472	80.000	19.996	103.069	20.083	1.245	0.505
918.500	517.722	80.001	19.996	103.067	20.086	1.065	0.516
919.000	518.003	80.001	19.996	103.068	20.086	1.072	0.526
919.500	518.273	80.001	19.996	103.069	20.087	0.979	0.541
920.000	518.535	80.000	19.996	103.069	20.083	1.254	0.542
920.500	518.764	80.002	19.996	103.071	20.083	1.243	0.511
921.000	519.049	80.001	19.997	103.075	20.085	1.113	0.502
921.500	519.279	80.001	19.995	103.075	20.084	1.185	0.515
922.000	519.581	80.002	19.997	103.072	20.081	1.379	0.524
922.500	519.840	80.002	19.997	103.066	20.082	1.337	0.546
923.000	520.092	80.002	19.995	103.061	20.083	1.226	0.536
923.500	520.358	80.002	19.997	103.053	20.084	1.195	0.515
924.000	520.601	80.001	19.995	103.047	20.082	1.302	0.514
924.500	520.864	80.000	19.997	103.042	20.084	1.207	0.508
925.000	521.097	80.000	19.997	103.045	20.084	1.168	0.501
925.500	521.369	80.002	19.995	103.049	20.085	1.124	0.500
926.000	521.623	80.001	19.996	103.050	20.085	1.111	0.515
926.500	521.890	80.000	19.996	103.053	20.081	1.390	0.523
927.000	522.138	80.000	19.995	103.057	20.083	1.233	0.518
927.500	522.388	79.999	19.996	103.057	20.084	1.212	0.506
928.000	522.657	80.000	19.995	103.052	20.085	1.136	0.509
928.500	522.908	80.001	19.994	103.055	20.084	1.216	0.520
929.000	523.156	80.001	19.995	103.054	20.086	1.047	0.509
929.500	523.392	80.000	19.995	103.053	20.083	1.272	0.491
930.000	523.694	79.999	19.995	103.055	20.085	1.136	0.511
930.500	523.968	80.000	19.995	103.057	20.084	1.174	0.557
931.000	524.178	80.000	19.995	103.059	20.087	1.002	0.530
931.500	524.451	80.001	19.996	103.060	20.086	1.061	0.484
932.000	524.700	80.001	19.995	103.060	20.083	1.224	0.503
932.500	524.957	80.000	19.995	103.061	20.086	1.011	0.514
933.000	525.228	80.001	19.996	103.061	20.086	1.057	0.517
933.500	525.477	79.998	19.995	103.060	20.085	1.078	0.524
934.000	525.705	79.998	19.995	103.062	20.082	1.293	0.499
934.500	525.944	80.002	19.996	103.064	20.082	1.302	0.472
935.000	526.220	80.000	19.995	103.064	20.083	1.245	0.491
935.500	526.455	80.000	19.996	103.064	20.082	1.327	0.513
936.000	526.748	79.999	19.995	103.060	20.082	1.316	0.520
936.500	526.945	80.000	19.995	103.056	20.085	1.134	0.509
937.000	527.201	80.001	19.996	103.050	20.086	1.021	0.471
937.500	527.476	79.999	19.995	103.048	20.082	1.289	0.492
938.000	527.729	80.001	19.995	103.045	20.088	0.894	0.529
938.500	527.975	80.000	19.995	103.045	20.083	1.233	0.513
939.000	528.231	80.000	19.995	103.045	20.084	1.210	0.500
939.500	528.488	79.999	19.996	103.049	20.082	1.320	0.507
940.000	528.761	79.999	19.995	103.051	20.084	1.209	0.522
940.500	529.002	80.000	19.994	103.055	20.087	1.000	0.523
941.000	529.239	80.000	19.994	103.058	20.086	1.065	0.496
941.500	529.512	80.000	19.996	103.061	20.086	1.065	0.494
942.000	529.768	80.001	19.995	103.064	20.084	1.182	0.520
942.500	530.011	80.001	19.995	103.065	20.085	1.105	0.514
943.000	530.295	80.001	19.996	103.063	20.081	1.411	0.513
943.500	530.553	80.002	19.994	103.063	20.084	1.151	0.535
944.000	530.821	80.001	19.995	103.065	20.085	1.124	0.534
944.500	531.045	80.000	19.994	103.064	20.087	0.984	0.509
945.000	531.294	80.000	19.995	103.062	20.084	1.161	0.483
945.500	531.570	80.001	19.995	103.061	20.086	1.042	0.499
946.000	531.777	80.000	19.994	103.060	20.088	0.913	0.504
946.500	532.021	79.999	19.994	103.057	20.087	0.981	0.467
947.000	532.308	80.001	19.994	103.053	20.084	1.207	0.491
947.500	532.555	80.000	19.995	103.051	20.087	1.000	0.533
948.000	532.760	80.000	19.996	103.053	20.083	1.251	0.493
948.500	533.061	80.002	19.995	103.051	20.083	1.235	0.478
949.000	533.277	80.001	19.996	103.053	20.085	1.090	0.511
949.500	533.515	80.001	19.995	103.059	20.085	1.095	0.486
950.000	533.782	80.001	19.996	103.063	20.084	1.159	0.480
950.500	534.058	80.001	19.995	103.066	20.086	1.051	0.524
951.000	534.293	80.000	19.995	103.070	20.082	1.298	0.527
951.500	534.561	79.999	19.994	103.068	20.084	1.216	0.507
952.000	534.813	80.000	19.995	103.061	20.085	1.111	0.511
952.500	535.044	79.999	19.994	103.058	20.087	0.992	0.501
953.000	535.316	80.000	19.995	103.058	20.083	1.247	0.493
953.500	535.547	79.999	19.997	103.060	20.088	0.921	0.503
954.000	535.821	80.000	19.995	103.062	20.087	0.942	0.504
954.500	536.055	80.000	19.995	103.068	20.085	1.103	0.506
955.000	536.313	80.000	19.994	103.068	20.088	0.885	0.500
955.500	536.571	79.999	19.995	103.068	20.090	0.768	0.504
956.000	536.812	80.000	19.995	103.064	20.090	0.781	0.507
956.500	537.071	80.000	19.995	103.058	20.091	0.705	0.499
957.000	537.325	80.000	19.995	103.057	20.088	0.877	0.506
957.500	537.562	80.000	19.996	103.061	20.091	0.718	0.502
958.000	537.799	80.000	19.995	103.059	20.090	0.787	0.483
958.500	538.091	79.999	19.996	103.059	20.090	0.778	0.501
959.000	538.337	79.999	19.995	103.060	20.087	0.940	0.533
959.500	538.549	79.999	19.995	103.058	20.089	0.860	0.498
960.000	538.832	79.999	19.995	103.055	20.088	0.887	0.477
960.500	539.063	79.998	19.995	103.050	20.088	0.875	0.504
961.000	539.335	80.000	19.995	103.049	20.089	0.820	0.509
961.500	539.562	79.998	19.996	103.051	20.088	0.898	0.502
962.000	539.835	79.999	19.995	103.050	20.087	0.956	0.500
962.500	540.066	79.999	19.996	103.046	20.087	0.975	0.502
963.000	540.351	79.999	19.995	103.051	20.085	1.143	0.510
963.500	540.606	80.000	19.995	103.053	20.087	0.975	0.528
964.000	540.857	80.000	19.996	103.049	20.088	0.896	0.523
964.500	541.121	79.999	19.994	103.048	20.087	0.988	0.511
965.000	541.356	79.999	19.994	103.047	20.090	0.795	0.507
965.500	541.593	79.999	19.995	103.044	20.088	0.896	0.486
966.000	541.863	80.000	19.995	103.047	20.089	0.827	0.490
966.500	542.144	80.000	19.995	103.048	20.088	0.913	0.529
967.000	542.363	79.999	19.996	103.049	20.089	0.839	0.525
967.500	542.660	80.000	19.995	103.051	20.087	0.988	0.508
968.000	542.865	79.999	19.995	103.053	20.087	0.967	0.509
968.500	543.124	80.000	19.995	103.055	20.085	1.086	0.483
969.000	543.428	79.999	19.995	103.058	20.087	1.007	0.513
969.500	543.670	79.999	19.994	103.058	20.084	1.164	0.554
970.000	543.928	80.001	19.994	103.060	20.089	0.833	0.523
970.500	544.188	80.002	19.995	103.064	20.087	0.954	0.509
971.000	544.444	80.000	19.995	103.063	20.086	1.025	0.517
971.500	544.713	80.000	19.994	103.062	20.088	0.891	0.520
972.000	544.938	80.000	19.996	103.066	20.090	0.799	0.510
972.500	545.208	80.000	19.995	103.069	20.089	0.810	0.494
973.000	545.452	80.000	19.994	103.069	20.088	0.887	0.504
973.500	545.697	80.001	19.995	103.070	20.089	0.852	0.501
974.000	545.928	80.001	19.995	103.075	20.089	0.812	0.483
974.500	546.222	80.000	19.995	103.076	20.088	0.887	0.501
975.000	546.516	80.003	19.995	103.077	20.088	0.927	0.556
975.500	546.728	80.002	19.994	103.074	20.088	0.921	0.547
976.000	546.982	79.999	19.995	103.068	20.088	0.935	0.486
976.500	547.244	80.001	19.995	103.062	20.090	0.743	0.491
977.000	547.509	80.000	19.995	103.058	20.086	1.071	0.521
977.500	547.797	80.001	19.996	103.056	20.089	0.864	0.540
978.000	548.013	80.001	19.994	103.059	20.091	0.707	0.529
978.500	548.300	80.001	19.996	103.059	20.089	0.826	0.504
979.000	548.532	80.001	19.995	103.063	20.088	0.925	0.511
979.500	548.818	80.001	19.995	103.060	20.092	0.632	0.518
980.000	549.067	80.002	19.996	103.059	20.090	0.735	0.526
980.500	549.341	80.001	19.996	103.059	20.093	0.538	0.529
981.000	549.625	80.000	19.995	103.063	20.092	0.594	0.540
981.500	549.883	80.001	19.995	103.064	20.092	0.622	0.550
982.000	550.126	80.000	19.995	103.068	20.089	0.866	0.522
982.500	550.381	80.000	19.995	103.070	20.092	0.619	0.500
983.000	550.660	80.001	19.995	103.070	20.092	0.634	0.516
983.500	550.901	79.999	19.995	103.071	20.089	0.850	0.527
984.000	551.161	80.001	19.996	103.072	20.091	0.720	0.510
984.500	551.441	79.999	19.995	103.075	20.091	0.707	0.521
985.000	551.681	79.999	19.994	103.077	20.092	0.622	0.530
985.500	551.947	80.000	19.995	103.076	20.091	0.678	0.513
986.000	552.208	80.000	19.996	103.073	20.090	0.764	0.517
986.500	552.478	80.001	19.996	103.069	20.093	0.552	0.529
987.000	552.743	79.999	19.996	103.068	20.092	0.630	0.533
987.500	552.982	79.999	19.996	103.068	20.089	0.802	0.519
988.000	553.256	79.998	19.995	103.068	20.093	0.523	0.508
988.500	553.497	80.000	19.995	103.072	20.090	0.755	0.514
989.000	553.812	80.000	19.995	103.075	20.090	0.760	0.536
989.500	554.080	80.001	19.996	103.075	20.092	0.596	0.570
990.000	554.340	80.001	19.995	103.070	20.092	0.643	0.556
990.500	554.583	80.001	19.995	103.069	20.091	0.712	0.516
991.000	554.868	80.002	19.995	103.068	20.092	0.636	0.515
991.500	555.151	80.002	19.996	103.065	20.093	0.575	0.547
992.000	555.381	80.001	19.996	103.065	20.093	0.567	0.540
992.500	555.656	80.000	19.996	103.066	20.092	0.647	0.509
993.000	555.944	80.001	19.996	103.064	20.088	0.889	0.534
993.500	556.191	80.001	19.994	103.063	20.091	0.701	0.549
994.000	556.474	80.002	19.995	103.063	20.091	0.665	0.533
994.500	556.716	80.002	19.995	103.061	20.092	0.638	0.527
995.000	557.006	80.002	19.995	103.062	20.093	0.582	0.528
995.500	557.293	80.002	19.993	103.063	20.090	0.760	0.555
996.000	557.543	80.003	19.995	103.061	20.090	0.735	0.557
996.500	557.755	80.002	19.995	103.058	20.092	0.596	0.499
997.000	558.026	80.002	19.995	103.060	20.091	0.663	0.472
997.500	558.306	80.001	19.994	103.058	20.091	0.689	0.517
998.000	558.561	80.002	19.994	103.058	20.093	0.548	0.543
998.500	558.816	80.001	19.994	103.060	20.093	0.540	0.523
999.000	559.088	80.002	19.996	103.061	20.092	0.607	0.519
999.500	559.338	80.001	19.994	103.055	20.094	0.475	0.524
1000.000	559.575	80.002	19.994	103.054	20.091	0.726	0.505
1000.500	559.898	80.002	19.996	103.055	20.091	0.699	0.524
1001.000	560.146	80.001	19.995	103.055	20.092	0.601	0.566
1001.500	560.434	80.001	19.996	103.056	20.092	0.645	0.553
1002.000	560.671	80.001	19.996	103.062	20.091	0.667	0.530
1002.500	560.939	80.002	19.996	103.068	20.090	0.734	0.515
1003.000	561.202	80.003	19.994	103.069	20.092	0.655	0.518
1003.500	561.421	80.001	19.995	103.070	20.090	0.741	0.506
1004.000	561.694	80.000	19.995	103.070	20.091	0.693	0.487
1004.500	561.982	80.004	19.995	103.067	20.092	0.609	0.527
1005.000	562.249	80.001	19.995	103.060	20.090	0.733	0.558
1005.500	562.512	80.002	19.996	103.058	20.091	0.707	0.543
1006.000	562.777	80.001	19.996	103.058	20.091	0.730	0.529
1006.500	563.082	80.002	19.996	103.061	20.091	0.730	0.549
1007.000	563.296	80.002	19.996	103.064	20.091	0.707	0.545
1007.500	563.547	80.000	19.996	103.068	20.092	0.601	0.492
1008.000	563.810	80.000	19.996	103.064	20.094	0.458	0.490
1008.500	564.087	80.001	19.996	103.064	20.090	0.743	0.527
1009.000	564.332	80.000	19.997	103.064	20.090	0.753	0.531
1009.500	564.564	79.999	19.996	103.062	20.092	0.642	0.499
1010.000	564.826	79.999	19.998	103.058	20.089	0.814	0.485
1010.500	565.102	80.000	19.996	103.062	20.092	0.634	0.516
1011.000	565.375	80.000	19.996	103.060	20.091	0.722	0.544
1011.500	565.629	79.999	19.996	103.059	20.093	0.586	0.538
1012.000	565.861	79.999	19.995	103.062	20.091	0.678	0.507
1012.500	566.134	79.999	19.996	103.067	20.089	0.821	0.496
1013.000	566.366	79.998	19.998	103.068	20.091	0.697	0.505
1013.500	566.646	79.999	19.997	103.070	20.092	0.655	0.509
1014.000	566.904	79.999	19.998	103.070	20.092	0.632	0.525
1014.500	567.131	79.999	19.997	103.069	20.090	0.776	0.511
1015.000	567.396	80.001	19.996	103.070	20.091	0.665	0.488
1015.500	567.663	79.999	19.997	103.068	20.090	0.743	0.512
1016.000	567.914	80.000	19.996	103.062	20.090	0.741	0.525
1016.500	568.179	80.000	19.995	103.059	20.093	0.573	0.517
1017.000	568.426	80.000	19.996	103.057	20.094	0.454	0.514
1017.500	568.658	79.999	19.996	103.051	20.089	0.810	0.496
1018.000	568.927	80.000	19.995	103.048	20.089	0.854	0.490
1018.500	569.204	80.000	19.996	103.050	20.091	0.726	0.524
1019.000	569.465	79.999	19.996	103.052	20.088	0.884	0.542
1019.500	569.699	80.000	19.995	103.054	20.089	0.829	0.517
1020.000	569.973	80.000	19.995	103.056	20.089	0.812	0.502
1020.500	570.212	80.000	19.995	103.057	20.092	0.622	0.510
1021.000	570.500	80.000	19.995	103.057	20.090	0.770	0.520
1021.500	570.717	79.999	19.995	103.056	20.095	0.437	0.516
1022.000	570.960	80.001	19.994	103.055	20.091	0.669	0.482
1022.500	571.285	80.001	19.996	103.055	20.092	0.627	0.514
1023.000	571.505	80.000	19.994	103.054	20.093	0.554	0.557
1023.500	571.749	80.000	19.995	103.049	20.090	0.741	0.505
1024.000	572.023	80.000	19.994	103.050	20.092	0.601	0.491
1024.500	572.253	80.000	19.995	103.052	20.092	0.619	0.511
1025.000	572.541	80.000	19.994	103.056	20.092	0.645	0.511
1025.500	572.762	80.000	19.995	103.063	20.089	0.860	0.514
1026.000	573.049	80.001	19.996	103.067	20.091	0.722	0.509
1026.500	573.305	80.001	19.996	103.065	20.089	0.825	0.525
1027.000	573.565	80.001	19.995	103.064	20.090	0.739	0.529
1027.500	573.828	80.001	19.995	103.065	20.089	0.827	0.520
1028.000	574.101	80.000	19.995	103.063	20.088	0.925	0.529
1028.500	574.374	80.000	19.996	103.067	20.092	0.636	0.541
1029.000	574.608	79.999	19.995	103.064	20.088	0.875	0.527
1029.501	574.894	80.000	19.996	103.044	20.091	0.668	0.514
1030.001	575.169	80.000	19.996	103.027	20.088	0.919	0.541
1030.500	575.407	80.001	19.995	103.015	20.091	0.709	0.537
1031.000	575.675	80.000	19.995	103.007	20.088	0.881	0.510
1031.500	575.914	80.000	19.995	103.014	20.092	0.598	0.506
1032.000	576.191	80.000	19.996	103.049	20.088	0.883	0.511
1032.500	576.416	80.000	19.995	103.091	20.091	0.722	0.509
1033.001	576.666	79.999	19.995	103.109	20.087	0.996	0.489
1033.501	576.939	80.000	19.996	103.117	20.088	0.912	0.499
1034.000	577.212	80.001	19.996	103.118	20.092	0.651	0.535
1034.500	577.458	80.000	19.996	103.105	20.090	0.755	0.533
1035.000	577.707	80.000	19.995	103.078	20.093	0.567	0.507
1035.500	577.966	80.000	19.996	103.067	20.092	0.649	0.501
1036.000	578.261	79.999	19.995	103.065	20.091	0.730	0.531
1036.500	578.509	80.000	19.996	103.064	20.093	0.534	0.549
1037.000	578.748	80.000	19.995	103.061	20.090	0.737	0.515
1037.500	579.003	79.998	19.996	103.062	20.090	0.799	0.490
1038.000	579.280	79.999	19.996	103.065	20.094	0.481	0.512
1038.500	579.493	80.000	19.996	103.062	20.092	0.661	0.510
1039.000	579.772	79.999	19.996	103.061	20.090	0.749	0.491
1039.500	580.003	79.998	19.996	103.063	20.090	0.733	0.501
1040.000	580.268	80.000	19.996	103.063	20.094	0.511	0.503
1040.500	580.499	79.999	19.995	103.063	20.090	0.745	0.496
1041.000	580.790	79.999	19.995	103.064	20.090	0.755	0.510
1041.500	581.023	79.999	19.996	103.063	20.094	0.496	0.523
1042.000	581.267	79.999	19.996	103.064	20.093	0.538	0.500
1042.500	581.545	79.998	19.995	103.065	20.093	0.551	0.499
1043.000	581.787	79.999	19.995	103.068	20.091	0.686	0.521
1043.500	582.035	79.999	19.995	103.070	20.089	0.845	0.505
1044.000	582.299	79.998	19.996	103.072	20.091	0.691	0.501
1044.500	582.524	79.999	19.996	103.069	20.089	0.829	0.501
1045.000	582.784	79.998	19.996	103.064	20.089	0.837	0.487
1045.500	583.030	79.999	19.996	103.062	20.092	0.624	0.496
1046.000	583.314	79.998	19.996	103.060	20.091	0.670	0.518
1046.500	583.505	79.998	19.995	103.062	20.090	0.760	0.502
1047.000	583.740	79.998	19.995	103.064	20.090	0.762	0.450
1047.500	584.001	79.999	19.996	103.068	20.090	0.797	0.461
1048.001	584.271	79.999	19.996	103.068	20.090	0.793	0.513
1048.501	584.522	80.000	19.995	103.066	20.095	0.444	0.526
1049.000	584.761	80.001	19.995	103.063	20.091	0.718	0.505
1049.500	585.022	80.000	19.994	103.061	20.092	0.661	0.495
1050.000	585.257	80.000	19.995	103.058	20.091	0.701	0.499
1050.500	585.535	79.999	19.996	103.061	20.093	0.569	0.505
1051.000	585.783	80.000	19.995	103.064	20.092	0.653	0.519
1051.500	586.016	80.000	19.995	103.060	20.093	0.536	0.503
1052.000	586.270	80.001	19.995	103.057	20.096	0.324	0.484
1052.500	586.520	80.000	19.995	103.057	20.092	0.651	0.496
1053.000	586.761	79.999	19.995	103.049	20.092	0.596	0.498
1053.500	587.031	80.001	19.994	103.047	20.095	0.410	0.501
1054.000	587.284	79.999	19.996	103.052	20.092	0.638	0.517
1054.500	587.529	80.002	19.996	103.055	20.092	0.607	0.510
1055.000	587.705	80.000	19.994	103.054	20.094	0.517	0.459
1055.500	587.975	80.001	19.995	103.056	20.092	0.645	0.433
1056.000	588.233	80.002	19.994	103.057	20.092	0.603	0.487
1056.500	588.478	80.001	19.995	103.057	20.094	0.517	0.516
1057.000	588.741	80.003	19.994	103.060	20.096	0.347	0.505
1057.500	588.954	80.001	19.994	103.062	20.095	0.402	0.491
1058.000	589.237	80.002	19.994	103.063	20.092	0.601	0.486
1058.500	589.432	80.002	19.995	103.061	20.095	0.427	0.487
1059.000	589.677	80.001	19.994	103.062	20.095	0.416	0.459
1059.500	589.937	80.002	19.995	103.062	20.097	0.287	0.472
1060.001	590.174	80.001	19.995	103.058	20.093	0.532	0.501
1060.501	590.439	80.000	19.994	103.056	20.095	0.385	0.500
1061.000	590.673	80.000	19.996	103.059	20.095	0.419	0.501
1061.500	590.890	80.001	19.994	103.057	20.095	0.419	0.475
1062.001	591.132	80.001	19.994	103.055	20.095	0.398	0.455
1062.501	591.369	80.001	19.994	103.054	20.093	0.536	0.469
1063.000	591.653	80.001	19.994	103.056	20.094	0.513	0.500
1063.500	591.903	80.000	19.995	103.055	20.098	0.241	0.528
1064.000	592.113	80.001	19.995	103.054	20.093	0.546	0.497
1064.500	592.406	80.001	19.995	103.050	20.094	0.517	0.482
1065.000	592.608	80.001	19.995	103.050	20.095	0.416	0.499
1065.500	592.863	80.000	19.995	103.047	20.095	0.435	0.476
1066.000	593.100	80.002	19.996	103.046	20.095	0.412	0.474
1066.500	593.347	80.001	19.995	103.047	20.094	0.477	0.488
1067.000	593.595	80.001	19.995	103.052	20.093	0.550	0.490
1067.500	593.841	80.001	19.996	103.055	20.093	0.544	0.495
1068.000	594.062	80.000	19.995	103.060	20.092	0.592	0.480
1068.500	594.316	80.001	19.996	103.061	20.094	0.496	0.471
1069.000	594.570	80.001	19.995	103.063	20.093	0.588	0.491
1069.500	594.822	80.001	19.996	103.062	20.095	0.450	0.507
1070.000	595.104	80.002	19.995	103.062	20.093	0.584	0.521
1070.500	595.351	80.001	19.996	103.062	20.095	0.441	0.532
1071.000	595.602	80.001	19.998	103.059	20.094	0.475	0.513
1071.500	595.810	80.000	19.997	103.059	20.094	0.504	0.479
1072.001	596.044	80.000	19.996	103.061	20.093	0.582	0.450
1072.501	596.313	80.002	19.995	103.063	20.094	0.519	0.472
1073.000	596.528	80.001	19.996	103.060	20.092	0.620	0.493
1073.500	596.804	80.000	19.996	103.064	20.093	0.590	0.488
1074.000	597.054	80.003	19.997	103.065	20.095	0.404	0.509
1074.500	597.260	80.000	19.996	103.063	20.097	0.289	0.491
1075.000	597.550	80.002	19.996	103.060	20.094	0.498	0.476
1075.500	597.785	80.000	19.996	103.061	20.099	0.126	0.510
1076.000	598.033	80.002	19.997	103.060	20.096	0.362	0.504
1076.500	598.269	80.001	19.996	103.060	20.097	0.274	0.483
1077.000	598.542	80.002	19.995	103.062	20.095	0.419	0.497
1077.500	598.744	80.002	19.996	103.065	20.094	0.490	0.493
1078.000	599.000	80.002	19.995	103.066	20.096	0.339	0.467
1078.500	599.240	80.001	19.995	103.069	20.097	0.306	0.477
1079.000	599.525	80.001	19.996	103.070	20.096	0.343	0.510
1079.500	599.727	80.002	19.995	103.070	20.095	0.446	0.506
1080.001	599.993	80.001	19.994	103.071	20.091	0.712	0.478
1080.501	600.237	80.003	19.996	103.072	20.093	0.534	0.489
1081.000	600.481	80.003	19.995	103.071	20.095	0.437	0.499
1081.500	600.708	80.002	19.996	103.071	20.096	0.343	0.480
1082.000	600.986	80.003	19.995	103.070	20.094	0.473	0.488
1082.500	601.203	80.002	19.996	103.066	20.093	0.540	0.500
1083.000	601.474	80.003	19.995	103.061	20.090	0.766	0.491
1083.500	601.752	80.003	19.995	103.058	20.094	0.506	0.519
1084.000	601.961	80.003	19.995	103.055	20.093	0.527	0.518
1084.500	602.214	80.004	19.995	103.056	20.092	0.619	0.475
1085.000	602.488	80.003	19.996	103.059	20.094	0.487	0.494
1085.500	602.779	80.004	19.996	103.064	20.093	0.590	0.546
1086.000	602.986	80.001	19.995	103.067	20.094	0.481	0.532
1086.500	603.244	80.003	19.994	103.071	20.094	0.492	0.481
1087.001	603.482	80.002	19.996	103.070	20.092	0.655	0.480
1087.501	603.734	80.002	19.995	103.071	20.095	0.412	0.493
1088.000	604.032	80.003	19.995	103.072	20.092	0.634	0.520
1088.500	604.232	80.002	19.996	103.071	20.092	0.623	0.524
1089.000	604.546	80.001	19.995	103.068	20.093	0.573	0.506
1089.500	604.767	80.002	19.995	103.066	20.093	0.580	0.524
1090.000	605.028	80.001	19.995	103.066	20.095	0.427	0.509
1090.500	605.298	80.001	19.995	103.066	20.090	0.770	0.507
1091.000	605.550	80.000	19.995	103.068	20.091	0.693	0.527
1091.500	605.811	80.001	19.995	103.072	20.092	0.638	0.517
1092.000	606.055	80.000	19.995	103.074	20.095	0.439	0.508
1092.500	606.285	80.000	19.995	103.072	20.093	0.588	0.489
1093.000	606.543	80.000	19.995	103.070	20.093	0.590	0.481
1093.500	606.812	80.000	19.996	103.065	20.092	0.640	0.508
1094.000	607.066	80.001	19.995	103.065	20.091	0.663	0.525
1094.500	607.280	80.001	19.997	103.065	20.091	0.703	0.495
1095.000	607.558	80.000	19.996	103.068	20.091	0.672	0.480
1095.500	607.839	79.999	19.996	103.071	20.090	0.791	0.525
1096.000	608.078	80.001	19.995	103.075	20.091	0.718	0.539
1096.500	608.345	80.000	19.997	103.076	20.093	0.586	0.513
1097.000	608.565	80.000	19.995	103.076	20.091	0.713	0.497
1097.500	608.860	79.999	19.995	103.076	20.091	0.703	0.502
1098.000	609.099	79.999	19.996	103.076	20.093	0.555	0.525
1098.500	609.350	80.000	19.996	103.076	20.091	0.674	0.511
1099.000	609.638	80.000	19.996	103.076	20.093	0.555	0.514
1099.500	609.901	80.000	19.996	103.076	20.094	0.465	0.546
1100.000	610.158	80.000	19.996	103.075	20.095	0.423	0.535
1100.500	610.404	79.999	19.996	103.075	20.093	0.565	0.511
1101.000	610.653	80.000	19.997	103.075	20.093	0.584	0.499
1101.500	610.911	79.999	19.997	103.074	20.092	0.647	0.501
1102.000	611.191	79.999	19.996	103.075	20.094	0.508	0.522
1102.500	611.454	79.999	19.996	103.076	20.094	0.504	0.541
1103.000	611.716	79.999	19.997	103.077	20.095	0.441	0.534
1103.500	611.981	79.999	19.996	103.076	20.091	0.701	0.526
1104.000	612.262	80.001	19.997	103.076	20.094	0.490	0.536
1104.501	612.491	79.998	19.996	103.073	20.093	0.548	0.528
1105.001	612.753	80.000	19.997	103.073	20.093	0.548	0.501
1105.500	612.989	79.998	19.997	103.072	20.095	0.439	0.494
1106.001	613.260	80.000	19.997	103.072	20.095	0.427	0.502
1106.501	613.542	79.998	19.996	103.072	20.090	0.758	0.530
1107.001	613.767	80.000	19.996	103.075	20.093	0.542	0.530
1107.501	614.009	80.000	19.996	103.075	20.095	0.433	0.487
1108.000	614.281	79.999	19.996	103.075	20.091	0.690	0.491
1108.500	614.532	79.999	19.997	103.075	20.095	0.429	0.519
1109.001	614.810	80.000	19.995	103.076	20.092	0.611	0.526
1109.501	615.035	79.999	19.997	103.076	20.092	0.615	0.516
1110.000	615.310	80.000	19.996	103.076	20.091	0.714	0.502
1110.500	615.523	80.001	19.996	103.075	20.092	0.645	0.494
1111.000	615.823	80.000	19.996	103.076	20.093	0.575	0.500
1111.500	616.078	80.000	19.996	103.075	20.093	0.554	0.534
1112.000	616.360	79.998	19.995	103.075	20.092	0.600	0.547
1112.500	616.572	80.001	19.997	103.075	20.091	0.668	0.516
1113.000	616.846	80.000	19.995	103.076	20.095	0.419	0.490
1113.500	617.169	80.000	19.994	103.076	20.094	0.496	0.541
1114.000	617.395	80.000	19.996	103.075	20.094	0.471	0.573
1114.500	617.624	79.999	19.995	103.076	20.092	0.626	0.502
1115.000	617.931	80.000	19.994	103.076	20.091	0.672	0.495
1115.500	618.153	80.000	19.994	103.076	20.091	0.688	0.533
1116.000	618.408	79.998	19.994	103.075	20.095	0.395	0.503
1116.500	618.699	80.001	19.996	103.076	20.096	0.320	0.511
1117.000	618.985	80.000	19.996	103.074	20.093	0.588	0.561
1117.500	619.247	80.000	19.996	103.073	20.093	0.563	0.562
1118.000	619.460	80.000	19.995	103.073	20.094	0.517	0.512
1118.500	619.730	80.001	19.995	103.074	20.091	0.701	0.479
1119.000	619.986	80.000	19.996	103.075	20.093	0.538	0.504
1119.500	620.208	80.000	19.996	103.077	20.093	0.554	0.502
1120.000	620.500	79.999	19.995	103.078	20.091	0.722	0.496
1120.501	620.730	80.000	19.996	103.077	20.093	0.534	0.518
1121.001	621.000	79.999	19.995	103.076	20.092	0.596	0.511
1121.501	621.258	80.000	19.996	103.076	20.092	0.600	0.514
1122.000	621.498	79.999	19.996	103.076	20.092	0.657	0.513
1122.500	621.751	80.000	19.996	103.076	20.090	0.766	0.496
1123.000	621.995	79.999	19.995	103.076	20.096	0.362	0.495
1123.500	622.276	80.000	19.995	103.076	20.092	0.657	0.511
1124.000	622.547	80.001	19.995	103.075	20.091	0.728	0.538
1124.500	622.765	80.000	19.995	103.073	20.091	0.670	0.521
1125.000	623.038	80.001	19.995	103.071	20.093	0.580	0.490
1125.500	623.304	79.999	19.995	103.070	20.089	0.860	0.515
1126.001	623.542	79.999	19.995	103.069	20.091	0.716	0.522
1126.501	623.792	79.999	19.996	103.069	20.091	0.709	0.496
1127.000	624.019	80.000	19.995	103.071	20.093	0.567	0.483
1127.500	624.259	80.000	19.996	103.073	20.089	0.843	0.472
1128.000	624.532	80.000	19.995	103.073	20.089	0.826	0.490
1128.500	624.763	80.000	19.995	103.074	20.088	0.883	0.508
1129.000	625.025	79.999	19.996	103.074	20.089	0.806	0.499
1129.500	625.292	80.000	19.995	103.075	20.090	0.749	0.512
1130.000	625.538	80.001	19.995	103.075	20.093	0.538	0.521
1130.500	625.760	80.000	19.995	103.076	20.092	0.653	0.490
1131.000	626.034	79.999	19.995	103.076	20.091	0.709	0.482
1131.500	626.290	80.000	19.995	103.077	20.088	0.917	0.513
1132.000	626.517	80.001	19.995	103.077	20.091	0.711	0.506
1132.500	626.789	80.001	19.994	103.077	20.093	0.542	0.491
1133.000	627.013	80.001	19.996	103.077	20.088	0.910	0.498
1133.500	627.272	80.001	19.995	103.078	20.090	0.785	0.490
1134.000	627.549	80.001	19.995	103.080	20.087	0.996	0.509
1134.500	627.742	80.000	19.996	103.080	20.087	0.954	0.503
1135.000	628.046	80.000	19.995	103.081	20.089	0.852	0.484
1135.500	628.259	80.000	19.995	103.081	20.088	0.902	0.507
1136.000	628.496	80.000	19.995	103.080	20.087	0.969	0.484
1136.500	628.747	80.001	19.994	103.077	20.089	0.868	0.469
1137.000	628.997	80.001	19.995	103.076	20.089	0.833	0.494
1137.500	629.277	80.000	19.996	103.075	20.088	0.877	0.516
1138.000	629.529	80.001	19.996	103.080	20.089	0.805	0.531
1138.500	629.765	80.002	19.996	103.080	20.089	0.851	0.510
1139.000	629.996	80.002	19.996	103.082	20.090	0.778	0.477
1139.500	630.243	80.002	19.996	103.082	20.088	0.914	0.472
1140.000	630.502	80.002	19.996	103.081	20.090	0.762	0.493
1140.500	630.779	80.002	19.995	103.076	20.091	0.718	0.521
1141.000	631.026	80.001	19.995	103.075	20.087	0.950	0.530
1141.500	631.249	80.001	19.995	103.075	20.090	0.761	0.497
1142.000	631.510	80.002	19.995	103.076	20.094	0.506	0.477
1142.500	631.712	80.001	19.995	103.076	20.090	0.785	0.473
1143.000	632.032	80.003	19.996	103.077	20.090	0.772	0.492
1143.500	632.297	80.002	19.994	103.079	20.091	0.709	0.554
1144.000	632.548	80.002	19.995	103.080	20.091	0.678	0.551
1144.500	632.768	80.000	19.995	103.080	20.091	0.707	0.494
1145.000	633.013	80.002	19.995	103.081	20.091	0.728	0.468
1145.501	633.296	80.002	19.994	103.081	20.086	1.023	0.496
1146.001	633.556	80.001	19.996	103.079	20.090	0.782	0.535
1146.500	633.827	80.002	19.996	103.079	20.092	0.621	0.537
1147.000	634.032	80.001	19.996	103.078	20.088	0.875	0.504
1147.500	634.278	80.002	19.996	103.078	20.091	0.713	0.464
1148.000	634.544	80.000	19.995	103.079	20.091	0.726	0.481
1148.500	634.812	80.001	19.995	103.085	20.087	0.969	0.523
1149.001	635.094	80.001	19.996	103.086	20.091	0.724	0.542
1149.501	635.330	80.001	19.996	103.085	20.088	0.874	0.534
1150.000	635.608	80.003	19.996	103.084	20.087	0.948	0.516
1150.500	635.849	80.001	19.995	103.084	20.087	0.944	0.517
1151.000	636.132	80.002	19.995	103.080	20.086	1.052	0.522
1151.500	636.378	80.001	19.995	103.083	20.089	0.828	0.526
1152.000	636.632	80.000	19.995	103.086	20.089	0.866	0.514
1152.500	636.890	80.002	19.996	103.089	20.092	0.613	0.506
1153.000	637.162	80.002	19.995	103.092	20.089	0.862	0.521
1153.500	637.379	80.000	19.996	103.095	20.089	0.805	0.510
1154.000	637.648	80.003	19.995	103.096	20.092	0.646	0.487
1154.500	637.901	80.002	19.995	103.098	20.091	0.692	0.504
1155.000	638.206	80.002	19.995	103.102	20.089	0.860	0.540
1155.500	638.413	80.003	19.995	103.104	20.088	0.874	0.535
1156.000	638.681	80.001	19.996	103.105	20.086	1.014	0.493
1156.500	638.957	80.002	19.995	103.099	20.087	0.987	0.509
1157.000	639.216	80.002	19.996	103.094	20.086	1.014	0.540
1157.500	639.505	80.002	19.995	103.089	20.088	0.927	0.542
1158.000	639.753	80.002	19.995	103.083	20.085	1.123	0.542
1158.500	639.957	80.002	19.996	103.084	20.092	0.594	0.494
1159.000	640.257	80.002	19.995	103.088	20.087	0.989	0.478
1159.501	640.499	80.004	19.995	103.094	20.090	0.743	0.523
1160.001	640.740	80.003	19.996	103.096	20.084	1.152	0.512
1160.500	640.981	80.002	19.995	103.098	20.086	1.048	0.483
1161.000	641.261	80.001	19.995	103.095	20.086	1.073	0.502
1161.500	641.526	80.002	19.995	103.093	20.091	0.720	0.533
1162.000	641.757	80.002	19.995	103.090	20.085	1.081	0.521
1162.500	642.023	80.002	19.995	103.090	20.087	0.964	0.496
1163.000	642.311	80.000	19.996	103.091	20.087	0.987	0.525
1163.500	642.516	80.002	19.995	103.088	20.087	0.970	0.524
1164.000	642.758	80.002	19.997	103.088	20.087	0.960	0.470
1164.500	643.029	80.003	19.995	103.090	20.087	0.994	0.480
1165.000	643.242	80.002	19.995	103.092	20.086	1.063	0.499
1165.500	643.528	80.002	19.995	103.096	20.086	1.073	0.491
1166.000	643.847	80.002	19.994	103.103	20.087	0.985	0.552
1166.500	644.058	80.001	19.996	103.108	20.085	1.138	0.568
1167.000	644.289	80.001	19.996	103.110	20.088	0.908	0.486
1167.500	644.564	80.001	19.995	103.110	20.088	0.937	0.474
1168.001	644.833	80.002	19.995	103.110	20.086	1.016	0.525
1168.501	645.069	80.002	19.996	103.110	20.085	1.083	0.525
1169.001	645.317	80.001	19.995	103.110	20.087	0.971	0.494
1169.501	645.569	80.001	19.995	103.111	20.089	0.862	0.492
1170.001	645.807	80.001	19.995	103.112	20.088	0.920	0.495
1170.501	646.095	79.999	19.995	103.113	20.089	0.853	0.508
1171.000	646.355	79.999	19.995	103.113	20.090	0.757	0.537
1171.500	646.610	80.000	19.997	103.112	20.086	1.027	0.531
1172.000	646.849	79.999	19.996	103.109	20.089	0.830	0.504
1172.501	647.137	79.999	19.995	103.109	20.085	1.146	0.510
1173.001	647.328	79.999	19.997	103.109	20.086	1.016	0.503
1173.500	647.642	79.998	19.996	103.109	20.085	1.146	0.492
1174.000	647.883	79.998	19.995	103.109	20.087	0.966	0.530
1174.500	648.142	79.999	19.996	103.110	20.087	0.998	0.528
1175.001	648.412	79.999	19.997	103.109	20.088	0.927	0.514
1175.501	648.679	79.999	19.996	103.109	20.087	0.993	0.533
1176.000	648.922	79.999	19.996	103.108	20.086	1.037	0.524
1176.500	649.175	79.999	19.995	103.106	20.084	1.207	0.503
1177.000	649.442	79.999	19.996	103.109	20.084	1.175	0.508
1177.500	649.704	79.999	19.996	103.107	20.085	1.079	0.524
1178.000	649.940	79.998	19.995	103.107	20.086	1.012	0.513
1178.500	650.214	79.998	19.996	103.108	20.085	1.088	0.504
1179.000	650.497	79.999	19.996	103.111	20.085	1.090	0.534
1179.500	650.732	79.999	19.995	103.112	20.085	1.092	0.537
1180.000	650.973	79.999	19.996	103.115	20.087	0.945	0.497
1180.500	651.256	80.000	19.995	103.113	20.087	0.941	0.500
1181.000	651.483	79.998	19.995	103.110	20.085	1.081	0.517
1181.500	651.765	79.999	19.996	103.108	20.087	1.004	0.510
1182.000	652.021	80.000	19.996	103.108	20.090	0.799	0.523
1182.500	652.303	79.999	19.996	103.109	20.089	0.832	0.538
1183.000	652.550	79.999	19.995	103.110	20.090	0.786	0.534
1183.500	652.797	79.999	19.995	103.111	20.088	0.933	0.512
1184.000	653.047	79.999	19.995	103.112	20.089	0.849	0.496
1184.500	653.340	79.999	19.995	103.112	20.087	0.981	0.520
1185.001	653.549	79.999	19.996	103.112	20.090	0.772	0.522
1185.501	653.826	80.000	19.996	103.113	20.087	0.945	0.494
1186.000	654.073	79.999	19.996	103.114	20.088	0.922	0.505
1186.500	654.332	79.998	19.996	103.115	20.089	0.834	0.515
1187.000	654.552	79.999	19.996	103.114	20.089	0.814	0.493
1187.500	654.836	80.000	19.996	103.114	20.090	0.749	0.492
1188.000	655.107	79.999	19.996	103.113	20.085	1.117	0.529
1188.500	655.375	80.000	19.996	103.113	20.088	0.931	0.547
1189.000	655.585	79.999	19.996	103.114	20.088	0.916	0.509
1189.500	655.858	80.000	19.995	103.114	20.087	0.972	0.480
1190.000	656.110	80.000	19.996	103.114	20.085	1.127	0.504
1190.500	656.357	80.000	19.996	103.114	20.087	0.996	0.512
1191.000	656.599	80.000	19.996	103.113	20.082	1.288	0.494
1191.500	656.895	79.999	19.996	103.112	20.085	1.131	0.514
1192.000	657.101	79.998	19.996	103.111	20.084	1.173	0.520
1192.500	657.374	79.999	19.997	103.111	20.081	1.380	0.491
1193.000	657.612	79.999	19.997	103.112	20.082	1.301	0.495
1193.500	657.869	79.998	19.997	103.112	20.086	1.021	0.503
1194.000	658.136	79.999	19.997	103.113	20.085	1.111	0.509
1194.500	658.398	79.999	19.996	103.113	20.087	1.004	0.526
1195.000	658.637	79.998	19.995	103.113	20.084	1.196	0.515
1195.500	658.910	79.999	19.997	103.113	20.083	1.251	0.507
1196.000	659.157	79.999	19.996	103.112	20.084	1.188	0.516
1196.500	659.414	79.999	19.998	103.113	20.083	1.244	0.512
1197.000	659.660	79.999	19.997	103.113	20.081	1.366	0.503
1197.501	659.926	79.999	19.997	103.114	20.085	1.110	0.507
1198.001	660.167	79.998	19.997	103.114	20.082	1.345	0.510
1198.500	660.419	79.999	19.996	103.115	20.084	1.165	0.500
1199.000	660.679	79.999	19.997	103.115	20.081	1.366	0.502
1199.500	660.956	79.998	19.997	103.116	20.081	1.418	0.525
1200.000	661.196	79.999	19.997	103.116	20.083	1.274	0.527
1200.500	661.437	79.998	19.997	103.119	20.082	1.297	0.499
1201.000	661.721	79.998	19.997	103.119	20.084	1.202	0.503
1201.500	661.928	79.998	19.996	103.121	20.084	1.150	0.508
1202.000	662.170	79.997	19.995	103.124	20.084	1.186	0.470
1202.500	662.443	79.999	19.996	103.128	20.082	1.303	0.482
1203.000	662.680	79.997	19.996	103.132	20.081	1.407	0.513
1203.500	662.939	79.999	19.996	103.133	20.084	1.205	0.503
1204.000	663.195	79.999	19.996	103.133	20.081	1.391	0.505
1204.500	663.439	79.998	19.996	103.131	20.084	1.177	0.508
1205.000	663.712	79.998	19.996	103.127	20.083	1.238	0.509
1205.500	663.952	79.999	19.996	103.122	20.083	1.275	0.515
1206.000	664.187	79.999	19.996	103.123	20.081	1.403	0.494
1206.500	664.462	79.999	19.995	103.124	20.084	1.154	0.493
1207.000	664.672	79.999	19.995	103.124	20.082	1.288	0.497
1207.500	665.013	79.998	19.996	103.126	20.083	1.252	0.518
1208.000	665.228	80.000	19.995	103.128	20.082	1.340	0.554
1208.500	665.437	79.998	19.996	103.129	20.082	1.332	0.490
1209.000	665.700	79.998	19.995	103.129	20.081	1.407	0.448
1209.500	665.979	79.999	19.996	103.128	20.081	1.409	0.507
1210.000	666.219	80.000	19.995	103.125	20.080	1.482	0.531
1210.500	666.479	79.998	19.995	103.122	20.079	1.553	0.510
1211.000	666.733	79.999	19.995	103.121	20.080	1.466	0.507
1211.500	666.998	79.998	19.996	103.120	20.082	1.342	0.516
1212.000	667.216	80.000	19.995	103.123	20.081	1.382	0.501
1212.500	667.467	80.001	19.995	103.128	20.081	1.361	0.476
1213.001	667.682	79.999	19.995	103.131	20.078	1.601	0.467
1213.501	667.962	79.999	19.995	103.131	20.077	1.668	0.481
1214.000	668.204	80.000	19.995	103.129	20.080	1.487	0.509
1214.500	668.483	80.001	19.996	103.132	20.079	1.530	0.522
1215.000	668.685	80.000	19.996	103.134	20.077	1.649	0.501
1215.501	668.983	80.000	19.995	103.136	20.081	1.422	0.490
1216.001	669.212	80.001	19.996	103.143	20.081	1.415	0.513
1216.500	669.472	80.001	19.995	103.148	20.078	1.603	0.508
1217.000	669.715	80.001	19.995	103.148	20.083	1.238	0.496
1217.500	669.963	80.002	19.995	103.149	20.084	1.198	0.496
1218.000	670.221	80.001	19.995	103.149	20.080	1.453	0.498
1218.500	670.489	80.002	19.996	103.149	20.085	1.083	0.517
1219.000	670.714	80.000	19.996	103.151	20.081	1.401	0.510
1219.500	670.969	80.002	19.995	103.152	20.082	1.338	0.487
1220.000	671.219	80.002	19.996	103.151	20.080	1.493	0.492
1220.501	671.503	80.000	19.997	103.150	20.080	1.443	0.519
1221.001	671.723	80.001	19.995	103.147	20.080	1.465	0.519
1221.500	671.963	80.001	19.994	103.147	20.080	1.468	0.482
1222.000	672.194	80.000	19.995	103.147	20.078	1.589	0.465
1222.500	672.477	80.002	19.995	103.147	20.074	1.881	0.492
1223.000	672.721	79.999	19.995	103.148	20.080	1.428	0.521
1223.500	672.934	80.001	19.995	103.152	20.080	1.436	0.492
1224.000	673.200	79.999	19.995	103.152	20.079	1.507	0.468
1224.500	673.510	80.000	19.995	103.152	20.079	1.528	0.527
1225.000	673.715	80.001	19.995	103.152	20.077	1.635	0.546
1225.500	673.994	80.001	19.995	103.153	20.077	1.664	0.500
1226.000	674.254	80.000	19.996	103.154	20.078	1.618	0.512
1226.501	674.508	80.000	19.996	103.155	20.080	1.461	0.527
1227.001	674.774	79.999	19.995	103.155	20.078	1.591	0.517
1227.500	674.976	80.000	19.994	103.156	20.077	1.635	0.494
1228.000	675.234	79.999	19.995	103.157	20.073	1.921	0.464
1228.500	675.508	79.999	19.997	103.158	20.078	1.590	0.496
1229.000	675.747	80.002	19.995	103.159	20.077	1.643	0.522
1229.500	675.988	79.998	19.995	103.160	20.077	1.689	0.496
1230.000	676.278	79.999	19.995	103.162	20.079	1.521	0.506
1230.501	676.530	79.999	19.995	103.162	20.076	1.724	0.537
1231.001	676.797	80.000	19.996	103.161	20.078	1.624	0.530
1231.500	677.043	80.000	19.996	103.161	20.075	1.793	0.516
1232.000	677.345	79.999	19.996	103.161	20.075	1.789	0.531
1232.500	677.586	79.999	19.997	103.160	20.074	1.869	0.546
1233.000	677.822	80.000	19.996	103.165	20.074	1.889	0.510
1233.501	678.061	79.999	19.996	103.167	20.074	1.845	0.476
1234.001	678.305	80.001	19.995	103.167	20.074	1.902	0.479
1234.500	678.529	79.999	19.995	103.166	20.073	1.967	0.475
1235.000	678.797	80.000	19.996	103.171	20.075	1.812	0.480
1235.500	679.024	80.002	19.996	103.168	20.073	1.914	0.493
1236.000	679.296	80.001	19.996	103.168	20.075	1.843	0.497
1236.500	679.537	80.000	19.995	103.173	20.073	1.925	0.506
1237.000	679.754	80.001	19.994	103.175	20.072	1.987	0.485
1237.500	680.026	80.001	19.995	103.172	20.075	1.835	0.473
1238.000	680.299	80.001	19.995	103.174	20.073	1.946	0.517
1238.500	680.559	80.000	19.995	103.180	20.072	1.988	0.539
1239.000	680.808	80.002	19.995	103.182	20.074	1.893	0.522
1239.500	681.037	80.000	19.994	103.187	20.075	1.791	0.493
1240.000	681.287	80.001	19.995	103.192	20.072	2.050	0.478
1240.500	681.537	80.001	19.995	103.194	20.071	2.084	0.489
1241.000	681.823	80.002	19.994	103.193	20.071	2.065	0.518
1241.500	682.024	80.001	19.995	103.192	20.071	2.060	0.512
1242.000	682.269	80.002	19.995	103.192	20.073	1.948	0.466
1242.500	682.557	80.001	19.995	103.188	20.074	1.879	0.489
1243.000	682.785	80.001	19.994	103.186	20.074	1.912	0.525
1243.500	683.040	80.001	19.995	103.184	20.067	2.380	0.500
1244.000	683.272	80.001	19.994	103.185	20.072	2.046	0.485
1244.500	683.527	80.003	19.995	103.185	20.071	2.058	0.487
1245.000	683.759	80.002	19.993	103.189	20.072	2.023	0.487
1245.500	683.998	80.002	19.994	103.191	20.071	2.096	0.479
1246.000	684.283	80.002	19.994	103.192	20.070	2.127	0.498
1246.500	684.520	80.001	19.994	103.190	20.069	2.230	0.523
1247.000	684.725	80.002	19.994	103.189	20.069	2.257	0.482
1247.500	684.993	80.002	19.994	103.189	20.070	2.167	0.457
1248.000	685.221	80.001	19.995	103.188	20.073	1.975	0.485
1248.500	685.501	80.001	19.994	103.188	20.071	2.069	0.503
1249.000	685.695	80.001	19.996	103.190	20.066	2.422	0.491
1249.500	685.997	80.000	19.994	103.189	20.069	2.236	0.485
1250.000	686.215	80.002	19.995	103.189	20.069	2.215	0.508
1250.500	686.496	80.001	19.996	103.191	20.067	2.343	0.509
1251.000	686.728	80.000	19.995	103.191	20.068	2.307	0.506
1251.500	686.997	80.001	19.995	103.194	20.069	2.242	0.507
1252.000	687.238	80.001	19.995	103.195	20.067	2.394	0.505
1252.500	687.489	79.999	19.995	103.194	20.069	2.225	0.501
1253.000	687.698	79.999	19.996	103.194	20.070	2.175	0.477
1253.501	687.978	79.999	19.996	103.194	20.068	2.329	0.475
1254.001	688.214	80.000	19.995	103.192	20.071	2.095	0.502
1254.500	688.465	79.999	19.996	103.191	20.065	2.494	0.501
1255.000	688.714	79.999	19.996	103.192	20.075	1.817	0.493
1255.500	688.978	80.000	19.996	103.192	20.069	2.237	0.506
1256.000	689.195	79.999	19.996	103.191	20.071	2.087	0.497
1256.500	689.440	80.000	19.996	103.193	20.070	2.135	0.472
1257.000	689.701	80.000	19.996	103.195	20.067	2.333	0.484
1257.500	689.930	79.999	19.996	103.195	20.069	2.256	0.498
1258.000	690.193	79.998	19.997	103.195	20.067	2.371	0.491
1258.500	690.458	80.000	19.997	103.195	20.067	2.384	0.510
1259.000	690.696	80.001	19.996	103.194	20.069	2.241	0.515
1259.500	690.947	79.998	19.995	103.192	20.067	2.373	0.496
1260.000	691.209	80.000	19.997	103.192	20.069	2.254	0.501
1260.500	691.437	79.999	19.996	103.195	20.069	2.193	0.502
1261.000	691.668	79.999	19.996	103.197	20.067	2.348	0.475
1261.500	691.929	79.999	19.996	103.201	20.066	2.434	0.475
1262.000	692.168	79.999	19.997	103.204	20.069	2.208	0.496
1262.500	692.426	79.999	19.996	103.209	20.067	2.392	0.499
1263.000	692.671	79.999	19.996	103.212	20.069	2.206	0.500
1263.500	692.909	79.998	19.995	103.215	20.067	2.338	0.493
1264.000	693.159	79.998	19.996	103.217	20.068	2.285	0.486
1264.500	693.411	79.998	19.996	103.221	20.070	2.175	0.495
1265.000	693.658	79.998	19.996	103.222	20.066	2.407	0.500
1265.500	693.904	79.998	19.996	103.223	20.068	2.310	0.496
1266.000	694.137	80.000	19.997	103.226	20.070	2.173	0.486
1266.500	694.434	80.000	19.996	103.227	20.065	2.503	0.505
1267.000	694.688	79.999	19.996	103.226	20.066	2.406	0.541
1267.500	694.916	79.999	19.995	103.227	20.062	2.703	0.517
1268.000	695.194	80.000	19.995	103.227	20.066	2.465	0.494
1268.500	695.417	80.000	19.996	103.229	20.066	2.440	0.503
1269.000	695.713	80.002	19.995	103.228	20.066	2.444	0.510
1269.500	695.941	80.000	19.995	103.229	20.066	2.402	0.522
1270.001	696.191	80.001	19.996	103.229	20.065	2.484	0.501
1270.501	696.414	79.998	19.996	103.229	20.064	2.569	0.475
1271.000	696.665	80.000	19.996	103.230	20.068	2.325	0.473
1271.500	696.925	80.000	19.995	103.229	20.063	2.636	0.493
1272.000	697.198	79.998	19.996	103.227	20.064	2.567	0.522
1272.500	697.441	80.001	19.997	103.228	20.064	2.553	0.524
1273.000	697.673	80.000	19.996	103.228	20.063	2.617	0.495
1273.500	697.970	79.999	19.996	103.228	20.064	2.601	0.502
1274.000	698.194	79.999	19.997	103.229	20.065	2.513	0.526
1274.500	698.476	80.001	19.996	103.230	20.063	2.615	0.513
1275.000	698.682	80.000	19.996	103.230	20.063	2.626	0.497
1275.500	698.918	80.001	19.995	103.230	20.061	2.770	0.465
1276.001	699.161	80.000	19.996	103.230	20.064	2.605	0.460
1276.501	699.430	79.999	19.996	103.231	20.060	2.822	0.495
1277.000	699.713	79.998	19.996	103.234	20.059	2.924	0.533
1277.500	699.919	79.999	19.995	103.234	20.061	2.818	0.521
1278.000	700.180	80.001	19.996	103.234	20.060	2.828	0.478
1278.500	700.470	80.001	19.995	103.234	20.061	2.805	0.509
1279.000	700.662	80.001	19.996	103.233	20.060	2.863	0.517
1279.500	700.959	79.999	19.996	103.230	20.058	2.961	0.486
1280.000	701.211	80.000	19.996	103.230	20.059	2.938	0.519
1280.500	701.431	79.999	19.996	103.230	20.059	2.905	0.510
1281.000	701.669	80.000	19.996	103.231	20.060	2.821	0.465
1281.500	701.886	79.999	19.996	103.238	20.058	2.978	0.457
1282.000	702.176	79.998	19.996	103.240	20.059	2.901	0.481
1282.500	702.395	79.999	19.996	103.240	20.060	2.884	0.507
1283.000	702.650	79.998	19.998	103.240	20.059	2.902	0.491
1283.500	702.894	79.999	19.996	103.240	20.057	3.086	0.487
1284.000	703.160	79.998	19.996	103.235	20.058	2.978	0.505
1284.500	703.395	79.998	19.997	103.234	20.058	3.009	0.506
1285.000	703.676	79.999	19.996	103.236	20.059	2.950	0.508
1285.500	703.922	79.999	19.997	103.240	20.054	3.276	0.521
1286.000	704.176	79.999	19.997	103.245	20.059	2.927	0.514
1286.500	704.418	79.998	19.997	103.244	20.057	3.042	0.498
1287.000	704.700	79.998	19.998	103.246	20.058	3.021	0.509
1287.501	704.938	79.998	19.997	103.245	20.057	3.038	0.521
1288.001	705.175	79.998	19.997	103.247	20.056	3.148	0.497
1288.500	705.419	79.998	19.997	103.250	20.055	3.171	0.479
1289.000	705.659	79.997	19.997	103.257	20.058	3.019	0.483
1289.500	705.888	79.999	19.997	103.264	20.056	3.157	0.477
1290.000	706.126	79.998	19.997	103.271	20.059	2.958	0.468
1290.500	706.411	79.999	19.996	103.273	20.055	3.170	0.495
1291.000	706.639	79.998	19.996	103.273	20.058	3.023	0.518
1291.500	706.890	79.999	19.996	103.270	20.055	3.190	0.496
1292.001	707.136	79.998	19.997	103.267	20.057	3.055	0.488
1292.501	707.359	79.999	19.996	103.266	20.056	3.138	0.483
1293.000	707.592	80.000	19.995	103.266	20.054	3.268	0.463
1293.500	707.879	79.999	19.996	103.266	20.053	3.315	0.488
1294.000	708.103	80.000	19.997	103.269	20.055	3.192	0.515
1294.500	708.377	79.999	19.996	103.275	20.054	3.267	0.505
1295.000	708.620	79.999	19.996	103.275	20.056	3.106	0.508
1295.500	708.914	80.001	19.996	103.278	20.056	3.165	0.527
1296.000	709.155	80.001	19.995	103.281	20.056	3.148	0.537
1296.500	709.388	80.000	19.996	103.282	20.058	2.983	0.505
1297.000	709.640	80.000	19.996	103.283	20.058	3.016	0.479
1297.500	709.904	80.001	19.996	103.284	20.056	3.158	0.500
1298.000	710.140	80.001	19.994	103.283	20.056	3.110	0.508
1298.501	710.375	80.002	19.995	103.281	20.058	2.997	0.486
1299.001	710.656	80.002	19.995	103.282	20.058	2.968	0.493
1299.500	710.887	80.002	19.994	103.281	20.057	3.081	0.514
1300.001	711.149	80.001	19.994	103.283	20.055	3.187	0.503
1300.501	711.408	80.001	19.995	103.282	20.055	3.210	0.508
1301.000	711.630	80.001	19.995	103.280	20.052	3.415	0.501
1301.500	711.912	80.000	19.995	103.279	20.055	3.210	0.492
1302.001	712.132	80.002	19.995	103.276	20.057	3.074	0.503
1302.501	712.385	80.000	19.995	103.274	20.056	3.147	0.487
1303.000	712.629	80.001	19.994	103.274	20.056	3.145	0.485
1303.500	712.910	80.001	19.994	103.276	20.054	3.264	0.511
1304.000	713.167	80.001	19.995	103.278	20.056	3.154	0.531
1304.500	713.397	80.001	19.995	103.282	20.052	3.418	0.512
1305.000	713.660	80.001	19.995	103.286	20.054	3.245	0.490
1305.500	713.899	80.000	19.995	103.294	20.051	3.500	0.497
1306.000	714.161	80.000	19.996	103.298	20.055	3.224	0.501
1306.500	714.420	80.001	19.995	103.304	20.054	3.297	0.511
1307.000	714.661	80.001	19.995	103.307	20.053	3.329	0.511
1307.500	714.958	80.001	19.995	103.309	20.055	3.214	0.519
1308.000	715.191	80.000	19.995	103.309	20.052	3.421	0.534
1308.500	715.446	79.999	19.996	103.309	20.052	3.419	0.509
1309.000	715.753	80.001	19.995	103.310	20.056	3.139	0.525
1309.500	715.998	80.000	19.995	103.310	20.055	3.191	0.557
1310.000	716.240	80.000	19.995	103.310	20.055	3.208	0.519
1310.500	716.530	80.000	19.996	103.310	20.054	3.243	0.510
1311.000	716.745	80.000	19.995	103.311	20.053	3.312	0.519
1311.500	717.046	80.000	19.995	103.311	20.051	3.493	0.510
1312.000	717.274	80.000	19.995	103.311	20.054	3.254	0.522
1312.500	717.553	79.999	19.995	103.312	20.055	3.237	0.518
1313.000	717.818	80.001	19.996	103.311	20.054	3.308	0.526
1313.500	718.081	80.000	19.995	103.311	20.054	3.305	0.536
1314.000	718.341	80.001	19.995	103.317	20.054	3.290	0.525
1314.500	718.588	80.001	19.995	103.318	20.056	3.123	0.514
1315.000	718.851	80.001	19.995	103.319	20.054	3.240	0.508
1315.500	719.115	80.001	19.995	103.321	20.053	3.366	0.519
1316.001	719.358	80.002	19.995	103.324	20.051	3.486	0.518
1316.501	719.605	80.001	19.996	103.322	20.053	3.315	0.498
1317.000	719.859	80.000	19.995	103.323	20.053	3.338	0.495
1317.500	720.142	80.000	19.995	103.322	20.053	3.357	0.519
1318.000	720.391	80.000	19.995	103.320	20.051	3.474	0.535
1318.500	720.649	80.002	19.995	103.318	20.052	3.405	0.520
1319.000	720.928	80.001	19.996	103.314	20.053	3.342	0.522
1319.500	721.182	80.002	19.996	103.312	20.052	3.424	0.535
1320.000	721.441	80.001	19.995	103.315	20.052	3.420	0.523
1320.500	721.732	80.002	19.995	103.319	20.050	3.553	0.531
1321.000	721.986	80.002	19.995	103.322	20.053	3.326	0.548
1321.500	722.266	80.003	19.995	103.327	20.052	3.428	0.540
1322.000	722.475	80.002	19.996	103.326	20.050	3.580	0.511
1322.500	722.788	80.003	19.996	103.325	20.049	3.633	0.505
1323.000	723.046	80.001	19.996	103.322	20.053	3.320	0.546
1323.500	723.286	80.002	19.994	103.326	20.052	3.386	0.535
1324.000	723.566	80.003	19.995	103.328	20.047	3.747	0.510
1324.500	723.839	80.003	19.995	103.335	20.051	3.488	0.537
1325.000	724.107	80.004	19.996	103.341	20.048	3.668	0.547
1325.500	724.351	80.002	19.994	103.345	20.050	3.526	0.526
1326.000	724.662	80.003	19.995	103.344	20.049	3.647	0.534
1326.500	724.886	80.002	19.995	103.344	20.049	3.626	0.545
1327.000	725.157	80.003	19.996	103.345	20.050	3.564	0.514
1327.500	725.428	80.003	19.995	103.345	20.050	3.574	0.518
1328.000	725.693	80.004	19.995	103.345	20.049	3.641	0.539
1328.500	725.992	80.003	19.995	103.346	20.051	3.493	0.550
1329.000	726.247	80.003	19.994	103.346	20.048	3.658	0.559
1329.500	726.500	80.003	19.995	103.346	20.053	3.334	0.531
1330.000	726.784	80.003	19.995	103.346	20.051	3.459	0.523
1330.500	727.026	80.003	19.996	103.345	20.051	3.466	0.532
1331.000	727.258	80.003	19.996	103.345	20.051	3.497	0.500
1331.500	727.577	80.001	19.995	103.346	20.050	3.534	0.513
1332.000	727.821	80.002	19.995	103.346	20.052	3.392	0.557
1332.500	728.093	80.001	19.995	103.346	20.050	3.578	0.539
1333.000	728.349	80.001	19.994	103.347	20.053	3.369	0.522
1333.500	728.585	80.001	19.996	103.347	20.048	3.709	0.510
1334.000	728.864	80.000	19.994	103.347	20.047	3.735	0.504
1334.500	729.136	80.001	19.995	103.347	20.054	3.307	0.533
1335.000	729.394	80.002	19.995	103.347	20.051	3.480	0.541
1335.500	729.647	80.001	19.994	103.349	20.050	3.549	0.521
1336.000	729.946	79.999	19.995	103.350	20.048	3.672	0.531
1336.500	730.218	80.002	19.994	103.351	20.051	3.468	0.562
1337.000	730.460	80.000	19.995	103.351	20.049	3.589	0.543
1337.500	730.734	80.001	19.996	103.350	20.051	3.505	0.515
1338.000	730.996	79.999	19.995	103.346	20.051	3.455	0.526
1338.500	731.238	80.001	19.995	103.346	20.053	3.361	0.520
1339.000	731.516	80.000	19.996	103.345	20.050	3.555	0.512
1339.501	731.813	80.001	19.995	103.346	20.048	3.664	0.548
1340.001	732.024	80.001	19.995	103.346	20.048	3.702	0.542
1340.500	732.319	80.001	19.995	103.347	20.048	3.683	0.507
1341.000	732.628	80.001	19.995	103.346	20.049	3.650	0.555
1341.500	732.855	80.002	19.996	103.345	20.050	3.564	0.570
1342.000	733.114	80.001	19.996	103.345	20.050	3.575	0.511
1342.500	733.403	80.000	19.996	103.346	20.050	3.586	0.517
1343.000	733.630	80.000	19.996	103.347	20.050	3.525	0.532
1343.500	733.906	80.001	19.995	103.349	20.047	3.753	0.509
1344.000	734.181	80.000	19.996	103.350	20.050	3.567	0.526
1344.500	734.435	80.001	19.996	103.351	20.050	3.581	0.540
1345.000	734.723	80.001	19.996	103.350	20.050	3.531	0.536
1345.500	734.949	80.000	19.995	103.349	20.046	3.811	0.528
1346.000	735.270	80.002	19.996	103.348	20.049	3.649	0.530
1346.500	735.479	80.000	19.996	103.343	20.049	3.651	0.538
1347.000	735.762	80.000	19.996	103.341	20.049	3.617	0.511
1347.500	736.026	80.000	19.995	103.343	20.052	3.407	0.520
1348.000	736.276	80.000	19.996	103.343	20.048	3.689	0.530
1348.500	736.555	80.000	19.997	103.344	20.051	3.455	0.521
1349.000	736.835	80.001	19.995	103.348	20.047	3.746	0.544
1349.500	737.092	79.999	19.995	103.347	20.053	3.353	0.547
1350.000	737.362	80.000	19.996	103.341	20.054	3.278	0.532
1350.500	737.629	80.000	19.995	103.338	20.053	3.331	0.533
1351.000	737.857	80.000	19.995	103.337	20.053	3.310	0.516
1351.500	738.099	80.001	19.996	103.332	20.056	3.099	0.482
1352.001	738.389	79.999	19.997	103.328	20.050	3.515	0.501
1352.501	738.676	80.000	19.996	103.325	20.052	3.429	0.555
1353.001	738.915	79.999	19.997	103.321	20.051	3.450	0.551
1353.501	739.163	80.000	19.995	103.319	20.052	3.405	0.506
1354.000	739.416	80.000	19.997	103.318	20.055	3.227	0.494
1354.500	739.694	80.000	19.995	103.317	20.055	3.200	0.516
1355.001	739.952	80.001	19.997	103.318	20.057	3.090	0.534
1355.501	740.201	80.001	19.997	103.317	20.055	3.207	0.521
1356.000	740.467	80.001	19.995	103.314	20.056	3.136	0.511
1356.500	740.731	80.001	19.997	103.312	20.057	3.057	0.522
1357.001	741.034	80.000	19.996	103.310	20.058	2.990	0.548
1357.501	741.292	80.000	19.995	103.309	20.056	3.149	0.564
1358.000	741.523	80.000	19.994	103.308	20.058	3.005	0.525
1358.500	741.777	80.001	19.996	103.304	20.056	3.104	0.487
1359.000	742.053	80.000	19.996	103.296	20.060	2.838	0.508
1359.500	742.349	79.999	19.995	103.290	20.059	2.929	0.551
1360.000	742.582	80.000	19.996	103.283	20.058	3.015	0.551
1360.500	742.875	79.999	19.995	103.276	20.061	2.802	0.528
1361.000	743.120	80.000	19.996	103.272	20.061	2.762	0.532
1361.500	743.352	80.000	19.995	103.271	20.062	2.735	0.508
