Sample ID:	C:\MCC\MCC Cal\Test\Bravo_OSB_MCC_30K_min_211207_R3.txt
Sample Weight (mg):	4.41
Heating Rate (C/s):	0.5
Combustor Temp (C):	900
N2 Flow Rate (cc/min):	80
O2 Flow Rate (cc/min):	20
Calibration File:	C:\MCC\MCC Cal\Coeff1 JN10440_30_210304.txt.txt
T Correction Coefficients:	0	1.024463	0
Time Shift (s):	14
*
Time (s)	Temperature (C)	N2 flow rate (cc/min)	O2 flow rate (cc/min)	Flow Rate (cc/min)	Oxygen (%)	HRR (W/g)	Heating rate (C/s)
0.000	109.407	80.004	19.994	103.056	20.207	-0.506	-0.053
0.500	109.394	80.003	19.994	103.056	20.204	-0.322	-0.025
1.000	109.391	80.004	19.995	103.056	20.207	-0.506	-0.007
1.500	109.409	80.004	19.994	103.057	20.205	-0.401	0.000
2.000	109.421	80.003	19.995	103.056	20.205	-0.367	0.022
2.500	109.404	80.003	19.994	103.056	20.205	-0.381	0.012
3.000	109.384	80.003	19.994	103.057	20.204	-0.350	-0.021
3.500	109.399	80.004	19.995	103.057	20.205	-0.399	-0.021
4.000	109.415	80.004	19.995	103.057	20.205	-0.367	0.013
4.500	109.394	80.003	19.994	103.058	20.204	-0.312	0.013
5.000	109.396	80.005	19.994	103.058	20.204	-0.328	-0.012
5.500	109.387	80.004	19.994	103.056	20.202	-0.207	-0.013
6.000	109.410	80.004	19.993	103.056	20.204	-0.302	0.004
6.500	109.418	80.004	19.994	103.056	20.201	-0.129	0.023
7.000	109.395	80.004	19.994	103.055	20.204	-0.338	0.008
7.500	109.443	80.004	19.993	103.055	20.206	-0.449	0.005
8.000	109.433	80.003	19.994	103.056	20.203	-0.236	0.032
8.500	109.416	80.004	19.994	103.055	20.206	-0.429	0.005
9.001	109.433	80.004	19.994	103.054	20.203	-0.278	-0.014
9.501	109.418	80.004	19.994	103.054	20.207	-0.517	0.001
10.000	109.401	80.004	19.994	103.054	20.205	-0.374	-0.015
10.500	109.432	80.004	19.995	103.053	20.208	-0.590	-0.009
11.000	109.425	80.004	19.994	103.053	20.208	-0.646	0.019
11.500	109.417	80.003	19.993	103.054	20.205	-0.360	0.004
12.000	109.446	80.004	19.993	103.054	20.202	-0.199	0.003
12.500	109.424	80.004	19.994	103.054	20.207	-0.549	0.014
13.000	109.421	80.005	19.994	103.054	20.209	-0.688	-0.009
13.500	109.428	80.005	19.994	103.055	20.202	-0.199	-0.010
14.000	109.439	80.005	19.994	103.055	20.204	-0.334	0.011
14.500	109.423	80.005	19.993	103.055	20.203	-0.211	0.006
15.000	109.432	80.006	19.993	103.061	20.204	-0.318	-0.006
15.500	109.427	80.006	19.995	103.067	20.204	-0.344	-0.002
16.000	109.411	80.007	19.994	103.074	20.203	-0.276	-0.009
16.500	109.440	80.004	19.994	103.081	20.203	-0.233	-0.004
17.000	109.429	80.005	19.994	103.088	20.200	-0.032	0.016
17.500	109.402	80.005	19.993	103.091	20.200	-0.058	-0.010
18.000	109.447	80.005	19.994	103.094	20.201	-0.097	-0.010
18.500	109.437	80.007	19.993	103.102	20.199	0.032	0.026
19.000	109.453	80.007	19.994	103.110	20.199	0.072	0.020
19.500	109.427	80.006	19.993	103.117	20.196	0.260	-0.002
20.000	109.432	80.007	19.995	103.124	20.195	0.346	-0.016
20.500	109.445	80.004	19.993	103.130	20.195	0.308	-0.001
21.000	109.480	80.007	19.994	103.131	20.191	0.614	0.033
21.500	109.512	80.006	19.994	103.135	20.189	0.743	0.057
22.000	109.561	80.004	19.995	103.142	20.192	0.574	0.074
22.500	109.553	80.006	19.994	103.151	20.190	0.721	0.061
23.000	109.546	80.005	19.994	103.155	20.190	0.668	0.014
23.500	109.580	80.006	19.994	103.156	20.190	0.682	0.006
24.000	109.580	80.004	19.994	103.152	20.188	0.831	0.030
24.500	109.612	80.005	19.995	103.145	20.188	0.843	0.033
25.000	109.596	80.003	19.995	103.138	20.188	0.866	0.024
25.500	109.652	80.003	19.995	103.138	20.190	0.674	0.028
26.000	109.644	80.003	19.994	103.141	20.188	0.831	0.044
26.500	109.725	80.003	19.995	103.145	20.189	0.805	0.061
27.000	109.744	80.003	19.995	103.151	20.192	0.584	0.087
27.500	109.768	80.003	19.995	103.156	20.190	0.719	0.071
28.000	109.773	80.002	19.994	103.155	20.189	0.761	0.035
28.500	109.817	80.002	19.995	103.153	20.191	0.650	0.039
29.000	109.843	80.002	19.996	103.149	20.188	0.831	0.060
29.500	109.892	80.003	19.996	103.144	20.190	0.737	0.072
30.000	109.956	80.003	19.995	103.143	20.190	0.688	0.093
30.500	109.928	80.002	19.996	103.146	20.188	0.833	0.074
31.000	109.961	80.004	19.995	103.146	20.188	0.857	0.021
31.501	110.000	80.003	19.994	103.147	20.189	0.755	0.038
32.000	110.007	80.003	19.995	103.147	20.190	0.670	0.059
32.500	110.080	80.003	19.995	103.142	20.187	0.922	0.064
33.000	110.065	80.003	19.994	103.135	20.190	0.716	0.069
33.500	110.087	80.004	19.994	103.134	20.188	0.837	0.033
34.000	110.152	80.004	19.995	103.132	20.189	0.742	0.047
34.500	110.167	80.003	19.996	103.130	20.188	0.857	0.083
35.000	110.171	80.003	19.997	103.125	20.192	0.559	0.049
35.500	110.249	80.003	19.995	103.123	20.193	0.455	0.051
36.000	110.271	80.003	19.993	103.121	20.191	0.618	0.091
36.500	110.325	80.003	19.994	103.114	20.191	0.630	0.088
37.000	110.352	80.004	19.995	103.109	20.191	0.599	0.079
37.500	110.407	80.003	19.995	103.106	20.192	0.571	0.082
38.000	110.433	80.002	19.994	103.104	20.190	0.688	0.082
38.500	110.474	80.003	19.995	103.098	20.192	0.555	0.074
39.001	110.478	80.003	19.994	103.099	20.190	0.728	0.056
39.501	110.567	80.004	19.994	103.104	20.190	0.692	0.069
40.001	110.589	80.004	19.993	103.111	20.190	0.694	0.102
40.500	110.672	80.003	19.993	103.121	20.188	0.833	0.108
41.000	110.687	80.004	19.994	103.135	20.187	0.899	0.101
41.500	110.723	80.003	19.994	103.151	20.185	1.090	0.074
42.000	110.759	80.002	19.995	103.161	20.188	0.881	0.062
42.500	110.803	80.004	19.994	103.168	20.184	1.132	0.076
43.000	110.841	80.003	19.994	103.172	20.186	0.982	0.081
43.500	110.909	80.003	19.994	103.173	20.184	1.110	0.094
44.000	110.944	80.004	19.994	103.180	20.185	1.080	0.104
44.501	111.007	80.004	19.994	103.186	20.185	1.092	0.101
45.000	111.022	80.003	19.994	103.190	20.183	1.185	0.088
45.500	111.123	80.003	19.995	103.191	20.182	1.307	0.096
46.000	111.103	80.002	19.994	103.196	20.183	1.183	0.098
46.500	111.194	80.004	19.994	103.195	20.182	1.311	0.076
47.000	111.218	80.003	19.993	103.197	20.182	1.321	0.093
47.500	111.284	80.002	19.996	103.203	20.181	1.346	0.103
48.000	111.371	80.003	19.995	103.212	20.181	1.362	0.122
48.500	111.414	80.003	19.996	103.220	20.182	1.313	0.141
49.000	111.446	80.003	19.995	103.228	20.181	1.335	0.103
49.500	111.549	80.004	19.996	103.232	20.182	1.273	0.105
50.000	111.585	80.002	19.996	103.233	20.179	1.496	0.137
50.500	111.673	80.003	19.996	103.231	20.178	1.572	0.131
51.000	111.733	80.004	19.995	103.224	20.181	1.377	0.136
51.500	111.827	80.003	19.995	103.218	20.180	1.454	0.151
52.000	111.841	80.004	19.996	103.213	20.177	1.683	0.131
52.500	111.911	80.003	19.995	103.211	20.177	1.683	0.096
53.000	111.972	80.003	19.995	103.211	20.179	1.472	0.108
53.500	112.041	80.003	19.995	103.211	20.178	1.586	0.131
54.000	112.145	80.001	19.995	103.212	20.175	1.789	0.152
54.500	112.205	80.002	19.995	103.212	20.176	1.729	0.168
55.000	112.278	80.002	19.995	103.213	20.178	1.594	0.148
55.500	112.351	80.003	19.995	103.213	20.180	1.458	0.139
56.000	112.434	80.002	19.996	103.213	20.177	1.681	0.151
56.500	112.515	80.003	19.995	103.213	20.177	1.649	0.160
57.000	112.602	80.003	19.995	103.213	20.173	1.958	0.166
57.500	112.674	80.002	19.995	103.211	20.177	1.667	0.164
58.000	112.734	80.002	19.995	103.211	20.174	1.868	0.145
58.500	112.844	80.002	19.994	103.212	20.173	1.932	0.151
59.000	112.938	80.001	19.995	103.212	20.175	1.765	0.187
59.500	113.000	80.001	19.995	103.216	20.173	1.919	0.180
60.000	113.099	80.001	19.995	103.223	20.172	2.026	0.158
60.500	113.209	80.003	19.995	103.230	20.172	2.008	0.185
61.000	113.270	80.001	19.994	103.238	20.172	1.986	0.190
61.500	113.360	80.003	19.995	103.246	20.173	1.921	0.161
62.000	113.459	80.003	19.995	103.249	20.171	2.076	0.171
62.500	113.559	80.002	19.995	103.251	20.175	1.809	0.194
63.000	113.653	80.001	19.994	103.252	20.173	1.925	0.196
63.500	113.727	80.003	19.996	103.253	20.168	2.325	0.181
64.000	113.841	80.003	19.995	103.254	20.170	2.140	0.177
64.500	113.924	80.001	19.994	103.255	20.173	1.941	0.193
65.000	114.026	80.002	19.994	103.255	20.173	1.978	0.192
65.500	114.135	80.002	19.994	103.255	20.169	2.229	0.198
66.000	114.211	80.004	19.993	103.255	20.169	2.267	0.198
66.500	114.349	80.003	19.993	103.255	20.170	2.190	0.199
67.000	114.423	80.002	19.993	103.256	20.170	2.138	0.213
67.500	114.500	80.003	19.994	103.256	20.169	2.255	0.182
68.000	114.618	80.004	19.994	103.257	20.169	2.220	0.173
68.500	114.707	80.003	19.994	103.260	20.169	2.267	0.201
69.000	114.825	80.003	19.995	103.264	20.168	2.323	0.207
69.500	114.913	80.004	19.994	103.271	20.170	2.198	0.207
70.000	115.043	80.004	19.994	103.278	20.166	2.473	0.213
70.501	115.135	80.004	19.994	103.282	20.168	2.339	0.220
71.001	115.217	80.005	19.994	103.284	20.167	2.409	0.198
71.500	115.352	80.005	19.994	103.285	20.166	2.439	0.196
72.000	115.456	80.005	19.994	103.282	20.169	2.236	0.228
72.500	115.592	80.004	19.995	103.280	20.166	2.459	0.239
73.000	115.691	80.004	19.995	103.282	20.165	2.525	0.237
73.500	115.818	80.004	19.994	103.283	20.164	2.600	0.230
74.000	115.905	80.006	19.994	103.284	20.164	2.578	0.220
74.500	116.040	80.005	19.993	103.286	20.164	2.592	0.218
75.000	116.170	80.005	19.992	103.287	20.162	2.736	0.244
75.500	116.322	80.004	19.993	103.288	20.167	2.365	0.274
76.000	116.421	80.005	19.994	103.288	20.166	2.453	0.266
76.501	116.548	80.006	19.994	103.288	20.163	2.696	0.239
77.001	116.657	80.005	19.994	103.290	20.164	2.596	0.231
77.500	116.793	80.005	19.994	103.296	20.163	2.668	0.241
78.000	116.937	80.004	19.993	103.301	20.163	2.696	0.263
78.500	117.072	80.004	19.993	103.303	20.163	2.672	0.279
79.000	117.169	80.005	19.994	103.306	20.164	2.572	0.255
79.500	117.341	80.004	19.994	103.309	20.163	2.688	0.250
80.000	117.462	80.005	19.994	103.308	20.164	2.598	0.281
80.500	117.625	80.005	19.993	103.309	20.163	2.642	0.288
81.000	117.782	80.003	19.994	103.314	20.159	2.985	0.302
81.500	117.902	80.004	19.994	103.318	20.160	2.871	0.298
82.000	118.037	80.003	19.995	103.320	20.160	2.915	0.266
82.501	118.197	80.005	19.994	103.322	20.162	2.754	0.275
83.001	118.371	80.004	19.994	103.321	20.161	2.829	0.315
83.501	118.515	80.005	19.994	103.321	20.159	2.959	0.327
84.000	118.627	80.003	19.993	103.320	20.160	2.919	0.287
84.500	118.814	80.004	19.993	103.319	20.159	2.992	0.277
85.000	118.956	80.004	19.993	103.320	20.158	3.058	0.314
85.500	119.104	80.004	19.993	103.319	20.158	3.034	0.309
86.000	119.267	80.004	19.994	103.320	20.156	3.192	0.301
86.501	119.387	80.006	19.993	103.321	20.159	2.953	0.297
87.001	119.557	80.004	19.994	103.322	20.157	3.112	0.287
87.500	119.703	80.004	19.994	103.323	20.158	3.020	0.303
88.001	119.910	80.006	19.994	103.325	20.158	3.076	0.334
88.501	120.062	80.004	19.995	103.324	20.157	3.130	0.356
89.000	120.204	80.005	19.994	103.324	20.157	3.140	0.326
89.500	120.366	80.005	19.994	103.324	20.159	2.947	0.299
90.000	120.539	80.006	19.994	103.324	20.161	2.841	0.320
90.500	120.721	80.007	19.994	103.324	20.161	2.817	0.345
91.000	120.914	80.005	19.995	103.324	20.161	2.799	0.365
91.500	121.084	80.005	19.994	103.325	20.155	3.249	0.369
92.000	121.256	80.006	19.994	103.325	20.159	2.993	0.352
92.500	121.406	80.005	19.994	103.325	20.159	2.997	0.332
93.000	121.605	80.005	19.995	103.325	20.159	2.967	0.336
93.500	121.781	80.006	19.994	103.325	20.159	2.961	0.362
94.000	121.938	80.006	19.994	103.323	20.159	2.935	0.354
94.500	122.133	80.008	19.992	103.323	20.157	3.108	0.342
95.001	122.290	80.006	19.993	103.323	20.154	3.333	0.352
95.501	122.481	80.006	19.993	103.323	20.154	3.301	0.350
96.000	122.631	80.008	19.994	103.324	20.157	3.140	0.345
96.500	122.830	80.006	19.994	103.325	20.153	3.389	0.345
97.001	123.031	80.007	19.993	103.325	20.154	3.335	0.374
97.501	123.203	80.006	19.994	103.324	20.154	3.335	0.386
98.000	123.355	80.006	19.993	103.324	20.154	3.303	0.348
98.500	123.541	80.006	19.994	103.324	20.155	3.242	0.331
99.000	123.741	80.006	19.994	103.324	20.155	3.262	0.363
99.500	123.914	80.005	19.993	103.325	20.156	3.224	0.379
100.000	124.107	80.007	19.994	103.327	20.152	3.459	0.369
100.500	124.317	80.006	19.994	103.326	20.157	3.134	0.385
101.000	124.517	80.006	19.994	103.327	20.154	3.359	0.406
101.501	124.664	80.006	19.993	103.327	20.154	3.301	0.378
102.001	124.897	80.005	19.993	103.326	20.153	3.417	0.364
102.501	125.088	80.005	19.994	103.326	20.157	3.138	0.402
103.001	125.282	80.006	19.993	103.326	20.156	3.170	0.405
103.501	125.493	80.005	19.994	103.326	20.155	3.262	0.395
104.001	125.681	80.005	19.994	103.325	20.154	3.303	0.401
104.500	125.850	80.005	19.994	103.325	20.154	3.371	0.378
105.000	126.120	80.005	19.993	103.325	20.153	3.393	0.399
105.500	126.294	80.005	19.993	103.326	20.154	3.311	0.442
106.000	126.489	80.003	19.994	103.327	20.155	3.246	0.407
106.500	126.658	80.004	19.994	103.328	20.153	3.397	0.367
107.000	126.894	80.003	19.994	103.329	20.155	3.238	0.385
107.501	127.093	80.003	19.995	103.330	20.153	3.397	0.420
108.001	127.294	80.005	19.995	103.330	20.151	3.560	0.417
108.501	127.477	80.004	19.995	103.332	20.155	3.240	0.392
109.000	127.688	80.004	19.995	103.333	20.157	3.128	0.389
109.500	127.884	80.004	19.995	103.333	20.154	3.351	0.401
110.000	128.106	80.005	19.995	103.332	20.155	3.239	0.412
110.500	128.264	80.005	19.994	103.331	20.156	3.208	0.399
111.000	128.486	80.003	19.995	103.330	20.152	3.482	0.380
111.500	128.727	80.004	19.995	103.329	20.153	3.385	0.422
112.000	128.924	80.004	19.995	103.330	20.153	3.375	0.451
112.500	129.121	80.003	19.995	103.331	20.153	3.397	0.416
113.000	129.327	80.002	19.994	103.331	20.152	3.490	0.399
113.500	129.518	80.003	19.994	103.332	20.154	3.365	0.400
114.000	129.743	80.003	19.994	103.332	20.155	3.297	0.406
114.500	129.975	80.003	19.995	103.332	20.151	3.568	0.437
115.000	130.174	80.003	19.995	103.332	20.152	3.463	0.444
115.500	130.370	80.003	19.995	103.331	20.154	3.301	0.413
116.000	130.588	80.004	19.995	103.331	20.154	3.357	0.405
116.500	130.805	80.004	19.995	103.331	20.153	3.445	0.424
117.000	131.046	80.003	19.994	103.330	20.155	3.283	0.446
117.500	131.267	80.003	19.995	103.330	20.152	3.484	0.460
118.000	131.510	80.004	19.995	103.330	20.152	3.480	0.463
118.500	131.706	80.004	19.994	103.330	20.157	3.152	0.451
119.000	131.899	80.004	19.994	103.328	20.155	3.283	0.414
119.500	132.124	80.003	19.994	103.328	20.151	3.532	0.404
120.000	132.341	80.003	19.995	103.329	20.151	3.542	0.430
120.500	132.565	80.003	19.994	103.328	20.153	3.409	0.442
121.000	132.770	80.002	19.994	103.327	20.150	3.630	0.435
121.500	132.991	80.004	19.994	103.329	20.153	3.411	0.427
122.000	133.201	80.004	19.995	103.328	20.153	3.427	0.428
122.500	133.449	80.005	19.994	103.328	20.154	3.351	0.445
123.000	133.699	80.003	19.994	103.329	20.153	3.389	0.478
123.501	133.943	80.003	19.994	103.330	20.153	3.421	0.496
124.001	134.147	80.004	19.995	103.331	20.155	3.253	0.471
124.501	134.368	80.005	19.995	103.331	20.153	3.413	0.437
125.001	134.562	80.003	19.995	103.331	20.151	3.524	0.420
125.500	134.822	80.003	19.994	103.331	20.150	3.660	0.434
126.000	135.013	80.004	19.994	103.330	20.152	3.478	0.452
126.500	135.262	80.004	19.994	103.330	20.154	3.359	0.446
127.000	135.510	80.004	19.994	103.330	20.154	3.351	0.469
127.500	135.755	80.003	19.993	103.330	20.152	3.502	0.495
128.000	135.943	80.002	19.994	103.331	20.153	3.435	0.463
128.500	136.202	80.004	19.995	103.329	20.153	3.377	0.440
129.000	136.394	80.004	19.994	103.329	20.153	3.383	0.449
129.500	136.670	80.003	19.994	103.329	20.151	3.530	0.460
130.000	136.884	80.003	19.994	103.329	20.150	3.614	0.479
130.500	137.106	80.004	19.994	103.329	20.153	3.405	0.463
131.000	137.347	80.004	19.994	103.331	20.154	3.301	0.449
131.500	137.587	80.003	19.994	103.331	20.153	3.395	0.472
132.000	137.809	80.003	19.994	103.332	20.154	3.337	0.472
132.500	138.031	80.002	19.994	103.332	20.151	3.566	0.453
133.000	138.298	80.003	19.993	103.332	20.150	3.612	0.466
133.500	138.522	80.004	19.994	103.331	20.156	3.192	0.490
134.000	138.760	80.003	19.993	103.331	20.152	3.452	0.477
134.500	138.980	80.004	19.994	103.330	20.156	3.202	0.460
135.000	139.225	80.003	19.995	103.330	20.157	3.128	0.462
135.500	139.467	80.003	19.994	103.329	20.156	3.184	0.475
136.000	139.648	80.003	19.994	103.329	20.156	3.158	0.455
136.500	139.910	80.003	19.995	103.328	20.157	3.146	0.434
137.000	140.163	80.001	19.994	103.328	20.156	3.203	0.479
137.500	140.401	80.003	19.994	103.325	20.157	3.108	0.502
138.000	140.654	80.002	19.995	103.325	20.156	3.217	0.491
138.500	140.907	80.002	19.995	103.325	20.158	3.024	0.499
139.000	141.122	80.002	19.995	103.325	20.155	3.265	0.487
139.500	141.352	80.002	19.994	103.325	20.155	3.293	0.456
140.000	141.590	80.001	19.995	103.326	20.155	3.273	0.456
140.500	141.858	80.002	19.995	103.323	20.154	3.331	0.488
141.000	142.069	80.003	19.995	103.323	20.156	3.209	0.492
141.500	142.295	80.002	19.996	103.321	20.154	3.327	0.457
142.000	142.568	80.002	19.996	103.322	20.158	3.040	0.468
142.500	142.805	80.003	19.996	103.323	20.156	3.213	0.505
143.000	143.075	80.003	19.995	103.325	20.156	3.154	0.509
143.500	143.290	80.002	19.995	103.326	20.155	3.247	0.496
144.000	143.531	80.003	19.996	103.327	20.159	2.964	0.471
144.500	143.803	80.004	19.996	103.327	20.157	3.104	0.484
145.000	144.037	80.002	19.995	103.325	20.156	3.195	0.510
145.500	144.287	80.003	19.995	103.324	20.160	2.925	0.495
146.000	144.539	80.002	19.996	103.323	20.155	3.233	0.493
146.501	144.747	80.002	19.994	103.323	20.154	3.301	0.481
147.000	145.038	80.003	19.996	103.322	20.155	3.227	0.479
147.500	145.285	80.004	19.995	103.321	20.157	3.118	0.518
148.000	145.510	80.003	19.995	103.320	20.154	3.327	0.506
148.500	145.780	80.003	19.995	103.320	20.154	3.351	0.484
149.000	146.024	80.004	19.995	103.320	20.155	3.277	0.504
149.500	146.303	80.003	19.995	103.320	20.153	3.438	0.518
150.000	146.524	80.004	19.995	103.320	20.157	3.086	0.511
150.500	146.765	80.004	19.995	103.321	20.156	3.213	0.481
151.000	147.044	80.004	19.995	103.320	20.157	3.102	0.491
151.500	147.264	80.004	19.995	103.318	20.157	3.136	0.510
152.000	147.522	80.005	19.995	103.317	20.158	3.020	0.489
152.500	147.751	80.004	19.995	103.317	20.155	3.285	0.482
153.000	147.973	80.005	19.995	103.317	20.157	3.150	0.469
153.500	148.211	80.005	19.994	103.316	20.155	3.259	0.456
154.000	148.493	80.006	19.994	103.316	20.157	3.084	0.491
154.500	148.742	80.006	19.993	103.319	20.154	3.309	0.525
155.000	148.978	80.005	19.994	103.316	20.157	3.129	0.508
155.500	149.282	80.005	19.994	103.314	20.158	3.020	0.513
156.000	149.506	80.005	19.994	103.314	20.157	3.112	0.534
156.500	149.777	80.005	19.994	103.314	20.158	3.064	0.511
157.000	150.035	80.005	19.994	103.313	20.158	3.012	0.512
157.500	150.258	80.005	19.994	103.315	20.157	3.098	0.505
158.000	150.516	80.004	19.994	103.318	20.159	2.941	0.481
158.500	150.763	80.005	19.993	103.319	20.160	2.926	0.493
159.000	150.999	80.004	19.993	103.319	20.159	2.958	0.494
159.500	151.274	80.005	19.994	103.317	20.158	3.018	0.497
160.000	151.492	80.004	19.994	103.317	20.158	3.044	0.502
160.500	151.711	80.004	19.994	103.318	20.159	2.958	0.465
161.000	151.984	80.005	19.993	103.317	20.157	3.111	0.465
161.500	152.250	80.004	19.995	103.316	20.160	2.908	0.515
162.000	152.500	80.006	19.994	103.318	20.161	2.797	0.527
162.500	152.728	80.005	19.994	103.319	20.158	3.022	0.497
163.000	152.976	80.004	19.994	103.319	20.159	2.936	0.477
163.500	153.262	80.005	19.995	103.319	20.156	3.201	0.505
164.000	153.474	80.004	19.994	103.318	20.157	3.112	0.516
164.500	153.726	80.004	19.994	103.316	20.161	2.821	0.482
165.000	153.991	80.005	19.993	103.311	20.158	3.063	0.491
165.500	154.215	80.003	19.994	103.307	20.160	2.864	0.503
166.000	154.488	80.004	19.993	103.305	20.159	2.998	0.493
166.500	154.739	80.006	19.995	103.308	20.159	2.952	0.510
167.000	154.966	80.003	19.993	103.310	20.158	3.037	0.500
167.501	155.224	80.005	19.995	103.312	20.158	3.018	0.482
168.000	155.476	80.005	19.995	103.317	20.161	2.801	0.498
168.500	155.691	80.005	19.996	103.320	20.158	3.017	0.488
169.000	155.947	80.005	19.995	103.318	20.159	2.976	0.469
169.500	156.217	80.004	19.994	103.312	20.163	2.683	0.499
170.000	156.490	80.004	19.994	103.312	20.163	2.701	0.534
170.500	156.741	80.004	19.994	103.312	20.163	2.653	0.533
171.001	156.979	80.005	19.995	103.308	20.163	2.677	0.507
171.500	157.234	80.004	19.994	103.306	20.161	2.810	0.491
172.000	157.524	80.005	19.993	103.307	20.164	2.593	0.519
172.501	157.750	80.006	19.995	103.309	20.162	2.725	0.531
173.000	157.998	80.006	19.994	103.307	20.162	2.775	0.495
173.500	158.259	80.007	19.993	103.311	20.161	2.787	0.491
174.000	158.487	80.007	19.994	103.312	20.164	2.639	0.499
174.500	158.766	80.006	19.993	103.313	20.163	2.677	0.498
175.000	158.997	80.005	19.993	103.309	20.160	2.888	0.509
175.500	159.247	80.005	19.994	103.305	20.161	2.820	0.496
176.000	159.494	80.006	19.994	103.299	20.162	2.733	0.489
176.500	159.719	80.005	19.994	103.295	20.159	2.942	0.484
177.000	159.988	80.005	19.995	103.294	20.161	2.819	0.483
177.500	160.246	80.007	19.993	103.294	20.162	2.779	0.511
178.000	160.504	80.006	19.994	103.295	20.160	2.910	0.521
178.500	160.745	80.006	19.994	103.295	20.159	3.002	0.507
179.000	160.999	80.006	19.993	103.295	20.162	2.723	0.497
179.501	161.296	80.006	19.994	103.294	20.161	2.836	0.523
180.000	161.559	80.006	19.993	103.292	20.159	2.976	0.555
180.500	161.760	80.007	19.994	103.291	20.160	2.890	0.512
181.000	162.032	80.006	19.993	103.291	20.159	2.936	0.469
181.500	162.262	80.006	19.993	103.292	20.161	2.793	0.487
182.000	162.503	80.005	19.995	103.292	20.161	2.812	0.487
182.500	162.788	80.006	19.994	103.292	20.160	2.884	0.499
183.000	163.037	80.005	19.994	103.292	20.161	2.858	0.530
183.500	163.321	80.005	19.993	103.291	20.162	2.765	0.533
184.000	163.542	80.005	19.993	103.291	20.163	2.667	0.519
184.500	163.812	80.004	19.994	103.290	20.161	2.791	0.498
185.000	164.087	80.004	19.993	103.291	20.162	2.741	0.518
185.500	164.351	80.004	19.993	103.291	20.161	2.828	0.542
186.000	164.583	80.004	19.993	103.291	20.166	2.440	0.517
186.500	164.837	80.003	19.992	103.294	20.162	2.743	0.491
187.000	165.069	80.004	19.992	103.295	20.162	2.781	0.486
187.500	165.353	80.004	19.993	103.295	20.164	2.587	0.501
188.000	165.611	80.004	19.994	103.296	20.166	2.428	0.529
188.500	165.824	80.004	19.993	103.295	20.163	2.657	0.507
189.000	166.082	80.003	19.993	103.293	20.166	2.492	0.471
189.500	166.377	80.004	19.994	103.293	20.163	2.689	0.512
190.000	166.593	80.005	19.994	103.293	20.164	2.621	0.532
190.500	166.854	80.003	19.992	103.294	20.163	2.651	0.494
191.000	167.069	80.003	19.994	103.294	20.165	2.498	0.477
191.500	167.362	80.003	19.993	103.294	20.162	2.767	0.492
192.000	167.567	80.002	19.993	103.294	20.163	2.643	0.503
192.500	167.835	80.002	19.994	103.293	20.164	2.629	0.485
193.000	168.132	80.004	19.995	103.293	20.165	2.542	0.519
193.500	168.350	80.002	19.993	103.294	20.162	2.751	0.540
194.000	168.604	80.004	19.993	103.293	20.166	2.432	0.493
194.500	168.853	80.002	19.993	103.293	20.166	2.440	0.488
195.000	169.111	80.003	19.994	103.293	20.164	2.577	0.505
195.500	169.397	80.004	19.994	103.293	20.166	2.422	0.525
196.000	169.638	80.003	19.994	103.292	20.164	2.635	0.535
196.500	169.876	80.005	19.994	103.293	20.166	2.478	0.503
197.000	170.127	80.004	19.994	103.292	20.162	2.715	0.484
197.500	170.426	80.003	19.994	103.292	20.163	2.675	0.519
198.000	170.631	80.005	19.994	103.292	20.165	2.502	0.527
198.501	170.905	80.005	19.993	103.291	20.166	2.480	0.492
199.001	171.169	80.004	19.994	103.290	20.165	2.508	0.509
199.500	171.394	80.005	19.993	103.290	20.164	2.635	0.513
200.000	171.641	80.004	19.994	103.289	20.166	2.426	0.480
200.500	171.924	80.005	19.994	103.289	20.167	2.376	0.502
201.000	172.145	80.004	19.994	103.289	20.166	2.444	0.517
201.500	172.406	80.004	19.994	103.289	20.165	2.549	0.492
202.000	172.670	80.004	19.994	103.289	20.163	2.659	0.503
202.500	172.939	80.005	19.994	103.289	20.165	2.504	0.529
203.000	173.181	80.005	19.995	103.289	20.167	2.408	0.523
203.500	173.410	80.004	19.993	103.288	20.166	2.466	0.491
204.000	173.673	80.003	19.994	103.288	20.167	2.412	0.481
204.500	173.944	80.006	19.994	103.289	20.168	2.324	0.513
205.000	174.167	80.005	19.995	103.288	20.164	2.581	0.514
205.500	174.405	80.005	19.994	103.287	20.167	2.416	0.478
206.000	174.691	80.004	19.994	103.287	20.165	2.555	0.492
206.500	174.920	80.005	19.995	103.285	20.166	2.464	0.519
207.000	175.181	80.005	19.994	103.284	20.165	2.504	0.503
207.500	175.419	80.004	19.995	103.283	20.162	2.751	0.494
208.000	175.707	80.003	19.994	103.280	20.165	2.546	0.512
208.500	175.928	80.004	19.994	103.276	20.165	2.520	0.518
209.000	176.163	80.004	19.995	103.276	20.166	2.490	0.482
209.500	176.415	80.003	19.994	103.275	20.165	2.500	0.471
210.000	176.661	80.004	19.995	103.276	20.164	2.579	0.493
210.500	176.925	80.005	19.994	103.279	20.165	2.543	0.504
211.000	177.157	80.004	19.994	103.281	20.165	2.519	0.503
211.500	177.394	80.003	19.995	103.282	20.162	2.754	0.482
212.000	177.657	80.004	19.996	103.284	20.166	2.468	0.485
212.500	177.895	80.004	19.995	103.283	20.163	2.687	0.500
213.000	178.206	80.004	19.995	103.281	20.167	2.362	0.525
213.500	178.466	80.004	19.994	103.280	20.165	2.539	0.560
214.000	178.654	80.004	19.995	103.279	20.166	2.436	0.509
214.500	178.948	80.003	19.995	103.279	20.166	2.490	0.465
215.000	179.183	80.002	19.995	103.278	20.162	2.728	0.506
215.500	179.411	80.003	19.994	103.279	20.162	2.722	0.496
216.000	179.657	80.004	19.995	103.279	20.163	2.647	0.469
216.500	179.901	80.002	19.994	103.279	20.164	2.601	0.482
217.000	180.186	80.003	19.994	103.278	20.164	2.637	0.509
217.500	180.422	80.003	19.993	103.280	20.164	2.579	0.524
218.000	180.645	80.003	19.996	103.283	20.167	2.406	0.490
218.500	180.924	80.003	19.994	103.284	20.169	2.213	0.480
219.000	181.159	80.004	19.996	103.285	20.168	2.314	0.508
219.500	181.412	80.003	19.995	103.286	20.164	2.611	0.501
220.000	181.640	80.004	19.994	103.283	20.167	2.406	0.484
220.500	181.920	80.003	19.995	103.281	20.167	2.420	0.495
221.000	182.141	80.003	19.994	103.281	20.165	2.557	0.505
221.500	182.392	80.004	19.995	103.276	20.169	2.255	0.487
222.000	182.662	80.002	19.994	103.277	20.169	2.249	0.496
222.500	182.925	80.003	19.994	103.279	20.164	2.627	0.527
223.000	183.155	80.004	19.995	103.276	20.165	2.503	0.514
223.500	183.410	80.003	19.995	103.273	20.166	2.477	0.489
224.000	183.668	80.004	19.995	103.277	20.168	2.340	0.499
224.500	183.915	80.003	19.995	103.275	20.166	2.444	0.509
225.000	184.168	80.004	19.994	103.273	20.167	2.394	0.503
225.500	184.380	80.003	19.995	103.273	20.165	2.523	0.483
226.000	184.665	80.004	19.995	103.274	20.167	2.370	0.481
226.500	184.882	80.004	19.995	103.272	20.167	2.370	0.499
227.000	185.118	80.003	19.993	103.273	20.165	2.493	0.477
227.500	185.387	80.003	19.996	103.275	20.166	2.473	0.479
228.000	185.642	80.003	19.996	103.277	20.168	2.332	0.514
228.500	185.938	80.004	19.996	103.274	20.168	2.336	0.538
229.000	186.150	80.003	19.995	103.275	20.166	2.449	0.530
229.500	186.415	80.005	19.995	103.270	20.165	2.553	0.492
230.000	186.712	80.005	19.994	103.266	20.170	2.155	0.519
230.500	186.969	80.005	19.995	103.264	20.168	2.316	0.558
231.000	187.169	80.004	19.996	103.264	20.169	2.215	0.506
231.500	187.411	80.004	19.995	103.261	20.169	2.248	0.449
232.000	187.682	80.004	19.994	103.263	20.168	2.314	0.477
232.500	187.934	80.005	19.995	103.267	20.163	2.708	0.518
233.000	188.193	80.005	19.995	103.267	20.163	2.698	0.517
233.500	188.433	80.006	19.995	103.268	20.165	2.505	0.505
234.000	188.651	80.005	19.995	103.272	20.164	2.621	0.478
234.500	188.914	80.005	19.995	103.269	20.165	2.563	0.469
235.000	189.149	80.005	19.995	103.266	20.165	2.501	0.489
235.500	189.397	80.005	19.996	103.264	20.164	2.616	0.491
236.000	189.644	80.004	19.995	103.262	20.165	2.557	0.489
236.500	189.880	80.005	19.993	103.258	20.166	2.477	0.489
237.000	190.139	80.004	19.996	103.259	20.164	2.573	0.489
237.500	190.393	80.006	19.996	103.259	20.165	2.557	0.504
238.000	190.657	80.006	19.995	103.261	20.166	2.439	0.515
238.500	190.888	80.006	19.995	103.259	20.163	2.704	0.506
239.000	191.163	80.005	19.995	103.260	20.165	2.499	0.501
239.500	191.373	80.003	19.995	103.260	20.164	2.599	0.496
240.000	191.619	80.005	19.995	103.260	20.167	2.356	0.471
240.500	191.897	80.004	19.995	103.259	20.163	2.670	0.490
241.000	192.154	80.004	19.993	103.261	20.164	2.617	0.529
241.500	192.357	80.004	19.995	103.264	20.163	2.696	0.497
242.000	192.615	80.004	19.995	103.263	20.169	2.270	0.460
242.500	192.855	80.004	19.995	103.262	20.169	2.249	0.479
243.000	193.076	80.005	19.996	103.262	20.167	2.362	0.480
243.500	193.336	80.004	19.995	103.262	20.168	2.338	0.471
244.000	193.610	80.005	19.995	103.259	20.166	2.451	0.507
244.500	193.850	80.005	19.994	103.259	20.165	2.499	0.524
245.000	194.095	80.003	19.995	103.259	20.166	2.465	0.500
245.500	194.347	80.004	19.995	103.259	20.164	2.617	0.491
246.000	194.554	80.003	19.994	103.256	20.162	2.716	0.478
246.500	194.805	80.005	19.995	103.254	20.163	2.694	0.459
247.000	195.017	80.004	19.993	103.253	20.163	2.710	0.461
247.500	195.259	80.003	19.995	103.254	20.166	2.467	0.459
248.000	195.517	80.005	19.993	103.254	20.164	2.636	0.477
248.500	195.777	80.005	19.994	103.256	20.164	2.569	0.509
249.000	195.991	80.005	19.994	103.257	20.162	2.772	0.496
249.500	196.241	80.005	19.994	103.258	20.162	2.778	0.469
250.000	196.500	80.004	19.993	103.256	20.162	2.714	0.486
250.500	196.729	80.005	19.994	103.256	20.164	2.626	0.499
251.000	196.978	80.006	19.994	103.255	20.164	2.597	0.483
251.500	197.215	80.004	19.994	103.255	20.165	2.529	0.482
252.000	197.478	80.005	19.994	103.259	20.160	2.881	0.493
252.500	197.726	80.005	19.993	103.262	20.163	2.666	0.505
253.000	197.962	80.004	19.994	103.263	20.167	2.400	0.497
253.500	198.221	80.006	19.994	103.265	20.162	2.728	0.489
254.000	198.476	80.005	19.993	103.265	20.163	2.644	0.504
254.500	198.687	80.006	19.992	103.262	20.162	2.782	0.490
255.000	198.949	80.006	19.992	103.260	20.165	2.541	0.469
255.500	199.206	80.006	19.993	103.261	20.163	2.648	0.496
256.000	199.468	80.007	19.994	103.259	20.163	2.654	0.519
256.500	199.729	80.008	19.993	103.261	20.163	2.698	0.521
257.000	199.975	80.006	19.993	103.263	20.165	2.503	0.515
257.500	200.193	80.007	19.994	103.266	20.162	2.732	0.485
258.000	200.427	80.006	19.993	103.266	20.165	2.547	0.458
258.500	200.649	80.004	19.993	103.264	20.163	2.646	0.454
259.000	200.935	80.006	19.994	103.260	20.164	2.634	0.482
259.500	201.171	80.006	19.993	103.259	20.164	2.638	0.514
260.000	201.421	80.006	19.993	103.254	20.162	2.732	0.504
260.500	201.659	80.005	19.993	103.254	20.163	2.698	0.487
261.001	201.873	80.006	19.993	103.254	20.162	2.760	0.470
261.500	202.152	80.005	19.992	103.254	20.164	2.636	0.472
262.000	202.408	80.005	19.993	103.256	20.159	2.961	0.514
262.500	202.626	80.007	19.994	103.257	20.162	2.772	0.505
263.000	202.862	80.005	19.993	103.259	20.159	2.998	0.464
263.500	203.133	80.004	19.993	103.260	20.164	2.599	0.481
264.000	203.368	80.004	19.993	103.260	20.159	2.975	0.507
264.500	203.643	80.004	19.994	103.256	20.159	2.961	0.508
265.000	203.876	80.005	19.994	103.257	20.160	2.861	0.509
265.500	204.109	80.003	19.995	103.255	20.159	3.003	0.487
266.000	204.331	80.003	19.994	103.254	20.161	2.788	0.461
266.500	204.614	80.004	19.994	103.254	20.162	2.764	0.480
267.000	204.893	80.003	19.993	103.254	20.161	2.857	0.533
267.500	205.083	80.003	19.993	103.252	20.160	2.927	0.515
268.000	205.397	80.003	19.994	103.250	20.156	3.158	0.487
268.500	205.578	80.004	19.995	103.250	20.156	3.207	0.500
269.000	205.866	80.003	19.993	103.252	20.158	3.058	0.482
269.500	206.058	80.002	19.994	103.255	20.157	3.100	0.475
270.000	206.330	80.005	19.994	103.255	20.160	2.863	0.472
270.500	206.571	80.003	19.994	103.255	20.156	3.170	0.488
271.000	206.836	80.003	19.995	103.257	20.159	2.995	0.510
271.500	207.080	80.004	19.994	103.258	20.157	3.146	0.507
272.000	207.363	80.003	19.994	103.258	20.156	3.158	0.518
272.500	207.580	80.004	19.994	103.259	20.155	3.237	0.514
273.000	207.830	80.003	19.994	103.260	20.158	3.076	0.484
273.500	208.091	80.002	19.994	103.258	20.159	2.975	0.489
274.000	208.348	80.003	19.994	103.256	20.156	3.158	0.514
274.500	208.552	80.004	19.993	103.255	20.154	3.360	0.489
275.000	208.821	80.004	19.995	103.257	20.155	3.293	0.467
275.500	209.057	80.004	19.993	103.258	20.158	3.012	0.489
276.000	209.257	80.002	19.994	103.258	20.157	3.138	0.471
276.500	209.567	80.003	19.994	103.258	20.154	3.303	0.473
277.000	209.778	80.003	19.995	103.257	20.157	3.116	0.515
277.500	210.043	80.004	19.994	103.258	20.156	3.152	0.498
278.000	210.289	80.005	19.994	103.257	20.155	3.231	0.493
278.500	210.512	80.002	19.993	103.256	20.155	3.239	0.490
279.000	210.780	80.003	19.994	103.257	20.155	3.249	0.480
279.500	211.022	80.003	19.994	103.257	20.153	3.384	0.500
280.000	211.268	80.003	19.993	103.253	20.152	3.488	0.499
280.500	211.539	80.004	19.993	103.254	20.153	3.384	0.503
281.000	211.752	80.004	19.993	103.256	20.154	3.299	0.501
281.500	211.974	80.005	19.994	103.255	20.153	3.374	0.460
282.000	212.223	80.003	19.994	103.257	20.155	3.271	0.453
282.500	212.479	80.006	19.993	103.256	20.157	3.118	0.488
283.001	212.696	80.004	19.993	103.256	20.156	3.180	0.489
283.500	212.994	80.005	19.994	103.254	20.156	3.187	0.494
284.000	213.220	80.004	19.994	103.253	20.153	3.390	0.519
284.500	213.416	80.004	19.994	103.253	20.154	3.325	0.473
285.000	213.693	80.005	19.994	103.253	20.157	3.134	0.447
285.500	213.967	80.004	19.994	103.252	20.153	3.436	0.512
286.000	214.163	80.005	19.993	103.252	20.156	3.166	0.511
286.500	214.441	80.005	19.994	103.256	20.156	3.212	0.472
287.000	214.664	80.003	19.993	103.256	20.151	3.578	0.488
287.500	214.931	80.004	19.995	103.259	20.154	3.311	0.495
288.000	215.195	80.004	19.993	103.263	20.154	3.321	0.511
288.500	215.423	80.004	19.995	103.264	20.156	3.219	0.511
289.000	215.665	80.005	19.994	103.260	20.155	3.285	0.481
289.500	215.911	80.005	19.995	103.260	20.155	3.271	0.479
290.000	216.166	80.005	19.995	103.260	20.151	3.530	0.495
290.500	216.433	80.003	19.994	103.255	20.152	3.466	0.512
291.000	216.687	80.003	19.994	103.254	20.152	3.476	0.521
291.500	216.927	80.003	19.994	103.254	20.155	3.261	0.507
292.000	217.172	80.004	19.994	103.255	20.152	3.496	0.489
292.500	217.437	80.005	19.994	103.253	20.151	3.534	0.498
293.000	217.664	80.005	19.994	103.254	20.151	3.579	0.501
293.500	217.906	80.004	19.994	103.256	20.150	3.597	0.480
294.000	218.182	80.003	19.995	103.257	20.151	3.579	0.494
294.500	218.428	80.004	19.994	103.254	20.151	3.573	0.520
295.000	218.689	80.003	19.994	103.255	20.148	3.760	0.514
295.500	218.915	80.002	19.994	103.256	20.149	3.693	0.497
296.000	219.151	80.003	19.994	103.254	20.150	3.611	0.475
296.500	219.416	80.002	19.994	103.254	20.150	3.633	0.481
297.000	219.689	80.003	19.995	103.257	20.154	3.299	0.520
297.500	219.908	80.002	19.994	103.262	20.150	3.641	0.515
298.000	220.139	80.003	19.994	103.261	20.152	3.476	0.471
298.500	220.448	80.004	19.995	103.261	20.149	3.691	0.495
299.000	220.670	80.002	19.995	103.262	20.148	3.748	0.535
299.500	220.926	80.002	19.995	103.260	20.153	3.430	0.505
300.000	221.169	80.003	19.994	103.255	20.148	3.760	0.489
300.500	221.398	80.002	19.995	103.256	20.150	3.601	0.486
301.000	221.649	80.002	19.994	103.257	20.148	3.804	0.476
301.500	221.904	80.001	19.995	103.256	20.147	3.818	0.493
302.000	222.154	80.003	19.994	103.257	20.148	3.792	0.506
302.500	222.428	80.002	19.995	103.258	20.148	3.790	0.514
303.000	222.698	80.002	19.994	103.257	20.146	3.926	0.534
303.500	222.903	80.001	19.995	103.257	20.149	3.717	0.509
304.000	223.182	80.002	19.994	103.256	20.145	3.956	0.480
304.500	223.393	80.002	19.993	103.255	20.144	4.031	0.487
305.000	223.655	80.003	19.994	103.254	20.141	4.284	0.481
305.500	223.905	80.001	19.995	103.254	20.142	4.233	0.492
306.000	224.154	80.003	19.994	103.254	20.145	3.982	0.505
306.500	224.385	80.003	19.994	103.253	20.145	4.004	0.490
307.000	224.655	80.003	19.994	103.256	20.142	4.240	0.491
307.500	224.921	80.004	19.994	103.256	20.141	4.248	0.519
308.000	225.175	80.004	19.993	103.255	20.144	4.053	0.528
308.500	225.436	80.003	19.994	103.255	20.142	4.216	0.517
309.000	225.669	80.005	19.994	103.255	20.142	4.187	0.505
309.500	225.920	80.004	19.994	103.253	20.140	4.320	0.490
310.000	226.153	80.003	19.995	103.252	20.139	4.393	0.485
310.500	226.420	80.005	19.994	103.253	20.143	4.159	0.492
311.000	226.672	80.003	19.994	103.254	20.140	4.362	0.509
311.500	226.925	80.006	19.995	103.255	20.138	4.513	0.512
312.000	227.133	80.004	19.994	103.256	20.139	4.441	0.483
312.500	227.445	80.004	19.994	103.255	20.141	4.290	0.490
313.000	227.682	80.006	19.993	103.256	20.140	4.342	0.534
313.500	227.943	80.004	19.993	103.255	20.136	4.660	0.524
314.000	228.187	80.005	19.993	103.256	20.139	4.449	0.502
314.500	228.433	80.004	19.994	103.255	20.139	4.463	0.498
315.000	228.653	80.005	19.994	103.260	20.140	4.338	0.479
315.500	228.962	80.004	19.993	103.262	20.136	4.628	0.497
316.000	229.222	80.004	19.993	103.264	20.136	4.644	0.548
316.500	229.461	80.004	19.995	103.267	20.135	4.741	0.534
317.001	229.749	80.003	19.994	103.268	20.136	4.654	0.514
317.500	229.972	80.004	19.994	103.264	20.136	4.648	0.519
318.000	230.209	80.004	19.994	103.262	20.139	4.397	0.485
318.500	230.455	80.005	19.993	103.264	20.136	4.642	0.471
319.000	230.722	80.004	19.994	103.262	20.136	4.672	0.498
319.500	230.937	80.004	19.993	103.260	20.134	4.813	0.497
320.000	231.178	80.003	19.994	103.260	20.131	5.028	0.469
320.500	231.463	80.004	19.994	103.260	20.133	4.837	0.491
321.000	231.689	80.003	19.993	103.258	20.131	4.978	0.519
321.500	231.944	80.004	19.995	103.259	20.129	5.179	0.496
322.000	232.204	80.003	19.993	103.262	20.129	5.166	0.498
322.500	232.454	80.004	19.995	103.266	20.129	5.168	0.512
323.000	232.698	80.004	19.994	103.267	20.131	4.990	0.502
323.500	232.960	80.003	19.995	103.267	20.129	5.156	0.500
324.000	233.212	80.005	19.994	103.264	20.128	5.243	0.510
324.500	233.450	80.003	19.995	103.261	20.130	5.090	0.502
325.000	233.708	80.004	19.995	103.258	20.127	5.319	0.493
325.500	233.988	80.005	19.995	103.256	20.128	5.211	0.516
326.000	234.226	80.003	19.994	103.257	20.126	5.352	0.528
326.500	234.494	80.004	19.995	103.257	20.126	5.382	0.512
327.000	234.737	80.003	19.995	103.257	20.130	5.114	0.508
327.500	234.974	80.004	19.995	103.256	20.125	5.432	0.495
328.000	235.237	80.004	19.995	103.257	20.127	5.340	0.490
328.500	235.482	80.004	19.995	103.255	20.124	5.540	0.504
329.000	235.741	80.004	19.995	103.255	20.125	5.426	0.506
329.500	235.998	80.004	19.995	103.256	20.122	5.643	0.510
330.000	236.224	80.004	19.994	103.258	20.122	5.679	0.500
330.500	236.462	80.004	19.995	103.254	20.121	5.769	0.474
331.000	236.707	80.004	19.995	103.256	20.123	5.625	0.474
331.500	236.970	80.006	19.995	103.258	20.123	5.614	0.496
332.000	237.265	80.006	19.995	103.258	20.123	5.615	0.533
332.500	237.501	80.007	19.994	103.256	20.122	5.651	0.545
333.000	237.781	80.006	19.994	103.261	20.121	5.764	0.524
333.500	237.976	80.006	19.995	103.262	20.122	5.671	0.495
334.000	238.246	80.005	19.995	103.263	20.122	5.645	0.470
334.500	238.484	80.006	19.995	103.265	20.119	5.919	0.487
335.000	238.734	80.005	19.994	103.267	20.118	5.935	0.498
335.500	238.966	80.005	19.994	103.262	20.116	6.106	0.485
336.000	239.223	80.007	19.994	103.260	20.118	5.937	0.485
336.500	239.465	80.006	19.994	103.260	20.117	6.065	0.494
337.000	239.700	80.004	19.994	103.256	20.115	6.159	0.488
337.500	239.975	80.005	19.994	103.256	20.115	6.169	0.494
338.000	240.209	80.006	19.994	103.257	20.116	6.139	0.509
338.500	240.468	80.005	19.994	103.257	20.114	6.274	0.501
339.000	240.723	80.006	19.993	103.258	20.109	6.641	0.504
339.500	240.907	80.005	19.994	103.261	20.112	6.392	0.477
340.000	241.212	80.004	19.995	103.261	20.111	6.471	0.464
340.500	241.472	80.006	19.994	103.265	20.112	6.374	0.527
341.000	241.727	80.005	19.994	103.268	20.112	6.424	0.540
341.500	241.938	80.004	19.994	103.268	20.112	6.438	0.490
342.000	242.243	80.005	19.994	103.267	20.108	6.689	0.491
342.500	242.479	80.005	19.993	103.267	20.109	6.643	0.529
343.000	242.739	80.004	19.994	103.262	20.110	6.583	0.518
343.500	242.966	80.006	19.993	103.259	20.109	6.656	0.491
344.000	243.213	80.006	19.994	103.256	20.107	6.750	0.481
344.500	243.445	80.005	19.995	103.254	20.108	6.684	0.477
345.000	243.712	80.003	19.993	103.253	20.109	6.636	0.489
345.500	244.010	80.003	19.994	103.252	20.109	6.627	0.532
346.000	244.219	80.003	19.993	103.255	20.107	6.778	0.536
346.500	244.491	80.005	19.994	103.257	20.106	6.840	0.494
347.000	244.714	80.004	19.994	103.259	20.107	6.772	0.488
347.501	244.993	80.004	19.996	103.262	20.106	6.867	0.498
348.000	245.233	80.004	19.996	103.268	20.107	6.746	0.511
348.500	245.467	80.004	19.994	103.269	20.104	6.957	0.497
349.000	245.739	80.003	19.995	103.267	20.105	6.949	0.490
349.500	245.943	80.004	19.995	103.269	20.101	7.220	0.491
350.000	246.240	80.003	19.994	103.270	20.101	7.242	0.488
350.500	246.475	80.003	19.996	103.267	20.100	7.293	0.516
351.000	246.742	80.004	19.995	103.268	20.101	7.206	0.517
351.500	246.994	80.003	19.994	103.275	20.101	7.172	0.511
352.000	247.250	80.003	19.994	103.276	20.098	7.434	0.514
352.500	247.493	80.003	19.995	103.277	20.098	7.441	0.503
353.000	247.722	80.004	19.994	103.279	20.096	7.580	0.485
353.500	247.960	80.003	19.994	103.276	20.097	7.484	0.469
354.001	248.238	80.004	19.995	103.272	20.097	7.532	0.491
354.500	248.474	80.003	19.994	103.269	20.098	7.403	0.515
355.000	248.738	80.004	19.995	103.266	20.096	7.556	0.507
355.500	248.994	80.004	19.994	103.268	20.094	7.721	0.510
356.000	249.260	80.004	19.994	103.268	20.092	7.846	0.521
356.500	249.506	80.004	19.995	103.271	20.095	7.637	0.517
357.000	249.776	80.003	19.995	103.272	20.092	7.840	0.514
357.500	250.024	80.003	19.994	103.272	20.092	7.850	0.517
358.000	250.268	80.004	19.995	103.266	20.094	7.709	0.505
358.500	250.539	80.003	19.994	103.267	20.088	8.177	0.503
359.000	250.821	80.004	19.995	103.268	20.091	7.904	0.534
359.500	251.057	80.004	19.994	103.268	20.090	7.976	0.536
360.000	251.337	80.004	19.994	103.272	20.090	8.012	0.517
360.500	251.576	80.004	19.994	103.273	20.088	8.128	0.518
361.000	251.786	80.005	19.994	103.271	20.084	8.428	0.484
361.500	252.087	80.003	19.994	103.269	20.082	8.586	0.480
362.000	252.352	80.003	19.994	103.269	20.084	8.416	0.538
362.500	252.598	80.003	19.994	103.267	20.082	8.603	0.538
363.000	252.803	80.004	19.995	103.269	20.078	8.906	0.481
363.500	253.057	80.003	19.994	103.271	20.081	8.699	0.455
364.000	253.296	80.004	19.994	103.268	20.080	8.731	0.476
364.500	253.562	80.005	19.994	103.269	20.078	8.868	0.499
365.000	253.815	80.004	19.995	103.267	20.077	8.974	0.512
365.500	254.060	80.004	19.994	103.267	20.076	9.052	0.508
366.000	254.318	80.005	19.994	103.268	20.074	9.156	0.500
366.500	254.552	80.004	19.994	103.271	20.073	9.229	0.498
367.000	254.808	80.003	19.993	103.268	20.069	9.562	0.492
367.500	255.078	80.003	19.994	103.268	20.070	9.445	0.508
368.000	255.331	80.005	19.993	103.267	20.069	9.582	0.524
368.500	255.597	80.004	19.994	103.267	20.068	9.636	0.521
369.000	255.836	80.004	19.993	103.267	20.069	9.538	0.512
369.500	256.096	80.004	19.993	103.269	20.068	9.622	0.502
370.000	256.323	80.005	19.995	103.270	20.068	9.610	0.493
370.500	256.566	80.003	19.993	103.275	20.065	9.849	0.478
371.000	256.838	80.004	19.994	103.276	20.060	10.175	0.493
371.500	257.070	80.004	19.993	103.278	20.064	9.901	0.509
372.000	257.336	80.005	19.993	103.278	20.065	9.835	0.501
372.500	257.599	80.004	19.993	103.281	20.063	10.016	0.513
373.000	257.850	80.004	19.994	103.280	20.057	10.420	0.521
373.500	258.124	80.004	19.994	103.278	20.058	10.348	0.520
374.000	258.361	80.004	19.993	103.278	20.059	10.263	0.518
374.500	258.604	80.004	19.994	103.279	20.053	10.689	0.495
375.000	258.825	80.004	19.994	103.281	20.052	10.792	0.472
375.500	259.115	80.003	19.994	103.283	20.052	10.800	0.488
376.000	259.354	80.003	19.993	103.287	20.050	10.923	0.521
376.500	259.580	80.002	19.994	103.290	20.047	11.142	0.497
377.000	259.840	80.002	19.994	103.291	20.047	11.158	0.475
377.500	260.089	80.002	19.993	103.291	20.046	11.222	0.497
378.000	260.313	80.003	19.993	103.293	20.045	11.308	0.491
378.500	260.606	80.003	19.994	103.293	20.043	11.457	0.495
379.000	260.787	80.003	19.994	103.292	20.041	11.596	0.495
379.500	261.067	80.003	19.993	103.292	20.042	11.531	0.467
380.000	261.314	80.003	19.993	103.292	20.041	11.578	0.494
380.500	261.527	80.003	19.993	103.292	20.039	11.736	0.494
381.000	261.781	80.002	19.994	103.293	20.040	11.666	0.463
381.500	262.054	80.002	19.994	103.294	20.036	11.955	0.497
382.000	262.305	80.003	19.994	103.295	20.037	11.873	0.526
382.500	262.566	80.002	19.994	103.296	20.036	11.943	0.517
383.000	262.807	80.003	19.993	103.296	20.035	12.016	0.507
383.500	263.070	80.002	19.995	103.295	20.033	12.211	0.503
384.000	263.298	80.003	19.993	103.295	20.028	12.550	0.498
384.500	263.555	80.003	19.993	103.295	20.033	12.212	0.489
385.000	263.815	80.005	19.994	103.293	20.026	12.662	0.501
385.500	264.074	80.004	19.995	103.293	20.027	12.612	0.518
386.000	264.309	80.004	19.994	103.293	20.023	12.885	0.507
386.500	264.566	80.004	19.994	103.293	20.021	13.089	0.493
387.000	264.810	80.004	19.994	103.293	20.020	13.163	0.496
387.500	265.049	80.004	19.995	103.294	20.019	13.187	0.492
388.000	265.294	80.005	19.994	103.295	20.019	13.231	0.484
388.500	265.566	80.004	19.994	103.294	20.017	13.363	0.501
389.000	265.790	80.005	19.994	103.293	20.015	13.460	0.507
389.500	266.039	80.005	19.994	103.294	20.012	13.717	0.485
390.000	266.249	80.005	19.994	103.293	20.009	13.923	0.466
390.500	266.504	80.005	19.994	103.294	20.010	13.846	0.462
391.000	266.773	80.006	19.993	103.295	20.007	14.069	0.495
391.500	267.037	80.005	19.994	103.298	20.007	14.057	0.528
392.000	267.301	80.005	19.995	103.297	20.003	14.343	0.530
392.500	267.526	80.005	19.995	103.296	20.004	14.278	0.508
393.000	267.772	80.004	19.994	103.294	20.003	14.379	0.480
393.500	268.061	80.005	19.994	103.293	19.998	14.749	0.503
394.000	268.306	80.005	19.994	103.291	19.997	14.812	0.534
394.500	268.543	80.005	19.995	103.292	19.996	14.905	0.508
395.000	268.817	80.006	19.994	103.296	19.993	15.083	0.496
395.500	269.068	80.006	19.994	103.298	19.993	15.111	0.518
396.000	269.310	80.006	19.995	103.300	19.991	15.274	0.509
396.500	269.532	80.004	19.994	103.299	19.990	15.301	0.478
397.000	269.817	80.005	19.995	103.298	19.985	15.668	0.486
397.500	270.060	80.006	19.994	103.294	19.988	15.493	0.518
398.000	270.330	80.004	19.994	103.294	19.983	15.811	0.521
398.500	270.576	80.004	19.994	103.297	19.981	16.000	0.514
399.000	270.839	80.005	19.994	103.300	19.981	15.976	0.512
399.500	271.079	80.005	19.995	103.302	19.976	16.380	0.506
400.000	271.364	80.005	19.995	103.301	19.978	16.171	0.514
400.500	271.581	80.003	19.995	103.300	19.977	16.241	0.513
401.000	271.868	80.004	19.994	103.297	19.975	16.448	0.503
401.500	272.100	80.004	19.995	103.298	19.972	16.657	0.512
402.000	272.344	80.005	19.994	103.296	19.970	16.811	0.498
402.500	272.616	80.004	19.994	103.301	19.967	17.032	0.496
403.000	272.838	80.005	19.995	103.307	19.965	17.172	0.505
403.500	273.084	80.005	19.993	103.312	19.961	17.437	0.481
404.001	273.375	80.004	19.994	103.313	19.959	17.608	0.502
404.501	273.614	80.005	19.995	103.318	19.959	17.568	0.533
405.000	273.892	80.005	19.996	103.316	19.962	17.401	0.523
405.500	274.112	80.003	19.995	103.310	19.957	17.738	0.507
406.000	274.342	80.005	19.994	103.306	19.952	18.090	0.474
406.500	274.590	80.004	19.994	103.306	19.950	18.232	0.464
407.000	274.867	80.004	19.994	103.306	19.948	18.373	0.502
407.500	275.114	80.005	19.995	103.310	19.948	18.361	0.525
408.000	275.370	80.005	19.994	103.317	19.947	18.494	0.513
408.500	275.639	80.004	19.995	103.317	19.948	18.396	0.514
409.000	275.881	80.004	19.994	103.316	19.942	18.822	0.518
409.500	276.112	80.004	19.994	103.316	19.942	18.840	0.492
410.000	276.372	80.005	19.994	103.313	19.937	19.217	0.482
410.500	276.619	80.004	19.994	103.312	19.937	19.195	0.499
411.000	276.885	80.005	19.994	103.313	19.936	19.239	0.510
411.500	277.120	80.005	19.995	103.313	19.935	19.350	0.507
412.000	277.377	80.005	19.994	103.313	19.931	19.635	0.497
412.500	277.609	80.005	19.994	103.315	19.929	19.747	0.491
413.000	277.858	80.005	19.995	103.316	19.927	19.952	0.485
413.500	278.120	80.004	19.994	103.319	19.925	20.046	0.495
414.000	278.398	80.006	19.994	103.321	19.924	20.141	0.525
414.500	278.662	80.006	19.995	103.322	19.928	19.849	0.541
415.000	278.945	80.006	19.995	103.323	19.922	20.287	0.544
415.500	279.145	80.004	19.994	103.322	19.921	20.360	0.515
416.000	279.399	80.005	19.995	103.323	19.915	20.785	0.468
416.500	279.629	80.006	19.995	103.325	19.918	20.606	0.469
417.000	279.902	80.005	19.995	103.324	19.912	21.046	0.494
417.500	280.184	80.005	19.994	103.324	19.913	20.947	0.529
418.000	280.385	80.005	19.994	103.323	19.909	21.243	0.519
418.500	280.654	80.006	19.994	103.321	19.906	21.492	0.477
419.000	280.927	80.005	19.995	103.320	19.904	21.641	0.506
419.500	281.164	80.005	19.994	103.321	19.904	21.614	0.526
420.000	281.408	80.004	19.995	103.320	19.901	21.821	0.495
420.500	281.638	80.004	19.994	103.320	19.901	21.801	0.477
421.000	281.902	80.005	19.994	103.320	19.899	22.000	0.484
421.500	282.156	80.004	19.994	103.322	19.897	22.126	0.506
422.000	282.387	80.005	19.995	103.322	19.896	22.215	0.501
422.500	282.651	80.005	19.995	103.323	19.894	22.315	0.490
423.000	282.928	80.005	19.995	103.324	19.892	22.506	0.518
423.500	283.152	80.004	19.995	103.325	19.893	22.422	0.521
424.000	283.398	80.003	19.995	103.325	19.889	22.723	0.486
424.500	283.674	80.003	19.994	103.326	19.887	22.858	0.496
425.000	283.957	80.003	19.995	103.326	19.883	23.165	0.540
425.500	284.199	80.003	19.994	103.325	19.883	23.118	0.542
426.000	284.443	80.003	19.995	103.325	19.878	23.479	0.505
426.500	284.669	80.003	19.994	103.325	19.877	23.561	0.478
427.000	284.930	80.003	19.994	103.326	19.875	23.727	0.479
427.500	285.175	80.003	19.994	103.327	19.873	23.902	0.496
428.000	285.442	80.003	19.994	103.329	19.872	23.965	0.509
428.501	285.699	80.002	19.993	103.329	19.871	23.988	0.518
429.000	285.938	80.003	19.994	103.330	19.868	24.214	0.510
429.500	286.184	80.002	19.994	103.330	19.868	24.223	0.490
430.000	286.456	80.002	19.993	103.330	19.866	24.426	0.501
430.500	286.701	80.003	19.993	103.330	19.866	24.416	0.518
431.000	286.976	80.004	19.994	103.330	19.861	24.734	0.519
431.500	287.231	80.003	19.994	103.330	19.862	24.680	0.525
432.000	287.450	80.002	19.994	103.331	19.861	24.728	0.502
432.500	287.746	80.003	19.994	103.331	19.860	24.800	0.494
433.000	287.989	80.005	19.994	103.331	19.857	25.037	0.527
433.500	288.220	80.003	19.994	103.331	19.854	25.298	0.507
434.000	288.461	80.003	19.993	103.330	19.856	25.123	0.473
434.500	288.753	80.005	19.994	103.330	19.855	25.221	0.502
435.000	288.984	80.004	19.995	103.330	19.850	25.547	0.528
435.500	289.242	80.002	19.993	103.331	19.848	25.675	0.506
436.000	289.496	80.003	19.994	103.332	19.848	25.721	0.501
436.500	289.749	80.003	19.994	103.335	19.844	25.980	0.510
437.000	289.997	80.003	19.994	103.338	19.841	26.195	0.504
437.500	290.266	80.002	19.993	103.338	19.842	26.119	0.509
438.000	290.509	80.003	19.994	103.340	19.842	26.125	0.514
438.500	290.764	80.003	19.994	103.339	19.840	26.316	0.505
439.000	291.024	80.003	19.994	103.338	19.837	26.493	0.507
439.500	291.287	80.004	19.995	103.336	19.836	26.549	0.519
440.000	291.503	80.003	19.993	103.336	19.838	26.466	0.501
440.500	291.757	80.003	19.995	103.335	19.833	26.807	0.475
441.000	291.971	80.003	19.993	103.334	19.834	26.755	0.469
441.500	292.257	80.003	19.995	103.333	19.832	26.900	0.484
442.000	292.485	80.003	19.994	103.332	19.830	27.028	0.507
442.500	292.782	80.004	19.994	103.331	19.827	27.235	0.520
443.000	293.001	80.003	19.995	103.332	19.828	27.187	0.521
443.500	293.261	80.003	19.994	103.334	19.825	27.377	0.498
444.000	293.538	80.003	19.994	103.334	19.827	27.240	0.508
444.500	293.768	80.005	19.994	103.334	19.824	27.474	0.522
445.000	294.033	80.004	19.994	103.333	19.819	27.832	0.501
445.500	294.298	80.003	19.995	103.334	19.820	27.721	0.512
446.000	294.556	80.002	19.994	103.335	19.819	27.839	0.526
446.500	294.771	80.003	19.994	103.335	19.818	27.904	0.498
447.000	295.064	80.003	19.993	103.336	19.816	28.071	0.491
447.500	295.296	80.004	19.994	103.337	19.817	27.951	0.517
448.000	295.525	80.003	19.994	103.335	19.811	28.428	0.493
448.500	295.790	80.002	19.994	103.334	19.810	28.516	0.477
449.000	296.045	80.004	19.993	103.334	19.808	28.656	0.507
449.500	296.288	80.003	19.994	103.334	19.805	28.845	0.509
450.000	296.535	80.003	19.994	103.335	19.805	28.826	0.494
450.500	296.801	80.003	19.994	103.334	19.805	28.875	0.502
451.000	297.038	80.003	19.994	103.336	19.801	29.166	0.508
451.500	297.314	80.004	19.994	103.338	19.803	29.026	0.508
452.000	297.562	80.002	19.994	103.339	19.799	29.323	0.518
452.500	297.808	80.003	19.994	103.338	19.796	29.499	0.509
453.000	298.084	80.002	19.994	103.339	19.797	29.448	0.508
453.501	298.348	80.003	19.993	103.339	19.797	29.460	0.531
454.000	298.574	80.003	19.994	103.336	19.793	29.723	0.515
454.500	298.835	80.005	19.994	103.340	19.792	29.827	0.488
455.000	299.083	80.003	19.995	103.344	19.792	29.795	0.498
455.500	299.351	80.003	19.994	103.348	19.788	30.065	0.513
456.000	299.583	80.003	19.994	103.346	19.792	29.792	0.508
456.500	299.798	80.003	19.994	103.346	19.789	30.017	0.474
457.000	300.110	80.003	19.994	103.343	19.787	30.179	0.487
457.500	300.353	80.002	19.995	103.340	19.786	30.263	0.541
458.000	300.593	80.003	19.993	103.338	19.783	30.490	0.519
458.500	300.870	80.003	19.994	103.343	19.779	30.735	0.500
459.000	301.118	80.003	19.994	103.347	19.783	30.482	0.520
459.500	301.351	80.001	19.993	103.349	19.778	30.826	0.503
460.000	301.614	80.002	19.993	103.351	19.779	30.758	0.489
460.500	301.844	80.002	19.994	103.352	19.777	30.870	0.494
461.000	302.099	80.003	19.994	103.345	19.775	31.042	0.489
461.500	302.357	80.002	19.993	103.342	19.773	31.195	0.499
462.000	302.608	80.002	19.994	103.338	19.773	31.168	0.512
462.500	302.850	80.005	19.994	103.334	19.771	31.343	0.501
463.000	303.089	80.003	19.994	103.336	19.770	31.383	0.487
463.500	303.352	80.004	19.995	103.339	19.768	31.589	0.491
464.000	303.596	80.004	19.994	103.342	19.767	31.601	0.504
464.500	303.869	80.003	19.995	103.349	19.767	31.668	0.512
465.000	304.070	80.004	19.994	103.356	19.764	31.829	0.496
465.500	304.336	80.003	19.994	103.356	19.765	31.802	0.470
466.000	304.570	80.004	19.994	103.357	19.762	31.980	0.483
466.500	304.866	80.005	19.994	103.360	19.760	32.133	0.515
467.000	305.094	80.003	19.993	103.361	19.757	32.402	0.527
467.500	305.360	80.005	19.995	103.360	19.756	32.463	0.509
468.000	305.629	80.005	19.994	103.361	19.757	32.400	0.515
468.500	305.890	80.004	19.995	103.364	19.756	32.456	0.533
469.000	306.118	80.004	19.992	103.364	19.755	32.546	0.510
469.500	306.396	80.005	19.995	103.364	19.752	32.701	0.497
470.000	306.661	80.005	19.995	103.362	19.755	32.492	0.524
470.500	306.884	80.005	19.993	103.360	19.750	32.908	0.515
471.000	307.110	80.005	19.993	103.360	19.749	32.926	0.469
471.500	307.392	80.005	19.993	103.361	19.747	33.119	0.479
472.000	307.609	80.004	19.994	103.358	19.749	32.970	0.503
472.500	307.868	80.005	19.994	103.357	19.743	33.407	0.488
473.000	308.120	80.005	19.994	103.354	19.744	33.287	0.493
473.500	308.390	80.004	19.993	103.353	19.745	33.271	0.516
474.000	308.641	80.005	19.994	103.352	19.742	33.480	0.522
474.500	308.894	80.004	19.993	103.354	19.740	33.614	0.513
475.000	309.111	80.005	19.993	103.356	19.739	33.689	0.487
475.500	309.393	80.006	19.993	103.361	19.737	33.795	0.484
476.000	309.648	80.005	19.994	103.358	19.736	33.905	0.518
476.500	309.899	80.006	19.994	103.356	19.734	34.058	0.521
477.000	310.137	80.005	19.994	103.356	19.732	34.196	0.497
477.500	310.381	80.005	19.994	103.356	19.730	34.340	0.486
478.000	310.616	80.005	19.995	103.357	19.729	34.415	0.480
478.500	310.871	80.005	19.993	103.361	19.730	34.352	0.484
479.000	311.162	80.005	19.994	103.363	19.729	34.387	0.518
479.500	311.398	80.005	19.994	103.363	19.727	34.559	0.537
480.000	311.660	80.005	19.994	103.364	19.723	34.856	0.512
480.500	311.948	80.006	19.994	103.364	19.720	35.073	0.524
481.000	312.167	80.003	19.994	103.363	19.719	35.113	0.529
481.500	312.454	80.003	19.994	103.364	19.719	35.117	0.506
482.000	312.683	80.005	19.994	103.364	19.717	35.286	0.511
482.500	312.943	80.004	19.995	103.364	19.716	35.369	0.503
483.000	313.195	80.004	19.995	103.364	19.716	35.356	0.501
483.500	313.454	80.004	19.994	103.365	19.713	35.577	0.512
484.000	313.727	80.004	19.995	103.366	19.714	35.545	0.522
484.500	313.967	80.004	19.994	103.365	19.712	35.635	0.522
485.000	314.232	80.004	19.994	103.365	19.711	35.732	0.508
485.500	314.476	80.005	19.995	103.365	19.709	35.862	0.507
486.000	314.700	80.003	19.994	103.365	19.707	36.055	0.488
486.500	314.977	80.004	19.994	103.365	19.704	36.217	0.484
487.000	315.235	80.004	19.995	103.366	19.703	36.296	0.519
487.500	315.505	80.003	19.995	103.367	19.704	36.260	0.532
488.000	315.697	80.005	19.995	103.368	19.702	36.366	0.495
488.500	315.975	80.003	19.994	103.368	19.697	36.769	0.466
489.000	316.227	80.002	19.994	103.368	19.696	36.829	0.500
489.500	316.472	80.004	19.995	103.368	19.696	36.869	0.513
490.000	316.747	80.004	19.994	103.368	19.693	37.021	0.508
490.500	316.963	80.005	19.994	103.368	19.690	37.264	0.506
491.000	317.244	80.005	19.994	103.368	19.692	37.099	0.494
491.500	317.456	80.006	19.994	103.369	19.689	37.349	0.495
492.000	317.718	80.004	19.995	103.369	19.690	37.292	0.483
492.500	318.004	80.003	19.994	103.370	19.686	37.535	0.511
493.000	318.246	80.005	19.993	103.370	19.686	37.550	0.538
493.500	318.480	80.005	19.993	103.371	19.685	37.612	0.501
494.000	318.712	80.004	19.993	103.370	19.684	37.741	0.471
494.500	319.003	80.006	19.994	103.370	19.680	37.996	0.495
495.000	319.225	80.005	19.994	103.369	19.680	37.990	0.518
495.500	319.468	80.005	19.994	103.371	19.678	38.158	0.489
496.000	319.727	80.006	19.994	103.369	19.678	38.164	0.484
496.500	319.968	80.005	19.994	103.369	19.675	38.384	0.502
497.000	320.214	80.004	19.994	103.369	19.674	38.473	0.494
497.500	320.462	80.006	19.995	103.370	19.674	38.455	0.491
498.000	320.777	80.006	19.993	103.368	19.671	38.644	0.528
498.500	320.992	80.006	19.993	103.369	19.672	38.625	0.546
499.000	321.214	80.005	19.994	103.369	19.669	38.780	0.483
499.500	321.493	80.006	19.994	103.370	19.670	38.728	0.469
500.000	321.777	80.006	19.994	103.371	19.664	39.157	0.532
500.500	322.001	80.005	19.993	103.377	19.663	39.267	0.536
501.000	322.255	80.004	19.993	103.380	19.662	39.355	0.493
501.500	322.512	80.004	19.993	103.380	19.663	39.274	0.495
502.001	322.751	80.003	19.994	103.381	19.659	39.563	0.504
502.500	323.011	80.004	19.994	103.383	19.656	39.767	0.497
503.000	323.259	80.004	19.993	103.381	19.657	39.675	0.503
503.500	323.499	80.004	19.994	103.379	19.653	39.957	0.498
504.000	323.763	80.005	19.994	103.379	19.649	40.262	0.496
504.500	323.973	80.002	19.994	103.378	19.647	40.445	0.489
505.000	324.236	80.003	19.996	103.377	19.647	40.385	0.473
505.500	324.505	80.003	19.994	103.377	19.648	40.370	0.502
506.000	324.747	80.002	19.995	103.381	19.644	40.656	0.522
506.500	324.985	80.003	19.994	103.384	19.644	40.679	0.496
507.000	325.261	80.002	19.994	103.385	19.640	40.940	0.497
507.500	325.501	80.002	19.994	103.385	19.637	41.136	0.514
508.000	325.742	80.003	19.995	103.385	19.635	41.273	0.499
508.500	325.990	80.001	19.995	103.385	19.635	41.297	0.486
509.000	326.298	80.002	19.994	103.385	19.634	41.393	0.522
509.500	326.548	80.002	19.994	103.387	19.629	41.722	0.557
510.000	326.788	80.002	19.995	103.391	19.627	41.875	0.524
510.500	327.046	80.002	19.996	103.390	19.624	42.092	0.494
511.000	327.288	80.002	19.995	103.391	19.625	42.055	0.499
511.500	327.567	80.003	19.995	103.392	19.622	42.226	0.510
512.000	327.835	80.004	19.995	103.394	19.621	42.356	0.534
512.500	328.078	80.001	19.995	103.396	19.620	42.422	0.529
513.000	328.321	80.003	19.995	103.402	19.613	42.928	0.498
513.500	328.562	80.002	19.994	103.403	19.615	42.772	0.485
514.000	328.797	80.002	19.995	103.403	19.608	43.288	0.480
514.500	329.052	80.003	19.995	103.399	19.605	43.474	0.483
515.000	329.293	80.002	19.994	103.395	19.605	43.509	0.493
515.500	329.564	80.003	19.994	103.390	19.605	43.488	0.504
516.000	329.812	80.003	19.994	103.388	19.605	43.531	0.515
516.500	330.089	80.002	19.994	103.391	19.603	43.623	0.522
517.000	330.368	80.003	19.994	103.394	19.599	43.970	0.541
517.500	330.577	80.004	19.994	103.396	19.596	44.150	0.522
518.000	330.802	80.004	19.993	103.401	19.593	44.390	0.460
518.500	331.079	80.003	19.994	103.402	19.591	44.522	0.468
519.000	331.325	80.003	19.994	103.402	19.588	44.732	0.513
519.500	331.578	80.003	19.995	103.403	19.590	44.608	0.511
520.000	331.839	80.005	19.996	103.403	19.586	44.890	0.507
520.500	332.098	80.004	19.994	103.403	19.583	45.116	0.517
521.000	332.352	80.004	19.994	103.403	19.580	45.335	0.517
521.500	332.635	80.003	19.994	103.403	19.575	45.728	0.525
522.000	332.855	80.004	19.994	103.404	19.570	46.049	0.520
522.500	333.127	80.004	19.995	103.405	19.572	45.908	0.497
523.000	333.400	80.004	19.994	103.405	19.570	46.073	0.518
523.500	333.654	80.004	19.994	103.405	19.566	46.356	0.536
524.000	333.879	80.004	19.994	103.405	19.561	46.707	0.503
524.500	334.146	80.004	19.993	103.405	19.559	46.887	0.486
525.000	334.378	80.003	19.994	103.407	19.556	47.077	0.496
525.500	334.650	80.003	19.995	103.410	19.554	47.243	0.501
526.000	334.910	80.003	19.993	103.412	19.546	47.805	0.518
526.500	335.158	80.004	19.993	103.415	19.546	47.827	0.520
527.000	335.399	80.003	19.993	103.423	19.546	47.803	0.498
527.500	335.661	80.003	19.995	103.424	19.541	48.216	0.496
528.000	335.907	80.003	19.994	103.424	19.542	48.146	0.505
528.500	336.177	80.004	19.994	103.425	19.537	48.512	0.512
529.000	336.409	80.004	19.995	103.427	19.531	48.909	0.509
529.500	336.673	80.003	19.995	103.424	19.530	49.036	0.499
530.001	336.930	80.004	19.994	103.426	19.526	49.333	0.509
530.500	337.161	80.003	19.993	103.430	19.520	49.774	0.505
531.000	337.439	80.003	19.994	103.434	19.517	49.927	0.498
531.500	337.676	80.003	19.994	103.437	19.512	50.323	0.512
532.000	337.943	80.006	19.994	103.437	19.512	50.358	0.509
532.500	338.194	80.003	19.995	103.434	19.512	50.327	0.511
533.000	338.463	80.002	19.993	103.429	19.505	50.846	0.520
533.500	338.729	80.003	19.994	103.425	19.502	51.089	0.528
534.001	339.005	80.003	19.994	103.425	19.498	51.370	0.538
534.500	339.229	80.004	19.995	103.430	19.496	51.479	0.521
535.000	339.483	80.004	19.994	103.435	19.495	51.579	0.489
535.500	339.720	80.004	19.993	103.441	19.491	51.913	0.485
536.000	339.945	80.003	19.994	103.446	19.484	52.399	0.477
536.500	340.266	80.004	19.994	103.446	19.483	52.440	0.504
537.000	340.500	80.004	19.995	103.446	19.478	52.858	0.550
537.500	340.738	80.003	19.994	103.446	19.474	53.161	0.513
538.000	340.994	80.004	19.995	103.446	19.471	53.340	0.483
538.500	341.260	80.004	19.995	103.446	19.468	53.544	0.508
539.000	341.498	80.003	19.996	103.446	19.463	53.959	0.513
539.500	341.753	80.003	19.995	103.446	19.460	54.148	0.499
540.000	341.991	80.003	19.994	103.446	19.453	54.678	0.493
540.500	342.242	80.004	19.993	103.448	19.450	54.876	0.491
541.000	342.524	80.004	19.994	103.449	19.445	55.231	0.511
541.500	342.735	80.004	19.995	103.449	19.443	55.416	0.513
542.000	342.991	80.004	19.995	103.453	19.437	55.835	0.480
542.500	343.252	80.003	19.994	103.459	19.435	55.955	0.492
543.000	343.499	80.004	19.994	103.461	19.431	56.304	0.513
543.500	343.755	80.005	19.994	103.463	19.427	56.609	0.506
544.000	343.984	80.004	19.995	103.470	19.425	56.716	0.494
544.500	344.268	80.003	19.993	103.473	19.418	57.235	0.499
545.000	344.479	80.003	19.995	103.473	19.414	57.536	0.504
545.500	344.731	80.002	19.994	103.475	19.409	57.927	0.479
546.000	344.971	80.004	19.994	103.479	19.410	57.855	0.477
546.500	345.234	80.003	19.993	103.481	19.403	58.334	0.497
547.000	345.514	80.004	19.994	103.481	19.398	58.711	0.523
547.500	345.741	80.004	19.993	103.483	19.390	59.269	0.525
548.000	346.031	80.004	19.994	103.484	19.386	59.626	0.512
548.500	346.254	80.004	19.995	103.485	19.381	59.926	0.514
549.000	346.531	80.005	19.994	103.485	19.380	60.038	0.506
549.500	346.784	80.004	19.993	103.485	19.375	60.401	0.515
550.000	347.018	80.004	19.993	103.485	19.369	60.808	0.508
550.500	347.294	80.006	19.995	103.485	19.365	61.096	0.498
551.000	347.544	80.005	19.994	103.485	19.362	61.377	0.518
551.500	347.788	80.005	19.993	103.485	19.357	61.734	0.510
552.000	348.042	80.004	19.993	103.485	19.350	62.220	0.496
552.500	348.297	80.005	19.993	103.489	19.348	62.393	0.503
553.000	348.556	80.004	19.993	103.493	19.340	62.970	0.511
553.500	348.781	80.005	19.994	103.496	19.337	63.178	0.499
554.000	349.050	80.005	19.993	103.501	19.332	63.559	0.489
554.500	349.302	80.003	19.994	103.506	19.329	63.814	0.508
555.000	349.546	80.005	19.993	103.510	19.321	64.388	0.509
555.500	349.816	80.004	19.993	103.514	19.317	64.628	0.505
556.000	350.081	80.005	19.994	103.517	19.312	65.029	0.524
556.500	350.324	80.004	19.993	103.521	19.302	65.729	0.522
557.000	350.597	80.004	19.994	103.523	19.299	65.976	0.512
557.500	350.849	80.004	19.993	103.524	19.297	66.120	0.521
558.000	351.049	80.004	19.993	103.525	19.291	66.600	0.489
558.500	351.337	80.005	19.993	103.526	19.286	66.964	0.470
559.000	351.605	80.004	19.993	103.526	19.281	67.297	0.522
559.500	351.877	80.004	19.993	103.527	19.275	67.715	0.548
560.000	352.103	80.004	19.994	103.528	19.270	68.142	0.519
560.500	352.374	80.003	19.994	103.528	19.266	68.386	0.497
561.000	352.620	80.004	19.994	103.528	19.259	68.897	0.507
561.500	352.881	80.004	19.994	103.530	19.255	69.184	0.512
562.000	353.146	80.003	19.994	103.533	19.249	69.677	0.516
562.500	353.379	80.004	19.994	103.536	19.244	69.988	0.512
563.000	353.652	80.004	19.994	103.537	19.241	70.242	0.502
563.500	353.918	80.004	19.994	103.537	19.234	70.766	0.522
564.000	354.169	80.003	19.994	103.537	19.228	71.162	0.528
564.500	354.445	80.004	19.994	103.537	19.226	71.369	0.522
565.000	354.696	80.004	19.993	103.539	19.220	71.763	0.527
565.500	354.931	80.004	19.993	103.543	19.215	72.161	0.507
566.000	355.195	80.004	19.995	103.549	19.212	72.364	0.493
566.500	355.469	80.004	19.992	103.553	19.205	72.893	0.518
567.000	355.677	80.003	19.993	103.556	19.196	73.547	0.510
567.500	355.952	80.004	19.994	103.559	19.193	73.755	0.482
568.000	356.171	80.004	19.994	103.561	19.188	74.124	0.488
568.500	356.444	80.003	19.993	103.562	19.184	74.442	0.493
569.000	356.680	80.004	19.992	103.564	19.178	74.875	0.501
569.500	356.932	80.003	19.993	103.564	19.173	75.218	0.498
570.000	357.171	80.005	19.995	103.562	19.167	75.681	0.489
570.500	357.448	80.005	19.995	103.559	19.160	76.179	0.504
571.000	357.704	80.005	19.994	103.559	19.154	76.604	0.525
571.500	357.941	80.004	19.994	103.560	19.154	76.577	0.513
572.000	358.208	80.004	19.995	103.561	19.150	76.934	0.498
572.500	358.493	80.005	19.993	103.563	19.143	77.420	0.527
573.000	358.728	80.004	19.993	103.566	19.137	77.827	0.536
573.500	358.994	80.004	19.994	103.566	19.137	77.881	0.510
574.000	359.213	80.004	19.994	103.566	19.130	78.380	0.493
574.500	359.501	80.005	19.994	103.566	19.123	78.873	0.496
575.000	359.719	80.005	19.993	103.566	19.119	79.156	0.507
575.500	360.012	80.006	19.994	103.566	19.119	79.167	0.509
576.000	360.224	80.005	19.994	103.566	19.117	79.306	0.508
576.500	360.486	80.005	19.993	103.566	19.112	79.670	0.489
577.000	360.762	80.006	19.993	103.565	19.110	79.810	0.506
577.500	361.057	80.004	19.995	103.564	19.103	80.324	0.555
578.000	361.252	80.005	19.993	103.564	19.101	80.516	0.530
578.500	361.542	80.005	19.994	103.564	19.095	80.913	0.487
579.000	361.749	80.005	19.994	103.565	19.094	81.012	0.491
579.500	362.027	80.004	19.993	103.564	19.091	81.246	0.491
580.000	362.287	80.005	19.994	103.565	19.088	81.433	0.512
580.500	362.512	80.005	19.993	103.565	19.081	81.975	0.512
581.000	362.790	80.003	19.993	103.564	19.083	81.840	0.494
581.500	363.024	80.004	19.993	103.563	19.080	82.037	0.507
582.000	363.236	80.005	19.993	103.563	19.077	82.253	0.479
582.500	363.527	80.004	19.992	103.562	19.076	82.305	0.475
583.000	363.765	80.005	19.994	103.561	19.071	82.654	0.516
583.500	364.010	80.004	19.994	103.561	19.066	83.025	0.506
584.000	364.253	80.003	19.994	103.560	19.068	82.868	0.486
584.500	364.503	80.004	19.995	103.560	19.065	83.073	0.491
585.000	364.751	80.002	19.994	103.560	19.063	83.231	0.495
585.500	365.041	80.003	19.992	103.560	19.063	83.261	0.518
586.000	365.254	80.003	19.994	103.561	19.061	83.416	0.520
586.500	365.518	80.003	19.994	103.561	19.058	83.594	0.490
587.000	365.752	80.002	19.994	103.561	19.060	83.478	0.488
587.500	366.034	80.002	19.996	103.561	19.055	83.805	0.507
588.000	366.277	80.003	19.994	103.561	19.058	83.599	0.520
588.500	366.541	80.002	19.993	103.561	19.053	83.933	0.516
589.001	366.796	80.003	19.995	103.561	19.053	83.945	0.513
589.500	367.072	80.003	19.993	103.561	19.056	83.712	0.525
590.000	367.343	80.002	19.994	103.561	19.057	83.637	0.539
590.500	367.538	80.003	19.994	103.561	19.054	83.846	0.507
591.000	367.845	80.004	19.995	103.561	19.054	83.908	0.484
591.500	368.060	80.002	19.993	103.557	19.054	83.865	0.512
592.001	368.349	80.002	19.994	103.552	19.055	83.761	0.512
592.500	368.585	80.002	19.994	103.549	19.059	83.514	0.514
593.000	368.841	80.003	19.995	103.543	19.060	83.392	0.509
593.500	369.129	80.003	19.994	103.537	19.061	83.376	0.518
594.000	369.368	80.002	19.994	103.533	19.063	83.165	0.535
594.500	369.603	80.003	19.994	103.530	19.069	82.760	0.500
595.000	369.848	80.003	19.994	103.526	19.067	82.901	0.477
595.500	370.119	80.003	19.994	103.525	19.071	82.558	0.498
596.000	370.354	80.003	19.993	103.523	19.074	82.359	0.511
596.500	370.628	80.003	19.994	103.523	19.077	82.175	0.507
597.000	370.880	80.002	19.994	103.523	19.078	82.049	0.518
597.500	371.117	80.003	19.994	103.520	19.083	81.718	0.507
598.000	371.361	80.002	19.996	103.515	19.089	81.239	0.485
598.500	371.643	80.004	19.994	103.513	19.093	80.974	0.503
599.000	371.908	80.004	19.994	103.509	19.094	80.890	0.537
599.500	372.162	80.003	19.995	103.505	19.099	80.488	0.533
600.000	372.419	80.003	19.994	103.503	19.108	79.831	0.515
600.500	372.656	80.003	19.994	103.501	19.110	79.720	0.502
601.000	372.927	80.004	19.994	103.497	19.113	79.497	0.501
601.500	373.163	80.004	19.995	103.492	19.122	78.791	0.507
602.000	373.413	80.003	19.994	103.487	19.129	78.313	0.497
602.500	373.694	80.005	19.995	103.483	19.134	77.910	0.509
603.000	373.942	80.004	19.993	103.478	19.143	77.243	0.530
603.500	374.218	80.003	19.995	103.473	19.147	76.955	0.526
604.000	374.484	80.003	19.995	103.468	19.155	76.361	0.533
604.500	374.705	80.004	19.995	103.460	19.160	75.993	0.515
605.000	374.961	80.003	19.996	103.453	19.169	75.347	0.482
605.500	375.210	80.003	19.996	103.448	19.175	74.883	0.491
606.000	375.470	80.003	19.995	103.445	19.184	74.275	0.507
606.500	375.744	80.004	19.995	103.437	19.193	73.553	0.521
607.000	375.982	80.003	19.994	103.435	19.202	72.914	0.523
607.500	376.280	80.003	19.995	103.431	19.211	72.232	0.524
608.000	376.553	80.003	19.995	103.426	19.219	71.700	0.553
608.500	376.784	80.003	19.995	103.418	19.233	70.634	0.538
609.000	377.049	80.002	19.994	103.415	19.242	69.981	0.501
609.500	377.290	80.003	19.994	103.409	19.254	69.124	0.501
610.000	377.584	80.003	19.994	103.405	19.260	68.680	0.520
610.500	377.792	80.002	19.995	103.400	19.273	67.723	0.518
611.000	378.093	80.003	19.994	103.396	19.282	67.071	0.505
611.500	378.305	80.002	19.996	103.388	19.291	66.365	0.511
612.000	378.583	80.003	19.993	103.381	19.303	65.505	0.502
612.500	378.867	80.003	19.993	103.374	19.313	64.748	0.526
613.000	379.105	80.003	19.992	103.369	19.324	63.965	0.542
613.500	379.336	80.002	19.994	103.365	19.337	63.037	0.496
614.000	379.635	80.002	19.994	103.361	19.345	62.438	0.500
614.500	379.894	80.001	19.994	103.354	19.360	61.344	0.544
615.000	380.117	80.002	19.994	103.348	19.370	60.608	0.520
615.500	380.373	80.004	19.994	103.341	19.379	59.955	0.480
616.000	380.652	80.002	19.994	103.334	19.390	59.120	0.507
616.500	380.915	80.002	19.994	103.330	19.408	57.838	0.539
617.000	381.149	80.002	19.995	103.330	19.420	56.965	0.520
617.500	381.403	80.001	19.995	103.329	19.431	56.128	0.493
618.000	381.632	80.002	19.993	103.325	19.443	55.236	0.486
618.500	381.924	80.004	19.993	103.322	19.456	54.292	0.502
619.000	382.173	80.004	19.992	103.318	19.468	53.417	0.531
619.500	382.406	80.003	19.994	103.311	19.485	52.221	0.511
620.000	382.671	80.003	19.994	103.304	19.496	51.398	0.490
620.500	382.938	80.003	19.996	103.300	19.509	50.405	0.515
621.000	383.230	80.002	19.994	103.294	19.522	49.448	0.546
621.500	383.455	80.002	19.994	103.285	19.535	48.565	0.539
622.000	383.751	80.003	19.996	103.278	19.547	47.674	0.519
622.500	384.011	80.002	19.995	103.273	19.562	46.555	0.538
623.000	384.254	80.002	19.994	103.268	19.575	45.592	0.529
623.500	384.507	80.003	19.995	103.265	19.586	44.820	0.500
624.000	384.762	80.002	19.993	103.266	19.602	43.631	0.502
624.501	385.043	80.003	19.993	103.264	19.612	42.941	0.522
625.001	385.308	80.004	19.994	103.261	19.626	41.883	0.541
625.501	385.530	80.002	19.995	103.258	19.641	40.822	0.517
626.000	385.807	80.003	19.994	103.255	19.655	39.785	0.493
626.500	386.057	80.004	19.994	103.251	19.667	38.886	0.513
627.000	386.342	80.003	19.994	103.249	19.678	38.064	0.531
627.500	386.560	80.003	19.995	103.248	19.690	37.189	0.519
628.000	386.784	80.003	19.995	103.246	19.701	36.429	0.472
628.500	387.085	80.004	19.994	103.242	19.716	35.289	0.483
629.000	387.319	80.004	19.995	103.237	19.728	34.450	0.530
629.500	387.567	80.004	19.995	103.231	19.740	33.530	0.509
630.000	387.835	80.004	19.994	103.225	19.753	32.589	0.499
630.500	388.091	80.003	19.993	103.220	19.766	31.665	0.520
631.000	388.359	80.004	19.994	103.216	19.774	31.092	0.524
631.500	388.635	80.005	19.994	103.214	19.786	30.176	0.534
632.000	388.871	80.004	19.996	103.214	19.798	29.345	0.527
632.500	389.134	80.004	19.993	103.214	19.810	28.459	0.505
633.000	389.412	80.004	19.993	103.214	19.822	27.562	0.520
633.500	389.642	80.004	19.994	103.212	19.832	26.811	0.525
634.000	389.909	80.005	19.994	103.212	19.844	25.942	0.502
634.500	390.161	80.004	19.994	103.209	19.852	25.364	0.508
635.000	390.390	80.005	19.994	103.207	19.862	24.614	0.500
635.500	390.663	80.004	19.995	103.206	19.874	23.793	0.491
636.000	390.895	80.005	19.995	103.206	19.882	23.217	0.504
636.500	391.166	80.004	19.994	103.205	19.890	22.607	0.504
637.000	391.429	80.004	19.994	103.206	19.899	21.973	0.518
637.500	391.671	80.004	19.993	103.207	19.907	21.391	0.519
638.000	391.955	80.003	19.994	103.206	19.913	20.891	0.516
638.500	392.203	80.003	19.994	103.204	19.924	20.109	0.529
639.000	392.454	80.004	19.994	103.203	19.931	19.640	0.515
639.500	392.672	80.004	19.995	103.204	19.939	19.027	0.484
640.000	392.986	80.004	19.994	103.205	19.946	18.532	0.501
640.500	393.225	80.003	19.994	103.205	19.955	17.888	0.543
641.000	393.490	80.004	19.995	103.205	19.961	17.403	0.529
641.500	393.755	80.005	19.994	103.200	19.968	16.878	0.517
642.000	393.973	80.005	19.995	103.195	19.974	16.461	0.506
642.500	394.258	80.004	19.995	103.188	19.982	15.908	0.493
643.000	394.517	80.004	19.995	103.182	19.988	15.471	0.524
643.500	394.751	80.003	19.995	103.178	19.993	15.073	0.519
644.000	395.016	80.004	19.994	103.178	19.996	14.840	0.496
644.500	395.288	80.004	19.994	103.178	20.005	14.204	0.518
645.000	395.537	80.003	19.994	103.179	20.009	13.880	0.529
645.500	395.770	80.004	19.994	103.179	20.015	13.470	0.501
646.000	396.070	80.004	19.994	103.179	20.022	12.937	0.507
646.500	396.315	80.004	19.993	103.181	20.027	12.599	0.539
647.000	396.570	80.003	19.993	103.182	20.029	12.426	0.523
647.500	396.818	80.004	19.994	103.182	20.031	12.283	0.502
648.000	397.079	80.003	19.995	103.186	20.034	12.082	0.506
648.500	397.302	80.004	19.995	103.186	20.040	11.619	0.496
649.000	397.609	80.005	19.994	103.183	20.044	11.350	0.507
649.500	397.855	80.005	19.994	103.182	20.046	11.245	0.541
650.000	398.132	80.006	19.993	103.181	20.050	10.903	0.538
650.500	398.357	80.006	19.996	103.178	20.053	10.674	0.513
651.000	398.617	80.006	19.994	103.176	20.055	10.533	0.494
651.500	398.860	80.006	19.994	103.176	20.057	10.412	0.494
652.000	399.101	80.006	19.994	103.180	20.058	10.303	0.493
652.500	399.362	80.006	19.995	103.182	20.066	9.790	0.493
653.000	399.613	80.005	19.993	103.181	20.066	9.782	0.506
653.500	399.902	80.006	19.994	103.181	20.067	9.706	0.526
654.000	400.145	80.006	19.994	103.183	20.069	9.555	0.536
654.500	400.393	80.006	19.994	103.182	20.071	9.380	0.511
655.000	400.657	80.005	19.995	103.178	20.074	9.187	0.502
655.500	400.906	80.006	19.993	103.177	20.077	8.947	0.513
656.000	401.163	80.007	19.992	103.177	20.077	8.969	0.510
656.500	401.388	80.005	19.993	103.176	20.077	8.937	0.494
657.000	401.647	80.006	19.993	103.173	20.081	8.659	0.483
657.500	401.901	80.005	19.993	103.173	20.081	8.668	0.498
658.000	402.136	80.006	19.993	103.173	20.083	8.519	0.501
658.500	402.397	80.006	19.994	103.173	20.083	8.527	0.492
659.000	402.657	80.006	19.994	103.172	20.087	8.251	0.508
659.500	402.939	80.005	19.994	103.174	20.087	8.187	0.532
660.000	403.192	80.005	19.993	103.174	20.090	8.010	0.538
660.500	403.451	80.005	19.995	103.174	20.091	7.934	0.524
661.000	403.685	80.005	19.994	103.174	20.090	8.016	0.503
661.500	403.920	80.003	19.993	103.176	20.092	7.861	0.481
662.000	404.174	80.005	19.995	103.177	20.094	7.682	0.478
662.500	404.425	80.006	19.994	103.176	20.093	7.817	0.497
663.000	404.659	80.004	19.994	103.178	20.093	7.804	0.495
663.500	404.930	80.003	19.994	103.180	20.093	7.818	0.495
664.000	405.155	80.004	19.994	103.178	20.094	7.704	0.501
664.500	405.421	80.004	19.995	103.176	20.095	7.625	0.494
665.000	405.697	80.005	19.994	103.175	20.093	7.770	0.516
665.500	405.929	80.003	19.993	103.173	20.094	7.674	0.525
666.000	406.221	80.003	19.994	103.177	20.096	7.591	0.516
666.500	406.466	80.003	19.995	103.178	20.096	7.599	0.530
667.000	406.688	80.003	19.994	103.177	20.098	7.408	0.502
667.500	406.957	80.003	19.994	103.177	20.098	7.442	0.479
668.000	407.198	80.004	19.997	103.178	20.100	7.255	0.501
668.500	407.462	80.003	19.995	103.175	20.099	7.354	0.508
669.000	407.706	80.003	19.994	103.176	20.100	7.287	0.506
669.500	407.999	80.004	19.995	103.177	20.102	7.148	0.522
670.000	408.212	80.002	19.994	103.177	20.099	7.348	0.521
670.500	408.476	80.003	19.994	103.176	20.100	7.302	0.492
671.000	408.715	80.003	19.995	103.174	20.104	6.945	0.491
671.500	408.999	80.003	19.995	103.172	20.101	7.189	0.513
672.000	409.226	80.003	19.995	103.172	20.101	7.169	0.517
672.500	409.487	80.003	19.995	103.173	20.102	7.129	0.499
673.000	409.729	80.003	19.994	103.173	20.103	7.042	0.495
673.500	410.026	80.003	19.995	103.173	20.104	6.994	0.521
674.000	410.269	80.002	19.995	103.177	20.103	7.046	0.539
674.500	410.523	80.003	19.995	103.178	20.105	6.909	0.518
675.000	410.786	80.003	19.997	103.180	20.107	6.728	0.507
675.500	411.029	80.002	19.995	103.181	20.109	6.622	0.512
676.000	411.260	80.003	19.994	103.181	20.105	6.885	0.490
676.500	411.516	80.003	19.995	103.177	20.108	6.682	0.480
677.000	411.768	80.002	19.995	103.178	20.107	6.780	0.498
677.500	412.034	80.003	19.993	103.176	20.108	6.657	0.513
678.000	412.267	80.002	19.995	103.177	20.113	6.297	0.508
678.500	412.529	80.003	19.993	103.180	20.109	6.633	0.497
679.000	412.750	80.003	19.993	103.181	20.108	6.691	0.489
679.500	413.026	80.001	19.993	103.180	20.109	6.647	0.490
680.000	413.288	80.003	19.996	103.180	20.111	6.506	0.517
680.500	413.538	80.004	19.996	103.178	20.113	6.336	0.525
681.000	413.790	80.002	19.995	103.175	20.108	6.688	0.508
681.500	414.035	80.002	19.994	103.175	20.109	6.645	0.500
682.000	414.281	80.002	19.995	103.174	20.110	6.547	0.494
682.500	414.553	80.001	19.994	103.174	20.111	6.474	0.504
683.000	414.756	80.004	19.993	103.175	20.112	6.390	0.496
683.500	415.028	80.003	19.995	103.175	20.114	6.245	0.475
684.000	415.250	80.002	19.994	103.175	20.113	6.325	0.485
684.500	415.524	80.003	19.993	103.175	20.114	6.271	0.495
685.000	415.793	80.003	19.994	103.175	20.115	6.196	0.520
685.500	416.080	80.002	19.994	103.174	20.110	6.563	0.549
686.000	416.278	80.003	19.995	103.174	20.114	6.269	0.521
686.500	416.560	80.003	19.994	103.174	20.112	6.380	0.483
687.000	416.828	80.002	19.995	103.175	20.112	6.410	0.515
687.500	417.069	80.002	19.994	103.177	20.115	6.142	0.529
688.000	417.310	80.003	19.995	103.177	20.112	6.362	0.495
688.500	417.603	80.002	19.995	103.179	20.114	6.241	0.508
689.000	417.852	80.001	19.996	103.183	20.115	6.187	0.538
689.500	418.082	80.003	19.996	103.184	20.112	6.388	0.511
690.000	418.353	80.002	19.996	103.182	20.115	6.183	0.490
690.500	418.604	80.003	19.994	103.183	20.115	6.177	0.511
691.000	418.871	80.002	19.995	103.181	20.112	6.422	0.520
691.500	419.103	80.002	19.994	103.178	20.115	6.181	0.508
692.000	419.349	80.001	19.995	103.177	20.114	6.237	0.489
692.500	419.610	80.001	19.994	103.178	20.114	6.221	0.493
693.000	419.861	80.002	19.995	103.178	20.116	6.120	0.510
693.500	420.112	80.001	19.996	103.178	20.117	6.026	0.507
694.000	420.388	80.001	19.996	103.177	20.116	6.088	0.515
694.500	420.641	80.001	19.995	103.178	20.118	5.984	0.528
695.000	420.877	80.000	19.995	103.179	20.118	5.969	0.509
695.500	421.162	80.001	19.994	103.181	20.116	6.090	0.505
696.000	421.397	80.001	19.995	103.183	20.121	5.752	0.520
696.500	421.665	79.999	19.994	103.185	20.120	5.829	0.512
697.000	421.958	80.002	19.996	103.183	20.119	5.887	0.532
697.500	422.170	80.001	19.995	103.182	20.116	6.068	0.533
698.000	422.435	80.001	19.996	103.181	20.118	5.925	0.491
698.500	422.706	80.001	19.995	103.179	20.115	6.209	0.507
699.000	422.942	80.001	19.996	103.177	20.118	5.939	0.522
699.500	423.195	80.001	19.995	103.177	20.119	5.909	0.498
700.000	423.446	80.001	19.995	103.176	20.118	5.944	0.496
700.500	423.684	80.001	19.996	103.176	20.121	5.752	0.496
701.000	423.940	80.001	19.995	103.175	20.121	5.766	0.491
701.500	424.197	80.001	19.996	103.176	20.121	5.761	0.504
702.000	424.447	80.001	19.995	103.176	20.120	5.797	0.510
702.500	424.720	80.001	19.995	103.176	20.121	5.716	0.515
703.000	424.964	80.000	19.995	103.175	20.124	5.519	0.520
703.500	425.262	80.002	19.994	103.176	20.121	5.764	0.529
704.000	425.464	80.002	19.995	103.177	20.122	5.636	0.520
704.500	425.727	80.001	19.995	103.176	20.119	5.855	0.482
705.000	425.978	80.002	19.994	103.177	20.119	5.861	0.490
705.500	426.263	80.002	19.993	103.177	20.120	5.819	0.525
706.000	426.535	80.003	19.994	103.177	20.121	5.772	0.546
706.500	426.749	80.003	19.995	103.177	20.122	5.642	0.521
707.000	427.012	80.002	19.993	103.178	20.124	5.513	0.482
707.500	427.272	80.004	19.996	103.177	20.122	5.700	0.500
708.000	427.527	80.003	19.994	103.177	20.126	5.406	0.519
708.500	427.784	80.003	19.995	103.176	20.126	5.390	0.514
709.000	428.011	80.004	19.995	103.175	20.124	5.547	0.498
709.500	428.293	80.004	19.995	103.174	20.125	5.442	0.496
710.000	428.592	80.003	19.996	103.175	20.124	5.551	0.545
710.500	428.780	80.005	19.995	103.175	20.127	5.310	0.534
711.000	429.088	80.005	19.995	103.174	20.123	5.575	0.491
711.500	429.319	80.005	19.993	103.174	20.124	5.535	0.518
712.000	429.552	80.003	19.993	103.173	20.123	5.589	0.502
712.500	429.822	80.004	19.994	103.172	20.126	5.348	0.484
713.000	430.052	80.004	19.995	103.171	20.125	5.430	0.501
713.500	430.291	80.004	19.994	103.171	20.127	5.314	0.485
714.000	430.547	80.005	19.994	103.173	20.127	5.322	0.482
714.500	430.792	80.006	19.994	103.173	20.127	5.304	0.497
715.000	431.092	80.005	19.993	103.174	20.127	5.284	0.523
715.500	431.326	80.004	19.993	103.177	20.123	5.575	0.540
716.000	431.566	80.005	19.994	103.176	20.125	5.440	0.504
716.500	431.818	80.005	19.993	103.176	20.129	5.135	0.483
717.000	432.093	80.004	19.993	103.176	20.126	5.338	0.509
717.500	432.376	80.005	19.994	103.176	20.127	5.266	0.543
718.000	432.598	80.004	19.993	103.174	20.132	4.956	0.532
718.500	432.839	80.004	19.994	103.174	20.130	5.101	0.484
719.000	433.081	80.003	19.994	103.174	20.129	5.163	0.473
719.500	433.370	80.002	19.994	103.174	20.130	5.062	0.507
720.000	433.626	80.002	19.995	103.174	20.130	5.072	0.538
720.500	433.870	80.004	19.993	103.175	20.130	5.050	0.522
721.000	434.134	80.005	19.995	103.175	20.130	5.062	0.504
721.500	434.387	80.002	19.994	103.174	20.131	5.002	0.512
722.000	434.655	80.003	19.996	103.176	20.130	5.089	0.519
722.500	434.940	80.003	19.994	103.176	20.130	5.091	0.537
723.000	435.157	80.003	19.992	103.174	20.132	4.970	0.528
723.500	435.422	80.004	19.995	103.174	20.134	4.773	0.492
724.000	435.709	80.003	19.993	103.175	20.134	4.805	0.517
724.500	435.954	80.003	19.994	103.174	20.130	5.099	0.542
725.000	436.185	80.003	19.994	103.175	20.130	5.074	0.504
725.500	436.437	80.003	19.995	103.175	20.132	4.924	0.480
726.000	436.675	80.004	19.995	103.175	20.130	5.072	0.487
726.500	436.928	80.004	19.995	103.174	20.132	4.917	0.490
727.000	437.210	80.004	19.994	103.174	20.130	5.054	0.513
727.500	437.441	80.003	19.994	103.172	20.134	4.781	0.524
728.000	437.701	80.004	19.993	103.172	20.131	4.988	0.502
728.500	437.971	80.004	19.995	103.173	20.131	4.976	0.510
729.000	438.181	80.004	19.994	103.174	20.132	4.906	0.505
729.500	438.454	80.004	19.996	103.173	20.133	4.849	0.482
730.000	438.702	80.004	19.995	103.174	20.134	4.815	0.502
730.500	438.973	80.005	19.994	103.174	20.132	4.922	0.520
731.000	439.244	80.005	19.996	103.173	20.132	4.901	0.530
731.500	439.469	80.006	19.993	103.172	20.131	5.010	0.519
732.000	439.757	80.005	19.993	103.172	20.133	4.891	0.505
732.500	439.983	80.005	19.995	103.172	20.132	4.924	0.514
733.000	440.262	80.005	19.994	103.172	20.131	4.988	0.510
733.500	440.486	80.005	19.995	103.171	20.133	4.873	0.504
734.000	440.737	80.005	19.993	103.172	20.138	4.463	0.489
734.500	441.004	80.005	19.994	103.171	20.133	4.873	0.496
735.000	441.238	80.005	19.993	103.171	20.134	4.769	0.509
735.500	441.488	80.007	19.995	103.171	20.131	5.018	0.492
736.000	441.775	80.005	19.994	103.171	20.134	4.811	0.511
736.500	441.998	80.006	19.993	103.171	20.136	4.676	0.524
737.000	442.264	80.007	19.993	103.171	20.136	4.614	0.499
737.500	442.508	80.006	19.994	103.172	20.134	4.789	0.500
738.000	442.753	80.007	19.994	103.172	20.138	4.493	0.500
738.500	443.038	80.006	19.994	103.171	20.136	4.646	0.510
739.000	443.253	80.006	19.995	103.171	20.134	4.774	0.515
739.500	443.512	80.006	19.994	103.171	20.135	4.714	0.487
740.000	443.771	80.006	19.994	103.170	20.137	4.539	0.496
740.500	444.034	80.007	19.994	103.171	20.136	4.642	0.520
741.000	444.252	80.006	19.993	103.171	20.135	4.712	0.502
741.500	444.507	80.006	19.994	103.171	20.138	4.475	0.477
742.000	444.781	80.006	19.994	103.172	20.136	4.618	0.501
742.500	445.046	80.004	19.993	103.171	20.138	4.485	0.534
743.000	445.273	80.005	19.993	103.171	20.136	4.630	0.516
743.500	445.524	80.005	19.994	103.171	20.139	4.402	0.485
744.000	445.763	80.005	19.995	103.171	20.140	4.330	0.484
744.500	446.022	80.004	19.993	103.171	20.139	4.394	0.494
745.000	446.290	80.003	19.993	103.172	20.138	4.479	0.512
745.500	446.542	80.004	19.992	103.172	20.140	4.342	0.523
746.000	446.800	80.004	19.994	103.172	20.141	4.245	0.515
746.500	447.075	80.002	19.993	103.172	20.141	4.296	0.521
747.000	447.282	80.004	19.993	103.174	20.139	4.406	0.508
747.500	447.565	80.004	19.994	103.174	20.136	4.630	0.486
748.000	447.794	80.001	19.993	103.174	20.139	4.404	0.501
748.500	448.059	80.003	19.995	103.175	20.140	4.372	0.503
749.000	448.324	80.003	19.993	103.176	20.140	4.316	0.512
749.500	448.531	80.002	19.993	103.175	20.141	4.306	0.501
750.000	448.831	80.004	19.994	103.176	20.139	4.428	0.489
750.500	449.068	80.003	19.993	103.176	20.142	4.189	0.522
751.000	449.321	80.004	19.994	103.176	20.141	4.290	0.513
751.500	449.558	80.003	19.994	103.175	20.139	4.404	0.490
752.000	449.822	80.002	19.994	103.176	20.143	4.165	0.496
752.500	450.068	80.003	19.994	103.176	20.140	4.362	0.506
753.000	450.344	80.003	19.994	103.175	20.141	4.278	0.516
753.500	450.557	80.002	19.993	103.175	20.142	4.235	0.505
754.000	450.830	80.002	19.994	103.174	20.140	4.352	0.487
754.500	451.086	80.003	19.994	103.174	20.145	3.990	0.508
755.000	451.359	80.003	19.994	103.174	20.144	4.040	0.529
755.500	451.612	80.005	19.994	103.174	20.143	4.098	0.527
756.000	451.886	80.002	19.993	103.174	20.145	3.992	0.526
756.500	452.106	80.003	19.994	103.173	20.143	4.155	0.511
757.000	452.374	80.001	19.995	103.173	20.145	3.982	0.491
757.500	452.636	80.002	19.994	103.173	20.143	4.125	0.509
758.000	452.846	80.002	19.996	103.173	20.144	4.064	0.501
758.500	453.146	80.003	19.994	103.174	20.140	4.332	0.491
759.000	453.437	80.003	19.995	103.174	20.141	4.288	0.551
759.500	453.686	80.004	19.995	103.174	20.144	4.050	0.566
760.000	453.909	80.003	19.994	103.174	20.140	4.334	0.506
760.500	454.157	80.002	19.995	103.174	20.142	4.219	0.471
761.000	454.409	80.003	19.993	103.174	20.142	4.233	0.486
761.500	454.628	80.003	19.995	103.174	20.146	3.909	0.486
762.000	454.896	80.003	19.994	103.174	20.144	4.058	0.479
762.500	455.177	80.003	19.995	103.174	20.143	4.149	0.518
763.000	455.441	80.002	19.995	103.174	20.144	4.066	0.547
763.500	455.664	80.003	19.995	103.174	20.144	4.052	0.516
764.000	455.945	80.002	19.994	103.174	20.145	3.998	0.495
764.500	456.202	80.002	19.994	103.174	20.145	4.016	0.521
765.000	456.459	80.002	19.993	103.175	20.145	3.972	0.527
765.500	456.685	80.002	19.996	103.175	20.146	3.934	0.499
766.000	456.935	80.004	19.993	103.175	20.145	3.990	0.479
766.500	457.221	80.001	19.995	103.176	20.145	3.954	0.506
767.000	457.454	80.002	19.994	103.176	20.147	3.821	0.528
767.500	457.719	80.003	19.995	103.176	20.148	3.767	0.509
768.000	457.938	80.002	19.995	103.177	20.146	3.948	0.491
768.500	458.236	80.005	19.995	103.177	20.147	3.813	0.500
769.000	458.464	80.004	19.994	103.177	20.146	3.930	0.521
769.500	458.753	80.004	19.994	103.176	20.141	4.260	0.522
770.000	459.028	80.004	19.993	103.177	20.141	4.256	0.541
770.500	459.245	80.003	19.994	103.175	20.143	4.155	0.528
771.000	459.518	80.002	19.993	103.175	20.142	4.175	0.491
771.500	459.739	80.003	19.994	103.175	20.145	4.004	0.492
772.000	460.005	80.003	19.994	103.175	20.144	4.089	0.490
772.500	460.224	80.002	19.995	103.175	20.145	3.966	0.486
773.000	460.480	80.004	19.993	103.174	20.146	3.913	0.480
773.500	460.736	80.003	19.994	103.173	20.145	3.996	0.493
774.000	461.000	80.004	19.994	103.172	20.146	3.916	0.516
774.500	461.261	80.002	19.995	103.172	20.143	4.117	0.523
775.000	461.526	80.002	19.994	103.171	20.140	4.376	0.525
775.500	461.798	80.003	19.993	103.171	20.147	3.827	0.531
776.000	462.042	80.004	19.995	103.171	20.143	4.111	0.527
776.500	462.272	80.002	19.995	103.171	20.146	3.909	0.495
777.000	462.518	80.002	19.995	103.171	20.145	3.980	0.475
777.500	462.812	80.003	19.995	103.170	20.147	3.825	0.509
778.000	463.073	80.004	19.994	103.170	20.146	3.893	0.548
778.500	463.324	80.003	19.995	103.171	20.149	3.664	0.533
779.000	463.548	80.002	19.995	103.171	20.147	3.847	0.493
779.500	463.792	80.003	19.995	103.172	20.146	3.944	0.471
780.000	464.067	80.004	19.995	103.172	20.150	3.604	0.494
780.500	464.322	80.002	19.995	103.172	20.151	3.553	0.525
781.000	464.602	80.003	19.995	103.172	20.150	3.646	0.533
781.500	464.812	80.003	19.993	103.171	20.150	3.610	0.513
782.000	465.080	80.002	19.995	103.171	20.149	3.702	0.484
782.500	465.335	80.003	19.994	103.171	20.150	3.658	0.500
783.000	465.566	80.003	19.995	103.171	20.147	3.829	0.505
783.500	465.838	80.004	19.995	103.171	20.149	3.704	0.494
784.000	466.067	80.003	19.994	103.171	20.151	3.551	0.502
784.500	466.319	80.002	19.995	103.171	20.150	3.640	0.491
785.000	466.632	80.003	19.995	103.171	20.148	3.761	0.523
785.500	466.863	80.003	19.995	103.171	20.152	3.457	0.555
786.000	467.144	80.003	19.995	103.171	20.148	3.751	0.528
786.500	467.378	80.002	19.995	103.170	20.151	3.565	0.513
787.000	467.652	80.002	19.995	103.170	20.151	3.569	0.511
787.500	467.887	80.004	19.995	103.170	20.149	3.664	0.508
788.000	468.171	80.004	19.996	103.170	20.149	3.710	0.514
788.500	468.398	80.003	19.995	103.171	20.152	3.479	0.515
789.000	468.645	80.004	19.994	103.172	20.149	3.690	0.493
789.500	468.911	80.004	19.995	103.173	20.149	3.666	0.494
790.000	469.173	80.003	19.995	103.173	20.150	3.588	0.521
790.500	469.422	80.004	19.995	103.173	20.153	3.380	0.519
791.001	469.688	80.003	19.995	103.172	20.155	3.258	0.513
791.500	469.947	80.004	19.995	103.171	20.154	3.360	0.520
792.000	470.209	80.005	19.996	103.169	20.153	3.427	0.523
792.500	470.478	80.004	19.995	103.169	20.155	3.290	0.526
793.000	470.780	80.005	19.995	103.169	20.154	3.314	0.551
793.500	470.986	80.005	19.995	103.169	20.153	3.415	0.539
794.000	471.244	80.005	19.998	103.168	20.150	3.618	0.486
794.500	471.531	80.004	19.995	103.168	20.153	3.410	0.504
795.000	471.790	80.004	19.994	103.168	20.153	3.386	0.545
795.500	472.034	80.006	19.995	103.169	20.150	3.618	0.525
796.000	472.279	80.005	19.995	103.169	20.151	3.580	0.496
796.500	472.523	80.005	19.995	103.169	20.152	3.487	0.489
797.000	472.784	80.004	19.995	103.169	20.152	3.441	0.497
797.500	473.034	80.006	19.994	103.169	20.151	3.529	0.508
798.000	473.282	80.004	19.994	103.169	20.154	3.356	0.504
798.500	473.580	80.004	19.995	103.169	20.150	3.592	0.522
799.000	473.830	80.005	19.995	103.168	20.153	3.394	0.547
799.500	474.131	80.005	19.994	103.168	20.154	3.350	0.550
800.000	474.398	80.004	19.993	103.168	20.153	3.400	0.559
800.500	474.620	80.004	19.994	103.168	20.154	3.312	0.529
801.000	474.890	80.004	19.995	103.167	20.155	3.225	0.491
801.500	475.158	80.005	19.994	103.167	20.155	3.251	0.515
802.000	475.399	80.004	19.993	103.168	20.155	3.255	0.524
802.500	475.678	80.004	19.996	103.168	20.157	3.131	0.515
803.000	475.910	80.005	19.994	103.168	20.157	3.081	0.515
803.500	476.148	80.003	19.994	103.170	20.155	3.240	0.490
804.000	476.404	80.004	19.994	103.171	20.157	3.093	0.482
804.500	476.688	80.004	19.993	103.171	20.156	3.201	0.517
805.000	476.960	80.004	19.994	103.171	20.157	3.143	0.548
805.500	477.211	80.004	19.994	103.171	20.156	3.163	0.539
806.000	477.447	80.004	19.995	103.169	20.154	3.306	0.505
806.500	477.729	80.006	19.994	103.170	20.155	3.223	0.502
807.000	477.964	80.004	19.994	103.170	20.158	3.002	0.517
807.500	478.199	80.004	19.994	103.170	20.157	3.111	0.494
808.000	478.471	80.004	19.994	103.169	20.159	2.978	0.489
808.500	478.761	80.004	19.994	103.170	20.156	3.203	0.535
809.000	478.979	80.004	19.994	103.170	20.159	2.930	0.535
809.500	479.210	80.005	19.994	103.169	20.159	2.942	0.479
810.000	479.460	80.005	19.993	103.169	20.160	2.901	0.465
810.500	479.734	80.003	19.994	103.171	20.161	2.815	0.502
811.000	479.992	80.005	19.995	103.171	20.162	2.744	0.527
811.500	480.234	80.004	19.993	103.172	20.163	2.688	0.515
812.000	480.478	80.004	19.993	103.174	20.162	2.732	0.493
812.500	480.750	80.005	19.993	103.173	20.161	2.835	0.501
813.000	481.013	80.005	19.994	103.174	20.163	2.696	0.525
813.500	481.281	80.006	19.994	103.171	20.162	2.710	0.533
814.000	481.529	80.006	19.993	103.169	20.164	2.586	0.524
814.500	481.810	80.003	19.993	103.168	20.160	2.910	0.523
815.000	482.027	80.004	19.993	103.168	20.164	2.628	0.513
815.500	482.303	80.005	19.994	103.166	20.161	2.797	0.496
816.000	482.573	80.005	19.995	103.167	20.161	2.853	0.519
816.500	482.828	80.005	19.994	103.168	20.159	2.972	0.535
817.000	483.048	80.005	19.993	103.169	20.163	2.682	0.500
817.500	483.345	80.005	19.994	103.169	20.162	2.716	0.496
818.000	483.604	80.005	19.993	103.171	20.160	2.869	0.537
818.500	483.831	80.006	19.994	103.172	20.160	2.857	0.521
819.000	484.091	80.005	19.993	103.172	20.159	2.984	0.486
819.500	484.337	80.005	19.993	103.172	20.156	3.169	0.496
820.000	484.622	80.004	19.994	103.171	20.161	2.785	0.518
820.500	484.852	80.005	19.993	103.170	20.159	2.940	0.523
821.000	485.128	80.005	19.994	103.170	20.162	2.781	0.511
821.500	485.385	80.005	19.994	103.171	20.160	2.901	0.520
822.000	485.618	80.004	19.994	103.170	20.160	2.928	0.512
822.500	485.881	80.004	19.994	103.170	20.161	2.817	0.493
823.000	486.163	80.004	19.993	103.169	20.159	2.944	0.521
823.500	486.402	80.003	19.993	103.168	20.158	3.052	0.533
824.000	486.689	80.005	19.994	103.168	20.161	2.829	0.523
824.500	486.936	80.003	19.994	103.168	20.159	2.948	0.530
825.000	487.216	80.003	19.995	103.168	20.160	2.891	0.531
825.500	487.454	80.004	19.994	103.170	20.162	2.771	0.522
826.000	487.727	80.004	19.994	103.171	20.160	2.873	0.514
826.500	487.985	80.004	19.995	103.170	20.159	2.972	0.521
827.000	488.230	80.003	19.994	103.171	20.163	2.700	0.517
827.500	488.460	80.005	19.995	103.170	20.162	2.738	0.489
828.000	488.728	80.004	19.996	103.170	20.161	2.833	0.487
828.500	488.993	80.003	19.994	103.171	20.160	2.894	0.516
829.000	489.243	80.003	19.995	103.172	20.161	2.845	0.524
829.500	489.510	80.001	19.995	103.172	20.161	2.805	0.516
830.000	489.791	80.004	19.993	103.176	20.163	2.644	0.532
830.500	490.006	80.003	19.994	103.175	20.161	2.783	0.522
831.000	490.251	80.003	19.994	103.175	20.162	2.724	0.478
831.500	490.545	80.003	19.994	103.175	20.164	2.634	0.500
832.000	490.770	80.003	19.994	103.172	20.166	2.479	0.529
832.500	491.015	80.003	19.994	103.172	20.166	2.439	0.495
833.000	491.299	80.003	19.994	103.171	20.162	2.714	0.499
833.500	491.559	80.004	19.994	103.171	20.165	2.509	0.536
834.000	491.781	80.004	19.994	103.170	20.164	2.588	0.512
834.500	492.035	80.003	19.993	103.170	20.165	2.531	0.479
835.000	492.326	80.003	19.992	103.171	20.165	2.552	0.511
835.500	492.585	80.003	19.994	103.172	20.161	2.797	0.548
836.000	492.827	80.003	19.994	103.172	20.160	2.858	0.526
836.500	493.088	80.004	19.994	103.172	20.161	2.823	0.502
837.000	493.332	80.004	19.995	103.173	20.161	2.839	0.503
837.500	493.594	80.003	19.994	103.173	20.162	2.739	0.506
838.000	493.851	80.003	19.994	103.172	20.165	2.546	0.513
838.500	494.118	80.004	19.995	103.170	20.163	2.652	0.522
839.000	494.408	80.004	19.994	103.167	20.160	2.910	0.540
839.500	494.656	80.004	19.994	103.165	20.160	2.863	0.547
840.000	494.911	80.004	19.994	103.163	20.164	2.622	0.520
840.500	495.180	80.003	19.993	103.163	20.163	2.644	0.514
841.000	495.438	80.003	19.994	103.165	20.162	2.755	0.525
841.500	495.674	80.003	19.993	103.166	20.165	2.493	0.511
842.000	495.963	80.004	19.995	103.168	20.164	2.592	0.510
842.500	496.185	80.004	19.994	103.169	20.164	2.592	0.518
843.000	496.428	80.002	19.993	103.168	20.163	2.694	0.488
843.500	496.713	80.004	19.994	103.167	20.160	2.891	0.497
844.000	496.943	80.003	19.994	103.166	20.164	2.578	0.521
844.500	497.226	80.004	19.994	103.164	20.163	2.660	0.514
845.000	497.516	80.005	19.993	103.160	20.164	2.570	0.543
845.500	497.740	80.003	19.994	103.159	20.165	2.535	0.544
846.000	498.029	80.004	19.995	103.160	20.164	2.624	0.513
846.500	498.284	80.003	19.994	103.157	20.163	2.700	0.528
847.000	498.549	80.004	19.994	103.158	20.163	2.684	0.532
847.500	498.791	80.003	19.994	103.160	20.162	2.741	0.513
848.000	499.026	80.005	19.994	103.160	20.164	2.630	0.492
848.500	499.289	80.004	19.995	103.158	20.164	2.618	0.488
849.000	499.551	80.003	19.994	103.159	20.167	2.393	0.512
849.501	499.783	80.004	19.994	103.160	20.168	2.336	0.509
850.001	500.030	80.003	19.994	103.161	20.163	2.644	0.487
850.500	500.311	80.004	19.994	103.162	20.162	2.731	0.504
851.000	500.546	80.003	19.995	103.164	20.163	2.705	0.522
851.500	500.807	80.004	19.994	103.166	20.161	2.805	0.506
852.000	501.074	80.003	19.994	103.168	20.162	2.747	0.512
852.500	501.300	80.002	19.995	103.167	20.163	2.695	0.510
853.000	501.591	80.001	19.994	103.167	20.161	2.783	0.505
853.500	501.829	80.003	19.995	103.167	20.164	2.594	0.523
854.000	502.098	80.003	19.994	103.167	20.164	2.578	0.518
854.500	502.345	80.003	19.996	103.166	20.164	2.606	0.511
855.000	502.612	80.003	19.994	103.166	20.163	2.691	0.515
855.500	502.848	80.002	19.996	103.163	20.163	2.656	0.509
856.000	503.098	80.003	19.996	103.161	20.163	2.697	0.495
856.500	503.372	80.002	19.995	103.161	20.165	2.536	0.505
857.000	503.591	80.001	19.995	103.162	20.167	2.397	0.508
857.500	503.854	80.003	19.994	103.162	20.166	2.475	0.487
858.000	504.094	80.002	19.993	103.163	20.165	2.513	0.493
858.500	504.381	80.001	19.995	103.164	20.166	2.455	0.515
859.000	504.652	80.002	19.995	103.164	20.168	2.292	0.543
859.500	504.917	80.003	19.995	103.164	20.167	2.378	0.547
860.000	505.193	80.003	19.994	103.164	20.169	2.209	0.538
860.500	505.420	80.003	19.995	103.165	20.167	2.360	0.522
861.000	505.661	80.004	19.995	103.163	20.169	2.252	0.485
861.500	505.911	80.003	19.995	103.161	20.170	2.175	0.480
862.000	506.166	80.003	19.995	103.161	20.167	2.362	0.498
862.500	506.452	80.004	19.994	103.161	20.168	2.288	0.523
863.000	506.700	80.004	19.994	103.161	20.167	2.358	0.537
863.500	506.976	80.001	19.994	103.158	20.166	2.487	0.529
864.000	507.203	80.003	19.994	103.156	20.167	2.369	0.513
864.500	507.458	80.003	19.994	103.155	20.164	2.620	0.493
865.000	507.700	80.002	19.994	103.156	20.166	2.433	0.490
865.500	507.933	80.003	19.994	103.153	20.167	2.399	0.486
866.000	508.218	80.003	19.994	103.156	20.166	2.429	0.497
866.500	508.453	80.003	19.995	103.158	20.168	2.324	0.519
867.000	508.728	80.002	19.995	103.157	20.167	2.349	0.515
867.500	508.984	80.003	19.993	103.155	20.165	2.493	0.520
868.000	509.244	80.004	19.995	103.157	20.165	2.516	0.523
868.500	509.508	80.004	19.994	103.157	20.164	2.628	0.520
869.000	509.761	80.004	19.996	103.160	20.166	2.439	0.521
869.500	510.024	80.004	19.995	103.163	20.164	2.580	0.517
870.000	510.273	80.004	19.995	103.165	20.166	2.425	0.514
870.500	510.528	80.002	19.995	103.164	20.165	2.550	0.508
871.000	510.812	80.004	19.995	103.166	20.169	2.268	0.521
871.500	511.069	80.003	19.993	103.167	20.166	2.445	0.540
872.000	511.319	80.005	19.994	103.166	20.169	2.258	0.524
872.500	511.558	80.004	19.995	103.164	20.167	2.346	0.498
873.000	511.828	80.004	19.995	103.166	20.164	2.608	0.499
873.500	512.112	80.004	19.994	103.164	20.166	2.459	0.531
874.000	512.317	80.004	19.995	103.160	20.164	2.594	0.522
874.500	512.567	80.005	19.994	103.156	20.167	2.367	0.472
875.000	512.880	80.004	19.995	103.157	20.167	2.371	0.509
875.500	513.070	80.003	19.995	103.152	20.168	2.324	0.533
876.000	513.350	80.004	19.995	103.152	20.166	2.453	0.486
876.500	513.611	80.003	19.994	103.154	20.168	2.326	0.505
877.000	513.900	80.003	19.994	103.155	20.170	2.185	0.546
877.500	514.146	80.002	19.994	103.152	20.171	2.065	0.543
878.000	514.386	80.003	19.994	103.153	20.168	2.328	0.511
878.500	514.654	80.003	19.994	103.155	20.171	2.071	0.496
879.000	514.937	80.002	19.994	103.154	20.170	2.135	0.529
879.500	515.181	80.004	19.994	103.154	20.167	2.352	0.539
880.000	515.420	80.002	19.996	103.157	20.169	2.260	0.505
880.500	515.665	80.003	19.995	103.163	20.171	2.109	0.483
881.000	515.947	80.002	19.995	103.160	20.171	2.053	0.505
881.500	516.220	80.003	19.995	103.162	20.169	2.246	0.542
882.000	516.455	80.003	19.994	103.162	20.171	2.097	0.532
882.500	516.698	80.002	19.995	103.161	20.168	2.308	0.493
883.000	516.966	80.002	19.995	103.159	20.169	2.209	0.495
883.500	517.225	80.003	19.996	103.161	20.166	2.431	0.519
884.000	517.490	80.003	19.994	103.162	20.170	2.187	0.525
884.500	517.745	80.004	19.995	103.163	20.170	2.139	0.522
885.000	518.033	80.003	19.995	103.163	20.169	2.262	0.531
885.500	518.281	80.003	19.995	103.158	20.168	2.282	0.539
886.000	518.513	80.002	19.995	103.156	20.167	2.387	0.508
886.500	518.746	80.003	19.994	103.155	20.168	2.308	0.473
887.000	519.030	80.002	19.995	103.153	20.167	2.397	0.491
887.500	519.279	80.004	19.996	103.150	20.168	2.276	0.525
888.000	519.552	80.004	19.994	103.156	20.168	2.314	0.527
888.500	519.801	80.003	19.996	103.159	20.167	2.417	0.522
889.000	520.050	80.004	19.993	103.159	20.168	2.282	0.510
889.500	520.365	80.004	19.994	103.162	20.169	2.268	0.531
890.000	520.581	80.004	19.994	103.162	20.170	2.176	0.548
890.500	520.828	80.005	19.994	103.158	20.168	2.322	0.497
891.000	521.135	80.004	19.993	103.157	20.168	2.343	0.508
891.500	521.390	80.004	19.993	103.157	20.166	2.421	0.557
892.000	521.660	80.005	19.995	103.157	20.165	2.528	0.543
892.500	521.896	80.004	19.994	103.164	20.166	2.443	0.516
893.000	522.162	80.004	19.993	103.169	20.166	2.483	0.504
893.501	522.413	80.003	19.992	103.169	20.166	2.481	0.510
894.000	522.669	80.004	19.994	103.169	20.166	2.465	0.512
894.500	522.933	80.003	19.993	103.169	20.171	2.065	0.513
895.000	523.193	80.004	19.993	103.162	20.165	2.497	0.522
895.500	523.423	80.004	19.994	103.158	20.166	2.443	0.507
896.000	523.690	80.005	19.993	103.156	20.165	2.528	0.493
896.500	523.935	80.002	19.993	103.151	20.167	2.389	0.504
897.000	524.234	80.003	19.993	103.151	20.166	2.447	0.528
897.500	524.454	80.006	19.993	103.154	20.166	2.477	0.532
898.000	524.746	80.005	19.994	103.154	20.167	2.395	0.516
898.500	524.963	80.004	19.993	103.149	20.166	2.439	0.511
899.000	525.273	80.004	19.994	103.150	20.166	2.457	0.518
899.500	525.467	80.004	19.992	103.151	20.167	2.399	0.515
900.000	525.719	80.005	19.993	103.152	20.165	2.542	0.475
900.500	525.956	80.005	19.993	103.150	20.166	2.487	0.467
901.000	526.220	80.004	19.993	103.149	20.168	2.332	0.495
901.500	526.518	80.004	19.993	103.149	20.167	2.403	0.532
902.000	526.770	80.004	19.994	103.146	20.168	2.326	0.556
902.500	527.012	80.005	19.993	103.145	20.167	2.355	0.522
903.000	527.290	80.004	19.993	103.147	20.168	2.286	0.507
903.500	527.546	80.003	19.993	103.152	20.169	2.242	0.527
904.000	527.780	80.004	19.994	103.154	20.167	2.403	0.512
904.500	528.048	80.003	19.993	103.157	20.166	2.441	0.496
905.000	528.306	80.002	19.994	103.159	20.167	2.383	0.514
905.500	528.571	80.002	19.993	103.160	20.166	2.459	0.525
906.000	528.794	80.003	19.994	103.156	20.167	2.405	0.506
906.500	529.071	80.003	19.994	103.156	20.166	2.457	0.494
907.000	529.296	80.003	19.993	103.150	20.166	2.457	0.501
907.500	529.560	80.002	19.994	103.147	20.163	2.663	0.496
908.000	529.839	80.002	19.994	103.145	20.168	2.276	0.515
908.500	530.081	80.003	19.993	103.146	20.168	2.314	0.532
909.000	530.335	80.002	19.995	103.147	20.171	2.115	0.509
909.501	530.599	80.001	19.994	103.151	20.164	2.588	0.507
910.000	530.869	80.004	19.994	103.156	20.166	2.421	0.526
910.500	531.108	80.003	19.995	103.160	20.166	2.487	0.521
911.000	531.355	80.003	19.994	103.161	20.168	2.328	0.498
911.500	531.607	80.002	19.994	103.160	20.166	2.429	0.493
912.000	531.882	80.002	19.995	103.159	20.169	2.260	0.513
912.500	532.152	80.003	19.994	103.158	20.166	2.471	0.536
913.000	532.387	80.001	19.994	103.155	20.167	2.361	0.526
913.500	532.625	80.002	19.995	103.153	20.168	2.286	0.489
914.000	532.876	80.003	19.994	103.153	20.168	2.335	0.481
914.500	533.118	80.001	19.994	103.152	20.169	2.214	0.491
915.000	533.398	80.003	19.995	103.150	20.168	2.318	0.507
915.500	533.680	80.002	19.995	103.146	20.169	2.258	0.542
916.000	533.934	80.001	19.994	103.146	20.168	2.314	0.550
916.500	534.179	80.002	19.995	103.144	20.168	2.320	0.517
917.000	534.471	80.002	19.993	103.145	20.170	2.183	0.517
917.500	534.695	80.002	19.994	103.145	20.170	2.145	0.526
918.000	534.960	80.003	19.993	103.147	20.168	2.292	0.503
918.501	535.210	80.002	19.994	103.148	20.170	2.135	0.502
919.000	535.442	80.002	19.994	103.150	20.168	2.328	0.499
919.500	535.690	80.003	19.994	103.150	20.170	2.180	0.481
920.000	535.966	80.003	19.994	103.151	20.169	2.218	0.502
920.500	536.232	80.002	19.994	103.152	20.169	2.234	0.533
921.000	536.488	80.003	19.994	103.151	20.169	2.270	0.532
921.500	536.754	80.003	19.993	103.150	20.168	2.290	0.522
922.000	536.986	80.003	19.994	103.148	20.165	2.506	0.510
922.500	537.258	80.004	19.994	103.145	20.166	2.433	0.501
923.000	537.530	80.005	19.994	103.144	20.167	2.381	0.524
923.500	537.766	80.003	19.995	103.144	20.165	2.556	0.526
924.000	538.023	80.005	19.994	103.143	20.165	2.528	0.501
924.500	538.313	80.003	19.994	103.143	20.170	2.165	0.520
925.000	538.532	80.004	19.994	103.143	20.165	2.511	0.528
925.500	538.790	80.004	19.993	103.144	20.165	2.518	0.493
926.000	539.037	80.002	19.994	103.148	20.167	2.361	0.491
926.500	539.339	80.005	19.994	103.152	20.167	2.359	0.527
927.000	539.577	80.003	19.994	103.156	20.167	2.413	0.545
927.500	539.796	80.003	19.994	103.155	20.165	2.508	0.499
928.000	540.090	80.003	19.994	103.157	20.168	2.341	0.485
928.500	540.304	80.003	19.993	103.153	20.168	2.324	0.510
929.000	540.588	80.004	19.994	103.150	20.166	2.487	0.503
929.500	540.849	80.004	19.994	103.146	20.163	2.662	0.521
930.000	541.096	80.003	19.992	103.148	20.168	2.338	0.526
930.500	541.370	80.002	19.992	103.147	20.164	2.586	0.515
931.000	541.622	80.003	19.993	103.146	20.167	2.370	0.524
931.500	541.870	80.003	19.994	103.144	20.169	2.224	0.513
932.000	542.124	80.004	19.992	103.147	20.167	2.417	0.501
932.500	542.418	80.002	19.993	103.148	20.169	2.240	0.525
933.000	542.640	80.003	19.993	103.150	20.169	2.244	0.531
933.500	542.903	80.002	19.993	103.156	20.166	2.421	0.500
934.000	543.144	80.003	19.994	103.160	20.169	2.220	0.495
934.500	543.434	80.002	19.994	103.159	20.169	2.214	0.518
935.000	543.679	80.002	19.994	103.158	20.165	2.502	0.533
935.500	543.914	80.003	19.996	103.159	20.167	2.411	0.507
936.000	544.118	80.003	19.994	103.157	20.167	2.353	0.459
936.500	544.369	80.001	19.994	103.152	20.168	2.331	0.447
937.000	544.644	80.001	19.993	103.152	20.170	2.131	0.490
937.500	544.902	80.002	19.995	103.151	20.168	2.274	0.530
938.000	545.137	80.001	19.994	103.147	20.169	2.268	0.513
938.500	545.406	80.001	19.994	103.144	20.169	2.204	0.499
939.000	545.613	80.003	19.995	103.146	20.168	2.343	0.490
939.500	545.899	80.002	19.994	103.149	20.169	2.248	0.485
940.000	546.160	80.001	19.995	103.151	20.170	2.197	0.520
940.500	546.413	80.002	19.994	103.152	20.169	2.216	0.530
941.000	546.701	80.001	19.995	103.156	20.165	2.517	0.528
941.500	546.945	80.002	19.995	103.159	20.169	2.218	0.536
942.000	547.215	80.002	19.996	103.160	20.169	2.246	0.522
942.500	547.477	80.002	19.995	103.160	20.170	2.149	0.523
943.000	547.737	80.003	19.994	103.161	20.164	2.578	0.527
943.500	547.969	80.001	19.994	103.158	20.170	2.165	0.507
944.000	548.206	80.002	19.995	103.158	20.168	2.288	0.480
944.500	548.461	80.003	19.996	103.153	20.168	2.302	0.480
945.000	548.714	80.003	19.994	103.151	20.169	2.260	0.500
945.500	549.027	80.002	19.993	103.150	20.166	2.457	0.537
946.000	549.241	80.003	19.995	103.151	20.169	2.240	0.547
946.500	549.503	80.002	19.994	103.148	20.169	2.224	0.501
947.000	549.754	80.002	19.993	103.151	20.166	2.487	0.494
947.500	550.023	80.003	19.994	103.149	20.167	2.369	0.517
948.000	550.320	80.004	19.996	103.146	20.167	2.387	0.543
948.500	550.555	80.004	19.994	103.144	20.169	2.266	0.548
949.000	550.800	80.004	19.994	103.145	20.167	2.397	0.506
949.500	551.069	80.005	19.994	103.146	20.169	2.200	0.498
950.000	551.353	80.006	19.996	103.152	20.168	2.341	0.534
950.500	551.590	80.003	19.995	103.155	20.170	2.141	0.537
951.000	551.839	80.003	19.994	103.160	20.168	2.274	0.503
951.500	552.075	80.005	19.995	103.161	20.169	2.264	0.486
952.000	552.353	80.004	19.992	103.160	20.169	2.260	0.500
952.500	552.604	80.004	19.994	103.155	20.169	2.204	0.521
953.000	552.876	80.003	19.994	103.152	20.167	2.415	0.526
953.500	553.100	80.006	19.994	103.150	20.172	1.986	0.509
954.000	553.367	80.004	19.994	103.147	20.169	2.258	0.493
954.500	553.642	80.003	19.993	103.147	20.169	2.266	0.517
955.000	553.876	80.003	19.994	103.154	20.171	2.115	0.526
955.500	554.109	80.004	19.994	103.159	20.169	2.246	0.488
956.000	554.378	80.004	19.994	103.163	20.169	2.262	0.485
956.500	554.671	80.003	19.994	103.168	20.169	2.244	0.532
957.000	554.895	80.003	19.995	103.167	20.165	2.512	0.540
957.500	555.179	80.003	19.994	103.162	20.167	2.417	0.512
958.000	555.395	80.003	19.993	103.159	20.168	2.343	0.503
958.500	555.699	80.004	19.995	103.158	20.170	2.190	0.510
959.000	555.937	80.004	19.994	103.157	20.171	2.073	0.531
959.500	556.213	80.005	19.994	103.158	20.169	2.240	0.528
960.000	556.460	80.003	19.994	103.157	20.171	2.053	0.518
960.501	556.697	80.003	19.993	103.155	20.171	2.061	0.504
961.000	556.944	80.003	19.994	103.151	20.170	2.167	0.484
961.500	557.202	80.003	19.995	103.147	20.170	2.131	0.494
962.000	557.461	80.003	19.995	103.144	20.167	2.353	0.511
962.500	557.704	80.004	19.995	103.146	20.170	2.184	0.510
963.000	557.994	80.003	19.995	103.146	20.171	2.089	0.517
963.500	558.245	80.003	19.994	103.149	20.172	2.045	0.537
964.000	558.503	80.005	19.995	103.152	20.172	2.035	0.526
964.500	558.717	80.004	19.995	103.152	20.170	2.186	0.491
965.000	558.974	80.003	19.995	103.150	20.172	2.021	0.471
965.500	559.257	80.004	19.994	103.148	20.172	1.999	0.505
966.000	559.479	80.004	19.994	103.147	20.170	2.160	0.523
966.501	559.742	80.005	19.995	103.142	20.169	2.242	0.495
967.000	560.008	80.003	19.994	103.140	20.168	2.339	0.507
967.500	560.261	80.004	19.995	103.139	20.171	2.105	0.524
968.000	560.495	80.004	19.995	103.138	20.169	2.204	0.502
968.500	560.780	80.005	19.996	103.136	20.169	2.258	0.503
969.000	561.029	80.004	19.995	103.140	20.170	2.171	0.527
969.500	561.270	80.005	19.994	103.145	20.173	1.976	0.512
970.000	561.555	80.004	19.994	103.149	20.170	2.139	0.508
970.500	561.762	80.004	19.997	103.151	20.172	2.009	0.509
971.000	562.015	80.005	19.995	103.153	20.170	2.158	0.476
971.500	562.285	80.004	19.995	103.154	20.170	2.156	0.491
972.000	562.526	80.005	19.996	103.153	20.170	2.196	0.517
972.500	562.815	80.006	19.995	103.152	20.173	1.968	0.521
973.000	563.043	80.005	19.996	103.153	20.169	2.250	0.524
973.500	563.287	80.006	19.996	103.153	20.170	2.188	0.494
974.000	563.544	80.005	19.996	103.149	20.169	2.264	0.486
974.500	563.822	80.006	19.995	103.147	20.169	2.268	0.518
975.000	564.034	80.006	19.995	103.145	20.169	2.268	0.513
975.500	564.351	80.006	19.995	103.141	20.169	2.206	0.510
976.000	564.559	80.005	19.995	103.138	20.170	2.158	0.527
976.500	564.865	80.006	19.994	103.138	20.167	2.411	0.519
977.000	565.088	80.005	19.995	103.141	20.170	2.154	0.521
977.500	565.331	80.007	19.994	103.145	20.167	2.385	0.498
978.000	565.587	80.006	19.994	103.149	20.168	2.282	0.482
978.500	565.854	80.005	19.995	103.152	20.169	2.240	0.511
979.000	566.113	80.006	19.994	103.154	20.169	2.248	0.525
979.500	566.349	80.005	19.994	103.155	20.169	2.248	0.511
980.000	566.574	80.004	19.995	103.151	20.169	2.220	0.478
980.500	566.871	80.007	19.994	103.147	20.168	2.299	0.491
981.000	567.084	80.005	19.993	103.145	20.170	2.127	0.516
981.500	567.362	80.005	19.994	103.140	20.170	2.139	0.501
982.000	567.590	80.005	19.994	103.136	20.169	2.216	0.499
982.500	567.850	80.004	19.994	103.138	20.169	2.244	0.497
983.000	568.132	80.005	19.994	103.140	20.168	2.327	0.515
983.500	568.366	80.005	19.994	103.141	20.169	2.264	0.529
984.000	568.607	80.004	19.994	103.144	20.167	2.369	0.496
984.500	568.919	80.004	19.995	103.146	20.167	2.365	0.514
985.000	569.123	80.003	19.995	103.143	20.167	2.365	0.535
985.500	569.429	80.004	19.995	103.141	20.169	2.244	0.513
986.000	569.659	80.005	19.994	103.140	20.169	2.208	0.523
986.500	569.923	80.003	19.993	103.138	20.167	2.391	0.515
987.000	570.138	80.004	19.994	103.135	20.168	2.282	0.486
987.500	570.431	80.005	19.994	103.139	20.169	2.250	0.493
988.000	570.682	80.003	19.995	103.141	20.170	2.143	0.526
988.500	570.885	80.003	19.993	103.142	20.169	2.206	0.499
989.000	571.185	80.004	19.994	103.142	20.172	2.051	0.478
989.501	571.433	80.003	19.994	103.141	20.167	2.347	0.526
990.000	571.633	80.005	19.994	103.138	20.170	2.178	0.498
990.500	571.927	80.003	19.994	103.135	20.167	2.375	0.471
991.000	572.204	80.004	19.993	103.135	20.172	2.031	0.532
991.500	572.430	80.003	19.994	103.137	20.168	2.317	0.537
992.000	572.726	80.002	19.994	103.144	20.171	2.089	0.512
992.500	572.957	80.002	19.994	103.147	20.173	1.948	0.525
993.000	573.234	80.003	19.994	103.147	20.164	2.576	0.518
993.500	573.465	80.003	19.994	103.146	20.167	2.363	0.508
994.000	573.721	80.003	19.994	103.146	20.171	2.097	0.497
994.500	573.989	80.003	19.994	103.140	20.170	2.184	0.506
995.000	574.289	80.003	19.995	103.138	20.168	2.300	0.547
995.500	574.547	80.003	19.994	103.138	20.172	1.992	0.563
996.000	574.826	80.004	19.994	103.137	20.170	2.196	0.547
996.500	575.067	80.002	19.994	103.135	20.172	2.025	0.528
997.000	575.312	80.003	19.994	103.136	20.170	2.137	0.503
997.500	575.613	80.004	19.995	103.139	20.170	2.129	0.516
998.000	575.804	80.002	19.994	103.144	20.170	2.168	0.519
998.500	576.076	80.002	19.994	103.147	20.172	2.049	0.478
999.000	576.328	80.002	19.995	103.149	20.171	2.091	0.494
999.500	576.622	80.003	19.993	103.149	20.172	2.017	0.535
1000.000	576.859	80.003	19.993	103.145	20.171	2.103	0.538
1000.500	577.090	80.002	19.995	103.144	20.173	1.974	0.500
1001.000	577.370	80.002	19.993	103.141	20.173	1.916	0.490
1001.500	577.582	80.002	19.994	103.140	20.171	2.085	0.501
1002.000	577.881	80.003	19.994	103.142	20.176	1.749	0.501
1002.500	578.157	80.003	19.994	103.143	20.171	2.055	0.543
1003.000	578.399	80.003	19.995	103.142	20.171	2.075	0.547
1003.500	578.647	80.002	19.995	103.142	20.171	2.075	0.504
1004.000	578.870	80.003	19.995	103.142	20.173	1.948	0.480
1004.500	579.189	80.003	19.994	103.139	20.173	1.922	0.506
1005.000	579.424	80.002	19.994	103.139	20.172	2.027	0.548
1005.500	579.673	80.003	19.993	103.139	20.174	1.882	0.519
1006.000	579.898	80.003	19.994	103.142	20.173	1.962	0.479
1006.500	580.190	80.004	19.995	103.144	20.173	1.916	0.495
1007.000	580.406	80.002	19.992	103.144	20.172	2.025	0.512
1007.500	580.655	80.003	19.995	103.144	20.175	1.793	0.487
1008.000	580.922	80.003	19.997	103.144	20.173	1.912	0.491
1008.500	581.199	80.002	19.996	103.145	20.171	2.101	0.530
1009.000	581.460	80.004	19.994	103.143	20.171	2.121	0.541
1009.500	581.685	80.004	19.994	103.143	20.173	1.940	0.512
1010.000	581.907	80.003	19.994	103.143	20.172	2.023	0.467
1010.500	582.238	80.003	19.994	103.140	20.172	2.029	0.500
1011.000	582.474	80.003	19.993	103.139	20.170	2.172	0.560
1011.500	582.625	80.003	19.995	103.142	20.170	2.192	0.477
1012.000	582.992	80.003	19.994	103.142	20.170	2.140	0.453
1012.500	583.209	80.003	19.994	103.142	20.168	2.333	0.552
1013.000	583.436	80.003	19.994	103.142	20.170	2.155	0.514
1013.500	583.735	80.002	19.995	103.143	20.171	2.057	0.485
1014.000	583.989	80.004	19.993	103.139	20.167	2.347	0.539
1014.500	584.217	80.002	19.994	103.138	20.172	2.025	0.517
1015.000	584.512	80.003	19.994	103.139	20.170	2.174	0.503
1015.500	584.705	80.002	19.994	103.138	20.167	2.393	0.506
1016.000	585.002	80.003	19.994	103.135	20.169	2.202	0.489
1016.500	585.168	80.003	19.994	103.136	20.169	2.230	0.476
1017.000	585.471	80.002	19.994	103.137	20.168	2.274	0.466
1017.500	585.663	80.003	19.994	103.138	20.174	1.872	0.482
1018.000	585.983	80.003	19.994	103.138	20.166	2.449	0.503
1018.500	586.231	80.002	19.993	103.140	20.169	2.214	0.540
1019.000	586.403	80.002	19.993	103.141	20.174	1.858	0.494
1019.500	586.680	80.002	19.993	103.143	20.176	1.737	0.434
1020.000	586.958	80.002	19.994	103.144	20.175	1.803	0.502
1020.500	587.238	80.003	19.994	103.144	20.179	1.497	0.557
1021.000	587.451	80.003	19.992	103.143	20.163	2.669	0.525
1021.500	587.758	80.002	19.993	103.141	20.166	2.437	0.507
1022.000	587.860	80.003	19.993	103.140	20.177	1.648	0.465
1022.500	588.170	80.004	19.994	103.139	20.174	1.838	0.410
1023.000	588.418	80.002	19.994	103.138	20.159	2.967	0.485
1023.500	588.751	80.002	19.993	103.141	20.175	1.789	0.569
1024.000	588.885	80.002	19.994	103.145	20.168	2.288	0.524
1024.501	589.186	80.003	19.994	103.149	20.169	2.238	0.451
1025.001	589.444	80.004	19.994	103.149	20.165	2.514	0.497
1025.501	589.558	80.003	19.994	103.151	20.169	2.220	0.465
1026.001	590.065	80.005	19.994	103.149	20.168	2.315	0.497
1026.501	590.051	80.005	19.994	103.148	20.169	2.258	0.557
1027.000	590.512	80.005	19.994	103.143	20.172	1.991	0.470
1027.500	590.497	80.004	19.994	103.142	20.171	2.069	0.447
1028.000	590.887	80.005	19.994	103.141	20.169	2.236	0.411
1028.500	591.306	80.005	19.993	103.140	20.171	2.091	0.592
1029.000	591.341	80.005	19.994	103.140	20.168	2.307	0.632
1029.501	591.616	80.005	19.994	103.142	20.168	2.290	0.382
1030.001	591.689	80.005	19.994	103.143	20.170	2.136	0.328
1030.500	592.419	80.006	19.993	103.142	20.170	2.192	0.575
1031.000	592.231	80.005	19.994	103.141	20.172	2.047	0.673
1031.500	593.068	80.005	19.994	103.140	20.169	2.256	0.596
1032.000	592.613	80.006	19.994	103.138	20.169	2.208	0.516
1032.500	593.598	80.005	19.994	103.139	20.167	2.367	0.456
1033.000	594.064	80.005	19.995	103.139	20.169	2.232	0.991
1033.500	594.450	80.005	19.995	103.138	20.171	2.069	1.152
1034.000	594.734	80.007	19.996	103.138	20.172	2.005	0.761
1034.500	594.850	80.007	19.994	103.142	20.174	1.862	0.535
1035.000	594.564	80.005	19.995	103.143	20.174	1.884	0.114
1035.500	594.271	80.003	19.994	103.146	20.171	2.053	-0.375
1036.000	595.081	80.003	19.995	103.147	20.171	2.117	-0.031
1036.500	595.923	80.004	19.995	103.147	20.171	2.125	1.085
1037.000	595.248	80.005	19.994	103.143	20.170	2.131	0.910
1037.500	596.059	80.005	19.995	103.140	20.170	2.190	0.152
1038.000	595.969	80.004	19.995	103.138	20.170	2.192	0.429
1038.500	596.669	80.004	19.995	103.139	20.171	2.059	0.665
1039.000	596.488	80.004	19.994	103.139	20.170	2.166	0.564
1039.500	596.899	80.003	19.994	103.138	20.168	2.272	0.374
1040.000	597.214	80.005	19.994	103.140	20.172	2.045	0.478
1040.500	597.342	80.003	19.994	103.138	20.170	2.184	0.585
1041.000	597.742	80.004	19.995	103.135	20.167	2.409	0.485
1041.500	597.896	80.003	19.994	103.135	20.169	2.248	0.541
1042.000	598.077	80.003	19.995	103.135	20.167	2.369	0.445
1042.500	598.505	80.003	19.994	103.134	20.167	2.395	0.472
1043.000	598.625	80.004	19.994	103.138	20.170	2.162	0.579
1043.500	598.977	80.004	19.994	103.141	20.170	2.156	0.510
1044.000	599.176	80.003	19.994	103.142	20.166	2.464	0.511
1044.500	599.498	80.004	19.995	103.143	20.167	2.365	0.536
1045.000	599.731	80.004	19.994	103.143	20.171	2.107	0.538
1045.500	599.975	80.003	19.994	103.138	20.169	2.236	0.516
1046.000	600.328	80.004	19.996	103.136	20.172	1.987	0.537
1046.500	600.545	80.006	19.994	103.135	20.172	2.019	0.584
1047.000	600.720	80.005	19.994	103.135	20.169	2.202	0.481
1047.500	601.093	80.004	19.993	103.137	20.167	2.393	0.470
1048.000	601.356	80.004	19.995	103.143	20.170	2.140	0.592
1048.500	601.612	80.004	19.993	103.144	20.169	2.222	0.578
1049.000	601.953	80.003	19.994	103.145	20.168	2.291	0.558
1049.500	602.091	80.005	19.995	103.143	20.172	2.013	0.538
1050.000	602.413	80.005	19.993	103.141	20.169	2.208	0.470
1050.500	602.647	80.005	19.994	103.137	20.169	2.224	0.508
1051.000	602.907	80.006	19.994	103.138	20.170	2.128	0.525
1051.500	603.126	80.005	19.994	103.137	20.172	1.995	0.487
1052.000	603.425	80.006	19.994	103.137	20.172	2.015	0.499
1052.500	603.700	80.006	19.993	103.138	20.170	2.156	0.546
1053.000	603.898	80.005	19.994	103.137	20.171	2.081	0.523
1053.500	604.225	80.005	19.994	103.134	20.169	2.240	0.499
1054.000	604.444	80.006	19.994	103.133	20.169	2.256	0.536
1054.500	604.729	80.006	19.995	103.133	20.172	2.035	0.525
1055.000	604.986	80.005	19.993	103.131	20.171	2.115	0.523
1055.500	605.228	80.005	19.994	103.131	20.170	2.192	0.520
1056.000	605.472	80.006	19.994	103.131	20.170	2.178	0.493
1056.500	605.691	80.005	19.993	103.131	20.170	2.164	0.475
1057.000	606.028	80.006	19.994	103.130	20.172	1.985	0.509
1057.500	606.255	80.006	19.995	103.131	20.170	2.133	0.559
1058.000	606.488	80.006	19.994	103.130	20.171	2.113	0.512
1058.500	606.753	80.004	19.995	103.131	20.171	2.059	0.479
1059.000	607.037	80.005	19.995	103.132	20.171	2.075	0.523
1059.500	607.294	80.005	19.995	103.135	20.169	2.204	0.545
1060.000	607.584	80.004	19.995	103.135	20.169	2.256	0.544
1060.500	607.805	80.006	19.994	103.137	20.171	2.109	0.529
1061.001	608.035	80.004	19.995	103.136	20.173	1.912	0.481
1061.501	608.302	80.003	19.994	103.136	20.170	2.178	0.474
1062.001	608.581	80.004	19.995	103.134	20.170	2.154	0.521
1062.500	608.839	80.003	19.995	103.136	20.171	2.109	0.542
1063.000	609.110	80.003	19.995	103.135	20.171	2.093	0.533
1063.500	609.391	80.003	19.995	103.135	20.170	2.182	0.540
1064.000	609.601	80.002	19.996	103.135	20.169	2.236	0.522
1064.500	609.903	80.003	19.996	103.135	20.173	1.962	0.501
1065.000	610.082	80.002	19.995	103.134	20.172	2.023	0.496
1065.500	610.391	80.003	19.995	103.135	20.171	2.087	0.485
1066.000	610.631	80.002	19.996	103.136	20.171	2.093	0.519
1066.500	610.892	80.003	19.995	103.137	20.172	1.997	0.525
1067.000	611.153	80.001	19.994	103.137	20.172	1.995	0.511
1067.500	611.404	80.002	19.997	103.139	20.172	2.011	0.517
1068.000	611.663	80.002	19.995	103.140	20.172	2.045	0.511
1068.500	611.893	80.002	19.997	103.140	20.171	2.109	0.500
1069.000	612.184	80.002	19.994	103.139	20.172	1.999	0.505
1069.500	612.402	80.003	19.994	103.141	20.171	2.111	0.515
1070.000	612.728	80.002	19.995	103.139	20.172	1.997	0.526
1070.500	612.954	80.003	19.994	103.138	20.170	2.128	0.548
1071.000	613.200	80.002	19.994	103.137	20.170	2.150	0.512
1071.500	613.459	80.003	19.994	103.137	20.170	2.170	0.489
1072.000	613.709	80.004	19.994	103.136	20.173	1.910	0.507
1072.500	613.982	80.002	19.994	103.136	20.174	1.898	0.516
1073.000	614.214	80.002	19.993	103.135	20.173	1.926	0.514
1073.501	614.526	80.004	19.993	103.135	20.173	1.936	0.525
1074.001	614.724	80.003	19.994	103.136	20.174	1.876	0.527
1074.500	615.028	80.002	19.995	103.135	20.171	2.079	0.506
1075.000	615.265	80.003	19.993	103.135	20.173	1.940	0.522
1075.500	615.546	80.002	19.993	103.135	20.170	2.168	0.529
1076.000	615.799	80.004	19.994	103.135	20.172	2.051	0.526
1076.501	616.027	80.003	19.995	103.135	20.169	2.218	0.508
1077.001	616.238	80.003	19.994	103.135	20.169	2.212	0.460
1077.500	616.502	80.004	19.995	103.136	20.172	1.997	0.457
1078.000	616.770	80.001	19.994	103.135	20.172	2.031	0.504
1078.500	617.042	80.003	19.994	103.136	20.170	2.190	0.536
1079.000	617.272	80.004	19.993	103.136	20.171	2.111	0.521
1079.501	617.541	80.002	19.994	103.136	20.169	2.256	0.501
1080.001	617.799	80.003	19.994	103.135	20.169	2.206	0.513
1080.500	618.067	80.003	19.994	103.135	20.171	2.119	0.526
1081.000	618.320	80.004	19.994	103.136	20.171	2.069	0.524
1081.500	618.572	80.003	19.993	103.135	20.173	1.956	0.513
1082.000	618.869	80.003	19.992	103.135	20.170	2.184	0.527
1082.500	619.085	80.003	19.995	103.138	20.169	2.224	0.531
1083.000	619.331	80.006	19.995	103.140	20.169	2.212	0.487
1083.501	619.610	80.002	19.994	103.144	20.167	2.345	0.494
1084.001	619.877	80.002	19.993	103.146	20.167	2.405	0.536
1084.500	620.117	80.003	19.994	103.147	20.166	2.427	0.527
1085.000	620.356	80.004	19.993	103.145	20.167	2.347	0.493
1085.500	620.628	80.003	19.993	103.144	20.167	2.377	0.494
1086.000	620.926	80.003	19.993	103.140	20.167	2.353	0.541
1086.500	621.192	80.003	19.993	103.140	20.169	2.254	0.568
1087.000	621.454	80.004	19.994	103.140	20.170	2.158	0.546
1087.500	621.708	80.003	19.994	103.141	20.170	2.131	0.522
1088.001	621.947	80.003	19.994	103.139	20.172	1.982	0.505
1088.501	622.213	80.003	19.995	103.139	20.170	2.176	0.499
1089.000	622.479	80.003	19.993	103.137	20.170	2.150	0.518
1089.500	622.737	80.003	19.993	103.137	20.169	2.240	0.528
1090.000	622.981	80.004	19.995	103.136	20.167	2.393	0.513
1090.500	623.258	80.005	19.994	103.137	20.173	1.950	0.512
1091.001	623.543	80.003	19.995	103.137	20.168	2.281	0.541
1091.501	623.781	80.005	19.995	103.137	20.170	2.192	0.542
1092.001	624.028	80.003	19.994	103.139	20.169	2.256	0.504
1092.500	624.301	80.004	19.995	103.144	20.169	2.258	0.502
1093.000	624.566	80.003	19.995	103.146	20.167	2.365	0.529
1093.500	624.811	80.005	19.995	103.148	20.167	2.355	0.524
1094.000	625.083	80.003	19.994	103.148	20.171	2.109	0.514
1094.500	625.325	80.004	19.994	103.145	20.170	2.133	0.516
1095.001	625.565	80.003	19.995	103.140	20.169	2.242	0.498
1095.501	625.850	80.004	19.996	103.136	20.169	2.234	0.503
1096.001	626.101	80.004	19.994	103.133	20.168	2.329	0.530
1096.501	626.411	80.002	19.994	103.133	20.171	2.111	0.548
1097.001	626.641	80.003	19.995	103.134	20.171	2.124	0.550
1097.500	626.916	80.003	19.995	103.138	20.171	2.105	0.523
1098.000	627.160	80.003	19.994	103.139	20.170	2.154	0.513
1098.500	627.412	80.003	19.994	103.140	20.171	2.095	0.507
1099.000	627.678	80.002	19.994	103.140	20.171	2.095	0.507
1099.500	627.940	80.002	19.995	103.139	20.170	2.128	0.523
1100.000	628.267	80.003	19.994	103.136	20.171	2.119	0.558
1100.500	628.492	80.002	19.994	103.135	20.172	2.047	0.570
1101.000	628.742	80.002	19.995	103.134	20.171	2.055	0.514
1101.500	629.025	80.003	19.995	103.133	20.172	2.023	0.504
1102.000	629.306	80.005	19.994	103.134	20.172	2.009	0.549
1102.500	629.531	80.003	19.994	103.134	20.173	1.946	0.535
1103.000	629.779	80.003	19.994	103.136	20.172	2.025	0.489
1103.500	630.046	80.004	19.994	103.135	20.169	2.232	0.494
1104.000	630.317	80.005	19.994	103.135	20.171	2.097	0.526
1104.500	630.607	80.003	19.994	103.137	20.168	2.335	0.550
1105.000	630.869	80.004	19.993	103.139	20.169	2.210	0.557
1105.500	631.133	80.005	19.993	103.139	20.168	2.311	0.539
1106.000	631.391	80.004	19.994	103.139	20.168	2.283	0.524
1106.501	631.647	80.005	19.994	103.140	20.170	2.158	0.517
1107.001	631.929	80.007	19.994	103.138	20.169	2.206	0.525
1107.500	632.203	80.006	19.995	103.135	20.173	1.973	0.547
1108.000	632.406	80.006	19.994	103.133	20.171	2.120	0.517
1108.500	632.698	80.006	19.994	103.134	20.169	2.248	0.486
1109.001	633.002	80.006	19.994	103.135	20.168	2.307	0.545
1109.501	633.202	80.006	19.994	103.135	20.172	2.021	0.550
1110.000	633.477	80.007	19.994	103.136	20.172	2.039	0.490
1110.500	633.757	80.006	19.994	103.136	20.169	2.200	0.516
1111.000	634.049	80.005	19.993	103.135	20.172	2.007	0.564
1111.500	634.298	80.006	19.993	103.133	20.173	1.934	0.556
1112.000	634.603	80.006	19.994	103.133	20.171	2.122	0.547
1112.501	634.853	80.006	19.993	103.133	20.169	2.226	0.555
1113.001	635.113	80.007	19.994	103.133	20.171	2.091	0.532
1113.500	635.375	80.006	19.993	103.134	20.169	2.214	0.516
1114.000	635.631	80.005	19.995	103.133	20.173	1.961	0.520
1114.500	635.912	80.006	19.994	103.133	20.171	2.065	0.528
1115.000	636.183	80.005	19.993	103.133	20.169	2.204	0.545
1115.500	636.424	80.006	19.993	103.133	20.169	2.230	0.532
1116.000	636.684	80.005	19.994	103.133	20.168	2.343	0.506
1116.500	636.956	80.005	19.995	103.134	20.167	2.407	0.517
1117.000	637.205	80.004	19.993	103.134	20.169	2.266	0.527
1117.500	637.443	80.004	19.994	103.134	20.168	2.274	0.504
1118.000	637.737	80.006	19.995	103.133	20.169	2.210	0.509
1118.500	638.010	80.003	19.994	103.133	20.170	2.186	0.550
1119.000	638.229	80.004	19.994	103.133	20.168	2.287	0.530
1119.501	638.472	80.006	19.993	103.134	20.164	2.623	0.477
1120.001	638.706	80.004	19.994	103.133	20.169	2.214	0.469
1120.500	638.982	80.004	19.994	103.133	20.168	2.333	0.494
1121.001	639.272	80.004	19.994	103.132	20.170	2.156	0.539
1121.501	639.520	80.004	19.995	103.132	20.170	2.150	0.552
1122.001	639.761	80.003	19.995	103.133	20.170	2.192	0.513
1122.500	640.032	80.004	19.994	103.133	20.170	2.160	0.500
1123.000	640.275	80.003	19.994	103.133	20.169	2.254	0.513
1123.501	640.541	80.004	19.994	103.134	20.171	2.111	0.512
1124.001	640.807	80.003	19.994	103.134	20.170	2.138	0.521
1124.500	641.052	80.003	19.994	103.132	20.171	2.107	0.521
1125.000	641.323	80.004	19.995	103.133	20.172	1.989	0.513
1125.500	641.610	80.003	19.995	103.133	20.171	2.085	0.538
1126.000	641.874	80.005	19.995	103.133	20.172	2.045	0.554
1126.500	642.122	80.003	19.994	103.133	20.170	2.152	0.531
1127.000	642.351	80.003	19.994	103.133	20.169	2.218	0.495
1127.500	642.619	80.004	19.995	103.134	20.170	2.166	0.487
1128.000	642.883	80.004	19.995	103.136	20.169	2.242	0.514
1128.500	643.140	80.004	19.995	103.136	20.169	2.232	0.527
1129.000	643.409	80.004	19.995	103.137	20.171	2.101	0.524
1129.500	643.606	80.004	19.994	103.137	20.170	2.144	0.496
1130.000	643.885	80.004	19.995	103.137	20.169	2.220	0.471
1130.500	644.129	80.005	19.994	103.135	20.169	2.208	0.500
1131.000	644.372	80.005	19.995	103.135	20.170	2.134	0.505
1131.501	644.650	80.006	19.994	103.136	20.168	2.319	0.504
1132.001	644.892	80.007	19.994	103.136	20.169	2.198	0.521
1132.500	645.160	80.005	19.995	103.136	20.171	2.107	0.515
1133.000	645.407	80.005	19.995	103.135	20.167	2.365	0.512
1133.500	645.641	80.005	19.994	103.135	20.168	2.327	0.498
1134.000	645.894	80.005	19.994	103.134	20.169	2.236	0.485
1134.500	646.178	80.005	19.994	103.134	20.168	2.287	0.512
1135.000	646.476	80.005	19.994	103.134	20.166	2.438	0.559
1135.500	646.718	80.005	19.994	103.134	20.166	2.440	0.561
1136.000	646.973	80.006	19.994	103.134	20.167	2.361	0.518
1136.501	647.246	80.005	19.994	103.133	20.166	2.435	0.512
1137.001	647.480	80.005	19.993	103.134	20.169	2.220	0.517
1137.500	647.777	80.007	19.994	103.133	20.169	2.200	0.519
1138.000	647.981	80.005	19.994	103.133	20.170	2.138	0.516
1138.500	648.273	80.006	19.994	103.134	20.172	2.007	0.499
1139.000	648.525	80.006	19.995	103.134	20.174	1.880	0.520
1139.500	648.808	80.006	19.993	103.134	20.169	2.270	0.539
1140.000	649.057	80.007	19.995	103.134	20.172	2.041	0.533
1140.500	649.284	80.005	19.994	103.133	20.169	2.236	0.504
1141.000	649.555	80.005	19.993	103.133	20.168	2.323	0.487
1141.500	649.829	80.004	19.993	103.133	20.171	2.105	0.521
1142.000	650.075	80.004	19.994	103.133	20.166	2.450	0.533
1142.500	650.321	80.004	19.994	103.134	20.169	2.200	0.506
1143.000	650.568	80.004	19.993	103.134	20.167	2.347	0.493
1143.500	650.833	80.003	19.994	103.134	20.168	2.331	0.503
1144.000	651.067	80.002	19.995	103.135	20.168	2.313	0.505
1144.500	651.342	80.004	19.994	103.135	20.168	2.339	0.504
1145.000	651.579	80.003	19.995	103.134	20.171	2.067	0.510
1145.500	651.823	80.002	19.994	103.135	20.169	2.218	0.496
1146.000	652.095	80.002	19.995	103.135	20.171	2.112	0.499
1146.500	652.327	80.002	19.994	103.135	20.171	2.067	0.510
1147.000	652.584	80.003	19.995	103.135	20.171	2.101	0.496
1147.500	652.838	80.002	19.995	103.135	20.167	2.377	0.500
1148.000	653.113	80.001	19.994	103.135	20.168	2.335	0.520
1148.500	653.376	80.002	19.995	103.135	20.167	2.389	0.534
1149.000	653.598	80.004	19.995	103.136	20.166	2.482	0.511
1149.500	653.839	80.003	19.995	103.136	20.167	2.371	0.474
1150.000	654.113	80.002	19.994	103.136	20.163	2.645	0.489
1150.500	654.365	80.003	19.995	103.136	20.165	2.544	0.521
1151.000	654.643	80.004	19.995	103.135	20.167	2.409	0.528
1151.500	654.903	80.002	19.994	103.135	20.162	2.725	0.534
1152.000	655.116	80.003	19.995	103.135	20.162	2.729	0.505
1152.500	655.386	80.004	19.994	103.135	20.167	2.397	0.478
1153.000	655.655	80.002	19.995	103.134	20.168	2.299	0.511
1153.500	655.895	80.002	19.995	103.134	20.161	2.806	0.524
1154.000	656.115	80.002	19.996	103.134	20.159	2.951	0.484
1154.500	656.372	80.003	19.995	103.133	20.161	2.786	0.468
1155.001	656.624	80.002	19.995	103.133	20.165	2.562	0.493
1155.501	656.863	80.003	19.996	103.133	20.164	2.635	0.500
1156.001	657.101	80.003	19.995	103.133	20.163	2.645	0.484
1156.500	657.366	80.003	19.996	103.132	20.164	2.591	0.490
1157.000	657.608	80.002	19.996	103.131	20.168	2.341	0.505
1157.501	657.821	80.002	19.995	103.130	20.165	2.528	0.481
1158.001	658.099	80.003	19.995	103.130	20.162	2.750	0.474
1158.500	658.337	80.002	19.995	103.129	20.164	2.599	0.504
1159.000	658.594	80.002	19.994	103.130	20.168	2.321	0.505
1159.500	658.846	80.002	19.995	103.131	20.161	2.796	0.502
1160.000	659.104	80.003	19.995	103.130	20.164	2.611	0.510
1160.500	659.307	80.003	19.994	103.130	20.164	2.595	0.485
1161.001	659.615	80.003	19.995	103.130	20.163	2.655	0.486
1161.501	659.794	80.002	19.995	103.130	20.162	2.774	0.499
1162.001	660.031	80.003	19.994	103.130	20.163	2.697	0.451
1162.500	660.289	80.003	19.994	103.130	20.164	2.599	0.456
1163.000	660.507	80.004	19.995	103.130	20.163	2.659	0.486
1163.500	660.815	80.003	19.994	103.130	20.166	2.468	0.501
1164.000	660.968	80.005	19.994	103.130	20.165	2.494	0.493
1164.500	661.240	80.003	19.994	103.130	20.166	2.466	0.443
1165.000	661.459	80.003	19.993	103.131	20.164	2.615	0.458
1165.500	661.702	80.004	19.994	103.131	20.164	2.593	0.477
1166.000	661.932	80.002	19.994	103.131	20.164	2.629	0.467
1166.500	662.301	80.003	19.994	103.130	20.162	2.748	0.536
1167.000	663.093	80.003	19.994	103.130	20.164	2.566	0.880
1167.500	662.814	80.003	19.994	103.129	20.164	2.589	0.838
1168.000	662.781	80.003	19.993	103.129	20.161	2.834	0.101
1168.500	663.077	80.002	19.994	103.129	20.163	2.705	-0.025
1169.000	663.411	80.003	19.993	103.130	20.160	2.868	0.446
1169.500	663.617	80.004	19.994	103.130	20.161	2.790	0.585
1170.000	663.899	80.003	19.993	103.132	20.162	2.760	0.514
1170.500	664.196	80.004	19.995	103.132	20.161	2.782	0.533
1171.001	664.385	80.004	19.994	103.131	20.164	2.576	0.532
1171.501	664.645	80.004	19.993	103.130	20.164	2.582	0.467
1172.001	664.895	80.004	19.994	103.130	20.162	2.717	0.480
1172.501	665.119	80.002	19.994	103.128	20.163	2.685	0.492
1173.001	665.446	80.004	19.994	103.128	20.164	2.629	0.513
1173.500	665.579	80.004	19.994	103.128	20.162	2.758	0.505
1174.000	665.853	80.003	19.994	103.127	20.165	2.530	0.433
1174.500	666.080	80.004	19.993	103.125	20.162	2.752	0.454
1175.000	666.341	80.004	19.994	103.125	20.159	2.951	0.495
1175.500	666.613	80.003	19.993	103.124	20.164	2.577	0.510
1176.000	666.809	80.004	19.994	103.125	20.163	2.657	0.501
1176.500	667.081	80.003	19.995	103.126	20.161	2.786	0.468
1177.000	667.344	80.004	19.994	103.129	20.164	2.617	0.502
1177.500	667.570	80.004	19.994	103.131	20.165	2.538	0.511
1178.000	667.845	80.003	19.993	103.132	20.163	2.671	0.495
1178.500	668.046	80.004	19.995	103.132	20.163	2.681	0.489
1179.000	668.323	80.004	19.994	103.131	20.162	2.719	0.477
1179.500	668.534	80.003	19.994	103.131	20.164	2.621	0.483
1180.000	668.768	80.002	19.994	103.131	20.162	2.780	0.466
1180.501	669.059	80.003	19.995	103.131	20.164	2.621	0.485
1181.001	669.325	80.004	19.995	103.132	20.164	2.627	0.541
1181.500	669.537	80.003	19.994	103.132	20.162	2.760	0.517
1182.000	669.802	80.005	19.994	103.132	20.162	2.709	0.478
1182.500	670.049	80.004	19.994	103.132	20.162	2.717	0.495
1183.000	670.320	80.004	19.995	103.132	20.163	2.645	0.515
1183.501	670.583	80.005	19.995	103.132	20.164	2.617	0.526
1184.001	670.822	80.004	19.994	103.132	20.162	2.735	0.518
1184.501	671.082	80.005	19.993	103.132	20.162	2.713	0.500
1185.001	671.339	80.002	19.994	103.132	20.160	2.864	0.508
1185.500	671.591	80.004	19.994	103.130	20.164	2.603	0.513
1186.000	671.842	80.005	19.994	103.130	20.161	2.838	0.506
1186.500	672.103	80.004	19.994	103.130	20.162	2.721	0.507
1187.000	672.371	80.004	19.993	103.131	20.159	2.929	0.521
1187.500	672.626	80.005	19.995	103.132	20.165	2.556	0.526
1188.000	672.884	80.005	19.995	103.133	20.164	2.619	0.518
1188.500	673.143	80.005	19.994	103.133	20.161	2.810	0.515
1189.000	673.406	80.005	19.994	103.133	20.161	2.784	0.520
1189.500	673.671	80.005	19.994	103.132	20.165	2.510	0.525
1190.000	673.954	80.005	19.994	103.132	20.166	2.464	0.538
1190.500	674.199	80.004	19.994	103.133	20.173	1.920	0.538
1191.000	674.505	80.004	19.994	103.133	20.160	2.880	0.540
1191.501	674.746	80.006	19.994	103.133	20.168	2.343	0.549
1192.001	674.968	80.005	19.995	103.133	20.165	2.532	0.505
1192.501	675.251	80.006	19.994	103.133	20.159	2.932	0.484
1193.001	675.556	80.005	19.993	103.133	20.163	2.662	0.546
1193.501	675.784	80.006	19.994	103.134	20.162	2.741	0.560
1194.000	676.121	80.006	19.994	103.134	20.164	2.578	0.549
1194.501	676.333	80.004	19.993	103.134	20.164	2.623	0.557
1195.001	676.595	80.005	19.994	103.134	20.163	2.653	0.511
1195.500	676.810	80.005	19.993	103.134	20.160	2.856	0.475
1196.000	677.123	80.005	19.993	103.134	20.162	2.772	0.502
1196.500	677.366	80.005	19.994	103.134	20.158	3.031	0.542
1197.000	677.621	80.004	19.993	103.134	20.163	2.691	0.527
1197.500	677.894	80.005	19.994	103.134	20.160	2.870	0.513
1198.000	678.137	80.005	19.994	103.135	20.161	2.830	0.522
1198.500	678.415	80.005	19.994	103.136	20.160	2.912	0.519
1199.000	678.642	80.006	19.993	103.136	20.163	2.703	0.513
1199.500	678.936	80.005	19.993	103.134	20.161	2.786	0.513
1200.001	679.165	80.004	19.994	103.131	20.159	2.967	0.522
1200.501	679.469	80.005	19.993	103.128	20.159	2.943	0.528
1201.001	679.686	80.005	19.994	103.126	20.162	2.727	0.527
1201.501	680.008	80.003	19.991	103.127	20.160	2.858	0.530
1202.001	680.206	80.022	19.997	103.130	20.160	2.882	0.530
1202.501	680.571	80.023	19.998	103.140	20.161	2.782	0.541
1203.001	680.725	80.024	20.000	103.150	20.161	2.834	0.541
1203.501	681.146	80.023	19.998	103.154	20.161	2.844	0.547
1204.000	681.086	80.019	19.995	103.153	20.160	2.908	0.468
1204.500	681.989	80.011	19.996	103.153	20.159	2.947	0.602
1205.000	681.866	80.006	19.994	103.146	20.161	2.806	0.812
1205.500	682.242	80.004	19.994	103.138	20.162	2.721	0.517
1206.000	682.628	80.006	19.995	103.136	20.161	2.806	0.507
1206.501	682.509	80.004	19.993	103.136	20.159	2.935	0.515
1207.001	682.851	80.005	19.995	103.136	20.162	2.768	0.245
1207.501	683.148	80.005	19.994	103.136	20.162	2.780	0.431
1208.001	683.419	80.004	19.994	103.135	20.163	2.693	0.604
1208.500	683.641	80.005	19.994	103.136	20.163	2.673	0.530
1209.000	683.966	80.005	19.993	103.136	20.161	2.796	0.520
1209.500	684.190	80.007	19.993	103.135	20.162	2.709	0.548
1210.000	684.478	80.006	19.995	103.136	20.163	2.657	0.531
1210.501	684.663	80.005	19.994	103.139	20.164	2.629	0.493
1211.001	684.999	80.005	19.993	103.139	20.160	2.900	0.497
1211.501	685.203	80.004	19.993	103.139	20.167	2.369	0.530
1212.000	685.520	80.006	19.994	103.138	20.165	2.536	0.531
1212.500	685.789	80.005	19.994	103.138	20.161	2.784	0.553
1213.000	686.048	80.006	19.994	103.135	20.167	2.345	0.557
1213.500	686.336	80.006	19.994	103.135	20.165	2.534	0.538
1214.001	686.596	80.004	19.995	103.135	20.166	2.464	0.548
1214.501	686.854	80.005	19.994	103.135	20.161	2.826	0.533
1215.000	687.142	80.006	19.994	103.135	20.163	2.683	0.532
1215.500	687.422	80.005	19.994	103.133	20.166	2.450	0.557
1216.000	687.719	80.005	19.995	103.132	20.163	2.673	0.572
1216.500	687.967	80.007	19.994	103.132	20.164	2.587	0.561
1217.000	688.252	80.005	19.994	103.132	20.163	2.687	0.539
1217.500	688.528	80.007	19.994	103.132	20.162	2.772	0.547
1218.000	688.797	80.005	19.995	103.133	20.162	2.711	0.553
1218.500	689.043	80.006	19.995	103.134	20.164	2.607	0.530
1219.000	689.340	80.006	19.994	103.134	20.162	2.764	0.529
1219.500	689.611	80.005	19.995	103.135	20.165	2.546	0.555
1220.000	689.869	80.005	19.995	103.135	20.164	2.566	0.548
1220.500	690.199	80.006	19.995	103.136	20.165	2.544	0.558
1221.000	690.448	80.005	19.994	103.136	20.162	2.762	0.584
1221.500	690.706	80.005	19.995	103.135	20.163	2.643	0.543
1222.000	690.987	80.005	19.995	103.133	20.163	2.647	0.523
1222.500	691.254	80.005	19.996	103.132	20.162	2.768	0.543
1223.000	691.568	80.004	19.996	103.131	20.163	2.707	0.565
1223.500	691.825	80.004	19.995	103.130	20.164	2.635	0.577
1224.000	692.085	80.003	19.994	103.130	20.163	2.703	0.544
1224.500	692.430	80.003	19.995	103.131	20.166	2.470	0.561
1225.000	692.606	80.005	19.995	103.131	20.164	2.613	0.563
1225.500	693.095	80.005	19.994	103.131	20.162	2.740	0.593
1226.000	693.287	80.001	19.995	103.130	20.163	2.679	0.673
1226.500	693.374	80.004	19.994	103.131	20.163	2.683	0.480
1227.000	693.945	80.004	19.994	103.130	20.163	2.679	0.468
1227.500	694.151	80.004	19.994	103.130	20.163	2.671	0.717
1228.000	694.349	80.002	19.993	103.130	20.164	2.631	0.591
1228.500	694.553	80.003	19.994	103.130	20.162	2.725	0.403
1229.000	694.872	80.003	19.994	103.131	20.162	2.780	0.462
1229.500	695.159	80.004	19.995	103.131	20.162	2.717	0.564
1230.000	695.427	80.003	19.993	103.132	20.163	2.689	0.581
1230.500	695.732	80.004	19.994	103.131	20.162	2.738	0.564
1231.000	695.982	80.004	19.993	103.131	20.164	2.631	0.564
1231.500	696.255	80.004	19.995	103.129	20.167	2.393	0.539
1232.000	696.516	80.003	19.994	103.129	20.164	2.635	0.528
1232.500	696.823	80.003	19.994	103.129	20.164	2.581	0.551
1233.000	697.074	80.004	19.995	103.130	20.169	2.250	0.563
1233.500	697.357	80.004	19.994	103.130	20.167	2.351	0.547
1234.000	697.600	80.003	19.995	103.132	20.167	2.387	0.530
1234.500	697.905	80.003	19.995	103.132	20.165	2.532	0.537
1235.000	698.184	80.004	19.994	103.132	20.167	2.407	0.566
1235.500	698.428	80.003	19.994	103.131	20.166	2.444	0.554
1236.000	698.719	80.003	19.994	103.131	20.163	2.689	0.529
1236.500	698.981	80.004	19.993	103.131	20.166	2.444	0.544
1237.001	699.260	80.004	19.994	103.131	20.164	2.615	0.547
1237.501	699.514	80.002	19.995	103.131	20.165	2.526	0.537
1238.000	699.799	80.004	19.994	103.131	20.161	2.854	0.535
1238.500	700.104	80.004	19.994	103.131	20.165	2.532	0.565
1239.000	700.345	80.004	19.994	103.131	20.163	2.641	0.569
1239.500	700.627	80.005	19.995	103.131	20.164	2.575	0.535
1240.000	700.876	80.002	19.994	103.130	20.164	2.615	0.527
1240.500	701.147	80.003	19.996	103.128	20.162	2.768	0.525
1241.000	701.400	80.002	19.995	103.128	20.162	2.746	0.522
1241.500	701.687	80.003	19.995	103.128	20.162	2.776	0.532
1242.000	701.972	80.003	19.995	103.128	20.162	2.780	0.556
1242.501	702.243	80.004	19.995	103.129	20.160	2.862	0.564
1243.001	702.476	80.002	19.994	103.129	20.161	2.846	0.530
1243.501	702.796	80.002	19.994	103.128	20.163	2.707	0.529
1244.000	703.052	80.003	19.995	103.128	20.163	2.689	0.565
1244.500	703.315	80.003	19.995	103.128	20.160	2.872	0.547
1245.000	703.544	80.003	19.995	103.127	20.159	2.955	0.505
1245.500	703.862	80.002	19.996	103.128	20.164	2.576	0.520
1246.000	704.128	80.003	19.995	103.128	20.162	2.766	0.565
1246.500	704.412	80.003	19.994	103.128	20.160	2.891	0.567
1247.000	704.673	80.001	19.994	103.127	20.161	2.814	0.548
1247.500	704.935	80.003	19.996	103.129	20.162	2.776	0.534
1248.000	705.224	80.002	19.994	103.129	20.162	2.770	0.537
1248.500	705.463	80.003	19.996	103.129	20.158	3.009	0.539
1249.000	705.765	80.002	19.996	103.129	20.161	2.800	0.534
1249.500	706.027	80.003	19.995	103.129	20.162	2.744	0.552
1250.000	706.299	80.003	19.995	103.129	20.162	2.768	0.549
1250.500	706.553	80.003	19.995	103.129	20.161	2.844	0.530
1251.000	706.822	80.003	19.995	103.129	20.161	2.844	0.525
1251.500	707.096	80.003	19.995	103.130	20.161	2.786	0.533
1252.000	707.313	80.002	19.994	103.130	20.163	2.705	0.517
1252.501	707.568	80.003	19.994	103.127	20.163	2.649	0.482
1253.001	707.847	80.002	19.994	103.126	20.162	2.729	0.503
1253.500	708.110	80.002	19.994	103.125	20.162	2.756	0.538
1254.000	708.382	80.003	19.994	103.125	20.162	2.722	0.538
1254.501	708.658	80.004	19.994	103.126	20.162	2.776	0.542
1255.001	708.910	80.002	19.994	103.130	20.160	2.923	0.538
1255.500	709.181	80.003	19.994	103.130	20.161	2.808	0.525
1256.000	709.403	80.002	19.994	103.130	20.162	2.720	0.508
1256.500	709.697	80.002	19.994	103.131	20.161	2.824	0.505
1257.000	709.936	80.002	19.994	103.131	20.164	2.609	0.524
1257.500	710.223	80.001	19.994	103.130	20.165	2.529	0.529
1258.001	710.475	80.003	19.993	103.129	20.162	2.768	0.533
1258.501	710.725	80.003	19.994	103.128	20.160	2.893	0.521
1259.000	710.974	80.003	19.994	103.124	20.162	2.716	0.501
1259.500	711.245	80.003	19.995	103.123	20.161	2.810	0.509
1260.000	711.531	80.004	19.994	103.125	20.163	2.706	0.539
1260.500	711.787	80.002	19.995	103.128	20.162	2.712	0.550
1261.000	711.996	80.003	19.993	103.129	20.162	2.768	0.503
1261.500	712.295	80.004	19.994	103.133	20.163	2.643	0.486
1262.000	712.533	80.004	19.993	103.133	20.162	2.774	0.522
1262.500	712.803	80.004	19.994	103.132	20.161	2.784	0.523
1263.000	713.067	80.002	19.994	103.132	20.161	2.794	0.521
1263.500	713.328	80.004	19.994	103.132	20.163	2.682	0.529
1264.000	713.607	80.004	19.994	103.131	20.164	2.599	0.532
1264.500	713.807	80.005	19.995	103.130	20.165	2.561	0.510
1265.000	714.084	80.004	19.994	103.126	20.162	2.750	0.478
1265.501	714.336	80.003	19.993	103.121	20.163	2.665	0.503
1266.001	714.624	80.004	19.994	103.119	20.165	2.554	0.535
1266.500	714.902	80.004	19.994	103.118	20.164	2.564	0.553
1267.000	715.149	80.005	19.994	103.119	20.160	2.899	0.545
1267.500	715.413	80.005	19.994	103.118	20.160	2.866	0.518
1268.000	715.654	80.006	19.994	103.118	20.162	2.770	0.508
1268.500	715.930	80.005	19.994	103.115	20.161	2.800	0.511
1269.000	716.201	80.006	19.995	103.117	20.162	2.766	0.532
1269.500	716.442	80.005	19.994	103.116	20.161	2.800	0.530
1270.000	716.719	80.005	19.993	103.118	20.160	2.915	0.515
1270.500	716.952	80.005	19.992	103.119	20.162	2.736	0.514
1271.000	717.206	80.007	19.993	103.121	20.161	2.824	0.498
1271.500	717.515	80.006	19.993	103.120	20.162	2.752	0.525
1272.000	717.732	80.005	19.994	103.121	20.159	2.991	0.544
1272.501	717.986	80.005	19.994	103.120	20.159	2.967	0.498
1273.001	718.233	80.004	19.994	103.120	20.158	3.066	0.486
1273.500	718.482	80.005	19.993	103.121	20.160	2.911	0.499
1274.000	718.741	80.004	19.994	103.116	20.160	2.868	0.502
1274.500	719.020	80.004	19.993	103.114	20.161	2.806	0.522
1275.000	719.248	80.004	19.993	103.116	20.160	2.927	0.522
1275.500	719.508	80.004	19.993	103.120	20.164	2.609	0.498
1276.000	719.741	80.003	19.994	103.121	20.162	2.713	0.491
1276.500	720.006	80.004	19.994	103.125	20.164	2.595	0.496
1277.000	720.259	80.004	19.993	103.126	20.163	2.694	0.508
1277.500	720.531	80.005	19.994	103.128	20.162	2.774	0.521
1278.000	720.772	80.004	19.993	103.127	20.164	2.589	0.519
1278.500	721.022	80.004	19.993	103.126	20.163	2.661	0.502
1279.000	721.258	80.004	19.994	103.125	20.164	2.571	0.489
1279.500	721.521	80.005	19.993	103.126	20.165	2.523	0.492
1280.000	721.795	80.004	19.994	103.125	20.165	2.559	0.517
1280.500	721.996	80.003	19.994	103.126	20.164	2.617	0.506
1281.000	722.257	80.004	19.994	103.128	20.163	2.673	0.469
1281.500	722.456	80.005	19.994	103.126	20.165	2.524	0.461
1282.000	722.732	80.004	19.993	103.122	20.163	2.675	0.467
1282.500	722.929	80.004	19.993	103.122	20.164	2.595	0.474
1283.000	723.203	80.004	19.993	103.122	20.164	2.563	0.472
1283.500	723.463	80.004	19.994	103.121	20.165	2.553	0.503
1284.000	723.707	80.003	19.994	103.124	20.164	2.593	0.519
1284.500	723.943	80.005	19.994	103.129	20.164	2.601	0.492
1285.000	724.201	80.004	19.994	103.130	20.166	2.436	0.487
1285.500	724.443	80.004	19.994	103.129	20.165	2.504	0.497
1286.000	724.698	80.005	19.993	103.129	20.165	2.554	0.498
1286.500	724.924	80.004	19.994	103.130	20.164	2.619	0.489
1287.000	725.177	80.004	19.993	103.126	20.163	2.657	0.480
1287.500	725.392	80.007	19.994	103.124	20.166	2.418	0.474
1288.000	725.659	80.005	19.994	103.119	20.166	2.432	0.475
1288.500	725.892	80.006	19.994	103.113	20.164	2.593	0.491
1289.000	726.160	80.006	19.994	103.111	20.165	2.553	0.501
1289.500	726.381	80.006	19.993	103.112	20.166	2.472	0.495
1290.000	726.590	80.006	19.993	103.113	20.164	2.595	0.459
1290.500	726.841	80.006	19.992	103.114	20.167	2.383	0.445
1291.000	727.075	80.005	19.993	103.117	20.166	2.432	0.472
1291.500	727.307	80.006	19.993	103.118	20.165	2.518	0.475
1292.001	727.577	80.006	19.994	103.120	20.162	2.722	0.484
1292.501	727.816	80.007	19.993	103.121	20.164	2.587	0.505
1293.000	728.050	80.006	19.993	103.121	20.166	2.468	0.491
1293.501	728.289	80.006	19.993	103.123	20.166	2.479	0.473
1294.001	728.533	80.006	19.993	103.124	20.166	2.476	0.478
1294.500	728.722	80.006	19.994	103.122	20.167	2.350	0.458
1295.000	729.003	80.007	19.993	103.122	20.164	2.593	0.451
1295.500	729.233	80.007	19.994	103.125	20.166	2.424	0.491
1296.000	729.453	80.006	19.994	103.125	20.165	2.551	0.481
1296.500	729.666	80.005	19.994	103.123	20.167	2.389	0.441
1297.000	729.875	80.005	19.994	103.124	20.166	2.486	0.427
1297.500	730.124	80.007	19.993	103.123	20.165	2.490	0.440
1298.000	730.379	80.005	19.994	103.121	20.165	2.534	0.481
1298.500	730.625	80.005	19.993	103.119	20.163	2.665	0.503
1299.000	730.797	80.004	19.994	103.119	20.163	2.671	0.459
1299.501	731.073	80.006	19.993	103.119	20.165	2.531	0.433
1300.001	731.268	80.005	19.994	103.120	20.164	2.571	0.460
1300.500	731.519	80.004	19.994	103.121	20.166	2.458	0.458
1301.000	731.750	80.003	19.994	103.123	20.162	2.748	0.464
1301.500	731.977	80.004	19.994	103.125	20.163	2.696	0.470
1302.000	732.167	80.004	19.995	103.124	20.166	2.482	0.437
1302.500	732.443	80.003	19.994	103.119	20.164	2.571	0.442
1303.000	732.655	80.004	19.994	103.119	20.164	2.635	0.477
1303.500	732.902	80.002	19.995	103.114	20.164	2.633	0.474
1304.000	733.031	80.002	19.993	103.108	20.161	2.790	0.418
1304.501	733.348	80.004	19.995	103.103	20.162	2.732	0.411
1305.001	733.573	80.003	19.995	103.105	20.162	2.723	0.494
1305.501	733.770	80.005	19.995	103.103	20.162	2.760	0.482
1306.000	733.992	80.004	19.995	103.109	20.161	2.846	0.420
1306.500	734.236	80.003	19.995	103.112	20.161	2.832	0.443
1307.001	734.448	80.003	19.995	103.118	20.163	2.645	0.461
1307.501	734.684	80.004	19.997	103.122	20.162	2.728	0.452
1308.001	734.893	80.002	19.997	103.127	20.161	2.814	0.446
1308.500	735.100	80.002	19.995	103.127	20.160	2.915	0.430
1309.000	735.336	80.004	19.996	103.127	20.162	2.778	0.430
1309.501	735.539	80.004	19.996	103.127	20.161	2.800	0.441
1310.001	735.807	80.003	19.994	103.123	20.164	2.565	0.455
1310.501	736.072	80.005	19.996	103.115	20.160	2.911	0.502
1311.001	736.290	80.004	19.995	103.109	20.160	2.866	0.507
1311.501	736.494	80.003	19.995	103.108	20.164	2.597	0.452
1312.001	736.704	80.003	19.995	103.109	20.161	2.828	0.418
1312.501	736.920	80.003	19.997	103.114	20.161	2.812	0.420
1313.000	737.143	80.002	19.996	103.119	20.161	2.804	0.433
1313.500	737.376	80.004	19.995	103.124	20.158	3.064	0.448
1314.000	737.614	80.002	19.995	103.126	20.159	2.935	0.464
1314.501	737.856	80.004	19.995	103.124	20.158	3.025	0.476
1315.001	738.096	80.004	19.995	103.124	20.158	3.009	0.481
1315.501	738.363	80.003	19.995	103.126	20.160	2.868	0.494
1316.000	738.560	80.003	19.995	103.129	20.164	2.564	0.485
1316.500	738.841	80.003	19.995	103.127	20.161	2.782	0.470
1317.000	739.060	80.003	19.995	103.128	20.160	2.897	0.489
1317.500	739.286	80.002	19.994	103.126	20.161	2.816	0.473
1318.000	739.542	80.004	19.995	103.121	20.160	2.883	0.464
1318.500	739.755	80.004	19.995	103.118	20.162	2.718	0.476
1319.000	740.018	80.004	19.995	103.115	20.163	2.683	0.473
1319.500	740.259	80.004	19.994	103.112	20.161	2.794	0.490
1320.000	740.492	80.005	19.995	103.116	20.162	2.764	0.488
1320.500	740.732	80.004	19.994	103.120	20.165	2.556	0.473
1321.000	740.954	80.003	19.995	103.122	20.161	2.786	0.468
1321.500	741.217	80.003	19.994	103.129	20.165	2.558	0.474
1322.000	741.497	80.003	19.994	103.133	20.158	3.021	0.514
1322.500	741.746	80.003	19.994	103.133	20.163	2.639	0.536
1323.000	741.979	80.003	19.995	103.132	20.161	2.814	0.506
1323.500	742.264	80.003	19.995	103.131	20.161	2.786	0.500
1324.000	742.470	80.003	19.994	103.129	20.164	2.631	0.505
1324.500	742.749	80.004	19.994	103.129	20.160	2.894	0.488
1325.000	743.017	80.002	19.995	103.129	20.160	2.894	0.516
1325.500	743.297	80.002	19.994	103.129	20.158	3.041	0.548
