Sample ID:	C:\MCC\MCC Cal\Test\Polyester_Felt\Polyester_Felt_MCC_30K_min_21_07_09_R3.txt
Sample Weight (mg):	4.94
Heating Rate (C/s):	1
Combustor Temp (C):	900
N2 Flow Rate (cc/min):	80
O2 Flow Rate (cc/min):	20
Calibration File:	C:\MCC\MCC Cal\Coeff1 JN10440_30_210304.txt.txt
T Correction Coefficients:	0	1.024463	0
Time Shift (s):	14
*
Time (s)	Temperature (C)	N2 flow rate (cc/min)	O2 flow rate (cc/min)	Flow Rate (cc/min)	Oxygen (%)	HRR (W/g)	Heating rate (C/s)
0.000	106.990	79.997	19.994	99.918	20.122	-0.007	-0.009
0.500	106.970	79.997	19.995	99.919	20.123	-0.067	-0.015
1.000	106.965	79.995	19.996	99.918	20.123	-0.028	-0.018
1.500	106.989	79.995	19.995	99.918	20.121	0.102	-0.003
2.000	107.000	79.995	19.996	99.917	20.121	0.096	0.027
2.500	106.992	79.995	19.996	99.915	20.121	0.088	0.019
3.000	107.016	79.996	19.995	99.915	20.124	-0.146	0.010
3.500	106.982	79.997	19.996	99.918	20.124	-0.093	0.003
4.000	107.010	79.997	19.996	99.922	20.124	-0.088	-0.008
4.500	106.981	79.994	19.996	99.924	20.126	-0.255	-0.003
5.000	106.993	79.995	19.996	99.926	20.124	-0.136	-0.009
5.500	106.995	79.996	19.995	99.926	20.124	-0.109	-0.001
6.000	106.977	79.995	19.996	99.927	20.124	-0.133	-0.001
6.500	106.989	79.992	19.996	99.928	20.124	-0.098	-0.011
7.000	106.996	79.994	19.995	99.928	20.122	0.009	0.007
7.500	106.965	79.995	19.996	99.928	20.122	-0.003	-0.002
8.000	106.971	79.993	19.996	99.929	20.119	0.203	-0.024
8.501	106.989	79.993	19.996	99.930	20.121	0.069	-0.001
9.001	106.995	79.994	19.996	99.931	20.119	0.197	0.024
9.501	106.985	79.993	19.995	99.939	20.117	0.326	0.010
10.001	106.986	79.994	19.996	99.948	20.112	0.612	-0.006
10.501	106.976	79.993	19.995	99.965	20.110	0.754	-0.009
11.001	106.985	79.993	19.995	99.987	20.112	0.671	-0.005
11.501	106.999	79.993	19.996	100.015	20.105	1.061	0.011
12.000	106.977	79.993	19.995	100.039	20.102	1.305	0.008
12.500	107.007	79.992	19.995	100.062	20.101	1.349	0.000
13.000	107.019	79.993	19.995	100.084	20.096	1.641	0.025
13.500	107.001	79.993	19.995	100.104	20.092	1.893	0.017
14.000	107.006	79.993	19.995	100.122	20.091	1.997	-0.010
14.500	107.086	79.996	19.995	100.142	20.089	2.097	0.037
15.000	107.083	79.992	19.996	100.165	20.087	2.237	0.082
15.500	107.098	79.993	19.995	100.181	20.082	2.520	0.044
16.000	107.159	79.993	19.996	100.193	20.082	2.554	0.043
16.500	107.168	79.993	19.995	100.202	20.079	2.712	0.073
17.000	107.202	79.993	19.995	100.212	20.074	3.039	0.057
17.500	107.268	79.994	19.995	100.220	20.072	3.147	0.072
18.000	107.313	79.995	19.995	100.230	20.070	3.327	0.105
18.500	107.387	79.995	19.996	100.244	20.064	3.688	0.115
19.000	107.404	79.994	19.995	100.262	20.061	3.892	0.105
19.500	107.463	79.994	19.995	100.278	20.059	4.006	0.084
20.000	107.583	79.993	19.995	100.293	20.060	3.958	0.128
20.500	107.639	79.993	19.995	100.307	20.056	4.175	0.177
21.000	107.674	79.995	19.995	100.321	20.056	4.184	0.133
21.500	107.787	79.993	19.995	100.330	20.053	4.416	0.119
22.000	107.875	79.994	19.995	100.335	20.053	4.392	0.175
22.500	107.950	79.995	19.995	100.343	20.049	4.631	0.182
23.000	108.031	79.994	19.995	100.351	20.048	4.705	0.160
23.500	108.173	79.994	19.995	100.354	20.048	4.700	0.190
24.000	108.294	79.994	19.995	100.358	20.048	4.670	0.242
24.500	108.383	79.992	19.996	100.362	20.043	5.046	0.236
25.000	108.494	79.994	19.996	100.361	20.046	4.846	0.205
25.500	108.629	79.993	19.995	100.357	20.044	4.948	0.223
26.000	108.750	79.994	19.996	100.356	20.041	5.161	0.251
26.500	108.873	79.994	19.996	100.356	20.041	5.166	0.250
27.000	109.011	79.993	19.995	100.351	20.038	5.359	0.252
27.500	109.103	79.992	19.996	100.327	20.038	5.339	0.245
28.000	109.256	79.992	19.997	100.290	20.037	5.399	0.238
28.500	109.391	79.994	19.996	100.267	20.035	5.518	0.267
29.000	109.586	79.995	19.996	100.256	20.038	5.364	0.309
29.500	109.723	79.993	19.997	100.260	20.037	5.423	0.331
30.000	109.837	79.993	19.997	100.285	20.039	5.241	0.291
30.500	110.066	79.993	19.997	100.326	20.038	5.342	0.297
31.000	110.194	79.994	19.995	100.370	20.039	5.259	0.351
31.500	110.344	79.994	19.996	100.419	20.038	5.354	0.318
32.000	110.567	79.992	19.996	100.429	20.036	5.461	0.326
32.500	110.722	79.993	19.996	100.429	20.036	5.439	0.375
33.000	110.872	79.992	19.996	100.429	20.036	5.458	0.341
33.500	111.092	79.991	19.996	100.409	20.035	5.499	0.337
34.000	111.242	79.993	19.996	100.371	20.035	5.541	0.371
34.501	111.451	79.992	19.996	100.363	20.032	5.715	0.365
35.001	111.603	79.991	19.996	100.363	20.035	5.552	0.360
35.501	111.817	79.993	19.996	100.363	20.036	5.455	0.363
36.000	112.002	79.992	19.995	100.365	20.033	5.633	0.382
36.500	112.201	79.991	19.995	100.367	20.036	5.442	0.392
37.000	112.411	79.992	19.995	100.369	20.035	5.539	0.397
37.500	112.653	79.991	19.996	100.371	20.032	5.741	0.430
38.000	112.875	79.993	19.996	100.372	20.032	5.720	0.458
38.500	113.072	79.993	19.995	100.372	20.036	5.488	0.441
39.000	113.311	79.993	19.996	100.370	20.035	5.529	0.428
39.501	113.500	79.993	19.996	100.367	20.032	5.726	0.432
40.001	113.738	79.994	19.997	100.367	20.036	5.476	0.428
40.500	114.016	79.993	19.996	100.365	20.034	5.568	0.471
41.001	114.242	79.993	19.997	100.364	20.031	5.750	0.510
41.501	114.488	79.994	19.995	100.364	20.030	5.835	0.488
42.000	114.733	79.992	19.997	100.364	20.031	5.748	0.482
42.500	114.922	79.994	19.997	100.366	20.032	5.717	0.463
43.000	115.197	79.993	19.996	100.372	20.034	5.587	0.449
43.500	115.430	79.993	19.995	100.379	20.034	5.567	0.486
44.000	115.676	79.994	19.996	100.379	20.032	5.733	0.494
44.500	115.967	79.994	19.996	100.378	20.030	5.866	0.508
45.001	116.204	79.994	19.996	100.376	20.033	5.647	0.532
45.501	116.419	79.994	19.996	100.369	20.032	5.731	0.490
46.000	116.706	79.993	19.995	100.362	20.034	5.610	0.477
46.500	116.962	79.994	19.996	100.361	20.032	5.709	0.523
47.000	117.239	79.995	19.996	100.365	20.033	5.669	0.538
47.500	117.514	79.994	19.996	100.367	20.029	5.901	0.543
48.000	117.776	79.994	19.995	100.371	20.031	5.775	0.545
48.500	118.029	79.992	19.996	100.376	20.033	5.640	0.526
49.000	118.309	79.994	19.996	100.381	20.034	5.585	0.524
49.501	118.614	79.992	19.995	100.385	20.032	5.719	0.559
50.001	118.876	79.995	19.996	100.390	20.030	5.863	0.576
50.500	119.169	79.994	19.996	100.393	20.034	5.614	0.561
51.000	119.469	79.995	19.996	100.396	20.030	5.830	0.574
51.500	119.751	79.995	19.996	100.395	20.030	5.854	0.587
52.000	120.008	79.995	19.996	100.391	20.030	5.816	0.561
52.500	120.341	79.996	19.996	100.383	20.031	5.780	0.564
53.000	120.657	79.995	19.996	100.377	20.030	5.858	0.620
53.500	120.949	79.994	19.997	100.372	20.030	5.856	0.629
54.001	121.235	79.996	19.996	100.373	20.030	5.864	0.593
54.501	121.547	79.993	19.997	100.377	20.028	5.973	0.588
55.000	121.858	79.996	19.996	100.383	20.031	5.773	0.611
55.500	122.157	79.992	19.997	100.388	20.028	5.961	0.616
56.000	122.470	79.995	19.996	100.388	20.028	5.956	0.611
56.500	122.781	79.994	19.996	100.385	20.026	6.089	0.618
57.000	123.121	79.993	19.997	100.387	20.027	6.022	0.638
57.500	123.436	79.993	19.997	100.387	20.028	5.969	0.653
58.000	123.752	79.995	19.997	100.389	20.026	6.105	0.643
58.500	124.112	79.992	19.997	100.392	20.027	6.008	0.653
59.000	124.427	79.994	19.997	100.395	20.027	6.033	0.675
59.500	124.778	79.995	19.997	100.395	20.027	6.055	0.671
60.000	125.109	79.995	19.997	100.395	20.027	6.065	0.674
60.500	125.414	79.994	19.996	100.394	20.025	6.172	0.659
61.000	125.762	79.993	19.996	100.394	20.027	6.003	0.645
61.500	126.147	79.993	19.997	100.394	20.027	6.032	0.693
62.000	126.439	79.996	19.996	100.394	20.026	6.086	0.705
62.500	126.765	79.994	19.996	100.395	20.027	6.003	0.648
63.000	127.156	79.994	19.996	100.395	20.027	6.037	0.668
63.500	127.505	79.993	19.997	100.395	20.024	6.205	0.728
64.000	127.821	79.996	19.997	100.392	20.024	6.231	0.702
64.500	128.161	79.995	19.997	100.391	20.026	6.069	0.661
65.000	128.565	79.994	19.997	100.389	20.023	6.279	0.700
65.500	128.928	79.995	19.997	100.391	20.026	6.096	0.755
66.000	129.241	79.995	19.996	100.392	20.028	5.973	0.721
66.500	129.629	79.994	19.996	100.398	20.026	6.122	0.689
67.000	129.994	79.994	19.995	100.400	20.025	6.151	0.727
67.501	130.348	79.995	19.995	100.402	20.024	6.214	0.736
68.001	130.698	79.995	19.996	100.402	20.025	6.180	0.712
68.501	131.087	79.994	19.995	100.402	20.026	6.124	0.721
69.000	131.448	79.994	19.995	100.402	20.022	6.373	0.744
69.500	131.830	79.996	19.995	100.403	20.026	6.083	0.747
70.000	132.176	79.995	19.996	100.404	20.024	6.216	0.735
70.501	132.566	79.994	19.996	100.405	20.026	6.107	0.732
71.001	132.953	79.995	19.995	100.404	20.022	6.335	0.757
71.501	133.320	79.997	19.995	100.401	20.023	6.316	0.765
72.001	133.710	79.995	19.996	100.400	20.024	6.195	0.755
72.501	134.120	79.995	19.995	100.398	20.020	6.450	0.779
73.000	134.474	79.999	19.995	100.396	20.021	6.410	0.782
73.501	134.852	79.996	19.995	100.397	20.024	6.241	0.748
74.001	135.256	79.994	19.995	100.399	20.021	6.400	0.757
74.500	135.641	79.993	19.995	100.399	20.024	6.212	0.786
75.000	136.025	79.995	19.995	100.399	20.023	6.298	0.779
75.500	136.459	79.995	19.995	100.400	20.021	6.385	0.794
76.000	136.861	79.996	19.995	100.397	20.024	6.212	0.827
76.500	137.251	79.995	19.994	100.394	20.024	6.233	0.814
77.001	137.642	79.995	19.995	100.395	20.023	6.267	0.787
77.501	138.060	79.996	19.994	100.397	20.020	6.500	0.795
78.001	138.459	79.995	19.995	100.400	20.023	6.288	0.812
78.500	138.889	79.995	19.995	100.407	20.021	6.433	0.823
79.000	139.280	79.996	19.995	100.410	20.025	6.172	0.825
79.501	139.709	79.996	19.995	100.409	20.027	6.065	0.821
80.001	140.120	79.995	19.995	100.409	20.024	6.212	0.830
80.500	140.511	79.995	19.995	100.408	20.028	5.984	0.821
81.001	140.974	79.994	19.995	100.405	20.025	6.165	0.828
81.501	141.347	79.994	19.995	100.404	20.024	6.196	0.845
82.000	141.756	79.994	19.995	100.402	20.025	6.172	0.809
82.500	142.219	79.995	19.994	100.401	20.025	6.181	0.827
83.000	142.612	79.993	19.995	100.401	20.025	6.157	0.864
83.500	143.067	79.995	19.995	100.400	20.026	6.096	0.852
84.000	143.441	79.993	19.996	100.399	20.023	6.279	0.838
84.501	143.890	79.994	19.995	100.401	20.022	6.343	0.826
85.001	144.323	79.995	19.995	100.401	20.025	6.162	0.853
85.501	144.740	79.993	19.996	100.400	20.024	6.234	0.866
86.001	145.169	79.993	19.995	100.400	20.021	6.417	0.848
86.500	145.609	79.993	19.996	100.400	20.023	6.295	0.857
87.000	146.024	79.993	19.995	100.401	20.023	6.303	0.862
87.500	146.474	79.993	19.995	100.402	20.023	6.269	0.860
88.000	146.923	79.993	19.995	100.403	20.024	6.243	0.882
88.500	147.313	79.992	19.995	100.402	20.026	6.119	0.869
89.000	147.786	79.992	19.996	100.403	20.026	6.105	0.851
89.500	148.216	79.992	19.996	100.402	20.028	5.984	0.883
90.000	148.668	79.994	19.995	100.401	20.024	6.212	0.892
90.500	149.112	79.994	19.996	100.399	20.024	6.222	0.889
91.000	149.556	79.992	19.995	100.400	20.021	6.408	0.892
91.500	150.020	79.994	19.995	100.399	20.024	6.237	0.898
92.001	150.477	79.993	19.995	100.399	20.023	6.286	0.915
92.501	150.885	79.993	19.994	100.399	20.022	6.372	0.893
93.001	151.358	79.993	19.995	100.398	20.027	6.056	0.873
93.501	151.836	79.994	19.996	100.398	20.025	6.172	0.916
94.000	152.258	79.994	19.996	100.398	20.025	6.172	0.925
94.500	152.734	79.992	19.995	100.397	20.025	6.171	0.899
95.000	153.181	79.993	19.995	100.398	20.024	6.227	0.910
95.501	153.623	79.994	19.996	100.400	20.023	6.272	0.906
96.001	154.106	79.993	19.995	100.400	20.025	6.160	0.907
96.500	154.507	79.993	19.996	100.399	20.022	6.332	0.904
97.000	154.948	79.993	19.996	100.398	20.023	6.291	0.863
97.500	155.431	79.994	19.996	100.398	20.024	6.204	0.883
98.000	155.845	79.994	19.995	100.397	20.022	6.325	0.911
98.500	156.340	79.992	19.995	100.397	20.019	6.527	0.903
99.000	156.799	79.994	19.995	100.399	20.023	6.306	0.931
99.500	157.264	79.993	19.995	100.402	20.021	6.408	0.939
100.000	157.719	79.994	19.995	100.401	20.022	6.335	0.923
100.500	158.170	79.993	19.995	100.399	20.023	6.308	0.913
101.000	158.670	79.993	19.995	100.395	20.022	6.344	0.928
101.500	159.119	79.993	19.995	100.395	20.027	6.052	0.950
102.000	159.594	79.994	19.994	100.391	20.024	6.227	0.937
102.500	160.044	79.993	19.995	100.388	20.025	6.187	0.925
103.000	160.537	79.993	19.996	100.391	20.026	6.104	0.934
103.500	160.972	79.994	19.994	100.395	20.026	6.121	0.935
104.001	161.479	79.993	19.995	100.395	20.022	6.339	0.935
104.501	161.897	79.994	19.995	100.398	20.026	6.094	0.934
105.001	162.387	79.995	19.995	100.402	20.022	6.325	0.917
105.500	162.849	79.994	19.995	100.401	20.024	6.245	0.930
106.000	163.319	79.995	19.995	100.401	20.024	6.207	0.942
106.500	163.777	79.994	19.996	100.401	20.025	6.138	0.930
107.000	164.279	79.994	19.995	100.400	20.023	6.294	0.944
107.500	164.790	79.995	19.996	100.396	20.024	6.246	0.986
108.000	165.257	79.994	19.996	100.392	20.024	6.212	0.996
108.500	165.748	79.994	19.994	100.391	20.022	6.319	0.968
109.000	166.210	79.993	19.996	100.390	20.025	6.129	0.955
109.500	166.695	79.994	19.995	100.390	20.026	6.120	0.950
110.001	167.209	79.994	19.996	100.390	20.026	6.092	0.973
110.501	167.687	79.993	19.995	100.388	20.023	6.265	0.996
111.000	168.150	79.995	19.995	100.386	20.024	6.244	0.966
111.500	168.635	79.993	19.995	100.385	20.025	6.177	0.945
112.000	169.091	79.992	19.995	100.383	20.026	6.073	0.945
112.500	169.562	79.992	19.996	100.381	20.028	5.944	0.934
113.000	170.073	79.993	19.996	100.386	20.024	6.204	0.954
113.501	170.601	79.993	19.996	100.387	20.028	5.966	1.010
114.001	171.067	79.992	19.996	100.383	20.026	6.080	1.017
114.500	171.531	79.993	19.996	100.382	20.028	5.982	0.962
115.000	172.062	79.993	19.996	100.387	20.030	5.842	0.963
115.500	172.530	79.992	19.995	100.387	20.028	5.968	0.997
116.000	173.048	79.992	19.996	100.384	20.028	5.952	0.992
116.501	173.528	79.993	19.995	100.383	20.027	6.018	0.992
117.001	174.060	79.994	19.996	100.380	20.025	6.176	1.005
117.500	174.531	79.992	19.996	100.372	20.026	6.107	1.007
118.000	175.045	79.994	19.997	100.365	20.024	6.199	0.994
118.500	175.515	79.995	19.997	100.365	20.025	6.160	0.985
119.000	175.984	79.994	19.996	100.369	20.023	6.258	0.962
119.500	176.504	79.994	19.996	100.368	20.027	6.033	0.964
120.000	176.986	79.993	19.996	100.368	20.023	6.270	0.995
120.500	177.493	79.993	19.996	100.369	20.026	6.075	0.995
121.000	178.008	79.991	19.997	100.366	20.027	6.021	1.006
121.500	178.504	79.993	19.996	100.363	20.026	6.116	1.016
122.000	178.996	79.993	19.997	100.363	20.027	6.062	0.999
122.500	179.484	79.994	19.996	100.363	20.023	6.267	0.984
123.000	180.006	79.993	19.996	100.362	20.024	6.229	0.995
123.500	180.511	79.993	19.996	100.361	20.027	6.040	1.019
124.000	181.025	79.994	19.996	100.360	20.026	6.071	1.023
124.500	181.522	79.994	19.995	100.361	20.024	6.242	1.015
125.000	182.003	79.994	19.997	100.361	20.027	6.003	0.994
125.500	182.552	79.994	19.996	100.362	20.026	6.085	1.004
126.000	183.050	79.995	19.996	100.362	20.027	6.015	1.038
126.500	183.517	79.995	19.996	100.362	20.025	6.160	1.006
127.000	184.033	79.995	19.995	100.358	20.023	6.295	0.974
127.500	184.575	79.996	19.996	100.357	20.025	6.184	1.021
128.000	185.086	79.996	19.995	100.356	20.024	6.206	1.055
128.500	185.610	79.996	19.996	100.327	20.024	6.242	1.043
129.000	186.126	79.995	19.996	100.302	20.025	6.168	1.037
129.500	186.651	79.994	19.995	100.292	20.024	6.195	1.041
130.000	187.151	79.995	19.996	100.288	20.028	5.938	1.034
130.500	187.652	79.995	19.996	100.289	20.027	6.042	1.013
131.000	188.167	79.995	19.996	100.329	20.027	6.040	1.008
131.500	188.654	79.995	19.996	100.389	20.028	5.939	1.009
132.000	189.173	79.995	19.996	100.411	20.027	6.037	1.004
132.500	189.697	79.996	19.995	100.415	20.028	5.935	1.024
133.000	190.213	79.993	19.995	100.413	20.029	5.926	1.041
133.500	190.724	79.997	19.995	100.401	20.027	6.009	1.034
134.000	191.234	79.995	19.996	100.365	20.030	5.867	1.024
134.500	191.763	79.994	19.997	100.355	20.025	6.137	1.030
135.000	192.291	79.995	19.996	100.353	20.028	5.978	1.048
135.500	192.792	79.995	19.995	100.352	20.026	6.107	1.043
136.000	193.310	79.994	19.996	100.351	20.028	5.953	1.024
136.500	193.835	79.993	19.997	100.349	20.031	5.802	1.031
137.000	194.375	79.997	19.995	100.347	20.030	5.831	1.054
137.500	194.887	79.992	19.996	100.347	20.028	5.947	1.058
138.000	195.380	79.994	19.996	100.344	20.027	6.048	1.028
138.500	195.867	79.994	19.996	100.341	20.032	5.717	0.993
139.000	196.399	79.995	19.996	100.336	20.030	5.808	1.000
139.500	196.937	79.994	19.997	100.331	20.028	5.967	1.045
140.000	197.440	79.992	19.997	100.327	20.028	5.984	1.055
140.500	197.954	79.994	19.996	100.325	20.029	5.886	1.029
141.000	198.463	79.994	19.996	100.328	20.030	5.826	1.020
141.500	199.033	79.994	19.996	100.331	20.031	5.748	1.051
142.000	199.515	79.993	19.996	100.332	20.032	5.718	1.066
142.500	200.045	79.994	19.996	100.332	20.031	5.803	1.032
143.000	200.595	79.993	19.996	100.331	20.034	5.616	1.046
143.500	201.089	79.992	19.996	100.329	20.034	5.611	1.062
144.000	201.637	79.994	19.997	100.327	20.033	5.671	1.043
144.500	202.141	79.994	19.997	100.326	20.032	5.689	1.047
145.000	202.696	79.993	19.996	100.325	20.033	5.642	1.056
145.500	203.162	79.993	19.996	100.325	20.034	5.556	1.039
146.000	203.710	79.992	19.997	100.324	20.031	5.783	1.018
146.500	204.215	79.995	19.996	100.323	20.030	5.809	1.034
147.000	204.752	79.994	19.996	100.322	20.028	5.940	1.048
147.500	205.264	79.994	19.997	100.323	20.030	5.837	1.046
148.001	205.807	79.994	19.997	100.323	20.032	5.696	1.052
148.501	206.323	79.994	19.996	100.322	20.029	5.887	1.057
149.000	206.875	79.994	19.996	100.322	20.029	5.900	1.064
149.500	207.356	79.993	19.997	100.321	20.031	5.774	1.051
150.001	207.923	79.994	19.996	100.319	20.032	5.720	1.041
150.501	208.431	79.994	19.996	100.318	20.030	5.840	1.061
151.001	208.952	79.995	19.996	100.318	20.030	5.812	1.052
151.501	209.498	79.995	19.997	100.318	20.029	5.908	1.048
152.000	210.028	79.996	19.996	100.317	20.032	5.717	1.071
152.501	210.524	79.995	19.996	100.317	20.030	5.819	1.051
153.001	211.039	79.995	19.996	100.311	20.031	5.781	1.019
153.500	211.596	79.996	19.995	100.310	20.031	5.770	1.042
154.000	212.099	79.995	19.995	100.306	20.031	5.794	1.066
154.500	212.612	79.996	19.995	100.303	20.027	6.027	1.038
155.000	213.144	79.996	19.995	100.298	20.032	5.720	1.031
155.500	213.662	79.997	19.994	100.276	20.032	5.737	1.047
156.001	214.204	79.997	19.995	100.239	20.030	5.856	1.055
156.501	214.726	79.998	19.996	100.221	20.027	6.046	1.062
157.001	215.238	79.996	19.995	100.212	20.030	5.808	1.049
157.501	215.747	79.996	19.995	100.211	20.030	5.808	1.028
158.000	216.259	79.998	19.995	100.237	20.031	5.760	1.021
158.501	216.795	79.997	19.995	100.303	20.030	5.867	1.034
159.001	217.328	79.996	19.995	100.352	20.032	5.710	1.058
159.501	217.846	79.996	19.995	100.367	20.030	5.808	1.060
160.001	218.330	79.995	19.994	100.375	20.033	5.644	1.026
160.500	218.889	79.994	19.995	100.374	20.033	5.646	1.022
161.000	219.376	79.994	19.994	100.339	20.034	5.599	1.044
161.501	219.859	79.994	19.995	100.305	20.035	5.511	1.008
162.001	220.382	79.994	19.995	100.296	20.036	5.456	0.988
162.500	220.935	79.995	19.994	100.290	20.035	5.524	1.041
163.000	221.451	79.993	19.995	100.286	20.036	5.438	1.073
163.500	221.944	79.994	19.995	100.288	20.033	5.635	1.039
164.001	222.513	79.993	19.995	100.289	20.032	5.727	1.036
164.501	223.005	79.994	19.996	100.288	20.035	5.539	1.061
165.000	223.523	79.994	19.995	100.287	20.036	5.467	1.035
165.500	224.034	79.994	19.994	100.287	20.036	5.485	1.020
166.000	224.589	79.995	19.995	100.284	20.037	5.408	1.048
166.501	225.077	79.993	19.995	100.283	20.037	5.383	1.055
167.001	225.608	79.993	19.995	100.283	20.039	5.285	1.031
167.501	226.124	79.994	19.994	100.279	20.038	5.349	1.033
168.001	226.622	79.994	19.996	100.279	20.039	5.254	1.031
168.500	227.151	79.995	19.995	100.283	20.037	5.379	1.021
169.001	227.661	79.995	19.995	100.283	20.040	5.206	1.033
169.501	228.147	79.995	19.995	100.283	20.038	5.336	1.017
170.001	228.706	79.995	19.995	100.285	20.041	5.155	1.021
170.501	229.253	79.994	19.996	100.284	20.042	5.077	1.076
171.001	229.739	79.994	19.996	100.281	20.042	5.101	1.069
171.500	230.262	79.994	19.996	100.280	20.038	5.327	1.021
172.000	230.788	79.993	19.996	100.280	20.037	5.389	1.029
172.500	231.311	79.995	19.996	100.279	20.040	5.181	1.049
173.000	231.803	79.993	19.996	100.277	20.039	5.269	1.032
173.500	232.341	79.994	19.995	100.267	20.041	5.145	1.023
174.000	232.826	79.995	19.996	100.228	20.040	5.228	1.026
174.500	233.351	79.994	19.995	100.206	20.043	5.029	1.016
175.000	233.877	79.994	19.996	100.197	20.040	5.220	1.030
175.500	234.401	79.995	19.996	100.192	20.041	5.151	1.051
176.000	234.912	79.993	19.996	100.203	20.041	5.158	1.043
176.500	235.432	79.995	19.996	100.270	20.042	5.063	1.033
177.000	235.978	79.993	19.995	100.319	20.041	5.122	1.049
177.500	236.461	79.995	19.996	100.334	20.045	4.885	1.047
178.000	236.975	79.994	19.996	100.341	20.046	4.809	1.013
178.501	237.548	79.994	19.996	100.340	20.044	4.953	1.042
179.001	238.039	79.994	19.995	100.311	20.046	4.823	1.075
179.501	238.565	79.995	19.995	100.283	20.047	4.744	1.040
180.001	239.064	79.995	19.995	100.275	20.048	4.670	1.021
180.501	239.567	79.995	19.996	100.268	20.047	4.763	1.014
181.001	240.104	79.994	19.995	100.262	20.048	4.708	1.021
181.501	240.629	79.994	19.996	100.256	20.049	4.648	1.051
182.001	241.091	79.994	19.995	100.252	20.049	4.632	1.025
182.501	241.621	79.995	19.995	100.252	20.052	4.465	0.990
183.001	242.142	79.994	19.995	100.259	20.051	4.515	1.021
183.501	242.675	79.995	19.995	100.265	20.050	4.572	1.052
184.000	243.182	79.995	19.995	100.270	20.052	4.415	1.047
184.500	243.698	79.994	19.995	100.268	20.051	4.487	1.032
185.000	244.216	79.996	19.994	100.264	20.052	4.455	1.029
185.500	244.731	79.992	19.995	100.257	20.049	4.643	1.033
186.000	245.197	79.996	19.995	100.251	20.052	4.458	1.007
186.500	245.711	79.995	19.995	100.246	20.051	4.481	0.980
187.000	246.256	79.995	19.995	100.244	20.051	4.496	1.019
187.500	246.747	79.996	19.995	100.245	20.052	4.439	1.048
188.000	247.256	79.993	19.996	100.247	20.053	4.355	1.018
188.500	247.723	79.995	19.996	100.246	20.052	4.473	0.988
189.000	248.246	79.996	19.994	100.245	20.051	4.501	0.983
189.500	248.744	79.993	19.995	100.249	20.050	4.555	1.006
190.001	249.287	79.993	19.995	100.248	20.054	4.294	1.031
190.501	249.791	79.996	19.995	100.250	20.054	4.325	1.044
191.000	250.327	79.993	19.995	100.249	20.050	4.558	1.043
191.500	250.835	79.994	19.995	100.249	20.051	4.479	1.042
192.000	251.352	79.994	19.995	100.246	20.053	4.349	1.034
192.500	251.854	79.995	19.995	100.249	20.052	4.421	1.022
193.000	252.349	79.994	19.995	100.247	20.051	4.487	1.008
193.500	252.858	79.992	19.995	100.247	20.054	4.287	1.001
194.000	253.382	79.995	19.995	100.247	20.052	4.433	1.019
194.500	253.862	79.993	19.994	100.247	20.053	4.363	1.019
195.001	254.329	79.992	19.995	100.244	20.056	4.163	0.975
195.501	254.877	79.993	19.995	100.246	20.053	4.358	0.981
196.000	255.392	79.993	19.994	100.250	20.054	4.303	1.039
196.501	255.882	79.993	19.995	100.257	20.056	4.165	1.034
197.001	256.371	79.993	19.996	100.259	20.055	4.232	0.992
197.500	256.877	79.994	19.995	100.259	20.056	4.201	0.988
198.000	257.409	79.993	19.996	100.259	20.056	4.178	1.017
198.500	257.863	79.993	19.996	100.256	20.054	4.299	1.012
199.000	258.361	79.993	19.996	100.248	20.057	4.097	0.969
199.501	258.861	79.994	19.996	100.247	20.058	4.053	0.975
200.001	259.380	79.992	19.995	100.246	20.057	4.130	1.008
200.500	259.879	79.992	19.996	100.249	20.053	4.351	1.018
201.001	260.361	79.992	19.996	100.251	20.057	4.149	0.999
201.501	260.863	79.993	19.997	100.251	20.056	4.196	0.983
202.001	261.343	79.993	19.996	100.251	20.057	4.134	0.983
202.501	261.842	79.993	19.996	100.252	20.057	4.106	0.981
203.000	262.286	79.992	19.996	100.240	20.057	4.115	0.961
203.500	262.808	79.996	19.996	100.234	20.056	4.163	0.955
204.000	263.284	79.992	19.995	100.235	20.056	4.204	0.982
204.500	263.829	79.994	19.996	100.235	20.057	4.134	1.009
205.001	264.311	79.995	19.996	100.238	20.056	4.189	1.024
205.501	264.776	79.995	19.995	100.245	20.058	4.092	0.987
206.001	265.307	79.993	19.997	100.248	20.061	3.880	0.972
206.500	265.785	79.994	19.995	100.248	20.054	4.301	1.003
207.000	266.251	79.996	19.997	100.247	20.056	4.199	0.977
207.500	266.766	79.993	19.995	100.245	20.057	4.146	0.962
208.000	267.275	79.993	19.996	100.244	20.056	4.170	1.002
208.500	267.789	79.993	19.996	100.244	20.056	4.168	1.024
209.000	268.267	79.994	19.995	100.244	20.057	4.122	1.008
209.501	268.748	79.994	19.997	100.243	20.056	4.175	0.975
210.001	269.273	79.993	19.996	100.243	20.056	4.165	0.982
210.500	269.746	79.995	19.996	100.244	20.055	4.223	1.002
211.000	270.267	79.995	19.996	100.245	20.056	4.180	0.996
211.500	270.751	79.995	19.996	100.246	20.054	4.309	1.000
212.000	271.261	79.995	19.996	100.246	20.055	4.225	1.000
212.500	271.765	79.996	19.995	100.246	20.059	3.970	1.004
213.000	272.242	79.995	19.996	100.244	20.056	4.175	0.997
213.500	272.788	79.994	19.995	100.243	20.058	4.044	1.001
214.000	273.243	79.995	19.996	100.243	20.060	3.925	1.012
214.500	273.718	79.995	19.995	100.243	20.059	4.006	0.966
215.000	274.229	79.996	19.995	100.243	20.058	4.081	0.958
215.500	274.760	79.995	19.995	100.243	20.059	3.972	1.014
216.001	275.215	79.994	19.995	100.244	20.058	4.051	1.014
216.501	275.702	79.995	19.996	100.244	20.057	4.129	0.964
217.001	276.194	79.993	19.995	100.244	20.059	4.024	0.960
217.501	276.709	79.995	19.996	100.245	20.058	4.038	0.993
218.000	277.182	79.994	19.995	100.245	20.057	4.120	0.997
218.500	277.648	79.995	19.996	100.245	20.058	4.093	0.964
219.000	278.147	79.994	19.995	100.245	20.056	4.216	0.952
219.500	278.661	79.994	19.995	100.244	20.056	4.189	0.989
220.000	279.192	79.993	19.995	100.243	20.058	4.071	1.029
220.500	279.636	79.995	19.995	100.241	20.057	4.155	1.010
221.000	280.131	79.994	19.996	100.240	20.057	4.113	0.957
221.500	280.653	79.995	19.996	100.241	20.056	4.165	0.978
222.000	281.132	79.995	19.995	100.241	20.055	4.275	1.009
222.500	281.612	79.994	19.996	100.242	20.055	4.277	0.980
223.000	282.092	79.994	19.995	100.245	20.055	4.277	0.959
223.500	282.609	79.996	19.995	100.245	20.055	4.261	0.978
224.000	283.074	79.993	19.995	100.244	20.052	4.463	0.990
224.500	283.569	79.994	19.996	100.249	20.056	4.192	0.971
225.000	284.041	79.993	19.994	100.240	20.054	4.313	0.964
225.500	284.568	79.995	19.996	100.210	20.053	4.383	0.983
226.000	285.032	79.993	19.995	100.186	20.056	4.173	0.995
226.500	285.512	79.994	19.996	100.173	20.055	4.237	0.968
227.000	286.018	79.994	19.995	100.160	20.057	4.139	0.965
227.500	286.471	79.993	19.996	100.166	20.057	4.140	0.973
228.000	286.980	79.993	19.996	100.220	20.056	4.171	0.961
228.500	287.516	79.994	19.995	100.274	20.056	4.163	1.003
229.000	287.996	79.995	19.997	100.299	20.055	4.271	1.031
229.500	288.489	79.995	19.995	100.313	20.058	4.083	0.995
230.001	288.992	79.994	19.996	100.317	20.056	4.180	0.984
230.501	289.465	79.994	19.996	100.292	20.057	4.140	0.986
231.000	289.990	79.995	19.996	100.261	20.058	4.033	0.987
231.500	290.477	79.994	19.997	100.250	20.058	4.073	1.005
232.000	290.915	79.995	19.997	100.243	20.057	4.133	0.968
232.500	291.446	79.996	19.996	100.242	20.057	4.099	0.947
233.000	291.912	79.994	19.997	100.241	20.057	4.151	0.983
233.500	292.430	79.996	19.997	100.240	20.057	4.096	0.991
234.000	292.901	79.997	19.996	100.239	20.058	4.056	0.987
234.500	293.433	79.995	19.996	100.239	20.055	4.254	0.996
235.000	293.925	79.996	19.996	100.239	20.059	4.027	1.014
235.501	294.418	79.995	19.996	100.240	20.057	4.130	1.005
236.001	294.914	79.996	19.997	100.240	20.055	4.233	0.987
236.501	295.395	79.998	19.996	100.240	20.057	4.135	0.982
237.000	295.856	79.995	19.996	100.240	20.056	4.209	0.959
237.500	296.399	79.995	19.996	100.240	20.055	4.269	0.974
238.000	296.846	79.996	19.997	100.238	20.054	4.290	0.997
238.500	297.376	79.996	19.996	100.235	20.054	4.290	0.983
239.000	297.873	79.996	19.997	100.236	20.055	4.278	1.002
239.500	298.348	79.995	19.996	100.236	20.055	4.231	1.000
240.000	298.833	79.996	19.996	100.236	20.057	4.102	0.966
240.500	299.349	79.993	19.994	100.236	20.054	4.340	0.980
241.001	299.830	79.996	19.995	100.238	20.052	4.414	0.999
241.501	300.331	79.995	19.995	100.238	20.055	4.237	0.990
242.001	300.815	79.995	19.995	100.237	20.057	4.140	0.984
242.500	301.318	79.994	19.994	100.235	20.054	4.302	0.986
243.000	301.802	79.994	19.995	100.237	20.056	4.199	0.987
243.500	302.301	79.994	19.996	100.237	20.056	4.195	0.985
244.000	302.803	79.993	19.994	100.238	20.055	4.278	0.992
244.501	303.262	79.991	19.996	100.239	20.055	4.221	0.981
245.001	303.806	79.994	19.995	100.241	20.054	4.310	0.982
245.500	304.304	79.994	19.995	100.241	20.053	4.352	1.023
246.000	304.800	79.991	19.994	100.241	20.054	4.326	1.018
246.500	305.253	79.992	19.995	100.240	20.055	4.221	0.971
247.000	305.809	79.993	19.994	100.236	20.055	4.242	0.979
247.500	306.281	79.992	19.995	100.230	20.055	4.255	1.019
248.001	306.747	79.991	19.995	100.231	20.053	4.380	0.983
248.501	307.238	79.994	19.995	100.230	20.053	4.356	0.948
249.001	307.754	79.993	19.995	100.230	20.056	4.168	0.981
249.501	308.299	79.992	19.995	100.234	20.056	4.219	1.034
250.001	308.730	79.994	19.996	100.234	20.053	4.349	1.019
250.500	309.237	79.993	19.996	100.233	20.052	4.455	0.957
251.000	309.734	79.994	19.995	100.234	20.056	4.205	0.971
251.500	310.230	79.993	19.995	100.235	20.054	4.331	0.998
252.000	310.729	79.993	19.997	100.235	20.054	4.307	0.994
252.500	311.239	79.994	19.995	100.239	20.055	4.231	1.002
253.000	311.720	79.995	19.995	100.240	20.056	4.212	1.000
253.500	312.228	79.993	19.995	100.240	20.052	4.433	0.990
254.001	312.760	79.993	19.996	100.237	20.053	4.374	1.015
254.501	313.245	79.994	19.995	100.231	20.055	4.272	1.029
255.000	313.744	79.994	19.995	100.227	20.054	4.291	1.000
255.500	314.234	79.993	19.995	100.224	20.053	4.361	0.986
256.000	314.755	79.993	19.995	100.221	20.055	4.273	1.000
256.500	315.245	79.991	19.994	100.220	20.051	4.479	1.011
257.000	315.756	79.995	19.996	100.221	20.053	4.355	1.006
257.500	316.239	79.993	19.995	100.224	20.058	4.086	0.997
258.000	316.772	79.994	19.996	100.226	20.054	4.310	1.005
258.500	317.255	79.994	19.995	100.229	20.053	4.390	1.016
259.000	317.732	79.992	19.996	100.233	20.051	4.514	0.988
259.500	318.270	79.993	19.996	100.237	20.052	4.436	0.988
260.000	318.763	79.993	19.996	100.236	20.054	4.290	1.023
260.500	319.215	79.993	19.995	100.234	20.051	4.534	0.988
261.000	319.731	79.994	19.996	100.229	20.052	4.450	0.957
261.500	320.250	79.994	19.995	100.222	20.051	4.517	1.001
262.000	320.782	79.994	19.995	100.216	20.053	4.375	1.043
262.500	321.226	79.995	19.995	100.216	20.054	4.294	1.013
263.000	321.751	79.993	19.996	100.217	20.052	4.441	0.972
263.500	322.286	79.995	19.996	100.221	20.053	4.355	1.015
264.000	322.751	79.995	19.995	100.226	20.050	4.598	1.030
264.500	323.277	79.992	19.997	100.229	20.053	4.400	0.995
265.000	323.766	79.994	19.996	100.226	20.054	4.345	1.003
265.500	324.256	79.993	19.996	100.221	20.050	4.564	0.997
266.000	324.783	79.995	19.995	100.215	20.052	4.438	0.998
266.500	325.250	79.994	19.996	100.210	20.051	4.496	1.005
267.000	325.782	79.993	19.995	100.208	20.052	4.472	0.996
267.500	326.278	79.993	19.996	100.208	20.054	4.338	1.013
268.000	326.789	79.994	19.995	100.211	20.048	4.695	1.018
268.500	327.283	79.994	19.996	100.211	20.050	4.562	1.006
269.000	327.780	79.993	19.995	100.216	20.047	4.744	0.998
269.500	328.308	79.993	19.994	100.221	20.048	4.663	1.008
270.000	328.808	79.992	19.995	100.223	20.045	4.877	1.026
270.500	329.313	79.993	19.995	100.220	20.048	4.710	1.016
271.000	329.811	79.993	19.995	100.222	20.045	4.910	1.004
271.500	330.314	79.994	19.994	100.221	20.046	4.830	1.002
272.000	330.829	79.995	19.996	100.216	20.046	4.797	1.010
272.500	331.300	79.993	19.995	100.214	20.047	4.739	1.002
273.000	331.841	79.993	19.995	100.213	20.046	4.803	0.999
273.500	332.349	79.994	19.996	100.212	20.050	4.568	1.030
274.000	332.838	79.990	19.996	100.207	20.047	4.767	1.023
274.500	333.349	79.993	19.996	100.209	20.047	4.786	0.999
275.000	333.876	79.993	19.994	100.213	20.047	4.731	1.019
275.500	334.390	79.993	19.995	100.217	20.046	4.839	1.040
276.000	334.893	79.994	19.996	100.219	20.048	4.722	1.029
276.500	335.406	79.993	19.995	100.221	20.047	4.761	1.017
277.000	335.920	79.995	19.995	100.223	20.047	4.760	1.021
277.500	336.410	79.994	19.995	100.219	20.046	4.849	1.015
278.000	336.907	79.993	19.995	100.219	20.045	4.860	0.995
278.500	337.393	79.992	19.995	100.221	20.047	4.762	0.985
279.000	337.945	79.993	19.995	100.221	20.044	4.939	1.010
279.500	338.453	79.994	19.996	100.217	20.045	4.901	1.049
280.000	338.933	79.992	19.995	100.217	20.046	4.794	1.024
280.500	339.442	79.992	19.995	100.214	20.045	4.877	0.988
281.000	339.916	79.993	19.995	100.213	20.047	4.777	0.986
281.500	340.453	79.994	19.994	100.212	20.045	4.890	0.997
282.000	340.956	79.993	19.995	100.211	20.047	4.747	1.026
282.500	341.443	79.994	19.994	100.210	20.045	4.859	1.015
283.000	341.932	79.992	19.995	100.210	20.045	4.883	0.983
283.500	342.446	79.993	19.995	100.208	20.046	4.820	0.990
284.000	342.952	79.994	19.995	100.210	20.045	4.904	1.012
284.500	343.464	79.994	19.995	100.210	20.047	4.737	1.019
285.000	343.968	79.993	19.995	100.218	20.045	4.852	1.017
285.500	344.443	79.993	19.995	100.220	20.043	5.001	0.998
286.000	344.959	79.993	19.995	100.220	20.042	5.092	0.985
286.500	345.480	79.993	19.995	100.218	20.044	4.930	1.014
287.000	345.980	79.995	19.995	100.218	20.044	4.925	1.029
287.500	346.497	79.994	19.995	100.210	20.043	5.034	1.020
288.000	347.006	79.996	19.996	100.210	20.045	4.909	1.022
288.500	347.514	79.994	19.995	100.211	20.043	4.989	1.022
289.000	348.009	79.992	19.996	100.211	20.042	5.058	1.009
289.500	348.510	79.994	19.995	100.216	20.046	4.829	0.999
290.000	349.022	79.993	19.996	100.217	20.041	5.130	1.005
290.500	349.550	79.995	19.996	100.214	20.043	5.029	1.026
291.000	350.066	79.993	19.996	100.213	20.043	5.018	1.042
291.501	350.568	79.994	19.996	100.212	20.043	5.040	1.031
292.001	351.062	79.995	19.996	100.207	20.044	4.940	1.007
292.500	351.591	79.994	19.996	100.207	20.043	5.018	1.009
293.000	352.079	79.994	19.996	100.206	20.043	5.035	1.020
293.500	352.605	79.994	19.996	100.206	20.042	5.089	1.015
294.000	353.112	79.996	19.996	100.205	20.040	5.216	1.023
294.500	353.635	79.995	19.995	100.204	20.038	5.349	1.032
295.000	354.183	79.994	19.995	100.203	20.040	5.222	1.050
295.500	354.672	79.994	19.997	100.202	20.040	5.225	1.054
296.000	355.182	79.992	19.996	100.203	20.039	5.287	1.018
296.500	355.708	79.994	19.995	100.207	20.036	5.469	1.018
297.000	356.188	79.994	19.997	100.209	20.036	5.454	1.021
297.500	356.693	79.995	19.997	100.211	20.037	5.404	0.996
298.000	357.203	79.994	19.996	100.213	20.039	5.252	1.000
298.500	357.734	79.994	19.996	100.212	20.036	5.435	1.028
299.000	358.234	79.996	19.997	100.209	20.038	5.309	1.035
299.500	358.757	79.995	19.995	100.208	20.038	5.319	1.027
300.000	359.207	79.995	19.996	100.211	20.035	5.540	0.999
300.500	359.772	79.995	19.995	100.214	20.036	5.479	0.994
301.000	360.274	79.994	19.996	100.216	20.036	5.469	1.041
301.500	360.771	79.993	19.996	100.215	20.039	5.292	1.033
302.000	361.291	79.995	19.996	100.214	20.033	5.635	1.008
302.500	361.776	79.996	19.996	100.209	20.033	5.658	1.011
303.000	362.296	79.995	19.996	100.205	20.031	5.783	1.005
303.500	362.820	79.996	19.996	100.206	20.032	5.735	1.025
304.001	363.301	79.994	19.996	100.211	20.031	5.752	1.024
304.500	363.817	79.994	19.995	100.214	20.029	5.905	1.001
305.000	364.322	79.994	19.996	100.215	20.027	6.022	1.009
305.500	364.824	79.995	19.996	100.218	20.027	6.045	1.014
306.000	365.351	79.995	19.996	100.215	20.025	6.144	1.018
306.500	365.857	79.996	19.996	100.211	20.025	6.160	1.030
307.000	366.352	79.995	19.995	100.209	20.024	6.191	1.017
307.500	366.900	79.995	19.995	100.207	20.024	6.215	1.022
308.000	367.401	79.994	19.996	100.207	20.024	6.234	1.046
308.500	367.896	79.995	19.996	100.208	20.023	6.302	1.022
309.000	368.389	79.994	19.996	100.207	20.019	6.543	0.992
309.500	368.914	79.996	19.996	100.207	20.020	6.438	1.003
310.000	369.403	79.996	19.995	100.207	20.017	6.681	1.016
310.500	369.913	79.994	19.996	100.204	20.017	6.678	1.007
311.000	370.452	79.996	19.996	100.203	20.013	6.899	1.024
311.500	370.927	79.996	19.996	100.203	20.012	6.949	1.031
312.000	371.462	79.996	19.995	100.208	20.011	7.027	1.012
312.500	371.952	79.997	19.997	100.215	20.010	7.081	1.017
313.000	372.487	79.997	19.996	100.215	20.008	7.216	1.025
313.500	373.015	79.996	19.995	100.215	20.006	7.347	1.044
314.000	373.512	79.996	19.996	100.214	20.004	7.456	1.044
314.500	374.011	79.996	19.996	100.209	20.002	7.574	1.011
315.000	374.557	79.996	19.996	100.203	20.000	7.748	1.021
315.500	375.077	79.996	19.996	100.203	20.000	7.731	1.055
316.000	375.544	79.997	19.996	100.203	19.997	7.894	1.026
316.500	376.053	79.995	19.996	100.202	19.994	8.133	0.982
317.000	376.591	79.996	19.997	100.201	19.992	8.263	1.012
317.500	377.097	79.996	19.996	100.200	19.991	8.329	1.046
318.000	377.544	79.995	19.996	100.200	19.989	8.408	0.998
318.500	378.101	79.995	19.997	100.202	19.988	8.463	0.978
319.000	378.627	79.996	19.996	100.205	19.987	8.587	1.043
319.500	379.070	79.994	19.997	100.210	19.983	8.820	1.026
320.000	379.602	79.995	19.997	100.212	19.982	8.882	0.972
320.500	380.130	79.996	19.996	100.216	19.979	9.088	1.017
321.000	380.640	79.996	19.997	100.218	19.976	9.269	1.049
321.501	381.162	79.994	19.996	100.221	19.972	9.492	1.035
322.000	381.643	79.994	19.997	100.224	19.971	9.559	1.018
322.500	382.146	79.992	19.997	100.228	19.968	9.730	0.994
323.000	382.677	79.995	19.996	100.231	19.965	9.957	1.009
323.500	383.174	79.993	19.997	100.234	19.962	10.142	1.031
324.000	383.709	79.993	19.996	100.229	19.957	10.438	1.030
324.500	384.182	79.995	19.996	100.227	19.955	10.568	1.020
325.000	384.686	79.993	19.997	100.226	19.954	10.662	0.993
325.500	385.205	79.995	19.996	100.222	19.951	10.855	1.000
326.000	385.673	79.993	19.996	100.220	19.950	10.906	1.005
326.500	386.188	79.993	19.996	100.225	19.946	11.141	0.985
327.000	386.700	79.992	19.995	100.225	19.940	11.553	1.005
327.500	387.236	79.994	19.996	100.227	19.940	11.526	1.038
328.000	387.732	79.993	19.995	100.231	19.932	12.044	1.040
328.500	388.275	79.992	19.996	100.234	19.930	12.144	1.036
329.000	388.754	79.992	19.996	100.235	19.926	12.444	1.031
329.500	389.283	79.994	19.996	100.233	19.919	12.854	1.015
330.000	389.777	79.994	19.995	100.235	19.920	12.833	1.015
330.500	390.294	79.995	19.995	100.236	19.914	13.189	1.017
331.000	390.828	79.995	19.995	100.238	19.911	13.402	1.031
331.500	391.329	79.993	19.995	100.242	19.904	13.806	1.043
332.000	391.832	79.994	19.995	100.248	19.900	14.045	1.019
332.500	392.349	79.993	19.996	100.248	19.898	14.209	1.012
333.000	392.826	79.993	19.995	100.248	19.891	14.672	1.007
333.500	393.387	79.995	19.995	100.248	19.882	15.198	1.016
334.000	393.904	79.992	19.995	100.250	19.877	15.508	1.058
334.500	394.408	79.994	19.995	100.249	19.874	15.754	1.050
335.000	394.912	79.994	19.995	100.252	19.865	16.292	1.015
335.500	395.441	79.994	19.995	100.256	19.860	16.620	1.020
336.000	395.968	79.993	19.996	100.263	19.856	16.857	1.044
336.500	396.460	79.995	19.995	100.266	19.847	17.428	1.037
337.000	396.947	79.994	19.997	100.272	19.838	17.987	0.999
337.500	397.467	79.995	19.995	100.276	19.831	18.436	0.993
338.000	397.975	79.993	19.996	100.278	19.822	19.004	1.017
338.500	398.495	79.995	19.996	100.279	19.814	19.570	1.027
339.000	398.988	79.994	19.995	100.282	19.805	20.099	1.021
339.500	399.500	79.994	19.995	100.283	19.795	20.736	1.010
340.000	400.049	79.994	19.996	100.288	19.782	21.561	1.033
340.500	400.497	79.995	19.995	100.297	19.773	22.155	1.029
341.000	401.046	79.994	19.996	100.304	19.764	22.708	0.997
341.500	401.541	79.993	19.996	100.310	19.751	23.516	1.020
342.000	402.026	79.994	19.995	100.319	19.739	24.312	1.012
342.500	402.552	79.993	19.995	100.323	19.726	25.111	0.996
343.000	403.051	79.994	19.995	100.325	19.712	26.017	1.018
343.500	403.542	79.994	19.995	100.327	19.697	26.959	1.007
344.000	404.057	79.993	19.995	100.333	19.681	28.012	0.998
344.500	404.577	79.995	19.996	100.339	19.666	28.948	1.021
345.000	405.056	79.994	19.995	100.347	19.651	29.892	1.017
345.500	405.574	79.995	19.995	100.354	19.634	30.983	0.998
346.000	406.079	79.994	19.994	100.361	19.620	31.903	1.010
346.500	406.595	79.995	19.995	100.363	19.598	33.248	1.022
347.000	407.071	79.995	19.995	100.370	19.583	34.207	1.007
347.500	407.583	79.993	19.996	100.377	19.562	35.556	0.990
348.000	408.119	79.995	19.995	100.385	19.544	36.721	1.018
348.501	408.640	79.994	19.996	100.394	19.524	37.994	1.052
349.001	409.147	79.992	19.995	100.404	19.500	39.485	1.043
349.500	409.641	79.995	19.995	100.412	19.481	40.712	1.015
350.000	410.182	79.994	19.995	100.420	19.457	42.257	1.018
350.500	410.707	79.993	19.996	100.430	19.440	43.347	1.051
351.000	411.178	79.994	19.995	100.437	19.419	44.649	1.030
351.500	411.679	79.992	19.996	100.443	19.400	45.866	0.984
352.000	412.175	79.992	19.995	100.444	19.384	46.881	0.985
352.500	412.694	79.993	19.995	100.442	19.365	48.053	1.006
353.000	413.204	79.994	19.995	100.440	19.347	49.247	1.022
353.500	413.715	79.993	19.995	100.439	19.322	50.812	1.025
354.000	414.257	79.994	19.996	100.443	19.303	52.012	1.037
354.500	414.750	79.993	19.996	100.451	19.280	53.452	1.044
355.000	415.260	79.994	19.996	100.460	19.254	55.099	1.019
355.500	415.774	79.994	19.995	100.471	19.226	56.897	1.014
356.000	416.316	79.993	19.996	100.484	19.194	58.923	1.040
356.500	416.826	79.994	19.995	100.489	19.163	60.896	1.054
357.000	417.314	79.994	19.996	100.496	19.129	63.107	1.025
357.500	417.857	79.993	19.996	100.508	19.096	65.256	1.014
358.000	418.366	79.994	19.995	100.507	19.068	67.104	1.042
358.500	418.899	79.992	19.996	100.514	19.041	68.801	1.047
359.001	419.424	79.994	19.995	100.542	19.015	70.498	1.050
359.500	419.938	79.994	19.996	100.553	18.995	71.792	1.048
360.000	420.475	79.994	19.996	100.550	18.974	73.135	1.045
360.500	420.970	79.995	19.996	100.562	18.953	74.492	1.041
361.000	421.490	79.996	19.996	100.564	18.931	75.895	1.024
361.500	422.006	79.994	19.996	100.549	18.909	77.309	1.026
362.000	422.528	79.995	19.996	100.545	18.890	78.490	1.037
362.500	423.054	79.995	19.996	100.544	18.865	80.152	1.043
363.000	423.568	79.994	19.996	100.546	18.846	81.337	1.044
363.500	424.081	79.995	19.995	100.543	18.823	82.842	1.034
364.000	424.593	79.994	19.996	100.533	18.804	84.023	1.026
364.500	425.109	79.995	19.995	100.522	18.781	85.496	1.027
365.000	425.632	79.996	19.995	100.514	18.758	87.014	1.033
365.500	426.158	79.995	19.995	100.495	18.737	88.333	1.043
366.000	426.652	79.997	19.995	100.482	18.713	89.887	1.034
366.500	427.224	79.995	19.996	100.496	18.689	91.449	1.043
367.000	427.704	79.996	19.996	100.523	18.662	93.188	1.059
367.500	428.234	79.997	19.995	100.568	18.631	95.175	1.031
368.000	428.735	79.998	19.995	100.633	18.600	97.164	1.020
368.500	429.277	79.997	19.995	100.702	18.565	99.417	1.037
369.000	429.800	79.996	19.996	100.753	18.526	101.899	1.054
369.500	430.294	79.996	19.995	100.793	18.483	104.672	1.041
370.000	430.828	79.996	19.995	100.817	18.442	107.317	1.022
370.500	431.358	79.996	19.994	100.838	18.396	110.259	1.046
371.000	431.843	79.996	19.996	100.856	18.341	113.813	1.040
371.500	432.343	79.996	19.995	100.865	18.294	116.863	1.000
372.000	432.889	79.994	19.995	100.873	18.244	120.127	1.015
372.500	433.410	79.996	19.996	100.886	18.194	123.426	1.056
373.000	433.919	79.995	19.995	100.900	18.148	126.493	1.048
373.500	434.474	79.996	19.996	100.920	18.099	129.758	1.047
374.000	434.949	79.995	19.996	100.934	18.047	133.210	1.047
374.500	435.445	79.994	19.996	100.949	17.994	136.703	1.000
375.000	435.983	79.996	19.996	100.963	17.937	140.434	1.002
375.501	436.523	79.995	19.995	100.970	17.875	144.406	1.056
376.001	437.005	79.995	19.996	100.966	17.814	148.256	1.050
376.500	437.523	79.995	19.994	100.977	17.750	152.379	1.011
377.000	438.009	79.995	19.996	101.007	17.685	156.491	1.003
377.500	438.513	79.994	19.996	101.035	17.615	160.903	0.997
378.000	439.015	79.997	19.996	101.042	17.544	165.470	0.998
378.500	439.556	79.995	19.995	101.046	17.476	169.807	1.024
379.000	440.051	79.995	19.996	101.061	17.408	174.159	1.039
379.500	440.560	79.997	19.997	101.082	17.346	178.010	1.020
380.000	441.078	79.995	19.996	101.070	17.287	181.576	1.015
380.500	441.556	79.996	19.995	101.092	17.222	185.442	1.011
381.000	442.075	79.993	19.996	101.129	17.144	190.143	0.997
381.501	442.577	79.995	19.996	101.159	17.052	195.811	1.009
382.000	443.073	79.997	19.996	101.176	16.942	202.828	1.010
382.500	443.571	79.994	19.996	101.231	16.817	210.957	0.996
383.000	444.092	79.996	19.996	101.268	16.683	219.895	1.006
383.500	444.621	79.995	19.997	101.344	16.554	228.538	1.034
384.000	445.116	79.994	19.996	101.453	16.426	237.070	1.037
384.500	445.626	79.995	19.996	101.547	16.307	245.004	1.015
385.000	446.105	79.994	19.997	101.630	16.192	252.627	0.997
385.500	446.623	79.995	19.996	101.714	16.089	259.410	0.993
386.000	447.121	79.994	19.996	101.749	15.995	265.535	1.007
386.501	447.602	79.995	19.996	101.736	15.910	271.064	0.998
387.000	448.130	79.995	19.996	101.718	15.831	276.175	0.994
387.500	448.626	79.996	19.996	101.694	15.761	280.697	1.016
388.000	449.133	79.996	19.995	101.659	15.700	284.637	1.013
388.501	449.594	79.995	19.996	101.628	15.642	288.388	0.985
389.000	450.111	79.996	19.995	101.608	15.589	291.796	0.973
389.500	450.636	79.996	19.995	101.598	15.542	294.877	1.011
390.000	451.132	79.995	19.996	101.580	15.499	297.582	1.032
390.500	451.633	79.997	19.996	101.524	15.463	299.892	1.009
391.000	452.152	79.997	19.995	101.397	15.424	302.321	1.008
391.500	452.655	79.996	19.995	101.236	15.394	304.211	1.021
392.000	453.132	79.996	19.995	101.083	15.361	306.192	1.001
392.500	453.630	79.997	19.996	100.982	15.334	307.817	0.978
393.000	454.120	79.996	19.995	100.974	15.306	309.530	0.981
393.500	454.603	79.996	19.995	101.067	15.280	311.153	0.980
394.000	455.151	79.996	19.995	101.227	15.251	312.988	1.002
394.500	455.625	79.997	19.995	101.407	15.229	314.359	1.027
395.000	456.163	79.997	19.995	101.568	15.207	315.830	1.017
395.500	456.653	79.996	19.995	101.691	15.185	317.224	1.020
396.000	457.157	79.998	19.996	101.780	15.165	318.483	1.011
396.500	457.657	79.997	19.996	101.837	15.143	319.769	0.999
397.000	458.125	79.997	19.995	101.868	15.131	320.515	0.986
397.500	458.667	79.996	19.996	101.882	15.118	321.259	0.989
398.000	459.150	79.996	19.995	101.891	15.105	322.070	1.017
398.500	459.662	79.995	19.995	101.903	15.098	322.484	1.010
399.000	460.143	79.995	19.995	101.915	15.089	323.036	0.994
399.500	460.671	79.994	19.996	101.921	15.091	322.867	1.001
400.000	461.122	79.995	19.996	101.927	15.086	323.103	0.994
400.500	461.631	79.993	19.995	101.931	15.091	322.752	0.970
401.000	462.134	79.996	19.995	101.924	15.095	322.451	0.986
401.500	462.630	79.994	19.996	101.908	15.101	321.991	1.005
402.000	463.130	79.992	19.996	101.888	15.118	320.863	0.998
402.500	463.685	79.993	19.996	101.864	15.133	319.847	1.026
403.000	464.134	79.992	19.996	101.834	15.151	318.596	1.029
403.500	464.651	79.992	19.997	101.798	15.179	316.732	0.984
404.000	465.110	79.993	19.996	101.764	15.202	315.159	0.971
404.500	465.626	79.993	19.996	101.744	15.236	312.946	0.976
405.000	466.125	79.993	19.997	101.733	15.270	310.716	0.995
405.500	466.617	79.993	19.996	101.728	15.310	308.045	1.003
406.000	467.105	79.994	19.996	101.734	15.351	305.370	0.985
406.500	467.637	79.994	19.996	101.735	15.393	302.661	1.000
407.000	468.135	79.991	19.996	101.721	15.446	299.194	1.025
407.500	468.593	79.991	19.996	101.695	15.500	295.676	0.993
408.000	469.102	79.992	19.996	101.669	15.555	292.141	0.961
408.500	469.594	79.993	19.997	101.649	15.612	288.403	0.984
409.000	470.150	79.992	19.997	101.633	15.673	284.421	1.024
409.500	470.634	79.992	19.997	101.620	15.740	280.131	1.044
410.000	471.143	79.993	19.996	101.613	15.804	275.930	1.017
410.500	471.627	79.992	19.997	101.607	15.876	271.270	0.993
411.000	472.142	79.993	19.996	101.589	15.948	266.652	0.996
411.500	472.631	79.994	19.996	101.572	16.023	261.808	1.001
412.000	473.085	79.993	19.997	101.556	16.099	256.863	0.973
412.500	473.655	79.992	19.996	101.542	16.178	251.810	0.984
413.000	474.136	79.993	19.996	101.520	16.259	246.568	1.038
413.500	474.642	79.993	19.996	101.500	16.340	241.336	1.019
414.000	475.137	79.992	19.996	101.476	16.423	236.026	0.994
414.500	475.650	79.995	19.996	101.454	16.507	230.577	1.005
415.000	476.159	79.994	19.997	101.428	16.593	225.077	1.015
415.500	476.635	79.991	19.996	101.402	16.675	219.784	1.003
416.000	477.135	79.994	19.996	101.382	16.768	213.874	0.980
416.500	477.643	79.993	19.997	101.362	16.852	208.436	0.992
417.000	478.130	79.993	19.996	101.342	16.940	202.771	1.002
417.500	478.645	79.995	19.996	101.326	17.029	197.067	0.999
418.000	479.170	79.994	19.995	101.307	17.111	191.829	1.021
418.500	479.665	79.995	19.995	101.289	17.201	186.013	1.029
419.000	480.174	79.992	19.995	101.270	17.288	180.477	1.012
419.500	480.655	79.994	19.996	101.250	17.368	175.330	0.997
420.000	481.138	79.994	19.995	101.226	17.452	169.956	0.977
420.500	481.656	79.996	19.996	101.207	17.538	164.408	0.982
421.000	482.168	79.992	19.995	101.184	17.616	159.450	1.015
421.500	482.668	79.994	19.996	101.162	17.696	154.277	1.021
422.000	483.193	79.994	19.996	101.143	17.771	149.500	1.019
422.500	483.678	79.995	19.996	101.122	17.850	144.429	1.017
423.000	484.156	79.993	19.996	101.098	17.929	139.394	0.986
423.500	484.673	79.994	19.995	101.074	18.005	134.575	0.979
424.000	485.136	79.995	19.995	101.053	18.077	129.955	0.988
424.500	485.675	79.994	19.996	101.032	18.147	125.467	0.991
425.000	486.182	79.996	19.995	101.014	18.217	121.014	1.024
425.500	486.699	79.996	19.995	100.998	18.285	116.649	1.035
426.000	487.233	79.995	19.994	100.983	18.350	112.527	1.037
426.500	487.680	79.993	19.995	100.965	18.413	108.511	1.016
427.000	488.203	79.994	19.995	100.947	18.478	104.330	0.976
427.500	488.725	79.994	19.995	100.926	18.538	100.548	1.008
428.000	489.194	79.992	19.996	100.902	18.598	96.701	1.018
428.500	489.745	79.993	19.995	100.878	18.655	93.060	1.005
429.000	490.199	79.995	19.996	100.855	18.714	89.371	1.013
429.500	490.726	79.995	19.996	100.831	18.766	86.062	0.993
430.000	491.237	79.995	19.996	100.809	18.818	82.698	1.009
430.500	491.726	79.995	19.995	100.788	18.868	79.529	1.019
431.000	492.226	79.994	19.996	100.766	18.918	76.381	0.995
431.500	492.715	79.995	19.995	100.745	18.966	73.305	0.989
432.000	493.231	79.995	19.994	100.723	19.015	70.220	0.997
432.500	493.745	79.994	19.995	100.702	19.057	67.537	1.017
433.000	494.248	79.995	19.995	100.680	19.098	64.939	1.023
433.500	494.777	79.994	19.996	100.664	19.138	62.371	1.025
434.000	495.311	79.995	19.995	100.644	19.178	59.824	1.048
434.500	495.775	79.994	19.996	100.628	19.218	57.276	1.031
435.000	496.291	79.994	19.995	100.609	19.256	54.896	0.989
435.500	496.798	79.994	19.996	100.594	19.292	52.589	1.001
436.000	497.322	79.996	19.996	100.574	19.329	50.271	1.027
436.501	497.822	79.994	19.995	100.556	19.359	48.371	1.027
437.001	498.354	79.993	19.995	100.534	19.389	46.418	1.028
437.500	498.820	79.994	19.996	100.517	19.417	44.669	1.015
438.000	499.335	79.993	19.995	100.500	19.449	42.610	0.989
438.500	499.848	79.995	19.996	100.486	19.481	40.618	1.004
439.000	500.312	79.993	19.995	100.472	19.504	39.137	1.003
439.500	500.855	79.994	19.995	100.463	19.530	37.516	0.992
440.000	501.354	79.995	19.996	100.454	19.558	35.718	1.025
440.500	501.873	79.995	19.996	100.446	19.578	34.480	1.030
441.000	502.375	79.995	19.996	100.439	19.600	33.055	1.019
441.500	502.879	79.993	19.996	100.433	19.624	31.522	1.013
442.000	503.370	79.993	19.995	100.425	19.643	30.365	1.000
442.500	503.887	79.996	19.995	100.412	19.663	29.087	1.001
443.000	504.393	79.995	19.996	100.395	19.682	27.843	1.016
443.500	504.893	79.996	19.996	100.376	19.700	26.732	1.015
444.000	505.438	79.996	19.995	100.358	19.715	25.760	1.026
444.500	505.916	79.994	19.995	100.344	19.731	24.735	1.034
445.000	506.424	79.995	19.996	100.333	19.747	23.727	1.005
445.500	506.885	79.995	19.996	100.328	19.762	22.770	0.978
446.000	507.452	79.994	19.995	100.325	19.779	21.731	0.998
446.500	507.929	79.994	19.995	100.324	19.789	21.065	1.036
447.000	508.445	79.996	19.996	100.320	19.801	20.328	1.019
447.500	508.978	79.996	19.995	100.315	19.814	19.504	1.021
448.000	509.492	79.996	19.995	100.307	19.823	18.956	1.048
448.500	509.978	79.996	19.995	100.300	19.834	18.250	1.023
449.000	510.474	79.996	19.995	100.291	19.844	17.606	0.991
449.500	510.953	79.995	19.995	100.282	19.852	17.080	0.979
450.001	511.472	79.996	19.995	100.271	19.864	16.311	0.987
450.500	511.973	79.997	19.994	100.261	19.869	16.009	1.009
451.000	512.477	79.997	19.995	100.252	19.877	15.493	1.012
451.500	512.972	79.995	19.995	100.246	19.885	15.021	1.002
452.000	513.505	79.996	19.995	100.242	19.889	14.732	1.013
452.500	514.040	79.997	19.995	100.240	19.901	14.021	1.048
453.000	514.566	79.995	19.995	100.239	19.907	13.582	1.065
453.501	515.029	79.996	19.995	100.237	19.911	13.389	1.025
454.000	515.587	79.997	19.996	100.234	19.917	12.991	1.005
454.500	516.062	79.996	19.995	100.228	19.922	12.664	1.027
455.000	516.597	79.995	19.995	100.224	19.928	12.306	1.021
455.500	517.123	79.997	19.995	100.218	19.933	11.987	1.035
456.000	517.604	79.996	19.995	100.212	19.938	11.657	1.034
456.500	518.153	79.995	19.995	100.208	19.942	11.396	1.018
457.000	518.638	79.996	19.995	100.206	19.943	11.308	1.032
457.500	519.134	79.996	19.995	100.206	19.948	11.007	1.008
458.000	519.664	79.995	19.996	100.205	19.951	10.796	1.003
458.500	520.172	79.995	19.995	100.206	19.954	10.660	1.032
459.000	520.714	79.995	19.995	100.205	19.958	10.359	1.044
459.500	521.185	79.994	19.994	100.200	19.962	10.140	1.031
460.000	521.702	79.994	19.995	100.192	19.965	9.940	1.001
460.500	522.210	79.994	19.995	100.187	19.968	9.784	1.007
461.000	522.708	79.993	19.994	100.184	19.971	9.534	1.015
461.500	523.229	79.995	19.995	100.177	19.971	9.580	1.013
462.000	523.721	79.995	19.995	100.176	19.973	9.422	1.016
462.501	524.238	79.994	19.996	100.175	19.975	9.327	1.011
463.000	524.766	79.994	19.996	100.174	19.977	9.208	1.027
463.500	525.292	79.996	19.995	100.169	19.979	9.045	1.050
464.000	525.819	79.995	19.995	100.168	19.978	9.091	1.053
464.500	526.327	79.996	19.995	100.168	19.980	8.986	1.044
465.000	526.815	79.996	19.996	100.168	19.982	8.865	1.016
465.500	527.331	79.996	19.995	100.170	19.986	8.642	1.000
466.000	527.875	79.995	19.996	100.172	19.986	8.588	1.032
466.500	528.387	79.996	19.996	100.173	19.990	8.337	1.058
467.000	528.885	79.997	19.995	100.172	19.991	8.306	1.033
467.500	529.356	79.997	19.995	100.172	19.989	8.438	0.990
468.000	529.920	79.994	19.996	100.169	19.987	8.524	1.002
468.500	530.396	79.995	19.996	100.166	19.993	8.186	1.038
469.000	530.926	79.995	19.996	100.165	19.994	8.095	1.023
469.500	531.446	79.997	19.996	100.165	19.982	8.860	1.028
470.000	531.975	79.996	19.996	100.165	19.980	8.971	1.050
470.500	532.497	79.997	19.996	100.165	19.985	8.668	1.050
471.000	532.975	79.996	19.995	100.166	20.002	7.627	1.025
471.500	533.499	79.995	19.996	100.166	19.987	8.542	1.001
472.000	534.004	79.997	19.996	100.166	19.997	7.904	1.015
472.500	534.534	79.995	19.996	100.167	19.996	7.983	1.032
473.000	535.060	79.996	19.996	100.167	19.999	7.827	1.045
473.501	535.546	79.996	19.996	100.167	19.999	7.780	1.034
474.001	536.090	79.996	19.996	100.167	19.997	7.909	1.022
474.500	536.670	79.996	19.995	100.167	20.001	7.688	1.077
475.000	537.086	79.996	19.995	100.166	19.999	7.787	1.060
475.500	537.627	79.996	19.996	100.165	20.000	7.756	0.976
476.000	538.136	79.997	19.995	100.165	19.999	7.783	1.004
476.500	538.688	79.996	19.996	100.165	19.998	7.876	1.055
477.000	539.201	79.997	19.996	100.166	20.002	7.623	1.063
477.500	539.663	79.995	19.995	100.166	19.997	7.936	1.020
478.000	540.209	79.995	19.996	100.167	19.999	7.790	0.992
478.500	540.668	79.995	19.995	100.166	19.997	7.941	1.006
479.000	541.261	79.996	19.995	100.163	19.998	7.830	1.028
479.500	541.681	79.996	19.995	100.157	19.996	7.971	1.033
480.000	542.163	79.997	19.995	100.121	19.997	7.928	0.958
480.500	542.812	79.995	19.995	100.101	19.999	7.816	1.017
481.001	543.287	79.995	19.995	100.093	19.997	7.897	1.127
481.501	543.771	79.996	19.996	100.094	19.999	7.788	1.041
482.000	544.279	79.995	19.996	100.098	19.998	7.845	0.975
482.500	544.793	79.995	19.996	100.145	19.996	7.954	1.007
483.000	545.287	79.994	19.996	100.209	20.000	7.735	1.016
483.500	545.412	79.995	19.996	100.227	20.001	7.642	0.814
484.000	546.209	79.998	19.995	100.230	20.000	7.740	0.770
484.500	546.438	79.997	19.995	100.231	20.003	7.520	0.974
485.000	547.441	79.994	19.997	100.220	20.000	7.711	1.129
485.500	547.540	79.994	19.996	100.175	20.003	7.508	1.167
486.000	548.479	79.994	19.996	100.165	20.001	7.653	1.070
486.500	548.853	79.995	19.997	100.164	20.006	7.358	1.175
487.000	549.413	79.994	19.996	100.160	20.004	7.492	1.124
487.500	549.976	79.994	19.997	100.158	20.001	7.666	1.028
488.000	550.490	79.994	19.997	100.154	20.002	7.621	1.100
488.500	550.913	79.993	19.996	100.152	20.003	7.524	1.007
489.000	551.456	79.993	19.997	100.153	20.003	7.536	0.952
489.500	551.944	79.994	19.995	100.156	20.000	7.730	0.998
490.000	552.388	79.993	19.997	100.158	19.999	7.768	0.981
490.500	553.030	79.995	19.996	100.161	20.002	7.587	1.009
491.000	553.490	79.995	19.997	100.160	20.004	7.496	1.094
491.500	553.942	79.994	19.996	100.160	20.002	7.589	1.007
492.000	554.498	79.995	19.996	100.160	20.002	7.578	0.960
492.500	555.083	79.995	19.996	100.160	20.007	7.306	1.075
493.000	555.564	79.994	19.996	100.161	20.002	7.593	1.103
493.500	556.109	79.994	19.997	100.163	20.001	7.692	1.046
494.000	556.574	79.993	19.996	100.163	19.999	7.805	1.018
494.500	557.100	79.993	19.998	100.163	20.000	7.698	1.001
495.000	557.576	79.993	19.996	100.163	20.000	7.734	0.997
495.500	558.098	79.994	19.996	100.163	20.004	7.466	1.000
496.000	558.611	79.995	19.996	100.162	20.000	7.732	1.016
496.500	559.151	79.995	19.997	100.162	19.998	7.849	1.044
497.000	559.631	79.993	19.997	100.161	20.004	7.454	1.037
497.500	560.131	79.995	19.997	100.161	20.002	7.578	1.000
498.000	560.642	79.993	19.997	100.160	19.999	7.773	0.995
498.500	561.176	79.995	19.996	100.158	20.004	7.497	1.028
499.000	561.683	79.995	19.997	100.152	20.003	7.557	1.043
499.500	562.250	79.995	19.996	100.150	20.003	7.508	1.058
500.000	562.690	79.993	19.997	100.148	20.003	7.515	1.041
500.500	563.252	79.994	19.997	100.142	20.003	7.559	1.005
501.000	563.762	79.994	19.996	100.141	20.001	7.683	1.037
501.500	564.243	79.994	19.997	100.144	19.999	7.814	1.031
502.000	564.758	79.994	19.997	100.142	19.999	7.815	0.993
502.500	565.283	79.995	19.997	100.145	19.997	7.917	1.018
503.000	565.771	79.995	19.996	100.152	19.997	7.891	1.027
503.500	566.258	79.995	19.997	100.155	19.998	7.879	0.995
504.000	566.757	79.994	19.996	100.155	19.999	7.786	0.981
504.500	567.277	79.995	19.997	100.154	20.001	7.678	1.002
505.000	567.794	79.995	19.996	100.151	19.998	7.869	1.028
505.500	568.317	79.995	19.997	100.151	20.000	7.702	1.038
506.000	568.816	79.994	19.996	100.151	19.998	7.824	1.031
506.500	569.348	79.994	19.997	100.153	19.996	7.979	1.027
507.000	569.830	79.995	19.996	100.158	19.997	7.926	1.023
507.500	570.355	79.996	19.995	100.160	20.002	7.610	1.010
508.000	570.868	79.994	19.996	100.160	19.997	7.892	1.022
508.500	571.363	79.995	19.996	100.158	20.000	7.716	1.023
509.000	571.883	79.995	19.996	100.158	19.998	7.842	1.011
509.500	572.368	79.994	19.995	100.158	20.002	7.630	1.010
510.000	572.872	79.995	19.995	100.157	19.997	7.916	0.997
510.500	573.446	79.995	19.997	100.158	19.997	7.901	1.033
511.000	573.955	79.994	19.996	100.159	19.997	7.901	1.081
511.500	574.501	79.995	19.995	100.159	19.993	8.191	1.069
512.000	575.009	79.994	19.996	100.155	19.999	7.768	1.054
512.500	575.508	79.993	19.996	100.150	20.000	7.721	1.031
513.000	576.055	79.993	19.995	100.150	19.999	7.776	1.027
513.500	576.536	79.993	19.994	100.150	19.998	7.833	1.037
514.000	577.053	79.995	19.995	100.151	20.000	7.711	1.013
514.500	577.541	79.992	19.995	100.154	19.999	7.785	1.002
515.000	578.053	79.993	19.995	100.154	19.997	7.916	1.003
515.500	578.594	79.994	19.995	100.152	19.999	7.769	1.027
516.001	579.109	79.995	19.994	100.151	19.997	7.896	1.055
516.500	579.599	79.994	19.995	100.152	20.002	7.605	1.030
517.000	580.106	79.992	19.995	100.153	19.999	7.789	1.000
517.500	580.625	79.991	19.996	100.153	19.998	7.867	1.011
518.000	581.130	79.993	19.996	100.152	20.000	7.733	1.025
518.500	581.673	79.992	19.995	100.148	19.999	7.809	1.037
519.000	582.157	79.994	19.995	100.142	20.000	7.727	1.038
519.500	582.651	79.994	19.995	100.137	19.998	7.882	1.002
520.000	583.171	79.994	19.995	100.136	19.997	7.896	0.996
520.500	583.647	79.995	19.995	100.134	19.998	7.879	1.005
521.000	584.167	79.993	19.996	100.140	20.000	7.714	0.996
521.500	584.687	79.995	19.996	100.143	19.999	7.786	1.018
522.000	585.155	79.992	19.995	100.149	20.000	7.696	1.015
522.500	585.695	79.995	19.996	100.155	20.000	7.731	0.998
523.000	586.187	79.994	19.995	100.161	19.999	7.813	1.019
523.500	586.704	79.995	19.996	100.158	19.997	7.925	1.021
524.000	587.216	79.997	19.997	100.156	19.997	7.890	1.019
524.500	587.759	79.995	19.995	100.155	20.000	7.708	1.042
525.000	588.234	79.997	19.996	100.154	20.000	7.710	1.036
525.500	588.761	79.995	19.996	100.155	19.994	8.080	1.010
526.000	589.284	79.996	19.997	100.157	20.002	7.625	1.027
526.500	589.797	79.995	19.996	100.156	19.996	7.968	1.043
527.000	590.306	79.996	19.995	100.152	19.996	7.974	1.029
527.500	590.801	79.996	19.996	100.147	19.992	8.234	1.013
528.000	591.346	79.996	19.996	100.141	19.986	8.604	1.022
528.500	591.846	79.997	19.996	100.134	19.992	8.209	1.042
529.000	592.294	79.995	19.995	100.132	19.998	7.864	0.997
529.500	592.818	79.995	19.995	100.134	19.997	7.910	0.960
530.000	593.376	79.995	19.995	100.140	19.995	8.062	1.027
530.500	593.905	79.997	19.996	100.144	19.992	8.222	1.085
531.000	594.415	79.996	19.996	100.145	19.995	8.055	1.063
531.500	594.886	79.996	19.996	100.149	19.994	8.106	1.010
532.000	595.411	79.995	19.996	100.151	19.994	8.082	0.988
532.500	595.931	79.996	19.995	100.148	19.996	7.993	1.020
533.000	596.455	79.995	19.996	100.144	19.992	8.236	1.045
533.500	596.947	79.996	19.995	100.147	19.997	7.940	1.030
534.000	597.467	79.995	19.995	100.146	19.995	8.036	1.014
534.500	597.972	79.995	19.996	100.140	19.994	8.088	1.018
535.000	598.458	79.995	19.994	100.139	19.997	7.919	1.008
535.500	598.948	79.995	19.994	100.145	19.995	8.016	0.983
536.000	599.457	79.995	19.996	100.149	19.994	8.107	0.988
536.500	599.959	79.994	19.996	100.150	19.991	8.277	1.005
537.000	600.449	79.994	19.996	100.155	19.992	8.241	1.002
537.500	600.974	79.994	19.995	100.159	19.990	8.341	1.004
538.000	601.485	79.994	19.996	100.158	19.994	8.077	1.025
538.500	602.007	79.995	19.996	100.154	19.993	8.190	1.034
539.000	602.507	79.994	19.995	100.151	19.993	8.152	1.028
539.500	602.991	79.994	19.994	100.147	19.993	8.166	1.003
540.000	603.529	79.994	19.995	100.140	19.994	8.102	1.003
540.500	604.013	79.995	19.996	100.133	19.993	8.149	1.022
541.000	604.574	79.994	19.994	100.131	19.995	8.037	1.034
541.500	605.055	79.993	19.995	100.131	19.990	8.358	1.044
542.000	604.834	79.995	19.994	100.129	19.992	8.210	0.651
542.500	605.931	79.994	19.994	100.130	19.995	8.070	0.568
543.000	606.557	79.994	19.994	100.132	19.992	8.251	1.299
543.500	607.067	79.994	19.995	100.132	19.990	8.339	1.429
544.000	607.585	79.995	19.996	100.132	19.991	8.267	1.082
544.500	608.050	79.994	19.995	100.134	19.993	8.160	1.006
545.000	608.591	79.996	19.994	100.134	19.992	8.205	0.994
545.500	609.066	79.996	19.995	100.132	19.993	8.194	1.011
546.000	609.606	79.996	19.995	100.133	19.994	8.106	1.016
546.500	610.107	79.995	19.994	100.134	19.993	8.160	1.028
547.000	610.616	79.996	19.996	100.132	19.995	8.062	1.025
547.500	611.101	79.996	19.995	100.132	19.993	8.170	1.002
548.000	611.637	79.996	19.995	100.131	19.992	8.221	1.008
548.500	612.153	79.996	19.996	100.130	19.993	8.186	1.037
549.000	612.676	79.996	19.995	100.133	19.990	8.371	1.045
549.500	613.134	79.995	19.995	100.137	19.993	8.180	1.010
550.000	613.662	79.996	19.996	100.139	19.993	8.182	0.984
550.500	614.161	79.996	19.995	100.143	19.995	8.049	1.007
551.000	614.680	79.997	19.995	100.144	19.994	8.127	1.022
551.500	615.196	79.997	19.995	100.144	19.992	8.257	1.026
552.000	615.729	79.996	19.995	100.140	19.989	8.423	1.041
552.500	616.221	79.997	19.996	100.137	19.989	8.397	1.037
553.000	616.735	79.996	19.995	100.131	19.983	8.781	1.016
553.500	617.236	79.998	19.995	100.131	19.987	8.529	1.011
554.000	617.763	79.997	19.996	100.130	19.989	8.393	1.022
554.500	618.267	79.997	19.996	100.132	19.991	8.324	1.029
555.000	618.770	79.997	19.995	100.134	19.991	8.324	1.019
555.500	619.327	79.996	19.995	100.135	19.988	8.453	1.033
556.000	619.811	79.996	19.995	100.135	19.988	8.499	1.051
556.500	620.283	79.998	19.995	100.132	19.988	8.474	0.999
557.000	620.792	79.996	19.996	100.129	19.989	8.401	0.968
557.500	621.316	79.997	19.996	100.128	19.990	8.327	1.007
558.000	621.819	79.997	19.995	100.132	19.990	8.339	1.030
558.500	622.336	79.997	19.995	100.133	19.989	8.396	1.023
559.000	622.862	79.997	19.996	100.136	19.991	8.289	1.031
559.500	623.380	79.995	19.996	100.138	19.990	8.331	1.043
560.000	623.859	79.995	19.995	100.142	19.992	8.247	1.021
560.500	624.388	79.995	19.996	100.142	19.988	8.473	1.002
561.000	624.923	79.994	19.996	100.145	19.989	8.428	1.036
561.500	625.418	79.994	19.997	100.146	19.991	8.324	1.047
562.000	625.924	79.994	19.996	100.146	19.988	8.463	1.016
562.500	626.344	79.995	19.996	100.144	19.989	8.416	0.964
563.000	626.931	79.993	19.996	100.143	19.991	8.294	0.967
563.500	627.419	79.995	19.996	100.142	19.991	8.318	1.041
564.000	627.966	79.995	19.996	100.140	19.991	8.274	1.055
564.500	628.478	79.996	19.996	100.142	19.987	8.578	1.047
565.000	628.968	79.995	19.997	100.141	19.987	8.527	1.030
565.500	629.471	79.995	19.997	100.138	19.988	8.510	0.998
566.000	629.952	79.994	19.996	100.138	19.989	8.443	0.989
566.500	630.521	79.994	19.996	100.138	19.992	8.241	1.017
567.000	630.722	79.993	19.995	100.135	19.988	8.497	0.910
567.500	631.523	79.996	19.996	100.134	19.989	8.451	0.886
568.000	632.057	79.994	19.997	100.133	19.990	8.385	1.169
568.500	632.534	79.994	19.997	100.130	19.990	8.385	1.173
569.000	633.000	79.994	19.997	100.129	19.989	8.424	0.977
569.500	633.509	79.995	19.997	100.135	19.989	8.418	0.959
570.000	634.049	79.994	19.996	100.136	19.989	8.439	1.012
570.500	634.594	79.994	19.997	100.139	19.990	8.333	1.067
571.000	635.131	79.994	19.996	100.144	19.991	8.285	1.083
571.500	635.624	79.994	19.996	100.145	19.988	8.454	1.056
572.000	636.160	79.996	19.996	100.140	19.989	8.421	1.029
572.500	636.635	79.993	19.996	100.139	19.988	8.455	1.020
573.000	637.165	79.995	19.996	100.135	19.992	8.242	1.008
573.500	637.700	79.993	19.995	100.129	19.987	8.529	1.035
574.000	638.167	79.994	19.996	100.128	19.988	8.506	1.033
574.500	638.692	79.994	19.996	100.128	19.989	8.395	0.997
575.000	639.220	79.993	19.996	100.131	19.992	8.258	1.023
575.500	639.738	79.994	19.997	100.131	19.992	8.208	1.049
576.000	640.219	79.995	19.995	100.132	19.993	8.190	1.023
576.500	640.726	79.993	19.997	100.135	19.994	8.078	0.994
577.000	641.128	79.994	19.996	100.135	19.993	8.194	0.948
577.500	641.746	79.994	19.996	100.131	19.991	8.263	0.964
578.000	642.266	79.994	19.996	100.131	19.992	8.211	1.079
578.500	642.744	79.993	19.997	100.131	19.993	8.194	1.069
579.000	643.250	79.994	19.996	100.131	19.991	8.268	0.991
579.500	643.773	79.993	19.996	100.131	19.993	8.190	1.006
580.000	644.248	79.992	19.996	100.134	19.991	8.292	1.014
580.500	644.780	79.993	19.997	100.134	19.994	8.102	1.003
581.000	645.306	79.995	19.996	100.137	19.994	8.108	1.033
581.500	645.835	79.993	19.996	100.138	19.995	8.070	1.056
582.000	646.310	79.993	19.997	100.140	19.996	7.991	1.029
582.500	646.804	79.994	19.995	100.142	19.997	7.908	0.986
583.000	647.304	79.994	19.996	100.148	19.998	7.840	0.982
583.500	647.851	79.993	19.996	100.144	19.999	7.778	1.020
584.000	648.311	79.994	19.995	100.140	19.997	7.935	1.027
584.500	648.857	79.991	19.996	100.138	20.000	7.747	1.007
585.000	649.378	79.993	19.996	100.132	20.001	7.664	1.037
585.500	649.871	79.993	19.997	100.126	20.002	7.600	1.041
586.000	650.398	79.994	19.997	100.126	20.003	7.517	1.017
586.500	650.899	79.994	19.996	100.126	20.002	7.586	1.024
587.000	651.421	79.994	19.997	100.125	20.004	7.448	1.025
587.500	651.927	79.994	19.996	100.125	20.005	7.433	1.026
588.000	652.402	79.993	19.997	100.124	20.002	7.614	1.005
588.500	652.916	79.993	19.996	100.124	20.004	7.486	0.985
589.000	653.409	79.995	19.996	100.124	20.001	7.658	0.998
589.500	653.956	79.995	19.997	100.122	20.003	7.519	1.023
590.000	654.495	79.993	19.997	100.122	20.004	7.480	1.063
590.500	654.977	79.994	19.996	100.122	20.003	7.536	1.054
591.000	655.526	79.994	19.996	100.122	20.005	7.431	1.026
591.500	656.001	79.993	19.996	100.123	20.005	7.404	1.027
592.000	656.502	79.994	19.996	100.125	20.005	7.414	1.000
592.500	656.994	79.994	19.996	100.126	20.006	7.361	0.985
593.000	657.528	79.994	19.997	100.126	20.006	7.350	1.009
593.500	658.013	79.993	19.997	100.124	20.006	7.361	1.022
594.000	658.534	79.994	19.996	100.117	20.005	7.380	1.013
594.500	659.019	79.993	19.996	100.113	20.006	7.374	1.006
595.000	659.548	79.992	19.996	100.112	20.006	7.365	1.010
595.500	660.042	79.993	19.995	100.113	20.006	7.362	1.019
596.000	660.572	79.994	19.994	100.114	20.010	7.114	1.023
596.500	661.084	79.992	19.996	100.121	20.008	7.237	1.033
597.000	661.588	79.993	19.995	100.126	20.006	7.339	1.029
597.500	662.120	79.994	19.995	100.128	20.007	7.288	1.026
598.000	662.613	79.993	19.995	100.126	20.008	7.195	1.030
598.500	663.134	79.993	19.995	100.127	20.011	7.050	1.020
599.000	663.648	79.992	19.996	100.126	20.009	7.158	1.025
599.500	664.133	79.993	19.995	100.126	20.010	7.090	1.017
600.000	664.639	79.993	19.996	100.126	20.011	7.048	0.995
600.500	665.129	79.994	19.995	100.127	20.011	7.033	0.993
601.000	665.688	79.994	19.994	100.128	20.014	6.827	1.023
601.500	666.128	79.994	19.995	100.129	20.013	6.895	1.024
602.000	666.689	79.995	19.996	100.129	20.010	7.066	1.000
602.500	667.178	79.994	19.996	100.129	20.012	6.936	1.025
603.000	667.669	79.995	19.995	100.129	20.014	6.841	1.015
603.500	668.138	79.994	19.995	100.128	20.010	7.077	0.970
604.000	668.624	79.994	19.996	100.128	20.013	6.878	0.958
604.500	669.165	79.994	19.996	100.127	20.015	6.783	0.991
605.000	669.698	79.996	19.995	100.127	20.017	6.656	1.051
605.500	670.186	79.992	19.996	100.125	20.017	6.657	1.048
606.000	670.684	79.996	19.995	100.119	20.017	6.654	1.003
606.500	671.195	79.996	19.996	100.116	20.016	6.714	0.997
607.000	671.688	79.996	19.995	100.116	20.014	6.855	1.007
607.500	672.211	79.997	19.995	100.114	20.016	6.698	1.010
608.000	672.704	79.997	19.996	100.113	20.018	6.591	1.016
608.500	673.234	79.996	19.996	100.117	20.017	6.677	1.019
609.000	673.698	79.996	19.995	100.118	20.016	6.737	1.008
609.500	674.240	79.996	19.995	100.117	20.018	6.585	1.000
610.000	674.746	79.995	19.995	100.117	20.018	6.596	1.027
610.500	675.252	79.995	19.995	100.118	20.022	6.324	1.030
611.000	675.776	79.996	19.996	100.120	20.017	6.636	1.021
611.500	676.269	79.996	19.995	100.121	20.020	6.489	1.024
612.000	676.775	79.997	19.996	100.122	20.022	6.353	1.008
612.500	677.298	79.996	19.996	100.119	20.019	6.515	1.014
613.000	677.745	79.996	19.995	100.118	20.021	6.408	0.999
613.500	678.315	79.997	19.995	100.113	20.021	6.387	0.993
614.000	678.816	79.995	19.996	100.109	20.022	6.325	1.044
614.500	679.326	79.997	19.996	100.109	20.021	6.416	1.042
615.000	679.799	79.994	19.995	100.112	20.022	6.302	0.998
615.500	680.295	79.996	19.996	100.112	20.020	6.452	0.976
616.000	680.818	79.997	19.995	100.117	20.021	6.395	0.994
616.500	681.322	79.995	19.996	100.117	20.023	6.290	1.022
617.000	681.803	79.995	19.996	100.112	20.019	6.507	1.006
617.500	682.302	79.996	19.996	100.111	20.024	6.213	0.983
618.000	682.801	79.994	19.996	100.108	20.028	5.957	0.989
618.500	683.300	79.995	19.996	100.104	20.022	6.342	0.998
619.000	683.830	79.997	19.996	100.103	20.038	5.344	1.014
619.500	684.327	79.995	19.995	100.099	20.031	5.750	1.028
620.000	684.827	79.995	19.997	100.093	20.025	6.134	1.011
620.500	685.323	79.997	19.995	100.093	20.020	6.466	0.996
621.000	685.847	79.996	19.996	100.098	20.023	6.276	1.008
621.500	686.360	79.995	19.996	100.103	20.025	6.166	1.029
622.000	686.833	79.996	19.995	100.111	20.026	6.103	1.012
622.500	687.370	79.996	19.995	100.117	20.023	6.260	0.998
623.000	687.838	79.996	19.996	100.119	20.026	6.071	1.007
623.500	688.351	79.996	19.995	100.118	20.029	5.917	0.993
624.000	688.913	79.996	19.996	100.118	20.029	5.867	1.028
624.500	689.383	79.995	19.996	100.117	20.028	5.965	1.053
625.000	689.865	79.995	19.996	100.115	20.029	5.889	0.992
625.500	690.386	79.996	19.995	100.111	20.029	5.902	0.978
626.000	690.881	79.996	19.995	100.108	20.028	5.947	1.009
626.500	691.366	79.996	19.995	100.107	20.027	6.029	0.997
627.000	691.902	79.996	19.996	100.109	20.027	6.022	1.001
627.501	692.383	79.998	19.995	100.108	20.027	6.016	1.019
628.000	692.932	79.997	19.996	100.107	20.028	5.924	1.023
628.500	693.424	79.996	19.996	100.104	20.026	6.064	1.035
629.000	693.863	79.997	19.994	100.097	20.029	5.918	0.986
629.500	694.367	79.996	19.995	100.090	20.030	5.798	0.937
630.000	694.881	79.997	19.996	100.087	20.030	5.855	0.981
630.500	695.384	79.996	19.996	100.086	20.030	5.843	1.017
631.000	695.972	79.998	19.994	100.088	20.030	5.810	1.054
631.500	696.406	79.997	19.995	100.092	20.033	5.610	1.056
632.000	696.876	79.997	19.995	100.099	20.032	5.675	0.963
632.500	697.459	79.996	19.996	100.106	20.031	5.761	0.979
633.000	697.917	79.998	19.995	100.113	20.033	5.648	1.047
633.500	698.427	79.996	19.995	100.117	20.034	5.582	1.004
634.000	698.918	79.997	19.996	100.120	20.035	5.505	0.985
634.500	699.411	79.997	19.996	100.117	20.035	5.503	0.993
635.000	699.931	79.998	19.995	100.111	20.035	5.485	0.998
635.500	700.595	79.997	19.994	100.107	20.034	5.551	1.098
636.000	700.992	79.998	19.995	100.102	20.036	5.415	1.123
636.500	701.486	79.997	19.995	100.098	20.034	5.577	0.976
637.000	701.982	79.996	19.995	100.094	20.034	5.570	0.940
637.500	702.516	79.997	19.995	100.093	20.035	5.499	1.010
638.000	703.021	79.997	19.996	100.091	20.032	5.716	1.034
638.500	703.481	79.997	19.996	100.092	20.037	5.408	1.002
639.000	704.002	79.998	19.996	100.095	20.037	5.392	0.973
639.500	704.507	79.997	19.997	100.103	20.036	5.468	1.003
640.000	705.014	79.996	19.995	100.108	20.033	5.621	1.019
640.500	705.507	79.995	19.995	100.115	20.036	5.465	1.006
641.000	706.008	79.996	19.995	100.118	20.034	5.594	0.997
641.500	706.489	79.996	19.996	100.116	20.036	5.439	0.988
642.000	707.005	79.995	19.995	100.109	20.037	5.400	0.990
642.500	707.526	79.994	19.995	100.103	20.036	5.424	1.017
643.000	708.033	79.994	19.996	100.100	20.035	5.495	1.032
643.500	708.547	79.995	19.996	100.100	20.036	5.427	1.024
644.000	709.032	79.994	19.996	100.098	20.034	5.558	1.010
644.500	709.556	79.994	19.996	100.098	20.035	5.534	1.004
645.000	710.046	79.994	19.996	100.097	20.035	5.509	1.012
645.500	710.576	79.995	19.997	100.093	20.035	5.485	1.017
646.000	711.060	79.993	19.996	100.087	20.039	5.270	1.017
646.500	711.598	79.995	19.995	100.088	20.035	5.487	1.018
647.000	712.108	79.994	19.995	100.089	20.036	5.415	1.035
647.500	712.648	79.994	19.996	100.090	20.037	5.401	1.049
648.000	713.135	79.994	19.996	100.090	20.036	5.420	1.039
648.500	713.640	79.995	19.996	100.090	20.037	5.411	1.009
649.000	714.131	79.995	19.996	100.090	20.039	5.229	0.994
649.500	714.626	79.993	19.997	100.090	20.037	5.369	0.991
650.001	715.143	79.993	19.996	100.092	20.038	5.339	0.999
650.500	715.657	79.994	19.996	100.093	20.040	5.214	1.022
651.000	716.196	79.994	19.996	100.094	20.041	5.129	1.042
651.500	716.707	79.996	19.996	100.093	20.039	5.262	1.051
652.000	717.208	79.993	19.996	100.095	20.041	5.127	1.031
652.500	717.722	79.994	19.996	100.096	20.042	5.060	1.014
653.000	718.203	79.995	19.997	100.100	20.040	5.163	1.005
653.500	718.688	79.994	19.995	100.102	20.041	5.117	0.980
654.000	719.207	79.995	19.996	100.102	20.040	5.176	0.985
654.500	719.724	79.994	19.996	100.100	20.040	5.208	1.020
655.000	720.217	79.996	19.996	100.097	20.037	5.370	1.023
655.500	720.702	79.994	19.995	100.091	20.039	5.250	0.994
656.000	721.245	79.993	19.995	100.089	20.041	5.110	1.003
656.500	721.729	79.995	19.996	100.089	20.041	5.122	1.028
657.000	722.222	79.995	19.996	100.090	20.041	5.129	1.002
657.500	722.744	79.994	19.996	100.091	20.041	5.105	0.996
658.000	723.216	79.994	19.996	100.091	20.040	5.176	1.005
658.500	723.749	79.994	19.996	100.092	20.040	5.195	0.999
659.000	724.217	79.995	19.996	100.093	20.041	5.120	1.003
659.500	724.766	79.992	19.996	100.092	20.041	5.148	1.009
660.000	725.254	79.995	19.995	100.094	20.040	5.170	1.027
660.500	725.772	79.993	19.996	100.097	20.039	5.248	1.021
661.000	726.306	79.994	19.996	100.097	20.038	5.347	1.029
661.500	726.791	79.995	19.996	100.096	20.039	5.266	1.035
662.000	727.285	79.993	19.996	100.096	20.038	5.292	0.999
662.500	727.784	79.993	19.996	100.094	20.040	5.213	0.986
663.000	728.308	79.994	19.995	100.091	20.043	5.024	1.008
663.500	728.805	79.994	19.996	100.090	20.042	5.099	1.022
664.000	729.310	79.993	19.996	100.091	20.040	5.193	1.012
664.500	729.820	79.996	19.996	100.092	20.043	5.021	1.009
665.000	730.340	79.993	19.996	100.093	20.042	5.095	1.023
665.500	730.806	79.992	19.996	100.092	20.042	5.036	1.008
666.000	731.336	79.994	19.995	100.093	20.045	4.850	0.991
666.500	731.830	79.994	19.996	100.092	20.041	5.136	1.010
667.000	732.337	79.994	19.996	100.091	20.046	4.824	1.013
667.500	732.829	79.994	19.996	100.092	20.043	5.011	1.000
668.000	733.334	79.993	19.997	100.093	20.042	5.066	0.998
668.500	733.818	79.994	19.997	100.094	20.042	5.064	0.993
669.000	734.332	79.993	19.996	100.094	20.044	4.959	0.994
669.500	734.840	79.992	19.996	100.092	20.038	5.292	1.010
670.000	735.336	79.994	19.997	100.090	20.040	5.208	1.013
670.500	735.822	79.994	19.996	100.088	20.040	5.212	0.993
671.000	736.309	79.993	19.995	100.087	20.039	5.240	0.978
671.500	736.827	79.994	19.996	100.086	20.040	5.195	0.989
672.000	737.324	79.994	19.996	100.085	20.037	5.394	1.010
