Sample ID:	C:\MCC\MCC Cal\Test\Polyester_Felt\Polyester_Felt_MCC_30K_min_21_07_09_R2.txt
Sample Weight (mg):	5.01
Heating Rate (C/s):	1
Combustor Temp (C):	900
N2 Flow Rate (cc/min):	80
O2 Flow Rate (cc/min):	20
Calibration File:	C:\MCC\MCC Cal\Coeff1 JN10440_30_210304.txt.txt
T Correction Coefficients:	0	1.024463	0
Time Shift (s):	14
*
Time (s)	Temperature (C)	N2 flow rate (cc/min)	O2 flow rate (cc/min)	Flow Rate (cc/min)	Oxygen (%)	HRR (W/g)	Heating rate (C/s)
0.000	107.164	79.994	19.996	99.974	20.038	0.241	-0.003
0.500	107.163	79.994	19.995	99.972	20.040	0.090	-0.012
1.000	107.179	79.995	19.996	99.974	20.042	-0.029	-0.001
1.500	107.193	79.996	19.996	99.979	20.037	0.275	0.022
2.000	107.186	79.994	19.996	99.982	20.039	0.173	0.018
2.500	107.171	79.995	19.996	99.981	20.039	0.194	-0.007
3.000	107.177	79.995	19.996	99.982	20.036	0.389	-0.016
3.500	107.167	79.996	19.996	99.981	20.042	-0.015	-0.007
4.000	107.179	79.995	19.997	99.976	20.038	0.236	-0.001
4.500	107.125	79.995	19.996	99.980	20.037	0.321	-0.020
5.000	107.158	79.995	19.994	99.986	20.040	0.102	-0.032
5.500	107.185	79.995	19.996	99.988	20.038	0.231	0.020
6.000	107.160	79.994	19.995	99.990	20.035	0.444	0.032
6.500	107.146	79.995	19.995	99.991	20.037	0.308	-0.018
7.000	107.149	79.995	19.996	99.987	20.035	0.452	-0.025
7.500	107.159	79.994	19.996	99.984	20.034	0.520	0.001
8.000	107.132	79.995	19.996	99.986	20.037	0.315	-0.002
8.500	107.132	79.995	19.996	99.991	20.031	0.695	-0.022
9.000	107.144	79.993	19.995	99.998	20.033	0.541	-0.007
9.500	107.151	79.994	19.996	100.006	20.032	0.592	0.015
10.001	107.165	79.994	19.996	100.020	20.029	0.775	0.020
10.500	107.161	79.994	19.996	100.038	20.029	0.828	0.015
11.000	107.116	79.995	19.996	100.054	20.026	1.019	-0.019
11.500	107.155	79.996	19.995	100.074	20.024	1.141	-0.027
12.000	107.167	79.994	19.995	100.095	20.021	1.305	0.022
12.500	107.136	79.995	19.995	100.108	20.019	1.430	0.016
13.000	107.166	79.995	19.995	100.120	20.019	1.407	-0.010
13.500	107.183	79.995	19.996	100.135	20.019	1.419	0.023
14.000	107.170	79.993	19.996	100.148	20.013	1.824	0.026
14.500	107.217	79.996	19.995	100.163	20.012	1.856	0.019
15.000	107.257	79.999	19.995	100.179	20.012	1.880	0.061
15.500	107.280	79.997	19.995	100.191	20.008	2.101	0.075
16.000	107.306	79.997	19.995	100.202	20.003	2.409	0.056
16.500	107.309	79.997	19.995	100.210	20.004	2.344	0.039
17.000	107.335	79.995	19.995	100.216	19.999	2.657	0.029
17.500	107.392	79.998	19.995	100.227	19.998	2.722	0.056
18.000	107.447	79.994	19.995	100.242	19.995	2.950	0.097
18.500	107.456	79.993	19.995	100.255	19.994	2.976	0.088
19.000	107.520	79.996	19.996	100.270	19.990	3.249	0.068
19.500	107.591	79.998	19.996	100.280	19.985	3.546	0.104
20.000	107.646	79.995	19.994	100.287	19.988	3.368	0.130
20.500	107.705	79.996	19.995	100.290	19.984	3.645	0.120
21.000	107.761	79.995	19.996	100.296	19.986	3.468	0.115
21.500	107.805	79.995	19.996	100.301	19.986	3.502	0.108
22.000	107.864	79.995	19.997	100.307	19.984	3.604	0.102
22.500	107.970	79.993	19.995	100.308	19.981	3.812	0.134
23.000	108.021	79.994	19.996	100.312	19.979	3.919	0.161
23.500	108.140	79.995	19.996	100.317	19.981	3.824	0.164
24.000	108.218	79.992	19.996	100.321	19.975	4.173	0.184
24.500	108.320	79.994	19.996	100.323	19.978	4.008	0.188
25.000	108.399	79.994	19.996	100.328	19.975	4.204	0.181
25.500	108.523	79.997	19.996	100.330	19.975	4.171	0.192
26.000	108.644	79.996	19.996	100.328	19.977	4.071	0.224
26.500	108.719	79.994	19.997	100.326	19.968	4.609	0.220
27.000	108.810	79.995	19.997	100.326	19.966	4.749	0.181
27.500	108.951	79.996	19.996	100.326	19.973	4.313	0.199
28.000	109.093	79.991	19.996	100.332	19.972	4.373	0.258
28.500	109.198	79.994	19.996	100.340	19.968	4.643	0.265
29.000	109.334	79.995	19.997	100.348	19.968	4.619	0.244
29.500	109.486	79.995	19.996	100.356	19.963	4.927	0.265
30.000	109.588	79.992	19.996	100.363	19.966	4.762	0.271
30.500	109.729	79.995	19.996	100.365	19.961	5.069	0.249
31.000	109.853	79.994	19.996	100.365	19.960	5.091	0.254
31.500	109.987	79.992	19.996	100.365	19.968	4.637	0.261
32.000	110.177	79.997	19.996	100.365	19.968	4.616	0.291
32.500	110.284	79.994	19.995	100.365	19.965	4.790	0.310
33.000	110.447	79.994	19.996	100.364	19.967	4.711	0.283
33.500	110.605	79.993	19.996	100.365	19.967	4.688	0.296
34.001	110.738	79.995	19.996	100.366	19.964	4.870	0.306
34.501	110.914	79.995	19.996	100.367	19.967	4.656	0.300
35.000	111.085	79.991	19.997	100.368	19.969	4.583	0.328
35.501	111.249	79.995	19.996	100.368	19.964	4.874	0.340
36.001	111.443	79.997	19.995	100.368	19.962	4.979	0.346
36.500	111.609	79.994	19.996	100.368	19.962	4.995	0.359
37.000	111.794	79.994	19.995	100.373	19.965	4.815	0.356
37.500	111.959	79.996	19.996	100.376	19.960	5.112	0.350
38.000	112.178	79.993	19.995	100.380	19.964	4.891	0.367
38.500	112.379	79.996	19.995	100.383	19.962	5.019	0.403
39.000	112.534	79.996	19.996	100.382	19.962	4.966	0.388
39.500	112.740	79.994	19.997	100.381	19.958	5.216	0.358
40.000	112.940	79.995	19.996	100.379	19.962	5.022	0.383
40.500	113.114	79.997	19.996	100.380	19.959	5.213	0.390
41.000	113.304	79.995	19.996	100.384	19.957	5.298	0.369
41.501	113.497	79.997	19.996	100.389	19.960	5.119	0.373
42.001	113.746	79.996	19.996	100.391	19.963	4.917	0.412
42.500	113.950	79.994	19.995	100.392	19.962	4.980	0.447
43.000	114.175	79.995	19.995	100.387	19.963	4.910	0.441
43.501	114.370	79.996	19.995	100.383	19.963	4.916	0.424
44.001	114.618	79.995	19.996	100.385	19.960	5.111	0.431
44.501	114.874	79.998	19.995	100.386	19.963	4.930	0.473
45.001	115.090	79.997	19.995	100.389	19.960	5.109	0.488
45.501	115.285	79.994	19.996	100.391	19.957	5.303	0.442
46.001	115.488	79.995	19.996	100.395	19.958	5.235	0.405
46.501	115.753	79.995	19.995	100.397	19.957	5.311	0.433
47.000	115.994	79.995	19.996	100.397	19.956	5.340	0.487
47.501	116.250	79.996	19.996	100.401	19.957	5.286	0.502
48.001	116.476	79.997	19.996	100.405	19.957	5.288	0.489
48.501	116.733	79.996	19.996	100.406	19.952	5.643	0.482
49.001	116.970	79.995	19.997	100.405	19.955	5.461	0.488
49.500	117.225	79.993	19.996	100.402	19.954	5.475	0.493
50.000	117.469	79.996	19.995	100.400	19.953	5.584	0.495
50.500	117.728	79.994	19.996	100.400	19.952	5.635	0.501
51.000	118.014	79.995	19.997	100.400	19.952	5.623	0.525
51.501	118.253	79.996	19.996	100.401	19.951	5.660	0.535
52.001	118.480	79.995	19.997	100.404	19.954	5.522	0.495
52.500	118.756	79.993	19.996	100.403	19.955	5.451	0.485
53.000	119.015	79.994	19.998	100.403	19.955	5.432	0.519
53.500	119.280	79.991	19.996	100.403	19.956	5.397	0.529
54.000	119.540	79.997	19.996	100.402	19.957	5.301	0.525
54.500	119.815	79.994	19.996	100.402	19.952	5.630	0.530
55.001	120.117	79.995	19.996	100.400	19.955	5.407	0.556
55.501	120.376	79.994	19.996	100.400	19.952	5.647	0.568
56.001	120.655	79.995	19.997	100.400	19.955	5.448	0.549
56.501	120.976	79.994	19.996	100.399	19.954	5.477	0.570
57.001	121.241	79.994	19.997	100.399	19.950	5.763	0.594
57.500	121.525	79.997	19.996	100.400	19.953	5.533	0.567
58.001	121.812	79.994	19.995	100.401	19.953	5.557	0.559
58.501	122.108	79.999	19.998	100.400	19.956	5.340	0.577
59.000	122.399	79.996	19.997	100.400	19.956	5.383	0.585
59.500	122.711	79.994	19.996	100.400	19.954	5.512	0.595
60.000	122.993	79.992	19.995	100.399	19.956	5.383	0.598
60.500	123.267	79.994	19.996	100.400	19.953	5.572	0.575
61.000	123.598	79.995	19.996	100.400	19.955	5.454	0.580
61.500	123.884	79.996	19.996	100.400	19.956	5.384	0.611
62.000	124.157	79.995	19.996	100.400	19.952	5.599	0.588
62.501	124.460	79.992	19.995	100.401	19.956	5.369	0.568
63.001	124.770	79.994	19.995	100.400	19.955	5.437	0.594
63.500	125.096	79.997	19.996	100.401	19.955	5.410	0.624
64.000	125.430	79.997	19.996	100.401	19.954	5.504	0.648
64.501	125.726	79.996	19.996	100.401	19.955	5.443	0.645
65.001	126.015	79.995	19.995	100.401	19.956	5.388	0.607
65.501	126.322	79.996	19.995	100.401	19.953	5.533	0.591
66.001	126.666	79.996	19.995	100.401	19.952	5.596	0.624
66.500	127.008	79.998	19.995	100.403	19.954	5.517	0.669
67.000	127.308	79.997	19.995	100.406	19.958	5.272	0.664
67.501	127.643	79.997	19.996	100.407	19.956	5.346	0.638
68.001	127.978	79.998	19.995	100.408	19.949	5.810	0.653
68.500	128.306	79.997	19.995	100.409	19.951	5.683	0.667
69.000	128.659	79.998	19.996	100.407	19.953	5.576	0.672
69.500	128.970	79.996	19.995	100.403	19.954	5.511	0.672
70.000	129.310	79.998	19.996	100.405	19.953	5.584	0.658
70.500	129.653	79.997	19.995	100.404	19.956	5.398	0.667
71.000	130.001	79.996	19.995	100.403	19.950	5.756	0.687
71.500	130.300	79.997	19.995	100.403	19.953	5.560	0.669
72.000	130.657	79.997	19.995	100.402	19.950	5.754	0.652
72.500	131.033	79.998	19.996	100.398	19.952	5.649	0.694
73.000	131.370	79.998	19.995	100.400	19.952	5.607	0.723
73.500	131.727	79.997	19.995	100.401	19.953	5.556	0.703
74.000	132.051	79.995	19.995	100.403	19.950	5.747	0.687
74.500	132.405	79.995	19.995	100.403	19.949	5.825	0.679
75.000	132.769	79.996	19.996	100.404	19.953	5.569	0.698
75.500	133.125	79.995	19.996	100.403	19.951	5.693	0.719
76.000	133.490	79.996	19.995	100.402	19.945	6.037	0.720
76.501	133.798	79.996	19.995	100.400	19.951	5.712	0.697
77.001	134.161	79.995	19.995	100.400	19.948	5.886	0.672
77.500	134.513	79.995	19.995	100.400	19.954	5.524	0.693
78.000	134.885	79.996	19.996	100.401	19.950	5.774	0.719
78.501	135.264	79.994	19.996	100.403	19.954	5.514	0.737
79.001	135.618	79.997	19.996	100.406	19.948	5.864	0.742
79.500	135.982	79.994	19.996	100.407	19.952	5.595	0.726
80.000	136.338	79.995	19.995	100.407	19.949	5.782	0.719
80.500	136.712	79.995	19.996	100.406	19.952	5.601	0.725
81.001	137.068	79.994	19.995	100.406	19.952	5.647	0.730
81.501	137.463	79.994	19.997	100.405	19.949	5.778	0.741
82.000	137.811	79.995	19.996	100.407	19.951	5.676	0.747
82.500	138.171	79.994	19.995	100.407	19.949	5.834	0.725
83.000	138.575	79.994	19.996	100.408	19.945	6.035	0.735
83.500	138.975	79.995	19.996	100.412	19.949	5.784	0.784
84.000	139.358	79.994	19.995	100.418	19.949	5.812	0.794
84.500	139.712	79.995	19.996	100.422	19.946	6.011	0.760
85.000	140.097	79.994	19.996	100.427	19.946	5.974	0.738
85.500	140.470	79.995	19.996	100.425	19.949	5.819	0.748
86.000	140.905	79.995	19.996	100.419	19.948	5.844	0.783
86.501	141.246	79.995	19.995	100.413	19.946	5.980	0.792
87.001	141.633	79.995	19.995	100.410	19.952	5.651	0.752
87.500	142.005	79.995	19.996	100.414	19.947	5.937	0.744
88.001	142.406	79.994	19.995	100.417	19.943	6.173	0.766
88.501	142.834	79.994	19.995	100.423	19.948	5.852	0.800
89.000	143.205	79.994	19.995	100.427	19.948	5.869	0.814
89.501	143.610	79.994	19.996	100.427	19.948	5.848	0.788
90.001	143.971	79.994	19.995	100.419	19.947	5.947	0.771
90.501	144.410	79.994	19.995	100.417	19.950	5.715	0.783
91.000	144.839	79.995	19.996	100.412	19.946	6.027	0.834
91.500	145.198	79.996	19.996	100.406	19.949	5.799	0.828
92.000	145.628	79.995	19.995	100.374	19.948	5.899	0.789
92.501	146.033	79.993	19.996	100.351	19.944	6.090	0.812
93.001	146.405	79.995	19.995	100.345	19.949	5.785	0.806
93.500	146.806	79.996	19.995	100.344	19.951	5.693	0.775
94.000	147.192	79.995	19.995	100.348	19.950	5.724	0.780
94.501	147.595	79.994	19.995	100.388	19.947	5.943	0.788
95.001	148.011	79.994	19.996	100.439	19.949	5.829	0.804
95.500	148.434	79.994	19.995	100.479	19.950	5.724	0.829
96.000	148.799	79.996	19.995	100.489	19.951	5.685	0.814
96.500	149.238	79.997	19.995	100.490	19.951	5.687	0.796
97.000	149.666	79.995	19.995	100.479	19.952	5.651	0.835
97.501	150.093	79.996	19.995	100.453	19.947	5.940	0.861
98.001	150.510	79.996	19.996	100.422	19.947	5.944	0.850
98.500	150.891	79.995	19.994	100.413	19.947	5.908	0.821
99.000	151.343	79.994	19.994	100.410	19.947	5.927	0.816
99.500	151.756	79.996	19.995	100.410	19.947	5.910	0.849
100.000	152.160	79.995	19.995	100.411	19.951	5.656	0.841
100.500	152.609	79.994	19.996	100.410	19.948	5.889	0.835
101.000	152.999	79.996	19.996	100.412	19.947	5.944	0.846
101.500	153.443	79.995	19.995	100.411	19.949	5.805	0.836
102.000	153.849	79.995	19.995	100.413	19.949	5.779	0.841
102.500	154.261	79.995	19.995	100.410	19.943	6.195	0.834
103.001	154.696	79.994	19.996	100.412	19.943	6.181	0.833
103.501	155.085	79.995	19.996	100.410	19.946	5.990	0.836
104.001	155.571	79.994	19.996	100.409	19.947	5.963	0.849
104.501	155.997	79.994	19.996	100.408	19.950	5.770	0.893
105.000	156.424	79.994	19.994	100.408	19.944	6.124	0.882
105.500	156.837	79.995	19.996	100.406	19.949	5.823	0.847
106.000	157.295	79.995	19.995	100.406	19.944	6.116	0.856
106.500	157.714	79.993	19.996	100.408	19.945	6.051	0.874
107.000	158.105	79.994	19.996	100.409	19.947	5.944	0.843
107.501	158.617	79.994	19.997	100.411	19.940	6.349	0.856
108.001	159.011	79.994	19.996	100.412	19.944	6.129	0.904
108.500	159.464	79.994	19.995	100.415	19.947	5.908	0.876
109.000	159.866	79.994	19.997	100.419	19.949	5.792	0.851
109.500	160.294	79.994	19.996	100.420	19.949	5.783	0.843
110.000	160.753	79.994	19.996	100.418	19.942	6.260	0.859
110.500	161.197	79.994	19.996	100.422	19.941	6.290	0.895
111.000	161.653	79.994	19.995	100.418	19.948	5.878	0.902
111.500	162.093	79.994	19.996	100.415	19.942	6.250	0.898
112.000	162.557	79.991	19.995	100.419	19.946	5.970	0.900
112.500	162.949	79.994	19.996	100.420	19.946	5.981	0.880
113.000	163.404	79.994	19.996	100.421	19.946	5.972	0.852
113.500	163.851	79.993	19.995	100.425	19.945	6.050	0.874
114.001	164.305	79.995	19.997	100.427	19.947	5.964	0.901
114.501	164.781	79.994	19.996	100.424	19.943	6.193	0.916
115.000	165.212	79.993	19.996	100.422	19.942	6.215	0.918
115.500	165.663	79.994	19.996	100.418	19.949	5.827	0.895
116.000	166.087	79.996	19.997	100.414	19.943	6.186	0.878
116.501	166.569	79.996	19.996	100.412	19.940	6.343	0.890
117.001	167.034	79.995	19.995	100.413	19.946	6.001	0.927
117.500	167.487	79.997	19.996	100.412	19.945	6.081	0.933
118.000	167.942	79.996	19.997	100.412	19.946	5.989	0.913
118.500	168.404	79.996	19.996	100.413	19.945	6.059	0.912
119.000	168.884	79.995	19.997	100.411	19.940	6.379	0.930
119.501	169.321	79.998	19.997	100.407	19.939	6.457	0.930
120.001	169.787	79.993	19.996	100.407	19.939	6.460	0.910
120.500	170.262	79.996	19.997	100.406	19.943	6.162	0.922
121.000	170.717	79.998	19.996	100.404	19.941	6.287	0.936
121.500	171.216	79.995	19.995	100.403	19.940	6.346	0.942
122.000	171.660	79.994	19.996	100.403	19.943	6.191	0.948
122.500	172.131	79.996	19.997	100.403	19.947	5.907	0.929
123.000	172.598	79.993	19.997	100.403	19.944	6.149	0.927
123.500	173.057	79.997	19.998	100.403	19.949	5.834	0.931
124.000	173.524	79.997	19.996	100.402	19.943	6.207	0.925
124.500	173.977	79.997	19.996	100.403	19.941	6.309	0.923
125.000	174.489	79.997	19.995	100.402	19.946	6.023	0.943
125.500	174.929	79.998	19.996	100.402	19.946	5.985	0.959
126.001	175.393	79.994	19.997	100.402	19.943	6.165	0.928
126.501	175.882	79.994	19.997	100.401	19.947	5.930	0.929
127.000	176.275	79.998	19.997	100.401	19.944	6.090	0.918
127.500	176.800	79.998	19.996	100.401	19.947	5.918	0.900
128.000	177.254	79.998	19.996	100.400	19.940	6.347	0.948
128.500	177.744	79.997	19.995	100.400	19.950	5.730	0.961
129.000	178.245	79.998	19.996	100.400	19.944	6.145	0.967
129.500	178.719	79.995	19.998	100.401	19.941	6.286	0.983
130.000	179.166	79.997	19.997	100.401	19.940	6.364	0.948
130.500	179.653	79.997	19.996	100.400	19.943	6.159	0.928
131.000	180.112	79.995	19.996	100.399	19.945	6.059	0.940
131.500	180.620	79.997	19.996	100.399	19.942	6.219	0.957
132.000	181.070	79.996	19.997	100.398	19.941	6.308	0.963
132.500	181.557	79.995	19.996	100.398	19.943	6.197	0.947
133.000	182.043	79.994	19.996	100.399	19.943	6.196	0.955
133.501	182.572	79.996	19.996	100.399	19.943	6.159	0.994
134.000	183.018	79.993	19.995	100.398	19.944	6.113	0.995
134.500	183.514	79.993	19.997	100.398	19.945	6.082	0.959
135.000	183.956	79.995	19.997	100.397	19.944	6.136	0.940
135.500	184.422	79.994	19.996	100.397	19.943	6.203	0.923
136.000	184.951	79.996	19.997	100.395	19.945	6.035	0.951
136.500	185.471	79.994	19.996	100.393	19.943	6.150	1.022
137.000	185.965	79.994	19.997	100.389	19.943	6.198	1.031
137.500	186.475	79.996	19.997	100.387	19.948	5.868	1.009
138.000	186.985	79.995	19.997	100.387	19.945	6.048	1.012
138.500	187.474	79.995	19.996	100.387	19.945	6.033	1.010
139.000	187.959	79.995	19.996	100.390	19.948	5.885	0.987
139.500	188.467	79.995	19.996	100.393	19.944	6.097	0.983
140.000	188.934	79.994	19.996	100.393	19.948	5.891	0.984
140.500	189.412	79.996	19.997	100.388	19.946	5.999	0.960
141.000	189.953	79.995	19.996	100.384	19.946	6.022	0.982
141.500	190.423	79.997	19.997	100.378	19.945	6.044	1.015
142.000	190.911	79.993	19.997	100.375	19.943	6.157	0.984
142.500	191.433	79.995	19.997	100.375	19.945	6.073	0.984
143.000	191.913	79.995	19.997	100.378	19.951	5.684	1.006
143.500	192.370	79.995	19.996	100.383	19.946	6.007	0.969
144.000	192.892	79.995	19.996	100.389	19.949	5.827	0.958
144.500	193.379	79.996	19.996	100.392	19.945	6.034	0.994
145.000	193.883	79.998	19.998	100.390	19.947	5.949	1.000
145.500	194.374	79.998	19.996	100.385	19.947	5.913	0.993
146.000	194.865	79.999	19.996	100.380	19.945	6.080	0.988
146.500	195.356	79.995	19.997	100.373	19.947	5.901	0.981
147.000	195.859	79.998	19.998	100.366	19.950	5.743	0.988
147.500	196.364	79.995	19.997	100.363	19.951	5.699	1.002
148.000	196.851	79.996	19.997	100.368	19.950	5.730	1.000
148.500	197.381	79.997	19.997	100.370	19.947	5.932	1.004
149.000	197.870	80.000	19.996	100.369	19.946	5.978	1.018
149.500	198.357	79.998	19.996	100.370	19.948	5.876	0.998
150.000	198.878	79.997	19.996	100.371	19.949	5.825	0.992
150.501	199.416	79.995	19.996	100.366	19.943	6.181	1.034
151.001	199.883	79.997	19.995	100.362	19.949	5.834	1.032
151.500	200.387	79.998	19.997	100.363	19.951	5.674	0.988
152.000	200.895	79.997	19.996	100.363	19.948	5.876	0.992
152.500	201.402	79.997	19.997	100.361	19.945	6.034	1.013
153.000	201.906	79.996	19.996	100.361	19.945	6.036	1.013
153.500	202.414	79.994	19.995	100.360	19.945	6.053	1.012
154.000	202.923	79.997	19.995	100.360	19.946	6.007	1.015
154.500	203.432	79.995	19.996	100.360	19.946	6.000	1.018
155.000	203.973	79.995	19.995	100.361	19.946	5.988	1.034
155.500	204.439	79.995	19.994	100.362	19.948	5.878	1.028
156.000	204.943	79.996	19.996	100.360	19.951	5.699	0.988
156.500	205.458	79.993	19.995	100.361	19.945	6.036	0.994
157.000	205.945	79.995	19.996	100.360	19.952	5.624	1.011
157.500	206.485	79.995	19.996	100.360	19.948	5.840	1.014
158.000	207.045	79.997	19.996	100.360	19.949	5.807	1.063
158.500	207.528	79.995	19.995	100.361	19.946	5.986	1.071
159.000	208.007	79.995	19.997	100.361	19.947	5.928	1.003
159.500	208.531	79.993	19.996	100.362	19.947	5.908	0.982
160.001	209.039	79.995	19.996	100.362	19.952	5.593	1.018
160.500	209.587	79.994	19.995	100.364	19.948	5.836	1.044
161.000	210.072	79.994	19.996	100.365	19.952	5.589	1.044
161.500	210.587	79.995	19.996	100.365	19.951	5.650	1.016
162.000	211.090	79.994	19.995	100.365	19.952	5.647	1.009
162.500	211.589	79.993	19.995	100.365	19.949	5.776	1.010
163.000	212.110	79.993	19.995	100.363	19.953	5.548	1.011
163.500	212.605	79.996	19.996	100.363	19.953	5.529	1.018
164.000	213.087	79.995	19.996	100.363	19.950	5.765	0.996
164.500	213.614	79.993	19.996	100.363	19.951	5.697	0.993
165.000	214.158	79.995	19.995	100.363	19.955	5.454	1.039
165.500	214.629	79.996	19.996	100.363	19.952	5.595	1.043
166.000	215.138	79.992	19.995	100.362	19.949	5.798	0.998
166.500	215.664	79.997	19.995	100.361	19.949	5.796	1.008
167.000	216.166	79.994	19.995	100.360	19.952	5.645	1.032
167.500	216.693	79.995	19.995	100.356	19.954	5.466	1.028
168.000	217.185	79.995	19.995	100.352	19.955	5.406	1.024
168.500	217.678	79.994	19.995	100.351	19.953	5.536	1.002
169.000	218.216	79.995	19.995	100.346	19.952	5.587	1.008
169.500	218.696	79.996	19.995	100.345	19.951	5.699	1.025
170.000	219.214	79.997	19.996	100.344	19.952	5.602	1.008
170.500	219.713	79.992	19.995	100.348	19.953	5.561	1.007
171.000	220.197	79.996	19.997	100.347	19.956	5.377	0.999
171.500	220.710	79.993	19.995	100.347	19.955	5.430	0.990
172.000	221.239	79.993	19.996	100.346	19.955	5.416	1.020
172.500	221.731	79.993	19.995	100.343	19.958	5.255	1.032
173.000	222.293	79.994	19.995	100.336	19.953	5.574	1.037
173.500	222.770	79.995	19.996	100.332	19.957	5.295	1.046
174.000	223.311	79.993	19.997	100.330	19.954	5.522	1.028
174.500	223.828	79.995	19.994	100.328	19.956	5.389	1.038
175.000	224.299	79.994	19.995	100.330	19.959	5.188	1.023
175.500	224.813	79.995	19.996	100.331	19.955	5.426	0.986
176.000	225.360	79.995	19.995	100.333	19.951	5.669	1.023
176.500	225.815	79.995	19.995	100.334	19.954	5.472	1.032
177.000	226.366	79.994	19.995	100.333	19.955	5.413	1.004
177.500	226.826	79.996	19.995	100.332	19.954	5.474	1.009
178.000	227.352	79.996	19.995	100.333	19.956	5.363	0.999
178.501	227.891	79.996	19.995	100.330	19.957	5.273	1.025
179.000	228.395	79.997	19.995	100.330	19.958	5.270	1.054
179.500	228.923	79.995	19.995	100.329	19.956	5.343	1.038
180.000	229.460	79.994	19.995	100.328	19.958	5.270	1.049
180.500	229.954	79.995	19.995	100.326	19.959	5.149	1.048
181.000	230.472	79.996	19.995	100.327	19.956	5.387	1.021
181.500	230.995	79.996	19.995	100.327	19.956	5.390	1.026
182.000	231.515	79.994	19.996	100.327	19.959	5.168	1.042
182.500	231.988	79.996	19.996	100.327	19.959	5.181	1.018
183.000	232.497	79.993	19.996	100.327	19.960	5.099	0.987
183.500	233.013	79.997	19.995	100.326	19.962	4.996	1.004
184.001	233.525	79.996	19.995	100.325	19.960	5.122	1.027
184.500	234.072	79.992	19.995	100.324	19.962	5.004	1.044
185.000	234.585	79.997	19.996	100.323	19.960	5.101	1.059
185.500	235.101	79.998	19.996	100.318	19.964	4.846	1.044
186.000	235.621	79.996	19.995	100.317	19.962	4.967	1.032
186.500	236.136	79.996	19.997	100.316	19.961	5.023	1.035
187.000	236.593	79.994	19.997	100.317	19.964	4.871	1.004
187.500	237.118	79.994	19.996	100.318	19.961	5.036	0.978
188.000	237.661	79.996	19.995	100.322	19.963	4.951	1.025
188.500	238.172	79.996	19.996	100.323	19.963	4.931	1.061
189.000	238.656	79.997	19.995	100.324	19.968	4.618	1.024
189.500	239.166	79.997	19.995	100.323	19.966	4.713	0.995
190.000	239.662	79.995	19.996	100.321	19.966	4.710	1.000
190.500	240.181	79.995	19.995	100.321	19.962	4.970	1.011
191.000	240.735	79.996	19.995	100.321	19.966	4.764	1.044
191.500	241.189	79.993	19.995	100.321	19.965	4.785	1.041
192.000	241.704	79.994	19.996	100.319	19.967	4.678	0.988
192.500	242.214	79.993	19.995	100.318	19.965	4.790	0.997
193.000	242.726	79.994	19.995	100.318	19.966	4.746	1.023
193.500	243.258	79.993	19.996	100.317	19.967	4.702	1.033
194.000	243.775	79.994	19.995	100.317	19.966	4.715	1.047
194.500	244.278	79.996	19.996	100.319	19.969	4.573	1.035
195.001	244.802	79.993	19.995	100.319	19.965	4.821	1.023
195.501	245.325	79.996	19.996	100.318	19.970	4.520	1.037
196.000	245.796	79.995	19.996	100.318	19.969	4.539	1.021
196.500	246.339	79.996	19.996	100.317	19.968	4.636	1.004
197.000	246.873	79.996	19.995	100.313	19.967	4.704	1.045
197.500	247.329	79.995	19.996	100.314	19.967	4.690	1.033
198.000	247.829	79.996	19.996	100.309	19.971	4.440	0.973
198.500	248.334	79.996	19.996	100.307	19.970	4.515	0.980
199.000	248.862	79.996	19.996	100.307	19.967	4.688	1.019
199.500	249.371	79.996	19.996	100.310	19.964	4.880	1.035
200.000	249.922	79.997	19.996	100.308	19.966	4.724	1.048
200.500	250.422	79.996	19.996	100.312	19.968	4.613	1.056
201.000	250.890	79.996	19.996	100.312	19.967	4.654	1.009
201.500	251.426	79.996	19.996	100.304	19.970	4.503	0.986
202.000	251.918	79.997	19.996	100.299	19.969	4.581	1.016
202.500	252.430	79.996	19.996	100.295	19.969	4.559	1.016
203.000	252.931	79.998	19.997	100.290	19.970	4.515	1.008
203.500	253.431	79.996	19.997	100.286	19.970	4.481	1.007
204.000	253.957	79.997	19.996	100.290	19.971	4.428	1.014
204.500	254.410	79.995	19.996	100.290	19.971	4.399	1.003
205.000	254.950	79.997	19.996	100.290	19.967	4.686	0.986
205.500	255.448	79.997	19.996	100.292	19.966	4.759	1.016
206.000	255.927	79.997	19.996	100.297	19.970	4.462	1.007
206.500	256.426	79.997	19.996	100.297	19.971	4.438	0.977
207.000	256.936	79.997	19.996	100.296	19.971	4.440	0.994
207.500	257.446	79.997	19.997	100.296	19.973	4.327	1.015
208.000	257.924	79.997	19.996	100.296	19.972	4.334	1.004
208.500	258.418	79.996	19.996	100.291	19.971	4.438	0.980
209.000	258.931	79.996	19.996	100.287	19.972	4.377	0.989
209.500	259.449	79.997	19.996	100.285	19.972	4.367	1.019
210.000	259.934	79.998	19.996	100.285	19.972	4.367	1.017
210.500	260.441	79.995	19.996	100.283	19.971	4.406	0.998
211.000	260.927	79.997	19.996	100.283	19.973	4.290	0.992
211.500	261.411	79.996	19.995	100.283	19.970	4.487	0.981
212.000	261.875	79.995	19.995	100.283	19.976	4.144	0.959
212.500	262.416	79.996	19.996	100.284	19.975	4.208	0.977
213.000	262.904	79.996	19.996	100.284	19.974	4.224	1.017
213.500	263.410	79.995	19.995	100.284	19.978	3.963	1.011
214.000	263.854	79.994	19.995	100.284	19.974	4.222	0.972
214.500	264.392	79.996	19.996	100.284	19.975	4.167	0.966
215.000	264.900	79.995	19.996	100.284	19.975	4.147	1.014
215.500	265.381	79.995	19.996	100.283	19.975	4.162	1.018
216.000	265.906	79.996	19.996	100.283	19.978	4.013	0.998
216.500	266.389	79.996	19.995	100.284	19.980	3.867	1.007
217.000	266.897	79.996	19.996	100.284	19.974	4.263	0.999
217.500	267.351	79.994	19.995	100.283	19.971	4.421	0.977
218.000	267.853	79.997	19.996	100.284	19.977	4.083	0.960
218.500	268.372	79.995	19.997	100.283	19.976	4.095	0.989
219.000	268.853	79.995	19.995	100.282	19.978	4.008	1.011
219.500	269.313	79.995	19.995	100.282	19.980	3.895	0.971
220.000	269.844	79.996	19.996	100.282	19.976	4.085	0.966
220.500	270.319	79.996	19.996	100.282	19.979	3.955	0.998
221.000	270.895	79.995	19.996	100.283	19.975	4.167	1.028
221.500	271.367	79.995	19.996	100.284	19.980	3.871	1.050
222.000	271.867	79.997	19.996	100.285	19.976	4.140	1.011
222.500	272.408	79.996	19.996	100.286	19.981	3.790	1.007
223.001	272.917	79.994	19.996	100.285	19.976	4.107	1.045
223.501	273.352	79.995	19.995	100.284	19.979	3.951	0.996
224.000	273.832	79.997	19.996	100.278	19.975	4.204	0.930
224.500	274.358	79.997	19.996	100.276	19.975	4.189	0.961
225.000	274.861	79.997	19.996	100.273	19.977	4.077	1.017
225.500	275.370	79.995	19.995	100.274	19.976	4.123	1.020
226.000	275.914	79.996	19.995	100.276	19.981	3.814	1.033
226.500	276.346	79.996	19.995	100.280	19.981	3.833	1.015
227.000	276.863	79.997	19.996	100.281	19.979	3.941	0.963
227.500	277.366	79.997	19.996	100.284	19.982	3.710	0.985
228.000	277.844	79.997	19.996	100.283	19.984	3.593	1.001
228.500	278.329	79.996	19.995	100.283	19.978	3.967	0.972
229.000	278.834	79.997	19.996	100.284	19.979	3.902	0.976
229.500	279.333	79.997	19.996	100.284	19.977	4.062	0.997
230.000	279.846	79.997	19.996	100.281	19.977	4.055	1.008
230.500	280.316	79.997	19.997	100.274	19.976	4.106	0.998
231.000	280.794	79.995	19.996	100.270	19.976	4.130	0.966
231.500	281.261	79.996	19.996	100.269	19.977	4.071	0.946
232.000	281.754	79.997	19.997	100.270	19.979	3.953	0.952
232.500	282.267	79.997	19.997	100.269	19.977	4.074	0.983
233.000	282.759	79.996	19.996	100.272	19.977	4.023	1.005
233.500	283.266	79.996	19.997	100.272	19.977	4.060	1.002
234.000	283.751	79.996	19.997	100.267	19.977	4.030	0.995
234.500	284.257	79.995	19.998	100.266	19.976	4.103	0.992
235.000	284.709	79.995	19.997	100.265	19.977	4.074	0.975
235.500	285.224	79.994	19.997	100.268	19.976	4.089	0.963
236.000	285.735	79.995	19.996	100.272	19.977	4.031	0.996
236.500	286.239	79.995	19.996	100.278	19.980	3.834	1.020
237.000	286.705	79.996	19.997	100.276	19.976	4.098	0.992
237.500	287.181	79.994	19.996	100.280	19.974	4.234	0.956
238.000	287.694	79.993	19.996	100.282	19.978	3.991	0.966
238.500	288.156	79.992	19.997	100.282	19.977	4.067	0.982
239.000	288.672	79.994	19.996	100.282	19.979	3.929	0.977
239.500	289.159	79.995	19.996	100.279	19.980	3.843	0.990
240.000	289.665	79.993	19.995	100.276	19.979	3.909	0.998
240.500	290.163	79.995	19.996	100.276	19.976	4.121	0.998
241.000	290.657	79.993	19.995	100.276	19.979	3.900	0.998
241.500	291.155	79.995	19.996	100.276	19.980	3.845	0.992
242.000	291.638	79.996	19.996	100.281	19.977	4.041	0.987
242.500	292.132	79.995	19.997	100.283	19.981	3.786	0.979
243.000	292.643	79.995	19.995	100.283	19.981	3.830	0.991
243.500	293.116	79.994	19.996	100.280	19.976	4.117	0.995
244.000	293.622	79.995	19.996	100.274	19.981	3.801	0.981
244.500	294.089	79.996	19.995	100.273	19.977	4.061	0.976
245.000	294.594	79.996	19.995	100.273	19.979	3.934	0.973
245.500	295.070	79.995	19.995	100.271	19.980	3.883	0.977
246.000	295.612	79.995	19.996	100.270	19.976	4.102	1.000
246.500	296.105	79.995	19.995	100.276	19.975	4.148	1.026
247.000	296.574	79.995	19.995	100.277	19.977	4.080	0.998
247.500	297.078	79.996	19.996	100.276	19.979	3.954	0.967
248.000	297.589	79.995	19.995	100.275	19.977	4.029	0.994
248.500	298.068	79.996	19.996	100.279	19.978	3.988	1.002
249.000	298.535	79.996	19.995	100.279	19.980	3.863	0.968
249.500	299.046	79.997	19.996	100.278	19.977	4.029	0.962
250.000	299.539	79.996	19.994	100.278	19.976	4.124	0.991
250.500	299.994	79.996	19.995	100.277	19.975	4.148	0.976
251.000	300.525	79.996	19.996	100.271	19.977	4.035	0.967
251.500	300.998	79.995	19.995	100.267	19.971	4.402	0.995
252.001	301.470	79.995	19.995	100.264	19.978	4.003	0.974
252.501	301.993	79.997	19.995	100.263	19.979	3.930	0.970
253.001	302.505	79.995	19.996	100.260	19.976	4.119	1.015
253.501	303.005	79.995	19.995	100.260	19.973	4.284	1.023
254.000	303.483	79.995	19.995	100.257	19.976	4.100	0.995
254.501	303.982	79.996	19.996	100.257	19.975	4.177	0.978
255.001	304.470	79.995	19.996	100.258	19.977	4.059	0.983
255.500	305.000	79.997	19.995	100.265	19.978	3.974	1.003
256.001	305.455	79.996	19.996	100.265	19.975	4.166	1.001
256.501	305.943	79.994	19.996	100.269	19.976	4.093	0.964
257.001	306.452	79.995	19.995	100.268	19.977	4.062	0.970
257.501	306.959	79.996	19.995	100.264	19.979	3.935	1.006
258.001	307.440	79.998	19.995	100.260	19.977	4.078	1.002
258.501	307.928	79.995	19.996	100.263	19.977	4.025	0.979
259.001	308.420	79.996	19.996	100.263	19.977	4.037	0.974
259.501	308.930	79.995	19.997	100.263	19.978	3.976	0.991
260.000	309.405	79.995	19.995	100.264	19.973	4.321	0.994
260.500	309.905	79.996	19.996	100.262	19.974	4.219	0.980
261.000	310.394	79.996	19.996	100.255	19.972	4.334	0.982
261.500	310.911	79.996	19.996	100.251	19.981	3.799	0.997
262.000	311.415	79.996	19.997	100.248	19.979	3.904	1.014
262.501	311.868	79.997	19.996	100.245	19.977	4.046	0.989
263.001	312.407	79.995	19.995	100.246	19.975	4.164	0.974
263.500	312.934	79.994	19.995	100.247	19.978	4.016	1.029
264.000	313.430	79.994	19.995	100.249	19.976	4.090	1.045
264.500	313.927	79.995	19.996	100.250	19.975	4.159	1.008
265.000	314.406	79.996	19.995	100.255	19.979	3.947	0.985
265.500	314.911	79.996	19.996	100.256	19.977	4.069	0.981
266.000	315.392	79.996	19.996	100.255	19.978	3.974	0.985
266.500	315.909	79.994	19.996	100.254	19.972	4.333	0.992
267.000	316.417	79.994	19.995	100.254	19.976	4.124	1.011
267.500	316.928	79.995	19.996	100.248	19.975	4.190	1.021
268.000	317.394	79.995	19.996	100.246	19.974	4.246	0.998
268.500	317.867	79.994	19.996	100.247	19.972	4.341	0.958
269.000	318.385	79.996	19.996	100.246	19.978	3.976	0.965
269.501	318.877	79.994	19.996	100.245	19.971	4.401	1.000
270.001	319.394	79.995	19.995	100.246	19.976	4.127	1.010
270.501	319.856	79.994	19.995	100.246	19.971	4.406	0.994
271.001	320.360	79.995	19.996	100.246	19.968	4.608	0.973
271.500	320.887	79.995	19.998	100.246	19.975	4.156	0.998
272.001	321.402	79.994	19.996	100.249	19.973	4.292	1.037
272.501	321.889	79.996	19.996	100.249	19.977	4.081	1.023
273.000	322.358	79.994	19.996	100.249	19.971	4.396	0.979
273.500	322.862	79.996	19.995	100.249	19.972	4.350	0.964
274.000	323.376	79.996	19.996	100.249	19.978	4.005	0.995
274.501	323.903	79.996	19.995	100.245	19.970	4.464	1.030
275.001	324.381	79.995	19.996	100.245	19.972	4.372	1.023
275.500	324.841	79.995	19.996	100.245	19.975	4.164	0.971
276.000	325.376	79.995	19.996	100.246	19.972	4.341	0.966
276.500	325.871	79.995	19.997	100.247	19.973	4.285	1.013
277.000	326.369	79.997	19.996	100.248	19.970	4.469	1.012
277.501	326.865	79.995	19.995	100.248	19.974	4.243	0.994
278.001	327.366	79.997	19.996	100.248	19.970	4.492	0.995
278.500	327.842	79.996	19.995	100.247	19.973	4.280	0.987
279.000	328.343	79.996	19.994	100.247	19.970	4.469	0.977
279.500	328.847	79.995	19.995	100.249	19.968	4.615	0.991
280.000	329.342	79.995	19.995	100.250	19.971	4.455	1.002
280.500	329.873	79.998	19.995	100.250	19.972	4.390	1.013
281.000	330.338	79.997	19.995	100.249	19.978	4.006	1.012
281.500	330.845	79.996	19.995	100.249	19.970	4.457	0.984
282.000	331.330	79.997	19.996	100.247	19.966	4.707	0.981
282.500	331.831	79.997	19.994	100.247	19.971	4.406	0.988
283.000	332.339	79.997	19.995	100.246	19.971	4.395	0.997
283.500	332.839	79.998	19.994	100.248	19.971	4.422	1.009
284.000	333.326	79.998	19.996	100.248	19.968	4.643	0.998
284.500	333.865	79.997	19.995	100.247	19.971	4.445	1.006
285.000	334.338	79.998	19.995	100.247	19.971	4.402	1.019
285.500	334.868	79.997	19.995	100.245	19.971	4.416	1.007
286.000	335.328	79.997	19.995	100.244	19.969	4.581	0.996
286.500	335.850	79.997	19.995	100.243	19.973	4.311	0.986
287.000	336.380	79.995	19.995	100.243	19.972	4.363	1.017
287.500	336.846	79.997	19.995	100.243	19.972	4.390	1.024
288.000	337.346	79.998	19.995	100.245	19.972	4.356	0.981
288.500	337.877	79.997	19.994	100.246	19.968	4.589	0.998
289.000	338.350	79.996	19.994	100.246	19.969	4.576	1.018
289.500	338.865	79.997	19.996	100.245	19.966	4.727	0.996
290.001	339.376	79.996	19.996	100.243	19.967	4.691	1.007
290.501	339.875	79.995	19.996	100.244	19.965	4.771	1.018
291.001	340.342	79.996	19.996	100.243	19.972	4.367	0.988
291.501	340.841	79.997	19.995	100.244	19.967	4.703	0.965
292.001	341.384	79.996	19.995	100.245	19.964	4.883	1.004
292.500	341.906	79.996	19.996	100.246	19.971	4.450	1.054
293.000	342.395	79.996	19.996	100.246	19.964	4.863	1.038
293.500	342.874	79.996	19.996	100.242	19.968	4.598	0.989
294.000	343.343	79.997	19.995	100.241	19.968	4.618	0.958
294.500	343.907	79.995	19.996	100.240	19.974	4.244	0.991
295.000	344.403	79.996	19.996	100.239	19.963	4.913	1.047
295.500	344.908	79.995	19.996	100.239	19.970	4.517	1.030
296.000	345.408	79.997	19.997	100.243	19.964	4.867	1.002
296.500	345.889	79.996	19.995	100.244	19.968	4.635	0.993
297.000	346.423	79.995	19.995	100.244	19.969	4.565	0.999
297.500	346.893	79.996	19.996	100.245	19.968	4.631	1.009
298.000	347.422	79.996	19.996	100.245	19.966	4.740	1.001
298.500	347.914	79.995	19.998	100.245	19.966	4.720	1.010
299.000	348.418	79.995	19.996	100.246	19.964	4.859	1.009
299.500	348.954	79.996	19.995	100.247	19.964	4.849	1.018
300.001	349.459	79.995	19.996	100.247	19.966	4.727	1.041
300.501	349.981	79.996	19.997	100.247	19.960	5.083	1.034
301.001	350.469	79.996	19.996	100.247	19.959	5.145	1.018
301.501	350.963	79.996	19.996	100.247	19.959	5.150	0.996
302.001	351.468	79.996	19.995	100.247	19.961	5.073	0.991
302.501	351.994	79.997	19.995	100.247	19.959	5.146	1.015
303.000	352.462	79.997	19.996	100.246	19.959	5.167	1.012
303.501	352.999	79.998	19.995	100.246	19.963	4.914	1.000
304.001	353.521	79.997	19.996	100.246	19.955	5.453	1.032
304.500	354.015	79.997	19.996	100.244	19.958	5.223	1.038
305.000	354.546	79.997	19.995	100.240	19.959	5.147	1.020
305.501	355.024	79.996	19.995	100.238	19.960	5.118	1.017
306.001	355.547	79.998	19.995	100.235	19.956	5.351	1.005
306.500	356.016	79.997	19.995	100.235	19.950	5.757	0.997
307.000	356.518	79.997	19.996	100.232	19.949	5.826	0.982
307.500	357.049	79.996	19.996	100.236	19.947	5.935	1.002
308.000	357.569	79.999	19.995	100.237	19.951	5.645	1.042
308.500	358.036	79.999	19.995	100.239	19.954	5.515	1.019
309.000	358.592	79.997	19.995	100.239	19.954	5.465	1.005
309.500	359.098	79.998	19.996	100.243	19.950	5.708	1.042
310.000	359.544	79.997	19.994	100.243	19.951	5.645	1.007
310.501	360.112	79.998	19.996	100.241	19.953	5.522	0.983
311.001	360.537	79.999	19.994	100.236	19.954	5.507	1.004
311.500	361.052	79.998	19.995	100.235	19.953	5.560	0.966
312.000	361.608	79.998	19.996	100.235	19.948	5.866	1.005
312.500	362.074	79.997	19.996	100.233	19.952	5.631	1.047
313.000	362.575	79.997	19.995	100.235	19.947	5.909	0.995
313.500	363.083	79.997	19.996	100.239	19.953	5.531	0.988
314.000	363.577	79.996	19.995	100.240	19.945	6.046	1.006
314.500	364.066	79.996	19.996	100.240	19.944	6.090	0.993
315.000	364.547	79.998	19.996	100.241	19.945	6.048	0.977
315.500	365.096	79.996	19.996	100.240	19.947	5.895	1.000
316.000	365.575	79.996	19.996	100.241	19.942	6.228	1.029
316.500	366.123	79.997	19.997	100.240	19.944	6.106	1.028
317.001	366.511	79.996	19.996	100.240	19.943	6.179	0.982
317.501	367.132	79.994	19.995	100.241	19.944	6.099	0.972
318.001	367.627	79.995	19.997	100.241	19.938	6.466	1.063
318.501	368.131	79.994	19.995	100.240	19.940	6.369	1.057
319.001	368.416	79.996	19.997	100.242	19.937	6.573	0.894
319.501	369.135	79.995	19.997	100.243	19.940	6.337	0.897
320.000	369.744	79.995	19.997	100.243	19.936	6.639	1.166
320.500	369.884	79.995	19.996	100.242	19.934	6.711	1.039
321.000	370.603	79.995	19.996	100.243	19.929	7.027	0.804
321.501	370.854	79.995	19.996	100.242	19.930	7.016	0.914
322.001	371.291	79.995	19.996	100.241	19.930	6.956	0.829
322.500	372.338	79.995	19.997	100.242	19.924	7.335	1.086
323.000	372.630	79.994	19.998	100.244	19.927	7.159	1.412
323.501	373.003	79.995	19.996	100.248	19.927	7.160	1.002
324.001	373.668	79.993	19.997	100.250	19.918	7.736	0.851
324.501	374.136	79.995	19.997	100.251	19.920	7.624	1.085
325.001	374.760	79.994	19.997	100.250	19.920	7.632	1.113
325.500	375.159	79.994	19.996	100.249	19.912	8.136	1.058
326.000	375.662	79.995	19.996	100.246	19.909	8.299	0.962
326.500	376.182	79.996	19.997	100.244	19.909	8.295	0.962
327.000	376.740	79.995	19.997	100.246	19.904	8.618	1.051
327.500	377.143	79.995	19.997	100.246	19.908	8.365	1.020
328.001	377.702	79.995	19.996	100.247	19.901	8.825	0.961
328.501	378.241	79.996	19.996	100.246	19.901	8.789	1.030
329.000	378.719	79.995	19.996	100.246	19.896	9.080	1.058
329.500	379.220	79.995	19.997	100.244	19.893	9.295	0.998
330.000	379.803	79.995	19.997	100.245	19.892	9.383	1.031
330.501	380.280	79.995	19.996	100.244	19.888	9.606	1.072
331.001	380.796	79.994	19.996	100.247	19.877	10.305	1.027
331.500	381.259	79.993	19.997	100.254	19.891	9.411	0.986
332.000	381.825	79.995	19.996	100.256	19.881	10.066	1.004
332.500	382.264	79.996	19.996	100.257	19.880	10.127	1.017
333.001	382.790	79.996	19.996	100.258	19.867	10.935	0.985
333.501	383.331	79.996	19.995	100.255	19.873	10.570	1.016
334.001	383.769	79.996	19.995	100.247	19.863	11.157	1.023
334.500	384.311	79.996	19.995	100.250	19.859	11.417	0.980
335.000	384.850	79.996	19.996	100.256	19.856	11.641	1.031
335.500	385.311	79.995	19.995	100.261	19.851	11.929	1.041
336.000	385.830	79.995	19.996	100.267	19.851	11.917	0.990
336.500	386.327	79.996	19.996	100.274	19.849	12.070	0.998
337.000	386.844	79.997	19.996	100.276	19.836	12.840	1.015
337.500	387.355	79.996	19.996	100.273	19.832	13.088	1.020
338.000	387.854	79.996	19.996	100.270	19.833	13.049	1.019
338.501	388.367	79.997	19.996	100.267	19.828	13.345	1.011
339.001	388.886	79.994	19.995	100.263	19.823	13.669	1.022
339.501	389.375	79.995	19.995	100.260	19.820	13.855	1.020
340.000	389.872	79.995	19.997	100.263	19.812	14.350	0.997
340.501	390.394	79.995	19.995	100.268	19.812	14.390	1.002
341.001	390.915	79.995	19.996	100.269	19.805	14.810	1.031
341.501	391.444	79.995	19.995	100.269	19.801	15.052	1.046
342.000	391.973	79.994	19.995	100.274	19.795	15.425	1.054
342.500	392.467	79.996	19.995	100.277	19.784	16.098	1.040
343.000	392.999	79.996	19.996	100.278	19.782	16.256	1.025
343.500	393.515	79.996	19.996	100.281	19.775	16.696	1.038
344.000	394.029	79.995	19.997	100.286	19.771	16.937	1.039
344.500	394.539	79.996	19.995	100.287	19.765	17.287	1.027
345.000	395.057	79.994	19.995	100.286	19.754	18.009	1.026
345.500	395.571	79.996	19.997	100.291	19.750	18.251	1.030
346.000	396.095	79.995	19.996	100.295	19.739	18.959	1.035
346.501	396.608	79.995	19.996	100.302	19.727	19.715	1.037
347.001	397.114	79.995	19.994	100.306	19.718	20.244	1.028
347.500	397.596	79.994	19.996	100.313	19.715	20.443	1.003
348.000	398.119	79.994	19.996	100.316	19.701	21.323	0.996
348.500	398.580	79.994	19.995	100.321	19.699	21.441	0.994
349.000	399.141	79.994	19.995	100.323	19.684	22.367	1.003
349.500	399.672	79.994	19.997	100.327	19.682	22.540	1.057
350.000	400.204	79.994	19.996	100.330	19.663	23.716	1.078
350.500	400.701	79.995	19.997	100.333	19.654	24.286	1.046
351.001	401.187	79.995	19.995	100.338	19.646	24.747	1.006
351.501	401.658	79.994	19.996	100.342	19.627	25.962	0.970
352.000	402.193	79.995	19.996	100.349	19.618	26.508	0.982
352.500	402.691	79.995	19.995	100.356	19.602	27.537	1.019
353.001	403.253	79.995	19.996	100.365	19.587	28.441	1.046
353.501	403.760	79.994	19.996	100.371	19.570	29.566	1.065
354.000	404.271	79.995	19.996	100.381	19.556	30.442	1.044
354.500	404.771	79.994	19.995	100.387	19.538	31.551	1.014
355.000	405.269	79.995	19.996	100.393	19.517	32.877	1.005
355.500	405.803	79.995	19.996	100.400	19.506	33.577	1.015
356.000	406.318	79.993	19.996	100.406	19.496	34.215	1.040
356.500	406.807	79.996	19.995	100.411	19.468	35.935	1.026
357.000	407.309	79.995	19.995	100.418	19.452	36.963	0.998
357.500	407.845	79.995	19.996	100.426	19.428	38.468	1.014
358.000	408.364	79.995	19.995	100.432	19.403	39.987	1.047
358.501	408.868	79.995	19.996	100.438	19.386	41.061	1.040
359.001	409.375	79.995	19.995	100.444	19.362	42.601	1.017
359.500	409.897	79.994	19.995	100.453	19.345	43.648	1.020
360.001	410.416	79.994	19.995	100.461	19.320	45.225	1.035
360.501	410.945	79.996	19.995	100.471	19.305	46.170	1.045
361.000	411.426	79.996	19.996	100.481	19.283	47.538	1.029
361.500	411.938	79.997	19.995	100.484	19.264	48.707	1.001
362.000	412.472	79.997	19.994	100.481	19.239	50.240	1.019
362.500	412.979	79.997	19.996	100.481	19.218	51.552	1.044
363.000	413.448	79.997	19.994	100.481	19.192	53.208	1.009
363.500	414.027	79.996	19.994	100.485	19.170	54.567	1.012
364.000	414.487	79.996	19.997	100.495	19.138	56.577	1.043
364.500	415.016	79.996	19.995	100.507	19.100	58.999	1.014
365.000	415.525	79.998	19.995	100.521	19.070	60.922	1.014
365.500	416.005	79.999	19.994	100.535	19.043	62.651	1.014
366.000	416.520	79.997	19.995	100.542	19.012	64.609	0.992
366.500	417.067	79.996	19.994	100.569	18.980	66.646	1.029
367.000	417.602	79.998	19.996	100.599	18.955	68.234	1.072
367.501	418.129	79.996	19.994	100.594	18.935	69.511	1.072
368.001	418.631	79.997	19.995	100.580	18.914	70.828	1.046
368.500	419.150	79.999	19.996	100.576	18.893	72.135	1.025
369.000	419.687	79.996	19.994	100.560	18.872	73.499	1.039
369.500	420.216	79.997	19.996	100.538	18.857	74.467	1.061
370.000	420.730	79.996	19.996	100.547	18.833	75.989	1.054
370.500	421.262	79.996	19.994	100.568	18.819	76.833	1.045
371.000	421.753	79.998	19.996	100.570	18.799	78.129	1.034
371.500	422.259	79.997	19.996	100.560	18.786	78.908	1.010
372.000	422.778	79.998	19.996	100.550	18.760	80.567	1.011
372.500	423.296	79.997	19.996	100.538	18.746	81.484	1.031
373.000	423.812	79.995	19.995	100.513	18.722	82.972	1.035
373.500	424.384	79.996	19.995	100.491	18.697	84.574	1.061
374.000	424.870	79.995	19.994	100.481	18.673	86.067	1.073
374.500	425.403	79.996	19.996	100.490	18.647	87.719	1.039
375.000	425.911	79.997	19.995	100.516	18.622	89.355	1.030
375.500	426.454	79.998	19.996	100.563	18.592	91.272	1.046
376.000	426.947	79.996	19.996	100.629	18.564	93.042	1.043
376.500	427.490	79.997	19.996	100.702	18.524	95.582	1.036
377.000	427.969	79.996	19.996	100.761	18.492	97.640	1.030
377.501	428.521	79.995	19.995	100.796	18.458	99.794	1.027
378.001	429.049	79.998	19.995	100.822	18.426	101.835	1.055
378.500	429.539	79.996	19.997	100.840	18.389	104.195	1.049
379.000	430.097	79.996	19.996	100.847	18.349	106.731	1.033
379.500	430.580	79.997	19.998	100.855	18.312	109.073	1.044
380.000	431.098	79.997	19.996	100.876	18.264	112.141	1.021
380.500	431.625	79.997	19.996	100.895	18.219	114.990	1.022
381.000	432.119	79.997	19.996	100.903	18.172	118.042	1.033
381.501	432.627	79.997	19.996	100.908	18.119	121.383	1.012
382.001	433.166	79.996	19.995	100.914	18.069	124.629	1.025
382.501	433.711	79.997	19.996	100.928	18.014	128.116	1.065
383.001	434.227	79.996	19.998	100.941	17.964	131.315	1.073
383.500	434.704	79.997	19.997	100.949	17.916	134.394	1.027
384.000	435.240	79.998	19.996	100.962	17.857	138.092	1.003
384.500	435.748	79.996	19.997	100.978	17.797	141.880	1.028
385.000	436.238	79.998	19.997	100.992	17.733	145.966	1.021
385.500	436.750	79.998	19.996	101.008	17.669	150.008	1.000
386.000	437.264	79.996	19.995	101.034	17.601	154.345	1.014
386.500	437.804	79.997	19.996	101.054	17.530	158.860	1.040
387.000	438.306	79.997	19.996	101.086	17.459	163.398	1.048
387.501	438.812	79.998	19.995	101.133	17.384	168.124	1.025
388.001	439.334	80.000	19.997	101.157	17.312	172.637	1.018
388.501	439.851	79.999	19.995	101.182	17.240	177.187	1.033
389.001	440.348	79.998	19.995	101.205	17.159	182.263	1.026
389.501	440.817	79.999	19.996	101.216	17.080	187.207	0.990
390.001	441.335	79.997	19.995	101.225	16.993	192.667	0.977
390.501	441.878	79.997	19.995	101.240	16.911	197.855	1.024
391.001	442.382	79.997	19.995	101.272	16.822	203.485	1.054
391.501	442.860	79.997	19.995	101.314	16.729	209.359	1.015
392.000	443.395	79.997	19.996	101.355	16.636	215.279	0.997
392.500	443.845	79.998	19.996	101.388	16.542	221.234	0.999
393.000	444.362	79.996	19.996	101.433	16.458	226.615	0.976
393.501	444.837	79.997	19.996	101.463	16.357	233.065	0.980
394.001	445.354	79.997	19.996	101.480	16.264	239.086	0.992
394.501	445.830	79.997	19.996	101.494	16.168	245.290	0.993
395.000	446.319	79.996	19.996	101.493	16.088	250.505	0.979
395.500	446.835	79.998	19.996	101.500	15.996	256.450	0.985
396.000	447.303	79.996	19.996	101.510	15.915	261.703	0.995
396.500	447.821	79.996	19.995	101.530	15.837	266.766	0.985
397.000	448.342	79.997	19.996	101.546	15.771	271.073	1.012
397.500	448.820	79.995	19.994	101.559	15.707	275.187	1.019
398.000	449.295	79.996	19.997	101.566	15.653	278.651	0.976
398.500	449.803	79.995	19.997	101.568	15.598	282.099	0.968
399.000	450.303	79.996	19.996	101.559	15.556	284.772	0.996
399.500	450.846	79.994	19.996	101.546	15.511	287.562	1.026
400.000	451.317	79.995	19.997	101.528	15.458	290.863	1.028
400.500	451.804	79.995	19.995	101.508	15.425	292.924	0.986
401.000	452.301	79.995	19.996	101.489	15.392	294.940	0.971
401.500	452.788	79.995	19.996	101.477	15.353	297.369	0.984
402.001	453.282	79.995	19.997	101.476	15.322	299.287	0.983
402.501	453.823	79.995	19.996	101.482	15.291	301.246	1.008
403.000	454.334	79.994	19.997	101.492	15.259	303.248	1.043
403.500	454.835	79.996	19.997	101.508	15.239	304.508	1.032
404.000	455.327	79.995	19.996	101.533	15.202	306.776	1.003
404.500	455.833	79.995	19.997	101.569	15.184	307.890	0.996
405.000	456.335	79.995	19.996	101.614	15.159	309.412	1.003
405.500	456.805	79.995	19.996	101.664	15.145	310.221	0.990
406.001	457.347	79.994	19.996	101.725	15.115	312.092	0.992
406.501	457.823	79.994	19.996	101.786	15.101	312.893	1.015
407.000	458.330	79.995	19.998	101.839	15.088	313.683	1.000
407.501	458.839	79.995	19.997	101.884	15.079	314.202	1.000
408.001	459.344	79.996	19.997	101.921	15.067	314.897	1.015
408.501	459.853	79.994	19.996	101.940	15.058	315.413	1.014
409.001	460.365	79.995	19.998	101.946	15.061	315.179	1.018
409.500	460.871	79.994	19.997	101.942	15.062	315.016	1.019
410.000	461.346	79.994	19.998	101.929	15.069	314.562	1.000
410.500	461.882	79.996	19.998	101.912	15.075	314.110	0.996
411.000	462.399	79.995	19.996	101.894	15.086	313.359	1.032
411.500	462.899	79.994	19.997	101.877	15.102	312.230	1.035
412.001	463.414	79.996	19.997	101.860	15.118	311.195	1.016
412.501	463.902	79.995	19.997	101.843	15.142	309.602	1.009
413.000	464.431	79.995	19.998	101.831	15.176	307.364	1.010
413.500	464.947	79.996	19.997	101.821	15.200	305.762	1.032
414.000	465.432	79.995	19.997	101.811	15.235	303.528	1.023
414.501	465.934	79.997	19.998	101.800	15.278	300.717	0.994
415.001	466.421	79.995	19.997	101.788	15.319	298.058	0.988
415.500	466.955	79.993	19.996	101.772	15.369	294.865	1.005
416.000	467.472	79.995	19.996	101.755	15.409	292.323	1.036
416.501	467.967	79.994	19.996	101.733	15.466	288.675	1.032
417.001	468.525	79.996	19.996	101.709	15.523	285.005	1.032
417.500	469.018	79.996	19.997	101.687	15.587	280.968	1.052
418.000	469.496	79.995	19.996	101.672	15.655	276.617	1.011
418.500	470.008	79.995	19.997	101.655	15.722	272.317	0.980
419.000	470.573	79.996	19.998	101.639	15.790	268.026	1.034
419.500	471.049	79.997	19.998	101.622	15.866	263.150	1.060
420.000	471.611	79.995	19.997	101.609	15.939	258.517	1.040
420.501	472.089	79.995	19.997	101.585	16.028	252.833	1.039
421.001	472.594	79.994	19.995	101.566	16.107	247.832	1.011
421.500	473.150	79.994	19.995	101.545	16.199	242.002	1.022
422.001	473.691	79.995	19.996	101.530	16.280	236.838	1.079
422.501	474.167	79.996	19.996	101.505	16.362	231.656	1.057
423.000	474.686	79.997	19.997	101.482	16.456	225.681	1.006
423.500	475.226	79.994	19.994	101.458	16.543	220.137	1.027
424.000	475.750	79.995	19.995	101.435	16.636	214.238	1.062
424.500	476.281	79.995	19.996	101.413	16.728	208.401	1.059
425.000	476.788	79.995	19.997	101.391	16.822	202.452	1.047
425.500	477.334	79.996	19.996	101.371	16.908	197.032	1.045
426.001	477.827	79.994	19.995	101.349	17.001	191.127	1.046
426.501	478.331	79.994	19.995	101.331	17.092	185.360	1.018
427.000	478.856	79.995	19.996	101.313	17.176	180.063	1.013
427.500	479.356	79.994	19.996	101.299	17.268	174.211	1.027
428.000	479.889	79.995	19.996	101.286	17.353	168.815	1.029
428.500	480.437	79.995	19.996	101.270	17.446	162.954	1.057
429.000	480.955	79.996	19.995	101.256	17.527	157.836	1.073
429.500	481.496	79.995	19.995	101.236	17.611	152.539	1.063
430.000	482.016	79.994	19.995	101.215	17.697	147.143	1.060
430.501	482.490	79.995	19.996	101.192	17.772	142.404	1.027
431.001	483.016	79.994	19.995	101.174	17.854	137.201	0.997
431.500	483.547	79.994	19.994	101.151	17.928	132.564	1.029
432.000	484.079	79.995	19.996	101.135	18.006	127.629	1.060
432.500	484.582	79.994	19.994	101.117	18.083	122.783	1.049
433.000	485.138	79.997	19.995	101.098	18.154	118.304	1.047
433.500	485.676	79.995	19.995	101.077	18.223	113.966	1.077
434.000	486.150	79.995	19.996	101.057	18.295	109.404	1.053
434.500	486.676	79.995	19.996	101.034	18.358	105.487	1.006
435.000	487.174	79.995	19.995	101.011	18.423	101.370	1.012
435.501	487.706	79.995	19.996	100.990	18.488	97.313	1.027
436.001	488.265	79.995	19.995	100.967	18.545	93.741	1.060
436.500	488.752	79.995	19.996	100.946	18.606	89.877	1.069
437.000	489.292	79.996	19.996	100.924	18.667	86.030	1.037
437.500	489.815	79.996	19.995	100.901	18.724	82.452	1.045
438.000	490.318	79.995	19.996	100.878	18.770	79.565	1.044
438.500	490.846	79.996	19.995	100.853	18.828	75.941	1.028
439.000	491.359	79.995	19.996	100.828	18.876	72.917	1.036
439.501	491.885	79.998	19.996	100.803	18.920	70.150	1.040
440.001	492.428	79.997	19.996	100.783	18.966	67.274	1.054
440.500	492.910	79.997	19.996	100.761	19.012	64.382	1.047
441.000	493.432	79.997	19.995	100.742	19.055	61.735	1.014
441.501	493.965	79.996	19.996	100.726	19.095	59.169	1.029
442.001	494.506	79.998	19.995	100.710	19.134	56.785	1.065
442.500	495.037	79.997	19.996	100.689	19.171	54.462	1.074
443.000	495.566	79.995	19.994	100.672	19.211	51.909	1.066
443.500	496.059	79.995	19.995	100.651	19.247	49.687	1.040
444.000	496.579	79.997	19.995	100.630	19.275	47.893	1.017
444.500	497.117	79.997	19.996	100.609	19.311	45.692	1.036
445.000	497.624	79.996	19.996	100.591	19.338	43.951	1.052
445.500	498.176	79.997	19.995	100.574	19.371	41.894	1.052
446.000	498.672	79.998	19.995	100.558	19.403	39.899	1.053
446.500	499.196	79.995	19.995	100.542	19.426	38.462	1.033
447.000	499.683	79.999	19.996	100.530	19.454	36.729	1.015
447.500	500.220	79.997	19.995	100.515	19.476	35.332	1.018
448.000	500.749	79.999	19.996	100.499	19.499	33.910	1.045
448.501	501.248	79.995	19.994	100.487	19.522	32.489	1.047
449.001	501.751	79.997	19.995	100.475	19.542	31.229	1.015
449.501	502.248	79.997	19.995	100.461	19.558	30.213	1.001
450.000	502.769	79.996	19.994	100.446	19.582	28.731	1.009
450.500	503.281	79.997	19.995	100.433	19.599	27.646	1.026
451.000	503.785	79.998	19.995	100.420	19.616	26.614	1.025
451.501	504.306	79.996	19.995	100.408	19.631	25.641	1.020
452.001	504.822	79.996	19.995	100.400	19.651	24.417	1.031
452.500	505.311	79.995	19.995	100.394	19.662	23.689	1.021
453.000	505.841	79.998	19.997	100.384	19.683	22.401	1.012
453.500	506.324	79.996	19.996	100.375	19.696	21.607	1.016
454.000	506.844	79.997	19.996	100.361	19.711	20.648	1.008
454.501	507.387	79.997	19.996	100.349	19.723	19.893	1.033
455.001	507.888	79.997	19.994	100.339	19.737	19.006	1.054
455.500	508.405	79.996	19.994	100.331	19.744	18.610	1.031
456.000	508.903	79.997	19.996	100.324	19.752	18.102	1.017
456.500	509.411	79.996	19.995	100.323	19.767	17.142	1.011
457.000	509.958	79.997	19.996	100.316	19.771	16.920	1.031
457.500	510.448	79.998	19.996	100.309	19.787	15.910	1.046
458.000	510.996	79.996	19.995	100.303	19.794	15.499	1.037
458.500	511.484	79.995	19.996	100.297	19.802	14.992	1.037
459.000	511.959	79.998	19.996	100.286	19.808	14.568	1.000
459.500	512.474	79.997	19.996	100.277	19.814	14.199	0.977
460.000	513.011	79.997	19.996	100.271	19.823	13.660	1.021
460.500	513.515	79.997	19.996	100.268	19.827	13.439	1.046
461.000	514.032	79.996	19.996	100.264	19.838	12.731	1.031
461.500	514.544	79.997	19.996	100.262	19.843	12.389	1.025
462.001	515.071	79.997	19.997	100.261	19.849	12.009	1.034
462.501	515.583	79.998	19.996	100.259	19.858	11.487	1.039
463.001	516.074	79.998	19.997	100.254	19.853	11.813	1.021
463.501	516.593	79.996	19.995	100.246	19.860	11.364	1.006
464.000	517.090	79.997	19.995	100.238	19.864	11.076	1.013
464.500	517.604	79.999	19.995	100.228	19.875	10.419	1.014
465.000	518.096	79.997	19.995	100.220	19.873	10.560	1.008
465.501	518.610	79.998	19.995	100.218	19.874	10.483	1.006
466.001	519.114	79.998	19.996	100.216	19.877	10.315	1.012
466.500	519.627	79.998	19.994	100.214	19.885	9.806	1.018
467.000	520.159	79.997	19.996	100.214	19.883	9.894	1.031
467.501	520.666	79.998	19.995	100.213	19.891	9.431	1.042
468.001	521.189	79.998	19.996	100.207	19.893	9.295	1.034
468.501	521.707	79.997	19.995	100.205	19.897	9.025	1.035
469.000	522.228	79.997	19.996	100.205	19.892	9.321	1.040
469.500	522.710	79.998	19.996	100.205	19.901	8.815	1.021
470.000	523.229	79.998	19.995	100.204	19.902	8.699	1.002
470.501	523.723	79.998	19.996	100.205	19.903	8.638	1.007
471.001	524.178	79.997	19.997	100.204	19.904	8.602	0.981
471.500	524.719	79.999	19.996	100.202	19.901	8.807	0.972
472.000	525.223	79.997	19.995	100.203	19.907	8.420	1.020
472.500	525.771	79.998	19.997	100.203	19.909	8.278	1.048
473.000	526.243	79.996	19.996	100.203	19.912	8.129	1.036
473.501	526.752	79.995	19.995	100.202	19.912	8.120	1.001
474.001	527.278	79.996	19.995	100.202	19.912	8.094	1.008
474.500	527.758	79.996	19.995	100.194	19.914	7.973	1.021
475.000	528.305	79.997	19.996	100.187	19.917	7.783	1.017
475.500	528.771	79.998	19.997	100.181	19.913	8.017	1.020
476.000	529.294	79.996	19.996	100.174	19.918	7.740	1.001
476.501	529.798	79.996	19.996	100.170	19.917	7.784	1.008
477.001	530.273	79.996	19.997	100.174	19.921	7.511	1.003
477.501	530.809	79.994	19.995	100.177	19.920	7.596	0.995
478.000	531.299	79.994	19.995	100.179	19.917	7.803	1.018
478.500	531.816	79.995	19.996	100.180	19.922	7.463	1.016
479.000	532.313	79.995	19.996	100.184	19.925	7.317	1.011
479.500	532.781	79.994	19.997	100.185	19.919	7.641	0.990
480.000	533.337	79.995	19.996	100.189	19.927	7.167	0.995
480.500	533.821	79.994	19.997	100.188	19.925	7.269	1.032
481.000	534.330	79.994	19.997	100.187	19.928	7.076	1.016
481.500	534.851	79.994	19.997	100.183	19.926	7.226	1.012
482.000	535.397	79.994	19.996	100.180	19.929	7.069	1.049
482.500	535.902	79.993	19.995	100.179	19.929	7.042	1.059
483.000	536.418	79.994	19.995	100.182	19.925	7.283	1.036
483.501	536.907	79.994	19.997	100.186	19.929	7.027	1.013
484.001	537.422	79.993	19.996	100.191	19.928	7.118	1.005
484.501	537.914	79.994	19.995	100.191	19.929	7.023	1.006
485.001	538.445	79.995	19.997	100.186	19.927	7.137	1.015
485.501	538.950	79.993	19.995	100.181	19.933	6.809	1.029
486.000	539.425	79.994	19.995	100.177	19.927	7.149	1.008
486.500	539.920	79.992	19.996	100.171	19.932	6.825	0.975
487.000	540.452	79.995	19.997	100.171	19.933	6.779	0.999
487.501	540.966	79.993	19.995	100.173	19.930	6.955	1.036
488.001	541.445	79.994	19.996	100.174	19.933	6.800	1.019
488.501	541.962	79.995	19.995	100.177	19.929	7.013	0.995
489.000	542.492	79.994	19.996	100.177	19.933	6.817	1.022
489.500	542.996	79.993	19.996	100.176	19.933	6.799	1.040
490.000	543.524	79.995	19.996	100.171	19.936	6.595	1.033
490.500	543.968	79.995	19.996	100.170	19.935	6.683	1.002
491.000	544.495	79.994	19.996	100.169	19.931	6.928	0.972
491.500	545.017	79.993	19.995	100.170	19.932	6.824	1.010
492.000	545.478	79.994	19.995	100.171	19.931	6.890	1.016
492.500	545.966	79.995	19.995	100.174	19.931	6.948	0.966
493.001	546.514	79.993	19.995	100.174	19.934	6.749	0.993
493.501	546.986	79.996	19.996	100.175	19.928	7.083	1.028
494.000	547.498	79.995	19.996	100.174	19.934	6.734	1.002
494.500	548.003	79.995	19.996	100.173	19.930	6.949	1.000
495.000	548.534	79.995	19.998	100.172	19.932	6.881	1.026
495.501	549.040	79.994	19.997	100.173	19.931	6.936	1.036
496.001	549.558	79.995	19.997	100.175	19.933	6.799	1.030
496.500	550.032	79.995	19.995	100.174	19.932	6.874	1.008
497.000	550.558	79.997	19.996	100.174	19.933	6.780	0.997
497.500	551.023	79.995	19.997	100.172	19.935	6.687	0.996
498.000	551.545	79.995	19.997	100.170	19.933	6.799	0.988
498.501	552.056	79.995	19.997	100.167	19.932	6.877	1.010
499.001	552.546	79.995	19.997	100.167	19.933	6.794	1.017
499.501	553.077	79.995	19.998	100.167	19.936	6.597	1.011
500.001	553.549	79.995	19.996	100.167	19.931	6.896	1.012
500.500	554.085	79.995	19.996	100.166	19.937	6.546	1.006
501.000	554.616	79.995	19.998	100.166	19.937	6.556	1.038
501.500	555.107	79.996	19.997	100.166	19.932	6.868	1.044
502.000	555.613	79.996	19.997	100.166	19.930	6.965	1.009
502.500	556.123	79.995	19.996	100.165	19.936	6.576	1.007
503.000	556.617	79.994	19.997	100.165	19.936	6.583	1.010
503.501	557.110	79.996	19.998	100.164	19.935	6.671	0.996
504.001	557.602	79.995	19.997	100.162	19.932	6.824	0.986
504.501	558.126	79.996	19.996	100.158	19.935	6.692	1.000
505.000	558.646	79.995	19.997	100.158	19.933	6.780	1.030
505.501	559.134	79.998	19.998	100.159	19.932	6.878	1.026
506.001	559.617	79.995	19.997	100.159	19.933	6.773	0.990
506.500	560.129	79.994	19.997	100.161	19.938	6.479	0.983
507.000	560.617	79.994	19.997	100.166	19.934	6.727	0.998
507.501	561.168	79.994	19.995	100.168	19.932	6.854	1.020
508.001	561.645	79.995	19.997	100.172	19.935	6.668	1.034
508.501	562.164	79.994	19.996	100.172	19.936	6.574	1.012
509.001	562.635	79.995	19.996	100.172	19.931	6.911	0.992
509.501	563.190	79.996	19.996	100.172	19.935	6.639	1.008
510.001	563.673	79.994	19.997	100.171	19.936	6.592	1.033
510.501	564.191	79.997	19.996	100.168	19.933	6.761	1.020
511.001	564.682	79.995	19.995	100.168	19.936	6.619	1.004
511.500	565.172	79.996	19.995	100.168	19.932	6.834	0.995
512.000	565.659	79.995	19.996	100.168	19.933	6.780	0.979
512.500	566.182	79.995	19.996	100.167	19.935	6.685	0.994
513.000	566.702	79.996	19.995	100.166	19.933	6.776	1.026
513.500	567.193	79.996	19.996	100.167	19.938	6.464	1.027
514.000	567.698	79.996	19.996	100.166	19.933	6.814	1.004
514.500	568.215	79.995	19.995	100.164	19.932	6.877	1.009
515.000	568.704	79.996	19.996	100.165	19.936	6.631	1.014
515.500	569.246	79.995	19.996	100.165	19.937	6.541	1.019
516.000	569.759	79.995	19.995	100.165	19.934	6.756	1.043
516.500	570.253	79.997	19.997	100.164	19.936	6.610	1.031
517.000	570.731	79.993	19.994	100.164	19.939	6.398	0.990
517.500	571.258	79.997	19.996	100.163	19.935	6.693	0.989
518.000	571.778	79.996	19.997	100.162	19.937	6.537	1.025
518.500	572.248	79.996	19.997	100.162	19.935	6.687	1.018
519.000	572.738	79.995	19.995	100.163	19.934	6.746	0.975
519.501	573.289	79.997	19.995	100.166	19.938	6.462	1.001
520.000	573.796	79.995	19.996	100.167	19.932	6.839	1.050
520.500	574.317	79.997	19.996	100.170	19.934	6.702	1.043
521.000	574.871	79.997	19.996	100.170	19.934	6.724	1.051
521.500	575.349	79.997	19.995	100.169	19.936	6.589	1.053
522.000	575.876	79.996	19.996	100.168	19.932	6.826	1.018
522.500	576.378	79.998	19.996	100.166	19.939	6.449	1.017
523.000	576.885	79.996	19.996	100.164	19.934	6.709	1.019
523.500	577.352	79.998	19.995	100.164	19.936	6.605	0.991
524.000	577.905	79.997	19.997	100.164	19.938	6.498	0.997
524.500	578.391	79.997	19.996	100.164	19.933	6.804	1.029
525.000	578.883	79.997	19.996	100.165	19.932	6.845	1.009
525.500	579.385	79.996	19.995	100.166	19.933	6.780	0.987
526.000	579.889	79.996	19.995	100.166	19.927	7.162	1.000
526.501	580.367	79.996	19.995	100.166	19.934	6.714	0.994
527.001	580.909	79.998	19.997	100.166	19.931	6.928	1.001
527.501	581.398	79.997	19.996	100.165	19.932	6.848	1.025
528.000	581.920	79.997	19.997	100.165	19.934	6.727	1.021
528.500	582.400	79.996	19.995	100.165	19.932	6.856	1.007
529.000	582.919	79.996	19.995	100.165	19.935	6.675	1.001
529.500	583.419	79.998	19.997	100.165	19.930	7.007	1.009
530.000	583.933	79.997	19.997	100.165	19.935	6.671	1.016
530.500	584.440	79.996	19.996	100.163	19.933	6.783	1.017
531.000	584.955	79.997	19.996	100.162	19.927	7.181	1.022
531.500	585.434	79.997	19.996	100.162	19.935	6.644	1.008
532.000	585.939	79.998	19.996	100.161	19.932	6.882	0.989
532.500	586.432	79.996	19.996	100.162	19.930	6.965	0.991
533.000	586.973	79.995	19.994	100.164	19.929	7.050	1.016
533.500	587.455	79.997	19.996	100.167	19.926	7.226	1.028
534.000	587.959	79.997	19.997	100.168	19.931	6.934	1.004
534.500	588.472	79.996	19.996	100.169	19.929	7.018	1.002
535.000	588.971	79.997	19.996	100.169	19.931	6.939	1.015
535.500	589.507	79.997	19.996	100.170	19.932	6.870	1.023
536.000	589.984	79.995	19.996	100.167	19.934	6.714	1.024
536.500	590.458	79.997	19.997	100.168	19.930	6.991	0.982
537.000	590.975	79.996	19.995	100.168	19.932	6.863	0.971
537.500	591.508	79.996	19.996	100.167	19.932	6.859	1.020
538.000	592.017	79.996	19.996	100.167	19.936	6.623	1.046
538.500	592.492	79.997	19.995	100.167	19.936	6.592	1.013
539.000	592.975	79.997	19.994	100.167	19.934	6.728	0.971
539.500	593.494	79.997	19.996	100.166	19.930	6.998	0.980
540.000	594.001	79.997	19.995	100.166	19.928	7.126	1.014
540.500	594.526	79.995	19.995	100.165	19.929	7.017	1.029
541.000	595.034	79.996	19.996	100.165	19.930	6.972	1.033
541.500	595.552	79.996	19.995	100.165	19.929	7.011	1.030
542.000	596.081	79.996	19.994	100.167	19.928	7.094	1.037
542.500	596.575	79.998	19.995	100.167	19.925	7.267	1.035
543.000	597.104	79.997	19.995	100.166	19.928	7.087	1.023
543.500	597.615	79.997	19.995	100.166	19.923	7.395	1.031
544.000	598.116	79.996	19.995	100.163	19.924	7.350	1.026
544.500	598.575	79.997	19.996	100.162	19.926	7.201	0.987
545.000	599.065	79.998	19.996	100.162	19.924	7.364	0.955
545.500	599.663	79.997	19.995	100.164	19.922	7.505	1.018
546.000	600.114	79.997	19.996	100.163	19.924	7.345	1.068
546.500	600.686	79.997	19.994	100.166	19.921	7.520	1.036
547.000	601.149	79.999	19.996	100.166	19.923	7.442	1.029
547.500	601.632	79.998	19.996	100.165	19.920	7.580	0.991
548.000	602.146	79.997	19.994	100.165	19.923	7.417	0.972
548.500	602.641	79.998	19.996	100.161	19.925	7.318	1.003
549.000	603.126	79.998	19.995	100.155	19.923	7.446	0.994
549.500	603.682	79.998	19.995	100.151	19.925	7.266	1.010
550.000	604.210	79.997	19.995	100.150	19.925	7.296	1.062
550.500	604.704	79.997	19.994	100.151	19.920	7.611	1.054
551.000	605.220	79.997	19.995	100.156	19.922	7.465	1.016
551.500	605.749	79.997	19.995	100.161	19.923	7.442	1.027
552.000	606.226	79.998	19.995	100.166	19.926	7.220	1.025
552.500	606.742	79.995	19.994	100.167	19.925	7.265	1.000
553.000	607.261	79.998	19.995	100.166	19.926	7.258	1.014
553.500	607.756	79.997	19.996	100.167	19.923	7.438	1.025
554.000	608.271	79.995	19.995	100.167	19.922	7.454	1.012
554.500	608.749	79.996	19.995	100.167	19.923	7.437	1.001
555.000	609.277	79.995	19.996	100.164	19.919	7.656	0.999
555.500	609.761	79.997	19.995	100.164	19.925	7.286	1.009
556.000	610.277	79.996	19.996	100.161	19.920	7.620	1.006
556.500	610.812	79.995	19.995	100.162	19.925	7.265	1.025
557.000	611.290	79.994	19.996	100.162	19.920	7.575	1.032
557.500	611.811	79.995	19.997	100.164	19.920	7.633	1.006
558.000	612.293	79.992	19.996	100.165	19.919	7.665	1.001
558.500	612.825	79.994	19.996	100.167	19.919	7.675	1.008
559.000	613.353	79.996	19.997	100.167	19.920	7.609	1.037
559.500	613.867	79.994	19.997	100.165	19.917	7.813	1.051
560.000	614.409	79.995	19.996	100.165	19.918	7.714	1.049
560.500	614.902	79.995	19.998	100.166	19.921	7.551	1.046
561.000	615.447	79.994	19.996	100.167	19.917	7.763	1.037
561.500	615.963	79.995	19.997	100.167	19.921	7.517	1.049
562.000	616.464	79.994	19.997	100.167	19.921	7.569	1.039
562.500	616.969	79.995	19.995	100.162	19.922	7.459	1.011
563.000	617.481	79.994	19.996	100.161	19.920	7.572	1.011
563.500	618.017	79.995	19.996	100.160	19.915	7.893	1.033
564.000	618.493	79.994	19.996	100.155	19.916	7.848	1.030
564.500	619.018	79.995	19.996	100.154	19.918	7.746	1.007
565.000	619.567	79.997	19.996	100.159	19.918	7.705	1.038
565.501	620.079	79.995	19.996	100.159	19.920	7.631	1.067
566.000	620.572	79.996	19.997	100.160	19.914	7.977	1.033
566.500	621.106	79.996	19.998	100.164	19.915	7.891	1.016
567.000	621.614	79.995	19.996	100.161	19.917	7.795	1.034
567.500	622.166	79.995	19.996	100.159	19.916	7.823	1.051
568.000	622.707	79.996	19.997	100.152	19.918	7.701	1.077
568.500	623.194	79.995	19.996	100.144	19.916	7.857	1.061
569.000	623.699	79.996	19.997	100.141	19.914	7.951	1.010
569.500	624.241	79.996	19.997	100.145	19.914	7.969	1.019
570.001	624.696	79.997	19.997	100.147	19.918	7.699	1.022
570.501	625.211	79.996	19.998	100.154	19.916	7.836	0.984
571.000	625.756	79.993	19.996	100.160	19.918	7.748	1.015
571.500	626.239	79.996	19.997	100.163	19.914	7.945	1.043
572.000	626.794	79.995	19.995	100.163	19.915	7.911	1.033
572.500	627.297	79.994	19.996	100.163	19.915	7.931	1.049
573.000	627.818	79.995	19.997	100.162	19.919	7.682	1.041
573.500	628.321	79.995	19.995	100.159	19.914	8.006	1.024
574.000	628.830	79.995	19.996	100.152	19.914	7.971	1.018
574.500	629.355	79.996	19.995	100.146	19.912	8.117	1.023
575.000	629.904	79.996	19.997	100.141	19.916	7.874	1.054
575.500	630.399	79.995	19.996	100.138	19.914	7.967	1.059
576.000	630.909	79.995	19.997	100.139	19.913	8.022	1.025
576.500	631.421	79.995	19.996	100.139	19.913	8.023	1.013
577.000	631.933	79.995	19.996	100.142	19.914	7.967	1.023
577.500	632.445	79.994	19.998	100.143	19.915	7.934	1.024
578.001	632.967	79.994	19.996	100.142	19.909	8.289	1.029
578.501	633.518	79.995	19.997	100.146	19.909	8.287	1.054
579.000	634.039	79.994	19.997	100.150	19.913	8.059	1.073
579.500	634.558	79.996	19.996	100.152	19.912	8.080	1.056
580.000	635.084	79.995	19.996	100.150	19.916	7.873	1.042
580.500	635.650	79.995	19.997	100.151	19.912	8.078	1.068
581.000	636.133	79.996	19.997	100.148	19.912	8.093	1.070
581.500	636.668	79.994	19.997	100.146	19.910	8.219	1.033
582.000	637.190	79.995	19.997	100.147	19.916	7.868	1.037
582.500	637.692	79.993	19.996	100.148	19.911	8.182	1.041
583.000	638.209	79.994	19.997	100.144	19.911	8.167	1.022
583.500	638.742	79.995	19.998	100.143	19.917	7.767	1.034
584.000	639.289	79.995	19.997	100.145	19.918	7.740	1.065
584.500	639.756	79.994	19.997	100.144	19.913	8.058	1.047
585.000	640.334	79.994	19.997	100.146	19.915	7.905	1.030
585.500	640.797	79.994	19.996	100.153	19.918	7.713	1.043
586.000	641.346	79.994	19.997	100.151	19.915	7.907	1.027
586.500	641.839	79.993	19.997	100.148	19.914	7.963	1.027
587.000	642.345	79.995	19.998	100.148	19.916	7.877	1.020
587.500	642.872	79.995	19.997	100.147	19.916	7.821	1.016
588.000	643.446	79.993	19.997	100.148	19.914	7.951	1.067
588.501	643.901	79.993	19.998	100.155	19.920	7.595	1.065
589.000	644.422	79.994	19.997	100.153	19.921	7.537	1.003
589.500	644.952	79.995	19.997	100.147	19.917	7.791	1.014
590.000	645.459	79.994	19.996	100.142	19.919	7.635	1.044
590.500	645.986	79.994	19.996	100.136	19.921	7.540	1.035
591.000	646.486	79.993	19.997	100.130	19.924	7.322	1.030
591.500	647.023	79.994	19.996	100.130	19.921	7.519	1.032
592.000	647.501	79.992	19.997	100.132	19.920	7.570	1.026
592.500	648.068	79.994	19.996	100.133	19.921	7.527	1.030
593.000	648.549	79.995	19.997	100.135	19.921	7.553	1.046
593.500	649.096	79.995	19.996	100.135	19.924	7.331	1.038
594.000	649.597	79.995	19.997	100.133	19.925	7.300	1.038
594.500	650.137	79.996	19.998	100.131	19.924	7.372	1.044
595.000	650.670	79.994	19.996	100.132	19.920	7.577	1.057
595.500	651.209	79.993	19.996	100.130	19.926	7.227	1.073
596.000	651.663	79.996	19.997	100.133	19.925	7.270	1.033
596.500	652.202	79.995	19.995	100.136	19.922	7.490	0.993
597.000	652.707	79.995	19.995	100.137	19.933	6.799	1.018
597.500	653.231	79.995	19.996	100.140	19.928	7.110	1.036
598.000	653.734	79.995	19.995	100.141	19.928	7.091	1.028
598.500	654.267	79.995	19.995	100.139	19.929	7.069	1.032
599.000	654.807	79.996	19.996	100.136	19.926	7.251	1.055
599.500	655.306	79.996	19.996	100.135	19.924	7.331	1.056
600.000	655.834	79.996	19.995	100.133	19.924	7.372	1.032
600.500	656.331	79.998	19.995	100.132	19.931	6.896	1.026
601.000	656.868	79.997	19.995	100.130	19.928	7.078	1.030
601.500	657.394	79.996	19.995	100.130	19.926	7.212	1.049
602.000	657.875	79.995	19.993	100.126	19.931	6.889	1.035
602.500	658.432	79.997	19.995	100.123	19.932	6.881	1.022
603.000	658.905	79.995	19.995	100.121	19.931	6.898	1.034
603.500	659.433	79.997	19.995	100.121	19.933	6.764	1.016
604.000	659.971	79.996	19.995	100.120	19.929	7.063	1.034
604.500	660.461	79.998	19.995	100.124	19.930	6.988	1.047
605.000	660.982	79.997	19.996	100.128	19.933	6.817	1.019
605.500	661.510	79.996	19.996	100.130	19.934	6.711	1.029
606.000	661.976	79.997	19.996	100.131	19.937	6.555	1.021
606.500	662.502	79.997	19.995	100.129	19.933	6.793	0.993
607.000	663.001	79.996	19.996	100.128	19.936	6.609	1.009
607.500	663.503	79.996	19.995	100.125	19.934	6.713	1.013
608.000	664.045	79.996	19.996	100.125	19.934	6.750	1.022
608.500	664.556	79.995	19.995	100.125	19.940	6.373	1.048
609.000	665.042	79.996	19.995	100.128	19.939	6.405	1.025
609.500	665.525	79.995	19.995	100.128	19.940	6.323	0.983
610.000	666.121	79.995	19.995	100.129	19.939	6.413	1.024
610.500	666.537	79.995	19.995	100.129	19.936	6.592	1.045
611.000	667.113	79.997	19.996	100.128	19.939	6.438	1.002
611.500	667.595	79.996	19.995	100.128	19.941	6.280	1.025
612.000	668.087	79.996	19.996	100.129	19.933	6.799	1.017
612.500	668.585	79.995	19.996	100.127	19.937	6.532	0.982
613.000	669.147	79.995	19.996	100.127	19.940	6.345	1.025
613.500	669.612	79.996	19.996	100.127	19.934	6.754	1.043
614.000	670.161	79.994	19.996	100.127	19.940	6.349	1.021
614.500	670.640	79.994	19.996	100.127	19.940	6.337	1.021
615.000	671.152	79.994	19.995	100.129	19.943	6.184	1.009
615.500	671.663	79.995	19.995	100.129	19.939	6.393	1.007
616.000	672.209	79.995	19.995	100.130	19.943	6.167	1.040
616.500	672.705	79.996	19.996	100.130	19.942	6.209	1.049
617.000	673.180	79.996	19.996	100.130	19.944	6.116	1.007
617.500	673.716	79.995	19.996	100.130	19.946	5.997	0.991
618.000	674.242	79.996	19.996	100.128	19.942	6.229	1.036
618.500	674.708	79.997	19.995	100.125	19.945	6.053	1.027
619.000	675.244	79.995	19.995	100.122	19.940	6.361	0.997
619.500	675.783	79.994	19.996	100.115	19.939	6.431	1.039
620.000	676.267	79.995	19.995	100.114	19.948	5.876	1.049
620.500	676.758	79.997	19.996	100.114	19.942	6.216	0.999
621.001	677.245	79.996	19.997	100.117	19.942	6.213	0.977
621.500	677.778	79.995	19.995	100.120	19.942	6.236	0.999
622.000	678.260	79.996	19.996	100.124	19.942	6.204	1.017
622.500	678.787	79.998	19.995	100.122	19.948	5.851	1.012
623.000	679.300	79.997	19.996	100.122	19.945	6.035	1.025
623.500	679.808	79.997	19.996	100.116	19.951	5.694	1.030
624.000	680.318	79.997	19.995	100.114	19.952	5.575	1.019
624.500	680.785	79.997	19.996	100.114	19.951	5.689	0.998
625.000	681.287	79.998	19.995	100.117	19.952	5.611	0.973
625.500	681.830	79.999	19.994	100.118	19.950	5.706	1.007
626.000	682.291	79.998	19.995	100.119	19.948	5.830	1.025
626.500	682.767	79.999	19.995	100.119	19.948	5.862	0.971
627.000	683.235	79.997	19.995	100.116	19.948	5.854	0.941
627.500	683.729	79.998	19.996	100.111	19.951	5.684	0.953
628.000	684.215	79.997	19.995	100.104	19.952	5.616	0.971
628.500	684.759	79.997	19.996	100.102	19.948	5.883	1.005
629.000	685.228	79.997	19.995	100.103	19.948	5.834	1.022
629.500	685.682	79.998	19.995	100.101	19.952	5.584	0.968
630.000	686.233	79.997	19.995	100.101	19.957	5.277	0.964
630.500	686.682	79.998	19.995	100.104	19.959	5.139	1.002
631.000	687.228	79.998	19.995	100.108	19.954	5.475	0.997
631.500	687.699	79.998	19.995	100.108	19.955	5.441	1.006
632.000	688.182	79.998	19.996	100.109	19.952	5.620	0.985
632.500	688.674	79.997	19.995	100.110	19.954	5.462	0.965
633.000	689.166	79.996	19.994	100.109	19.953	5.564	0.980
633.500	689.648	79.996	19.995	100.103	19.958	5.251	0.979
634.000	690.138	79.996	19.996	100.098	19.957	5.312	0.973
634.500	690.625	79.997	19.995	100.095	19.961	5.057	0.975
635.000	691.097	79.996	19.995	100.090	19.955	5.439	0.968
635.500	691.590	79.996	19.995	100.089	19.960	5.114	0.962
636.000	692.084	79.997	19.995	100.091	19.952	5.608	0.976
636.500	692.608	79.994	19.995	100.093	19.954	5.506	1.002
637.000	693.106	79.995	19.995	100.092	19.957	5.323	1.020
637.501	693.648	79.995	19.997	100.094	19.953	5.532	1.031
638.000	694.097	79.995	19.996	100.098	19.960	5.093	1.015
638.500	694.590	79.994	19.994	100.100	19.954	5.481	0.966
639.000	695.105	79.994	19.994	100.103	19.958	5.206	0.975
639.500	695.572	79.994	19.995	100.106	19.958	5.233	0.995
640.000	696.057	79.995	19.996	100.104	19.955	5.412	0.967
640.500	696.558	79.995	19.996	100.101	19.956	5.360	0.969
641.000	697.047	79.995	19.996	100.097	19.957	5.309	0.988
641.500	697.547	79.994	19.996	100.092	19.962	4.975	0.990
642.000	698.006	79.994	19.995	100.091	19.964	4.866	0.974
642.500	698.507	79.995	19.996	100.096	19.959	5.145	0.960
643.000	699.037	79.996	19.996	100.099	19.964	4.854	0.996
643.500	699.508	79.996	19.996	100.106	19.960	5.077	1.016
644.000	699.997	79.995	19.996	100.111	19.962	4.982	0.980
644.500	700.470	79.994	19.995	100.117	19.961	5.032	0.961
645.000	700.975	79.995	19.996	100.120	19.958	5.233	0.970
645.500	701.458	79.995	19.996	100.116	19.958	5.221	0.983
646.000	701.970	79.996	19.996	100.110	19.962	5.004	0.991
646.500	702.467	79.994	19.997	100.105	19.961	5.017	1.002
647.000	702.959	79.995	19.997	100.103	19.960	5.133	0.999
647.500	703.477	79.997	19.998	100.099	19.961	5.060	0.999
648.000	703.973	79.995	19.996	100.104	19.960	5.097	1.012
648.500	704.476	79.994	19.996	100.110	19.966	4.712	1.006
649.000	704.946	79.994	19.996	100.115	19.964	4.863	0.986
649.500	705.438	79.995	19.996	100.113	19.959	5.145	0.968
650.000	705.927	79.995	19.997	100.108	19.962	5.000	0.972
650.500	706.441	79.994	19.996	100.103	19.963	4.940	0.992
651.000	706.905	79.995	19.997	100.096	19.959	5.159	0.990
651.500	707.433	79.994	19.997	100.091	19.966	4.734	0.985
652.000	707.933	79.995	19.997	100.091	19.969	4.554	1.010
652.500	708.418	79.994	19.996	100.097	19.967	4.651	1.006
653.000	708.925	79.996	19.997	100.100	19.964	4.887	0.988
653.500	709.418	79.995	19.996	100.104	19.961	5.071	0.996
654.000	709.918	79.995	19.997	100.106	19.964	4.835	0.997
654.500	710.437	79.994	19.996	100.103	19.964	4.826	1.006
655.000	710.919	79.995	19.997	100.100	19.961	5.064	1.010
655.500	711.427	79.996	19.996	100.101	19.964	4.875	0.995
656.001	711.930	79.995	19.997	100.099	19.965	4.763	1.000
656.500	712.463	79.996	19.997	100.100	19.964	4.834	1.023
657.000	712.954	79.995	19.997	100.104	19.964	4.835	1.030
657.500	713.446	79.994	19.996	100.105	19.964	4.885	1.004
658.000	713.960	79.994	19.995	100.103	19.968	4.588	0.995
658.500	714.463	79.995	19.997	100.105	19.968	4.629	1.011
659.000	714.963	79.995	19.995	100.106	19.966	4.717	1.010
659.500	715.518	79.996	19.996	100.109	19.972	4.366	1.029
660.000	716.018	79.996	19.996	100.113	19.968	4.583	1.055
660.500	716.509	79.996	19.995	100.118	19.966	4.758	1.023
661.000	717.016	79.995	19.995	100.122	19.965	4.787	0.995
661.500	717.495	79.994	19.997	100.121	19.968	4.601	0.992
662.000	717.992	79.996	19.996	100.118	19.971	4.435	0.981
662.500	718.536	79.995	19.996	100.117	19.967	4.641	1.008
663.000	719.077	79.994	19.996	100.115	19.966	4.724	1.063
663.500	719.575	79.995	19.996	100.112	19.967	4.664	1.062
664.000	720.082	79.995	19.995	100.116	19.967	4.656	1.022
664.500	720.591	79.994	19.996	100.119	19.966	4.749	1.010
665.000	721.078	79.994	19.997	100.117	19.965	4.771	1.006
665.500	721.606	79.994	19.995	100.115	19.965	4.773	1.006
666.001	722.130	79.993	19.996	100.113	19.963	4.935	1.034
666.500	722.633	79.995	19.996	100.108	19.966	4.761	1.039
667.000	723.155	79.996	19.996	100.102	19.964	4.829	1.026
667.501	723.636	79.995	19.995	100.099	19.966	4.725	1.014
668.000	724.156	79.994	19.996	100.097	19.963	4.915	1.002
668.500	724.673	79.993	19.996	100.098	19.966	4.740	1.019
669.001	725.189	79.993	19.996	100.099	19.964	4.837	1.034
669.501	725.678	79.993	19.996	100.102	19.970	4.489	1.019
670.000	726.186	79.994	19.996	100.103	19.965	4.808	1.001
670.500	726.732	79.993	19.996	100.109	19.962	4.983	1.026
671.000	727.229	79.994	19.996	100.106	19.967	4.659	1.049
671.500	727.703	79.994	19.997	100.105	19.965	4.805	1.007
672.000	728.283	79.994	19.997	100.104	19.967	4.654	1.012
672.500	728.790	79.994	19.996	100.104	19.967	4.682	1.071
673.000	729.265	79.996	19.997	100.105	19.966	4.706	1.035
673.500	729.785	79.994	19.997	100.107	19.966	4.740	0.989
674.000	730.301	79.995	19.997	100.106	19.972	4.375	1.015
674.500	730.814	79.994	19.997	100.106	19.972	4.341	1.032
675.000	731.329	79.995	19.996	100.105	19.961	5.056	1.028
675.500	731.861	79.993	19.996	100.099	19.968	4.582	1.037
676.000	732.344	79.993	19.995	100.099	19.967	4.647	1.031
676.500	732.883	79.994	19.997	100.098	19.968	4.584	1.019
677.000	733.355	79.993	19.997	100.096	19.966	4.732	1.017
677.500	733.868	79.994	19.996	100.095	19.963	4.893	0.998
678.000	734.377	79.994	19.997	100.095	19.968	4.621	1.003
678.500	734.889	79.995	19.997	100.094	19.966	4.754	1.022
679.000	735.386	79.994	19.996	100.094	19.966	4.733	1.015
679.500	735.931	79.995	19.998	100.093	19.966	4.718	1.026
680.000	736.394	79.997	19.997	100.092	19.964	4.844	1.025
680.500	736.903	79.995	19.997	100.091	19.963	4.906	0.990
681.000	737.419	79.996	19.996	100.091	19.970	4.453	0.998
681.500	737.970	79.994	19.997	100.093	19.965	4.764	1.046
682.001	738.488	79.996	19.996	100.095	19.968	4.599	1.068
682.500	739.004	79.995	19.997	100.095	19.966	4.703	1.051
683.000	739.493	79.996	19.996	100.095	19.965	4.798	1.020
683.500	740.041	79.996	19.996	100.093	19.965	4.772	1.021
