Sample ID:	C:\MCC\MCC Cal\Test\Polyester_Felt\Polyester_Felt_MCC_30K_min_21_07_09_R1.txt
Sample Weight (mg):	3.86
Heating Rate (C/s):	0.5
Combustor Temp (C):	900
N2 Flow Rate (cc/min):	80
O2 Flow Rate (cc/min):	20
Calibration File:	C:\MCC\MCC Cal\Coeff1 JN10440_30_210304.txt.txt
T Correction Coefficients:	0	1.024463	0
Time Shift (s):	14
*
Time (s)	Temperature (C)	N2 flow rate (cc/min)	O2 flow rate (cc/min)	Flow Rate (cc/min)	Oxygen (%)	HRR (W/g)	Heating rate (C/s)
0.000	109.089	79.998	19.995	99.936	20.131	0.018	-0.016
0.500	109.145	79.997	19.996	99.933	20.135	-0.311	-0.008
1.000	109.075	79.998	19.997	99.933	20.126	0.364	0.007
1.500	109.147	79.999	19.996	99.932	20.129	0.146	-0.006
2.000	109.074	79.998	19.996	99.932	20.129	0.129	0.000
2.500	109.078	79.998	19.996	99.932	20.129	0.131	-0.035
3.000	109.094	79.999	19.998	99.933	20.134	-0.271	-0.024
3.500	109.092	79.999	19.996	99.933	20.134	-0.286	0.017
4.000	109.067	79.999	19.997	99.932	20.129	0.160	-0.006
4.501	109.080	80.000	19.996	99.932	20.129	0.155	-0.019
5.001	109.046	79.998	19.997	99.931	20.130	0.047	-0.017
5.500	109.107	79.998	19.997	99.931	20.132	-0.078	0.002
6.000	109.097	79.998	19.996	99.931	20.133	-0.169	0.039
6.500	109.006	79.999	19.996	99.932	20.132	-0.089	-0.024
7.000	109.028	79.996	19.996	99.932	20.132	-0.087	-0.085
7.500	109.058	79.996	19.995	99.933	20.132	-0.120	-0.009
8.000	109.029	79.996	19.996	99.933	20.131	0.018	0.026
8.500	109.071	80.001	19.997	99.933	20.134	-0.226	0.007
9.000	109.038	79.998	19.997	99.932	20.128	0.277	0.011
9.500	109.028	79.997	19.996	99.933	20.134	-0.229	-0.017
10.000	109.065	79.998	19.996	99.932	20.129	0.140	-0.008
10.500	109.043	79.996	19.995	99.932	20.127	0.293	0.021
11.000	109.011	79.998	19.996	99.932	20.131	-0.020	-0.019
11.500	109.065	79.996	19.996	99.932	20.128	0.264	-0.016
12.000	109.018	79.999	19.997	99.931	20.132	-0.060	0.015
12.500	109.025	79.998	19.996	99.931	20.138	-0.584	-0.016
13.000	109.032	79.997	19.997	99.931	20.130	0.078	-0.013
13.500	109.044	79.997	19.996	99.931	20.130	0.058	0.016
14.000	109.028	79.996	19.996	99.933	20.131	0.007	0.008
14.500	109.022	79.996	19.997	99.933	20.135	-0.340	-0.012
15.000	109.050	79.994	19.995	99.933	20.131	-0.031	0.000
15.500	109.025	79.995	19.997	99.936	20.131	-0.002	0.012
16.000	109.014	79.998	19.996	99.937	20.134	-0.229	-0.017
16.500	109.027	79.997	19.996	99.938	20.131	-0.024	-0.017
17.000	109.015	79.996	19.996	99.937	20.133	-0.144	0.002
17.500	109.006	79.998	19.997	99.935	20.135	-0.291	-0.010
18.000	108.999	79.997	19.996	99.933	20.128	0.202	-0.019
18.500	108.987	79.994	19.996	99.932	20.131	-0.040	-0.018
19.000	108.981	79.995	19.997	99.933	20.130	0.060	-0.018
19.500	109.013	79.995	19.995	99.938	20.130	0.042	0.005
20.000	109.010	79.995	19.997	99.940	20.134	-0.231	0.028
20.500	109.033	79.996	19.996	99.939	20.127	0.320	0.025
21.000	109.013	79.998	19.996	99.940	20.124	0.547	0.011
21.500	109.006	79.993	19.996	99.946	20.125	0.451	-0.012
22.000	108.992	79.995	19.996	99.950	20.126	0.389	-0.024
22.500	108.991	79.996	19.997	99.957	20.127	0.324	-0.018
23.000	109.043	79.996	19.996	99.966	20.128	0.220	0.018
23.500	109.033	79.994	19.996	99.974	20.121	0.809	0.047
24.000	109.037	79.995	19.996	99.974	20.128	0.262	0.017
24.500	109.021	79.996	19.997	99.975	20.119	1.006	-0.009
25.000	109.044	79.995	19.996	99.980	20.121	0.793	-0.002
25.500	109.063	79.995	19.997	99.982	20.120	0.849	0.025
26.000	109.038	79.995	19.997	99.985	20.122	0.713	0.018
26.500	109.038	79.994	19.998	99.993	20.122	0.716	-0.016
27.000	109.043	79.994	19.997	100.002	20.116	1.200	-0.011
27.500	109.042	79.997	19.997	100.009	20.117	1.131	0.005
28.000	109.084	79.995	19.998	100.016	20.116	1.245	0.023
28.500	109.085	79.996	19.998	100.023	20.116	1.191	0.042
29.000	109.127	79.996	19.997	100.024	20.119	1.002	0.043
29.500	109.130	79.995	19.996	100.026	20.118	1.082	0.044
30.000	109.139	79.995	19.997	100.028	20.110	1.712	0.028
30.500	109.171	79.996	19.997	100.030	20.110	1.692	0.026
31.000	109.169	79.996	19.997	100.035	20.115	1.265	0.035
31.500	109.183	79.995	19.997	100.042	20.114	1.392	0.021
32.000	109.186	79.996	19.997	100.046	20.120	0.905	0.015
32.500	109.222	79.996	19.996	100.049	20.116	1.194	0.028
33.000	109.250	79.994	19.997	100.053	20.111	1.637	0.051
33.500	109.286	79.995	19.996	100.049	20.115	1.274	0.064
34.000	109.309	79.994	19.996	100.047	20.115	1.319	0.062
34.500	109.312	79.996	19.996	100.042	20.109	1.775	0.043
35.001	109.346	79.994	19.997	100.040	20.107	1.953	0.032
35.501	109.371	79.996	19.996	100.035	20.116	1.176	0.048
36.000	109.373	79.996	19.998	100.038	20.113	1.419	0.043
36.501	109.428	79.997	19.996	100.040	20.115	1.305	0.042
37.001	109.475	79.993	19.997	100.045	20.112	1.495	0.079
37.500	109.472	79.995	19.997	100.051	20.106	1.986	0.073
38.000	109.573	79.995	19.997	100.058	20.107	1.910	0.071
38.500	109.585	79.995	19.996	100.060	20.110	1.724	0.106
39.000	109.609	79.993	19.997	100.060	20.104	2.193	0.075
39.500	109.638	79.996	19.996	100.067	20.107	1.924	0.044
40.000	109.705	79.994	19.996	100.071	20.107	1.910	0.074
40.500	109.734	79.996	19.995	100.077	20.106	2.015	0.096
41.001	109.818	79.993	19.994	100.085	20.103	2.270	0.105
41.501	109.854	79.994	19.996	100.092	20.106	1.988	0.117
42.000	109.885	79.993	19.995	100.094	20.106	2.010	0.093
42.500	109.948	79.994	19.995	100.100	20.107	1.939	0.080
43.000	109.977	79.995	19.996	100.108	20.104	2.150	0.093
43.500	110.054	79.995	19.996	100.115	20.101	2.428	0.099
44.000	110.095	79.994	19.996	100.122	20.101	2.440	0.112
44.500	110.146	79.994	19.996	100.124	20.106	2.026	0.105
45.000	110.221	79.997	19.996	100.126	20.102	2.327	0.109
45.500	110.275	79.995	19.994	100.126	20.102	2.305	0.127
46.000	110.316	79.996	19.996	100.127	20.100	2.496	0.112
46.500	110.436	79.998	19.996	100.129	20.100	2.542	0.128
47.000	110.507	79.997	19.995	100.133	20.096	2.825	0.176
47.500	110.595	79.995	19.995	100.134	20.101	2.411	0.175
48.000	110.640	79.994	19.996	100.135	20.099	2.551	0.146
48.501	110.737	79.994	19.995	100.135	20.098	2.687	0.138
49.001	110.791	79.994	19.996	100.134	20.097	2.723	0.147
49.500	110.875	79.994	19.996	100.135	20.095	2.936	0.145
50.000	110.953	79.996	19.997	100.135	20.094	2.989	0.150
50.500	111.021	79.995	19.996	100.130	20.098	2.629	0.154
51.000	111.104	79.995	19.997	100.126	20.091	3.239	0.148
51.501	111.198	79.996	19.996	100.125	20.099	2.620	0.164
52.001	111.274	79.995	19.995	100.123	20.097	2.752	0.173
52.501	111.379	79.996	19.996	100.119	20.097	2.745	0.175
53.000	111.443	79.998	19.996	100.122	20.093	3.092	0.175
53.500	111.538	79.997	19.997	100.125	20.096	2.863	0.164
54.000	111.623	79.996	19.996	100.127	20.095	2.910	0.169
54.500	111.705	79.997	19.996	100.129	20.090	3.348	0.174
55.000	111.812	79.997	19.996	100.138	20.092	3.174	0.178
55.500	111.903	79.997	19.997	100.147	20.093	3.072	0.194
56.000	112.011	79.996	19.997	100.153	20.096	2.830	0.198
56.500	112.145	80.000	19.996	100.155	20.085	3.731	0.221
57.000	112.197	79.997	19.997	100.156	20.091	3.264	0.214
57.501	112.315	79.998	19.996	100.154	20.092	3.130	0.178
58.001	112.382	79.995	19.997	100.153	20.088	3.455	0.177
58.500	112.517	79.998	19.997	100.152	20.090	3.324	0.194
59.000	112.569	79.998	19.995	100.150	20.087	3.566	0.194
59.500	112.721	79.996	19.997	100.150	20.090	3.288	0.195
60.000	112.850	79.996	19.997	100.150	20.088	3.462	0.242
60.500	112.926	79.998	19.995	100.146	20.091	3.272	0.243
61.000	113.071	79.997	19.994	100.141	20.087	3.542	0.213
61.500	113.156	79.997	19.996	100.145	20.087	3.577	0.226
62.000	113.299	79.999	19.997	100.149	20.088	3.439	0.229
62.500	113.361	79.999	19.996	100.149	20.091	3.224	0.217
63.000	113.510	79.999	19.997	100.151	20.089	3.411	0.208
63.500	113.681	79.997	19.996	100.158	20.085	3.746	0.266
64.000	113.745	79.998	19.995	100.158	20.086	3.651	0.277
64.500	113.899	80.000	19.996	100.156	20.090	3.301	0.226
65.000	114.036	79.996	19.995	100.159	20.088	3.442	0.254
65.500	114.154	79.995	19.996	100.161	20.088	3.439	0.273
66.000	114.269	79.999	19.997	100.162	20.089	3.362	0.244
66.500	114.394	79.997	19.996	100.163	20.080	4.125	0.237
67.000	114.524	79.995	19.995	100.166	20.085	3.744	0.247
67.500	114.627	79.998	19.996	100.166	20.090	3.293	0.244
68.000	114.769	79.998	19.995	100.165	20.087	3.555	0.239
68.501	114.895	79.997	19.996	100.164	20.088	3.442	0.256
69.001	115.047	79.996	19.996	100.164	20.086	3.671	0.273
69.500	115.163	79.996	19.996	100.165	20.089	3.386	0.273
70.000	115.285	79.999	19.997	100.164	20.087	3.564	0.253
70.500	115.438	79.997	19.995	100.164	20.081	4.027	0.256
71.000	115.559	79.999	19.996	100.165	20.083	3.875	0.274
71.500	115.682	79.997	19.996	100.166	20.086	3.640	0.259
72.000	115.837	79.998	19.997	100.166	20.082	3.993	0.261
72.500	115.976	79.997	19.997	100.167	20.086	3.662	0.286
73.000	116.138	79.997	19.996	100.168	20.088	3.446	0.298
73.500	116.300	79.998	19.996	100.168	20.088	3.471	0.313
74.000	116.460	79.997	19.995	100.168	20.082	3.938	0.323
74.500	116.576	79.998	19.996	100.167	20.085	3.740	0.298
75.000	116.746	79.999	19.995	100.167	20.087	3.537	0.281
75.500	116.898	79.999	19.996	100.166	20.087	3.584	0.304
76.000	117.026	79.997	19.996	100.166	20.084	3.789	0.301
76.500	117.223	79.997	19.997	100.166	20.086	3.644	0.303
77.000	117.347	79.998	19.997	100.167	20.089	3.419	0.323
77.500	117.488	79.999	19.996	100.168	20.086	3.629	0.293
78.000	117.646	79.999	19.997	100.169	20.090	3.284	0.282
78.500	117.827	79.994	19.995	100.169	20.085	3.682	0.319
79.000	117.953	79.999	19.997	100.168	20.085	3.751	0.323
79.501	118.146	79.997	19.996	100.168	20.085	3.698	0.313
80.001	118.287	79.998	19.996	100.168	20.081	4.074	0.327
80.500	118.430	79.997	19.995	100.168	20.090	3.277	0.309
81.000	118.599	79.998	19.995	100.165	20.089	3.408	0.298
81.501	118.762	79.999	19.996	100.165	20.084	3.838	0.322
82.001	118.932	79.999	19.996	100.165	20.086	3.606	0.332
82.500	119.068	80.000	19.996	100.165	20.086	3.651	0.320
83.000	119.257	80.000	19.998	100.164	20.082	3.947	0.315
83.500	119.406	79.998	19.995	100.168	20.090	3.330	0.331
84.000	119.645	79.999	19.996	100.169	20.088	3.497	0.363
84.500	119.754	79.997	19.996	100.169	20.087	3.569	0.368
85.000	119.913	79.998	19.996	100.168	20.089	3.373	0.308
85.500	120.097	79.999	19.995	100.168	20.084	3.778	0.306
86.000	120.284	79.996	19.994	100.168	20.084	3.820	0.357
86.500	120.449	79.997	19.995	100.167	20.087	3.527	0.362
87.000	120.607	79.999	19.995	100.167	20.090	3.335	0.338
87.500	120.804	80.001	19.997	100.167	20.085	3.720	0.339
88.001	120.939	79.998	19.995	100.169	20.083	3.842	0.343
88.501	121.156	79.998	19.996	100.172	20.086	3.629	0.342
89.001	121.320	79.996	19.996	100.173	20.087	3.591	0.366
89.500	121.477	79.998	19.996	100.176	20.086	3.613	0.351
90.000	121.672	79.998	19.996	100.176	20.084	3.796	0.337
90.500	121.844	79.997	19.997	100.175	20.084	3.771	0.360
91.000	122.013	79.997	19.997	100.173	20.083	3.860	0.354
91.500	122.211	79.997	19.996	100.173	20.086	3.607	0.354
92.001	122.410	79.997	19.996	100.169	20.090	3.291	0.382
92.501	122.590	79.996	19.996	100.169	20.091	3.204	0.388
93.000	122.804	79.994	19.996	100.169	20.089	3.431	0.387
93.500	122.964	79.995	19.996	100.169	20.088	3.480	0.384
94.000	123.133	79.995	19.996	100.169	20.090	3.287	0.352
94.501	123.337	79.994	19.997	100.170	20.084	3.792	0.352
95.001	123.516	79.995	19.996	100.170	20.086	3.638	0.378
95.500	123.688	79.997	19.997	100.174	20.087	3.596	0.367
96.001	123.886	79.994	19.996	100.176	20.087	3.591	0.361
96.501	124.063	79.995	19.997	100.177	20.085	3.682	0.373
97.000	124.268	79.997	19.997	100.179	20.084	3.812	0.378
97.500	124.404	79.995	19.997	100.181	20.085	3.700	0.361
98.000	124.664	79.996	19.997	100.178	20.085	3.727	0.368
98.500	124.811	79.995	19.997	100.176	20.081	4.045	0.401
99.000	124.990	79.994	19.996	100.175	20.080	4.166	0.367
99.500	125.204	79.994	19.997	100.179	20.082	3.965	0.360
100.000	125.389	79.993	19.996	100.179	20.083	3.863	0.397
100.500	125.583	79.995	19.997	100.179	20.079	4.224	0.389
101.000	125.755	79.995	19.997	100.180	20.082	3.943	0.372
101.500	125.983	79.994	19.995	100.180	20.077	4.399	0.383
102.000	126.175	79.995	19.995	100.177	20.087	3.573	0.410
102.500	126.371	79.995	19.995	100.177	20.083	3.881	0.403
103.000	126.578	79.996	19.996	100.177	20.084	3.809	0.396
103.500	126.757	79.996	19.997	100.181	20.081	4.074	0.395
104.001	126.946	79.997	19.997	100.187	20.072	4.798	0.377
104.501	127.139	79.994	19.996	100.190	20.079	4.239	0.375
105.000	127.370	79.994	19.995	100.187	20.076	4.448	0.403
105.500	127.558	79.995	19.996	100.192	20.082	4.001	0.421
106.000	127.732	79.997	19.996	100.188	20.077	4.397	0.391
106.500	127.970	79.995	19.997	100.182	20.083	3.898	0.387
107.000	128.163	79.996	19.996	100.178	20.076	4.450	0.422
107.501	128.402	79.995	19.996	100.182	20.077	4.355	0.432
108.001	128.552	79.997	19.999	100.183	20.074	4.628	0.410
108.500	128.803	79.996	19.996	100.184	20.072	4.768	0.395
109.000	129.008	79.995	19.996	100.184	20.074	4.586	0.428
109.500	129.196	79.995	19.995	100.187	20.078	4.277	0.424
110.000	129.417	79.995	19.997	100.191	20.075	4.515	0.401
110.500	129.643	79.995	19.995	100.193	20.073	4.718	0.428
111.000	129.829	79.994	19.996	100.198	20.078	4.255	0.429
111.500	130.030	79.994	19.997	100.200	20.080	4.164	0.400
112.000	130.232	79.995	19.998	100.196	20.081	4.028	0.396
112.500	130.449	79.997	19.997	100.190	20.081	4.008	0.411
113.000	130.668	79.995	19.996	100.185	20.083	3.895	0.427
113.500	130.818	79.995	19.996	100.183	20.079	4.242	0.402
114.000	131.019	79.996	19.998	100.184	20.075	4.545	0.360
114.501	131.303	79.995	19.997	100.191	20.077	4.355	0.418
115.001	131.529	79.996	19.997	100.197	20.078	4.286	0.497
115.500	131.751	79.993	19.997	100.199	20.076	4.480	0.479
116.000	131.987	79.997	19.997	100.195	20.075	4.549	0.453
116.500	132.168	79.996	19.998	100.196	20.079	4.197	0.437
117.000	132.376	79.995	19.997	100.193	20.082	3.964	0.403
117.500	132.604	79.994	19.998	100.187	20.082	3.950	0.412
118.000	132.830	79.995	19.997	100.183	20.086	3.647	0.445
118.500	133.062	79.996	19.998	100.187	20.079	4.241	0.456
119.000	133.257	79.996	19.998	100.188	20.078	4.293	0.443
119.500	133.478	79.994	19.997	100.187	20.077	4.406	0.422
120.000	133.666	79.995	19.997	100.190	20.081	4.068	0.412
120.501	133.908	79.997	19.998	100.194	20.082	3.975	0.419
121.001	134.142	79.995	19.997	100.197	20.073	4.731	0.453
121.500	134.346	79.995	19.998	100.198	20.081	4.066	0.457
122.000	134.595	79.996	19.998	100.200	20.081	4.084	0.446
122.500	134.836	79.995	19.997	100.202	20.079	4.206	0.471
123.000	135.054	79.995	19.996	100.203	20.083	3.924	0.474
123.500	135.254	79.994	19.997	100.202	20.078	4.286	0.438
124.000	135.475	79.996	19.997	100.202	20.079	4.199	0.420
124.500	135.742	79.994	19.995	100.204	20.079	4.244	0.455
125.000	135.965	79.995	19.997	100.205	20.079	4.215	0.489
125.500	136.202	79.996	19.998	100.205	20.080	4.132	0.475
126.000	136.389	79.996	19.996	100.202	20.073	4.658	0.442
126.501	136.646	79.995	19.997	100.203	20.075	4.540	0.434
127.001	136.897	79.995	19.997	100.203	20.078	4.295	0.476
127.500	137.110	79.995	19.997	100.202	20.076	4.486	0.486
128.000	137.325	79.994	19.996	100.201	20.085	3.738	0.446
128.500	137.539	79.995	19.998	100.201	20.084	3.841	0.429
129.000	137.796	79.994	19.996	100.198	20.074	4.642	0.450
129.500	138.049	79.997	19.997	100.195	20.082	3.981	0.490
130.000	138.302	79.995	19.996	100.195	20.073	4.700	0.508
130.500	138.527	79.994	19.996	100.196	20.076	4.457	0.492
131.000	138.771	79.997	19.996	100.197	20.081	4.046	0.473
131.500	139.031	79.997	19.997	100.199	20.083	3.886	0.486
132.000	139.238	79.996	19.997	100.202	20.076	4.413	0.485
132.500	139.470	79.996	19.996	100.205	20.081	4.079	0.453
133.000	139.686	79.997	19.997	100.205	20.082	3.968	0.443
133.500	139.928	79.998	19.997	100.206	20.074	4.579	0.453
134.000	140.216	79.996	19.996	100.206	20.079	4.172	0.495
134.500	140.459	79.996	19.997	100.201	20.072	4.766	0.530
135.000	140.713	79.995	19.995	100.197	20.079	4.168	0.514
135.500	140.919	79.998	19.997	100.195	20.075	4.506	0.478
136.000	141.194	79.997	19.994	100.195	20.075	4.568	0.470
136.500	141.434	79.997	19.996	100.197	20.077	4.353	0.498
137.000	141.662	79.997	19.995	100.201	20.080	4.099	0.492
137.500	141.902	79.996	19.995	100.203	20.078	4.326	0.468
138.000	142.124	79.998	19.996	100.204	20.080	4.148	0.465
138.500	142.388	79.998	19.996	100.199	20.079	4.246	0.474
139.000	142.639	79.996	19.996	100.193	20.076	4.459	0.500
139.500	142.863	79.999	19.996	100.191	20.076	4.441	0.495
140.000	143.105	79.996	19.995	100.191	20.079	4.208	0.471
140.500	143.383	79.997	19.996	100.191	20.077	4.341	0.493
141.000	143.629	79.998	19.995	100.194	20.078	4.305	0.522
141.500	143.855	79.996	19.994	100.197	20.081	4.015	0.498
142.000	144.081	79.999	19.997	100.199	20.083	3.890	0.462
142.500	144.324	79.997	19.998	100.199	20.083	3.920	0.461
143.000	144.601	79.998	19.996	100.194	20.082	3.947	0.494
143.500	144.824	79.999	19.998	100.188	20.076	4.469	0.510
144.000	145.095	79.996	19.995	100.190	20.081	4.043	0.497
144.500	145.351	79.995	19.995	100.188	20.077	4.376	0.511
145.000	145.575	79.997	19.996	100.187	20.084	3.829	0.504
145.500	145.833	79.997	19.998	100.189	20.076	4.449	0.481
146.000	146.109	79.998	19.995	100.191	20.081	4.075	0.508
146.500	146.337	79.998	19.996	100.189	20.077	4.389	0.519
147.000	146.586	79.998	19.997	100.193	20.076	4.482	0.490
147.500	146.825	79.996	19.995	100.194	20.074	4.583	0.482
148.000	147.087	79.997	19.996	100.199	20.076	4.475	0.494
148.500	147.338	79.998	19.996	100.203	20.077	4.372	0.507
149.000	147.547	79.998	19.997	100.205	20.078	4.259	0.487
149.500	147.786	79.996	19.996	100.201	20.076	4.434	0.455
150.000	148.073	79.998	19.997	100.194	20.077	4.336	0.487
150.500	148.312	79.996	19.997	100.188	20.080	4.109	0.526
151.000	148.555	79.998	19.997	100.182	20.080	4.094	0.504
151.500	148.811	79.998	19.997	100.179	20.077	4.381	0.491
152.000	149.100	79.996	19.996	100.178	20.078	4.252	0.522
152.500	149.357	79.997	19.996	100.157	20.080	4.150	0.545
153.000	149.585	79.996	19.996	100.131	20.078	4.276	0.516
153.500	149.841	79.998	19.997	100.120	20.080	4.154	0.484
154.000	150.101	79.999	19.996	100.117	20.077	4.345	0.499
154.500	150.337	79.998	19.996	100.115	20.082	3.958	0.506
155.000	150.571	79.997	19.996	100.138	20.076	4.450	0.483
155.500	150.843	79.997	19.996	100.173	20.075	4.563	0.488
156.000	151.081	79.996	19.998	100.230	20.083	3.853	0.508
156.500	151.290	79.996	19.997	100.251	20.085	3.684	0.478
157.000	151.586	79.997	19.996	100.258	20.083	3.887	0.476
157.500	151.854	79.997	19.996	100.261	20.078	4.298	0.534
158.000	152.059	79.997	19.997	100.256	20.082	3.967	0.519
158.500	152.332	79.997	19.996	100.211	20.083	3.911	0.476
159.000	152.587	79.997	19.997	100.191	20.079	4.212	0.503
159.500	152.856	79.996	19.995	100.185	20.075	4.532	0.526
160.000	153.063	79.998	19.996	100.183	20.080	4.085	0.500
160.500	153.344	79.999	19.995	100.179	20.079	4.178	0.482
161.000	153.598	80.000	19.995	100.177	20.083	3.865	0.511
161.500	153.842	79.997	19.996	100.176	20.079	4.172	0.516
162.000	154.071	79.998	19.997	100.178	20.082	3.996	0.486
162.500	154.343	79.999	19.996	100.181	20.079	4.212	0.487
163.000	154.564	80.000	19.996	100.180	20.080	4.127	0.497
163.500	154.844	79.999	19.997	100.180	20.078	4.298	0.497
164.000	155.115	80.000	19.997	100.182	20.083	3.922	0.526
164.500	155.366	80.000	19.997	100.178	20.079	4.171	0.536
165.000	155.583	79.999	19.997	100.174	20.078	4.247	0.495
165.500	155.862	80.000	19.995	100.174	20.081	4.011	0.482
166.000	156.081	79.997	19.994	100.174	20.079	4.243	0.497
166.500	156.334	79.998	19.996	100.172	20.079	4.169	0.485
167.000	156.626	79.996	19.995	100.172	20.076	4.418	0.508
167.500	156.866	79.998	19.996	100.172	20.085	3.722	0.539
168.000	157.138	79.996	19.994	100.171	20.081	4.049	0.522
168.500	157.410	79.999	19.996	100.171	20.083	3.916	0.528
169.000	157.639	79.999	19.995	100.172	20.089	3.391	0.523
169.500	157.911	79.997	19.995	100.172	20.073	4.661	0.501
170.000	158.138	79.999	19.997	100.173	20.076	4.427	0.500
170.500	158.386	79.998	19.997	100.173	20.082	3.931	0.487
171.000	158.687	79.995	19.995	100.174	20.081	4.004	0.512
171.500	158.929	79.997	19.996	100.174	20.085	3.708	0.546
172.000	159.157	79.996	19.997	100.174	20.077	4.384	0.506
172.500	159.456	79.997	19.995	100.173	20.080	4.104	0.498
173.000	159.658	79.994	19.995	100.173	20.077	4.376	0.514
173.500	159.900	79.995	19.996	100.171	20.081	4.027	0.473
174.000	160.202	79.995	19.997	100.170	20.079	4.187	0.494
174.500	160.438	79.995	19.996	100.170	20.088	3.504	0.540
175.000	160.714	79.995	19.997	100.170	20.087	3.537	0.525
175.500	160.962	79.996	19.996	100.170	20.081	4.004	0.519
176.000	161.207	79.997	19.997	100.171	20.082	3.982	0.508
176.500	161.468	79.997	19.996	100.173	20.078	4.303	0.499
177.000	161.688	79.996	19.997	100.172	20.080	4.120	0.494
177.500	161.952	79.997	19.996	100.173	20.081	4.044	0.483
178.000	162.228	79.996	19.997	100.172	20.088	3.479	0.512
178.500	162.470	79.997	19.998	100.172	20.081	4.029	0.529
179.000	162.722	79.996	19.997	100.171	20.082	3.962	0.506
179.500	162.986	79.997	19.997	100.171	20.087	3.588	0.505
180.000	163.244	79.998	19.996	100.170	20.086	3.670	0.519
180.500	163.491	79.995	19.997	100.169	20.082	3.961	0.513
181.000	163.717	79.996	19.998	100.164	20.081	4.022	0.489
181.500	163.979	79.995	19.997	100.162	20.083	3.915	0.481
182.000	164.281	79.994	19.997	100.159	20.084	3.804	0.526
182.500	164.553	79.997	19.998	100.157	20.087	3.582	0.569
183.000	164.796	79.995	19.997	100.158	20.081	4.042	0.545
183.500	165.007	79.997	19.998	100.163	20.085	3.686	0.484
184.000	165.261	79.996	19.997	100.165	20.087	3.564	0.459
184.500	165.540	79.995	19.997	100.167	20.086	3.661	0.499
185.000	165.808	79.995	19.996	100.168	20.086	3.639	0.540
185.500	166.054	79.996	19.996	100.168	20.081	4.060	0.531
186.000	166.293	79.996	19.997	100.167	20.086	3.657	0.500
186.500	166.545	79.995	19.996	100.167	20.085	3.706	0.488
187.000	166.783	79.995	19.996	100.166	20.083	3.920	0.490
187.500	167.044	79.996	19.998	100.167	20.084	3.818	0.494
188.000	167.331	79.995	19.996	100.166	20.084	3.840	0.523
188.500	167.583	79.996	19.996	100.164	20.084	3.824	0.543
189.000	167.832	79.995	19.996	100.164	20.084	3.839	0.520
189.500	168.069	79.998	19.998	100.160	20.083	3.857	0.494
190.000	168.335	79.997	19.997	100.153	20.089	3.432	0.495
190.500	168.610	79.995	19.996	100.150	20.091	3.270	0.522
191.000	168.857	79.995	19.996	100.147	20.086	3.659	0.532
191.500	169.096	79.996	19.996	100.148	20.083	3.872	0.504
192.000	169.341	79.996	19.997	100.152	20.093	3.081	0.485
192.500	169.608	79.996	19.996	100.158	20.088	3.459	0.497
193.000	169.872	79.997	19.996	100.160	20.087	3.528	0.522
193.501	170.116	79.995	19.996	100.163	20.088	3.488	0.520
194.001	170.371	79.996	19.996	100.162	20.085	3.714	0.503
194.500	170.590	79.996	19.996	100.157	20.082	3.973	0.486
195.000	170.897	79.996	19.997	100.156	20.088	3.507	0.500
195.500	171.120	79.994	19.996	100.156	20.088	3.443	0.528
196.000	171.389	79.995	19.996	100.158	20.084	3.763	0.511
196.500	171.607	79.996	19.997	100.159	20.085	3.713	0.490
197.000	171.878	79.996	19.998	100.165	20.082	3.979	0.489
197.500	172.107	79.996	19.997	100.166	20.082	3.988	0.495
198.000	172.376	79.996	19.998	100.169	20.089	3.406	0.498
198.500	172.629	79.995	19.995	100.168	20.091	3.221	0.510
199.000	172.885	79.995	19.998	100.167	20.087	3.553	0.516
199.500	173.105	79.996	19.997	100.164	20.091	3.223	0.492
200.000	173.383	79.995	19.997	100.158	20.088	3.475	0.487
200.500	173.622	79.994	19.996	100.153	20.079	4.168	0.508
201.000	173.897	79.995	19.996	100.148	20.087	3.555	0.515
201.500	174.117	79.995	19.998	100.144	20.084	3.786	0.504
202.000	174.372	79.994	19.996	100.140	20.084	3.761	0.485
202.500	174.638	79.994	19.998	100.145	20.088	3.503	0.498
203.000	174.871	79.994	19.996	100.149	20.083	3.868	0.510
203.500	175.139	79.995	19.997	100.151	20.083	3.895	0.500
204.000	175.365	79.995	19.998	100.155	20.089	3.392	0.497
204.500	175.659	79.995	19.999	100.160	20.082	3.959	0.507
205.000	175.941	79.994	19.995	100.131	20.084	3.807	0.548
205.500	176.133	79.996	19.998	100.095	20.087	3.549	0.525
206.000	176.373	79.995	19.999	100.077	20.090	3.322	0.453
206.500	176.618	79.996	19.999	100.069	20.084	3.774	0.458
207.000	176.892	79.995	19.998	100.063	20.090	3.333	0.502
207.500	177.086	79.995	19.998	100.094	20.090	3.302	0.494
208.000	177.413	79.995	19.997	100.137	20.089	3.434	0.495
208.500	177.624	79.996	19.997	100.199	20.087	3.594	0.529
209.000	177.889	79.993	19.997	100.222	20.084	3.816	0.506
209.500	178.125	79.997	19.998	100.226	20.088	3.516	0.489
210.000	178.377	79.996	19.998	100.220	20.090	3.347	0.495
210.500	178.669	79.996	19.998	100.212	20.085	3.707	0.516
211.000	178.891	79.995	19.998	100.167	20.086	3.627	0.529
211.501	179.144	79.992	19.997	100.151	20.089	3.414	0.494
212.001	179.403	79.993	19.998	100.152	20.093	3.105	0.493
212.500	179.645	79.997	19.998	100.156	20.091	3.216	0.507
213.000	179.899	79.996	19.998	100.154	20.089	3.394	0.499
213.500	180.158	79.996	19.998	100.155	20.087	3.532	0.504
214.001	180.436	79.996	19.997	100.149	20.089	3.387	0.525
214.501	180.647	79.996	19.996	100.143	20.089	3.389	0.513
215.000	180.896	79.996	19.997	100.138	20.086	3.641	0.474
215.500	181.130	79.996	19.998	100.134	20.086	3.627	0.472
216.000	181.389	79.997	19.997	100.130	20.092	3.147	0.488
216.500	181.669	79.996	19.996	100.126	20.090	3.347	0.516
217.000	181.889	79.997	19.996	100.125	20.086	3.654	0.520
217.500	182.164	79.998	19.996	100.125	20.087	3.558	0.497
218.000	182.420	79.999	19.997	100.126	20.087	3.527	0.513
218.500	182.712	79.996	19.995	100.128	20.090	3.312	0.540
219.000	182.903	79.997	19.995	100.132	20.090	3.296	0.515
219.500	183.179	79.998	19.996	100.133	20.094	2.982	0.475
220.000	183.439	79.998	19.997	100.133	20.087	3.529	0.501
220.500	183.645	79.997	19.995	100.137	20.089	3.400	0.501
221.000	183.928	79.998	19.996	100.137	20.093	3.105	0.478
221.500	184.166	79.998	19.997	100.137	20.092	3.162	0.505
222.000	184.404	79.996	19.995	100.137	20.091	3.267	0.498
222.500	184.634	79.997	19.996	100.137	20.091	3.240	0.472
223.000	184.907	79.998	19.996	100.135	20.091	3.260	0.486
223.500	185.159	79.996	19.996	100.134	20.094	3.016	0.514
224.000	185.414	79.997	19.997	100.134	20.089	3.427	0.516
224.500	185.669	79.997	19.996	100.134	20.091	3.236	0.508
225.000	185.908	79.996	19.995	100.134	20.090	3.300	0.503
225.500	186.180	79.998	19.995	100.132	20.090	3.289	0.503
226.000	186.451	79.996	19.996	100.132	20.088	3.512	0.526
226.500	186.709	79.998	19.996	100.133	20.088	3.456	0.536
227.000	186.924	79.996	19.995	100.133	20.086	3.612	0.501
227.500	187.182	79.996	19.996	100.133	20.086	3.641	0.473
228.000	187.415	79.997	19.996	100.134	20.090	3.307	0.482
228.500	187.678	79.995	19.995	100.136	20.092	3.149	0.494
229.000	187.911	79.997	19.995	100.136	20.095	2.933	0.496
229.500	188.191	79.997	19.995	100.137	20.087	3.532	0.505
230.000	188.453	79.995	19.995	100.137	20.086	3.612	0.527
230.500	188.677	79.997	19.996	100.137	20.090	3.331	0.513
231.000	188.897	79.994	19.995	100.135	20.087	3.545	0.465
231.500	189.158	79.996	19.997	100.134	20.085	3.721	0.463
232.000	189.425	79.995	19.995	100.134	20.092	3.167	0.504
232.500	189.642	79.996	19.996	100.134	20.095	2.935	0.506
233.000	189.936	79.997	19.995	100.134	20.089	3.409	0.498
233.500	190.143	79.996	19.995	100.134	20.084	3.818	0.506
234.000	190.389	79.997	19.996	100.132	20.091	3.207	0.477
234.500	190.626	79.996	19.995	100.131	20.090	3.340	0.468
235.000	190.873	79.998	19.996	100.131	20.090	3.318	0.484
235.500	191.117	79.996	19.996	100.131	20.094	2.982	0.488
236.000	191.364	79.996	19.996	100.129	20.089	3.382	0.491
236.500	191.612	79.997	19.995	100.131	20.088	3.489	0.493
237.000	191.870	79.996	19.996	100.132	20.094	3.015	0.500
237.500	192.070	79.996	19.997	100.131	20.092	3.187	0.482
238.000	192.311	79.996	19.995	100.131	20.089	3.427	0.449
238.500	192.587	79.997	19.996	100.132	20.092	3.162	0.479
239.000	192.811	79.996	19.996	100.132	20.092	3.173	0.508
239.500	193.053	79.997	19.996	100.132	20.096	2.802	0.483
240.000	193.314	79.997	19.996	100.133	20.089	3.387	0.485
240.500	193.557	79.998	19.997	100.133	20.096	2.804	0.503
241.000	193.792	79.998	19.995	100.133	20.092	3.149	0.491
241.500	194.024	79.999	19.996	100.132	20.096	2.847	0.473
242.000	194.281	79.998	19.996	100.132	20.096	2.807	0.478
242.500	194.515	79.999	19.996	100.130	20.097	2.753	0.490
243.000	194.775	79.999	19.996	100.128	20.103	2.253	0.492
243.500	195.009	79.998	19.996	100.128	20.097	2.780	0.494
244.000	195.236	79.997	19.995	100.128	20.092	3.191	0.478
244.500	195.502	80.000	19.995	100.126	20.095	2.933	0.477
245.000	195.727	79.998	19.995	100.122	20.092	3.142	0.491
245.500	196.010	79.998	19.995	100.121	20.095	2.891	0.499
246.000	196.182	79.998	19.997	100.119	20.098	2.704	0.482
246.500	196.462	79.998	19.996	100.119	20.094	3.020	0.454
247.000	196.678	79.998	19.995	100.120	20.095	2.940	0.474
247.500	196.921	79.998	19.997	100.124	20.096	2.789	0.477
248.000	197.178	79.999	19.996	100.125	20.092	3.178	0.480
248.500	197.407	79.999	19.995	100.126	20.097	2.722	0.493
249.001	197.690	79.997	19.995	100.126	20.090	3.333	0.499
249.500	197.876	79.999	19.997	100.126	20.097	2.713	0.490
250.000	198.130	79.997	19.995	100.127	20.094	2.988	0.454
250.500	198.399	79.999	19.996	100.130	20.093	3.111	0.481
251.000	198.655	79.998	19.996	100.130	20.093	3.106	0.524
251.500	198.904	79.998	19.996	100.130	20.091	3.229	0.515
252.000	199.126	79.997	19.995	100.130	20.097	2.715	0.488
252.500	199.383	79.996	19.995	100.130	20.097	2.769	0.475
253.000	199.615	79.995	19.995	100.130	20.090	3.338	0.485
253.500	199.871	79.996	19.995	100.129	20.095	2.931	0.489
254.000	200.070	79.997	19.996	100.130	20.092	3.129	0.471
254.500	200.350	79.995	19.996	100.130	20.099	2.608	0.467
255.000	200.576	79.996	19.995	100.131	20.097	2.726	0.493
255.500	200.840	79.999	19.997	100.132	20.094	2.984	0.498
256.000	201.053	79.994	19.996	100.131	20.097	2.724	0.483
256.500	201.319	79.996	19.996	100.127	20.095	2.924	0.478
257.000	201.559	79.998	19.998	100.127	20.094	2.951	0.492
257.500	201.834	79.995	19.996	100.127	20.096	2.838	0.511
258.000	202.068	79.996	19.996	100.127	20.095	2.938	0.512
258.500	202.296	79.995	19.995	100.128	20.092	3.189	0.486
259.000	202.527	79.994	19.997	100.130	20.091	3.253	0.460
259.500	202.760	79.996	19.997	100.125	20.094	3.024	0.462
260.000	203.015	79.996	19.997	100.122	20.095	2.913	0.476
260.500	203.261	79.994	19.996	100.117	20.092	3.138	0.494
261.000	203.496	79.996	19.997	100.112	20.088	3.456	0.491
261.500	203.753	79.996	19.998	100.108	20.094	3.027	0.486
262.000	203.993	79.995	19.996	100.113	20.092	3.173	0.495
262.500	204.195	79.996	19.997	100.115	20.094	3.020	0.470
263.000	204.465	79.996	19.995	100.121	20.093	3.033	0.457
263.500	204.704	79.997	19.996	100.125	20.085	3.729	0.490
264.000	204.959	79.996	19.997	100.130	20.093	3.089	0.502
264.500	205.178	79.997	19.997	100.125	20.093	3.100	0.484
265.000	205.388	79.996	19.996	100.125	20.099	2.604	0.451
265.500	205.684	79.996	19.997	100.120	20.089	3.396	0.467
266.000	205.896	79.997	19.997	100.117	20.100	2.511	0.507
266.500	206.170	79.997	19.997	100.116	20.088	3.507	0.497
267.000	206.454	79.997	19.998	100.118	20.094	2.989	0.522
267.500	206.656	79.996	19.997	100.117	20.096	2.804	0.522
268.000	206.909	79.996	19.997	100.121	20.097	2.753	0.471
268.500	207.167	79.995	19.997	100.125	20.095	2.889	0.483
269.000	207.427	79.996	19.997	100.126	20.093	3.107	0.515
269.500	207.649	79.995	19.998	100.122	20.096	2.822	0.500
270.000	207.916	79.995	19.997	100.122	20.095	2.889	0.485
270.500	208.148	79.998	19.997	100.121	20.102	2.368	0.494
271.000	208.382	79.997	19.997	100.121	20.098	2.675	0.482
271.500	208.650	79.996	19.998	100.121	20.093	3.102	0.484
272.000	208.882	79.996	19.997	100.128	20.094	2.993	0.501
272.500	209.115	79.996	19.997	100.130	20.092	3.144	0.482
273.000	209.352	79.997	19.997	100.130	20.095	2.904	0.468
273.500	209.612	79.996	19.997	100.129	20.094	3.009	0.484
274.000	209.879	79.995	19.996	100.130	20.092	3.133	0.512
274.500	210.092	79.995	19.997	100.130	20.090	3.347	0.503
275.000	210.335	79.995	19.996	100.130	20.099	2.620	0.468
275.500	210.575	79.996	19.998	100.129	20.095	2.913	0.470
276.000	210.830	79.997	19.999	100.130	20.095	2.891	0.489
276.500	211.075	79.998	19.996	100.127	20.094	2.991	0.497
277.000	211.316	79.996	19.997	100.126	20.091	3.200	0.493
277.500	211.552	79.994	19.996	100.125	20.090	3.311	0.482
278.000	211.810	79.995	19.996	100.124	20.092	3.142	0.485
278.500	212.059	79.996	19.996	100.123	20.091	3.251	0.501
279.000	212.291	79.997	19.998	100.126	20.089	3.355	0.494
279.501	212.531	79.997	19.996	100.128	20.094	2.988	0.477
280.000	212.777	79.996	19.996	100.129	20.090	3.335	0.479
280.500	213.042	79.994	19.997	100.128	20.096	2.792	0.498
281.000	213.282	79.995	19.996	100.127	20.095	2.888	0.508
281.500	213.509	79.996	19.997	100.123	20.092	3.112	0.486
282.000	213.771	79.996	19.996	100.119	20.094	3.017	0.478
282.500	214.031	79.996	19.997	100.118	20.087	3.519	0.505
283.000	214.290	79.995	19.997	100.120	20.100	2.519	0.520
283.500	214.530	79.996	19.997	100.120	20.095	2.944	0.509
284.000	214.763	79.996	19.997	100.123	20.096	2.868	0.486
284.500	214.985	79.997	19.998	100.126	20.092	3.151	0.464
285.000	215.258	79.994	19.996	100.126	20.097	2.782	0.475
285.500	215.507	79.995	19.996	100.124	20.094	3.006	0.509
286.000	215.734	79.995	19.997	100.122	20.099	2.546	0.499
286.500	215.959	79.994	19.996	100.120	20.097	2.731	0.464
287.000	216.219	79.994	19.998	100.117	20.101	2.464	0.469
287.500	216.449	79.994	19.997	100.115	20.095	2.900	0.487
288.000	216.681	79.993	19.997	100.116	20.096	2.839	0.476
288.500	216.937	79.994	19.998	100.117	20.101	2.432	0.475
289.000	217.175	79.996	19.998	100.118	20.098	2.681	0.491
289.500	217.421	79.994	19.997	100.118	20.101	2.432	0.489
290.000	217.702	79.993	19.997	100.115	20.100	2.475	0.506
290.500	217.912	79.996	19.998	100.109	20.095	2.908	0.509
291.000	218.161	79.995	19.997	100.107	20.094	2.975	0.475
291.500	218.388	79.996	19.997	100.101	20.100	2.488	0.467
292.000	218.647	79.996	19.996	100.099	20.101	2.450	0.481
292.500	218.900	79.995	19.998	100.097	20.099	2.593	0.499
293.000	219.110	79.995	19.997	100.101	20.098	2.661	0.488
293.501	219.366	79.996	19.999	100.103	20.100	2.539	0.465
294.001	219.615	79.995	19.997	100.107	20.099	2.595	0.485
294.501	219.889	79.997	19.997	100.109	20.099	2.555	0.513
295.001	220.094	79.996	19.997	100.115	20.093	3.079	0.501
295.500	220.349	79.995	19.996	100.113	20.098	2.650	0.470
296.000	220.618	79.996	19.997	100.115	20.099	2.546	0.492
296.500	220.844	79.997	19.998	100.116	20.103	2.281	0.509
297.001	221.124	79.997	19.997	100.117	20.102	2.354	0.500
297.500	221.353	79.996	19.998	100.116	20.097	2.719	0.507
298.000	221.617	79.997	19.997	100.121	20.100	2.532	0.502
298.500	221.860	79.995	19.996	100.117	20.100	2.499	0.500
299.000	222.092	79.997	19.998	100.113	20.096	2.859	0.491
299.500	222.349	79.995	19.997	100.109	20.095	2.912	0.482
300.000	222.582	79.996	19.997	100.108	20.104	2.196	0.490
300.500	222.867	79.996	19.997	100.103	20.097	2.757	0.504
301.000	223.106	79.996	19.996	100.103	20.096	2.810	0.520
301.500	223.294	79.997	19.998	100.108	20.098	2.654	0.476
302.000	223.547	79.998	19.996	100.113	20.098	2.677	0.434
302.500	223.804	79.997	19.997	100.115	20.098	2.652	0.476
303.000	224.042	79.996	19.996	100.117	20.098	2.672	0.503
303.500	224.304	79.998	19.997	100.118	20.100	2.525	0.498
304.000	224.547	79.998	19.998	100.112	20.095	2.879	0.502
304.500	224.792	79.998	19.996	100.110	20.102	2.379	0.496
305.000	225.024	79.998	19.997	100.107	20.101	2.454	0.483
305.500	225.332	79.996	19.996	100.105	20.102	2.341	0.509
306.000	225.579	79.997	19.996	100.107	20.100	2.543	0.547
306.500	225.798	79.996	19.995	100.106	20.101	2.421	0.511
307.000	226.039	79.998	19.995	100.101	20.105	2.116	0.463
307.500	226.304	79.996	19.994	100.099	20.102	2.359	0.483
308.000	226.515	79.997	19.996	100.100	20.102	2.348	0.491
308.500	226.779	79.998	19.996	100.097	20.100	2.510	0.475
309.000	227.002	79.998	19.997	100.098	20.099	2.545	0.481
309.500	227.272	79.998	19.997	100.099	20.095	2.917	0.490
310.000	227.542	79.997	19.996	100.099	20.098	2.692	0.517
310.500	227.753	79.998	19.998	100.096	20.101	2.421	0.511
311.000	227.987	79.998	19.997	100.094	20.099	2.601	0.463
311.500	228.298	79.995	19.997	100.093	20.101	2.423	0.495
312.000	228.523	79.998	19.997	100.093	20.106	2.005	0.540
312.500	228.763	79.996	19.997	100.093	20.104	2.181	0.500
313.000	229.009	79.997	19.997	100.093	20.104	2.219	0.475
313.500	229.282	79.997	19.996	100.092	20.097	2.750	0.503
314.000	229.505	79.999	19.997	100.092	20.105	2.130	0.508
314.500	229.751	79.998	19.996	100.093	20.099	2.548	0.483
315.000	229.973	79.997	19.997	100.093	20.103	2.274	0.469
315.500	230.248	79.999	19.998	100.092	20.107	1.905	0.483
316.000	230.508	79.998	19.996	100.093	20.103	2.283	0.516
316.500	230.748	79.997	19.996	100.094	20.108	1.876	0.517
317.000	231.016	79.998	19.997	100.093	20.105	2.096	0.503
317.500	231.273	79.998	19.997	100.092	20.103	2.283	0.516
318.000	231.509	79.997	19.995	100.092	20.099	2.557	0.509
318.500	231.721	80.000	19.997	100.092	20.100	2.485	0.471
319.000	231.993	79.999	19.998	100.092	20.099	2.568	0.466
319.500	232.246	79.998	19.995	100.092	20.102	2.370	0.505
320.000	232.474	79.999	19.996	100.093	20.102	2.316	0.503
320.500	232.746	79.997	19.995	100.094	20.103	2.236	0.491
321.000	232.975	79.999	19.996	100.094	20.102	2.361	0.500
321.500	233.203	79.999	19.996	100.095	20.105	2.136	0.478
322.000	233.442	79.999	19.997	100.096	20.102	2.314	0.462
322.500	233.666	79.998	19.997	100.095	20.104	2.156	0.465
323.000	233.910	80.000	19.996	100.094	20.104	2.176	0.466
323.500	234.189	80.000	19.997	100.093	20.105	2.072	0.496
324.000	234.419	79.998	19.997	100.092	20.105	2.119	0.516
324.500	234.671	79.999	19.997	100.092	20.103	2.230	0.496
325.000	234.931	79.998	19.996	100.094	20.105	2.119	0.497
325.500	235.186	79.999	19.997	100.095	20.106	2.052	0.513
326.000	235.406	79.998	19.998	100.096	20.104	2.150	0.495
326.500	235.653	80.000	19.997	100.098	20.101	2.401	0.471
327.000	235.906	79.999	19.997	100.099	20.106	2.003	0.483
327.500	236.161	79.998	19.997	100.099	20.107	1.976	0.504
328.000	236.421	79.999	19.996	100.098	20.106	2.021	0.512
328.500	236.679	79.998	19.997	100.096	20.112	1.532	0.516
329.000	236.925	80.000	19.998	100.098	20.109	1.799	0.511
329.500	237.185	79.996	19.996	100.096	20.105	2.119	0.505
330.000	237.401	79.999	19.998	100.095	20.108	1.890	0.491
330.500	237.652	79.997	19.997	100.095	20.107	1.976	0.471
331.000	237.907	79.997	19.996	100.096	20.107	1.919	0.487
331.500	238.151	79.997	19.995	100.093	20.108	1.841	0.502
332.000	238.369	79.999	19.997	100.092	20.108	1.881	0.480
332.500	238.649	79.996	19.996	100.093	20.107	1.934	0.480
333.000	238.887	79.995	19.995	100.094	20.106	2.003	0.508
333.500	239.113	79.994	19.996	100.092	20.108	1.863	0.491
334.000	239.338	79.997	19.997	100.092	20.109	1.774	0.458
334.500	239.601	79.996	19.995	100.092	20.107	1.908	0.469
335.000	239.822	79.996	19.996	100.092	20.108	1.828	0.486
335.500	240.120	79.996	19.996	100.091	20.105	2.119	0.502
336.000	240.359	79.997	19.996	100.091	20.111	1.647	0.528
336.500	240.590	79.996	19.995	100.092	20.105	2.130	0.503
337.000	240.853	79.997	19.995	100.092	20.104	2.150	0.482
337.500	241.104	79.996	19.995	100.092	20.107	1.956	0.504
338.000	241.364	79.996	19.995	100.094	20.103	2.221	0.512
338.500	241.584	79.996	19.996	100.098	20.106	2.036	0.495
339.000	241.856	79.996	19.996	100.101	20.105	2.101	0.486
339.500	242.084	79.996	19.997	100.102	20.102	2.343	0.496
340.000	242.355	79.997	19.996	100.102	20.104	2.154	0.499
340.500	242.604	79.996	19.995	100.102	20.111	1.636	0.510
341.000	242.845	79.996	19.996	100.099	20.104	2.205	0.506
341.500	243.096	79.997	19.997	100.097	20.106	2.023	0.491
342.000	243.322	79.997	19.996	100.098	20.111	1.641	0.484
342.500	243.597	79.998	19.998	100.098	20.101	2.390	0.489
343.000	243.827	79.996	19.996	100.098	20.103	2.241	0.503
343.500	244.083	79.997	19.996	100.097	20.111	1.598	0.496
344.000	244.296	79.998	19.997	100.098	20.108	1.879	0.478
344.500	244.560	79.998	19.995	100.098	20.110	1.690	0.473
345.000	244.795	79.998	19.996	100.099	20.104	2.183	0.488
345.500	245.041	79.997	19.996	100.103	20.106	2.045	0.490
346.000	245.304	79.996	19.997	100.104	20.111	1.583	0.495
346.500	245.535	79.998	19.996	100.103	20.108	1.865	0.502
347.000	245.760	79.996	19.997	100.103	20.110	1.665	0.475
347.500	246.054	79.996	19.996	100.101	20.103	2.296	0.487
348.000	246.262	79.998	19.997	100.097	20.107	1.965	0.510
348.500	246.495	79.998	19.997	100.096	20.108	1.852	0.472
349.000	246.739	79.997	19.996	100.096	20.108	1.876	0.459
349.500	246.975	79.996	19.996	100.096	20.111	1.650	0.479
350.000	247.238	79.997	19.997	100.096	20.106	2.041	0.490
350.500	247.411	79.996	19.996	100.096	20.110	1.681	0.468
351.000	247.705	79.998	19.998	100.096	20.109	1.796	0.451
351.500	247.955	79.997	19.997	100.095	20.106	2.034	0.505
352.000	248.200	79.995	19.997	100.095	20.111	1.634	0.520
352.500	248.470	79.997	19.994	100.095	20.110	1.698	0.506
353.000	248.715	79.996	19.996	100.094	20.111	1.576	0.515
353.500	248.923	79.996	19.996	100.094	20.110	1.723	0.484
354.000	249.195	79.996	19.996	100.094	20.113	1.421	0.466
354.500	249.429	79.997	19.996	100.095	20.111	1.585	0.493
355.000	249.696	79.996	19.996	100.095	20.111	1.638	0.503
355.500	249.923	79.996	19.997	100.094	20.109	1.812	0.497
356.000	250.213	79.997	19.999	100.094	20.109	1.743	0.506
356.500	250.427	79.996	19.996	100.093	20.110	1.716	0.511
357.000	250.711	79.996	19.996	100.093	20.105	2.105	0.501
357.500	250.908	79.996	19.998	100.093	20.114	1.412	0.489
358.000	251.173	79.997	19.996	100.094	20.108	1.818	0.471
358.500	251.429	79.994	19.996	100.094	20.113	1.469	0.492
359.000	251.710	79.996	19.997	100.095	20.113	1.467	0.529
359.500	251.925	79.994	19.997	100.095	20.106	2.043	0.516
360.000	252.180	79.995	19.996	100.095	20.113	1.474	0.483
360.500	252.419	79.997	19.997	100.096	20.112	1.572	0.482
361.000	252.653	79.997	19.997	100.095	20.117	1.105	0.483
361.500	252.886	79.996	19.997	100.095	20.109	1.805	0.470
362.000	253.117	79.996	19.996	100.095	20.112	1.541	0.466
362.500	253.415	79.995	19.996	100.095	20.109	1.796	0.497
363.000	253.615	79.995	19.997	100.095	20.116	1.194	0.514
363.500	253.856	79.996	19.996	100.096	20.114	1.409	0.469
364.000	254.114	79.995	19.996	100.096	20.117	1.100	0.470
364.500	254.378	79.996	19.997	100.096	20.114	1.343	0.511
365.000	254.613	79.997	19.997	100.096	20.112	1.572	0.510
365.500	254.854	79.995	19.995	100.096	20.111	1.578	0.487
366.000	255.118	79.996	19.998	100.094	20.111	1.612	0.490
366.500	255.346	79.996	19.996	100.094	20.109	1.741	0.499
367.000	255.616	79.995	19.996	100.094	20.115	1.296	0.495
367.500	255.843	79.997	19.997	100.094	20.112	1.496	0.497
368.000	256.104	79.996	19.997	100.094	20.115	1.287	0.493
368.500	256.339	79.996	19.996	100.095	20.113	1.418	0.492
369.000	256.573	79.996	19.997	100.095	20.115	1.254	0.482
369.500	256.816	79.998	19.997	100.094	20.114	1.332	0.473
370.000	257.053	79.997	19.997	100.093	20.109	1.803	0.479
370.500	257.288	79.999	19.997	100.093	20.113	1.489	0.476
371.000	257.522	79.998	19.996	100.092	20.114	1.347	0.470
371.500	257.771	79.997	19.996	100.092	20.113	1.418	0.476
372.000	258.031	79.996	19.995	100.091	20.109	1.747	0.496
372.500	258.273	79.997	19.997	100.091	20.111	1.605	0.506
373.000	258.547	79.996	19.998	100.090	20.115	1.327	0.509
373.500	258.761	79.996	19.996	100.089	20.111	1.598	0.502
374.000	258.998	79.998	19.998	100.088	20.112	1.514	0.469
374.500	259.284	79.996	19.997	100.085	20.107	1.918	0.487
375.000	259.525	79.999	19.997	100.084	20.112	1.534	0.525
375.500	259.786	79.998	19.998	100.085	20.114	1.412	0.514
376.000	260.014	79.997	19.997	100.086	20.115	1.283	0.495
376.500	260.276	79.998	19.998	100.086	20.116	1.183	0.490
377.000	260.536	79.997	19.997	100.089	20.115	1.294	0.506
377.500	260.749	79.998	19.998	100.089	20.115	1.307	0.498
378.000	260.966	79.997	19.996	100.089	20.113	1.432	0.452
378.500	261.260	79.998	19.998	100.089	20.119	0.954	0.471
379.000	261.507	79.998	19.997	100.090	20.116	1.212	0.526
379.500	261.736	79.998	19.998	100.091	20.114	1.360	0.508
380.000	261.984	79.998	19.997	100.091	20.116	1.192	0.476
380.500	262.235	79.996	19.997	100.091	20.115	1.267	0.487
381.000	262.472	79.997	19.996	100.090	20.117	1.154	0.494
381.500	262.683	79.999	19.999	100.089	20.116	1.176	0.468
382.000	262.949	79.997	19.997	100.089	20.112	1.532	0.462
382.500	263.214	79.997	19.998	100.089	20.115	1.314	0.504
383.000	263.475	79.997	19.998	100.089	20.120	0.903	0.529
383.500	263.652	79.998	19.997	100.090	20.117	1.111	0.482
384.000	263.928	79.998	19.998	100.089	20.115	1.272	0.446
384.500	264.169	79.997	19.998	100.089	20.112	1.545	0.485
385.000	264.471	79.996	19.996	100.090	20.118	1.080	0.530
385.500	264.714	79.996	19.997	100.090	20.114	1.387	0.544
386.000	264.974	79.997	19.998	100.090	20.115	1.294	0.524
386.500	265.218	79.996	19.997	100.089	20.117	1.105	0.504
387.000	265.404	79.996	19.997	100.089	20.113	1.449	0.467
387.500	265.665	79.996	19.996	100.088	20.116	1.225	0.438
388.000	265.955	79.996	19.997	100.088	20.112	1.503	0.499
388.500	266.182	79.996	19.996	100.088	20.115	1.329	0.534
389.000	266.443	79.998	19.996	100.088	20.115	1.323	0.503
389.500	266.667	79.997	19.997	100.088	20.110	1.663	0.487
390.000	266.950	79.998	19.997	100.089	20.110	1.656	0.496
390.500	267.189	79.996	19.996	100.089	20.112	1.514	0.514
391.000	267.459	79.996	19.997	100.090	20.111	1.643	0.515
391.500	267.670	79.998	19.997	100.090	20.113	1.427	0.495
392.000	267.943	79.997	19.996	100.091	20.110	1.718	0.483
392.500	268.170	79.998	19.997	100.091	20.115	1.323	0.492
393.000	268.418	79.999	19.996	100.091	20.110	1.691	0.487
393.500	268.689	79.997	19.997	100.091	20.112	1.503	0.497
394.000	268.918	79.998	19.997	100.090	20.112	1.560	0.510
394.500	269.188	79.997	19.996	100.090	20.111	1.623	0.499
395.000	269.434	79.998	19.997	100.090	20.114	1.380	0.507
395.500	269.676	79.999	19.996	100.091	20.114	1.347	0.502
396.000	269.906	79.998	19.995	100.091	20.113	1.438	0.481
396.500	270.154	79.999	19.996	100.090	20.118	1.047	0.475
397.000	270.459	79.998	19.996	100.090	20.116	1.238	0.515
397.500	270.660	79.998	19.997	100.089	20.113	1.438	0.529
398.000	270.907	79.999	19.997	100.086	20.113	1.420	0.477
398.500	271.180	79.999	19.997	100.084	20.109	1.758	0.484
399.000	271.440	79.999	19.996	100.083	20.114	1.367	0.527
399.500	271.667	79.998	19.995	100.082	20.113	1.458	0.510
400.000	271.933	79.999	19.996	100.084	20.109	1.754	0.490
400.500	272.223	79.998	19.996	100.086	20.117	1.118	0.525
401.000	272.447	79.999	19.996	100.088	20.113	1.431	0.535
401.500	272.699	80.000	19.997	100.090	20.114	1.356	0.495
402.000	272.941	79.999	19.996	100.090	20.109	1.811	0.485
402.500	273.200	79.999	19.996	100.088	20.113	1.458	0.498
403.000	273.481	79.998	19.995	100.085	20.116	1.247	0.520
403.500	273.690	79.999	19.996	100.078	20.106	1.983	0.515
404.000	273.942	79.998	19.996	100.077	20.113	1.463	0.475
404.500	274.161	79.998	19.995	100.078	20.108	1.887	0.466
405.000	274.410	79.998	19.994	100.080	20.100	2.505	0.470
405.500	274.693	79.998	19.997	100.082	20.110	1.694	0.500
406.000	274.975	79.998	19.996	100.089	20.109	1.778	0.548
406.500	275.171	79.997	19.995	100.090	20.105	2.063	0.522
407.000	275.416	79.997	19.995	100.088	20.111	1.596	0.460
407.500	275.697	79.999	19.998	100.085	20.109	1.780	0.484
408.000	275.964	79.998	19.996	100.082	20.109	1.765	0.537
408.500	276.207	79.996	19.995	100.081	20.108	1.836	0.529
409.000	276.494	79.997	19.997	100.082	20.112	1.527	0.520
409.500	276.701	79.996	19.995	100.083	20.112	1.549	0.512
410.000	276.971	79.997	19.997	100.085	20.108	1.874	0.485
410.500	277.236	79.996	19.996	100.085	20.109	1.767	0.506
411.000	277.467	79.994	19.995	100.081	20.113	1.445	0.515
411.500	277.681	79.996	19.997	100.079	20.112	1.494	0.471
412.000	277.901	79.997	19.997	100.077	20.111	1.620	0.439
412.500	278.218	79.997	19.996	100.076	20.112	1.518	0.485
413.000	278.449	79.998	19.996	100.076	20.114	1.351	0.543
413.500	278.722	79.995	19.996	100.079	20.115	1.287	0.526
414.000	278.954	79.996	19.995	100.080	20.113	1.487	0.505
414.500	279.218	79.997	19.996	100.084	20.113	1.480	0.500
415.000	279.455	79.997	19.996	100.086	20.108	1.818	0.499
415.500	279.695	79.997	19.996	100.090	20.112	1.529	0.489
416.000	279.996	79.996	19.996	100.091	20.110	1.683	0.509
416.500	280.230	79.996	19.996	100.086	20.107	1.920	0.538
417.000	280.471	79.996	19.996	100.085	20.104	2.183	0.505
417.500	280.683	79.996	19.997	100.082	20.109	1.809	0.464
418.000	280.968	79.995	19.995	100.079	20.110	1.716	0.475
418.500	281.179	79.996	19.995	100.079	20.108	1.872	0.497
419.000	281.421	79.997	19.997	100.081	20.113	1.420	0.475
419.500	281.670	79.998	19.996	100.078	20.113	1.440	0.472
420.000	281.890	79.997	19.997	100.078	20.110	1.731	0.480
420.500	282.166	79.997	19.996	100.081	20.106	2.058	0.482
421.000	282.438	79.997	19.997	100.083	20.112	1.547	0.522
421.500	282.675	79.998	19.997	100.085	20.110	1.707	0.528
422.000	282.988	79.997	19.996	100.084	20.109	1.789	0.529
422.500	283.222	79.996	19.996	100.083	20.109	1.791	0.549
423.000	283.489	79.996	19.996	100.082	20.112	1.511	0.524
423.500	283.722	79.996	19.997	100.080	20.111	1.629	0.501
424.000	283.946	79.995	19.994	100.077	20.109	1.782	0.478
424.500	284.210	79.995	19.996	100.079	20.116	1.176	0.473
425.000	284.481	79.998	19.995	100.081	20.115	1.314	0.512
425.500	284.744	79.996	19.996	100.083	20.113	1.458	0.534
426.000	284.958	79.996	19.996	100.086	20.111	1.640	0.505
426.500	285.224	79.997	19.997	100.087	20.115	1.287	0.479
427.000	285.445	79.998	19.997	100.083	20.111	1.583	0.484
427.500	285.695	79.997	19.996	100.078	20.114	1.334	0.479
428.000	285.957	79.997	19.996	100.077	20.109	1.754	0.491
428.500	286.184	79.997	19.995	100.070	20.111	1.589	0.500
429.000	286.454	79.996	19.996	100.071	20.113	1.454	0.493
429.500	286.682	79.997	19.996	100.078	20.113	1.487	0.498
430.000	286.949	79.996	19.995	100.081	20.114	1.403	0.496
430.500	287.163	79.995	19.995	100.077	20.111	1.632	0.488
431.000	287.456	79.996	19.996	100.075	20.112	1.527	0.494
431.500	287.686	79.996	19.997	100.072	20.111	1.643	0.515
432.000	287.940	79.997	19.997	100.068	20.111	1.638	0.503
432.500	288.203	79.997	19.996	100.065	20.115	1.294	0.500
433.000	288.441	79.997	19.997	100.064	20.114	1.374	0.509
433.500	288.690	79.997	19.996	100.066	20.112	1.527	0.494
434.000	288.930	79.997	19.997	100.066	20.111	1.605	0.488
434.500	289.243	79.996	19.996	100.069	20.112	1.543	0.521
435.000	289.435	79.996	19.997	100.068	20.113	1.460	0.529
435.500	289.727	79.998	19.997	100.071	20.107	1.925	0.494
436.000	289.964	79.995	19.996	100.075	20.114	1.340	0.506
436.500	290.199	79.997	19.997	100.075	20.109	1.754	0.501
437.000	290.476	79.996	19.997	100.075	20.115	1.309	0.492
437.500	290.741	79.996	19.996	100.081	20.114	1.345	0.527
438.000	290.992	79.995	19.997	100.084	20.111	1.645	0.529
438.501	291.262	79.995	19.996	100.086	20.109	1.809	0.519
439.001	291.536	79.996	19.997	100.090	20.115	1.265	0.533
439.500	291.769	79.995	19.997	100.091	20.111	1.603	0.526
440.000	292.045	79.997	19.998	100.089	20.111	1.592	0.508
440.500	292.280	79.996	19.997	100.086	20.113	1.454	0.510
441.000	292.548	79.995	19.998	100.085	20.114	1.338	0.507
441.500	292.781	79.995	19.998	100.085	20.108	1.865	0.502
442.000	292.999	79.996	19.998	100.086	20.116	1.247	0.476
442.500	293.299	79.995	19.998	100.088	20.115	1.300	0.485
443.000	293.523	79.994	19.997	100.089	20.115	1.325	0.521
443.500	293.772	79.996	19.997	100.090	20.114	1.365	0.498
444.000	293.984	79.996	19.998	100.087	20.108	1.885	0.467
444.500	294.272	79.996	19.997	100.086	20.118	1.053	0.481
445.000	294.545	79.996	19.999	100.084	20.112	1.556	0.530
445.500	294.805	79.995	19.997	100.084	20.109	1.811	0.547
446.000	295.053	79.995	19.997	100.083	20.115	1.325	0.521
446.500	295.307	79.995	19.998	100.082	20.112	1.556	0.505
447.000	295.520	79.996	19.997	100.079	20.114	1.402	0.484
447.500	295.783	79.994	19.996	100.080	20.112	1.502	0.472
448.000	296.078	79.994	19.997	100.079	20.113	1.427	0.517
448.500	296.263	79.996	19.997	100.078	20.117	1.131	0.519
449.000	296.537	79.995	19.996	100.081	20.117	1.120	0.470
449.500	296.787	79.994	19.997	100.082	20.115	1.265	0.492
450.000	297.052	79.997	19.997	100.084	20.109	1.814	0.519
450.500	297.308	79.997	19.997	100.086	20.117	1.163	0.518
451.000	297.560	79.996	19.996	100.086	20.112	1.563	0.514
451.500	297.844	79.995	19.997	100.085	20.113	1.454	0.522
452.000	298.095	79.997	19.997	100.087	20.112	1.567	0.536
452.500	298.322	79.998	19.996	100.084	20.108	1.887	0.506
453.000	298.595	79.998	19.997	100.084	20.111	1.596	0.489
453.500	298.846	79.998	19.997	100.082	20.114	1.336	0.512
454.000	299.071	79.999	19.997	100.077	20.114	1.360	0.500
454.500	299.348	79.998	19.997	100.074	20.116	1.247	0.489
455.000	299.555	79.998	19.996	100.071	20.115	1.323	0.493
455.500	299.850	79.998	19.997	100.070	20.116	1.236	0.493
456.000	300.079	79.997	19.996	100.068	20.111	1.632	0.513
456.500	300.316	79.998	19.997	100.067	20.117	1.125	0.495
457.000	300.611	79.998	19.996	100.063	20.114	1.391	0.499
457.500	300.860	79.998	19.996	100.063	20.114	1.360	0.538
458.000	301.100	79.998	19.997	100.064	20.111	1.587	0.516
458.500	301.357	79.998	19.997	100.067	20.115	1.262	0.492
459.000	301.600	79.998	19.996	100.074	20.116	1.191	0.498
459.500	301.856	79.996	19.997	100.082	20.116	1.198	0.500
460.000	302.149	79.998	19.998	100.088	20.117	1.149	0.524
460.500	302.350	79.997	19.997	100.087	20.115	1.316	0.521
461.000	302.564	79.998	19.997	100.085	20.119	0.974	0.454
461.500	302.842	79.997	19.997	100.083	20.112	1.569	0.454
462.000	303.136	79.998	19.997	100.080	20.114	1.385	0.532
462.500	303.390	79.996	19.997	100.077	20.115	1.314	0.560
463.000	303.609	79.996	19.998	100.073	20.117	1.100	0.511
463.500	303.911	79.997	19.997	100.072	20.116	1.216	0.497
464.000	304.134	79.996	19.997	100.069	20.116	1.178	0.523
464.500	304.377	79.996	19.997	100.070	20.114	1.387	0.495
465.000	304.579	79.996	19.996	100.071	20.116	1.233	0.456
465.500	304.877	79.996	19.997	100.074	20.112	1.493	0.473
466.000	305.120	79.996	19.996	100.077	20.120	0.891	0.521
466.500	305.366	79.996	19.997	100.081	20.118	1.042	0.515
467.000	305.637	79.995	19.996	100.082	20.117	1.111	0.503
467.500	305.926	79.996	19.997	100.079	20.117	1.091	0.538
468.000	306.125	79.997	19.997	100.075	20.112	1.509	0.524
468.500	306.375	79.995	19.997	100.071	20.121	0.787	0.468
469.000	306.628	79.996	19.997	100.070	20.119	0.965	0.476
469.500	306.893	79.996	19.997	100.067	20.118	1.062	0.510
470.000	307.110	79.996	19.998	100.073	20.119	1.007	0.501
470.500	307.396	79.995	19.997	100.078	20.115	1.309	0.493
471.000	307.652	79.995	19.997	100.078	20.116	1.171	0.522
471.500	307.897	79.997	19.998	100.074	20.117	1.100	0.521
472.000	308.142	79.995	19.997	100.074	20.112	1.500	0.496
472.500	308.421	79.996	19.997	100.072	20.121	0.789	0.507
473.000	308.673	79.996	19.997	100.069	20.118	1.025	0.527
473.500	308.902	79.998	19.998	100.069	20.118	1.022	0.506
474.000	309.179	79.998	19.997	100.070	20.121	0.776	0.493
474.500	309.451	79.997	19.998	100.069	20.116	1.236	0.527
475.001	309.698	79.998	19.999	100.065	20.116	1.213	0.535
475.501	309.952	79.997	19.998	100.063	20.119	0.949	0.510
476.000	310.171	79.997	19.996	100.062	20.116	1.245	0.487
476.500	310.436	79.998	19.997	100.059	20.123	0.631	0.479
477.000	310.694	79.997	19.997	100.054	20.118	1.060	0.504
477.501	310.925	79.997	19.997	100.053	20.120	0.925	0.506
478.001	311.183	79.997	19.997	100.052	20.119	0.987	0.489
478.500	311.444	79.997	19.995	100.055	20.119	0.962	0.504
479.000	311.683	79.998	19.997	100.061	20.119	1.000	0.510
479.500	311.917	79.998	19.996	100.063	20.121	0.798	0.486
480.000	312.228	79.998	19.997	100.063	20.121	0.776	0.509
480.500	312.485	79.998	19.997	100.064	20.119	0.927	0.556
481.000	312.728	79.998	19.996	100.061	20.119	0.936	0.534
481.500	312.980	79.999	19.996	100.060	20.122	0.745	0.498
482.000	313.245	79.999	19.997	100.062	20.122	0.762	0.506
482.500	313.504	79.997	19.995	100.066	20.120	0.898	0.521
483.000	313.740	79.998	19.995	100.069	20.121	0.825	0.509
483.500	313.980	79.998	19.995	100.075	20.121	0.805	0.485
484.000	314.216	79.997	19.996	100.072	20.122	0.685	0.476
484.500	314.507	79.997	19.996	100.074	20.124	0.580	0.502
485.000	314.736	79.998	19.995	100.071	20.122	0.687	0.524
485.501	314.995	79.998	19.995	100.071	20.120	0.889	0.504
486.001	315.221	79.997	19.996	100.065	20.121	0.771	0.486
486.500	315.521	79.995	19.995	100.064	20.117	1.127	0.505
487.000	315.727	79.997	19.996	100.061	20.117	1.096	0.516
487.500	316.002	79.997	19.996	100.066	20.118	1.067	0.494
488.000	316.230	79.998	19.996	100.068	20.118	1.042	0.492
488.500	316.522	79.997	19.997	100.068	20.119	0.996	0.512
489.000	316.750	79.997	19.996	100.070	20.117	1.100	0.520
489.500	316.997	79.996	19.996	100.070	20.118	1.018	0.497
490.000	317.260	79.997	19.996	100.070	20.119	1.007	0.493
490.500	317.501	79.997	19.996	100.072	20.119	0.969	0.507
491.000	317.763	79.998	19.996	100.078	20.120	0.905	0.504
491.500	318.054	79.997	19.997	100.076	20.116	1.207	0.528
492.000	318.256	79.997	19.996	100.079	20.118	1.056	0.523
492.500	318.527	79.995	19.997	100.083	20.120	0.902	0.483
493.000	318.755	79.997	19.996	100.078	20.119	0.982	0.486
493.500	319.000	79.995	19.996	100.073	20.117	1.151	0.486
494.000	319.297	79.996	19.996	100.077	20.116	1.245	0.508
494.500	319.533	79.995	19.995	100.074	20.119	0.976	0.537
495.000	319.756	79.997	19.997	100.066	20.118	1.031	0.496
495.500	320.025	79.996	19.997	100.063	20.116	1.222	0.476
496.000	320.278	79.996	19.998	100.060	20.114	1.345	0.507
496.500	320.545	79.995	19.998	100.056	20.118	1.038	0.521
497.000	320.781	79.995	19.996	100.057	20.119	0.996	0.511
497.500	320.970	79.995	19.996	100.058	20.113	1.491	0.464
498.000	321.266	79.995	19.996	100.058	20.110	1.656	0.455
498.500	321.545	79.995	19.997	100.058	20.114	1.356	0.530
499.000	321.755	79.996	19.998	100.059	20.116	1.234	0.532
499.500	321.999	79.995	19.996	100.061	20.118	1.009	0.471
500.000	322.301	79.996	19.997	100.065	20.111	1.607	0.500
500.500	322.510	79.997	19.997	100.066	20.116	1.207	0.529
501.000	322.722	79.995	19.996	100.068	20.115	1.254	0.466
501.500	322.964	79.995	19.996	100.072	20.117	1.114	0.438
502.000	323.259	79.997	19.997	100.073	20.115	1.314	0.496
502.500	323.487	79.996	19.996	100.070	20.119	1.007	0.530
503.000	323.721	79.996	19.996	100.075	20.116	1.178	0.492
503.500	324.017	79.997	19.998	100.080	20.111	1.614	0.496
504.000	324.241	79.997	19.996	100.080	20.121	0.811	0.525
504.500	324.504	79.996	19.996	100.076	20.110	1.729	0.503
505.000	324.769	79.996	19.996	100.081	20.111	1.631	0.508
505.500	324.970	79.998	19.997	100.076	20.115	1.309	0.497
506.000	325.222	79.996	19.994	100.071	20.110	1.698	0.460
506.500	325.485	79.996	19.996	100.067	20.110	1.727	0.484
507.000	325.722	79.996	19.997	100.071	20.114	1.374	0.507
507.500	326.012	79.997	19.995	100.068	20.124	0.562	0.513
508.000	326.257	79.997	19.997	100.074	20.113	1.476	0.531
508.500	326.440	79.996	19.996	100.079	20.120	0.923	0.482
509.000	326.808	79.997	19.996	100.083	20.116	1.214	0.489
509.500	326.939	79.996	19.996	100.081	20.114	1.340	0.525
510.000	327.340	79.998	19.997	100.085	20.117	1.120	0.516
510.500	327.506	79.997	19.996	100.085	20.112	1.509	0.550
511.000	327.831	79.997	19.996	100.085	20.112	1.536	0.529
511.500	327.994	79.996	19.996	100.086	20.117	1.140	0.489
512.000	328.238	79.997	19.997	100.089	20.115	1.269	0.447
512.500	328.529	79.997	19.997	100.089	20.109	1.736	0.471
513.000	328.809	79.997	19.996	100.089	20.110	1.696	0.554
513.500	329.146	79.996	19.995	100.090	20.113	1.485	0.594
514.000	329.297	79.997	19.996	100.084	20.113	1.436	0.552
514.500	329.673	79.996	19.996	100.079	20.112	1.518	0.508
515.001	329.853	79.996	19.997	100.076	20.117	1.105	0.542
515.500	330.009	79.996	19.996	100.071	20.111	1.580	0.446
516.000	330.358	79.996	19.996	100.064	20.112	1.554	0.420
516.500	330.756	79.997	19.996	100.068	20.115	1.316	0.626
517.000	330.746	79.995	19.996	100.072	20.112	1.496	0.568
517.500	331.233	79.997	19.996	100.075	20.112	1.516	0.432
518.000	331.407	79.995	19.995	100.080	20.109	1.760	0.569
518.500	331.413	79.995	19.997	100.086	20.115	1.258	0.421
519.000	331.835	79.997	19.997	100.088	20.117	1.129	0.305
519.500	332.256	79.998	19.995	100.086	20.110	1.734	0.636
520.000	332.476	79.997	19.996	100.081	20.115	1.311	0.742
520.500	332.543	79.995	19.996	100.080	20.111	1.587	0.463
521.000	333.047	79.995	19.997	100.080	20.114	1.407	0.429
521.500	333.466	79.996	19.996	100.080	20.117	1.158	0.747
522.000	333.503	79.995	19.996	100.082	20.113	1.449	0.690
522.500	333.725	79.997	19.997	100.084	20.112	1.494	0.357
523.000	334.275	79.995	19.997	100.081	20.109	1.745	0.515
523.500	334.036	79.995	19.997	100.074	20.114	1.374	0.542
524.000	334.749	79.996	19.997	100.069	20.113	1.414	0.393
524.500	334.748	79.996	19.997	100.064	20.113	1.476	0.593
525.000	335.205	79.997	19.998	100.061	20.117	1.100	0.584
525.500	335.466	79.994	19.997	100.059	20.116	1.169	0.587
526.000	335.685	79.996	19.997	100.062	20.114	1.398	0.599
526.500	335.886	79.996	19.997	100.065	20.115	1.298	0.450
527.000	336.139	79.994	19.996	100.067	20.114	1.382	0.437
527.500	336.383	79.995	19.998	100.072	20.116	1.184	0.476
528.000	336.677	79.996	19.997	100.073	20.116	1.231	0.517
528.500	336.981	79.996	19.998	100.073	20.116	1.222	0.568
529.000	337.196	79.996	19.998	100.073	20.116	1.169	0.559
529.500	337.561	79.996	19.997	100.074	20.115	1.280	0.549
530.000	337.685	79.996	19.997	100.073	20.114	1.380	0.534
530.500	338.034	79.997	19.997	100.075	20.120	0.918	0.481
531.000	338.308	79.996	19.997	100.073	20.118	1.022	0.548
531.500	338.487	79.996	19.997	100.068	20.117	1.158	0.538
532.000	338.782	79.997	19.997	100.064	20.114	1.393	0.463
532.500	339.107	79.995	19.998	100.062	20.117	1.116	0.547
533.000	339.348	79.996	19.998	100.066	20.117	1.111	0.593
533.500	339.581	79.998	19.996	100.072	20.117	1.109	0.520
534.000	339.906	79.998	19.997	100.078	20.115	1.311	0.516
534.500	340.098	79.998	19.997	100.078	20.115	1.327	0.537
535.000	340.457	79.997	19.997	100.075	20.120	0.891	0.534
535.500	340.672	79.996	19.997	100.073	20.115	1.298	0.562
536.000	340.956	79.998	19.997	100.070	20.116	1.169	0.536
536.500	341.181	79.998	19.996	100.064	20.116	1.240	0.504
537.000	341.501	79.997	19.996	100.064	20.119	0.987	0.527
537.500	341.781	79.997	19.995	100.063	20.119	0.956	0.573
538.000	341.991	79.998	19.997	100.058	20.115	1.320	0.545
538.500	342.284	79.998	19.997	100.055	20.116	1.242	0.496
539.000	342.579	79.997	19.998	100.055	20.114	1.356	0.545
539.500	342.816	79.997	19.997	100.056	20.115	1.294	0.560
540.000	343.058	79.998	19.997	100.057	20.118	1.009	0.505
540.500	343.303	79.997	19.997	100.059	20.112	1.509	0.483
541.000	343.580	79.998	19.997	100.059	20.118	1.071	0.505
541.500	343.873	79.997	19.997	100.059	20.114	1.380	0.546
542.000	344.125	79.997	19.997	100.061	20.115	1.302	0.557
542.500	344.400	79.997	19.997	100.061	20.117	1.160	0.536
543.000	344.658	79.996	19.996	100.060	20.114	1.349	0.530
543.500	344.927	79.997	19.996	100.060	20.116	1.216	0.529
544.000	345.184	79.996	19.997	100.059	20.118	1.054	0.526
544.500	345.417	79.996	19.996	100.056	20.116	1.213	0.508
545.000	345.708	79.997	19.997	100.057	20.112	1.498	0.507
545.500	345.987	79.997	19.997	100.058	20.116	1.242	0.547
546.000	346.272	79.996	19.998	100.058	20.114	1.364	0.567
546.500	346.532	79.996	19.998	100.059	20.116	1.238	0.555
547.000	346.782	79.996	19.996	100.064	20.116	1.196	0.527
547.500	347.044	79.995	19.997	100.070	20.113	1.467	0.511
548.000	347.297	79.996	19.997	100.074	20.116	1.229	0.514
548.500	347.549	79.996	19.997	100.076	20.120	0.862	0.510
549.000	347.867	79.996	19.996	100.079	20.121	0.825	0.538
549.500	348.136	79.996	19.996	100.076	20.120	0.873	0.578
550.000	348.367	79.997	19.998	100.071	20.116	1.204	0.543
550.500	348.614	79.997	19.998	100.069	20.113	1.436	0.490
551.000	348.938	79.996	19.997	100.067	20.118	1.042	0.525
551.500	349.168	79.996	19.996	100.065	20.118	1.069	0.562
552.000	349.450	79.996	19.997	100.064	20.120	0.864	0.533
552.500	349.665	79.995	19.997	100.063	20.114	1.371	0.505
553.000	349.933	79.996	19.997	100.066	20.116	1.196	0.490
553.500	350.237	79.997	19.998	100.069	20.116	1.213	0.527
554.000	350.503	79.997	19.997	100.072	20.118	1.020	0.571
554.500	350.734	79.996	19.998	100.076	20.119	1.004	0.534
555.000	351.012	79.995	19.997	100.073	20.117	1.140	0.503
555.500	351.281	79.997	19.996	100.066	20.114	1.371	0.528
556.000	351.533	79.996	19.996	100.061	20.116	1.220	0.534
556.500	351.820	79.997	19.998	100.059	20.118	1.009	0.530
557.000	352.107	79.997	19.997	100.055	20.112	1.571	0.557
557.500	352.358	79.997	19.998	100.056	20.114	1.411	0.556
558.000	352.590	79.997	19.997	100.058	20.113	1.427	0.510
558.500	352.887	79.997	19.998	100.061	20.115	1.316	0.506
559.000	353.143	79.998	19.997	100.059	20.111	1.633	0.540
559.500	353.433	79.998	19.997	100.063	20.115	1.324	0.549
560.000	353.676	79.997	19.998	100.063	20.112	1.496	0.540
560.500	353.944	79.997	19.997	100.062	20.113	1.489	0.523
561.000	354.213	79.999	19.997	100.058	20.109	1.764	0.524
561.500	354.483	79.998	19.998	100.057	20.117	1.124	0.538
562.000	354.751	79.997	19.997	100.054	20.113	1.447	0.538
562.500	355.010	79.998	19.999	100.052	20.111	1.607	0.532
563.000	355.287	79.998	19.997	100.051	20.116	1.236	0.531
563.500	355.526	79.997	19.998	100.053	20.114	1.342	0.526
564.000	355.758	79.997	19.998	100.054	20.114	1.358	0.493
564.500	356.031	79.998	19.998	100.053	20.109	1.747	0.488
565.000	356.300	79.998	19.998	100.054	20.112	1.553	0.524
565.500	356.548	79.998	19.997	100.057	20.114	1.367	0.530
566.000	356.803	79.997	19.997	100.055	20.111	1.580	0.510
566.500	357.077	79.997	19.996	100.054	20.113	1.416	0.516
567.000	357.331	79.997	19.997	100.055	20.105	2.120	0.528
567.500	357.589	79.997	19.998	100.056	20.107	1.967	0.520
568.000	357.898	79.997	19.996	100.053	20.106	2.020	0.540
568.500	358.114	79.996	19.997	100.054	20.106	1.978	0.546
569.000	358.343	79.997	19.996	100.055	20.110	1.678	0.485
569.500	358.587	79.995	19.996	100.055	20.106	2.053	0.459
570.000	358.870	79.996	19.996	100.054	20.110	1.667	0.500
570.500	359.082	79.995	19.996	100.057	20.104	2.211	0.511
571.000	359.382	79.996	19.998	100.058	20.111	1.644	0.503
571.500	359.618	79.996	19.997	100.056	20.109	1.787	0.524
572.000	359.898	79.995	19.995	100.057	20.108	1.889	0.526
572.500	360.154	79.996	19.996	100.060	20.107	1.904	0.526
573.000	360.381	79.997	19.996	100.057	20.104	2.153	0.510
573.500	360.679	79.994	19.997	100.057	20.108	1.880	0.504
574.000	360.885	79.997	19.997	100.057	20.108	1.887	0.514
574.500	361.138	79.997	19.997	100.055	20.103	2.238	0.481
575.000	361.440	79.996	19.997	100.054	20.106	2.042	0.507
575.500	361.683	79.995	19.996	100.055	20.106	2.009	0.550
576.000	361.945	79.997	19.998	100.059	20.105	2.076	0.525
576.500	362.203	79.997	19.997	100.060	20.103	2.278	0.513
577.000	362.476	79.996	19.998	100.060	20.104	2.184	0.525
577.500	362.713	79.996	19.996	100.061	20.102	2.347	0.520
578.000	362.991	79.996	19.996	100.059	20.104	2.169	0.512
578.500	363.238	79.995	19.996	100.054	20.104	2.202	0.520
579.000	363.470	79.996	19.997	100.053	20.101	2.393	0.502
579.500	363.730	79.997	19.998	100.054	20.099	2.562	0.486
580.000	363.930	79.996	19.996	100.056	20.101	2.389	0.476
580.500	364.231	79.997	19.997	100.056	20.103	2.287	0.480
581.000	364.434	79.995	19.997	100.056	20.100	2.529	0.503
581.500	364.708	79.995	19.997	100.056	20.103	2.256	0.491
582.000	364.946	79.997	19.997	100.054	20.100	2.542	0.495
582.500	365.220	79.997	19.997	100.051	20.103	2.300	0.512
583.000	365.455	79.995	19.997	100.051	20.100	2.474	0.510
583.500	365.736	79.996	19.997	100.051	20.099	2.609	0.512
584.000	365.959	79.994	19.996	100.050	20.095	2.900	0.510
584.500	366.249	79.997	19.997	100.056	20.097	2.734	0.509
585.000	366.460	79.995	19.996	100.060	20.098	2.630	0.508
585.500	366.732	79.996	19.997	100.063	20.099	2.601	0.492
586.000	366.985	79.997	19.997	100.065	20.097	2.727	0.503
586.500	367.229	79.996	19.996	100.065	20.097	2.780	0.511
587.000	367.471	79.996	19.997	100.060	20.092	3.183	0.492
587.500	367.725	79.997	19.996	100.057	20.095	2.934	0.491
588.000	367.974	79.996	19.997	100.054	20.094	2.978	0.500
588.500	368.206	79.995	19.997	100.054	20.092	3.145	0.492
589.000	368.492	79.996	19.995	100.055	20.090	3.341	0.499
589.500	368.684	79.995	19.996	100.055	20.089	3.398	0.498
590.000	368.949	79.996	19.996	100.055	20.091	3.232	0.468
590.500	369.177	79.997	19.995	100.056	20.093	3.078	0.475
591.000	369.455	79.997	19.997	100.055	20.088	3.487	0.499
591.500	369.690	79.997	19.997	100.055	20.087	3.572	0.510
592.000	369.973	79.997	19.997	100.054	20.090	3.343	0.516
592.500	370.192	79.996	19.995	100.058	20.090	3.325	0.510
593.000	370.464	79.994	19.996	100.058	20.091	3.223	0.496
593.500	370.671	79.995	19.996	100.058	20.086	3.643	0.485
594.000	370.942	79.996	19.996	100.063	20.088	3.437	0.479
594.500	371.210	79.995	19.996	100.069	20.087	3.517	0.509
595.000	371.438	79.996	19.996	100.072	20.085	3.692	0.517
595.500	371.738	79.996	19.997	100.074	20.085	3.723	0.512
596.000	371.981	79.997	19.997	100.079	20.083	3.841	0.535
596.500	372.216	79.995	19.995	100.078	20.083	3.843	0.510
597.000	372.498	79.996	19.996	100.073	20.079	4.241	0.498
597.500	372.710	79.994	19.997	100.068	20.083	3.914	0.506
598.000	372.971	79.995	19.997	100.066	20.081	4.063	0.484
598.500	373.213	79.994	19.997	100.063	20.078	4.287	0.488
599.000	373.493	79.995	19.996	100.064	20.080	4.136	0.512
599.500	373.774	79.995	19.996	100.069	20.077	4.363	0.542
600.000	373.979	79.995	19.996	100.073	20.075	4.544	0.524
600.500	374.256	79.995	19.997	100.074	20.075	4.506	0.484
601.000	374.500	79.995	19.997	100.076	20.075	4.566	0.501
601.500	374.756	79.996	19.997	100.074	20.076	4.477	0.511
602.000	374.989	79.996	19.996	100.072	20.076	4.426	0.495
602.500	375.236	79.995	19.997	100.070	20.076	4.439	0.484
603.000	375.513	79.995	19.997	100.075	20.075	4.562	0.502
603.500	375.770	79.995	19.996	100.079	20.073	4.651	0.529
604.000	376.045	79.996	19.997	100.083	20.072	4.797	0.533
604.500	376.266	79.994	19.996	100.088	20.069	5.033	0.514
605.000	376.549	79.994	19.996	100.090	20.069	4.988	0.500
605.500	376.782	79.996	19.995	100.087	20.067	5.212	0.510
606.000	377.049	79.995	19.996	100.085	20.062	5.555	0.508
606.500	377.306	79.997	19.997	100.082	20.064	5.395	0.512
607.000	377.569	79.996	19.997	100.079	20.067	5.144	0.522
607.500	377.822	79.996	19.997	100.076	20.063	5.537	0.518
608.000	378.087	79.994	19.996	100.072	20.061	5.662	0.517
608.500	378.284	79.995	19.996	100.067	20.059	5.797	0.490
609.000	378.550	79.994	19.996	100.064	20.057	5.989	0.463
609.500	378.796	79.995	19.996	100.064	20.059	5.806	0.488
610.000	379.044	79.997	19.997	100.069	20.060	5.771	0.503
610.500	379.321	79.996	19.997	100.077	20.055	6.104	0.509
611.000	379.558	79.996	19.997	100.084	20.059	5.815	0.519
611.500	379.846	79.996	19.995	100.089	20.055	6.173	0.519
612.000	380.105	79.996	19.997	100.092	20.055	6.109	0.536
612.500	380.362	79.996	19.996	100.093	20.047	6.791	0.532
613.000	380.631	79.994	19.996	100.093	20.050	6.573	0.521
613.500	380.859	79.996	19.997	100.092	20.046	6.885	0.511
614.000	381.104	79.998	19.997	100.093	20.048	6.747	0.485
614.500	381.368	79.998	19.996	100.091	20.047	6.820	0.491
615.000	381.627	79.997	19.996	100.087	20.045	6.940	0.516
615.500	381.887	79.995	19.996	100.084	20.042	7.194	0.521
616.000	382.152	79.996	19.996	100.082	20.040	7.323	0.522
616.500	382.400	79.995	19.996	100.082	20.039	7.416	0.519
617.000	382.685	79.997	19.997	100.084	20.038	7.481	0.523
617.500	382.896	79.996	19.997	100.087	20.035	7.723	0.515
618.000	383.163	79.996	19.998	100.089	20.032	7.965	0.487
618.500	383.427	79.996	19.998	100.089	20.034	7.821	0.504
619.001	383.678	79.995	19.998	100.089	20.032	8.034	0.523
619.501	383.927	79.995	19.997	100.089	20.031	8.121	0.508
620.000	384.194	79.995	19.997	100.090	20.028	8.324	0.508
620.500	384.447	79.998	19.998	100.089	20.029	8.244	0.517
621.000	384.685	79.996	19.996	100.088	20.027	8.390	0.505
621.500	384.947	79.996	19.997	100.088	20.024	8.631	0.496
622.000	385.202	79.998	19.997	100.087	20.022	8.848	0.509
622.500	385.465	79.996	19.997	100.087	20.015	9.369	0.517
623.000	385.735	79.997	19.997	100.087	20.015	9.349	0.525
623.500	385.979	79.997	19.997	100.089	20.014	9.452	0.524
624.000	386.217	79.995	19.997	100.091	20.011	9.695	0.498
624.500	386.480	79.998	19.997	100.092	20.012	9.637	0.491
625.000	386.752	79.997	19.996	100.092	20.008	9.947	0.518
625.500	386.969	79.996	19.996	100.092	20.005	10.226	0.512
626.000	387.240	79.996	19.996	100.094	20.005	10.219	0.488
626.500	387.503	79.998	19.997	100.094	20.001	10.516	0.511
627.000	387.772	79.996	19.997	100.093	19.999	10.685	0.534
627.500	388.031	79.997	19.997	100.094	19.994	11.105	0.530
628.000	388.269	79.997	19.996	100.094	19.989	11.470	0.512
628.500	388.491	79.996	19.996	100.091	19.989	11.529	0.478
629.000	388.756	79.995	19.996	100.091	19.988	11.591	0.473
629.500	389.046	79.996	19.997	100.092	19.983	11.995	0.521
630.000	389.308	79.997	19.997	100.093	19.980	12.222	0.553
630.500	389.548	79.996	19.996	100.096	19.975	12.600	0.527
631.000	389.803	79.997	19.997	100.100	19.976	12.527	0.499
631.500	390.056	79.997	19.996	100.100	19.969	13.130	0.501
632.000	390.329	79.998	19.997	100.101	19.967	13.255	0.517
632.500	390.565	79.998	19.996	100.100	19.968	13.227	0.517
633.000	390.833	79.997	19.997	100.099	19.964	13.496	0.507
633.500	391.076	79.995	19.997	100.078	19.957	14.116	0.508
634.000	391.324	79.998	19.997	100.053	19.953	14.363	0.501
634.500	391.600	79.997	19.997	100.044	19.950	14.618	0.508
635.000	391.853	79.997	19.997	100.047	19.947	14.909	0.527
635.500	392.109	79.998	19.997	100.052	19.942	15.270	0.519
636.000	392.362	79.997	19.997	100.084	19.935	15.866	0.509
636.500	392.593	79.998	19.997	100.155	19.930	16.255	0.496
637.000	392.858	79.997	19.996	100.181	19.932	16.077	0.490
637.500	393.105	79.999	19.996	100.187	19.927	16.532	0.504
638.000	393.366	79.997	19.997	100.187	19.927	16.519	0.510
638.500	393.656	79.999	19.997	100.182	19.918	17.223	0.529
639.000	393.942	79.999	19.997	100.142	19.919	17.164	0.564
639.500	394.165	79.998	19.997	100.130	19.909	17.930	0.543
640.000	394.448	79.999	19.997	100.129	19.903	18.449	0.507
640.500	394.669	79.999	19.998	100.129	19.901	18.578	0.505
641.000	394.930	79.999	19.997	100.128	19.898	18.850	0.493
641.500	395.202	79.999	19.997	100.129	19.897	18.972	0.508
642.000	395.457	79.997	19.998	100.131	19.882	20.143	0.530
642.500	395.660	79.997	19.997	100.134	19.884	20.032	0.493
643.000	395.967	79.996	19.997	100.136	19.874	20.817	0.484
643.500	396.199	79.997	19.997	100.139	19.867	21.372	0.524
644.000	396.454	79.997	19.997	100.140	19.865	21.511	0.513
644.500	396.706	79.996	19.997	100.139	19.854	22.390	0.497
645.000	396.974	79.996	19.997	100.141	19.849	22.816	0.514
645.500	397.215	79.996	19.998	100.146	19.842	23.416	0.515
646.000	397.491	79.997	19.997	100.149	19.838	23.689	0.513
646.500	397.777	79.995	19.998	100.150	19.835	23.996	0.539
647.000	397.998	79.995	19.997	100.149	19.827	24.588	0.534
647.500	398.269	79.994	19.998	100.148	19.820	25.219	0.500
648.000	398.526	79.994	19.998	100.145	19.816	25.541	0.510
648.500	398.814	79.994	19.998	100.142	19.813	25.780	0.536
649.000	399.050	79.994	19.997	100.147	19.803	26.578	0.535
649.500	399.335	79.994	19.998	100.153	19.800	26.779	0.523
650.000	399.599	79.996	19.997	100.157	19.791	27.525	0.535
650.500	399.827	79.995	19.998	100.160	19.789	27.676	0.520
651.000	400.071	79.995	19.997	100.164	19.781	28.373	0.482
651.500	400.372	79.995	19.996	100.165	19.776	28.762	0.508
652.000	400.610	79.994	19.999	100.168	19.768	29.426	0.542
652.500	400.882	79.996	19.997	100.168	19.762	29.871	0.524
653.000	401.157	79.995	19.997	100.169	19.755	30.441	0.529
653.500	401.431	79.995	19.997	100.169	19.752	30.735	0.548
654.000	401.653	79.994	19.997	100.171	19.742	31.471	0.522
654.500	401.945	79.997	19.997	100.175	19.737	31.953	0.505
655.000	402.177	79.996	19.997	100.180	19.726	32.784	0.518
655.500	402.452	79.993	19.996	100.182	19.720	33.265	0.515
656.000	402.742	79.997	19.997	100.184	19.717	33.498	0.537
656.500	402.991	79.996	19.996	100.189	19.710	34.126	0.552
657.000	403.225	79.996	19.995	100.189	19.708	34.303	0.511
657.500	403.519	79.996	19.996	100.186	19.708	34.234	0.505
658.000	403.741	79.997	19.996	100.189	19.705	34.517	0.522
658.500	403.997	79.996	19.995	100.193	19.699	35.014	0.497
659.000	404.294	79.995	19.995	100.190	19.689	35.837	0.515
659.500	404.525	79.996	19.995	100.194	19.687	35.935	0.540
660.000	404.793	79.996	19.997	100.200	19.676	36.903	0.513
660.500	405.033	79.995	19.995	100.202	19.675	36.958	0.504
661.000	405.286	79.994	19.996	100.203	19.671	37.313	0.501
661.500	405.559	79.996	19.996	100.201	19.667	37.622	0.510
662.000	405.799	79.995	19.995	100.195	19.665	37.799	0.520
662.500	406.097	79.995	19.996	100.194	19.659	38.274	0.525
663.000	406.352	79.995	19.997	100.196	19.651	38.895	0.546
663.500	406.615	79.995	19.996	100.197	19.644	39.439	0.535
664.000	406.849	79.996	19.996	100.204	19.640	39.793	0.507
664.500	407.153	79.996	19.996	100.212	19.636	40.087	0.517
665.000	407.409	79.995	19.997	100.219	19.629	40.678	0.549
665.500	407.667	79.996	19.996	100.223	19.625	40.960	0.537
666.000	407.925	79.996	19.997	100.224	19.618	41.510	0.515
666.500	408.174	79.996	19.995	100.231	19.611	42.099	0.511
667.000	408.443	79.996	19.995	100.236	19.608	42.284	0.512
667.500	408.704	79.997	19.995	100.237	19.601	42.848	0.524
668.000	408.960	79.996	19.996	100.240	19.589	43.825	0.524
668.500	409.195	79.995	19.996	100.247	19.583	44.396	0.504
669.000	409.481	79.996	19.996	100.248	19.567	45.698	0.506
669.500	409.759	79.996	19.996	100.249	19.546	47.391	0.543
670.000	410.030	79.995	19.996	100.246	19.534	48.433	0.557
670.500	410.315	79.996	19.995	100.246	19.519	49.671	0.553
671.000	410.581	79.995	19.996	100.263	19.506	50.688	0.554
671.500	410.836	79.996	19.996	100.280	19.491	51.931	0.536
672.000	411.118	79.995	19.996	100.282	19.489	52.066	0.529
672.500	411.387	79.995	19.996	100.285	19.483	52.604	0.544
673.000	411.659	79.996	19.997	100.290	19.476	53.120	0.546
673.500	411.914	79.997	19.997	100.279	19.470	53.653	0.534
674.000	412.142	79.994	19.996	100.267	19.464	54.095	0.505
674.500	412.406	79.996	19.995	100.268	19.461	54.312	0.487
675.000	412.698	79.996	19.996	100.268	19.457	54.671	0.524
675.500	412.984	79.995	19.996	100.262	19.450	55.243	0.567
676.000	413.232	79.995	19.996	100.248	19.446	55.525	0.556
676.500	413.465	79.994	19.996	100.209	19.446	55.542	0.508
677.000	413.762	79.994	19.996	100.165	19.432	56.702	0.505
677.500	413.983	79.995	19.995	100.127	19.433	56.568	0.524
678.000	414.240	79.994	19.998	100.097	19.422	57.458	0.498
678.500	414.525	79.995	19.996	100.080	19.421	57.560	0.510
679.000	414.768	79.995	19.997	100.123	19.418	57.858	0.535
679.500	414.993	79.995	19.996	100.207	19.408	58.682	0.498
680.000	415.295	79.994	19.995	100.265	19.397	59.521	0.497
680.500	415.515	79.995	19.997	100.314	19.395	59.697	0.524
681.000	415.776	79.995	19.996	100.360	19.389	60.157	0.502
681.500	415.996	79.994	19.996	100.375	19.374	61.385	0.481
682.000	416.313	79.995	19.997	100.357	19.376	61.244	0.509
682.500	416.528	79.995	19.996	100.361	19.364	62.261	0.534
683.000	416.812	79.994	19.996	100.367	19.354	63.066	0.516
683.500	417.019	79.996	19.997	100.365	19.348	63.533	0.495
684.000	417.310	79.996	19.997	100.363	19.339	64.286	0.495
684.500	417.590	79.997	19.996	100.362	19.330	64.994	0.535
685.000	417.842	79.996	19.997	100.360	19.324	65.487	0.552
685.500	418.094	79.996	19.996	100.356	19.313	66.359	0.518
686.000	418.337	79.996	19.996	100.358	19.304	67.118	0.499
686.500	418.607	79.996	19.996	100.356	19.299	67.519	0.504
687.000	418.888	79.997	19.997	100.349	19.285	68.667	0.532
687.500	419.106	79.996	19.996	100.345	19.277	69.299	0.525
688.000	419.396	79.996	19.996	100.342	19.265	70.251	0.504
688.500	419.644	79.996	19.996	100.338	19.256	71.001	0.523
689.000	419.888	79.997	19.996	100.339	19.241	72.253	0.515
689.500	420.154	79.998	19.996	100.346	19.232	72.995	0.500
690.000	420.428	79.997	19.996	100.352	19.224	73.613	0.525
690.500	420.637	79.998	19.997	100.359	19.206	75.140	0.512
691.000	420.920	79.997	19.995	100.365	19.197	75.858	0.488
691.500	421.128	79.998	19.996	100.372	19.186	76.731	0.491
692.000	421.431	79.999	19.997	100.377	19.175	77.593	0.501
692.500	421.673	79.997	19.996	100.380	19.159	78.908	0.528
693.000	421.939	79.997	19.996	100.383	19.147	79.891	0.527
693.500	422.131	80.000	19.996	100.390	19.134	80.989	0.483
694.000	422.439	80.000	19.996	100.394	19.119	82.215	0.479
694.500	422.684	79.998	19.996	100.396	19.110	82.945	0.527
695.000	422.897	79.998	19.996	100.402	19.094	84.221	0.506
695.500	423.155	79.998	19.995	100.406	19.082	85.155	0.464
696.000	423.413	79.997	19.996	100.411	19.069	86.236	0.493
696.500	423.668	79.999	19.996	100.414	19.056	87.303	0.514
697.000	423.880	79.999	19.995	100.415	19.040	88.605	0.490
697.500	424.144	79.997	19.996	100.415	19.022	90.057	0.472
698.000	424.448	79.998	19.996	100.413	19.011	91.032	0.522
698.500	424.661	79.997	19.997	100.412	18.994	92.397	0.542
699.000	424.923	79.997	19.996	100.424	18.973	94.085	0.496
699.500	425.175	79.997	19.996	100.431	18.965	94.763	0.495
700.000	425.396	79.997	19.997	100.442	18.944	96.458	0.494
700.500	425.669	79.996	19.996	100.452	18.931	97.520	0.484
701.000	425.949	79.997	19.998	100.458	18.912	99.028	0.523
701.500	426.200	79.997	19.997	100.456	18.899	100.119	0.542
702.000	426.425	79.996	19.996	100.459	18.890	100.891	0.504
702.500	426.670	79.997	19.997	100.460	18.870	102.520	0.473
703.000	426.975	79.996	19.997	100.461	18.856	103.655	0.510
703.500	427.213	79.998	19.997	100.465	18.837	105.136	0.547
704.000	427.465	79.996	19.996	100.469	18.824	106.240	0.517
704.500	427.693	79.997	19.997	100.472	18.806	107.667	0.485
705.000	427.960	79.995	19.996	100.476	18.792	108.826	0.487
705.500	428.207	79.997	19.997	100.479	18.780	109.814	0.504
706.000	428.447	79.996	19.997	100.478	18.760	111.408	0.501
706.500	428.696	79.998	19.998	100.477	18.746	112.613	0.488
707.000	428.930	79.995	19.997	100.478	18.734	113.540	0.486
707.500	429.182	79.996	19.996	100.483	18.714	115.163	0.484
708.000	429.426	79.995	19.997	100.492	18.700	116.367	0.491
708.500	429.697	79.996	19.997	100.503	18.681	117.894	0.506
709.000	429.939	79.995	19.997	100.517	18.664	119.297	0.514
709.500	430.185	79.997	19.997	100.531	18.653	120.223	0.501
710.000	430.408	79.997	19.996	100.540	18.639	121.396	0.479
710.500	430.683	79.996	19.997	100.540	18.621	122.845	0.483
711.000	430.937	79.997	19.996	100.540	18.611	123.651	0.513
711.500	431.138	79.997	19.997	100.541	18.599	124.622	0.492
712.000	431.407	79.998	19.998	100.540	18.589	125.485	0.463
712.500	431.657	79.997	19.996	100.541	18.579	126.245	0.494
713.000	431.920	79.997	19.998	100.549	18.564	127.497	0.516
713.500	432.151	79.996	19.997	100.555	18.555	128.259	0.504
714.000	432.384	79.998	19.996	100.557	18.542	129.307	0.479
714.500	432.675	79.998	19.996	100.560	18.531	130.156	0.494
715.000	432.884	79.998	19.998	100.560	18.520	131.072	0.512
715.500	433.169	79.999	19.997	100.560	18.511	131.815	0.497
716.000	433.424	79.997	19.997	100.561	18.499	132.803	0.517
716.500	433.642	79.998	19.997	100.561	18.488	133.679	0.507
717.000	433.916	79.997	19.996	100.562	18.476	134.720	0.482
717.500	434.171	79.997	19.997	100.567	18.463	135.706	0.510
718.000	434.420	79.999	19.995	100.575	18.455	136.356	0.517
718.500	434.682	79.997	19.996	100.588	18.442	137.439	0.508
719.000	434.920	79.998	19.996	100.603	18.429	138.466	0.505
719.500	435.138	79.998	19.995	100.619	18.415	139.612	0.478
720.000	435.368	79.996	19.996	100.634	18.404	140.528	0.452
720.500	435.603	79.998	19.997	100.644	18.396	141.214	0.457
721.000	435.890	79.997	19.997	100.651	18.379	142.564	0.494
721.500	436.152	79.998	19.997	100.655	18.374	143.042	0.536
722.000	436.408	79.997	19.996	100.655	18.361	144.091	0.533
722.500	436.613	79.996	19.996	100.655	18.347	145.221	0.489
723.000	436.897	79.996	19.996	100.657	18.336	146.142	0.475
723.500	437.123	79.996	19.995	100.660	18.326	146.887	0.499
724.000	437.369	79.996	19.997	100.664	18.314	147.918	0.491
724.500	437.600	79.996	19.996	100.669	18.304	148.683	0.475
725.000	437.888	79.997	19.997	100.670	18.290	149.885	0.497
725.500	438.118	79.996	19.997	100.671	18.278	150.812	0.519
726.000	438.348	79.994	19.996	100.672	18.270	151.463	0.490
726.500	438.624	79.993	19.997	100.673	18.261	152.215	0.483
727.000	438.853	79.997	19.996	100.674	18.254	152.796	0.506
727.500	439.128	79.995	19.998	100.679	18.244	153.601	0.505
728.000	439.364	79.995	19.997	100.684	18.237	154.163	0.507
728.500	439.615	79.994	19.997	100.683	18.225	155.125	0.499
729.000	439.890	79.995	19.997	100.683	18.220	155.598	0.507
729.500	440.096	79.995	19.997	100.683	18.210	156.414	0.503
730.000	440.342	79.994	19.998	100.682	18.203	156.985	0.466
730.500	440.602	79.995	19.998	100.681	18.192	157.852	0.479
731.000	440.847	79.994	19.997	100.684	18.190	158.069	0.505
731.500	441.109	79.995	19.998	100.688	18.183	158.607	0.506
732.000	441.333	79.994	19.996	100.694	18.178	159.044	0.497
732.500	441.587	79.995	19.998	100.700	18.168	159.784	0.482
733.000	441.847	79.995	19.997	100.705	18.158	160.652	0.496
733.500	442.044	79.995	19.997	100.705	18.155	160.881	0.486
734.000	442.272	79.994	19.997	100.706	18.150	161.235	0.441
734.500	442.570	79.994	19.996	100.707	18.144	161.779	0.475
735.000	442.788	79.994	19.997	100.708	18.141	162.020	0.521
735.500	443.072	79.995	19.998	100.708	18.136	162.419	0.509
736.000	443.336	79.995	19.997	100.713	18.128	163.031	0.526
736.500	443.576	79.993	19.997	100.717	18.128	163.081	0.526
737.000	443.805	79.994	19.997	100.718	18.126	163.192	0.486
737.500	444.070	79.994	19.997	100.718	18.123	163.471	0.481
738.000	444.272	79.994	19.996	100.721	18.117	163.989	0.481
738.500	444.538	79.995	19.996	100.721	18.117	163.957	0.468
739.000	444.796	79.996	19.997	100.719	18.115	164.081	0.496
739.500	445.041	79.995	19.998	100.720	18.113	164.310	0.513
740.000	445.283	79.994	19.997	100.725	18.114	164.162	0.495
740.500	445.525	79.995	19.997	100.729	18.114	164.205	0.486
741.000	445.793	79.994	19.997	100.732	18.114	164.204	0.497
741.500	446.022	79.994	19.997	100.734	18.114	164.194	0.504
742.000	446.264	79.996	19.998	100.734	18.114	164.170	0.484
742.500	446.524	79.995	19.997	100.733	18.113	164.238	0.486
743.000	446.745	79.997	19.996	100.729	18.116	164.012	0.492
743.500	447.032	79.995	19.997	100.727	18.121	163.609	0.494
744.000	447.274	79.995	19.997	100.726	18.119	163.762	0.518
744.500	447.516	79.997	19.996	100.725	18.123	163.430	0.506
745.000	447.749	79.996	19.995	100.722	18.128	163.050	0.480
745.500	448.011	79.996	19.995	100.722	18.133	162.605	0.486
746.000	448.267	79.997	19.996	100.721	18.139	162.137	0.507
746.500	448.531	79.996	19.997	100.721	18.142	161.834	0.519
747.000	448.775	79.997	19.996	100.724	18.148	161.357	0.514
747.500	449.004	79.996	19.997	100.725	18.151	161.160	0.491
748.000	449.267	79.997	19.996	100.724	18.158	160.546	0.483
748.500	449.502	79.996	19.995	100.724	18.167	159.810	0.495
749.000	449.728	79.997	19.996	100.723	18.169	159.588	0.479
749.500	449.998	79.996	19.996	100.719	18.181	158.611	0.479
750.000	450.225	79.996	19.997	100.717	18.185	158.268	0.497
750.500	450.489	79.996	19.997	100.717	18.197	157.305	0.494
751.000	450.719	79.995	19.997	100.717	18.206	156.551	0.492
751.500	450.983	79.995	19.997	100.715	18.214	155.950	0.494
752.000	451.221	79.996	19.996	100.710	18.224	155.076	0.498
752.500	451.454	79.996	19.997	100.709	18.234	154.319	0.486
753.000	451.727	79.995	19.996	100.706	18.238	153.911	0.489
753.500	451.960	79.995	19.996	100.701	18.257	152.370	0.506
754.001	452.253	79.996	19.995	100.701	18.268	151.496	0.516
754.500	452.451	79.995	19.997	100.701	18.277	150.709	0.508
755.000	452.699	79.994	19.996	100.698	18.292	149.529	0.469
755.500	452.952	79.993	19.995	100.694	18.299	148.903	0.473
756.000	453.204	79.996	19.996	100.691	18.315	147.618	0.503
756.500	453.484	79.996	19.997	100.686	18.321	147.140	0.519
757.000	453.733	79.994	19.996	100.683	18.335	145.957	0.530
757.500	453.929	79.997	19.997	100.680	18.348	144.875	0.487
758.000	454.203	79.993	19.997	100.678	18.362	143.795	0.457
758.500	454.429	79.995	19.997	100.677	18.376	142.591	0.485
759.000	454.705	79.996	19.996	100.674	18.389	141.583	0.501
759.500	454.972	79.995	19.997	100.667	18.407	140.053	0.522
760.000	455.209	79.995	19.998	100.659	18.422	138.889	0.523
760.500	455.454	79.995	19.997	100.652	18.436	137.715	0.494
761.000	455.708	79.994	19.995	100.644	18.451	136.494	0.491
761.500	455.930	79.994	19.996	100.637	18.465	135.327	0.488
762.000	456.193	79.995	19.996	100.637	18.482	133.942	0.480
762.500	456.451	79.996	19.996	100.636	18.501	132.449	0.502
763.000	456.659	79.995	19.996	100.630	18.514	131.381	0.493
763.500	456.924	79.995	19.996	100.622	18.526	130.331	0.469
764.000	457.168	79.996	19.997	100.617	18.547	128.612	0.491
764.500	457.426	79.995	19.997	100.608	18.565	127.159	0.506
765.000	457.682	79.996	19.998	100.596	18.582	125.813	0.508
765.500	457.922	79.996	19.996	100.586	18.603	124.101	0.505
766.000	458.215	79.997	19.996	100.579	18.620	122.732	0.514
766.500	458.426	79.996	19.996	100.571	18.641	120.992	0.519
767.000	458.644	79.996	19.997	100.564	18.660	119.452	0.467
767.500	458.950	79.996	19.998	100.562	18.685	117.377	0.476
768.000	459.220	79.997	19.995	100.560	18.709	115.490	0.550
768.500	459.441	79.998	19.997	100.556	18.731	113.637	0.534
769.000	459.705	79.997	19.997	100.552	18.751	112.060	0.488
769.500	459.938	79.998	19.996	100.548	18.774	110.168	0.491
770.000	460.163	79.997	19.997	100.540	18.807	107.504	0.478
770.500	460.446	79.998	19.996	100.534	18.825	106.010	0.483
771.000	460.676	79.997	19.998	100.530	18.852	103.858	0.510
771.500	460.920	79.997	19.997	100.526	18.874	101.990	0.494
772.000	461.159	79.997	19.995	100.519	18.901	99.816	0.479
772.500	461.421	79.997	19.997	100.518	18.922	98.155	0.492
773.000	461.682	79.998	19.996	100.511	18.950	95.858	0.511
773.500	461.924	79.998	19.997	100.503	18.974	93.919	0.513
774.000	462.171	79.998	19.995	100.495	18.998	91.927	0.496
774.500	462.407	79.999	19.996	100.491	19.019	90.258	0.486
775.000	462.658	80.000	19.997	100.482	19.047	87.972	0.485
775.500	462.887	79.998	19.997	100.480	19.072	85.870	0.483
776.000	463.125	79.998	19.996	100.480	19.093	84.158	0.473
776.500	463.404	79.998	19.997	100.477	19.119	82.114	0.492
777.000	463.645	79.997	19.996	100.475	19.140	80.363	0.519
777.500	463.854	79.996	19.997	100.472	19.163	78.468	0.485
778.000	464.133	79.998	19.996	100.466	19.182	76.972	0.469
778.500	464.429	79.996	19.996	100.458	19.206	74.984	0.531
779.000	464.664	79.997	19.996	100.453	19.227	73.329	0.553
779.500	464.902	79.998	19.996	100.448	19.247	71.696	0.503
780.000	465.152	79.998	19.996	100.446	19.271	69.724	0.481
780.500	465.384	79.997	19.996	100.446	19.290	68.164	0.485
781.000	465.652	79.997	19.994	100.445	19.311	66.472	0.491
781.500	465.902	79.997	19.996	100.440	19.329	65.004	0.509
782.000	466.166	79.998	19.996	100.432	19.347	63.537	0.516
782.500	466.396	79.996	19.996	100.424	19.366	61.969	0.504
783.000	466.651	79.997	19.996	100.416	19.386	60.405	0.489
783.500	466.932	79.998	19.997	100.407	19.400	59.222	0.511
784.000	467.189	79.997	19.995	100.403	19.422	57.434	0.537
784.500	467.431	79.997	19.996	100.397	19.439	56.075	0.518
785.000	467.676	79.997	19.996	100.389	19.456	54.674	0.492
785.500	467.972	79.997	19.996	100.382	19.474	53.213	0.514
786.001	468.198	79.998	19.996	100.371	19.485	52.347	0.532
786.501	468.470	79.996	19.996	100.364	19.503	50.899	0.510
787.000	468.727	79.996	19.995	100.358	19.519	49.545	0.514
787.500	468.970	79.997	19.997	100.350	19.535	48.295	0.515
788.000	469.202	79.998	19.997	100.343	19.547	47.296	0.487
788.500	469.511	79.997	19.996	100.338	19.567	45.651	0.508
789.000	469.727	79.997	19.997	100.329	19.579	44.722	0.533
789.500	469.996	79.998	19.997	100.322	19.588	43.983	0.505
790.000	470.250	79.996	19.997	100.318	19.601	42.926	0.504
790.500	470.492	79.997	19.997	100.314	19.618	41.515	0.509
791.000	470.734	79.997	19.996	100.308	19.629	40.617	0.490
791.500	471.010	79.999	19.997	100.303	19.637	39.974	0.501
792.000	471.274	79.997	19.997	100.299	19.649	39.003	0.530
792.500	471.485	79.998	19.996	100.295	19.661	38.042	0.508
793.000	471.724	79.998	19.996	100.287	19.672	37.144	0.462
793.500	472.030	79.998	19.997	100.279	19.687	35.933	0.497
794.000	472.273	79.998	19.996	100.275	19.696	35.181	0.547
794.500	472.506	79.998	19.997	100.267	19.707	34.351	0.513
795.000	472.757	79.998	19.996	100.259	19.718	33.463	0.480
795.500	473.013	79.998	19.997	100.254	19.727	32.707	0.496
796.000	473.265	79.999	19.997	100.252	19.736	31.993	0.508
796.500	473.543	79.998	19.996	100.248	19.749	30.957	0.519
797.000	473.787	79.997	19.996	100.248	19.756	30.378	0.526
797.500	474.042	79.999	19.996	100.247	19.767	29.497	0.510
798.000	474.319	79.998	19.996	100.242	19.772	29.076	0.515
798.500	474.596	79.997	19.996	100.234	19.782	28.276	0.543
799.000	474.834	79.999	19.996	100.227	19.798	26.989	0.535
799.500	475.092	79.998	19.996	100.220	19.797	27.074	0.505
800.000	475.320	79.997	19.996	100.214	19.802	26.665	0.491
800.500	475.574	79.997	19.996	100.210	19.813	25.757	0.484
801.000	475.847	79.999	19.996	100.210	19.819	25.272	0.504
801.500	476.095	79.997	19.997	100.210	19.831	24.287	0.524
802.000	476.389	79.997	19.996	100.208	19.833	24.088	0.532
802.500	476.641	79.996	19.996	100.208	19.844	23.216	0.544
803.000	476.870	79.997	19.996	100.206	19.854	22.428	0.513
803.500	477.105	79.996	19.996	100.202	19.853	22.491	0.472
804.000	477.351	79.996	19.997	100.199	19.862	21.805	0.472
804.500	477.592	79.994	19.994	100.192	19.873	20.882	0.484
805.000	477.891	79.996	19.997	100.185	19.876	20.633	0.514
805.500	478.103	79.995	19.997	100.179	19.882	20.126	0.526
806.000	478.365	79.994	19.996	100.176	19.892	19.374	0.492
806.500	478.613	79.995	19.996	100.171	19.894	19.189	0.492
807.000	478.872	79.996	19.996	100.174	19.900	18.679	0.509
807.500	479.118	79.995	19.997	100.175	19.907	18.123	0.506
808.000	479.403	79.997	19.997	100.174	19.913	17.640	0.518
808.500	479.607	79.997	19.997	100.174	19.917	17.303	0.510
809.000	479.875	79.997	19.997	100.174	19.924	16.764	0.481
809.500	480.161	79.994	19.997	100.169	19.930	16.276	0.513
810.000	480.423	79.997	19.996	100.163	19.930	16.232	0.551
810.500	480.675	79.996	19.996	100.157	19.937	15.681	0.530
811.000	480.959	79.996	19.996	100.150	19.942	15.294	0.525
811.500	481.141	79.994	19.997	100.146	19.949	14.695	0.502
812.000	481.418	79.995	19.996	100.146	19.955	14.218	0.463
812.500	481.678	79.995	19.997	100.149	19.955	14.206	0.498
813.000	481.926	79.995	19.997	100.146	19.962	13.665	0.522
813.500	482.186	79.996	19.996	100.146	19.965	13.452	0.507
814.000	482.420	79.995	19.998	100.141	19.970	12.994	0.501
814.500	482.672	79.994	19.997	100.135	19.977	12.431	0.490
815.000	482.877	79.996	19.997	100.129	19.981	12.158	0.471
815.500	483.155	79.994	19.997	100.129	19.986	11.727	0.470
816.000	483.437	79.996	19.998	100.129	19.988	11.564	0.522
816.500	483.682	79.995	19.999	100.129	19.990	11.364	0.544
817.000	483.926	79.996	19.996	100.129	19.997	10.820	0.508
817.500	484.160	79.996	19.997	100.128	19.999	10.688	0.483
818.000	484.386	79.995	19.999	100.123	20.001	10.550	0.470
818.500	484.706	79.995	19.999	100.119	20.001	10.526	0.503
819.000	484.973	79.994	19.998	100.116	20.006	10.139	0.566
819.500	485.204	79.995	19.998	100.110	20.012	9.614	0.543
820.000	485.471	79.995	19.998	100.108	20.015	9.370	0.498
820.500	485.692	79.995	19.998	100.114	20.017	9.230	0.493
821.000	485.949	79.996	19.997	100.117	20.019	9.056	0.483
821.500	486.250	79.996	19.997	100.119	20.025	8.587	0.518
822.000	486.469	79.997	19.998	100.119	20.026	8.523	0.540
822.500	486.715	79.995	19.998	100.115	20.031	8.103	0.493
823.000	486.938	79.995	19.998	100.107	20.032	8.032	0.466
823.500	487.265	79.996	19.998	100.099	20.032	7.976	0.509
824.000	487.465	79.996	19.998	100.093	20.034	7.816	0.539
824.501	487.747	79.995	19.997	100.093	20.036	7.653	0.505
825.000	487.994	79.996	19.997	100.093	20.038	7.495	0.506
825.500	488.232	79.997	19.998	100.094	20.044	7.055	0.507
826.000	488.507	79.995	19.997	100.094	20.044	7.017	0.499
826.500	488.797	79.997	19.998	100.096	20.048	6.734	0.539
827.000	489.031	79.998	19.998	100.094	20.050	6.567	0.545
827.500	489.281	79.996	19.997	100.094	20.055	6.129	0.505
828.000	489.533	79.996	19.997	100.092	20.056	6.043	0.493
828.500	489.833	79.996	19.998	100.092	20.056	6.038	0.527
829.000	490.072	79.996	19.997	100.090	20.061	5.625	0.545
829.500	490.326	79.994	19.995	100.089	20.063	5.505	0.516
830.000	490.598	79.995	19.998	100.086	20.063	5.485	0.509
830.500	490.838	79.995	19.998	100.087	20.066	5.216	0.519
831.000	491.083	79.994	19.998	100.088	20.071	4.858	0.499
831.500	491.281	79.994	19.999	100.088	20.073	4.665	0.464
832.000	491.584	79.996	20.000	100.089	20.071	4.860	0.472
832.500	491.821	79.996	19.999	100.091	20.074	4.616	0.520
833.000	492.090	79.997	19.998	100.091	20.075	4.556	0.523
833.500	492.350	79.994	19.997	100.090	20.078	4.294	0.517
834.000	492.587	79.996	19.998	100.088	20.077	4.385	0.513
834.500	492.866	79.996	19.996	100.086	20.077	4.396	0.507
835.000	493.122	79.996	19.998	100.086	20.077	4.373	0.525
835.500	493.373	79.998	19.998	100.084	20.081	4.064	0.521
836.000	493.604	79.996	19.997	100.084	20.079	4.187	0.495
836.500	493.868	79.996	19.996	100.081	20.080	4.160	0.489
837.001	494.130	79.995	19.998	100.076	20.084	3.787	0.511
837.500	494.393	79.995	19.996	100.069	20.085	3.707	0.525
838.000	494.654	79.995	19.998	100.064	20.088	3.465	0.524
838.500	494.930	79.995	19.996	100.063	20.088	3.511	0.530
839.000	495.175	79.994	19.997	100.063	20.088	3.480	0.529
839.501	495.451	79.994	19.997	100.062	20.091	3.211	0.521
840.001	495.688	79.994	19.997	100.065	20.097	2.778	0.517
840.500	495.953	79.995	19.996	100.067	20.095	2.891	0.507
841.000	496.227	79.995	19.995	100.065	20.099	2.602	0.520
841.500	496.495	79.994	19.997	100.062	20.099	2.609	0.541
842.000	496.711	79.994	19.997	100.062	20.097	2.762	0.513
842.500	496.977	79.995	19.997	100.064	20.102	2.331	0.483
843.000	497.227	79.996	19.997	100.062	20.101	2.413	0.499
843.500	497.479	79.996	19.997	100.061	20.103	2.262	0.509
844.000	497.760	79.995	19.996	100.061	20.102	2.351	0.518
844.500	497.989	79.996	19.997	100.061	20.102	2.378	0.521
845.000	498.280	79.996	19.996	100.058	20.101	2.419	0.514
845.500	498.538	79.995	19.996	100.057	20.104	2.148	0.534
846.000	498.811	79.996	19.996	100.056	20.104	2.167	0.540
846.500	499.055	79.996	19.996	100.056	20.103	2.236	0.524
847.000	499.320	79.996	19.996	100.057	20.105	2.078	0.513
847.500	499.542	79.997	19.997	100.059	20.105	2.075	0.498
848.000	499.810	79.996	19.997	100.059	20.105	2.105	0.488
848.500	500.009	79.996	19.997	100.060	20.107	1.903	0.478
849.000	500.266	79.997	19.996	100.060	20.109	1.748	0.461
849.500	500.538	79.996	19.996	100.058	20.107	1.904	0.493
850.000	500.769	79.996	19.998	100.056	20.109	1.739	0.516
850.500	501.071	79.997	19.996	100.055	20.110	1.678	0.518
851.000	501.334	79.997	19.996	100.054	20.110	1.669	0.549
851.500	501.598	79.996	19.997	100.053	20.108	1.818	0.546
852.000	501.831	79.998	19.996	100.053	20.113	1.469	0.512
852.500	502.087	79.996	19.998	100.053	20.111	1.580	0.493
853.000	502.336	79.996	19.996	100.053	20.112	1.524	0.497
853.500	502.590	79.997	19.995	100.053	20.113	1.491	0.504
854.000	502.898	79.996	19.998	100.053	20.109	1.740	0.532
854.500	503.147	79.997	19.996	100.053	20.111	1.607	0.559
855.000	503.396	79.996	19.997	100.053	20.114	1.378	0.527
855.501	503.630	79.997	19.997	100.054	20.109	1.802	0.491
856.001	503.879	79.997	19.997	100.025	20.113	1.420	0.483
856.500	504.160	79.996	19.997	99.995	20.113	1.431	0.506
857.000	504.389	79.996	19.997	99.981	20.114	1.344	0.520
857.500	504.669	79.996	19.996	99.976	20.117	1.107	0.510
858.000	504.940	79.996	19.997	99.975	20.117	1.156	0.530
858.500	505.155	79.996	19.997	100.008	20.120	0.887	0.519
859.000	505.404	79.996	19.997	100.069	20.121	0.833	0.475
859.500	505.667	79.996	19.996	100.114	20.116	1.231	0.488
860.000	505.937	79.996	19.996	100.125	20.120	0.913	0.522
860.500	506.226	79.996	19.997	100.128	20.119	0.980	0.546
861.000	506.443	79.997	19.997	100.124	20.121	0.782	0.532
861.501	506.724	79.996	19.997	100.093	20.123	0.620	0.502
862.000	506.983	79.996	19.996	100.060	20.118	1.087	0.520
862.500	507.214	79.996	19.996	100.054	20.121	0.764	0.515
863.000	507.485	79.996	19.995	100.051	20.122	0.698	0.496
863.500	507.767	79.996	19.996	100.050	20.124	0.571	0.528
864.000	508.001	79.996	19.996	100.052	20.119	0.995	0.534
864.500	508.224	79.996	19.996	100.053	20.120	0.860	0.486
865.000	508.503	79.997	19.996	100.053	20.123	0.647	0.480
865.500	508.751	79.995	19.996	100.054	20.123	0.651	0.515
866.000	509.004	79.996	19.995	100.055	20.124	0.544	0.514
866.500	509.252	79.996	19.995	100.055	20.122	0.702	0.500
867.000	509.525	79.997	19.997	100.056	20.121	0.802	0.511
867.500	509.758	79.996	19.996	100.056	20.123	0.642	0.514
868.000	510.045	79.996	19.996	100.056	20.124	0.573	0.513
868.500	510.315	79.997	19.997	100.055	20.121	0.811	0.539
869.000	510.528	79.996	19.996	100.055	20.122	0.744	0.520
869.500	510.778	79.997	19.996	100.055	20.120	0.878	0.473
870.000	511.069	79.998	19.998	100.056	20.121	0.844	0.502
870.500	511.305	79.998	19.996	100.056	20.121	0.771	0.534
871.000	511.559	79.999	19.997	100.056	20.124	0.553	0.509
871.500	511.808	80.000	19.997	100.058	20.123	0.615	0.496
872.000	512.080	79.999	19.996	100.056	20.123	0.633	0.512
872.500	512.325	80.000	19.996	100.054	20.118	1.084	0.519
873.000	512.585	79.998	19.996	100.050	20.123	0.624	0.511
873.500	512.814	79.999	19.997	100.045	20.122	0.740	0.497
874.000	513.071	79.997	19.997	100.042	20.125	0.478	0.487
874.500	513.294	79.998	19.996	100.042	20.124	0.542	0.483
875.000	513.586	79.999	19.997	100.043	20.125	0.482	0.497
875.500	513.842	79.998	19.997	100.049	20.121	0.804	0.532
876.000	514.092	79.998	19.997	100.053	20.123	0.616	0.527
876.500	514.380	79.998	19.997	100.055	20.121	0.796	0.522
877.000	514.648	79.998	19.996	100.055	20.122	0.724	0.547
877.500	514.916	79.998	19.997	100.052	20.121	0.838	0.546
878.000	515.134	79.997	19.997	100.044	20.126	0.393	0.512
878.500	515.447	79.998	19.997	100.039	20.120	0.876	0.508
879.000	515.731	79.999	19.997	100.037	20.124	0.536	0.564
879.500	515.944	79.997	19.996	100.036	20.125	0.489	0.547
880.000	516.237	79.998	19.997	100.037	20.124	0.600	0.501
880.500	516.464	79.997	19.997	100.042	20.123	0.662	0.513
881.000	516.727	79.998	19.998	100.046	20.126	0.422	0.505
881.500	516.994	79.997	19.997	100.048	20.127	0.280	0.511
882.000	517.266	79.996	19.998	100.046	20.127	0.282	0.535
882.500	517.512	79.998	19.997	100.046	20.125	0.456	0.528
883.000	517.783	79.995	19.996	100.046	20.124	0.524	0.517
883.500	518.033	79.995	19.996	100.043	20.125	0.444	0.519
884.000	518.249	79.997	19.997	100.041	20.126	0.373	0.493
884.500	518.524	79.997	19.997	100.043	20.122	0.733	0.478
885.000	518.792	79.996	19.998	100.042	20.123	0.671	0.517
885.500	519.040	79.995	19.998	100.043	20.122	0.744	0.530
886.000	519.342	79.997	19.997	100.047	20.122	0.709	0.533
886.500	519.588	79.997	19.996	100.049	20.122	0.684	0.549
887.001	519.855	79.995	19.997	100.048	20.122	0.718	0.530
887.500	520.099	79.997	19.997	100.049	20.119	0.955	0.512
888.000	520.395	79.997	19.998	100.049	20.121	0.798	0.525
888.500	520.598	79.997	19.997	100.049	20.124	0.589	0.519
889.000	520.898	79.996	19.997	100.049	20.124	0.576	0.501
889.500	521.106	79.997	19.998	100.051	20.123	0.607	0.506
890.000	521.404	79.994	19.997	100.050	20.125	0.507	0.507
890.500	521.644	79.996	19.996	100.050	20.119	0.960	0.522
891.000	521.898	79.996	19.997	100.047	20.120	0.871	0.516
891.500	522.159	79.996	19.997	100.047	20.126	0.400	0.505
892.000	522.378	79.996	19.997	100.047	20.123	0.622	0.498
892.500	522.656	79.997	19.997	100.046	20.126	0.387	0.488
893.000	522.920	79.997	19.996	100.046	20.124	0.527	0.520
893.500	523.180	79.996	19.997	100.049	20.123	0.655	0.533
894.000	523.461	79.997	19.997	100.049	20.125	0.518	0.532
894.500	523.684	79.996	19.998	100.049	20.125	0.504	0.523
895.000	523.957	79.998	19.997	100.050	20.123	0.627	0.500
895.500	524.211	79.996	19.997	100.047	20.123	0.662	0.512
896.000	524.481	79.996	19.998	100.046	20.122	0.713	0.526
896.500	524.725	79.996	19.997	100.046	20.127	0.300	0.519
897.000	524.976	79.996	19.997	100.044	20.124	0.555	0.504
897.500	525.262	79.996	19.997	100.044	20.126	0.362	0.516
898.000	525.517	79.996	19.997	100.046	20.128	0.233	0.539
898.500	525.744	79.997	19.998	100.048	20.126	0.362	0.512
899.000	526.022	79.996	19.997	100.046	20.125	0.467	0.494
899.500	526.275	79.998	19.997	100.047	20.129	0.182	0.518
900.000	526.494	79.994	19.996	100.049	20.127	0.291	0.501
900.500	526.770	79.996	19.996	100.046	20.128	0.273	0.483
901.000	527.005	79.996	19.998	100.043	20.129	0.189	0.503
901.500	527.281	79.997	19.997	100.043	20.127	0.358	0.511
902.000	527.523	79.996	19.997	100.039	20.129	0.151	0.515
902.500	527.796	79.998	19.998	100.037	20.126	0.373	0.516
903.000	528.043	79.995	19.997	100.036	20.126	0.402	0.517
903.500	528.347	79.996	19.998	100.032	20.127	0.344	0.535
904.000	528.584	79.995	19.998	100.026	20.128	0.231	0.546
904.500	528.809	79.997	19.997	100.024	20.127	0.320	0.502
905.000	529.090	79.996	19.997	100.022	20.126	0.389	0.484
905.500	529.371	79.995	19.998	100.025	20.124	0.551	0.534
906.000	529.603	79.995	19.998	100.032	20.130	0.116	0.537
906.500	529.859	79.996	19.997	100.039	20.126	0.436	0.501
907.000	530.126	79.997	19.997	100.044	20.126	0.362	0.506
907.500	530.399	79.996	19.998	100.045	20.126	0.387	0.532
908.000	530.623	79.996	19.998	100.040	20.124	0.576	0.518
908.500	530.900	79.995	19.997	100.037	20.124	0.573	0.499
909.000	531.157	79.995	19.997	100.037	20.125	0.460	0.518
909.500	531.436	79.995	19.998	100.039	20.126	0.387	0.535
910.000	531.642	79.995	19.998	100.043	20.129	0.147	0.510
910.500	531.957	79.994	19.998	100.047	20.126	0.398	0.503
911.000	532.221	79.994	19.997	100.050	20.128	0.271	0.550
911.501	532.499	79.996	19.997	100.052	20.127	0.282	0.561
912.000	532.719	79.995	19.997	100.049	20.125	0.504	0.520
912.500	533.031	79.995	19.998	100.046	20.125	0.478	0.515
913.000	533.275	79.995	19.998	100.046	20.126	0.389	0.544
913.500	533.563	79.995	19.996	100.046	20.132	-0.064	0.544
914.000	533.789	79.995	19.997	100.045	20.126	0.424	0.523
914.500	534.081	79.995	19.998	100.048	20.129	0.169	0.516
915.000	534.324	79.995	19.996	100.050	20.127	0.307	0.527
915.500	534.598	79.995	19.997	100.049	20.129	0.195	0.526
916.000	534.846	79.995	19.997	100.050	20.126	0.404	0.520
916.500	535.121	79.995	19.998	100.050	20.124	0.575	0.523
917.000	535.392	79.995	19.998	100.050	20.128	0.269	0.534
917.500	535.619	79.996	19.998	100.049	20.126	0.433	0.522
918.000	535.862	79.995	19.997	100.051	20.129	0.162	0.484
918.500	536.155	79.994	19.996	100.050	20.128	0.207	0.503
919.000	536.413	79.995	19.996	100.051	20.129	0.169	0.543
919.500	536.687	79.997	19.997	100.052	20.130	0.100	0.542
920.000	536.935	79.995	19.996	100.052	20.128	0.225	0.527
920.500	537.200	79.995	19.997	100.049	20.126	0.369	0.518
921.000	537.451	79.996	19.996	100.045	20.125	0.451	0.515
921.500	537.747	79.994	19.997	100.046	20.126	0.409	0.531
922.000	537.965	79.996	19.995	100.046	20.128	0.256	0.530
922.500	538.218	79.998	19.997	100.048	20.124	0.602	0.492
923.000	538.486	79.996	19.997	100.050	20.126	0.376	0.496
923.500	538.760	79.995	19.996	100.054	20.129	0.156	0.531
924.000	539.015	79.995	19.996	100.051	20.127	0.336	0.535
924.500	539.278	79.996	19.996	100.046	20.123	0.658	0.524
925.000	539.510	79.996	19.996	100.045	20.122	0.755	0.507
925.500	539.807	79.997	19.997	100.045	20.126	0.409	0.512
926.000	540.075	79.996	19.995	100.028	20.123	0.653	0.547
926.500	540.303	79.997	19.996	100.003	20.127	0.358	0.530
927.000	540.555	79.997	19.996	99.986	20.120	0.855	0.489
927.500	540.807	79.997	19.997	99.970	20.128	0.251	0.492
928.000	541.077	79.997	19.996	99.960	20.126	0.367	0.513
928.500	541.341	79.996	19.996	99.985	20.132	-0.056	0.528
929.000	541.613	79.997	19.997	100.036	20.129	0.138	0.535
929.500	541.833	79.996	19.996	100.076	20.128	0.269	0.514
930.000	542.121	79.997	19.996	100.096	20.128	0.211	0.501
930.500	542.355	79.996	19.997	100.105	20.133	-0.142	0.516
931.000	542.642	79.996	19.996	100.098	20.128	0.273	0.522
931.500	542.856	79.997	19.997	100.074	20.131	-0.007	0.511
932.000	543.106	79.997	19.996	100.055	20.129	0.131	0.483
932.500	543.342	79.998	19.996	100.049	20.129	0.173	0.475
933.000	543.647	79.996	19.996	100.048	20.130	0.049	0.513
933.500	543.923	79.998	19.996	100.046	20.130	0.076	0.561
934.001	544.152	79.997	19.997	100.046	20.126	0.418	0.543
934.500	544.392	79.997	19.996	100.045	20.129	0.198	0.487
935.000	544.631	79.997	19.997	100.046	20.127	0.304	0.474
935.500	544.899	79.997	19.996	100.046	20.128	0.224	0.493
936.000	545.177	79.997	19.996	100.047	20.130	0.104	0.526
936.500	545.382	79.996	19.997	100.046	20.131	0.022	0.514
937.000	545.671	79.997	19.997	100.046	20.126	0.371	0.488
937.500	545.924	79.998	19.997	100.045	20.128	0.209	0.518
938.000	546.181	79.996	19.996	100.047	20.128	0.249	0.526
938.500	546.414	79.996	19.996	100.048	20.129	0.127	0.500
939.000	546.665	79.996	19.997	100.049	20.125	0.495	0.487
939.500	546.935	79.998	19.996	100.050	20.125	0.484	0.503
940.000	547.195	79.997	19.997	100.048	20.131	0.033	0.526
940.500	547.447	79.997	19.997	100.047	20.132	-0.118	0.521
941.000	547.694	79.998	19.995	100.047	20.129	0.142	0.505
941.500	547.998	79.996	19.998	100.047	20.129	0.169	0.525
942.000	548.246	79.998	19.997	100.045	20.130	0.109	0.551
942.500	548.518	79.996	19.997	100.044	20.130	0.042	0.536
943.000	548.795	79.997	19.997	100.044	20.131	0.024	0.535
943.500	549.028	79.998	19.996	100.042	20.130	0.078	0.529
944.000	549.303	79.999	19.996	100.038	20.128	0.278	0.508
944.500	549.548	79.995	19.997	100.039	20.129	0.196	0.514
945.000	549.779	79.997	19.996	100.044	20.130	0.038	0.498
945.500	550.068	79.998	19.997	100.043	20.126	0.398	0.498
946.000	550.301	79.997	19.996	100.040	20.126	0.371	0.521
946.500	550.555	79.998	19.996	100.038	20.129	0.120	0.504
947.000	550.837	79.998	19.997	100.033	20.130	0.067	0.511
947.500	551.064	79.999	19.996	100.030	20.130	0.073	0.522
948.000	551.304	79.998	19.996	100.028	20.127	0.307	0.488
948.500	551.563	79.996	19.996	100.031	20.128	0.224	0.483
949.000	551.834	79.997	19.995	100.036	20.125	0.489	0.515
949.500	552.073	79.997	19.996	100.036	20.128	0.260	0.520
950.000	552.325	79.999	19.996	100.037	20.128	0.238	0.501
950.500	552.612	79.999	19.996	100.038	20.126	0.384	0.515
951.000	552.842	79.998	19.995	100.040	20.127	0.353	0.528
951.500	553.137	79.999	19.994	100.041	20.127	0.342	0.521
952.000	553.360	79.999	19.996	100.045	20.130	0.060	0.521
952.500	553.625	79.997	19.995	100.044	20.127	0.315	0.503
953.000	553.849	79.998	19.996	100.043	20.127	0.313	0.489
953.500	554.115	79.999	19.996	100.035	20.130	0.040	0.490
954.000	554.371	80.000	19.996	100.029	20.131	0.027	0.506
954.500	554.633	80.000	19.997	100.026	20.127	0.298	0.520
955.000	554.944	80.000	19.995	100.028	20.129	0.196	0.545
955.500	555.212	80.001	19.996	100.031	20.129	0.133	0.576
956.000	555.460	80.000	19.995	100.039	20.128	0.231	0.548
956.500	555.695	79.997	19.996	100.046	20.127	0.355	0.500
957.000	555.989	79.998	19.996	100.048	20.125	0.442	0.507
957.500	556.180	79.998	19.996	100.047	20.128	0.231	0.507
958.000	556.424	79.999	19.997	100.047	20.128	0.251	0.460
958.500	556.734	79.999	19.996	100.046	20.128	0.251	0.495
959.000	556.969	80.000	19.996	100.044	20.130	0.060	0.550
959.500	557.226	79.998	19.996	100.045	20.131	0.033	0.519
960.000	557.503	79.999	19.997	100.043	20.128	0.267	0.513
960.500	557.733	79.998	19.995	100.043	20.128	0.220	0.520
961.000	558.028	79.998	19.996	100.042	20.126	0.387	0.516
961.500	558.221	79.997	19.997	100.041	20.130	0.084	0.506
962.000	558.528	79.996	19.997	100.038	20.127	0.329	0.494
962.500	558.774	79.996	19.997	100.033	20.131	0.024	0.527
963.000	559.022	79.997	19.998	100.032	20.129	0.173	0.524
963.500	559.271	79.997	19.997	100.035	20.131	0.002	0.495
964.000	559.564	79.997	19.997	100.038	20.130	0.064	0.520
964.500	559.839	79.996	19.996	100.042	20.127	0.331	0.555
965.000	560.047	79.996	19.996	100.050	20.131	-0.018	0.525
965.500	560.302	79.996	19.997	100.049	20.129	0.162	0.473
966.000	560.567	79.995	19.998	100.046	20.128	0.249	0.492
966.500	560.845	79.996	19.996	100.044	20.128	0.269	0.532
967.000	561.075	79.996	19.997	100.043	20.122	0.702	0.525
967.500	561.367	79.997	19.997	100.038	20.125	0.513	0.515
968.000	561.619	79.996	19.997	100.036	20.126	0.411	0.533
968.500	561.842	79.996	19.997	100.039	20.128	0.276	0.510
969.000	562.149	79.996	19.997	100.037	20.127	0.287	0.502
969.500	562.391	79.995	19.997	100.038	20.125	0.447	0.539
970.000	562.646	79.995	19.997	100.040	20.127	0.331	0.523
970.500	562.878	79.994	19.997	100.041	20.125	0.462	0.493
971.000	563.122	79.996	19.998	100.041	20.127	0.313	0.482
971.500	563.418	79.995	19.997	100.042	20.130	0.107	0.508
972.000	563.663	79.997	19.997	100.037	20.127	0.331	0.540
972.500	563.925	79.996	19.997	100.040	20.129	0.178	0.524
973.000	564.155	79.995	19.997	100.044	20.128	0.229	0.500
973.500	564.441	79.996	19.997	100.045	20.122	0.684	0.504
974.000	564.686	79.996	19.997	100.049	20.125	0.442	0.523
974.500	564.911	79.998	19.996	100.044	20.124	0.575	0.500
975.000	565.164	79.996	19.996	100.012	20.126	0.369	0.473
975.500	565.444	79.995	19.996	99.985	20.124	0.556	0.506
976.000	565.704	79.997	19.997	99.968	20.124	0.574	0.537
976.500	565.938	79.996	19.996	99.956	20.125	0.509	0.517
977.000	566.186	79.995	19.997	99.959	20.126	0.407	0.488
977.500	566.406	79.996	19.997	99.985	20.126	0.427	0.475
978.000	566.721	79.995	19.997	100.005	20.129	0.127	0.502
978.500	566.965	79.995	19.996	100.024	20.129	0.160	0.547
979.000	567.216	79.995	19.996	100.069	20.129	0.138	0.526
979.500	567.487	79.996	19.997	100.096	20.127	0.342	0.509
980.000	567.692	79.996	19.997	100.109	20.128	0.262	0.500
980.500	567.952	79.994	19.996	100.115	20.130	0.040	0.471
981.000	568.189	79.996	19.997	100.114	20.130	0.071	0.481
981.500	568.437	79.996	19.997	100.080	20.129	0.182	0.491
982.000	568.715	79.996	19.997	100.060	20.125	0.453	0.505
982.500	568.959	79.995	19.996	100.043	20.128	0.231	0.524
983.001	569.236	79.996	19.997	100.007	20.123	0.615	0.521
983.500	569.460	79.996	19.998	99.984	20.125	0.464	0.511
984.000	569.735	79.996	19.996	99.975	20.126	0.382	0.500
984.500	569.986	79.995	19.996	99.969	20.128	0.202	0.512
985.000	570.244	79.994	19.996	99.979	20.130	0.087	0.517
985.500	570.536	79.995	19.997	100.027	20.129	0.140	0.530
986.000	570.751	79.995	19.996	100.089	20.133	-0.147	0.529
986.500	571.050	79.996	19.998	100.109	20.130	0.113	0.510
987.000	571.307	79.997	19.997	100.116	20.129	0.136	0.534
987.500	571.576	79.996	19.998	100.114	20.129	0.176	0.541
988.000	571.846	79.995	19.996	100.098	20.129	0.189	0.533
988.500	572.066	79.995	19.996	100.059	20.127	0.340	0.514
989.000	572.331	79.996	19.998	100.047	20.126	0.416	0.488
989.500	572.560	79.995	19.997	100.046	20.127	0.304	0.490
990.000	572.841	79.994	19.997	100.050	20.127	0.338	0.502
990.500	573.099	79.995	19.997	100.053	20.128	0.220	0.524
991.000	573.366	79.996	19.998	100.051	20.128	0.204	0.532
991.500	573.617	79.995	19.997	100.045	20.129	0.120	0.521
992.000	573.897	79.994	19.998	100.044	20.130	0.058	0.524
992.500	574.165	79.995	19.996	100.040	20.128	0.240	0.539
993.000	574.461	79.996	19.997	100.036	20.127	0.309	0.556
993.500	574.718	79.994	19.997	100.033	20.126	0.420	0.559
994.000	574.951	79.994	19.998	100.040	20.126	0.391	0.522
994.500	575.236	79.994	19.998	100.040	20.126	0.393	0.504
995.000	575.486	79.995	19.998	100.040	20.128	0.200	0.527
995.500	575.729	79.996	19.998	100.038	20.126	0.440	0.514
996.000	575.990	79.995	19.998	100.040	20.126	0.418	0.498
996.500	576.220	79.995	19.998	100.039	20.129	0.189	0.498
997.000	576.508	79.995	19.998	100.040	20.126	0.362	0.505
997.500	576.750	79.995	19.997	100.043	20.126	0.409	0.524
998.000	576.975	79.995	19.998	100.048	20.127	0.333	0.498
998.501	577.265	79.995	19.998	100.049	20.129	0.193	0.491
999.000	577.481	79.996	19.998	100.047	20.128	0.253	0.510
999.500	577.751	79.995	19.997	100.046	20.126	0.409	0.496
1000.000	578.019	79.996	19.997	100.046	20.123	0.662	0.512
1000.500	578.249	79.996	19.997	100.046	20.127	0.313	0.518
1001.000	578.525	79.997	19.997	100.047	20.129	0.187	0.502
1001.500	578.791	79.996	19.997	100.049	20.129	0.178	0.523
1002.000	579.036	79.995	19.997	100.047	20.128	0.244	0.526
1002.500	579.285	79.995	19.997	100.044	20.126	0.389	0.503
1003.000	579.519	79.997	19.997	100.037	20.126	0.380	0.489
1003.500	579.773	79.996	19.997	100.031	20.127	0.342	0.485
1004.000	580.028	79.997	19.997	100.026	20.124	0.560	0.498
1004.500	580.296	79.998	19.996	100.022	20.126	0.433	0.516
1005.000	580.516	79.997	19.996	100.025	20.129	0.189	0.506
1005.500	580.768	79.997	19.997	100.031	20.125	0.513	0.480
1006.000	581.015	79.997	19.996	100.030	20.127	0.344	0.486
1006.500	581.283	79.998	19.995	100.029	20.127	0.309	0.507
1007.000	581.516	79.998	19.996	100.027	20.126	0.413	0.508
1007.500	581.740	79.999	19.996	100.024	20.127	0.318	0.480
1008.000	582.024	79.998	19.997	100.023	20.129	0.129	0.483
1008.500	582.276	79.998	19.996	100.030	20.129	0.118	0.522
1009.000	582.520	79.997	19.996	100.034	20.129	0.142	0.516
1009.500	582.785	79.997	19.996	100.034	20.128	0.260	0.503
1010.000	583.060	79.998	19.995	100.032	20.126	0.420	0.525
1010.500	583.290	79.998	19.995	100.031	20.127	0.280	0.522
1011.000	583.540	79.997	19.996	100.031	20.127	0.302	0.492
1011.500	583.770	79.998	19.996	100.032	20.129	0.138	0.480
1012.000	583.995	79.998	19.995	100.040	20.130	0.089	0.467
1012.500	584.271	79.999	19.996	100.046	20.129	0.140	0.478
1013.000	584.536	79.997	19.996	100.048	20.130	0.087	0.521
1013.500	584.769	79.997	19.996	100.048	20.128	0.244	0.520
1014.000	585.062	79.997	19.997	100.047	20.127	0.329	0.512
1014.500	585.291	79.997	19.996	100.042	20.124	0.524	0.524
1015.000	585.551	79.996	19.996	100.039	20.129	0.144	0.505
1015.500	585.774	79.997	19.996	100.034	20.126	0.380	0.486
1016.000	586.032	79.997	19.996	100.027	20.128	0.204	0.482
1016.500	586.316	79.998	19.997	100.022	20.126	0.391	0.512
1017.000	586.549	79.998	19.997	100.019	20.129	0.120	0.530
1017.500	586.812	79.997	19.996	100.020	20.128	0.249	0.507
1018.000	587.069	79.997	19.997	100.024	20.128	0.242	0.508
1018.500	587.311	79.998	19.996	100.031	20.126	0.393	0.509
1019.000	587.610	79.997	19.996	100.038	20.127	0.324	0.520
1019.500	587.835	79.998	19.996	100.045	20.130	0.093	0.533
1020.000	588.055	79.997	19.997	100.042	20.126	0.393	0.484
1020.500	588.325	79.996	19.997	100.036	20.124	0.562	0.467
1021.000	588.591	79.997	19.996	100.034	20.123	0.673	0.514
1021.500	588.824	79.997	19.996	100.033	20.126	0.420	0.518
1022.001	589.097	79.996	19.996	100.031	20.127	0.340	0.502
1022.500	589.351	79.997	19.997	100.031	20.126	0.384	0.517
1023.000	589.631	79.996	19.997	100.038	20.129	0.151	0.530
1023.500	589.848	79.997	19.996	100.040	20.127	0.302	0.515
1024.001	590.103	79.997	19.996	100.040	20.127	0.331	0.485
1024.501	590.383	79.998	19.998	100.038	20.126	0.438	0.504
1025.001	590.626	79.998	19.997	100.040	20.128	0.211	0.529
1025.500	590.883	79.998	19.996	100.040	20.127	0.302	0.511
1026.000	591.166	79.997	19.996	100.039	20.126	0.440	0.520
1026.500	591.417	79.997	19.997	100.040	20.128	0.264	0.537
1027.000	591.680	79.999	19.997	100.043	20.129	0.198	0.524
1027.500	591.898	79.998	19.996	100.046	20.126	0.429	0.497
1028.000	592.177	79.997	19.996	100.047	20.127	0.324	0.489
1028.500	592.404	79.997	19.996	100.045	20.127	0.282	0.502
1029.000	592.718	79.998	19.995	100.041	20.127	0.349	0.523
1029.500	592.958	79.999	19.996	100.041	20.129	0.136	0.547
1030.000	593.208	79.997	19.996	100.044	20.130	0.113	0.522
1030.500	593.493	79.999	19.996	100.044	20.129	0.140	0.513
1031.000	593.718	80.000	19.996	100.043	20.129	0.136	0.523
1031.500	593.981	80.000	19.995	100.045	20.132	-0.053	0.499
1032.000	594.280	80.002	19.996	100.045	20.132	-0.091	0.525
1032.500	594.513	80.000	19.995	100.042	20.131	0.029	0.547
1033.000	594.793	80.001	19.996	100.039	20.131	0.016	0.522
1033.500	595.035	79.997	19.995	100.041	20.130	0.098	0.518
1034.000	595.311	79.999	19.995	100.042	20.130	0.116	0.520
1034.500	595.562	80.000	19.996	100.039	20.129	0.178	0.523
1035.000	595.827	79.998	19.996	100.036	20.128	0.244	0.522
1035.500	596.097	79.998	19.996	100.033	20.126	0.415	0.526
1036.000	596.353	79.998	19.995	100.027	20.123	0.626	0.530
1036.500	596.597	79.999	19.996	100.022	20.125	0.513	0.513
1037.000	596.874	80.000	19.996	100.020	20.126	0.411	0.510
1037.500	597.117	79.998	19.996	100.025	20.131	0.002	0.520
1038.000	597.391	79.999	19.996	100.031	20.128	0.271	0.519
1038.500	597.600	79.998	19.995	100.037	20.127	0.293	0.500
1039.000	597.909	79.997	19.996	100.040	20.126	0.394	0.500
1039.500	598.149	79.998	19.996	100.046	20.127	0.338	0.533
1040.000	598.405	79.997	19.996	100.047	20.126	0.380	0.523
1040.500	598.647	79.996	19.996	100.044	20.128	0.278	0.497
1041.000	598.929	79.995	19.995	100.043	20.127	0.296	0.511
1041.500	599.210	79.995	19.997	100.046	20.126	0.371	0.544
1042.000	599.480	79.997	19.997	100.046	20.129	0.127	0.557
1042.500	599.729	79.997	19.996	100.045	20.127	0.302	0.535
1043.000	599.960	79.996	19.996	100.040	20.127	0.324	0.499
1043.500	600.243	79.996	19.997	100.037	20.128	0.264	0.497
1044.000	600.474	79.996	19.996	100.034	20.125	0.462	0.514
1044.501	600.756	79.996	19.996	100.031	20.126	0.404	0.513
1045.001	600.990	79.995	19.996	100.032	20.126	0.438	0.515
1045.500	601.283	79.997	19.996	100.029	20.124	0.522	0.522
1046.000	601.533	79.998	19.997	99.997	20.123	0.658	0.535
1046.501	601.793	79.995	19.996	99.975	20.126	0.411	0.526
1047.001	602.012	79.995	19.996	99.967	20.127	0.322	0.495
1047.500	602.284	79.995	19.996	99.961	20.124	0.522	0.485
1048.000	602.565	79.996	19.995	99.967	20.130	0.071	0.522
1048.500	602.821	79.996	19.997	100.007	20.130	0.093	0.546
1049.000	603.058	79.995	19.996	100.073	20.130	0.116	0.515
1049.500	603.326	79.996	19.996	100.100	20.131	0.027	0.499
1050.000	603.587	79.996	19.996	100.108	20.129	0.136	0.517
1050.500	603.873	79.995	19.997	100.107	20.126	0.393	0.538
1051.001	604.128	79.996	19.996	100.100	20.127	0.293	0.544
1051.501	604.350	79.996	19.997	100.060	20.129	0.153	0.509
1052.000	604.643	79.995	19.997	100.046	20.126	0.431	0.495
1052.500	604.846	79.995	19.997	100.043	20.130	0.111	0.505
1053.000	605.106	79.996	19.997	100.049	20.129	0.169	0.480
1053.500	605.404	79.996	19.996	100.051	20.129	0.164	0.511
1054.000	605.661	79.996	19.997	100.045	20.127	0.289	0.556
1054.500	605.876	79.995	19.997	100.040	20.129	0.162	0.514
1055.000	606.147	79.997	19.997	100.037	20.127	0.331	0.479
1055.501	606.397	79.995	19.997	100.034	20.131	0.002	0.503
1056.001	606.645	79.997	19.997	100.035	20.129	0.153	0.509
1056.500	606.918	79.995	19.998	100.039	20.127	0.342	0.509
1057.000	607.167	79.996	19.998	100.045	20.127	0.287	0.521
1057.500	607.427	79.996	19.997	100.048	20.130	0.073	0.516
1058.000	607.667	79.996	19.997	100.047	20.127	0.344	0.505
1058.500	607.922	79.996	19.998	100.043	20.125	0.444	0.497
1059.000	608.187	79.996	19.996	100.042	20.127	0.355	0.508
1059.500	608.404	79.996	19.996	100.038	20.125	0.487	0.502
1060.000	608.676	79.997	19.996	100.035	20.123	0.651	0.486
1060.500	608.947	79.996	19.997	100.033	20.125	0.471	0.516
1061.000	609.229	79.997	19.997	100.036	20.124	0.553	0.548
1061.500	609.488	79.998	19.996	100.036	20.127	0.353	0.547
1062.000	609.754	79.996	19.997	100.034	20.128	0.235	0.533
1062.500	609.991	79.998	19.996	100.032	20.125	0.513	0.514
1063.000	610.226	79.995	19.996	100.030	20.125	0.489	0.488
1063.500	610.509	79.996	19.996	100.024	20.123	0.653	0.495
1064.000	610.750	79.996	19.998	100.022	20.122	0.700	0.520
1064.500	611.002	79.996	19.997	100.024	20.125	0.515	0.508
1065.000	611.257	79.997	19.996	100.029	20.127	0.335	0.500
1065.500	611.479	79.996	19.997	100.035	20.126	0.440	0.492
1066.000	611.750	79.995	19.995	100.040	20.125	0.495	0.485
1066.500	612.011	79.995	19.997	100.039	20.128	0.227	0.513
1067.000	612.274	79.996	19.997	100.034	20.127	0.282	0.529
1067.500	612.525	79.996	19.997	100.028	20.126	0.387	0.519
1068.000	612.779	79.996	19.998	100.025	20.127	0.342	0.509
1068.500	613.039	79.995	19.997	100.022	20.127	0.320	0.509
1069.000	613.253	79.995	19.996	100.020	20.127	0.322	0.494
1069.500	613.548	79.997	19.998	100.022	20.129	0.162	0.492
1070.000	613.766	79.995	19.996	100.026	20.123	0.667	0.511
1070.500	614.061	79.994	19.997	100.027	20.126	0.364	0.513
1071.001	614.270	79.995	19.997	100.030	20.125	0.467	0.509
1071.502	614.535	79.996	19.997	100.030	20.125	0.504	0.489
1072.001	614.770	79.994	19.998	100.029	20.122	0.738	0.487
1072.500	615.025	79.995	19.997	100.025	20.124	0.582	0.495
1073.000	615.279	79.996	19.997	100.025	20.123	0.624	0.499
1073.500	615.521	79.995	19.998	100.025	20.125	0.491	0.502
1074.000	615.780	79.995	19.997	100.028	20.127	0.313	0.498
1074.500	616.057	79.996	19.997	100.028	20.124	0.551	0.519
1075.000	616.286	79.994	19.998	100.028	20.122	0.740	0.521
1075.500	616.567	79.995	19.998	100.024	20.125	0.473	0.508
1076.000	616.793	79.993	19.996	100.021	20.124	0.569	0.509
1076.500	617.047	79.995	19.997	100.016	20.124	0.569	0.494
1077.000	617.314	79.993	19.997	100.018	20.125	0.473	0.501
1077.500	617.575	79.994	19.996	100.022	20.122	0.738	0.525
1078.000	617.829	79.994	19.998	100.025	20.126	0.382	0.522
1078.500	618.071	79.994	19.998	100.032	20.126	0.433	0.506
1079.000	618.335	79.994	19.997	100.039	20.121	0.764	0.501
1079.500	618.593	79.995	19.998	100.045	20.125	0.504	0.514
1080.000	618.862	79.995	19.998	100.045	20.124	0.580	0.524
1080.500	619.135	79.995	19.997	100.045	20.123	0.611	0.534
1081.000	619.362	79.995	19.998	100.046	20.124	0.584	0.521
1081.501	619.626	79.995	19.997	100.046	20.124	0.547	0.496
1082.001	619.906	79.996	19.997	100.046	20.122	0.695	0.517
1082.500	620.178	79.996	19.998	100.048	20.123	0.629	0.547
1083.000	620.416	79.996	19.997	100.051	20.122	0.715	0.531
1083.500	620.670	79.996	19.998	100.051	20.123	0.609	0.501
1084.000	620.910	79.996	19.997	100.049	20.125	0.453	0.493
1084.500	621.175	79.995	19.998	100.048	20.125	0.447	0.500
1085.000	621.451	79.996	19.998	100.045	20.126	0.369	0.523
1085.500	621.700	79.997	19.998	100.045	20.129	0.149	0.533
1086.000	621.954	79.996	19.998	100.045	20.129	0.149	0.514
1086.500	622.207	79.997	19.999	100.041	20.125	0.518	0.505
1087.000	622.502	79.997	19.998	100.034	20.130	0.071	0.527
1087.500	622.737	79.996	19.998	100.033	20.129	0.164	0.539
1088.000	623.028	79.997	19.997	100.032	20.126	0.369	0.528
1088.500	623.280	79.997	19.997	100.032	20.125	0.442	0.535
1089.000	623.523	79.995	19.998	100.033	20.124	0.567	0.519
1089.500	623.823	79.997	19.997	100.035	20.126	0.398	0.519
1090.000	624.013	79.996	19.997	100.038	20.125	0.504	0.516
1090.500	624.305	79.996	19.996	100.036	20.126	0.360	0.486
1091.000	624.588	79.996	19.996	100.036	20.124	0.522	0.529
1091.500	624.856	79.996	19.997	100.038	20.126	0.380	0.563
1092.000	625.107	79.997	19.997	100.042	20.123	0.627	0.535
1092.500	625.378	79.997	19.997	100.038	20.124	0.522	0.521
1093.000	625.611	79.995	19.996	100.036	20.125	0.478	0.513
1093.500	625.895	79.997	19.996	100.035	20.127	0.358	0.510
1094.000	626.157	79.998	19.995	100.037	20.125	0.504	0.532
1094.500	626.441	79.996	19.996	100.039	20.125	0.500	0.546
1095.000	626.653	79.997	19.998	100.043	20.128	0.236	0.521
1095.500	626.926	79.994	19.996	100.047	20.124	0.575	0.491
1096.000	627.165	79.996	19.997	100.046	20.123	0.651	0.499
1096.500	627.453	79.997	19.996	100.045	20.126	0.427	0.519
1097.000	627.715	79.997	19.996	100.045	20.126	0.413	0.539
1097.500	627.986	79.997	19.996	100.046	20.122	0.687	0.542
1098.000	628.245	79.996	19.996	100.047	20.126	0.389	0.531
1098.500	628.562	79.996	19.996	100.049	20.124	0.544	0.553
1099.000	628.805	79.996	19.996	100.051	20.123	0.633	0.568
1099.500	629.086	79.998	19.996	100.052	20.126	0.367	0.542
1100.000	629.330	79.996	19.996	100.052	20.123	0.613	0.525
1100.500	629.573	79.996	19.997	100.051	20.125	0.475	0.506
1101.000	629.866	79.996	19.996	100.052	20.124	0.527	0.511
1101.500	630.115	79.997	19.996	100.047	20.123	0.635	0.538
1102.000	630.335	79.997	19.996	100.047	20.127	0.342	0.506
1102.500	630.625	79.997	19.996	100.045	20.125	0.484	0.490
1103.000	630.906	79.997	19.996	100.046	20.125	0.464	0.541
1103.500	631.152	79.997	19.997	100.046	20.126	0.438	0.549
1104.000	631.410	79.997	19.996	100.050	20.124	0.571	0.515
1104.500	631.664	79.996	19.996	100.047	20.128	0.218	0.508
1105.000	631.915	79.998	19.996	100.049	20.125	0.453	0.509
1105.500	632.175	79.998	19.996	100.047	20.129	0.198	0.508
1106.000	632.434	79.997	19.997	100.042	20.126	0.389	0.515
1106.500	632.719	79.997	19.995	100.040	20.123	0.604	0.532
1107.000	632.980	79.998	19.995	100.041	20.125	0.464	0.545
1107.500	633.223	79.997	19.996	100.037	20.124	0.549	0.525
1108.000	633.494	79.997	19.996	100.036	20.123	0.653	0.509
1108.500	633.750	79.998	19.995	100.040	20.126	0.411	0.520
1109.000	633.998	79.998	19.996	100.041	20.125	0.515	0.515
1109.500	634.264	79.997	19.995	100.041	20.126	0.438	0.509
1110.000	634.519	79.998	19.997	100.041	20.128	0.256	0.517
1110.500	634.791	79.999	19.996	100.042	20.124	0.549	0.524
1111.000	635.088	79.999	19.997	100.041	20.125	0.469	0.548
1111.500	635.338	79.998	19.996	100.039	20.124	0.556	0.558
1112.000	635.569	79.997	19.995	100.034	20.124	0.527	0.514
1112.500	635.851	79.998	19.996	100.030	20.126	0.380	0.497
1113.000	636.118	79.999	19.996	100.025	20.126	0.440	0.531
1113.500	636.376	79.997	19.996	100.022	20.128	0.207	0.537
1114.000	636.642	79.999	19.996	100.020	20.128	0.267	0.525
1114.500	636.902	79.998	19.996	100.023	20.127	0.342	0.525
1115.000	637.134	79.996	19.996	100.027	20.126	0.378	0.509
1115.500	637.411	79.997	19.997	100.028	20.129	0.129	0.501
1116.000	637.667	79.998	19.996	100.025	20.128	0.256	0.521
1116.500	637.970	79.998	19.995	100.028	20.128	0.207	0.546
1117.000	638.189	79.997	19.996	100.031	20.129	0.189	0.541
1117.500	638.454	79.995	19.996	100.032	20.126	0.420	0.503
1118.001	638.740	79.997	19.996	100.033	20.126	0.400	0.518
1118.500	639.005	79.998	19.996	100.037	20.129	0.167	0.551
1119.000	639.240	79.996	19.996	100.034	20.128	0.242	0.525
1119.500	639.479	79.996	19.996	100.037	20.128	0.260	0.487
1120.000	639.758	79.995	19.994	100.041	20.130	0.078	0.496
1120.500	640.023	79.994	19.997	100.045	20.131	-0.020	0.531
1121.000	640.275	79.996	19.998	100.048	20.128	0.204	0.531
1121.500	640.523	79.994	19.996	100.052	20.128	0.209	0.508
1122.000	640.795	79.997	19.998	100.051	20.129	0.131	0.510
1122.500	641.039	79.996	19.998	100.051	20.130	0.071	0.518
1123.000	641.300	79.996	19.998	100.051	20.128	0.204	0.511
1123.500	641.546	79.996	19.998	100.045	20.128	0.202	0.506
1124.000	641.810	79.996	19.996	100.042	20.130	0.082	0.508
1124.500	642.097	79.995	19.997	100.042	20.131	-0.011	0.531
1125.000	642.347	79.996	19.997	100.041	20.132	-0.069	0.544
1125.500	642.625	79.997	19.997	100.040	20.129	0.140	0.533
1126.000	642.854	79.995	19.997	100.045	20.129	0.140	0.517
1126.500	643.096	79.995	19.996	100.051	20.131	0.009	0.489
1127.000	643.374	79.997	19.995	100.052	20.130	0.104	0.496
1127.500	643.613	79.996	19.997	100.048	20.131	-0.009	0.519
1128.000	643.883	79.997	19.996	100.048	20.133	-0.189	0.513
1128.500	644.150	79.998	19.996	100.048	20.131	0.018	0.523
1129.000	644.389	79.995	19.996	100.042	20.131	-0.044	0.522
1129.500	644.656	79.997	19.997	100.041	20.131	-0.022	0.506
1130.000	644.887	79.995	19.996	100.038	20.132	-0.051	0.501
1130.500	645.144	79.996	19.995	100.036	20.131	-0.044	0.493
1131.000	645.347	79.996	19.996	100.030	20.134	-0.256	0.475
1131.500	645.630	79.995	19.996	100.030	20.132	-0.064	0.473
1132.001	645.894	79.997	19.996	100.027	20.132	-0.120	0.516
1132.500	646.140	79.997	19.997	100.031	20.135	-0.344	0.529
1133.000	646.380	79.996	19.997	100.030	20.131	0.013	0.498
1133.500	646.657	79.996	19.996	100.034	20.132	-0.078	0.501
1134.000	646.896	79.995	19.996	100.036	20.135	-0.320	0.516
1134.500	647.154	79.997	19.996	100.037	20.135	-0.289	0.507
1135.000	647.377	79.995	19.996	100.038	20.132	-0.069	0.489
1135.500	647.635	79.996	19.996	100.039	20.131	-0.007	0.481
1136.000	647.893	79.996	19.996	100.039	20.134	-0.220	0.499
1136.500	648.141	79.998	19.997	100.036	20.133	-0.138	0.511
1137.000	648.380	79.997	19.996	100.037	20.132	-0.051	0.497
1137.500	648.623	79.996	19.995	100.036	20.132	-0.124	0.485
1138.000	648.884	79.997	19.997	100.031	20.135	-0.349	0.493
1138.500	649.113	79.997	19.997	100.027	20.129	0.171	0.497
1139.000	649.381	79.996	19.996	100.025	20.132	-0.080	0.494
1139.500	649.656	79.998	19.996	100.022	20.133	-0.191	0.520
1140.000	649.906	79.996	19.996	100.020	20.134	-0.238	0.534
1140.500	650.176	79.996	19.996	100.027	20.134	-0.229	0.522
1141.000	650.404	79.995	19.998	100.034	20.131	0.027	0.509
1141.500	650.691	79.995	19.997	100.040	20.132	-0.060	0.507
1142.000	650.905	79.995	19.996	100.045	20.136	-0.400	0.508
1142.500	651.145	79.996	19.998	100.048	20.135	-0.315	0.478
1143.000	651.391	79.996	19.996	100.046	20.135	-0.355	0.470
1143.500	651.672	79.996	19.998	100.042	20.137	-0.518	0.506
1144.000	651.915	79.996	19.997	100.038	20.138	-0.551	0.526
1144.500	652.107	79.997	19.997	100.033	20.137	-0.520	0.480
1145.000	652.387	79.995	19.997	100.031	20.138	-0.607	0.454
1145.500	652.671	79.995	19.997	100.031	20.134	-0.251	0.518
1146.000	652.905	79.996	19.997	100.030	20.132	-0.124	0.541
1146.500	653.160	79.997	19.997	100.033	20.134	-0.260	0.503
1147.000	653.386	79.994	19.997	100.035	20.137	-0.520	0.485
1147.500	653.638	79.994	19.997	100.032	20.138	-0.571	0.480
1148.000	653.918	79.995	19.998	100.034	20.134	-0.282	0.505
1148.500	654.134	79.996	19.996	100.037	20.139	-0.622	0.514
1149.000	654.375	79.995	19.998	100.039	20.134	-0.213	0.477
1149.500	654.684	79.995	19.997	100.041	20.135	-0.311	0.503
1150.000	654.899	79.996	19.998	100.042	20.135	-0.289	0.537
1150.500	655.139	79.995	19.997	100.039	20.136	-0.369	0.490
1151.000	655.398	79.996	19.997	100.039	20.136	-0.389	0.477
1151.500	655.672	79.994	19.997	100.032	20.135	-0.362	0.516
1152.000	655.916	79.997	19.996	100.030	20.135	-0.335	0.526
1152.500	656.140	79.994	19.997	100.029	20.137	-0.518	0.492
1153.000	656.426	79.995	19.997	100.027	20.133	-0.169	0.488
1153.500	656.633	79.995	19.996	100.022	20.135	-0.309	0.501
1154.000	656.916	79.996	19.997	100.022	20.134	-0.249	0.492
1154.501	657.160	79.995	19.997	100.021	20.137	-0.498	0.509
1155.001	657.394	79.995	19.997	100.026	20.137	-0.478	0.503
1155.500	657.626	79.996	19.997	100.029	20.137	-0.453	0.472
1156.000	657.941	79.996	19.997	100.036	20.138	-0.569	0.506
1156.500	658.164	79.995	19.997	100.042	20.136	-0.429	0.542
1157.000	658.409	79.995	19.997	100.041	20.134	-0.282	0.503
1157.500	658.674	79.996	19.996	100.038	20.135	-0.320	0.490
1158.000	658.933	79.994	19.997	100.040	20.131	-0.040	0.517
1158.500	659.179	79.995	19.998	100.039	20.133	-0.160	0.514
1159.000	659.420	79.995	19.996	100.039	20.137	-0.456	0.496
1159.500	659.679	79.996	19.997	100.045	20.138	-0.556	0.493
1160.001	659.927	79.996	19.997	100.042	20.135	-0.320	0.503
1160.500	660.185	79.996	19.997	100.040	20.135	-0.289	0.507
1161.000	660.437	79.998	19.996	100.038	20.133	-0.205	0.509
1161.500	660.691	79.996	19.997	100.036	20.133	-0.202	0.508
1162.000	660.946	79.995	19.997	100.030	20.131	0.033	0.507
1162.500	661.176	79.996	19.997	100.029	20.135	-0.304	0.497
1163.000	661.500	79.997	19.997	100.026	20.136	-0.427	0.519
1163.500	661.729	79.995	19.995	100.022	20.135	-0.291	0.553
1164.000	661.969	79.996	19.997	100.021	20.135	-0.309	0.511
1164.500	662.226	79.997	19.996	100.025	20.135	-0.304	0.483
1165.001	662.471	79.996	19.996	100.027	20.133	-0.138	0.500
1165.501	662.696	79.997	19.997	100.034	20.133	-0.198	0.486
1166.000	662.965	79.996	19.997	100.038	20.133	-0.131	0.482
1166.500	663.176	79.997	19.997	100.030	20.133	-0.129	0.487
1167.000	663.430	79.997	19.997	99.995	20.137	-0.482	0.473
1167.500	663.689	79.997	19.997	99.975	20.136	-0.387	0.489
1168.000	663.941	79.997	19.998	99.961	20.136	-0.438	0.512
1168.500	664.197	79.996	19.997	99.959	20.139	-0.629	0.510
1169.000	664.471	79.997	19.997	99.972	20.135	-0.315	0.519
1169.500	664.707	79.997	19.997	100.014	20.135	-0.358	0.520
1170.000	664.986	79.995	19.997	100.073	20.136	-0.440	0.513
1170.500	665.228	79.997	19.997	100.093	20.136	-0.436	0.518
1171.000	665.446	79.996	19.996	100.098	20.141	-0.829	0.490
1171.500	665.697	79.996	19.997	100.097	20.141	-0.804	0.465
1172.000	665.950	79.997	19.997	100.091	20.141	-0.778	0.487
1172.500	666.221	79.996	19.997	100.056	20.140	-0.758	0.514
1173.000	666.443	79.995	19.997	100.049	20.141	-0.831	0.508
1173.500	666.741	79.995	19.997	100.048	20.143	-0.942	0.506
1174.001	666.985	79.997	19.996	100.043	20.139	-0.631	0.531
1174.501	667.233	79.997	19.997	100.041	20.143	-0.969	0.517
1175.000	667.480	79.995	19.996	100.041	20.143	-0.962	0.494
1175.500	667.724	79.994	19.997	100.039	20.139	-0.686	0.493
1176.000	667.972	79.996	19.997	100.036	20.140	-0.762	0.491
1176.500	668.248	79.996	19.997	100.035	20.139	-0.615	0.508
1177.000	668.496	79.995	19.997	100.033	20.142	-0.882	0.524
1177.500	668.725	79.995	19.996	100.029	20.141	-0.838	0.500
1178.000	668.991	79.996	19.996	100.025	20.142	-0.862	0.486
1178.500	669.275	79.996	19.996	100.023	20.141	-0.840	0.523
1179.000	669.524	79.996	19.996	100.031	20.141	-0.782	0.542
1179.500	669.768	79.996	19.995	100.034	20.142	-0.880	0.513
1180.000	670.001	79.997	19.996	100.037	20.140	-0.707	0.484
1180.500	670.256	79.997	19.996	100.040	20.138	-0.564	0.482
1181.000	670.476	79.997	19.997	100.045	20.141	-0.773	0.482
1181.500	670.777	79.997	19.996	100.043	20.138	-0.589	0.498
1182.000	671.035	79.995	19.996	100.043	20.136	-0.402	0.540
1182.500	671.282	79.998	19.996	100.041	20.143	-0.942	0.532
1183.000	671.540	79.996	19.996	100.038	20.140	-0.753	0.505
1183.500	671.750	79.998	19.995	100.038	20.135	-0.320	0.486
1184.000	672.046	79.998	19.997	100.038	20.138	-0.584	0.487
1184.500	672.297	79.998	19.997	100.035	20.138	-0.535	0.526
1185.000	672.545	79.997	19.996	100.033	20.136	-0.447	0.523
1185.500	672.849	79.998	19.997	100.036	20.139	-0.651	0.526
1186.000	673.106	79.998	19.996	100.031	20.138	-0.589	0.557
1186.500	673.336	79.999	19.995	100.025	20.137	-0.502	0.524
1187.000	673.601	79.999	19.997	100.023	20.139	-0.684	0.491
1187.500	673.836	79.999	19.996	100.025	20.141	-0.777	0.498
1188.000	674.082	79.997	19.995	100.025	20.136	-0.438	0.491
1188.500	674.361	79.997	19.995	100.029	20.137	-0.471	0.503
1189.000	674.617	79.998	19.996	100.036	20.137	-0.509	0.530
1189.500	674.877	79.999	19.995	100.041	20.139	-0.671	0.526
1190.000	675.143	79.999	19.995	100.041	20.142	-0.873	0.521
1190.500	675.408	80.000	19.997	100.041	20.140	-0.771	0.528
1191.000	675.659	79.999	19.995	100.042	20.141	-0.822	0.523
1191.500	675.883	79.999	19.996	100.039	20.140	-0.715	0.496
1192.000	676.140	79.998	19.995	100.033	20.142	-0.858	0.478
1192.500	676.391	80.000	19.996	100.029	20.141	-0.789	0.494
1193.000	676.659	79.999	19.996	100.024	20.142	-0.895	0.513
1193.500	676.921	79.998	19.996	100.022	20.141	-0.786	0.525
1194.000	677.151	79.998	19.996	100.025	20.141	-0.815	0.511
1194.500	677.384	79.998	19.996	100.026	20.144	-1.040	0.477
1195.000	677.632	79.998	19.996	100.027	20.139	-0.684	0.472
1195.500	677.909	79.998	19.997	100.033	20.141	-0.824	0.503
1196.000	678.151	79.997	19.997	100.028	20.141	-0.773	0.522
1196.500	678.380	79.998	19.997	100.020	20.140	-0.693	0.495
1197.000	678.663	79.998	19.996	100.019	20.141	-0.822	0.492
1197.500	678.904	79.997	19.997	100.019	20.142	-0.929	0.518
1198.000	679.128	79.996	19.996	100.013	20.142	-0.904	0.494
1198.500	679.380	79.995	19.996	100.013	20.144	-1.077	0.471
1199.000	679.634	79.996	19.997	100.016	20.141	-0.824	0.491
1199.500	679.904	79.994	19.997	100.017	20.140	-0.753	0.515
1200.000	680.156	79.996	19.997	100.017	20.144	-1.035	0.523
1200.500	680.416	79.996	19.996	100.020	20.142	-0.873	0.517
1201.000	680.647	79.995	19.996	100.025	20.139	-0.671	0.501
1201.500	680.921	79.996	19.997	100.028	20.143	-0.940	0.498
1202.000	681.134	79.996	19.997	100.029	20.141	-0.784	0.496
1202.500	681.387	79.995	19.996	100.028	20.142	-0.889	0.477
1203.000	681.681	79.995	19.997	100.026	20.141	-0.789	0.506
1203.500	681.935	79.995	19.996	100.023	20.138	-0.564	0.548
1204.000	682.192	79.996	19.996	100.022	20.138	-0.573	0.530
1204.500	682.418	79.996	19.996	100.027	20.139	-0.613	0.497
1205.000	682.701	79.996	19.996	100.030	20.139	-0.638	0.495
1205.500	682.941	79.997	19.997	100.029	20.140	-0.706	0.516
1206.000	683.212	79.997	19.997	100.030	20.139	-0.669	0.517
1206.500	683.479	79.996	19.995	100.027	20.139	-0.649	0.525
1207.000	683.721	79.996	19.997	100.021	20.143	-0.958	0.524
1207.500	684.014	79.997	19.997	100.018	20.140	-0.771	0.522
1208.000	684.266	79.996	19.997	100.020	20.142	-0.880	0.539
1208.500	684.484	79.996	19.996	100.019	20.142	-0.889	0.507
1209.000	684.765	79.996	19.997	100.024	20.142	-0.922	0.485
1209.500	685.033	79.996	19.998	100.028	20.142	-0.931	0.524
1210.000	685.281	79.996	19.997	100.030	20.144	-1.049	0.533
1210.500	685.483	79.996	19.996	100.029	20.143	-1.002	0.483
1211.000	685.784	79.996	19.997	100.030	20.141	-0.818	0.477
1211.500	686.083	79.996	19.997	100.029	20.143	-0.938	0.551
1212.000	686.317	79.997	19.996	100.029	20.144	-1.044	0.566
1212.500	686.573	79.996	19.997	100.030	20.139	-0.642	0.511
1213.000	686.812	79.997	19.996	100.030	20.141	-0.806	0.493
1213.500	687.081	79.996	19.996	100.032	20.141	-0.817	0.502
1214.000	687.362	79.998	19.997	100.032	20.144	-1.084	0.530
1214.500	687.595	79.996	19.994	100.031	20.139	-0.638	0.532
1215.000	687.837	79.996	19.997	100.029	20.142	-0.889	0.494
1215.500	688.095	79.996	19.995	100.029	20.142	-0.873	0.488
1216.000	688.372	79.996	19.997	100.030	20.141	-0.849	0.518
1216.500	688.599	79.996	19.995	100.030	20.141	-0.815	0.519
1217.000	688.888	79.996	19.995	100.031	20.142	-0.920	0.510
1217.500	689.155	79.996	19.996	100.031	20.141	-0.851	0.536
1218.000	689.367	79.996	19.997	100.028	20.143	-0.946	0.517
1218.500	689.653	79.997	19.996	100.027	20.140	-0.738	0.488
1219.000	689.922	79.996	19.995	100.025	20.143	-0.982	0.527
1219.501	690.201	79.995	19.995	100.025	20.141	-0.778	0.552
1220.001	690.411	79.996	19.996	100.030	20.142	-0.882	0.518
1220.500	690.696	79.996	19.995	100.036	20.140	-0.735	0.492
1221.000	690.963	79.998	19.997	100.034	20.142	-0.926	0.524
1221.500	691.206	79.996	19.996	100.035	20.142	-0.877	0.531
1222.000	691.468	79.996	19.996	100.032	20.146	-1.200	0.507
1222.500	691.746	79.996	19.997	100.028	20.140	-0.722	0.523
1223.000	691.989	79.995	19.996	100.022	20.142	-0.886	0.531
1223.500	692.258	79.997	19.996	100.021	20.141	-0.840	0.517
1224.000	692.537	79.996	19.997	100.018	20.140	-0.702	0.530
1224.500	692.791	79.996	19.996	100.018	20.142	-0.880	0.541
1225.000	693.062	79.995	19.997	100.019	20.139	-0.624	0.529
1225.500	693.292	79.995	19.996	100.021	20.140	-0.718	0.513
1226.000	693.544	79.996	19.996	100.025	20.139	-0.678	0.491
1226.500	693.833	79.996	19.996	100.030	20.142	-0.880	0.511
1227.000	694.053	79.994	19.996	100.032	20.143	-0.960	0.525
1227.500	694.310	79.993	19.997	100.035	20.142	-0.911	0.493
1228.000	694.629	79.994	19.996	100.038	20.145	-1.113	0.527
1228.500	694.860	79.995	19.997	100.035	20.141	-0.780	0.563
1229.000	695.127	79.996	19.996	100.035	20.143	-0.949	0.524
1229.500	695.385	79.993	19.996	100.038	20.141	-0.809	0.512
1230.000	695.624	79.993	19.997	100.038	20.141	-0.800	0.511
1230.500	695.934	79.994	19.997	100.035	20.142	-0.875	0.523
1231.000	696.184	79.994	19.996	100.032	20.141	-0.831	0.554
1231.500	696.445	79.995	19.998	100.028	20.145	-1.100	0.535
1232.000	696.710	79.994	19.996	100.023	20.143	-1.002	0.519
1232.500	696.940	79.995	19.998	100.019	20.143	-0.995	0.511
1233.000	697.205	79.995	19.997	100.018	20.142	-0.875	0.495
1233.500	697.472	79.994	19.997	100.020	20.141	-0.811	0.514
1234.000	697.743	79.993	19.996	100.020	20.140	-0.755	0.535
1234.500	697.985	79.994	19.997	100.022	20.139	-0.660	0.525
1235.000	698.252	79.994	19.997	100.023	20.140	-0.735	0.511
1235.500	698.447	79.995	19.996	100.022	20.142	-0.864	0.485
1236.000	698.781	79.994	19.997	100.021	20.141	-0.775	0.495
1236.500	698.975	79.995	19.996	100.020	20.142	-0.893	0.528
1237.000	699.248	79.996	19.997	100.018	20.144	-1.095	0.498
1237.500	699.485	79.996	19.997	100.018	20.141	-0.789	0.489
1238.000	699.736	79.995	19.996	100.019	20.144	-1.055	0.499
1238.500	700.005	79.996	19.997	100.019	20.140	-0.751	0.504
1239.000	700.247	79.995	19.996	100.023	20.139	-0.669	0.516
1239.500	700.522	79.995	19.997	100.025	20.140	-0.704	0.514
1240.000	700.757	79.996	19.996	100.024	20.141	-0.829	0.514
1240.500	701.020	79.997	19.997	100.023	20.136	-0.411	0.505
1241.000	701.283	79.996	19.996	100.026	20.141	-0.775	0.512
1241.500	701.554	79.997	19.996	100.030	20.143	-0.991	0.530
1242.000	701.792	79.996	19.996	100.029	20.142	-0.871	0.521
1242.500	702.061	79.996	19.996	100.029	20.140	-0.760	0.508
1243.000	702.306	79.996	19.996	100.030	20.140	-0.704	0.510
1243.500	702.552	79.997	19.997	100.032	20.142	-0.911	0.502
1244.000	702.801	79.997	19.996	100.031	20.141	-0.782	0.493
1244.500	703.052	79.998	19.996	100.034	20.139	-0.642	0.498
1245.000	703.360	79.996	19.997	100.039	20.139	-0.611	0.530
1245.500	703.606	79.999	19.997	100.041	20.138	-0.573	0.556
1246.000	703.868	79.997	19.995	100.036	20.137	-0.453	0.530
1246.500	704.078	79.997	19.996	100.029	20.137	-0.518	0.490
1247.000	704.389	79.997	19.997	100.024	20.140	-0.698	0.497
1247.500	704.586	79.996	19.997	100.020	20.139	-0.675	0.514
1248.000	704.832	79.998	19.997	100.017	20.137	-0.520	0.476
1248.500	705.115	79.996	19.997	100.020	20.136	-0.373	0.486
1249.000	705.365	79.997	19.997	100.024	20.137	-0.507	0.531
1249.500	705.613	79.997	19.997	100.024	20.137	-0.504	0.515
1250.000	705.911	79.996	19.996	100.026	20.137	-0.498	0.522
1250.500	706.170	79.998	19.997	100.031	20.138	-0.562	0.552
1251.000	706.453	79.996	19.996	100.032	20.135	-0.320	0.550
1251.500	706.678	79.998	19.997	100.029	20.139	-0.633	0.525
1252.000	706.957	79.996	19.996	100.035	20.134	-0.233	0.506
1252.501	707.232	79.997	19.997	100.036	20.136	-0.424	0.529
1253.002	707.452	79.996	19.997	100.036	20.134	-0.224	0.524
1253.501	707.708	79.997	19.998	100.036	20.138	-0.604	0.485
1254.000	707.947	79.995	19.998	100.042	20.138	-0.587	0.485
1254.500	708.248	79.996	19.998	100.043	20.137	-0.518	0.518
1255.000	708.483	79.996	19.998	100.046	20.135	-0.311	0.538
1255.500	708.786	79.996	19.997	100.044	20.137	-0.502	0.537
1256.000	709.047	79.996	19.997	100.040	20.135	-0.367	0.551
1256.500	709.315	79.997	19.998	100.032	20.137	-0.487	0.547
1257.000	709.531	79.999	19.997	100.023	20.136	-0.395	0.506
1257.501	709.773	79.997	19.998	100.019	20.137	-0.495	0.471
1258.001	710.059	79.998	19.998	100.018	20.135	-0.309	0.493
1258.501	710.284	79.997	19.998	100.019	20.137	-0.509	0.520
1259.000	710.561	79.995	19.998	100.023	20.134	-0.280	0.507
1259.500	710.819	79.996	19.998	100.026	20.138	-0.564	0.519
1260.000	711.071	79.996	19.998	100.028	20.138	-0.553	0.523
1260.500	711.356	79.998	19.997	100.027	20.138	-0.558	0.524
1261.000	711.598	79.997	19.997	100.028	20.137	-0.502	0.532
1261.500	711.860	79.994	19.997	100.025	20.135	-0.367	0.515
1262.000	712.125	79.997	19.999	100.023	20.137	-0.480	0.516
1262.500	712.380	79.997	19.997	100.020	20.140	-0.722	0.524
1263.000	712.644	79.997	19.997	100.025	20.136	-0.391	0.519
1263.500	712.890	79.998	19.997	100.027	20.141	-0.800	0.514
1264.000	713.134	79.997	19.996	100.029	20.138	-0.542	0.500
1264.500	713.381	79.998	19.996	100.031	20.139	-0.669	0.490
1265.000	713.636	79.999	19.997	100.031	20.139	-0.684	0.496
1265.500	713.927	79.999	19.997	100.025	20.137	-0.515	0.524
1266.000	714.208	79.997	19.997	100.024	20.136	-0.447	0.559
1266.500	714.431	79.999	19.996	100.026	20.138	-0.578	0.538
1267.000	714.700	79.999	19.996	100.026	20.139	-0.615	0.498
1267.500	714.976	79.999	19.996	100.026	20.135	-0.353	0.519
1268.000	715.229	79.999	19.996	100.026	20.139	-0.653	0.537
1268.500	715.495	79.999	19.998	100.023	20.137	-0.462	0.524
1269.000	715.750	79.999	19.997	100.019	20.138	-0.604	0.519
1269.500	715.979	79.998	19.997	100.017	20.139	-0.669	0.503
1270.000	716.230	79.998	19.996	100.017	20.137	-0.509	0.482
1270.500	716.523	79.999	19.997	100.019	20.138	-0.571	0.512
1271.000	716.792	80.000	19.997	100.023	20.139	-0.682	0.553
1271.500	717.029	79.999	19.997	100.025	20.139	-0.680	0.534
1272.000	717.299	79.998	19.997	100.026	20.141	-0.811	0.507
1272.500	717.548	79.999	19.996	100.027	20.136	-0.382	0.513
1273.000	717.770	79.998	19.997	100.026	20.139	-0.680	0.495
1273.500	718.050	79.998	19.997	100.025	20.139	-0.633	0.487
1274.000	718.309	79.997	19.995	100.023	20.139	-0.658	0.521
1274.500	718.610	79.998	19.997	100.020	20.139	-0.615	0.549
1275.000	718.811	79.997	19.997	100.019	20.140	-0.769	0.531
1275.500	719.051	79.996	19.996	100.022	20.139	-0.631	0.471
1276.000	719.349	79.996	19.996	100.019	20.137	-0.522	0.489
1276.500	719.591	79.997	19.997	100.019	20.141	-0.822	0.539
1277.000	719.848	79.996	19.996	100.019	20.138	-0.591	0.520
1277.501	720.103	79.996	19.996	100.019	20.140	-0.769	0.505
1278.001	720.313	79.997	19.995	100.018	20.137	-0.453	0.488
1278.500	720.610	79.997	19.996	100.018	20.135	-0.353	0.486
1279.000	720.852	79.996	19.996	100.020	20.136	-0.409	0.523
1279.500	721.084	79.996	19.996	100.021	20.139	-0.651	0.507
1280.000	721.366	79.995	19.997	100.024	20.140	-0.713	0.494
1280.501	721.608	79.996	19.996	100.027	20.143	-0.940	0.519
1281.001	721.867	79.996	19.996	100.031	20.141	-0.835	0.512
1281.500	722.125	79.996	19.997	100.033	20.140	-0.729	0.509
1282.000	722.383	79.996	19.997	100.033	20.140	-0.713	0.517
1282.500	722.590	79.996	19.996	100.029	20.138	-0.553	0.491
1283.000	722.853	79.996	19.997	100.023	20.137	-0.451	0.468
1283.500	723.125	79.995	19.996	100.021	20.140	-0.755	0.502
1284.000	723.342	79.995	19.996	100.023	20.141	-0.793	0.512
1284.500	723.612	79.996	19.996	100.028	20.139	-0.655	0.488
1285.000	723.840	79.997	19.997	100.030	20.139	-0.658	0.493
1285.501	724.094	79.995	19.997	100.035	20.140	-0.709	0.490
1286.001	724.352	79.996	19.996	100.036	20.141	-0.826	0.497
1286.500	724.572	79.995	19.997	100.033	20.138	-0.533	0.495
1287.000	724.829	79.995	19.996	100.029	20.139	-0.626	0.477
1287.500	725.116	79.996	19.995	100.032	20.140	-0.724	0.511
1288.000	725.307	79.996	19.996	100.030	20.138	-0.535	0.511
1288.500	725.576	79.994	19.996	100.030	20.135	-0.320	0.469
1289.000	725.814	79.995	19.996	100.032	20.138	-0.531	0.483
1289.501	726.090	79.995	19.995	100.033	20.136	-0.433	0.510
1290.001	726.312	79.995	19.997	100.033	20.136	-0.382	0.506
1290.500	726.568	79.995	19.996	100.030	20.138	-0.562	0.488
1291.000	726.812	79.995	19.995	100.026	20.140	-0.771	0.489
1291.501	727.080	79.995	19.997	100.024	20.139	-0.653	0.506
1292.001	727.328	79.995	19.996	100.027	20.136	-0.449	0.514
1292.500	727.566	79.996	19.996	100.028	20.139	-0.620	0.501
1293.000	727.820	79.995	19.997	100.031	20.139	-0.691	0.489
1293.500	728.101	79.997	19.997	100.032	20.137	-0.522	0.514
1294.000	728.315	79.997	19.997	100.035	20.138	-0.600	0.515
1294.500	728.594	79.995	19.996	100.039	20.136	-0.384	0.494
1295.000	728.815	79.995	19.996	100.038	20.138	-0.598	0.497
1295.500	729.072	79.996	19.996	100.035	20.140	-0.751	0.489
1296.000	729.305	79.995	19.996	100.034	20.138	-0.569	0.484
1296.500	729.571	79.996	19.996	100.030	20.139	-0.658	0.494
1297.000	729.811	79.995	19.996	100.023	20.139	-0.642	0.502
1297.500	730.083	79.995	19.996	100.019	20.139	-0.611	0.509
1298.000	730.287	79.995	19.996	100.022	20.137	-0.453	0.494
1298.501	730.560	79.995	19.996	100.024	20.139	-0.673	0.477
1299.001	730.773	79.995	19.996	100.023	20.140	-0.769	0.482
1299.500	731.025	79.996	19.996	100.024	20.138	-0.582	0.475
1300.000	731.302	79.996	19.996	100.030	20.139	-0.622	0.497
1300.500	731.532	79.995	19.996	100.030	20.135	-0.358	0.518
1301.000	731.778	79.995	19.996	100.029	20.136	-0.380	0.492
1301.500	732.006	79.996	19.995	100.028	20.138	-0.538	0.475
1302.001	732.273	79.995	19.995	100.027	20.135	-0.313	0.485
1302.501	732.515	79.994	19.997	100.023	20.133	-0.200	0.502
1303.000	732.768	79.996	19.996	100.023	20.137	-0.489	0.502
1303.500	733.019	79.995	19.997	100.028	20.135	-0.335	0.499
1304.000	733.263	79.996	19.996	100.030	20.135	-0.353	0.500
1304.500	733.510	79.996	19.997	100.030	20.135	-0.289	0.493
1305.000	733.720	79.995	19.995	100.028	20.134	-0.211	0.474
1305.500	734.043	79.995	19.995	100.026	20.138	-0.555	0.495
1306.000	734.251	79.995	19.997	100.020	20.139	-0.629	0.532
1306.500	734.489	79.995	19.997	100.019	20.135	-0.353	0.488
1307.000	734.771	79.995	19.997	100.019	20.131	-0.036	0.483
1307.500	734.945	79.994	19.997	100.020	20.132	-0.084	0.488
1308.000	735.222	79.994	19.996	100.025	20.135	-0.295	0.454
1308.500	735.473	79.994	19.995	100.032	20.132	-0.109	0.489
1309.000	735.726	79.994	19.996	100.038	20.135	-0.351	0.516
1309.500	735.978	79.996	19.995	100.039	20.135	-0.329	0.505
1310.000	736.220	79.994	19.995	100.038	20.137	-0.478	0.500
1310.500	736.467	79.996	19.995	100.032	20.137	-0.495	0.491
1311.000	736.705	79.995	19.996	100.024	20.137	-0.511	0.487
1311.500	736.934	79.994	19.997	100.017	20.135	-0.367	0.476
1312.000	737.197	79.995	19.996	100.015	20.137	-0.507	0.480
1312.500	737.434	79.995	19.997	100.014	20.137	-0.451	0.496
1313.000	737.677	79.995	19.997	100.015	20.134	-0.287	0.490
1313.500	737.940	79.995	19.998	100.016	20.135	-0.347	0.493
1314.000	738.159	79.995	19.997	100.020	20.136	-0.413	0.494
1314.500	738.435	79.996	19.998	100.020	20.136	-0.375	0.488
1315.001	738.644	79.994	19.997	100.021	20.135	-0.302	0.490
1315.501	738.877	79.995	19.997	100.022	20.132	-0.104	0.464
1316.000	739.154	79.994	19.997	100.024	20.133	-0.195	0.476
1316.500	739.381	79.997	19.997	100.020	20.137	-0.451	0.507
1317.001	739.648	79.996	19.998	100.021	20.135	-0.318	0.499
1317.501	739.883	79.996	19.997	100.021	20.135	-0.338	0.498
1318.000	740.142	79.996	19.996	100.019	20.134	-0.267	0.498
1318.500	740.374	79.996	19.998	100.015	20.137	-0.524	0.492
1319.000	740.632	79.997	19.998	100.014	20.132	-0.116	0.490
1319.500	740.889	79.997	19.997	100.013	20.131	-0.002	0.503
1320.000	741.152	79.997	19.998	100.015	20.134	-0.267	0.518
1320.500	741.403	79.997	19.998	100.015	20.135	-0.329	0.517
1321.000	741.643	79.996	19.997	100.020	20.136	-0.438	0.502
1321.500	741.872	79.997	19.997	100.022	20.135	-0.342	0.481
1322.000	742.148	79.997	19.996	100.026	20.135	-0.327	0.487
1322.500	742.410	79.998	19.997	100.026	20.132	-0.098	0.522
1323.000	742.640	79.998	19.997	100.031	20.136	-0.400	0.515
1323.500	742.907	79.997	19.996	100.030	20.138	-0.542	0.494
1324.000	743.158	79.997	19.998	100.029	20.137	-0.529	0.508
1324.500	743.433	79.997	19.996	100.027	20.138	-0.571	0.522
1325.000	743.714	79.997	19.998	100.029	20.138	-0.538	0.541
