Sample ID:	C:\MCC\MCC Cal\Test\Vinyl_Covering_81A_MCC_30K_min_220302_R1.txt
Sample Weight (mg):	4.6
Heating Rate (C/s):	0.5
Combustor Temp (C):	900
N2 Flow Rate (cc/min):	80
O2 Flow Rate (cc/min):	20
Calibration File:	C:\MCC\MCC Cal\Coeff1 JN10440_30_210304.txt.txt
T Correction Coefficients:	0	1.024463	0
Time Shift (s):	14
*
Time (s)	Temperature (C)	N2 flow rate (cc/min)	O2 flow rate (cc/min)	Flow Rate (cc/min)	Oxygen (%)	HRR (W/g)	Heating rate (C/s)
-0.001	115.463	80.005	19.994	103.597	19.915	0.465	-0.002
0.499	115.522	80.005	19.995	103.598	19.920	0.183	0.024
1.000	115.441	80.017	19.998	103.601	19.918	0.271	0.016
1.500	115.449	80.007	19.998	103.607	19.918	0.311	-0.047
2.000	115.421	80.005	19.998	103.610	19.918	0.263	-0.046
2.500	115.455	80.004	19.997	103.610	19.916	0.417	-0.007
2.999	115.457	80.004	19.996	103.610	19.917	0.356	0.021
3.499	115.451	80.004	19.995	103.608	19.916	0.448	0.016
3.999	115.425	80.003	19.996	103.604	19.916	0.444	-0.018
4.499	115.426	80.004	19.995	103.603	19.917	0.342	-0.028
4.999	115.421	80.004	19.995	103.604	19.913	0.646	-0.015
5.499	115.399	80.004	19.995	103.605	19.916	0.413	-0.016
6.000	115.447	80.004	19.994	103.605	19.914	0.565	-0.001
6.500	115.441	80.005	19.995	103.603	19.918	0.267	0.034
7.000	115.455	80.005	19.993	103.604	19.915	0.490	0.025
7.499	115.439	80.004	19.994	103.606	19.916	0.452	0.003
7.999	115.467	80.005	19.994	103.610	19.918	0.286	0.004
8.499	115.442	80.004	19.995	103.617	19.915	0.535	0.007
9.000	115.487	80.004	19.994	103.621	19.918	0.288	0.012
9.500	115.479	80.005	19.995	103.623	19.915	0.515	0.029
9.999	115.443	80.005	19.994	103.624	19.918	0.267	-0.003
10.499	115.454	80.005	19.994	103.626	19.918	0.265	-0.034
10.999	115.439	80.004	19.993	103.625	19.914	0.604	-0.015
11.499	115.445	80.005	19.994	103.625	19.915	0.487	-0.007
12.000	115.442	80.003	19.995	103.626	19.915	0.475	-0.003
12.501	115.437	80.005	19.996	103.626	19.917	0.373	-0.002
13.000	115.406	80.003	19.995	103.627	19.916	0.420	-0.022
13.500	115.416	80.005	19.994	103.628	19.913	0.655	-0.028
14.000	115.427	80.006	19.993	103.629	19.913	0.622	0.000
14.499	115.378	80.003	19.994	103.629	19.917	0.385	-0.008
14.999	115.425	80.005	19.993	103.628	19.914	0.556	-0.020
15.499	115.434	80.004	19.993	103.623	19.912	0.710	0.027
15.999	115.424	80.005	19.994	103.624	19.913	0.662	0.027
16.499	115.438	80.004	19.992	103.624	19.910	0.870	0.002
16.999	115.417	80.004	19.994	103.627	19.910	0.832	-0.001
17.499	115.429	80.005	19.992	103.632	19.911	0.776	-0.008
17.999	115.416	80.005	19.993	103.641	19.907	1.057	-0.005
18.499	115.431	80.004	19.993	103.646	19.910	0.847	0.000
18.999	115.436	80.004	19.992	103.648	19.910	0.857	0.011
19.500	115.427	80.004	19.993	103.656	19.905	1.229	0.008
20.000	115.452	80.002	19.992	103.668	19.908	0.999	0.006
20.499	115.426	80.005	19.994	103.680	19.903	1.313	0.007
20.999	115.437	80.005	19.995	103.691	19.903	1.348	-0.008
21.499	115.435	80.004	19.994	103.705	19.902	1.410	-0.003
21.999	115.486	80.004	19.993	103.715	19.902	1.441	0.028
22.499	115.490	80.005	19.995	103.724	19.899	1.599	0.052
22.999	115.492	80.006	19.993	103.732	19.901	1.506	0.031
23.499	115.529	80.005	19.993	103.744	19.898	1.701	0.023
23.999	115.543	80.005	19.994	103.757	19.893	2.065	0.045
24.499	115.587	80.005	19.994	103.770	19.896	1.809	0.054
24.999	115.610	80.005	19.994	103.778	19.896	1.851	0.062
25.499	115.585	80.004	19.993	103.785	19.893	2.030	0.033
25.999	115.611	80.004	19.994	103.788	19.893	2.046	0.000
26.499	115.689	80.006	19.993	103.790	19.890	2.286	0.053
26.999	115.708	80.004	19.994	103.790	19.890	2.252	0.100
27.499	115.762	80.005	19.993	103.791	19.887	2.479	0.085
28.000	115.743	80.004	19.994	103.793	19.890	2.236	0.054
28.500	115.797	80.004	19.994	103.794	19.888	2.381	0.035
28.999	115.856	80.005	19.994	103.796	19.886	2.566	0.074
29.499	115.887	80.004	19.993	103.796	19.885	2.640	0.102
29.999	115.936	80.004	19.994	103.797	19.886	2.561	0.085
30.499	115.980	80.004	19.994	103.801	19.885	2.626	0.086
30.999	116.018	80.004	19.993	103.808	19.883	2.732	0.087
31.499	116.085	80.003	19.993	103.813	19.883	2.753	0.093
31.999	116.129	80.005	19.994	103.819	19.881	2.913	0.108
32.499	116.198	80.004	19.995	103.826	19.882	2.856	0.112
32.999	116.210	80.004	19.994	103.829	19.877	3.170	0.097
33.499	116.274	80.005	19.994	103.831	19.877	3.174	0.079
34.000	116.376	80.005	19.994	103.831	19.879	3.003	0.121
34.500	116.403	80.004	19.993	103.831	19.881	2.916	0.148
34.999	116.497	80.003	19.993	103.829	19.878	3.123	0.125
35.499	116.604	80.004	19.993	103.825	19.879	3.043	0.161
35.999	116.641	80.004	19.994	103.825	19.879	3.009	0.173
36.499	116.750	80.004	19.993	103.825	19.875	3.327	0.145
36.999	116.808	80.004	19.993	103.826	19.877	3.154	0.156
37.499	116.878	80.004	19.994	103.830	19.878	3.115	0.147
37.999	116.924	80.004	19.993	103.834	19.876	3.251	0.122
38.499	117.070	80.004	19.994	103.833	19.880	2.961	0.154
38.999	117.116	80.005	19.993	103.831	19.875	3.310	0.192
39.499	117.181	80.004	19.993	103.830	19.874	3.373	0.152
39.999	117.290	80.003	19.994	103.830	19.877	3.154	0.143
40.500	117.352	80.005	19.993	103.807	19.874	3.379	0.172
41.000	117.472	80.003	19.993	103.784	19.876	3.248	0.177
41.499	117.560	80.005	19.994	103.772	19.877	3.163	0.195
41.999	117.652	80.005	19.993	103.765	19.877	3.175	0.194
42.500	117.702	80.006	19.993	103.762	19.875	3.323	0.161
43.000	117.820	80.006	19.993	103.786	19.877	3.144	0.155
43.499	117.934	80.007	19.993	103.809	19.872	3.548	0.200
43.999	118.003	80.006	19.994	103.823	19.872	3.533	0.207
44.499	118.084	80.006	19.992	103.831	19.878	3.132	0.167
44.999	118.202	80.006	19.994	103.834	19.878	3.136	0.175
45.499	118.331	80.005	19.993	103.835	19.875	3.284	0.223
45.999	118.456	80.006	19.992	103.842	19.878	3.076	0.251
46.499	118.527	80.006	19.993	103.869	19.872	3.544	0.225
46.999	118.630	80.006	19.992	103.904	19.876	3.228	0.185
47.500	118.756	80.006	19.993	103.915	19.872	3.507	0.202
48.000	118.837	80.006	19.994	103.920	19.877	3.178	0.218
48.499	119.006	80.007	19.993	103.914	19.874	3.410	0.228
48.999	119.095	80.006	19.993	103.888	19.877	3.178	0.254
49.500	119.204	80.006	19.993	103.858	19.875	3.308	0.227
50.000	119.298	80.006	19.993	103.850	19.878	3.094	0.200
50.499	119.420	80.006	19.993	103.844	19.877	3.179	0.210
50.999	119.542	80.007	19.992	103.845	19.876	3.256	0.230
51.499	119.688	80.006	19.992	103.844	19.875	3.295	0.256
51.999	119.799	80.007	19.993	103.840	19.879	3.061	0.262
52.499	119.956	80.006	19.993	103.837	19.880	2.965	0.263
52.999	120.117	80.007	19.993	103.837	19.880	2.934	0.293
53.499	120.208	80.005	19.992	103.835	19.878	3.142	0.285
54.000	120.296	80.006	19.993	103.836	19.876	3.217	0.216
54.500	120.465	80.006	19.993	103.836	19.882	2.857	0.218
55.000	120.592	80.007	19.993	103.837	19.879	3.028	0.276
55.500	120.704	80.006	19.992	103.835	19.876	3.246	0.267
55.999	120.853	80.006	19.993	103.828	19.879	3.036	0.250
56.499	120.968	80.005	19.993	103.823	19.879	3.038	0.262
56.999	121.110	80.005	19.993	103.822	19.878	3.077	0.260
57.499	121.249	80.006	19.992	103.821	19.879	3.013	0.269
57.999	121.385	80.006	19.994	103.822	19.881	2.888	0.279
58.499	121.537	80.005	19.994	103.829	19.877	3.160	0.281
58.999	121.690	80.007	19.994	103.835	19.877	3.197	0.296
59.499	121.827	80.004	19.993	103.837	19.875	3.349	0.297
60.000	121.937	80.005	19.993	103.840	19.873	3.474	0.269
60.500	122.086	80.006	19.994	103.852	19.875	3.327	0.253
60.999	122.190	80.006	19.993	103.859	19.875	3.327	0.256
61.499	122.369	80.005	19.994	103.862	19.874	3.408	0.268
61.999	122.531	80.006	19.994	103.867	19.874	3.414	0.312
62.500	122.668	80.007	19.993	103.869	19.870	3.661	0.320
63.000	122.832	80.005	19.993	103.858	19.873	3.435	0.300
63.499	122.976	80.005	19.992	103.849	19.871	3.578	0.304
63.999	123.131	80.005	19.994	103.847	19.869	3.763	0.304
64.500	123.241	80.006	19.993	103.843	19.872	3.534	0.282
65.000	123.436	80.004	19.994	103.841	19.874	3.418	0.285
65.499	123.583	80.005	19.994	103.843	19.872	3.543	0.324
65.999	123.749	80.006	19.994	103.845	19.871	3.613	0.328
66.499	123.909	80.005	19.994	103.843	19.867	3.854	0.319
66.999	124.049	80.005	19.994	103.845	19.871	3.622	0.313
67.499	124.198	80.005	19.994	103.848	19.871	3.576	0.295
67.999	124.373	80.005	19.994	103.850	19.870	3.651	0.306
68.499	124.539	80.007	19.994	103.855	19.871	3.576	0.332
68.999	124.665	80.006	19.995	103.860	19.868	3.825	0.317
69.499	124.821	80.006	19.993	103.863	19.873	3.487	0.287
69.999	124.997	80.007	19.994	103.864	19.872	3.530	0.307
70.499	125.182	80.007	19.994	103.864	19.870	3.646	0.346
70.999	125.330	80.005	19.993	103.864	19.869	3.777	0.347
71.499	125.496	80.006	19.994	103.860	19.869	3.723	0.324
72.000	125.690	80.006	19.993	103.857	19.871	3.584	0.338
72.500	125.845	80.006	19.994	103.856	19.865	4.033	0.355
72.999	126.017	80.008	19.993	103.858	19.868	3.844	0.338
73.499	126.171	80.006	19.994	103.860	19.870	3.638	0.326
74.000	126.317	80.008	19.992	103.864	19.869	3.771	0.312
74.500	126.531	80.007	19.992	103.867	19.869	3.711	0.330
74.999	126.639	80.009	19.993	103.864	19.871	3.626	0.341
75.499	126.871	80.008	19.993	103.863	19.870	3.663	0.331
75.999	127.032	80.008	19.993	103.863	19.874	3.380	0.367
76.499	127.172	80.007	19.993	103.863	19.872	3.495	0.347
76.999	127.331	80.007	19.993	103.863	19.869	3.746	0.300
77.499	127.517	80.007	19.993	103.867	19.871	3.621	0.322
77.999	127.707	80.008	19.994	103.868	19.873	3.490	0.361
78.499	127.884	80.007	19.993	103.865	19.870	3.665	0.372
78.999	128.063	80.006	19.995	103.863	19.871	3.586	0.361
79.499	128.231	80.007	19.993	103.861	19.870	3.649	0.352
79.999	128.408	80.005	19.992	103.861	19.873	3.468	0.346
80.499	128.605	80.007	19.993	103.862	19.870	3.705	0.359
80.999	128.756	80.006	19.995	103.864	19.870	3.682	0.361
81.499	128.972	80.006	19.995	103.868	19.871	3.630	0.358
81.999	129.216	80.006	19.995	103.869	19.865	4.023	0.414
82.499	129.366	80.005	19.993	103.869	19.864	4.083	0.427
82.999	129.528	80.005	19.993	103.868	19.863	4.145	0.353
83.499	129.716	80.005	19.993	103.867	19.868	3.844	0.331
83.999	129.924	80.004	19.993	103.867	19.867	3.862	0.373
84.499	130.115	80.005	19.994	103.866	19.865	4.058	0.397
84.999	130.301	80.004	19.995	103.867	19.866	3.956	0.387
85.499	130.520	80.004	19.994	103.868	19.865	4.014	0.391
85.999	130.691	80.005	19.994	103.868	19.864	4.070	0.398
86.499	130.883	80.004	19.993	103.868	19.866	3.960	0.376
86.999	131.069	80.005	19.993	103.868	19.865	3.993	0.370
87.499	131.260	80.004	19.995	103.868	19.865	4.033	0.378
87.999	131.463	80.005	19.995	103.867	19.869	3.767	0.386
88.500	131.683	80.004	19.994	103.867	19.864	4.085	0.408
89.001	131.850	80.003	19.995	103.867	19.867	3.860	0.405
89.500	132.054	80.003	19.995	103.867	19.865	4.014	0.379
89.999	132.277	80.004	19.994	103.867	19.868	3.781	0.399
90.499	132.497	80.004	19.995	103.868	19.864	4.097	0.435
90.999	132.687	80.004	19.995	103.869	19.862	4.230	0.426
91.500	132.887	80.005	19.994	103.869	19.867	3.873	0.401
92.000	133.093	80.003	19.995	103.869	19.867	3.881	0.398
92.499	133.277	80.004	19.994	103.869	19.871	3.623	0.398
92.999	133.462	80.003	19.995	103.869	19.869	3.746	0.379
93.499	133.663	80.004	19.993	103.869	19.867	3.848	0.377
93.999	133.876	80.004	19.995	103.869	19.866	3.952	0.400
94.499	134.071	80.003	19.994	103.870	19.865	4.022	0.411
94.999	134.224	80.004	19.995	103.870	19.868	3.806	0.378
95.499	134.476	80.003	19.994	103.871	19.871	3.621	0.377
96.000	134.679	80.003	19.994	103.871	19.866	3.926	0.430
96.500	134.839	80.003	19.995	103.873	19.869	3.773	0.409
96.999	135.108	80.004	19.995	103.873	19.868	3.847	0.396
97.499	135.299	80.005	19.995	103.876	19.866	3.978	0.445
97.999	135.544	80.005	19.993	103.876	19.862	4.211	0.449
98.499	135.746	80.003	19.994	103.875	19.859	4.421	0.442
98.999	135.943	80.004	19.994	103.875	19.862	4.217	0.422
99.500	136.192	80.004	19.993	103.874	19.866	3.922	0.422
100.001	136.353	80.004	19.995	103.871	19.865	4.057	0.428
100.500	136.582	80.004	19.993	103.871	19.866	3.951	0.400
100.999	136.800	80.005	19.994	103.871	19.863	4.194	0.418
101.499	137.037	80.003	19.994	103.873	19.864	4.128	0.451
101.999	137.239	80.006	19.994	103.874	19.862	4.209	0.447
102.499	137.497	80.003	19.994	103.874	19.860	4.373	0.449
103.000	137.665	80.005	19.994	103.876	19.859	4.442	0.443
103.500	137.882	80.005	19.993	103.878	19.858	4.494	0.406
103.999	138.119	80.006	19.994	103.878	19.860	4.394	0.419
104.499	138.350	80.005	19.993	103.878	19.861	4.303	0.461
104.999	138.560	80.005	19.993	103.878	19.861	4.313	0.454
105.499	138.775	80.005	19.993	103.877	19.862	4.230	0.432
106.000	139.044	80.005	19.993	103.880	19.862	4.246	0.454
106.500	139.261	80.005	19.993	103.882	19.861	4.315	0.485
106.999	139.469	80.005	19.993	103.882	19.861	4.338	0.456
107.499	139.681	80.005	19.993	103.885	19.859	4.419	0.423
107.999	139.838	80.003	19.993	103.889	19.861	4.315	0.395
108.499	140.108	80.006	19.994	103.885	19.862	4.221	0.398
108.999	140.383	80.004	19.993	103.882	19.861	4.296	0.486
109.499	140.611	80.005	19.992	103.883	19.861	4.307	0.524
109.999	140.880	80.005	19.993	103.882	19.859	4.469	0.500
110.500	141.077	80.005	19.993	103.879	19.859	4.439	0.481
111.000	141.341	80.005	19.993	103.883	19.860	4.384	0.463
111.499	141.528	80.004	19.994	103.886	19.862	4.217	0.456
112.000	141.727	80.005	19.994	103.885	19.859	4.440	0.419
112.500	141.956	80.004	19.993	103.888	19.863	4.166	0.407
113.000	142.173	80.004	19.994	103.888	19.858	4.509	0.437
113.500	142.455	80.005	19.994	103.888	19.862	4.241	0.473
113.999	142.706	80.004	19.994	103.888	19.857	4.569	0.516
114.499	142.885	80.003	19.995	103.889	19.862	4.255	0.481
114.999	143.166	80.004	19.994	103.886	19.860	4.361	0.445
115.499	143.395	80.006	19.994	103.884	19.861	4.296	0.485
115.999	143.624	80.004	19.995	103.884	19.858	4.488	0.484
116.499	143.840	80.005	19.995	103.886	19.858	4.540	0.452
117.000	144.071	80.005	19.992	103.889	19.858	4.509	0.446
117.500	144.314	80.003	19.994	103.892	19.858	4.490	0.460
118.000	144.566	80.005	19.994	103.894	19.858	4.542	0.485
118.501	144.796	80.004	19.993	103.892	19.855	4.715	0.489
119.000	145.051	80.004	19.994	103.889	19.859	4.419	0.483
119.500	145.272	80.004	19.992	103.885	19.858	4.550	0.480
120.000	145.533	80.004	19.994	103.888	19.857	4.600	0.479
120.499	145.763	80.005	19.994	103.891	19.862	4.208	0.486
121.000	146.008	80.005	19.993	103.892	19.856	4.648	0.483
121.500	146.284	80.005	19.993	103.890	19.856	4.681	0.498
121.999	146.498	80.005	19.993	103.888	19.855	4.736	0.506
122.499	146.755	80.006	19.993	103.883	19.851	4.977	0.481
122.999	146.983	80.005	19.993	103.878	19.853	4.866	0.478
123.499	147.186	80.005	19.994	103.876	19.852	4.908	0.458
123.999	147.452	80.006	19.993	103.876	19.853	4.895	0.450
124.499	147.735	80.006	19.993	103.876	19.856	4.692	0.509
124.999	147.945	80.005	19.994	103.876	19.852	4.964	0.521
125.499	148.213	80.004	19.993	103.879	19.854	4.765	0.486
126.000	148.429	80.006	19.995	103.884	19.853	4.892	0.481
126.500	148.681	80.005	19.994	103.886	19.853	4.902	0.476
126.999	148.963	80.006	19.994	103.886	19.851	4.999	0.501
127.500	149.220	80.006	19.993	103.883	19.851	4.977	0.537
128.000	149.447	80.006	19.994	103.881	19.852	4.974	0.512
128.500	149.685	80.005	19.993	103.876	19.851	5.020	0.474
129.000	149.930	80.007	19.993	103.873	19.852	4.914	0.473
129.500	150.193	80.007	19.993	103.873	19.852	4.917	0.495
130.000	150.465	80.007	19.993	103.874	19.853	4.869	0.522
130.500	150.700	80.006	19.993	103.873	19.852	4.954	0.521
131.000	150.939	80.007	19.992	103.873	19.854	4.790	0.491
131.500	151.170	80.006	19.993	103.874	19.854	4.767	0.472
132.000	151.448	80.008	19.993	103.874	19.851	5.029	0.490
132.500	151.678	80.006	19.993	103.874	19.854	4.771	0.508
133.000	151.902	80.007	19.993	103.873	19.852	4.916	0.481
133.500	152.161	80.007	19.993	103.875	19.850	5.077	0.468
134.000	152.446	80.008	19.993	103.875	19.854	4.804	0.514
134.500	152.675	80.007	19.993	103.877	19.848	5.199	0.529
135.000	152.949	80.006	19.993	103.878	19.853	4.898	0.509
135.500	153.203	80.006	19.992	103.878	19.849	5.166	0.516
136.000	153.460	80.007	19.993	103.876	19.846	5.347	0.519
136.500	153.662	80.006	19.994	103.875	19.845	5.449	0.485
137.000	153.948	80.006	19.993	103.871	19.848	5.199	0.473
137.500	154.134	80.005	19.993	103.872	19.847	5.276	0.480
138.000	154.461	80.006	19.993	103.875	19.846	5.330	0.493
138.500	154.666	80.006	19.994	103.875	19.849	5.124	0.522
139.000	154.910	80.006	19.993	103.875	19.847	5.297	0.491
139.500	155.148	80.005	19.993	103.875	19.850	5.072	0.466
140.000	155.403	80.005	19.992	103.872	19.846	5.368	0.488
140.500	155.639	80.004	19.993	103.869	19.847	5.257	0.492
141.000	155.911	80.006	19.996	103.869	19.843	5.546	0.499
141.500	156.163	80.006	19.994	103.870	19.842	5.652	0.516
142.000	156.403	80.004	19.994	103.870	19.844	5.524	0.508
142.501	156.689	80.006	19.995	103.870	19.849	5.183	0.509
143.000	156.966	80.005	19.994	103.870	19.845	5.415	0.545
143.499	157.218	80.005	19.994	103.870	19.844	5.530	0.546
143.999	157.458	80.005	19.993	103.870	19.844	5.501	0.511
144.499	157.699	80.006	19.994	103.870	19.846	5.395	0.486
144.999	157.983	80.006	19.994	103.870	19.842	5.657	0.503
145.500	158.226	80.006	19.995	103.870	19.842	5.619	0.526
146.000	158.504	80.006	19.993	103.869	19.843	5.559	0.523
146.499	158.705	80.005	19.993	103.869	19.844	5.468	0.499
146.999	158.986	80.006	19.992	103.869	19.846	5.378	0.481
147.499	159.247	80.005	19.993	103.868	19.844	5.511	0.513
147.999	159.517	80.005	19.993	103.867	19.845	5.403	0.536
148.499	159.718	80.006	19.993	103.867	19.844	5.484	0.501
148.999	160.013	80.006	19.993	103.867	19.846	5.372	0.484
149.500	160.250	80.006	19.993	103.868	19.845	5.464	0.514
150.000	160.520	80.005	19.993	103.869	19.843	5.588	0.519
150.499	160.753	80.006	19.993	103.869	19.840	5.782	0.505
150.999	161.036	80.006	19.993	103.869	19.844	5.486	0.510
151.499	161.315	80.006	19.994	103.869	19.843	5.548	0.539
151.999	161.539	80.006	19.993	103.869	19.840	5.819	0.532
152.499	161.855	80.007	19.993	103.869	19.841	5.740	0.521
152.999	162.053	80.007	19.993	103.869	19.841	5.748	0.527
153.499	162.304	80.006	19.993	103.869	19.843	5.565	0.482
153.999	162.605	80.008	19.993	103.868	19.840	5.794	0.501
154.499	162.833	80.007	19.993	103.868	19.837	6.002	0.540
154.999	163.077	80.006	19.993	103.869	19.837	5.996	0.500
155.499	163.304	80.007	19.993	103.867	19.838	5.942	0.472
156.000	163.618	80.006	19.993	103.867	19.839	5.821	0.506
156.500	163.889	80.008	19.993	103.868	19.837	6.027	0.563
156.999	164.140	80.007	19.993	103.868	19.837	5.975	0.553
157.499	164.347	80.006	19.994	103.868	19.833	6.293	0.490
157.999	164.612	80.007	19.994	103.869	19.834	6.173	0.465
158.499	164.888	80.007	19.994	103.868	19.834	6.200	0.506
158.999	165.205	80.006	19.994	103.867	19.832	6.320	0.567
159.499	165.445	80.006	19.994	103.865	19.836	6.058	0.575
159.999	165.709	80.007	19.994	103.863	19.833	6.273	0.531
160.499	165.955	80.006	19.994	103.863	19.829	6.528	0.507
160.999	166.228	80.005	19.995	103.865	19.828	6.635	0.514
161.499	166.509	80.005	19.993	103.866	19.830	6.483	0.536
161.999	166.735	80.006	19.994	103.869	19.832	6.323	0.531
162.499	166.984	80.007	19.994	103.869	19.831	6.382	0.492
162.999	167.252	80.006	19.994	103.869	19.827	6.686	0.496
163.499	167.513	80.005	19.993	103.869	19.831	6.411	0.523
163.999	167.761	80.005	19.993	103.869	19.827	6.702	0.519
164.499	168.012	80.005	19.993	103.869	19.827	6.704	0.504
164.999	168.243	80.003	19.994	103.869	19.824	6.879	0.490
165.499	168.526	80.004	19.994	103.867	19.826	6.770	0.498
165.999	168.778	80.005	19.993	103.868	19.826	6.751	0.524
166.499	169.030	80.004	19.994	103.865	19.825	6.874	0.519
166.999	169.266	80.005	19.993	103.860	19.824	6.900	0.496
167.499	169.570	80.004	19.995	103.857	19.826	6.745	0.514
167.999	169.801	80.004	19.993	103.859	19.827	6.701	0.538
168.499	170.082	80.003	19.993	103.859	19.824	6.905	0.523
169.000	170.353	80.003	19.993	103.860	19.823	6.969	0.532
169.500	170.581	80.003	19.995	103.862	19.823	6.951	0.525
170.000	170.832	80.005	19.994	103.862	19.826	6.761	0.489
170.499	171.109	80.004	19.994	103.859	19.825	6.849	0.504
170.999	171.345	80.004	19.995	103.857	19.822	7.047	0.521
171.499	171.595	80.003	19.994	103.857	19.819	7.297	0.499
172.000	171.856	80.003	19.994	103.856	19.819	7.263	0.498
172.500	172.084	80.005	19.994	103.854	19.817	7.402	0.500
172.999	172.315	80.003	19.994	103.850	19.818	7.305	0.474
173.499	172.610	80.005	19.995	103.846	19.818	7.367	0.492
173.999	172.843	80.003	19.993	103.840	19.816	7.461	0.527
174.499	173.104	80.003	19.993	103.839	19.816	7.440	0.511
175.000	173.370	80.004	19.994	103.840	19.813	7.656	0.510
175.500	173.611	80.004	19.994	103.842	19.816	7.473	0.517
175.999	173.878	80.004	19.994	103.846	19.815	7.577	0.508
176.499	174.102	80.003	19.994	103.850	19.813	7.659	0.499
176.999	174.347	80.002	19.993	103.853	19.814	7.638	0.480
177.499	174.623	80.003	19.993	103.858	19.815	7.531	0.495
177.999	174.870	80.003	19.994	103.861	19.810	7.866	0.522
178.499	175.166	80.003	19.993	103.859	19.813	7.675	0.533
178.999	175.367	80.003	19.994	103.860	19.810	7.891	0.521
179.499	175.635	80.004	19.994	103.861	19.810	7.887	0.483
180.000	175.930	80.005	19.994	103.859	19.809	7.958	0.515
180.500	176.176	80.002	19.995	103.856	19.810	7.880	0.552
180.999	176.408	80.003	19.994	103.855	19.812	7.785	0.510
181.499	176.641	80.004	19.994	103.852	19.808	8.026	0.472
181.999	176.935	80.003	19.993	103.849	19.804	8.344	0.496
182.499	177.201	80.003	19.994	103.845	19.809	7.988	0.543
182.999	177.431	80.003	19.993	103.845	19.806	8.190	0.528
183.499	177.670	80.004	19.994	103.848	19.806	8.191	0.483
183.999	177.930	80.004	19.994	103.846	19.806	8.191	0.484
184.499	178.158	80.003	19.994	103.847	19.805	8.222	0.493
184.999	178.423	80.002	19.994	103.849	19.804	8.311	0.490
185.499	178.649	80.004	19.994	103.847	19.803	8.377	0.492
186.000	178.887	80.004	19.995	103.845	19.804	8.330	0.478
186.500	179.146	80.004	19.994	103.846	19.801	8.515	0.481
186.999	179.427	80.004	19.995	103.844	19.801	8.555	0.518
187.499	179.673	80.005	19.994	103.843	19.801	8.504	0.533
187.999	179.918	80.003	19.994	103.844	19.795	8.967	0.509
188.499	180.137	80.003	19.995	103.847	19.803	8.402	0.478
188.999	180.377	80.004	19.994	103.849	19.796	8.851	0.462
189.499	180.651	80.003	19.994	103.847	19.794	9.040	0.486
189.999	180.922	80.004	19.995	103.846	19.797	8.817	0.529
190.499	181.160	80.004	19.994	103.845	19.793	9.070	0.527
190.999	181.432	80.003	19.996	103.838	19.795	8.936	0.510
191.499	181.668	80.004	19.995	103.837	19.793	9.075	0.509
191.999	181.882	80.002	19.996	103.844	19.792	9.171	0.479
192.499	182.162	80.003	19.996	103.849	19.792	9.143	0.472
192.999	182.420	80.003	19.995	103.850	19.791	9.235	0.516
193.499	182.656	80.004	19.996	103.852	19.790	9.300	0.516
193.999	182.908	80.003	19.995	103.851	19.793	9.096	0.491
194.499	183.161	80.003	19.993	103.847	19.795	8.977	0.496
194.999	183.418	80.002	19.994	103.846	19.795	8.946	0.507
195.499	183.618	80.004	19.994	103.849	19.789	9.409	0.483
195.999	183.858	80.003	19.995	103.854	19.787	9.484	0.449
196.499	184.156	80.004	19.994	103.855	19.789	9.367	0.489
196.999	184.410	80.005	19.994	103.852	19.787	9.507	0.545
197.499	184.639	80.003	19.994	103.847	19.788	9.443	0.517
197.999	184.943	80.004	19.994	103.841	19.790	9.328	0.508
198.499	185.168	80.003	19.993	103.835	19.790	9.335	0.531
198.999	185.423	80.003	19.994	103.836	19.787	9.521	0.505
199.499	185.679	80.004	19.992	103.837	19.787	9.500	0.495
199.999	185.947	80.003	19.992	103.838	19.787	9.527	0.517
200.499	186.211	80.004	19.994	103.839	19.784	9.739	0.528
200.999	186.491	80.004	19.995	103.845	19.788	9.416	0.538
201.500	186.678	80.004	19.996	103.849	19.787	9.550	0.506
202.000	186.906	80.003	19.993	103.855	19.785	9.653	0.441
202.499	187.155	80.003	19.994	103.856	19.783	9.806	0.446
202.999	187.397	80.004	19.994	103.855	19.786	9.558	0.484
203.499	187.666	80.004	19.993	103.848	19.784	9.739	0.501
203.999	187.883	80.005	19.994	103.841	19.781	9.922	0.499
204.499	188.147	80.004	19.993	103.834	19.782	9.850	0.484
204.999	188.374	80.005	19.994	103.834	19.778	10.153	0.486
205.499	188.600	80.005	19.993	103.840	19.780	10.003	0.472
205.999	188.806	80.004	19.994	103.843	19.776	10.263	0.442
206.499	189.089	80.005	19.993	103.844	19.776	10.295	0.461
206.999	189.340	80.006	19.993	103.850	19.775	10.370	0.512
207.499	189.580	80.005	19.993	103.852	19.777	10.245	0.513
207.999	189.841	80.005	19.993	103.848	19.774	10.413	0.496
208.499	190.106	80.006	19.993	103.845	19.774	10.457	0.513
208.999	190.354	80.004	19.994	103.843	19.775	10.348	0.519
209.499	190.562	80.006	19.992	103.837	19.772	10.602	0.484
209.999	190.819	80.004	19.993	103.833	19.773	10.507	0.461
210.499	191.084	80.006	19.993	103.832	19.768	10.850	0.494
210.999	191.352	80.005	19.993	103.835	19.768	10.827	0.528
211.500	191.615	80.005	19.993	103.837	19.768	10.827	0.532
212.000	191.812	80.007	19.993	103.836	19.769	10.790	0.495
212.500	192.056	80.005	19.995	103.836	19.764	11.112	0.450
212.999	192.321	80.006	19.994	103.836	19.763	11.187	0.475
213.499	192.543	80.006	19.994	103.832	19.763	11.225	0.498
213.999	192.815	80.006	19.994	103.830	19.766	10.994	0.490
214.499	193.044	80.006	19.993	103.830	19.760	11.450	0.497
214.999	193.326	80.006	19.994	103.830	19.754	11.815	0.506
215.500	193.519	80.007	19.994	103.831	19.757	11.593	0.493
216.000	193.774	80.006	19.994	103.831	19.756	11.678	0.462
216.500	194.046	80.006	19.993	103.831	19.758	11.573	0.488
217.000	194.298	80.006	19.993	103.831	19.758	11.549	0.526
217.499	194.555	80.005	19.993	103.831	19.757	11.642	0.516
217.999	194.770	80.005	19.993	103.830	19.755	11.740	0.490
218.499	195.028	80.006	19.994	103.831	19.756	11.731	0.472
218.999	195.243	80.006	19.993	103.833	19.753	11.931	0.473
219.500	195.489	80.006	19.994	103.833	19.752	11.969	0.467
220.000	195.759	80.005	19.995	103.833	19.751	12.079	0.489
220.500	195.975	80.006	19.994	103.830	19.748	12.270	0.501
220.999	196.197	80.007	19.993	103.825	19.749	12.186	0.462
221.499	196.471	80.005	19.994	103.825	19.747	12.342	0.467
221.999	196.721	80.005	19.993	103.826	19.749	12.165	0.510
222.500	196.951	80.005	19.993	103.827	19.745	12.495	0.502
223.000	197.208	80.004	19.994	103.830	19.749	12.193	0.483
223.500	197.457	80.005	19.993	103.832	19.744	12.545	0.497
223.999	197.685	80.004	19.994	103.831	19.745	12.447	0.491
224.499	197.917	80.006	19.994	103.826	19.745	12.455	0.469
224.999	198.133	80.006	19.994	103.824	19.748	12.297	0.454
225.499	198.406	80.006	19.994	103.824	19.749	12.206	0.468
225.999	198.629	80.006	19.994	103.825	19.745	12.461	0.492
226.499	198.860	80.004	19.994	103.826	19.741	12.753	0.475
226.999	199.071	80.005	19.993	103.829	19.740	12.789	0.448
227.499	199.324	80.005	19.994	103.833	19.740	12.800	0.453
227.999	199.554	80.006	19.994	103.832	19.738	12.952	0.474
228.499	199.795	80.005	19.993	103.832	19.740	12.836	0.477
228.999	200.028	80.005	19.993	103.832	19.736	13.128	0.472
229.499	200.285	80.006	19.992	103.832	19.735	13.169	0.482
229.999	200.539	80.006	19.993	103.832	19.732	13.354	0.501
230.499	200.785	80.006	19.993	103.832	19.736	13.085	0.506
230.999	201.002	80.004	19.993	103.830	19.732	13.416	0.481
231.499	201.262	80.006	19.992	103.830	19.729	13.599	0.470
231.999	201.506	80.005	19.993	103.827	19.733	13.339	0.491
232.499	201.819	80.007	19.994	103.825	19.731	13.491	0.531
232.999	202.003	80.006	19.992	103.827	19.727	13.712	0.528
233.499	202.258	80.007	19.993	103.828	19.727	13.737	0.468
233.999	202.485	80.005	19.993	103.829	19.726	13.814	0.460
234.499	202.727	80.006	19.992	103.831	19.726	13.843	0.475
234.999	202.971	80.006	19.994	103.833	19.727	13.764	0.478
235.499	203.202	80.006	19.992	103.833	19.727	13.764	0.481
235.999	203.475	80.006	19.993	103.833	19.723	14.034	0.490
236.499	203.726	80.008	19.994	103.832	19.720	14.254	0.513
236.999	203.982	80.007	19.993	103.833	19.719	14.310	0.515
237.499	204.216	80.007	19.993	103.831	19.718	14.357	0.499
237.999	204.470	80.006	19.992	103.825	19.714	14.640	0.489
238.499	204.666	80.007	19.993	103.820	19.713	14.707	0.469
238.999	204.956	80.007	19.992	103.819	19.712	14.784	0.468
239.499	205.258	80.007	19.993	103.819	19.712	14.802	0.539
239.999	205.446	80.006	19.993	103.821	19.713	14.706	0.541
240.500	205.718	80.007	19.992	103.826	19.711	14.844	0.475
241.000	205.898	80.006	19.993	103.831	19.708	15.057	0.456
241.499	206.164	80.005	19.992	103.832	19.711	14.893	0.449
241.999	206.380	80.007	19.993	103.832	19.707	15.122	0.464
242.499	206.639	80.005	19.993	103.832	19.708	15.059	0.478
242.999	206.911	80.006	19.992	103.830	19.708	15.109	0.503
243.499	207.148	80.005	19.993	103.828	19.708	15.101	0.520
243.999	207.377	80.006	19.993	103.828	19.706	15.248	0.487
244.499	207.634	80.005	19.992	103.827	19.701	15.575	0.476
244.999	207.928	80.006	19.993	103.826	19.704	15.363	0.518
245.499	208.122	80.005	19.993	103.828	19.697	15.882	0.520
245.999	208.384	80.006	19.994	103.830	19.702	15.516	0.472
246.499	208.623	80.004	19.993	103.831	19.698	15.751	0.478
246.999	208.855	80.003	19.994	103.832	19.700	15.643	0.486
247.499	209.103	80.003	19.993	103.834	19.694	16.039	0.476
247.999	209.367	80.004	19.993	103.831	19.693	16.153	0.496
248.499	209.584	80.004	19.994	103.828	19.691	16.274	0.496
248.999	209.850	80.003	19.993	103.828	19.696	15.887	0.482
249.499	210.116	80.004	19.993	103.825	19.690	16.357	0.508
249.999	210.352	80.004	19.994	103.822	19.690	16.368	0.517
250.499	210.561	80.004	19.994	103.826	19.687	16.580	0.473
250.999	210.799	80.004	19.994	103.828	19.687	16.558	0.446
251.499	211.062	80.002	19.994	103.826	19.685	16.696	0.474
251.999	211.325	80.004	19.994	103.828	19.684	16.769	0.513
252.499	211.490	80.004	19.994	103.830	19.683	16.859	0.477
252.999	211.765	80.005	19.994	103.830	19.681	16.985	0.434
253.499	211.997	80.004	19.995	103.829	19.679	17.137	0.473
253.999	212.253	80.005	19.994	103.831	19.680	17.077	0.497
254.499	212.539	80.004	19.994	103.826	19.677	17.276	0.515
254.999	212.773	80.006	19.995	103.822	19.676	17.364	0.531
255.499	213.004	80.003	19.994	103.820	19.673	17.508	0.493
255.999	213.275	80.003	19.994	103.820	19.671	17.708	0.484
256.500	213.521	80.003	19.994	103.820	19.674	17.456	0.510
257.000	213.765	80.004	19.994	103.820	19.665	18.078	0.503
257.500	214.014	80.004	19.994	103.820	19.666	18.004	0.491
258.000	214.261	80.004	19.995	103.820	19.665	18.129	0.495
258.500	214.487	80.004	19.993	103.815	19.661	18.357	0.484
259.000	214.736	80.004	19.994	103.809	19.657	18.684	0.474
259.500	214.979	80.004	19.995	103.806	19.658	18.575	0.484
260.000	215.230	80.003	19.993	103.805	19.660	18.434	0.493
260.500	215.486	80.004	19.995	103.808	19.658	18.612	0.500
261.000	215.725	80.003	19.994	103.812	19.651	19.062	0.501
261.500	215.948	80.005	19.996	103.816	19.653	18.920	0.478
262.000	216.216	80.005	19.995	103.822	19.654	18.884	0.476
262.500	216.481	80.005	19.996	103.820	19.651	19.104	0.512
263.000	216.737	80.005	19.994	103.815	19.649	19.212	0.527
263.500	216.979	80.004	19.994	103.816	19.646	19.448	0.510
264.000	217.222	80.005	19.994	103.819	19.641	19.795	0.491
264.500	217.454	80.005	19.995	103.818	19.643	19.664	0.480
265.000	217.738	80.005	19.995	103.819	19.637	20.094	0.496
265.500	218.001	80.006	19.995	103.821	19.636	20.119	0.532
266.000	218.246	80.005	19.993	103.818	19.635	20.240	0.527
266.500	218.457	80.006	19.995	103.814	19.633	20.357	0.482
267.000	218.720	80.004	19.994	103.813	19.633	20.391	0.465
267.500	218.950	80.005	19.995	103.814	19.628	20.742	0.484
268.000	219.218	80.005	19.995	103.815	19.628	20.722	0.496
268.500	219.435	80.005	19.994	103.817	19.625	20.900	0.492
269.000	219.630	80.005	19.993	103.819	19.624	20.993	0.449
269.500	219.924	80.003	19.993	103.821	19.623	21.075	0.450
270.000	220.182	80.003	19.993	103.821	19.616	21.570	0.520
270.500	220.418	80.004	19.994	103.817	19.618	21.445	0.523
271.000	220.674	80.004	19.994	103.813	19.615	21.621	0.493
271.500	220.881	80.006	19.993	103.814	19.614	21.664	0.478
272.000	221.156	80.003	19.994	103.814	19.613	21.749	0.472
272.500	221.389	80.005	19.993	103.815	19.610	21.980	0.495
273.000	221.584	80.003	19.994	103.821	19.608	22.121	0.469
273.500	221.857	80.004	19.994	103.824	19.608	22.150	0.448
274.000	222.131	80.003	19.994	103.821	19.608	22.088	0.507
274.500	222.367	80.005	19.994	103.819	19.603	22.505	0.528
275.000	222.603	80.004	19.995	103.819	19.600	22.655	0.491
275.500	222.863	80.004	19.995	103.819	19.597	22.924	0.484
276.000	223.151	80.005	19.994	103.819	19.594	23.086	0.522
276.500	223.381	80.004	19.994	103.824	19.595	23.060	0.533
277.000	223.633	80.003	19.994	103.827	19.593	23.186	0.500
277.500	223.888	80.005	19.995	103.829	19.590	23.356	0.494
278.000	224.094	80.004	19.995	103.826	19.588	23.531	0.484
278.500	224.341	80.004	19.993	103.826	19.586	23.673	0.457
279.000	224.551	80.002	19.994	103.821	19.584	23.819	0.455
279.500	224.811	80.003	19.994	103.816	19.577	24.306	0.463
280.000	225.093	80.003	19.994	103.812	19.575	24.423	0.506
280.500	225.321	80.004	19.994	103.815	19.572	24.651	0.526
281.000	225.551	80.004	19.996	103.813	19.571	24.731	0.484
281.500	225.804	80.002	19.994	103.815	19.572	24.647	0.471
282.000	226.030	80.003	19.995	103.821	19.571	24.701	0.481
282.500	226.289	80.003	19.995	103.824	19.570	24.798	0.482
283.000	226.535	80.003	19.996	103.823	19.565	25.116	0.494
283.500	226.748	80.004	19.995	103.825	19.566	25.102	0.482
284.000	227.023	80.003	19.994	103.826	19.561	25.406	0.474
284.500	227.280	80.003	19.995	103.826	19.560	25.489	0.510
285.000	227.527	80.004	19.995	103.825	19.556	25.808	0.518
285.500	227.797	80.004	19.994	103.821	19.553	26.010	0.510
286.000	228.029	80.003	19.995	103.819	19.550	26.200	0.510
286.500	228.298	80.003	19.995	103.817	19.553	26.006	0.502
287.000	228.548	80.004	19.994	103.817	19.546	26.501	0.510
287.500	228.778	80.004	19.995	103.820	19.546	26.506	0.499
288.000	229.024	80.004	19.995	103.825	19.541	26.814	0.478
288.500	229.304	80.005	19.994	103.829	19.541	26.826	0.501
289.000	229.519	80.005	19.994	103.832	19.534	27.315	0.511
289.500	229.792	80.004	19.995	103.832	19.535	27.233	0.491
290.000	230.022	80.005	19.994	103.832	19.530	27.574	0.495
290.500	230.280	80.005	19.996	103.830	19.527	27.830	0.495
291.000	230.538	80.005	19.993	103.826	19.525	27.943	0.502
291.500	230.780	80.005	19.994	103.821	19.522	28.139	0.508
292.000	231.029	80.006	19.993	103.819	19.519	28.406	0.495
292.500	231.239	80.005	19.994	103.815	19.518	28.466	0.475
293.000	231.499	80.006	19.993	103.812	19.517	28.497	0.464
293.500	231.698	80.006	19.993	103.815	19.516	28.597	0.465
294.000	231.978	80.006	19.993	103.817	19.514	28.768	0.470
294.500	232.220	80.005	19.994	103.815	19.510	29.015	0.500
295.000	232.493	80.006	19.993	103.815	19.510	28.992	0.518
295.500	232.735	80.005	19.994	103.815	19.506	29.331	0.515
296.000	232.988	80.006	19.993	103.813	19.503	29.545	0.505
296.500	233.265	80.006	19.994	103.812	19.504	29.474	0.513
297.000	233.495	80.005	19.993	103.808	19.497	29.919	0.519
297.500	233.742	80.006	19.994	103.809	19.497	29.954	0.492
298.000	234.022	80.006	19.994	103.813	19.494	30.154	0.502
298.500	234.263	80.007	19.994	103.814	19.491	30.373	0.524
299.000	234.489	80.005	19.994	103.815	19.483	30.892	0.494
299.500	234.774	80.007	19.993	103.818	19.486	30.687	0.489
300.000	234.974	80.006	19.993	103.822	19.485	30.796	0.498
300.500	235.249	80.005	19.993	103.820	19.481	31.082	0.480
301.000	235.506	80.005	19.992	103.814	19.478	31.267	0.503
301.500	235.736	80.006	19.994	103.811	19.477	31.366	0.510
302.000	235.951	80.005	19.993	103.809	19.474	31.549	0.466
302.500	236.219	80.006	19.994	103.809	19.471	31.746	0.464
303.000	236.495	80.005	19.993	103.811	19.469	31.922	0.513
303.500	236.693	80.005	19.994	103.814	19.468	31.981	0.509
304.000	236.928	80.005	19.994	103.821	19.466	32.147	0.454
304.500	237.173	80.005	19.992	103.827	19.461	32.483	0.456
305.000	237.455	80.005	19.994	103.826	19.457	32.726	0.503
305.500	237.702	80.006	19.994	103.826	19.451	33.162	0.528
306.000	237.961	80.005	19.993	103.828	19.450	33.212	0.517
306.500	238.240	80.005	19.994	103.823	19.449	33.316	0.522
307.000	238.476	80.005	19.993	103.821	19.448	33.386	0.527
307.500	238.741	80.005	19.993	103.818	19.444	33.663	0.508
308.000	238.990	80.005	19.993	103.818	19.441	33.894	0.508
308.500	239.235	80.006	19.993	103.818	19.438	34.099	0.504
309.000	239.483	80.004	19.994	103.823	19.431	34.563	0.493
309.500	239.703	80.005	19.994	103.823	19.430	34.677	0.480
310.000	239.958	80.005	19.993	103.825	19.427	34.887	0.471
310.500	240.216	80.005	19.995	103.821	19.424	35.065	0.494
311.000	240.440	80.005	19.993	103.819	19.420	35.361	0.498
311.500	240.710	80.005	19.994	103.815	19.417	35.555	0.488
312.000	240.978	80.005	19.993	103.818	19.413	35.821	0.516
312.500	241.200	80.004	19.994	103.817	19.413	35.842	0.514
313.000	241.438	80.006	19.994	103.818	19.406	36.346	0.475
313.500	241.690	80.005	19.994	103.820	19.405	36.399	0.475
314.000	241.931	80.006	19.994	103.823	19.401	36.701	0.491
314.500	242.255	80.006	19.994	103.821	19.398	36.895	0.529
315.000	242.479	80.007	19.993	103.823	19.391	37.381	0.557
315.500	242.701	80.006	19.993	103.825	19.389	37.562	0.497
316.000	242.988	80.005	19.993	103.827	19.387	37.686	0.477
316.500	243.181	80.007	19.993	103.828	19.381	38.088	0.494
317.000	243.467	80.007	19.993	103.829	19.379	38.260	0.479
317.500	243.729	80.007	19.994	103.828	19.375	38.509	0.514
318.000	243.969	80.007	19.993	103.829	19.372	38.779	0.525
318.500	244.261	80.007	19.992	103.829	19.369	38.981	0.517
319.000	244.477	80.008	19.994	103.829	19.366	39.170	0.520
319.500	244.709	80.007	19.994	103.830	19.361	39.506	0.478
320.000	244.982	80.007	19.993	103.831	19.359	39.635	0.476
320.500	245.232	80.007	19.995	103.831	19.353	40.107	0.514
321.000	245.483	80.006	19.997	103.833	19.347	40.484	0.512
321.500	245.728	80.006	19.994	103.833	19.346	40.546	0.499
322.000	245.967	80.006	19.995	103.832	19.335	41.326	0.490
322.500	246.229	80.008	19.994	103.831	19.337	41.220	0.493
323.000	246.426	80.007	19.994	103.831	19.329	41.732	0.480
323.500	246.692	80.007	19.993	103.830	19.325	42.075	0.461
324.000	246.981	80.006	19.994	103.830	19.321	42.343	0.509
324.500	247.195	80.006	19.994	103.830	19.315	42.729	0.529
325.000	247.430	80.006	19.993	103.830	19.308	43.228	0.476
325.500	247.693	80.006	19.994	103.829	19.302	43.681	0.474
326.000	247.970	80.007	19.993	103.829	19.296	44.059	0.519
326.500	248.196	80.007	19.993	103.831	19.290	44.486	0.522
327.000	248.448	80.006	19.993	103.837	19.282	45.112	0.491
327.500	248.685	80.006	19.994	103.841	19.282	45.077	0.483
328.000	248.946	80.006	19.992	103.846	19.275	45.600	0.493
328.500	249.195	80.006	19.994	103.850	19.269	45.990	0.504
329.000	249.453	80.005	19.993	103.854	19.262	46.533	0.509
329.500	249.687	80.005	19.993	103.853	19.258	46.805	0.499
330.000	249.979	80.005	19.994	103.854	19.255	46.990	0.509
330.500	250.243	80.004	19.994	103.851	19.255	47.029	0.542
331.000	250.500	80.006	19.993	103.847	19.251	47.256	0.539
331.500	250.729	80.005	19.993	103.841	19.253	47.158	0.503
332.000	251.001	80.005	19.994	103.836	19.246	47.650	0.493
332.500	251.241	80.004	19.994	103.832	19.241	48.011	0.507
333.000	251.513	80.006	19.993	103.830	19.240	48.027	0.512
333.500	251.782	80.004	19.993	103.829	19.237	48.291	0.527
334.000	252.024	80.006	19.994	103.824	19.237	48.269	0.526
334.500	252.294	80.007	19.994	103.820	19.235	48.406	0.511
335.000	252.541	80.005	19.994	103.820	19.230	48.778	0.514
335.500	252.736	80.006	19.993	103.817	19.229	48.821	0.479
336.000	252.997	80.005	19.993	103.819	19.229	48.857	0.449
336.500	253.288	80.005	19.994	103.823	19.223	49.249	0.504
337.000	253.502	80.005	19.994	103.829	19.220	49.495	0.529
337.500	253.760	80.005	19.994	103.834	19.217	49.704	0.489
338.000	253.968	80.005	19.995	103.841	19.213	49.974	0.469
338.500	254.229	80.004	19.995	103.846	19.210	50.176	0.467
339.000	254.505	80.005	19.993	103.853	19.203	50.690	0.502
339.500	254.777	80.004	19.994	103.859	19.201	50.807	0.543
340.000	254.992	80.004	19.994	103.863	19.198	50.986	0.518
340.500	255.250	80.004	19.994	103.867	19.195	51.200	0.480
341.000	255.472	80.005	19.993	103.871	19.192	51.422	0.476
341.500	255.779	80.005	19.994	103.872	19.189	51.640	0.505
342.000	255.993	80.004	19.994	103.872	19.183	52.106	0.525
342.500	256.258	80.005	19.994	103.872	19.178	52.442	0.500
343.000	256.533	80.004	19.993	103.872	19.175	52.629	0.509
343.500	256.778	80.006	19.994	103.871	19.172	52.860	0.530
344.000	257.033	80.006	19.996	103.871	19.166	53.303	0.510
344.500	257.256	80.004	19.994	103.871	19.161	53.632	0.489
345.000	257.500	80.006	19.994	103.871	19.159	53.795	0.473
345.500	257.788	80.005	19.995	103.870	19.151	54.298	0.500
346.000	258.047	80.006	19.996	103.867	19.147	54.603	0.540
346.500	258.294	80.004	19.994	103.867	19.145	54.787	0.526
347.000	258.546	80.005	19.994	103.867	19.146	54.701	0.502
347.500	258.804	80.005	19.994	103.865	19.137	55.291	0.504
348.000	259.057	80.005	19.995	103.863	19.132	55.677	0.511
348.500	259.322	80.006	19.993	103.865	19.126	56.062	0.514
349.000	259.545	80.004	19.994	103.865	19.119	56.586	0.503
349.500	259.808	80.005	19.995	103.866	19.120	56.518	0.487
350.000	260.034	80.004	19.995	103.868	19.117	56.701	0.488
350.500	260.327	80.005	19.994	103.870	19.113	57.037	0.504
351.000	260.516	80.005	19.995	103.871	19.108	57.357	0.500
351.500	260.768	80.004	19.994	103.871	19.105	57.585	0.462
352.000	261.019	80.006	19.994	103.871	19.100	57.937	0.472
352.500	261.256	80.005	19.994	103.872	19.095	58.270	0.496
353.000	261.538	80.005	19.994	103.872	19.090	58.598	0.503
353.500	261.769	80.006	19.995	103.873	19.091	58.593	0.516
354.000	262.044	80.005	19.993	103.880	19.078	59.480	0.509
354.500	262.309	80.006	19.994	103.884	19.077	59.536	0.523
355.000	262.557	80.004	19.995	103.884	19.072	59.914	0.527
355.500	262.795	80.004	19.994	103.886	19.068	60.185	0.500
356.000	263.016	80.004	19.994	103.888	19.063	60.517	0.473
356.500	263.283	80.004	19.994	103.881	19.060	60.723	0.473
357.000	263.548	80.005	19.994	103.878	19.058	60.914	0.510
357.500	263.813	80.005	19.994	103.879	19.054	61.178	0.531
358.000	264.022	80.005	19.994	103.877	19.049	61.510	0.502
358.500	264.266	80.004	19.994	103.875	19.046	61.710	0.463
359.000	264.502	80.004	19.995	103.875	19.043	61.979	0.467
359.500	264.772	80.003	19.994	103.874	19.040	62.146	0.493
360.000	264.996	80.003	19.994	103.875	19.035	62.535	0.500
360.500	265.271	80.004	19.994	103.881	19.030	62.895	0.496
361.000	265.519	80.003	19.994	103.881	19.026	63.140	0.511
361.500	265.728	80.006	19.993	103.881	19.021	63.497	0.490
362.000	266.007	80.004	19.995	103.885	19.012	64.093	0.473
362.500	266.245	80.002	19.994	103.887	19.011	64.226	0.503
363.000	266.456	80.003	19.995	103.885	19.006	64.553	0.483
363.500	266.733	80.004	19.993	103.885	19.003	64.748	0.468
364.000	267.006	80.004	19.994	103.886	18.998	65.141	0.519
364.500	267.240	80.004	19.994	103.883	18.994	65.376	0.529
365.000	267.503	80.005	19.994	103.881	18.991	65.624	0.502
365.500	267.783	80.003	19.994	103.878	18.985	66.010	0.520
366.000	267.975	80.004	19.994	103.878	18.983	66.162	0.508
366.500	268.257	80.002	19.994	103.880	18.983	66.149	0.473
367.000	268.480	80.004	19.993	103.881	18.978	66.482	0.489
367.500	268.738	80.003	19.994	103.884	18.972	66.919	0.493
368.000	268.978	80.004	19.993	103.888	18.970	67.091	0.490
368.500	269.225	80.003	19.994	103.891	18.962	67.652	0.492
369.000	269.480	80.003	19.993	103.891	18.957	68.002	0.494
369.500	269.710	80.003	19.995	103.892	18.956	68.042	0.494
370.000	270.003	80.002	19.994	103.892	18.952	68.359	0.504
370.500	270.226	80.003	19.993	103.891	18.947	68.720	0.520
371.000	270.521	80.004	19.993	103.887	18.947	68.689	0.517
371.500	270.791	80.004	19.994	103.887	18.941	69.136	0.541
372.000	271.054	80.004	19.995	103.888	18.937	69.420	0.549
372.500	271.322	80.005	19.994	103.886	18.935	69.517	0.532
373.000	271.598	80.003	19.994	103.887	18.932	69.771	0.538
373.500	271.818	80.005	19.994	103.890	18.929	69.948	0.520
374.000	272.031	80.004	19.995	103.889	18.923	70.415	0.464
374.500	272.321	80.005	19.995	103.886	18.920	70.590	0.468
375.000	272.579	80.005	19.994	103.883	18.916	70.891	0.526
375.500	272.803	80.006	19.995	103.879	18.913	71.090	0.515
376.000	273.055	80.005	19.995	103.876	18.911	71.258	0.479
376.500	273.317	80.004	19.995	103.874	18.906	71.563	0.495
377.000	273.559	80.004	19.994	103.874	18.903	71.820	0.509
377.500	273.779	80.005	19.993	103.874	18.900	71.984	0.483
378.000	274.008	80.005	19.995	103.874	18.900	72.004	0.456
378.500	274.281	80.005	19.994	103.875	18.894	72.473	0.476
379.000	274.557	80.006	19.995	103.874	18.893	72.547	0.525
379.500	274.834	80.006	19.994	103.874	18.890	72.764	0.550
380.000	275.033	80.005	19.993	103.873	18.890	72.763	0.514
380.500	275.331	80.005	19.996	103.878	18.890	72.752	0.487
381.000	275.592	80.005	19.997	103.879	18.882	73.320	0.528
381.500	275.827	80.006	19.996	103.880	18.882	73.308	0.527
382.000	276.062	80.006	19.994	103.880	18.879	73.538	0.483
382.500	276.305	80.006	19.994	103.880	18.875	73.762	0.474
383.000	276.561	80.004	19.995	103.875	18.878	73.540	0.488
383.500	276.868	80.004	19.994	103.875	18.874	73.818	0.531
384.000	277.114	80.005	19.995	103.876	18.875	73.782	0.557
384.500	277.345	80.006	19.994	103.876	18.873	73.889	0.515
385.000	277.601	80.005	19.993	103.876	18.864	74.529	0.482
385.500	277.862	80.005	19.993	103.875	18.865	74.498	0.503
386.000	278.082	80.005	19.995	103.873	18.864	74.510	0.499
386.500	278.337	80.005	19.993	103.874	18.856	75.125	0.477
387.000	278.588	80.006	19.994	103.875	18.853	75.308	0.490
387.500	278.877	80.006	19.993	103.876	18.846	75.827	0.523
388.000	279.103	80.005	19.993	103.879	18.841	76.176	0.527
388.500	279.330	80.006	19.995	103.882	18.836	76.481	0.484
389.000	279.570	80.004	19.992	103.886	18.835	76.565	0.460
389.500	279.806	80.005	19.993	103.892	18.827	77.157	0.472
390.000	280.076	80.005	19.994	103.899	18.821	77.588	0.492
390.500	280.320	80.005	19.994	103.904	18.814	78.065	0.510
391.000	280.589	80.005	19.994	103.907	18.809	78.412	0.513
391.500	280.796	80.005	19.993	103.909	18.805	78.733	0.495
392.000	281.106	80.006	19.993	103.907	18.802	78.952	0.496
392.500	281.333	80.005	19.993	103.903	18.796	79.380	0.527
393.000	281.585	80.007	19.994	103.897	18.790	79.785	0.508
393.500	281.819	80.007	19.993	103.889	18.789	79.876	0.483
394.000	282.061	80.006	19.994	103.881	18.785	80.136	0.481
394.500	282.354	80.007	19.994	103.875	18.781	80.417	0.505
395.000	282.568	80.006	19.994	103.872	18.775	80.807	0.521
395.500	282.825	80.006	19.994	103.870	18.774	80.886	0.489
396.000	283.092	80.006	19.992	103.867	18.774	80.902	0.497
396.500	283.299	80.006	19.993	103.864	18.771	81.117	0.499
397.000	283.616	80.007	19.992	103.858	18.769	81.252	0.499
397.500	283.846	80.007	19.993	103.850	18.764	81.631	0.535
398.000	284.072	80.007	19.993	103.849	18.764	81.637	0.501
398.500	284.381	80.006	19.994	103.848	18.763	81.685	0.495
399.000	284.637	80.007	19.993	103.851	18.760	81.902	0.550
399.500	284.850	80.008	19.993	103.857	18.762	81.743	0.517
400.000	285.103	80.006	19.994	103.864	18.760	81.920	0.468
400.500	285.322	80.006	19.993	103.867	18.763	81.659	0.469
401.000	285.588	80.007	19.993	103.872	18.759	81.945	0.479
401.500	285.867	80.007	19.994	103.876	18.760	81.866	0.515
402.000	286.107	80.007	19.993	103.878	18.761	81.783	0.531
402.500	286.377	80.007	19.994	103.880	18.756	82.147	0.514
403.000	286.612	80.007	19.994	103.884	18.756	82.188	0.508
403.500	286.878	80.007	19.995	103.887	18.756	82.141	0.503
404.000	287.101	80.007	19.994	103.889	18.754	82.314	0.495
404.500	287.347	80.007	19.993	103.893	18.755	82.203	0.479
405.000	287.582	80.007	19.994	103.898	18.750	82.608	0.475
405.500	287.838	80.005	19.993	103.899	18.750	82.585	0.486
406.000	288.066	80.006	19.993	103.903	18.750	82.587	0.488
406.500	288.334	80.007	19.994	103.903	18.748	82.747	0.490
407.000	288.585	80.006	19.994	103.903	18.748	82.782	0.507
407.500	288.848	80.006	19.994	103.900	18.746	82.902	0.516
408.000	289.043	80.006	19.993	103.900	18.742	83.176	0.486
408.500	289.326	80.005	19.994	103.897	18.746	82.916	0.468
409.000	289.585	80.007	19.993	103.897	18.747	82.850	0.510
409.500	289.825	80.006	19.994	103.896	18.747	82.860	0.520
410.000	290.049	80.004	19.993	103.898	18.748	82.811	0.482
410.500	290.302	80.004	19.993	103.894	18.749	82.683	0.471
411.000	290.547	80.005	19.994	103.889	18.750	82.619	0.487
411.500	290.776	80.004	19.994	103.883	18.756	82.223	0.486
412.000	291.022	80.005	19.994	103.877	18.754	82.349	0.475
412.500	291.275	80.004	19.993	103.872	18.753	82.386	0.487
413.000	291.573	80.004	19.994	103.869	18.759	81.963	0.525
413.500	291.774	80.004	19.994	103.869	18.759	81.920	0.525
414.000	292.009	80.005	19.994	103.869	18.759	81.920	0.467
414.500	292.287	80.004	19.994	103.871	18.762	81.686	0.475
415.000	292.558	80.004	19.995	103.875	18.762	81.703	0.532
415.500	292.778	80.004	19.994	103.880	18.765	81.473	0.520
416.000	293.050	80.004	19.993	103.886	18.764	81.523	0.492
416.500	293.248	80.005	19.994	103.894	18.766	81.361	0.481
417.000	293.508	80.004	19.993	103.902	18.766	81.396	0.464
417.500	293.795	80.004	19.993	103.907	18.773	80.930	0.502
418.000	294.058	80.005	19.992	103.917	18.773	80.887	0.548
418.500	294.264	80.004	19.994	103.927	18.772	80.942	0.510
419.000	294.528	80.005	19.993	103.939	18.773	80.923	0.470
419.500	294.786	80.005	19.994	103.955	18.772	81.003	0.496
420.000	295.011	80.003	19.994	103.966	18.776	80.680	0.502
420.500	295.293	80.005	19.993	103.969	18.780	80.391	0.495
421.000	295.489	80.004	19.993	103.967	18.786	80.021	0.493
421.500	295.778	80.004	19.995	103.959	18.790	79.704	0.481
422.000	295.988	80.006	19.993	103.946	18.797	79.216	0.492
422.500	296.277	80.005	19.993	103.933	18.804	78.732	0.499
423.000	296.469	80.005	19.994	103.917	18.807	78.532	0.490
423.500	296.709	80.005	19.993	103.903	18.814	78.047	0.457
424.000	296.971	80.006	19.993	103.887	18.823	77.406	0.467
424.500	297.201	80.006	19.993	103.867	18.828	77.044	0.497
425.000	297.444	80.005	19.994	103.847	18.843	75.985	0.483
425.500	297.702	80.005	19.992	103.831	18.849	75.541	0.487
426.000	297.932	80.004	19.994	103.816	18.864	74.496	0.494
426.500	298.152	80.004	19.992	103.806	18.880	73.349	0.469
427.000	298.422	80.005	19.993	103.799	18.886	72.947	0.470
427.500	298.655	80.005	19.994	103.796	18.898	72.136	0.497
428.000	298.879	80.005	19.992	103.794	18.913	71.078	0.480
428.500	299.171	80.005	19.995	103.793	18.925	70.211	0.487
429.000	299.371	80.004	19.994	103.792	18.941	69.116	0.504
429.500	299.605	80.003	19.992	103.794	18.953	68.245	0.463
430.000	299.894	80.005	19.993	103.797	18.966	67.339	0.479
430.500	300.127	80.004	19.992	103.799	18.974	66.767	0.522
431.000	300.332	80.005	19.992	103.801	18.991	65.570	0.480
431.500	300.612	80.005	19.993	103.804	19.006	64.501	0.462
432.000	300.878	80.005	19.993	103.803	19.021	63.486	0.516
432.500	301.121	80.004	19.993	103.802	19.033	62.626	0.527
433.000	301.346	80.005	19.992	103.801	19.050	61.416	0.488
433.500	301.610	80.007	19.993	103.805	19.067	60.232	0.479
434.000	301.855	80.006	19.993	103.805	19.082	59.192	0.499
434.500	302.062	80.004	19.993	103.809	19.096	58.174	0.481
435.000	302.321	80.006	19.994	103.814	19.112	57.022	0.459
435.500	302.564	80.004	19.993	103.816	19.126	56.076	0.484
436.000	302.875	80.004	19.994	103.815	19.139	55.183	0.528
436.500	303.106	80.004	19.993	103.812	19.147	54.560	0.548
437.000	303.333	80.004	19.993	103.809	19.166	53.238	0.500
437.500	303.557	80.004	19.993	103.804	19.177	52.448	0.455
438.000	303.795	80.003	19.993	103.804	19.191	51.515	0.456
438.500	304.038	80.004	19.993	103.806	19.204	50.582	0.471
439.000	304.273	80.006	19.994	103.812	19.223	49.206	0.479
439.500	304.507	80.002	19.994	103.820	19.233	48.526	0.474
440.000	304.796	80.003	19.992	103.824	19.246	47.583	0.496
440.500	305.009	80.004	19.994	103.829	19.262	46.470	0.513
441.000	305.260	80.003	19.997	103.831	19.271	45.845	0.483
441.500	305.481	80.004	19.995	103.833	19.281	45.140	0.468
442.000	305.745	80.004	19.996	103.833	19.298	43.938	0.479
442.500	306.016	80.004	19.995	103.836	19.309	43.178	0.510
443.000	306.235	80.002	19.994	103.835	19.320	42.418	0.512
443.500	306.504	80.003	19.994	103.835	19.333	41.448	0.489
444.000	306.758	80.003	19.994	103.835	19.344	40.698	0.506
444.500	306.984	80.004	19.993	103.835	19.354	40.006	0.502
445.000	307.216	80.005	19.995	103.833	19.369	38.951	0.469
445.500	307.473	80.003	19.995	103.833	19.379	38.220	0.473
446.000	307.718	80.004	19.995	103.830	19.392	37.291	0.495
446.500	307.969	80.005	19.995	103.829	19.396	37.049	0.499
447.000	308.208	80.003	19.994	103.828	19.410	36.048	0.493
447.500	308.455	80.005	19.994	103.828	19.421	35.273	0.488
448.000	308.717	80.004	19.995	103.827	19.427	34.842	0.497
448.500	308.985	80.005	19.995	103.827	19.440	33.962	0.520
449.000	309.238	80.004	19.994	103.825	19.452	33.099	0.526
449.500	309.456	80.004	19.994	103.820	19.459	32.606	0.496
450.000	309.691	80.005	19.994	103.819	19.469	31.925	0.462
450.500	309.963	80.005	19.993	103.819	19.478	31.250	0.480
451.000	310.196	80.006	19.994	103.819	19.483	30.913	0.506
451.500	310.455	80.004	19.994	103.819	19.498	29.851	0.498
452.000	310.705	80.005	19.994	103.822	19.505	29.396	0.500
452.500	310.933	80.006	19.994	103.819	19.513	28.824	0.494
453.000	311.228	80.005	19.995	103.812	19.522	28.137	0.501
453.500	311.483	80.007	19.996	103.810	19.532	27.432	0.536
454.000	311.738	80.005	19.994	103.811	19.539	26.952	0.530
454.500	312.018	80.006	19.994	103.808	19.550	26.188	0.522
455.000	312.257	80.005	19.993	103.812	19.553	26.009	0.527
455.500	312.506	80.005	19.994	103.814	19.561	25.443	0.504
456.000	312.770	80.007	19.993	103.814	19.570	24.769	0.500
456.500	313.043	80.007	19.994	103.808	19.575	24.412	0.525
457.000	313.247	80.006	19.994	103.806	19.586	23.657	0.507
457.500	313.553	80.005	19.992	103.800	19.588	23.496	0.493
458.000	313.820	80.006	19.994	103.797	19.598	22.824	0.542
458.500	314.061	80.005	19.995	103.800	19.604	22.410	0.540
459.000	314.350	80.006	19.993	103.800	19.610	21.966	0.519
459.500	314.617	80.007	19.994	103.801	19.614	21.673	0.544
460.000	314.860	80.006	19.994	103.801	19.622	21.114	0.533
460.500	315.084	80.006	19.993	103.800	19.625	20.916	0.489
461.000	315.348	80.006	19.993	103.794	19.637	20.097	0.478
461.500	315.607	80.006	19.995	103.793	19.644	19.575	0.505
462.000	315.866	80.005	19.994	103.793	19.642	19.710	0.520
462.500	316.130	80.006	19.994	103.793	19.652	18.991	0.520
463.000	316.401	80.006	19.993	103.793	19.660	18.478	0.529
463.500	316.631	80.004	19.994	103.793	19.665	18.074	0.518
464.000	316.862	80.006	19.995	103.792	19.671	17.696	0.481
464.500	317.140	80.005	19.993	103.792	19.677	17.240	0.485
465.000	317.396	80.006	19.993	103.791	19.681	16.997	0.522
465.500	317.658	80.006	19.993	103.792	19.688	16.482	0.525
466.000	317.929	80.003	19.994	103.791	19.690	16.305	0.525
466.500	318.147	80.005	19.994	103.791	19.692	16.232	0.511
467.000	318.405	80.005	19.994	103.791	19.696	15.901	0.483
467.500	318.721	80.006	19.994	103.789	19.702	15.493	0.526
468.000	318.944	80.005	19.994	103.788	19.707	15.142	0.557
468.500	319.229	80.005	19.995	103.789	19.712	14.815	0.524
469.000	319.459	80.005	19.994	103.790	19.714	14.657	0.511
469.500	319.669	80.004	19.995	103.790	19.715	14.574	0.477
470.000	319.930	80.006	19.995	103.792	19.723	14.016	0.455
470.500	320.203	80.005	19.994	103.792	19.729	13.582	0.502
471.000	320.490	80.004	19.994	103.790	19.730	13.510	0.547
471.500	320.729	80.005	19.995	103.789	19.730	13.494	0.543
472.000	320.995	80.005	19.995	103.789	19.733	13.290	0.515
472.500	321.204	80.005	19.994	103.789	19.743	12.637	0.490
473.000	321.492	80.006	19.995	103.789	19.738	12.945	0.486
473.500	321.745	80.004	19.994	103.791	19.745	12.485	0.519
474.000	322.008	80.004	19.995	103.791	19.748	12.291	0.529
474.500	322.262	80.004	19.996	103.790	19.748	12.230	0.516
475.000	322.571	80.006	19.994	103.789	19.753	11.886	0.540
475.500	322.786	80.004	19.995	103.788	19.756	11.691	0.543
476.000	323.034	80.006	19.995	103.784	19.761	11.365	0.494
476.500	323.296	80.005	19.994	103.780	19.759	11.511	0.487
477.000	323.533	80.006	19.994	103.781	19.764	11.114	0.504
477.500	323.813	80.006	19.995	103.784	19.766	10.994	0.508
478.000	324.062	80.005	19.993	103.784	19.769	10.774	0.523
478.500	324.326	80.005	19.993	103.783	19.772	10.591	0.522
479.000	324.622	80.005	19.994	103.783	19.778	10.128	0.537
479.500	324.856	80.006	19.994	103.783	19.778	10.126	0.545
480.000	325.101	80.006	19.994	103.782	19.778	10.155	0.504
480.500	325.364	80.006	19.993	103.779	19.782	9.880	0.493
481.000	325.596	80.007	19.993	103.784	19.782	9.837	0.501
481.500	325.885	80.007	19.993	103.787	19.783	9.798	0.508
482.000	326.150	80.008	19.993	103.786	19.788	9.432	0.538
482.500	326.425	80.007	19.993	103.781	19.788	9.434	0.547
483.000	326.682	80.007	19.994	103.780	19.791	9.203	0.535
483.500	326.889	80.007	19.994	103.778	19.796	8.909	0.498
484.000	327.168	80.007	19.993	103.776	19.792	9.134	0.475
484.500	327.418	80.008	19.993	103.777	19.796	8.843	0.507
485.000	327.702	80.008	19.993	103.782	19.798	8.739	0.531
485.500	327.915	80.007	19.993	103.787	19.799	8.672	0.515
486.000	328.187	80.006	19.992	103.790	19.802	8.472	0.491
486.500	328.458	80.007	19.992	103.787	19.807	8.106	0.514
487.000	328.695	80.006	19.993	103.787	19.806	8.194	0.526
487.500	328.975	80.007	19.994	103.784	19.805	8.242	0.513
488.000	329.216	80.005	19.993	103.778	19.809	7.984	0.519
488.500	329.524	80.005	19.991	103.771	19.806	8.196	0.535
489.000	329.719	80.006	19.993	103.769	19.806	8.166	0.526
489.500	329.984	80.005	19.994	103.769	19.811	7.808	0.481
490.000	330.279	80.006	19.993	103.769	19.807	8.128	0.510
490.500	330.519	80.005	19.992	103.771	19.811	7.853	0.548
491.000	330.800	80.005	19.992	103.773	19.814	7.607	0.528
491.500	331.006	80.005	19.994	103.773	19.812	7.778	0.504
492.000	331.315	80.004	19.993	103.769	19.812	7.757	0.501
492.500	331.520	80.004	19.993	103.766	19.814	7.608	0.515
493.000	331.834	80.003	19.994	103.766	19.817	7.402	0.517
493.500	332.085	80.004	19.993	103.767	19.819	7.261	0.542
494.000	332.338	80.005	19.993	103.768	19.815	7.536	0.534
494.500	332.538	80.003	19.993	103.766	19.816	7.470	0.478
495.000	332.856	80.005	19.993	103.765	19.814	7.580	0.486
495.500	333.077	80.005	19.994	103.765	19.817	7.382	0.529
496.000	333.362	80.004	19.993	103.763	19.817	7.429	0.523
496.500	333.638	80.005	19.994	103.763	19.818	7.315	0.533
497.000	333.877	80.004	19.994	103.764	19.823	6.999	0.538
497.500	334.186	80.004	19.994	103.764	19.821	7.128	0.532
498.000	334.433	80.004	19.993	103.764	19.818	7.319	0.552
498.500	334.682	80.005	19.993	103.762	19.823	6.976	0.526
499.000	334.933	80.005	19.993	103.761	19.820	7.168	0.498
499.500	335.176	80.005	19.994	103.762	19.825	6.856	0.497
500.000	335.480	80.004	19.991	103.765	19.828	6.610	0.520
500.500	335.743	80.004	19.993	103.768	19.824	6.897	0.557
501.000	335.972	80.004	19.996	103.772	19.823	7.004	0.530
501.500	336.224	80.004	19.995	103.779	19.822	7.037	0.487
502.000	336.441	80.005	19.994	103.785	19.826	6.752	0.475
502.500	336.689	80.004	19.993	103.784	19.824	6.908	0.467
503.000	336.972	80.003	19.994	103.779	19.824	6.874	0.498
503.500	337.227	80.004	19.994	103.776	19.822	7.036	0.534
504.000	337.500	80.004	19.995	103.768	19.824	6.932	0.533
504.500	337.759	80.005	19.994	103.762	19.827	6.697	0.530
505.000	338.029	80.004	19.993	103.759	19.828	6.653	0.530
505.500	338.247	80.004	19.994	103.759	19.826	6.733	0.508
506.000	338.506	80.005	19.994	103.760	19.829	6.525	0.482
506.500	338.761	80.005	19.995	103.764	19.831	6.434	0.495
507.000	339.033	80.004	19.996	103.768	19.830	6.508	0.520
507.500	339.270	80.004	19.995	103.768	19.833	6.254	0.519
508.000	339.549	80.006	19.994	103.769	19.828	6.625	0.513
508.500	339.763	80.005	19.994	103.767	19.826	6.798	0.504
509.000	340.022	80.005	19.995	103.763	19.830	6.515	0.482
509.500	340.270	80.004	19.994	103.758	19.831	6.406	0.490
510.000	340.494	80.005	19.994	103.757	19.830	6.485	0.490
510.500	340.747	80.005	19.993	103.756	19.834	6.223	0.475
511.000	341.052	80.006	19.993	103.756	19.826	6.785	0.518
511.500	341.279	80.005	19.993	103.756	19.831	6.402	0.545
512.000	341.526	80.005	19.993	103.756	19.832	6.308	0.503
512.500	341.791	80.005	19.994	103.755	19.831	6.423	0.493
513.000	342.053	80.005	19.995	103.755	19.833	6.302	0.519
513.500	342.287	80.006	19.995	103.756	19.831	6.445	0.511
514.000	342.542	80.006	19.995	103.762	19.830	6.457	0.492
514.500	342.781	80.005	19.993	103.769	19.834	6.235	0.492
515.000	343.076	80.005	19.994	103.770	19.834	6.185	0.514
515.500	343.281	80.006	19.994	103.770	19.833	6.269	0.517
516.000	343.529	80.003	19.994	103.768	19.830	6.473	0.476
516.500	343.764	80.006	19.993	103.762	19.833	6.256	0.468
517.000	344.045	80.006	19.993	103.755	19.834	6.179	0.499
517.500	344.288	80.005	19.994	103.754	19.832	6.329	0.520
518.000	344.539	80.004	19.993	103.754	19.838	5.938	0.509
518.500	344.786	80.006	19.994	103.754	19.832	6.337	0.496
519.000	345.050	80.004	19.992	103.754	19.836	6.094	0.505
519.500	345.320	80.003	19.993	103.755	19.836	6.085	0.522
520.000	345.606	80.004	19.993	103.757	19.834	6.204	0.544
520.500	345.825	80.004	19.993	103.757	19.833	6.304	0.530
521.000	346.107	80.006	19.993	103.759	19.838	5.906	0.503
521.500	346.372	80.003	19.994	103.760	19.837	5.983	0.525
522.000	346.555	80.005	19.992	103.759	19.837	5.981	0.498
522.500	346.841	80.003	19.993	103.758	19.837	6.004	0.458
523.000	347.106	80.005	19.994	103.760	19.839	5.860	0.510
523.500	347.365	80.004	19.993	103.762	19.834	6.230	0.537
524.000	347.604	80.005	19.993	103.768	19.836	6.091	0.511
524.500	347.892	80.005	19.994	103.769	19.838	5.918	0.513
525.000	348.133	80.005	19.994	103.771	19.837	5.960	0.528
525.500	348.386	80.003	19.993	103.770	19.836	6.085	0.511
526.000	348.634	80.004	19.994	103.767	19.837	5.981	0.497
526.500	348.894	80.004	19.994	103.761	19.836	6.050	0.505
527.000	349.154	80.005	19.993	103.760	19.840	5.760	0.514
527.500	349.395	80.004	19.992	103.758	19.838	5.912	0.511
528.000	349.658	80.005	19.994	103.757	19.835	6.148	0.502
528.500	349.896	80.003	19.994	103.757	19.838	5.888	0.502
529.000	350.157	80.005	19.993	103.758	19.836	6.035	0.500
529.500	350.443	80.006	19.996	103.759	19.841	5.695	0.523
530.000	350.700	80.004	19.995	103.761	19.840	5.784	0.545
530.500	350.959	80.004	19.994	103.762	19.836	6.042	0.529
531.000	351.209	80.005	19.996	103.763	19.836	6.049	0.512
531.500	351.458	80.006	19.994	103.763	19.836	6.040	0.504
532.000	351.724	80.005	19.994	103.763	19.836	6.030	0.507
532.500	351.947	80.004	19.995	103.761	19.836	6.053	0.502
533.000	352.266	80.005	19.994	103.762	19.839	5.824	0.515
533.500	352.493	80.004	19.994	103.766	19.837	6.002	0.544
534.000	352.742	80.005	19.995	103.769	19.834	6.167	0.511
534.500	353.017	80.006	19.995	103.772	19.836	6.050	0.500
535.000	353.309	80.004	19.995	103.775	19.835	6.159	0.546
535.500	353.563	80.005	19.994	103.773	19.833	6.271	0.557
536.000	353.775	80.006	19.997	103.771	19.833	6.275	0.506
536.500	354.046	80.007	19.996	103.772	19.836	6.073	0.474
537.000	354.327	80.007	19.996	103.770	19.836	6.052	0.517
537.500	354.567	80.005	19.995	103.770	19.835	6.108	0.537
538.000	354.833	80.006	19.993	103.774	19.835	6.102	0.514
538.500	355.101	80.005	19.994	103.772	19.835	6.098	0.520
539.000	355.356	80.007	19.996	103.766	19.835	6.127	0.528
539.500	355.604	80.006	19.994	103.765	19.837	5.965	0.513
540.000	355.869	80.008	19.995	103.762	19.838	5.927	0.508
540.500	356.090	80.006	19.994	103.757	19.836	6.042	0.499
541.000	356.375	80.007	19.994	103.755	19.834	6.231	0.496
541.500	356.640	80.007	19.994	103.755	19.838	5.885	0.528
542.000	356.892	80.006	19.994	103.753	19.833	6.281	0.534
542.500	357.181	80.006	19.995	103.754	19.838	5.936	0.529
543.000	357.396	80.006	19.994	103.754	19.838	5.923	0.522
543.500	357.699	80.007	19.994	103.755	19.833	6.283	0.511
544.000	357.941	80.006	19.994	103.756	19.836	6.092	0.532
544.500	358.180	80.004	19.993	103.756	19.834	6.198	0.513
545.000	358.433	80.007	19.994	103.756	19.833	6.236	0.487
545.500	358.684	80.006	19.993	103.756	19.829	6.577	0.498
546.000	358.961	80.005	19.994	103.755	19.830	6.500	0.516
546.500	359.225	80.005	19.994	103.755	19.831	6.383	0.534
547.000	359.477	80.006	19.994	103.756	19.833	6.240	0.528
547.500	359.693	80.005	19.994	103.759	19.836	6.094	0.492
548.000	359.933	80.005	19.994	103.760	19.831	6.412	0.462
548.500	360.208	80.004	19.993	103.760	19.837	5.977	0.486
549.000	360.483	80.005	19.994	103.760	19.833	6.287	0.533
549.500	360.755	80.004	19.993	103.760	19.834	6.193	0.548
550.000	361.010	80.005	19.994	103.756	19.831	6.389	0.537
550.500	361.252	80.004	19.994	103.758	19.831	6.400	0.513
551.000	361.531	80.004	19.993	103.757	19.830	6.506	0.509
551.500	361.788	80.005	19.993	103.758	19.832	6.354	0.528
552.000	362.045	80.006	19.994	103.761	19.832	6.358	0.524
552.500	362.296	80.005	19.993	103.764	19.830	6.464	0.511
553.000	362.538	80.005	19.992	103.762	19.829	6.556	0.501
553.500	362.796	80.004	19.994	103.762	19.830	6.485	0.497
554.000	363.044	80.004	19.993	103.762	19.829	6.556	0.503
554.500	363.294	80.005	19.993	103.760	19.828	6.621	0.502
555.000	363.560	80.005	19.994	103.758	19.829	6.525	0.507
555.500	363.834	80.004	19.994	103.758	19.828	6.610	0.528
556.000	364.083	80.005	19.994	103.758	19.834	6.230	0.532
556.500	364.375	80.005	19.994	103.758	19.829	6.529	0.532
557.000	364.619	80.005	19.994	103.758	19.829	6.525	0.539
557.500	364.876	80.006	19.994	103.756	19.827	6.660	0.518
558.000	365.112	80.006	19.994	103.757	19.827	6.689	0.497
558.500	365.371	80.005	19.994	103.758	19.824	6.883	0.494
559.000	365.646	80.005	19.995	103.764	19.823	6.977	0.515
559.500	365.852	80.005	19.995	103.767	19.829	6.571	0.508
560.000	366.141	80.006	19.994	103.767	19.828	6.633	0.488
560.500	366.416	80.006	19.997	103.766	19.820	7.200	0.529
561.000	366.679	80.006	19.997	103.765	19.822	7.018	0.551
561.500	366.973	80.006	19.997	103.758	19.821	7.101	0.548
562.000	367.220	80.007	19.995	103.755	19.823	6.956	0.549
562.500	367.469	80.006	19.997	103.759	19.822	7.029	0.518
563.000	367.710	80.005	19.995	103.762	19.823	6.993	0.493
563.500	367.972	80.005	19.996	103.764	19.823	6.983	0.497
564.000	368.264	80.006	19.995	103.764	19.820	7.195	0.529
564.500	368.478	80.007	19.994	103.764	19.823	6.964	0.530
565.000	368.759	80.006	19.993	103.760	19.823	7.004	0.500
565.500	369.026	80.006	19.994	103.757	19.823	6.956	0.521
566.000	369.269	80.006	19.995	103.755	19.821	7.108	0.528
566.500	369.542	80.006	19.995	103.755	19.817	7.364	0.513
567.000	369.786	80.005	19.994	103.755	19.818	7.343	0.517
567.500	370.042	80.004	19.994	103.754	19.819	7.237	0.508
568.000	370.252	80.006	19.994	103.754	19.819	7.243	0.483
568.500	370.538	80.006	19.995	103.755	19.818	7.306	0.481
569.000	370.839	80.005	19.993	103.754	19.819	7.258	0.541
569.500	371.099	80.003	19.993	103.755	19.814	7.589	0.574
570.000	371.340	80.005	19.993	103.754	19.818	7.303	0.531
570.500	371.609	80.003	19.993	103.754	19.811	7.815	0.505
571.000	371.847	80.005	19.994	103.753	19.817	7.406	0.508
571.500	372.108	80.004	19.993	103.754	19.815	7.514	0.503
572.000	372.351	80.004	19.994	103.755	19.814	7.634	0.502
572.500	372.656	80.004	19.994	103.756	19.810	7.861	0.526
573.000	372.889	80.004	19.994	103.756	19.816	7.481	0.542
573.500	373.123	80.006	19.995	103.756	19.814	7.624	0.502
574.000	373.418	80.005	19.995	103.757	19.812	7.734	0.498
574.500	373.685	80.006	19.994	103.756	19.811	7.805	0.546
575.000	373.919	80.005	19.995	103.756	19.815	7.518	0.531
575.500	374.181	80.005	19.994	103.756	19.813	7.664	0.498
576.000	374.434	80.004	19.993	103.756	19.808	7.999	0.506
576.500	374.696	80.004	19.994	103.755	19.806	8.174	0.515
577.000	374.949	80.003	19.992	103.754	19.809	7.961	0.515
577.500	375.210	80.005	19.993	103.754	19.806	8.186	0.515
578.000	375.470	80.005	19.993	103.754	19.803	8.411	0.517
578.500	375.711	80.003	19.994	103.755	19.805	8.232	0.511
579.000	376.005	80.004	19.994	103.755	19.807	8.132	0.518
579.500	376.242	80.004	19.993	103.755	19.805	8.273	0.533
580.000	376.502	80.005	19.993	103.755	19.804	8.332	0.514
580.500	376.757	80.005	19.993	103.755	19.805	8.255	0.506
581.000	376.998	80.005	19.993	103.755	19.804	8.321	0.506
581.500	377.276	80.004	19.994	103.755	19.804	8.340	0.508
582.000	377.513	80.006	19.994	103.755	19.802	8.482	0.517
582.500	377.778	80.005	19.994	103.754	19.804	8.298	0.508
583.000	377.990	80.005	19.994	103.755	19.801	8.507	0.490
583.500	378.282	80.007	19.993	103.754	19.801	8.544	0.491
584.000	378.572	80.004	19.995	103.754	19.802	8.419	0.543
584.500	378.785	80.004	19.994	103.753	19.803	8.400	0.542
585.000	379.016	80.004	19.994	103.752	19.801	8.546	0.473
585.500	379.289	80.004	19.993	103.752	19.799	8.648	0.474
586.000	379.540	80.005	19.995	103.753	19.801	8.538	0.514
586.500	379.793	80.005	19.993	103.753	19.801	8.521	0.514
587.000	380.058	80.006	19.993	103.753	19.798	8.711	0.511
587.500	380.313	80.005	19.994	103.754	19.798	8.738	0.519
588.000	380.583	80.005	19.993	103.754	19.796	8.846	0.523
588.500	380.861	80.005	19.994	103.754	19.796	8.884	0.536
589.000	381.113	80.004	19.994	103.754	19.797	8.819	0.539
589.500	381.360	80.004	19.994	103.754	19.801	8.550	0.514
590.000	381.606	80.005	19.993	103.754	19.795	8.962	0.496
590.500	381.806	80.006	19.994	103.754	19.796	8.879	0.470
591.000	382.090	80.006	19.994	103.754	19.793	9.120	0.465
591.500	382.354	80.005	19.994	103.754	19.793	9.060	0.516
592.000	382.569	80.005	19.994	103.753	19.791	9.197	0.514
592.500	382.842	80.005	19.994	103.754	19.791	9.254	0.484
593.000	383.139	80.005	19.993	103.754	19.787	9.518	0.529
593.500	383.393	80.005	19.995	103.753	19.788	9.427	0.560
594.000	383.627	80.005	19.994	103.753	19.784	9.749	0.519
594.500	383.888	80.007	19.993	103.753	19.784	9.749	0.492
595.000	384.160	80.005	19.993	103.753	19.783	9.782	0.515
595.500	384.404	80.004	19.993	103.754	19.780	9.970	0.525
596.000	384.640	80.004	19.994	103.754	19.780	10.026	0.498
596.500	384.877	80.005	19.994	103.755	19.780	10.003	0.476
597.000	385.129	80.004	19.993	103.755	19.778	10.153	0.481
597.500	385.406	80.004	19.993	103.755	19.775	10.375	0.509
598.000	385.675	80.004	19.994	103.754	19.780	10.028	0.538
598.500	385.913	80.005	19.994	103.754	19.779	10.061	0.526
599.000	386.164	80.004	19.994	103.753	19.779	10.075	0.498
599.500	386.422	80.005	19.995	103.752	19.776	10.269	0.500
600.000	386.702	80.005	19.993	103.752	19.776	10.289	0.523
600.500	386.961	80.005	19.994	103.754	19.775	10.373	0.538
601.000	387.200	80.003	19.994	103.755	19.775	10.367	0.519
601.500	387.439	80.004	19.994	103.755	19.775	10.325	0.488
602.000	387.703	80.004	19.994	103.756	19.775	10.327	0.490
602.500	387.987	80.005	19.994	103.756	19.771	10.638	0.526
603.000	388.231	80.005	19.993	103.755	19.773	10.500	0.538
603.500	388.486	80.005	19.993	103.754	19.770	10.683	0.513
604.000	388.713	80.004	19.992	103.755	19.770	10.685	0.490
604.500	388.957	80.005	19.993	103.754	19.769	10.741	0.477
605.000	389.198	80.006	19.992	103.755	19.770	10.710	0.478
605.500	389.488	80.004	19.993	103.755	19.764	11.097	0.508
606.000	389.710	80.004	19.994	103.756	19.772	10.554	0.522
606.500	389.992	80.004	19.993	103.757	19.769	10.785	0.508
607.000	390.201	80.003	19.993	103.758	19.767	10.908	0.497
607.500	390.465	80.004	19.993	103.757	19.765	11.025	0.482
608.000	390.708	80.005	19.993	103.758	19.767	10.885	0.490
608.500	390.934	80.003	19.993	103.758	19.765	11.029	0.488
609.000	391.216	80.006	19.994	103.759	19.767	10.887	0.488
609.500	391.427	80.005	19.993	103.760	19.765	11.022	0.500
610.000	391.688	80.004	19.994	103.760	19.761	11.317	0.483
610.500	391.940	80.006	19.993	103.759	19.762	11.284	0.492
611.000	392.207	80.005	19.993	103.761	19.763	11.182	0.516
611.500	392.456	80.006	19.994	103.761	19.760	11.417	0.518
612.000	392.719	80.005	19.994	103.761	19.758	11.563	0.514
612.500	392.994	80.005	19.993	103.760	19.755	11.765	0.525
613.000	393.237	80.004	19.994	103.760	19.758	11.516	0.528
613.500	393.497	80.004	19.993	103.758	19.754	11.811	0.511
614.000	393.776	80.005	19.994	103.757	19.758	11.564	0.522
614.500	394.009	80.004	19.994	103.757	19.755	11.757	0.526
615.000	394.275	80.007	19.993	103.757	19.751	12.040	0.505
615.500	394.540	80.005	19.994	103.758	19.752	11.982	0.515
616.000	394.783	80.005	19.993	103.761	19.750	12.098	0.519
616.500	395.056	80.007	19.994	103.761	19.753	11.913	0.512
617.000	395.308	80.006	19.994	103.761	19.747	12.300	0.521
617.500	395.567	80.006	19.994	103.761	19.746	12.380	0.518
618.000	395.803	80.006	19.993	103.760	19.742	12.657	0.503
618.500	396.101	80.006	19.993	103.757	19.746	12.393	0.515
619.000	396.324	80.007	19.994	103.757	19.742	12.653	0.528
619.500	396.587	80.006	19.993	103.760	19.741	12.778	0.504
620.000	396.852	80.006	19.991	103.761	19.735	13.176	0.507
620.500	397.048	80.007	19.994	103.761	19.737	13.026	0.494
621.000	397.339	80.007	19.996	103.763	19.741	12.736	0.474
621.500	397.585	80.006	19.995	103.768	19.742	12.703	0.512
622.000	397.858	80.007	19.995	103.766	19.737	13.061	0.528
622.500	398.077	80.007	19.994	103.764	19.737	13.034	0.506
623.000	398.377	80.006	19.996	103.765	19.738	12.980	0.505
623.500	398.608	80.006	19.992	103.763	19.738	12.956	0.525
624.000	398.840	80.006	19.994	103.758	19.734	13.256	0.497
624.500	399.141	80.007	19.993	103.758	19.735	13.135	0.498
625.000	399.372	80.006	19.993	103.759	19.731	13.420	0.533
625.500	399.605	80.006	19.995	103.759	19.733	13.316	0.498
626.000	399.856	80.006	19.994	103.759	19.730	13.487	0.474
626.500	400.128	80.005	19.993	103.762	19.730	13.508	0.503
627.000	400.397	80.004	19.994	103.762	19.728	13.671	0.531
627.500	400.624	80.005	19.995	103.761	19.727	13.708	0.519
628.000	400.863	80.005	19.994	103.761	19.727	13.745	0.481
628.500	401.104	80.005	19.994	103.767	19.725	13.891	0.473
629.000	401.368	80.005	19.994	103.766	19.729	13.563	0.492
629.500	401.614	80.004	19.994	103.766	19.724	13.976	0.508
630.000	401.853	80.004	19.995	103.766	19.725	13.870	0.498
630.500	402.059	80.005	19.994	103.765	19.721	14.160	0.465
631.000	402.306	80.006	19.993	103.760	19.724	13.931	0.449
631.500	402.610	80.005	19.994	103.760	19.718	14.349	0.502
632.000	402.851	80.006	19.994	103.767	19.719	14.305	0.548
632.500	403.103	80.005	19.995	103.767	19.720	14.241	0.519
633.000	403.355	80.006	19.994	103.768	19.717	14.405	0.499
633.500	403.587	80.004	19.994	103.769	19.715	14.555	0.494
634.000	403.832	80.005	19.994	103.766	19.714	14.634	0.480
634.500	404.077	80.006	19.995	103.760	19.714	14.676	0.484
635.000	404.320	80.005	19.994	103.760	19.713	14.745	0.489
635.500	404.597	80.006	19.994	103.758	19.715	14.586	0.504
636.000	404.845	80.005	19.994	103.757	19.712	14.801	0.522
636.500	405.095	80.006	19.993	103.757	19.712	14.788	0.511
637.000	405.348	80.007	19.994	103.756	19.707	15.108	0.501
637.500	405.590	80.006	19.994	103.756	19.707	15.123	0.499
638.000	405.865	80.007	19.995	103.762	19.709	14.983	0.505
638.500	406.116	80.005	19.994	103.766	19.705	15.291	0.521
639.000	406.331	80.005	19.994	103.769	19.707	15.109	0.496
639.500	406.618	80.006	19.995	103.768	19.703	15.399	0.484
640.000	406.882	80.005	19.995	103.767	19.700	15.652	0.527
640.500	407.098	80.007	19.994	103.760	19.699	15.707	0.516
641.000	407.334	80.006	19.994	103.756	19.702	15.483	0.465
641.500	407.626	80.006	19.995	103.753	19.698	15.765	0.490
642.000	407.913	80.007	19.993	103.754	19.698	15.801	0.554
642.500	408.115	80.008	19.994	103.754	19.696	15.915	0.534
643.000	408.387	80.008	19.994	103.755	19.693	16.142	0.482
643.500	408.628	80.007	19.994	103.755	19.693	16.152	0.494
644.000	408.898	80.008	19.993	103.755	19.692	16.178	0.512
644.500	409.132	80.007	19.993	103.754	19.690	16.330	0.507
645.000	409.340	80.007	19.993	103.755	19.691	16.259	0.473
645.500	409.635	80.008	19.993	103.754	19.692	16.180	0.473
646.000	409.894	80.007	19.994	103.754	19.691	16.282	0.528
646.500	410.140	80.007	19.994	103.754	19.690	16.324	0.529
647.000	410.390	80.009	19.994	103.755	19.692	16.223	0.501
647.500	410.636	80.007	19.993	103.755	19.691	16.290	0.496
648.000	410.873	80.006	19.994	103.760	19.687	16.546	0.489
648.500	411.109	80.007	19.994	103.766	19.685	16.692	0.478
649.000	411.389	80.007	19.995	103.773	19.684	16.760	0.494
649.500	411.621	80.005	19.993	103.775	19.684	16.759	0.514
650.000	411.900	80.006	19.995	103.775	19.682	16.878	0.512
650.500	412.145	80.007	19.995	103.771	19.682	16.911	0.518
651.000	412.371	80.006	19.995	103.765	19.680	17.065	0.497
651.500	412.665	80.005	19.995	103.761	19.681	16.971	0.495
652.000	412.932	80.005	19.995	103.759	19.681	16.974	0.540
652.500	413.127	80.004	19.993	103.761	19.680	17.067	0.511
653.000	413.375	80.005	19.995	103.761	19.678	17.208	0.452
653.500	413.613	80.004	19.996	103.762	19.675	17.386	0.464
654.000	413.905	80.003	19.995	103.762	19.674	17.485	0.508
654.500	414.131	80.003	19.995	103.763	19.673	17.503	0.524
655.000	414.365	80.005	19.994	103.767	19.671	17.650	0.489
655.500	414.620	80.003	19.996	103.769	19.670	17.729	0.475
656.000	414.886	80.003	19.996	103.771	19.672	17.612	0.506
656.500	415.102	80.004	19.995	103.769	19.667	17.922	0.501
657.000	415.328	80.003	19.995	103.769	19.670	17.756	0.462
657.500	415.612	80.003	19.995	103.765	19.667	17.952	0.476
658.000	415.859	80.004	19.995	103.762	19.663	18.227	0.520
658.500	416.098	80.004	19.995	103.758	19.663	18.234	0.508
659.000	416.385	80.003	19.995	103.758	19.665	18.095	0.506
659.500	416.607	80.004	19.995	103.756	19.663	18.263	0.518
660.000	416.901	80.004	19.995	103.763	19.663	18.213	0.512
660.500	417.155	80.004	19.995	103.770	19.664	18.164	0.531
661.000	417.382	80.004	19.995	103.776	19.662	18.311	0.514
661.500	417.660	80.004	19.995	103.778	19.661	18.362	0.493
662.000	417.906	80.005	19.995	103.778	19.659	18.512	0.515
662.500	418.164	80.004	19.994	103.770	19.660	18.448	0.514
663.000	418.412	80.006	19.995	103.763	19.655	18.781	0.505
663.500	418.651	80.003	19.995	103.757	19.658	18.594	0.497
664.000	418.923	80.005	19.995	103.756	19.659	18.496	0.499
664.500	419.194	80.004	19.995	103.755	19.654	18.839	0.526
665.000	419.431	80.004	19.994	103.756	19.654	18.889	0.525
665.500	419.679	80.004	19.994	103.761	19.654	18.842	0.496
666.000	419.956	80.005	19.996	103.766	19.655	18.834	0.505
666.500	420.203	80.004	19.994	103.768	19.650	19.128	0.525
667.000	420.470	80.006	19.995	103.768	19.651	19.080	0.519
667.500	420.701	80.004	19.994	103.769	19.650	19.162	0.506
668.000	420.940	80.005	19.994	103.766	19.650	19.154	0.484
668.500	421.216	80.004	19.993	103.762	19.649	19.213	0.493
669.000	421.472	80.006	19.994	103.760	19.648	19.297	0.524
669.500	421.734	80.006	19.994	103.761	19.644	19.605	0.525
670.000	421.967	80.004	19.994	103.759	19.646	19.444	0.506
670.500	422.228	80.006	19.994	103.757	19.644	19.551	0.495
671.000	422.480	80.005	19.993	103.758	19.643	19.668	0.503
671.500	422.731	80.005	19.993	103.757	19.641	19.764	0.508
672.000	422.963	80.005	19.994	103.758	19.641	19.797	0.493
672.500	423.238	80.005	19.993	103.762	19.638	19.980	0.495
673.000	423.472	80.004	19.993	103.763	19.634	20.274	0.508
673.500	423.748	80.005	19.994	103.761	19.636	20.157	0.509
674.000	424.008	80.004	19.993	103.761	19.633	20.317	0.523
674.500	424.280	80.004	19.993	103.761	19.633	20.357	0.534
675.000	424.513	80.005	19.993	103.762	19.635	20.237	0.519
675.500	424.742	80.004	19.992	103.762	19.635	20.233	0.483
676.000	425.044	80.005	19.993	103.763	19.633	20.325	0.497
676.500	425.307	80.005	19.993	103.766	19.630	20.545	0.548
677.000	425.567	80.004	19.993	103.768	19.625	20.882	0.544
677.500	425.822	80.006	19.994	103.765	19.626	20.872	0.519
678.000	426.071	80.004	19.995	103.766	19.626	20.861	0.509
678.500	426.322	80.004	19.994	103.768	19.626	20.832	0.502
679.000	426.596	80.005	19.995	103.768	19.621	21.219	0.512
679.500	426.874	80.007	19.995	103.766	19.621	21.174	0.539
680.000	427.097	80.004	19.993	103.764	19.619	21.321	0.527
680.500	427.365	80.003	19.993	103.763	19.623	21.040	0.497
681.000	427.618	80.005	19.997	103.763	19.621	21.192	0.506
681.500	427.838	80.005	19.996	103.763	19.622	21.101	0.496
682.000	428.117	80.005	19.995	103.768	19.619	21.334	0.486
682.500	428.374	80.004	19.995	103.770	19.620	21.261	0.518
683.000	428.627	80.005	19.993	103.769	19.615	21.595	0.523
683.500	428.877	80.003	19.995	103.768	19.611	21.864	0.507
684.000	429.155	80.006	19.993	103.766	19.614	21.658	0.516
684.500	429.410	80.004	19.993	103.761	19.614	21.683	0.531
685.000	429.692	80.005	19.995	103.759	19.614	21.666	0.535
685.500	429.902	80.004	19.994	103.758	19.612	21.807	0.515
686.000	430.146	80.004	19.994	103.753	19.612	21.830	0.473
686.500	430.375	80.004	19.994	103.753	19.609	22.053	0.463
687.000	430.672	80.002	19.993	103.753	19.607	22.142	0.500
687.500	430.868	80.003	19.993	103.753	19.608	22.089	0.509
688.000	431.145	80.003	19.993	103.754	19.605	22.310	0.483
688.500	431.391	80.005	19.993	103.756	19.606	22.241	0.498
689.000	431.645	80.003	19.995	103.756	19.604	22.360	0.512
689.500	431.901	80.004	19.993	103.755	19.601	22.568	0.505
690.000	432.180	80.004	19.993	103.755	19.602	22.502	0.522
690.500	432.399	80.004	19.994	103.756	19.600	22.697	0.516
691.000	432.648	80.004	19.993	103.757	19.595	23.009	0.483
691.500	432.916	80.003	19.994	103.756	19.598	22.778	0.492
692.000	433.142	80.003	19.995	103.756	19.594	23.082	0.506
692.500	433.435	80.005	19.993	103.756	19.594	23.122	0.506
693.000	433.678	80.004	19.995	103.757	19.594	23.104	0.527
693.500	433.938	80.005	19.993	103.756	19.591	23.298	0.520
694.000	434.204	80.004	19.993	103.758	19.590	23.369	0.515
694.500	434.464	80.004	19.994	103.759	19.591	23.303	0.526
695.000	434.715	80.004	19.992	103.759	19.588	23.544	0.518
695.500	434.972	80.004	19.993	103.759	19.587	23.566	0.510
696.000	435.265	80.005	19.992	103.760	19.586	23.666	0.529
696.500	435.472	80.005	19.994	103.760	19.588	23.487	0.525
697.000	435.716	80.006	19.992	103.759	19.585	23.753	0.475
697.500	435.967	80.005	19.994	103.760	19.581	23.974	0.473
698.000	436.227	80.006	19.993	103.759	19.585	23.722	0.503
698.500	436.512	80.006	19.993	103.757	19.584	23.768	0.528
699.000	436.762	80.005	19.993	103.757	19.582	23.945	0.540
699.500	437.036	80.006	19.993	103.756	19.580	24.072	0.530
700.000	437.298	80.006	19.993	103.756	19.580	24.073	0.530
700.500	437.542	80.007	19.993	103.755	19.583	23.872	0.521
701.000	437.793	80.006	19.994	103.755	19.578	24.190	0.500
701.500	438.062	80.006	19.993	103.755	19.581	23.995	0.508
702.000	438.274	80.007	19.993	103.755	19.576	24.345	0.501
702.500	438.614	80.007	19.994	103.755	19.573	24.548	0.516
703.000	438.820	80.007	19.992	103.756	19.572	24.609	0.549
703.500	439.054	80.007	19.993	103.756	19.574	24.483	0.493
704.000	439.312	80.006	19.993	103.757	19.572	24.665	0.466
704.500	439.554	80.006	19.993	103.757	19.571	24.712	0.496
705.000	439.786	80.006	19.993	103.756	19.572	24.637	0.487
705.500	440.050	80.007	19.993	103.755	19.567	24.958	0.485
706.000	440.314	80.006	19.993	103.755	19.568	24.938	0.512
706.500	440.598	80.007	19.993	103.752	19.568	24.943	0.538
707.000	440.864	80.005	19.994	103.752	19.570	24.767	0.548
707.500	441.080	80.006	19.993	103.752	19.571	24.739	0.516
708.000	441.325	80.006	19.993	103.751	19.569	24.870	0.472
708.500	441.576	80.005	19.993	103.751	19.564	25.178	0.479
709.000	441.813	80.007	19.994	103.751	19.563	25.286	0.492
709.500	442.120	80.005	19.993	103.751	19.563	25.296	0.516
710.000	442.355	80.006	19.992	103.752	19.562	25.338	0.543
710.500	442.611	80.006	19.993	103.752	19.560	25.458	0.517
711.000	442.891	80.006	19.992	103.753	19.558	25.606	0.513
711.500	443.162	80.006	19.993	103.752	19.561	25.408	0.543
712.000	443.401	80.007	19.994	103.752	19.559	25.584	0.531
712.500	443.646	80.006	19.993	103.752	19.559	25.539	0.497
713.000	443.923	80.005	19.993	103.750	19.557	25.701	0.503
713.500	444.182	80.005	19.994	103.746	19.555	25.827	0.528
714.000	444.413	80.006	19.994	103.744	19.556	25.745	0.513
714.500	444.677	80.005	19.994	103.739	19.553	25.951	0.493
715.000	444.912	80.006	19.994	103.733	19.557	25.672	0.497
715.500	445.176	80.004	19.993	103.730	19.558	25.642	0.499
716.000	445.424	80.006	19.994	103.731	19.556	25.736	0.505
716.500	445.667	80.006	19.994	103.730	19.553	25.986	0.502
717.000	445.925	80.006	19.994	103.735	19.554	25.927	0.496
717.500	446.182	80.005	19.993	103.740	19.553	25.988	0.508
718.000	446.389	80.005	19.994	103.743	19.554	25.913	0.490
718.500	446.652	80.005	19.994	103.745	19.553	25.944	0.467
719.000	446.916	80.004	19.994	103.748	19.553	25.971	0.498
719.501	447.205	80.005	19.994	103.748	19.550	26.204	0.540
720.000	447.436	80.006	19.994	103.747	19.552	26.014	0.537
720.500	447.677	80.006	19.994	103.748	19.550	26.162	0.497
721.000	447.962	80.005	19.995	103.748	19.553	26.007	0.499
721.500	448.215	80.007	19.994	103.743	19.549	26.282	0.531
722.000	448.472	80.006	19.994	103.741	19.548	26.306	0.524
722.500	448.719	80.007	19.993	103.742	19.553	26.000	0.507
723.000	448.957	80.006	19.994	103.740	19.554	25.892	0.495
723.500	449.211	80.008	19.994	103.737	19.554	25.888	0.489
724.000	449.468	80.006	19.994	103.739	19.553	26.004	0.502
724.500	449.745	80.007	19.995	103.734	19.554	25.909	0.523
725.000	449.961	80.007	19.995	103.727	19.552	26.054	0.513
725.500	450.239	80.007	19.994	103.723	19.551	26.119	0.493
726.000	450.482	80.007	19.994	103.728	19.553	25.945	0.508
726.500	450.734	80.007	19.994	103.731	19.554	25.905	0.508
727.000	451.010	80.008	19.993	103.738	19.552	26.008	0.511
727.500	451.250	80.008	19.994	103.746	19.554	25.869	0.521
728.000	451.510	80.008	19.995	103.750	19.555	25.810	0.508
728.500	451.777	80.007	19.994	103.748	19.555	25.819	0.513
729.000	452.026	80.006	19.993	103.748	19.555	25.865	0.521
729.500	452.252	80.007	19.994	103.747	19.554	25.900	0.496
730.000	452.517	80.007	19.993	103.747	19.555	25.831	0.483
730.500	452.790	80.008	19.994	103.749	19.558	25.631	0.514
731.000	453.000	80.007	19.993	103.749	19.558	25.620	0.511
731.500	453.279	80.006	19.994	103.748	19.557	25.719	0.486
732.000	453.545	80.007	19.993	103.745	19.558	25.618	0.517
732.500	453.758	80.007	19.994	103.745	19.561	25.381	0.512
733.000	454.019	80.006	19.993	103.742	19.559	25.522	0.477
733.500	454.272	80.006	19.995	103.742	19.559	25.567	0.494
734.000	454.542	80.005	19.994	103.739	19.556	25.727	0.518
734.500	454.785	80.005	19.993	103.739	19.557	25.652	0.518
735.000	455.036	80.003	19.994	103.733	19.561	25.399	0.504
735.500	455.277	80.003	19.994	103.731	19.563	25.296	0.493
736.000	455.556	80.004	19.994	103.733	19.561	25.418	0.506
736.500	455.781	80.005	19.994	103.732	19.564	25.210	0.512
737.000	456.059	80.005	19.994	103.730	19.562	25.318	0.503
737.500	456.333	80.004	19.993	103.730	19.561	25.425	0.527
738.000	456.599	80.004	19.993	103.734	19.561	25.397	0.546
738.500	456.830	80.004	19.994	103.733	19.563	25.241	0.519
739.000	457.111	80.004	19.994	103.736	19.563	25.293	0.504
739.500	457.358	80.003	19.993	103.742	19.565	25.139	0.520
740.000	457.580	80.004	19.993	103.745	19.565	25.155	0.498
740.500	457.850	80.003	19.993	103.741	19.566	25.088	0.481
741.000	458.143	80.003	19.995	103.742	19.566	25.021	0.528
741.500	458.382	80.002	19.996	103.744	19.565	25.152	0.547
742.000	458.591	80.003	19.995	103.746	19.564	25.191	0.490
742.500	458.899	80.004	19.995	103.747	19.567	24.964	0.483
743.000	459.171	80.004	19.994	103.750	19.564	25.171	0.548
743.500	459.404	80.004	19.996	103.744	19.564	25.171	0.543
744.000	459.690	80.003	19.995	103.738	19.566	25.051	0.513
744.500	459.956	80.003	19.994	103.733	19.566	25.029	0.536
745.000	460.203	80.005	19.993	103.726	19.570	24.784	0.532
745.500	460.427	80.003	19.995	103.727	19.569	24.873	0.492
746.000	460.660	80.004	19.994	103.732	19.569	24.859	0.464
746.500	460.930	80.002	19.994	103.732	19.571	24.727	0.480
747.000	461.199	80.005	19.994	103.730	19.572	24.596	0.521
747.500	461.454	80.004	19.995	103.729	19.572	24.619	0.531
748.000	461.661	80.006	19.994	103.729	19.572	24.606	0.493
748.500	461.905	80.004	19.995	103.725	19.575	24.417	0.456
749.000	462.193	80.003	19.994	103.722	19.576	24.357	0.491
749.500	462.480	80.004	19.995	103.722	19.577	24.270	0.553
750.000	462.701	80.004	19.994	103.723	19.578	24.199	0.542
750.500	463.008	80.003	19.995	103.723	19.580	24.068	0.519
751.000	463.190	80.003	19.995	103.725	19.581	24.009	0.508
751.500	463.466	80.005	19.995	103.733	19.581	23.969	0.473
752.000	463.692	80.004	19.993	103.736	19.582	23.955	0.480
752.500	463.969	80.005	19.994	103.736	19.584	23.798	0.503
753.000	464.218	80.003	19.995	103.737	19.585	23.707	0.515
753.500	464.470	80.005	19.994	103.736	19.584	23.782	0.514
754.000	464.676	80.005	19.994	103.734	19.587	23.551	0.479
754.500	464.927	80.004	19.994	103.737	19.586	23.624	0.457
755.000	465.159	80.003	19.994	103.738	19.592	23.241	0.470
755.500	465.423	80.004	19.995	103.734	19.590	23.349	0.489
756.000	465.690	80.005	19.994	103.732	19.590	23.354	0.514
756.500	465.893	80.004	19.994	103.729	19.596	22.952	0.501
757.000	466.185	80.005	19.993	103.724	19.595	23.007	0.483
757.500	466.396	80.004	19.995	103.721	19.598	22.814	0.499
758.000	466.680	80.003	19.994	103.721	19.598	22.780	0.499
758.500	466.901	80.003	19.994	103.720	19.600	22.693	0.500
759.000	467.169	80.004	19.994	103.720	19.604	22.380	0.497
759.500	467.416	80.005	19.995	103.719	19.602	22.554	0.502
760.000	467.668	80.004	19.994	103.719	19.602	22.495	0.506
760.500	467.951	80.003	19.994	103.723	19.606	22.213	0.517
761.000	468.163	80.002	19.995	103.726	19.601	22.595	0.515
761.500	468.411	80.004	19.995	103.726	19.608	22.097	0.478
762.000	468.668	80.003	19.994	103.727	19.608	22.100	0.483
762.500	468.955	80.004	19.993	103.728	19.610	21.931	0.525
763.000	469.156	80.004	19.992	103.725	19.613	21.754	0.516
763.500	469.393	80.003	19.994	103.722	19.613	21.770	0.463
764.000	469.677	80.003	19.995	103.721	19.617	21.451	0.480
764.500	469.907	80.005	19.993	103.720	19.619	21.355	0.517
765.000	470.178	80.004	19.993	103.720	19.620	21.289	0.507
765.500	470.426	80.004	19.994	103.720	19.617	21.460	0.510
766.000	470.699	80.004	19.993	103.719	19.620	21.281	0.520
766.500	470.950	80.005	19.993	103.721	19.623	21.062	0.522
767.000	471.189	80.005	19.994	103.723	19.624	20.954	0.506
767.500	471.447	80.004	19.993	103.724	19.628	20.715	0.494
768.000	471.710	80.004	19.994	103.728	19.628	20.671	0.510
768.500	471.945	80.003	19.993	103.735	19.630	20.536	0.510
769.000	472.197	80.005	19.994	103.738	19.630	20.527	0.492
769.500	472.471	80.005	19.993	103.739	19.628	20.709	0.507
770.000	472.706	80.003	19.993	103.739	19.633	20.368	0.518
770.500	472.960	80.004	19.993	103.736	19.636	20.128	0.499
771.000	473.234	80.005	19.993	103.729	19.637	20.053	0.508
771.500	473.495	80.003	19.994	103.724	19.641	19.770	0.532
772.000	473.761	80.003	19.995	103.721	19.639	19.905	0.531
772.500	474.035	80.004	19.993	103.721	19.645	19.497	0.533
773.000	474.298	80.004	19.994	103.718	19.643	19.670	0.538
773.500	474.524	80.004	19.994	103.718	19.643	19.607	0.513
774.000	474.802	80.004	19.995	103.721	19.646	19.455	0.497
774.500	475.027	80.004	19.994	103.722	19.649	19.232	0.504
775.000	475.298	80.005	19.994	103.724	19.652	19.002	0.499
775.500	475.556	80.005	19.994	103.726	19.654	18.872	0.512
776.000	475.821	80.005	19.994	103.730	19.655	18.797	0.526
776.500	476.085	80.004	19.994	103.732	19.654	18.832	0.526
777.000	476.343	80.005	19.994	103.733	19.656	18.701	0.526
777.500	476.597	80.005	19.994	103.730	19.658	18.578	0.517
778.000	476.854	80.005	19.994	103.730	19.659	18.489	0.512
778.500	477.091	80.005	19.993	103.732	19.658	18.548	0.503
779.000	477.347	80.005	19.994	103.732	19.662	18.287	0.494
779.500	477.619	80.006	19.994	103.731	19.667	17.956	0.511
780.000	477.858	80.007	19.994	103.730	19.666	18.002	0.519
780.500	478.150	80.008	19.993	103.729	19.670	17.750	0.521
781.000	478.440	80.006	19.993	103.725	19.671	17.655	0.556
781.500	478.657	80.008	19.994	103.721	19.676	17.321	0.545
782.000	478.936	80.006	19.993	103.719	19.676	17.313	0.502
782.500	479.163	80.007	19.993	103.721	19.676	17.320	0.501
783.000	479.479	80.006	19.993	103.720	19.682	16.921	0.524
783.500	479.711	80.007	19.993	103.719	19.679	17.120	0.545
784.000	479.958	80.007	19.994	103.720	19.681	16.952	0.513
784.500	480.231	80.007	19.994	103.720	19.684	16.735	0.499
785.000	480.498	80.007	19.993	103.720	19.684	16.781	0.530
785.500	480.742	80.006	19.993	103.720	19.685	16.659	0.526
786.000	481.018	80.007	19.993	103.719	19.689	16.426	0.515
786.500	481.273	80.006	19.993	103.721	19.687	16.534	0.525
787.000	481.555	80.006	19.993	103.723	19.695	15.993	0.534
787.500	481.814	80.007	19.993	103.721	19.695	15.985	0.539
788.000	482.053	80.006	19.994	103.720	19.694	16.049	0.520
788.500	482.298	80.006	19.993	103.721	19.697	15.837	0.491
789.000	482.552	80.005	19.994	103.721	19.695	15.978	0.491
789.500	482.844	80.005	19.993	103.718	19.696	15.888	0.522
790.000	483.123	80.006	19.994	103.720	19.702	15.492	0.559
790.500	483.385	80.006	19.993	103.720	19.700	15.606	0.556
791.000	483.661	80.005	19.994	103.721	19.702	15.482	0.540
791.500	483.909	80.005	19.994	103.719	19.707	15.132	0.531
792.000	484.161	80.005	19.993	103.719	19.706	15.218	0.512
792.500	484.459	80.006	19.994	103.718	19.707	15.123	0.525
793.000	484.713	80.007	19.993	103.717	19.709	15.011	0.551
793.500	484.993	80.006	19.994	103.717	19.710	14.927	0.543
794.000	485.233	80.005	19.994	103.721	19.714	14.621	0.527
794.500	485.488	80.006	19.993	103.727	19.715	14.567	0.507
795.000	485.795	80.006	19.993	103.726	19.713	14.686	0.529
795.500	486.033	80.005	19.994	103.727	19.718	14.334	0.554
796.000	486.368	80.006	19.994	103.726	19.722	14.109	0.559
796.500	486.620	80.006	19.993	103.723	19.722	14.061	0.580
797.000	486.872	80.006	19.994	103.718	19.725	13.898	0.546
797.500	487.101	80.007	19.993	103.718	19.726	13.815	0.493
798.000	487.377	80.006	19.994	103.717	19.726	13.830	0.493
798.500	487.616	80.006	19.993	103.717	19.728	13.657	0.510
799.000	487.906	80.007	19.993	103.717	19.728	13.659	0.522
799.500	488.142	80.006	19.993	103.718	19.728	13.663	0.528
800.000	488.453	80.005	19.993	103.719	19.731	13.436	0.536
800.500	488.720	80.006	19.993	103.723	19.729	13.619	0.562
801.000	488.992	80.007	19.996	103.726	19.735	13.172	0.558
801.500	489.256	80.007	19.993	103.726	19.738	12.935	0.537
802.000	489.496	80.006	19.994	103.725	19.737	13.043	0.520
802.500	489.727	80.007	19.993	103.724	19.741	12.754	0.488
803.000	489.981	80.007	19.995	103.721	19.741	12.768	0.478
803.500	490.237	80.007	19.994	103.717	19.746	12.404	0.497
804.000	490.508	80.006	19.994	103.716	19.742	12.667	0.518
804.500	490.762	80.008	19.993	103.715	19.744	12.555	0.525
805.000	491.033	80.008	19.993	103.716	19.746	12.373	0.525
805.500	491.302	80.006	19.992	103.716	19.749	12.190	0.533
806.000	491.535	80.007	19.993	103.716	19.749	12.180	0.522
806.500	491.830	80.006	19.992	103.717	19.749	12.195	0.515
807.000	492.092	80.007	19.994	103.717	19.751	12.035	0.543
807.500	492.389	80.006	19.992	103.718	19.753	11.885	0.558
808.000	492.634	80.007	19.993	103.718	19.751	12.014	0.550
808.500	492.860	80.007	19.993	103.718	19.755	11.781	0.506
809.000	493.171	80.007	19.993	103.718	19.755	11.752	0.504
809.500	493.420	80.007	19.993	103.719	19.755	11.724	0.549
810.000	493.687	80.008	19.994	103.718	19.760	11.427	0.538
810.500	493.964	80.007	19.995	103.718	19.762	11.254	0.530
811.000	494.226	80.006	19.993	103.718	19.763	11.181	0.542
811.500	494.492	80.006	19.993	103.718	19.764	11.132	0.533
812.000	494.731	80.007	19.994	103.717	19.765	11.027	0.517
812.500	495.005	80.007	19.993	103.717	19.766	11.007	0.509
813.000	495.253	80.005	19.993	103.716	19.768	10.834	0.518
813.500	495.508	80.006	19.994	103.715	19.770	10.719	0.512
814.000	495.761	80.006	19.994	103.715	19.770	10.667	0.505
814.500	496.017	80.007	19.994	103.716	19.771	10.646	0.509
815.000	496.277	80.005	19.994	103.721	19.774	10.415	0.512
815.500	496.550	80.006	19.994	103.724	19.773	10.492	0.524
816.000	496.825	80.005	19.994	103.725	19.773	10.477	0.541
816.500	497.087	80.004	19.994	103.725	19.772	10.532	0.543
817.000	497.369	80.005	19.994	103.723	19.771	10.606	0.540
817.500	497.602	80.005	19.993	103.718	19.775	10.315	0.529
818.000	497.856	80.002	19.993	103.715	19.778	10.134	0.501
818.500	498.100	80.004	19.994	103.715	19.776	10.274	0.492
819.000	498.355	80.004	19.994	103.717	19.780	10.016	0.499
819.500	498.609	80.004	19.994	103.719	19.781	9.959	0.504
820.000	498.872	80.004	19.995	103.719	19.784	9.714	0.513
820.500	499.138	80.005	19.994	103.719	19.783	9.780	0.523
821.000	499.361	80.004	19.994	103.719	19.791	9.226	0.510
821.500	499.627	80.005	19.994	103.717	19.787	9.489	0.489
822.000	499.875	80.003	19.994	103.715	19.791	9.208	0.501
822.500	500.138	80.003	19.994	103.715	19.793	9.083	0.512
823.000	500.406	80.004	19.994	103.715	19.789	9.335	0.521
823.500	500.658	80.004	19.993	103.715	19.793	9.104	0.525
824.000	500.901	80.004	19.994	103.716	19.794	8.991	0.508
824.500	501.159	80.003	19.993	103.716	19.796	8.875	0.498
825.000	501.441	80.004	19.993	103.717	19.797	8.785	0.521
825.500	501.660	80.005	19.994	103.718	19.795	8.944	0.520
826.000	501.917	80.004	19.994	103.719	19.800	8.610	0.488
826.500	502.171	80.004	19.994	103.718	19.798	8.744	0.493
827.000	502.488	80.004	19.993	103.718	19.800	8.568	0.541
827.500	502.701	80.004	19.993	103.719	19.800	8.583	0.551
828.000	502.983	80.004	19.993	103.718	19.801	8.516	0.512
828.500	503.187	80.005	19.994	103.718	19.799	8.677	0.490
829.000	503.472	80.005	19.994	103.717	19.801	8.502	0.488
829.500	503.693	80.004	19.993	103.715	19.805	8.269	0.498
830.000	503.944	80.005	19.993	103.715	19.803	8.383	0.489
830.500	504.197	80.004	19.993	103.713	19.804	8.329	0.488
831.000	504.438	80.005	19.995	103.713	19.807	8.113	0.499
831.500	504.710	80.005	19.993	103.713	19.804	8.339	0.504
832.000	504.934	80.004	19.994	103.713	19.806	8.196	0.504
832.500	505.208	80.005	19.993	103.714	19.806	8.175	0.497
833.000	505.448	80.004	19.994	103.714	19.812	7.767	0.507
833.500	505.686	80.005	19.994	103.714	19.811	7.817	0.496
834.000	505.941	80.006	19.993	103.714	19.812	7.725	0.485
834.500	506.230	80.005	19.994	103.713	19.813	7.682	0.518
835.000	506.480	80.005	19.993	103.710	19.813	7.706	0.541
835.500	506.737	80.005	19.994	103.709	19.815	7.500	0.523
836.000	506.986	80.005	19.995	103.710	19.812	7.758	0.507
836.500	507.218	80.004	19.994	103.709	19.811	7.783	0.493
837.000	507.510	80.005	19.994	103.710	19.816	7.454	0.503
837.500	507.721	80.004	19.994	103.712	19.815	7.517	0.514
838.000	507.999	80.005	19.994	103.713	19.816	7.444	0.495
838.500	508.261	80.006	19.994	103.713	19.817	7.396	0.514
839.000	508.513	80.004	19.995	103.714	19.820	7.188	0.528
839.500	508.786	80.005	19.994	103.713	19.819	7.269	0.520
840.000	509.012	80.004	19.995	103.713	19.817	7.403	0.512
840.500	509.292	80.004	19.995	103.713	19.821	7.094	0.503
841.000	509.521	80.005	19.994	103.713	19.822	7.030	0.508
841.500	509.757	80.004	19.994	103.713	19.818	7.342	0.487
842.000	510.000	80.004	19.994	103.713	19.820	7.200	0.472
842.500	510.277	80.003	19.994	103.713	19.820	7.173	0.499
843.000	510.546	80.005	19.995	103.713	19.820	7.202	0.533
843.500	510.730	80.003	19.995	103.711	19.821	7.082	0.499
844.000	511.014	80.002	19.995	103.711	19.821	7.146	0.461
844.500	511.271	80.004	19.995	103.712	19.820	7.157	0.505
845.000	511.528	80.003	19.994	103.711	19.821	7.142	0.527
845.500	511.752	80.004	19.994	103.712	19.823	6.996	0.497
846.000	511.982	80.003	19.995	103.713	19.819	7.242	0.468
846.500	512.243	80.004	19.995	103.713	19.821	7.144	0.473
847.000	512.502	80.004	19.995	103.713	19.820	7.152	0.506
847.500	512.763	80.003	19.994	103.713	19.825	6.861	0.520
848.000	512.976	80.003	19.995	103.713	19.821	7.130	0.497
848.500	513.240	80.004	19.993	103.713	19.825	6.821	0.475
849.000	513.501	80.003	19.995	103.713	19.824	6.884	0.501
849.500	513.757	80.004	19.994	103.712	19.822	7.050	0.521
850.000	514.035	80.004	19.994	103.712	19.825	6.850	0.526
850.500	514.238	80.004	19.996	103.713	19.826	6.761	0.507
851.000	514.499	80.004	19.995	103.713	19.826	6.782	0.472
851.500	514.755	80.003	19.994	103.712	19.823	6.998	0.490
852.000	515.000	80.003	19.995	103.713	19.827	6.684	0.509
852.500	515.259	80.004	19.996	103.713	19.825	6.863	0.503
853.000	515.539	80.005	19.995	103.713	19.827	6.673	0.522
853.500	515.771	80.003	19.994	103.713	19.829	6.557	0.526
854.000	516.020	80.005	19.994	103.714	19.824	6.915	0.497
854.500	516.307	80.006	19.994	103.714	19.828	6.596	0.508
855.000	516.544	80.005	19.994	103.715	19.828	6.607	0.530
855.500	516.782	80.005	19.993	103.716	19.832	6.326	0.499
856.000	517.043	80.007	19.994	103.715	19.830	6.482	0.487
856.500	517.309	80.006	19.994	103.715	19.831	6.428	0.513
857.000	517.562	80.006	19.994	103.715	19.829	6.521	0.523
857.500	517.818	80.006	19.993	103.714	19.826	6.726	0.514
858.000	518.032	80.006	19.994	103.714	19.830	6.446	0.489
858.500	518.285	80.006	19.995	103.714	19.828	6.627	0.469
859.000	518.572	80.007	19.993	103.714	19.829	6.551	0.504
859.500	518.771	80.007	19.995	103.715	19.831	6.424	0.513
860.000	519.030	80.004	19.995	103.715	19.831	6.440	0.472
860.500	519.271	80.006	19.995	103.714	19.833	6.271	0.479
861.000	519.535	80.008	19.996	103.716	19.834	6.223	0.502
861.500	519.801	80.007	19.996	103.716	19.833	6.277	0.517
862.000	520.001	80.006	19.995	103.719	19.832	6.323	0.498
862.500	520.301	80.007	19.994	103.718	19.836	6.054	0.483
863.000	520.559	80.007	19.994	103.719	19.835	6.155	0.529
863.500	520.810	80.007	19.994	103.718	19.834	6.178	0.533
864.000	521.036	80.007	19.994	103.718	19.838	5.886	0.493
864.500	521.291	80.007	19.994	103.715	19.838	5.899	0.479
865.000	521.545	80.007	19.992	103.715	19.838	5.947	0.495
865.500	521.752	80.008	19.994	103.715	19.835	6.096	0.485
866.000	522.024	80.008	19.993	103.716	19.835	6.117	0.470
866.500	522.269	80.007	19.993	103.715	19.836	6.080	0.498
867.000	522.563	80.008	19.993	103.715	19.836	6.048	0.528
867.500	522.793	80.008	19.993	103.717	19.840	5.805	0.532
868.000	523.050	80.006	19.994	103.717	19.838	5.892	0.505
868.500	523.312	80.007	19.994	103.716	19.838	5.909	0.503
869.000	523.560	80.006	19.994	103.717	19.841	5.686	0.515
869.500	523.848	80.007	19.994	103.718	19.840	5.786	0.523
870.000	524.061	80.007	19.994	103.717	19.838	5.945	0.519
870.500	524.303	80.005	19.994	103.717	19.840	5.773	0.478
871.000	524.577	80.006	19.993	103.718	19.838	5.896	0.486
871.500	524.804	80.006	19.994	103.724	19.840	5.784	0.508
872.000	525.049	80.009	19.993	103.725	19.838	5.898	0.486
872.500	525.306	80.005	19.994	103.726	19.841	5.732	0.487
873.000	525.572	80.006	19.993	103.726	19.840	5.784	0.512
873.500	525.823	80.005	19.993	103.725	19.840	5.749	0.520
874.000	526.057	80.006	19.993	103.719	19.839	5.816	0.501
874.500	526.355	80.007	19.993	103.719	19.838	5.890	0.509
875.000	526.578	80.005	19.994	103.720	19.839	5.832	0.527
875.500	526.855	80.005	19.994	103.719	19.841	5.726	0.511
876.000	527.117	80.006	19.993	103.719	19.843	5.593	0.519
876.500	527.365	80.006	19.993	103.721	19.845	5.445	0.524
877.000	527.625	80.007	19.994	103.720	19.844	5.505	0.509
877.500	527.922	80.006	19.992	103.719	19.841	5.680	0.532
878.000	528.157	80.006	19.993	103.721	19.842	5.605	0.544
878.500	528.428	80.005	19.993	103.721	19.843	5.595	0.519
879.000	528.685	80.005	19.994	103.720	19.844	5.480	0.518
879.500	528.929	80.005	19.993	103.720	19.846	5.386	0.515
880.000	529.175	80.006	19.993	103.720	19.846	5.330	0.495
880.500	529.434	80.007	19.993	103.718	19.843	5.582	0.497
881.000	529.695	80.007	19.992	103.719	19.842	5.628	0.512
881.500	529.934	80.005	19.994	103.725	19.847	5.301	0.510
882.000	530.240	80.006	19.993	103.726	19.843	5.574	0.523
882.500	530.462	80.005	19.993	103.725	19.847	5.297	0.537
883.000	530.764	80.007	19.993	103.725	19.845	5.405	0.526
883.500	530.977	80.007	19.994	103.724	19.843	5.534	0.519
884.000	531.233	80.008	19.993	103.718	19.846	5.341	0.492
884.500	531.488	80.008	19.993	103.716	19.846	5.341	0.490
885.000	531.763	80.007	19.994	103.717	19.846	5.370	0.521
885.500	532.013	80.007	19.992	103.717	19.849	5.174	0.527
886.000	532.271	80.008	19.993	103.717	19.850	5.085	0.516
886.500	532.549	80.008	19.993	103.717	19.849	5.164	0.522
887.000	532.780	80.006	19.993	103.716	19.846	5.333	0.522
887.500	533.035	80.008	19.992	103.716	19.851	4.975	0.497
888.000	533.302	80.008	19.993	103.717	19.850	5.079	0.504
888.500	533.539	80.007	19.993	103.718	19.849	5.110	0.513
889.000	533.797	80.009	19.993	103.718	19.848	5.239	0.500
889.500	534.081	80.009	19.992	103.720	19.851	5.010	0.519
890.000	534.329	80.007	19.992	103.720	19.849	5.153	0.537
890.500	534.629	80.008	19.992	103.718	19.850	5.087	0.540
891.000	534.839	80.008	19.993	103.718	19.849	5.124	0.529
891.500	535.123	80.009	19.993	103.719	19.849	5.145	0.501
892.000	535.364	80.007	19.993	103.718	19.852	4.922	0.510
892.500	535.603	80.008	19.993	103.718	19.850	5.093	0.503
893.000	535.875	80.007	19.993	103.718	19.849	5.145	0.495
893.500	536.151	80.008	19.994	103.718	19.850	5.076	0.530
894.000	536.382	80.007	19.992	103.717	19.850	5.105	0.528
894.500	536.677	80.007	19.993	103.716	19.847	5.318	0.517
895.000	536.893	80.006	19.993	103.716	19.849	5.149	0.518
895.500	537.180	80.006	19.993	103.715	19.848	5.212	0.507
896.000	537.397	80.008	19.992	103.716	19.848	5.201	0.504
896.500	537.642	80.007	19.994	103.716	19.849	5.108	0.483
897.000	537.891	80.006	19.994	103.716	19.850	5.093	0.478
897.500	538.144	80.006	19.994	103.715	19.849	5.131	0.498
898.000	538.476	80.007	19.993	103.714	19.846	5.357	0.543
898.500	538.666	80.006	19.994	103.714	19.847	5.318	0.554
899.000	538.979	80.005	19.995	103.713	19.846	5.366	0.513
899.500	539.242	80.003	19.993	103.713	19.851	4.991	0.540
900.000	539.486	80.005	19.994	103.714	19.848	5.197	0.542
900.500	539.756	80.006	19.995	103.715	19.849	5.130	0.511
901.000	539.968	80.004	19.993	103.715	19.850	5.056	0.498
901.500	540.235	80.005	19.993	103.716	19.847	5.295	0.480
902.000	540.501	80.005	19.994	103.716	19.848	5.212	0.506
902.500	540.769	80.006	19.995	103.716	19.849	5.120	0.534
903.000	540.994	80.003	19.995	103.716	19.846	5.335	0.514
903.500	541.267	80.007	19.993	103.716	19.848	5.199	0.495
904.000	541.516	80.004	19.993	103.717	19.851	5.037	0.510
904.500	541.774	80.006	19.994	103.717	19.849	5.143	0.515
905.000	542.013	80.005	19.994	103.717	19.847	5.276	0.502
905.500	542.275	80.004	19.994	103.718	19.851	5.028	0.499
906.000	542.545	80.004	19.993	103.718	19.848	5.228	0.516
906.500	542.788	80.005	19.995	103.717	19.848	5.210	0.522
907.000	543.036	80.005	19.993	103.717	19.849	5.145	0.502
907.500	543.301	80.004	19.995	103.716	19.849	5.164	0.502
908.000	543.544	80.005	19.994	103.715	19.845	5.395	0.511
908.500	543.827	80.005	19.994	103.716	19.847	5.285	0.517
909.000	544.098	80.004	19.995	103.716	19.850	5.079	0.540
909.500	544.304	80.006	19.994	103.716	19.846	5.380	0.515
910.000	544.575	80.004	19.994	103.716	19.851	4.972	0.477
910.500	544.859	80.006	19.994	103.715	19.847	5.283	0.516
911.000	545.096	80.005	19.994	103.716	19.845	5.408	0.538
911.500	545.338	80.007	19.995	103.718	19.849	5.153	0.500
912.000	545.620	80.005	19.993	103.718	19.848	5.237	0.502
912.500	545.866	80.006	19.995	103.718	19.847	5.249	0.526
913.000	546.097	80.007	19.993	103.719	19.849	5.114	0.502
913.500	546.375	80.006	19.995	103.719	19.847	5.270	0.492
914.000	546.628	80.006	19.995	103.717	19.847	5.257	0.520
914.500	546.899	80.005	19.994	103.717	19.848	5.199	0.528
915.000	547.167	80.007	19.993	103.717	19.848	5.188	0.531
915.500	547.402	80.008	19.994	103.718	19.848	5.191	0.521
916.000	547.642	80.008	19.994	103.718	19.849	5.139	0.489
916.500	547.898	80.006	19.993	103.717	19.849	5.128	0.486
917.000	548.164	80.006	19.995	103.717	19.846	5.349	0.509
917.500	548.418	80.007	19.994	103.717	19.846	5.385	0.521
918.000	548.674	80.006	19.994	103.716	19.846	5.364	0.515
918.500	548.960	80.006	19.993	103.716	19.848	5.187	0.526
919.000	549.193	80.006	19.995	103.716	19.849	5.158	0.530
919.500	549.476	80.005	19.994	103.716	19.849	5.157	0.517
920.000	549.701	80.006	19.993	103.716	19.846	5.343	0.512
920.500	549.977	80.006	19.996	103.715	19.848	5.195	0.505
921.000	550.293	80.006	19.995	103.715	19.848	5.232	0.546
921.500	550.536	80.006	19.996	103.714	19.846	5.368	0.575
922.000	550.790	80.005	19.994	103.714	19.845	5.422	0.528
922.500	551.030	80.005	19.995	103.717	19.842	5.634	0.496
923.000	551.259	80.007	19.995	103.718	19.845	5.391	0.482
923.500	551.552	80.007	19.995	103.719	19.848	5.234	0.496
924.000	551.823	80.005	19.994	103.719	19.845	5.392	0.543
924.500	552.053	80.005	19.994	103.719	19.846	5.344	0.532
925.000	552.354	80.004	19.994	103.718	19.844	5.465	0.515
925.500	552.572	80.007	19.995	103.720	19.846	5.345	0.525
926.000	552.835	80.004	19.995	103.722	19.843	5.549	0.500
926.500	553.083	80.005	19.994	103.722	19.845	5.399	0.496
927.000	553.318	80.005	19.995	103.722	19.839	5.857	0.497
927.500	553.627	80.003	19.996	103.720	19.839	5.849	0.514
928.000	553.884	80.004	19.996	103.717	19.842	5.641	0.555
928.500	554.157	80.003	19.994	103.716	19.840	5.763	0.548
929.000	554.418	80.004	19.995	103.717	19.840	5.795	0.532
929.500	554.684	80.006	19.994	103.718	19.837	5.967	0.531
930.000	554.935	80.005	19.994	103.718	19.838	5.901	0.522
930.500	555.234	80.005	19.995	103.719	19.837	5.970	0.534
931.000	555.471	80.004	19.995	103.719	19.840	5.801	0.543
931.500	555.747	80.005	19.995	103.719	19.841	5.707	0.524
932.000	555.967	80.003	19.994	103.718	19.841	5.713	0.504
932.500	556.267	80.003	19.994	103.719	19.840	5.761	0.508
933.000	556.527	80.004	19.995	103.717	19.834	6.167	0.540
933.500	556.784	80.004	19.995	103.717	19.836	6.052	0.538
934.000	557.009	80.004	19.994	103.718	19.838	5.927	0.499
934.500	557.265	80.004	19.994	103.722	19.838	5.937	0.482
935.000	557.514	80.005	19.994	103.725	19.835	6.146	0.494
935.500	557.789	80.003	19.995	103.726	19.841	5.735	0.515
936.000	558.009	80.005	19.993	103.725	19.836	6.032	0.509
936.500	558.324	80.006	19.995	103.725	19.839	5.824	0.515
937.000	558.555	80.004	19.995	103.721	19.838	5.921	0.541
937.500	558.825	80.006	19.994	103.719	19.837	5.996	0.524
938.000	559.099	80.003	19.995	103.718	19.835	6.132	0.522
938.500	559.361	80.006	19.994	103.718	19.834	6.167	0.539
939.000	559.586	80.006	19.994	103.718	19.836	6.076	0.511
939.500	559.841	80.005	19.996	103.718	19.833	6.248	0.484
940.000	560.048	80.006	19.994	103.717	19.835	6.119	0.471
940.500	560.353	80.006	19.993	103.717	19.838	5.928	0.487
941.000	560.591	80.005	19.994	103.717	19.835	6.098	0.528
941.500	560.849	80.007	19.994	103.716	19.838	5.936	0.520
942.000	561.106	80.005	19.994	103.717	19.837	6.000	0.505
942.500	561.339	80.007	19.994	103.716	19.834	6.166	0.502
943.000	561.631	80.006	19.995	103.717	19.831	6.378	0.508
943.500	561.885	80.007	19.994	103.717	19.833	6.247	0.536
944.000	562.105	80.007	19.994	103.721	19.836	6.046	0.510
944.500	562.363	80.006	19.995	103.726	19.832	6.317	0.476
945.000	562.639	80.007	19.994	103.731	19.836	6.061	0.506
945.500	562.889	80.007	19.993	103.733	19.836	6.075	0.530
946.000	563.212	80.007	19.994	103.734	19.837	6.019	0.549
946.500	563.409	80.005	19.994	103.731	19.836	6.079	0.547
947.000	563.702	80.006	19.994	103.726	19.836	6.063	0.505
947.500	563.924	80.006	19.994	103.721	19.837	6.006	0.503
948.000	564.197	80.006	19.993	103.720	19.835	6.158	0.505
948.500	564.416	80.006	19.994	103.721	19.836	6.087	0.493
949.000	564.706	80.007	19.992	103.720	19.836	6.062	0.501
949.500	564.959	80.006	19.995	103.719	19.836	6.067	0.526
950.000	565.224	80.007	19.993	103.722	19.831	6.385	0.530
950.500	565.492	80.004	19.993	103.722	19.835	6.098	0.525
951.000	565.760	80.006	19.994	103.721	19.832	6.331	0.534
951.500	566.000	80.005	19.993	103.721	19.831	6.421	0.522
952.000	566.272	80.005	19.993	103.726	19.831	6.396	0.510
952.500	566.551	80.005	19.994	103.729	19.832	6.348	0.531
953.000	566.809	80.006	19.993	103.736	19.835	6.142	0.544
953.500	567.046	80.005	19.993	103.739	19.835	6.104	0.516
954.000	567.323	80.006	19.993	103.740	19.833	6.271	0.504
954.500	567.580	80.004	19.994	103.736	19.831	6.438	0.524
955.000	567.845	80.006	19.993	103.735	19.830	6.463	0.528
955.500	568.081	80.006	19.994	103.729	19.833	6.270	0.512
956.000	568.296	80.007	19.993	103.725	19.830	6.496	0.476
956.500	568.622	80.007	19.992	103.723	19.832	6.317	0.496
957.000	568.864	80.006	19.992	103.726	19.832	6.321	0.554
957.500	569.113	80.006	19.994	103.727	19.831	6.382	0.530
958.000	569.398	80.005	19.994	103.728	19.829	6.573	0.513
958.500	569.689	80.005	19.992	103.730	19.828	6.611	0.555
959.000	569.939	80.006	19.993	103.732	19.827	6.673	0.558
959.500	570.151	80.007	19.992	103.732	19.829	6.532	0.501
960.000	570.482	80.007	19.993	103.729	19.826	6.729	0.503
960.500	570.742	80.008	19.993	103.729	19.828	6.600	0.567
961.000	570.962	80.006	19.994	103.727	19.826	6.756	0.536
961.500	571.213	80.006	19.993	103.726	19.830	6.475	0.476
962.000	571.499	80.006	19.994	103.724	19.826	6.729	0.504
962.500	571.725	80.006	19.993	103.725	19.824	6.891	0.524
963.000	572.026	80.007	19.993	103.724	19.829	6.558	0.519
963.500	572.245	80.006	19.994	103.726	19.830	6.448	0.524
964.000	572.510	80.007	19.993	103.727	19.826	6.767	0.502
964.500	572.744	80.009	19.993	103.726	19.828	6.654	0.491
965.000	573.020	80.008	19.993	103.723	19.826	6.740	0.504
965.500	573.276	80.008	19.993	103.721	19.828	6.611	0.521
966.000	573.523	80.006	19.993	103.719	19.825	6.848	0.518
966.500	573.814	80.008	19.994	103.716	19.827	6.684	0.521
967.000	574.091	80.008	19.993	103.716	19.828	6.596	0.553
967.500	574.366	80.008	19.993	103.716	19.826	6.756	0.559
968.000	574.608	80.009	19.993	103.718	19.825	6.865	0.534
968.500	574.852	80.008	19.993	103.718	19.831	6.384	0.502
969.000	575.146	80.008	19.994	103.718	19.827	6.686	0.512
969.500	575.376	80.008	19.994	103.717	19.832	6.367	0.531
970.000	575.643	80.008	19.993	103.717	19.827	6.689	0.511
970.500	575.911	80.009	19.994	103.716	19.827	6.723	0.517
971.000	576.176	80.009	19.994	103.721	19.828	6.595	0.534
971.500	576.390	80.009	19.993	103.725	19.828	6.602	0.506
972.000	576.680	80.008	19.993	103.727	19.826	6.731	0.491
972.500	576.899	80.007	19.993	103.729	19.828	6.641	0.506
973.000	577.181	80.009	19.995	103.732	19.827	6.706	0.505
973.500	577.379	80.007	19.994	103.727	19.826	6.741	0.491
974.000	577.680	80.007	19.993	103.726	19.828	6.616	0.489
974.500	577.944	80.007	19.994	103.726	19.826	6.797	0.532
975.000	578.191	80.007	19.994	103.726	19.827	6.720	0.538
975.500	578.416	80.007	19.992	103.722	19.828	6.655	0.492
976.000	578.702	80.005	19.994	103.721	19.826	6.780	0.492
976.500	578.944	80.006	19.993	103.720	19.827	6.724	0.519
977.000	579.208	80.006	19.994	103.720	19.828	6.651	0.517
977.500	579.497	80.005	19.994	103.718	19.825	6.813	0.530
978.000	579.726	80.005	19.995	103.718	19.824	6.874	0.536
978.500	579.971	80.006	19.993	103.720	19.829	6.551	0.496
979.000	580.206	80.006	19.993	103.722	19.826	6.749	0.477
979.500	580.505	80.009	19.993	103.721	19.827	6.726	0.507
980.000	580.741	80.005	19.993	103.723	19.829	6.543	0.535
980.500	581.013	80.007	19.994	103.724	19.830	6.499	0.521
981.000	581.248	80.006	19.994	103.727	19.827	6.672	0.507
981.500	581.514	80.006	19.995	103.728	19.830	6.456	0.504
982.000	581.768	80.005	19.994	103.731	19.830	6.499	0.510
982.500	582.039	80.006	19.994	103.732	19.829	6.522	0.523
983.000	582.324	80.009	19.992	103.734	19.829	6.578	0.541
983.500	582.556	80.006	19.994	103.734	19.831	6.436	0.537
984.000	582.789	80.004	19.994	103.734	19.829	6.524	0.491
984.500	583.064	80.005	19.994	103.734	19.830	6.447	0.486
985.000	583.315	80.005	19.992	103.736	19.832	6.371	0.517
985.500	583.565	80.003	19.994	103.736	19.832	6.350	0.513
986.000	583.797	80.005	19.996	103.739	19.829	6.527	0.492
986.500	584.058	80.005	19.995	103.739	19.831	6.379	0.488
987.000	584.319	80.006	19.993	103.737	19.832	6.335	0.507
987.500	584.545	80.006	19.992	103.739	19.827	6.725	0.504
988.000	584.786	80.006	19.994	103.742	19.832	6.373	0.477
988.500	585.047	80.005	19.995	103.739	19.831	6.413	0.484
989.000	585.334	80.006	19.995	103.738	19.833	6.300	0.525
989.500	585.573	80.006	19.994	103.742	19.831	6.400	0.537
990.000	585.862	80.004	19.993	103.741	19.833	6.244	0.527
990.500	586.118	80.005	19.995	103.740	19.832	6.317	0.536
991.000	586.357	80.006	19.994	103.736	19.832	6.313	0.520
991.500	586.567	80.006	19.993	103.733	19.834	6.226	0.472
992.000	586.851	80.006	19.995	103.732	19.839	5.880	0.472
992.500	587.089	80.005	19.994	103.732	19.834	6.230	0.508
993.000	587.286	80.006	19.995	103.736	19.838	5.950	0.479
993.500	587.600	80.003	19.993	103.741	19.835	6.146	0.473
994.000	587.878	80.003	19.994	103.742	19.837	5.965	0.551
994.500	588.114	80.007	19.993	103.745	19.836	6.088	0.553
995.000	588.373	80.003	19.994	103.739	19.838	5.930	0.505
995.500	588.653	80.005	19.992	103.732	19.835	6.125	0.517
996.000	588.879	80.005	19.994	103.728	19.839	5.819	0.523
996.500	589.144	80.004	19.993	103.729	19.838	5.892	0.498
997.000	589.418	80.007	19.992	103.725	19.839	5.865	0.515
997.500	589.645	80.004	19.993	103.726	19.840	5.811	0.520
998.000	589.918	80.007	19.994	103.731	19.839	5.832	0.500
998.500	590.171	80.005	19.993	103.730	19.840	5.794	0.513
999.000	590.411	80.003	19.993	103.726	19.842	5.603	0.509
999.500	590.667	80.005	19.995	103.725	19.843	5.592	0.494
1000.000	590.927	80.006	19.996	103.724	19.841	5.738	0.506
1000.500	591.176	80.007	19.994	103.719	19.839	5.854	0.513
1001.000	591.453	80.004	19.994	103.720	19.843	5.554	0.518
1001.500	591.691	80.006	19.993	103.720	19.839	5.825	0.521
1002.000	591.926	80.006	19.994	103.720	19.843	5.565	0.494
1002.500	592.187	80.005	19.993	103.721	19.842	5.669	0.484
1003.000	592.425	80.006	19.994	103.721	19.843	5.574	0.497
1003.500	592.717	80.007	19.995	103.723	19.840	5.751	0.514
1004.000	592.940	80.003	19.996	103.724	19.839	5.845	0.522
1004.500	593.206	80.006	19.994	103.726	19.840	5.792	0.502
1005.000	593.480	80.004	19.994	103.726	19.844	5.474	0.515
1005.500	593.751	80.005	19.995	103.725	19.845	5.413	0.543
1006.000	593.998	80.007	19.994	103.722	19.842	5.613	0.531
1006.500	594.274	80.006	19.995	103.721	19.844	5.472	0.520
1007.000	594.560	80.002	19.994	103.721	19.845	5.451	0.542
1007.500	594.800	80.006	19.995	103.722	19.848	5.230	0.544
1008.000	595.041	80.004	19.994	103.723	19.849	5.172	0.504
1008.500	595.280	80.005	19.995	103.726	19.849	5.153	0.480
1009.000	595.558	80.005	19.994	103.728	19.848	5.236	0.499
1009.500	595.820	80.005	19.993	103.727	19.848	5.197	0.529
1010.000	596.093	80.007	19.994	103.725	19.848	5.203	0.537
1010.500	596.312	80.006	19.995	103.726	19.846	5.355	0.513
1011.000	596.578	80.006	19.995	103.728	19.846	5.322	0.488
1011.500	596.861	80.007	19.995	103.732	19.846	5.324	0.517
1012.000	597.095	80.004	19.994	103.733	19.844	5.526	0.533
1012.500	597.365	80.005	19.995	103.733	19.850	5.074	0.511
1013.000	597.593	80.007	19.993	103.731	19.850	5.062	0.501
1013.500	597.872	80.003	19.994	103.725	19.847	5.276	0.502
1014.000	598.154	80.004	19.995	103.720	19.850	5.066	0.534
1014.500	598.375	80.008	19.994	103.719	19.849	5.114	0.532
1015.000	598.624	80.007	19.994	103.719	19.850	5.041	0.487
1015.500	598.888	80.004	19.993	103.720	19.849	5.126	0.491
1016.000	599.112	80.007	19.995	103.719	19.850	5.056	0.500
1016.500	599.386	80.004	19.995	103.720	19.853	4.835	0.493
1017.000	599.623	80.004	19.994	103.720	19.856	4.645	0.505
1017.500	599.896	80.005	19.994	103.722	19.858	4.523	0.511
1018.000	600.119	80.006	19.994	103.726	19.855	4.720	0.503
1018.500	600.396	80.004	19.994	103.727	19.855	4.727	0.498
1019.000	600.648	80.007	19.995	103.727	19.856	4.622	0.514
1019.500	600.899	80.006	19.994	103.727	19.852	4.958	0.516
1020.000	601.160	80.003	19.995	103.725	19.858	4.489	0.507
1020.500	601.409	80.007	19.994	103.721	19.856	4.647	0.511
1021.000	601.679	80.007	19.994	103.721	19.857	4.596	0.515
1021.500	601.972	80.008	19.994	103.721	19.856	4.652	0.541
1022.000	602.196	80.009	19.995	103.720	19.855	4.747	0.540
1022.500	602.438	80.007	19.995	103.720	19.855	4.687	0.492
1023.000	602.730	80.007	19.995	103.721	19.855	4.737	0.500
1023.500	602.980	80.008	19.995	103.720	19.857	4.562	0.538
1024.000	603.219	80.005	19.994	103.720	19.855	4.745	0.515
1024.500	603.438	80.007	19.994	103.720	19.856	4.656	0.474
1025.000	603.714	80.006	19.994	103.719	19.855	4.714	0.476
1025.499	603.949	80.006	19.994	103.716	19.860	4.379	0.503
1025.999	604.245	80.007	19.995	103.715	19.854	4.779	0.521
1026.499	604.470	80.006	19.995	103.715	19.856	4.650	0.526
1026.999	604.776	80.009	19.993	103.714	19.858	4.519	0.526
1027.499	604.982	80.006	19.994	103.713	19.858	4.500	0.521
1027.999	605.294	80.009	19.994	103.714	19.857	4.560	0.515
1028.499	605.538	80.005	19.995	103.714	19.854	4.810	0.537
1028.999	605.769	80.007	19.994	103.715	19.856	4.631	0.515
1029.500	606.056	80.009	19.993	103.718	19.852	4.910	0.496
1030.000	606.308	80.006	19.995	103.719	19.853	4.835	0.529
1030.499	606.582	80.008	19.996	103.718	19.856	4.618	0.533
1030.999	606.850	80.007	19.995	103.718	19.861	4.320	0.534
1031.499	607.109	80.006	19.994	103.717	19.856	4.668	0.535
1031.999	607.369	80.007	19.994	103.715	19.857	4.608	0.523
1032.499	607.617	80.006	19.994	103.713	19.857	4.610	0.513
1032.999	607.887	80.006	19.996	103.714	19.858	4.483	0.513
1033.500	608.129	80.005	19.995	103.715	19.856	4.656	0.515
1034.000	608.404	80.006	19.994	103.717	19.856	4.677	0.514
1034.499	608.648	80.005	19.994	103.717	19.857	4.585	0.518
1034.999	608.918	80.009	19.994	103.720	19.855	4.723	0.516
1035.499	609.214	80.006	19.995	103.720	19.852	4.933	0.540
1035.999	609.421	80.005	19.994	103.719	19.854	4.787	0.535
1036.500	609.703	80.006	19.995	103.717	19.857	4.587	0.496
1037.000	609.951	80.005	19.994	103.716	19.855	4.722	0.510
1037.499	610.215	80.007	19.996	103.714	19.856	4.658	0.521
1037.999	610.457	80.008	19.995	103.713	19.856	4.633	0.509
1038.499	610.724	80.005	19.996	103.713	19.858	4.539	0.507
1038.999	610.995	80.005	19.994	103.713	19.856	4.675	0.524
1039.499	611.235	80.006	19.995	103.713	19.858	4.523	0.524
1039.999	611.552	80.004	19.994	103.714	19.860	4.377	0.534
1040.499	611.772	80.007	19.995	103.716	19.858	4.495	0.547
1040.999	612.068	80.007	19.996	103.718	19.861	4.306	0.527
1041.499	612.306	80.005	19.996	103.720	19.859	4.423	0.525
1041.999	612.549	80.004	19.996	103.721	19.858	4.479	0.507
1042.499	612.813	80.004	19.996	103.720	19.860	4.402	0.494
1042.999	613.117	80.005	19.995	103.720	19.860	4.396	0.537
1043.499	613.344	80.006	19.994	103.718	19.857	4.554	0.549
1043.999	613.589	80.005	19.993	103.717	19.854	4.818	0.501
1044.499	613.849	80.005	19.993	103.717	19.855	4.747	0.488
1044.999	614.125	80.007	19.993	103.717	19.855	4.745	0.521
1045.500	614.396	80.008	19.994	103.715	19.854	4.768	0.542
1046.001	614.630	80.010	19.992	103.713	19.857	4.562	0.526
1046.500	614.914	80.006	19.992	103.713	19.856	4.637	0.512
1046.999	615.197	80.008	19.993	103.713	19.859	4.448	0.542
1047.499	615.425	80.009	19.992	103.716	19.856	4.648	0.539
1047.999	615.690	80.006	19.994	103.718	19.855	4.718	0.502
1048.500	615.989	80.006	19.993	103.718	19.856	4.654	0.529
1049.000	616.213	80.009	19.994	103.719	19.857	4.597	0.544
1049.499	616.455	80.005	19.993	103.718	19.856	4.675	0.494
1049.999	616.711	80.007	19.993	103.715	19.861	4.312	0.482
1050.499	617.003	80.010	19.993	103.714	19.856	4.658	0.523
1050.999	617.198	80.008	19.992	103.714	19.858	4.496	0.518
1051.499	617.546	80.007	19.993	103.715	19.859	4.427	0.515
1051.999	617.768	80.007	19.993	103.714	19.858	4.518	0.556
1052.499	618.011	80.009	19.993	103.714	19.858	4.495	0.518
1052.999	618.286	80.010	19.993	103.714	19.857	4.549	0.492
1053.499	618.563	80.009	19.993	103.714	19.859	4.452	0.535
1053.999	618.788	80.009	19.994	103.715	19.861	4.327	0.527
1054.499	619.077	80.007	19.991	103.716	19.856	4.628	0.508
1054.999	619.344	80.007	19.993	103.715	19.862	4.252	0.535
1055.499	619.583	80.008	19.992	103.714	19.859	4.418	0.531
1055.999	619.867	80.004	19.995	103.714	19.858	4.527	0.515
1056.499	620.062	80.006	19.995	103.713	19.855	4.689	0.501
1056.999	620.401	80.008	19.994	103.713	19.858	4.491	0.506
1057.499	620.579	80.004	19.993	103.715	19.859	4.448	0.525
1057.999	620.834	80.006	19.994	103.715	19.859	4.429	0.475
1058.500	621.116	80.005	19.993	103.715	19.859	4.433	0.485
1059.001	621.374	80.005	19.994	103.715	19.859	4.458	0.539
1059.500	621.606	80.004	19.995	103.715	19.861	4.285	0.515
1059.999	621.882	80.006	19.994	103.715	19.860	4.404	0.499
1060.500	622.123	80.003	19.994	103.715	19.876	3.217	0.513
1061.000	622.449	80.004	19.993	103.712	19.869	3.762	0.542
1061.499	622.629	80.002	19.994	103.712	19.858	4.533	0.537
1061.999	622.891	80.005	19.995	103.712	19.860	4.377	0.474
1062.499	623.134	80.007	19.994	103.712	19.856	4.639	0.473
1062.999	623.400	80.005	19.994	103.714	19.858	4.527	0.507
1063.499	623.649	80.001	19.995	103.718	19.860	4.387	0.512
1063.999	623.939	80.004	19.993	103.719	19.858	4.504	0.527
1064.499	624.111	80.003	19.993	103.720	19.862	4.194	0.501
1064.999	624.390	80.004	19.994	103.721	19.860	4.381	0.457
1065.499	624.713	80.006	19.994	103.721	19.849	5.124	0.526
1065.999	624.930	80.005	19.994	103.721	19.869	3.723	0.571
1066.499	625.208	80.006	19.992	103.721	19.849	5.151	0.518
1066.999	625.476	80.004	19.992	103.720	19.852	4.922	0.520
1067.499	625.714	80.005	19.995	103.719	19.862	4.256	0.526
1067.999	625.918	80.002	19.993	103.719	19.858	4.512	0.474
1068.499	626.224	80.004	19.993	103.718	19.863	4.143	0.477
1068.999	626.503	80.005	19.993	103.718	19.862	4.233	0.548
1069.499	626.696	80.004	19.994	103.717	19.859	4.450	0.528
1069.999	627.007	80.005	19.995	103.717	19.861	4.329	0.488
1070.499	627.208	80.005	19.994	103.717	19.859	4.460	0.508
1070.999	627.498	80.002	19.993	103.717	19.861	4.273	0.501
1071.499	627.761	80.006	19.992	103.716	19.859	4.464	0.522
1072.000	627.976	80.007	19.993	103.717	19.859	4.414	0.516
1072.500	628.242	80.002	19.994	103.717	19.860	4.383	0.480
1072.999	628.575	80.006	19.994	103.717	19.861	4.285	0.540
1073.499	628.673	80.003	19.993	103.718	19.859	4.464	0.515
1073.999	628.939	80.005	19.994	103.718	19.855	4.687	0.398
1074.499	629.321	80.005	19.992	103.718	19.859	4.454	0.506
1074.999	629.520	80.003	19.994	103.718	19.860	4.348	0.614
1075.499	629.842	80.006	19.993	103.718	19.857	4.585	0.551
1075.999	630.030	80.005	19.995	103.718	19.859	4.448	0.515
1076.499	630.264	80.003	19.994	103.716	19.857	4.564	0.466
1077.000	630.582	80.007	19.993	103.717	19.861	4.296	0.488
1077.500	630.864	80.006	19.993	103.717	19.859	4.406	0.576
1077.999	630.897	80.006	19.993	103.717	19.861	4.279	0.457
1078.499	631.317	80.004	19.993	103.716	19.862	4.221	0.384
1078.999	631.711	80.006	19.994	103.717	19.861	4.304	0.634
1079.499	631.752	80.005	19.993	103.717	19.863	4.133	0.624
1079.999	632.144	80.002	19.993	103.717	19.862	4.252	0.434
1080.499	631.619	80.004	19.992	103.717	19.864	4.106	0.150
1080.999	632.206	80.006	19.993	103.718	19.863	4.143	-0.035
1081.499	632.617	80.007	19.994	103.718	19.863	4.125	0.531
1081.999	632.946	80.008	19.993	103.718	19.862	4.196	0.869
1082.499	633.439	80.004	19.994	103.718	19.861	4.273	0.781
1082.999	633.537	80.006	19.993	103.718	19.862	4.250	0.707
1083.499	633.835	80.005	19.994	103.717	19.865	4.021	0.494
1084.000	634.212	80.005	19.993	103.714	19.863	4.150	0.535
1084.500	634.326	80.005	19.993	103.711	19.860	4.348	0.583
1085.000	634.656	80.004	19.992	103.710	19.864	4.092	0.468
1085.501	634.919	80.004	19.993	103.710	19.865	3.994	0.518
1086.000	635.169	80.006	19.993	103.710	19.866	3.967	0.553
1086.499	635.338	80.004	19.994	103.713	19.864	4.114	0.466
1086.999	635.741	80.003	19.994	103.716	19.861	4.271	0.496
1087.499	635.994	80.007	19.995	103.716	19.865	4.017	0.614
1087.999	636.196	80.002	19.993	103.717	19.865	4.052	0.556
1088.499	636.356	80.003	19.994	103.717	19.864	4.064	0.409
1088.999	636.746	80.005	19.994	103.716	19.866	3.964	0.456
1089.499	636.924	80.005	19.994	103.716	19.866	3.948	0.559
1089.999	637.213	80.004	19.993	103.717	19.865	4.045	0.517
1090.499	637.475	80.006	19.993	103.716	19.866	3.948	0.509
1090.999	637.716	80.005	19.993	103.717	19.867	3.896	0.526
1091.499	638.054	80.005	19.993	103.718	19.866	3.945	0.541
1091.999	638.282	80.004	19.994	103.719	19.868	3.839	0.573
1092.499	638.564	80.004	19.995	103.719	19.865	4.044	0.538
1092.999	638.828	80.004	19.994	103.719	19.864	4.064	0.528
1093.500	639.063	80.005	19.995	103.719	19.868	3.833	0.522
1094.000	639.343	80.005	19.995	103.718	19.866	3.962	0.507
1094.499	639.551	80.004	19.995	103.717	19.866	3.946	0.501
1094.999	639.918	80.006	19.994	103.716	19.863	4.163	0.532
1095.499	640.086	80.004	19.993	103.716	19.862	4.248	0.555
1095.999	640.396	80.004	19.994	103.716	19.866	3.939	0.506
1096.499	640.689	80.005	19.995	103.716	19.864	4.089	0.540
1096.999	640.903	80.006	19.995	103.717	19.870	3.686	0.555
1097.499	641.193	80.006	19.994	103.717	19.866	3.923	0.506
1097.999	641.467	80.006	19.994	103.717	19.869	3.763	0.534
1098.499	641.715	80.006	19.995	103.718	19.866	3.969	0.543
1098.999	641.997	80.007	19.994	103.719	19.864	4.069	0.525
1099.499	642.282	80.007	19.995	103.718	19.865	3.992	0.548
1099.999	642.521	80.003	19.994	103.718	19.866	3.973	0.545
1100.499	642.802	80.006	19.995	103.718	19.864	4.067	0.522
1100.999	643.054	80.006	19.996	103.720	19.864	4.098	0.527
1101.499	643.280	80.004	19.996	103.723	19.861	4.327	0.506
1101.999	643.559	80.005	19.996	103.724	19.862	4.229	0.491
1102.499	643.821	80.005	19.997	103.723	19.862	4.195	0.523
1102.999	644.116	80.008	19.994	103.722	19.867	3.844	0.549
1103.499	644.378	80.007	19.994	103.719	19.877	3.188	0.557
1103.999	644.624	80.009	19.994	103.715	19.860	4.352	0.533
1104.499	644.920	80.008	19.996	103.714	19.867	3.904	0.525
1104.999	645.175	80.007	19.994	103.715	19.868	3.817	0.546
1105.499	645.436	79.990	19.996	103.716	19.866	3.962	0.533
1105.999	645.727	80.004	19.992	103.713	19.863	4.192	0.534
1106.499	645.971	80.000	19.994	103.717	19.864	4.079	0.544
1106.999	646.188	80.002	19.995	103.716	19.862	4.237	0.498
1107.499	646.511	80.008	19.996	103.714	19.863	4.181	0.500
1107.999	646.694	80.010	19.994	103.711	19.861	4.269	0.523
1108.499	647.042	80.009	19.994	103.714	19.862	4.206	0.518
1108.999	647.265	80.003	19.995	103.710	19.861	4.281	0.551
1109.499	647.540	80.013	19.994	103.707	19.862	4.194	0.534
1109.999	647.802	80.000	19.994	103.712	19.864	4.077	0.518
1110.499	648.104	80.002	19.995	103.718	19.860	4.365	0.550
1110.999	648.404	80.006	19.993	103.716	19.862	4.239	0.583
1111.499	648.501	80.007	19.995	103.716	19.860	4.369	0.500
1111.999	648.921	80.015	19.994	103.719	19.865	4.037	0.458
1112.499	649.170	80.006	19.995	103.717	19.862	4.208	0.593
1112.999	649.360	80.009	19.996	103.714	19.864	4.100	0.554
1113.499	649.600	80.008	19.993	103.719	19.864	4.073	0.434
1113.999	649.944	80.003	19.995	103.720	19.864	4.121	0.507
1114.499	650.229	80.006	19.995	103.721	19.864	4.098	0.606
1114.999	650.439	80.005	19.995	103.720	19.861	4.298	0.562
1115.500	650.730	80.007	19.995	103.719	19.861	4.273	0.498
1116.000	650.991	80.006	19.994	103.716	19.864	4.081	0.526
1116.499	651.247	80.007	19.994	103.714	19.866	3.931	0.534
1116.999	651.250	80.007	19.994	103.714	19.863	4.135	0.388
1117.500	652.361	80.006	19.995	103.714	19.865	4.027	0.687
1118.001	651.517	80.007	19.994	103.714	19.864	4.119	0.691
1118.501	652.515	80.006	19.994	103.714	19.864	4.089	0.211
1119.000	652.542	80.007	19.994	103.715	19.863	4.171	0.589
1119.499	652.821	80.006	19.995	103.713	19.864	4.060	0.665
1119.999	653.140	80.007	19.995	103.713	19.864	4.087	0.452
1120.499	653.395	80.004	19.995	103.713	19.863	4.160	0.586
1120.999	653.629	80.005	19.995	103.712	19.863	4.148	0.532
1121.499	653.886	80.004	19.995	103.712	19.863	4.183	0.490
1122.000	654.040	80.005	19.995	103.713	19.863	4.148	0.451
1122.500	654.485	80.005	19.995	103.714	19.862	4.194	0.505
1122.999	654.624	80.007	19.994	103.714	19.864	4.079	0.591
1123.499	654.983	80.004	19.995	103.714	19.861	4.277	0.541
1124.000	655.237	80.004	19.994	103.715	19.864	4.062	0.556
1124.500	655.461	80.004	19.996	103.715	19.864	4.110	0.545
1124.999	655.703	80.008	19.995	103.714	19.866	3.971	0.472
1125.500	656.036	80.004	19.995	103.715	19.859	4.418	0.521
1126.000	656.241	80.006	19.995	103.716	19.864	4.077	0.556
1126.500	656.592	80.008	19.995	103.715	19.863	4.142	0.547
1127.000	656.764	80.008	19.995	103.715	19.863	4.131	0.540
1127.500	657.076	80.005	19.995	103.717	19.861	4.296	0.504
1128.000	657.368	80.005	19.995	103.717	19.862	4.233	0.544
1128.499	657.569	80.005	19.995	103.716	19.864	4.121	0.548
1128.999	657.878	80.005	19.994	103.716	19.859	4.427	0.502
1129.499	658.107	80.008	19.993	103.717	19.864	4.116	0.524
1129.999	658.375	80.007	19.994	103.716	19.861	4.312	0.518
1130.499	658.662	80.008	19.994	103.715	19.864	4.102	0.526
1131.000	658.902	80.008	19.994	103.715	19.861	4.308	0.541
1131.500	659.174	80.008	19.995	103.715	19.863	4.150	0.519
1131.999	659.425	80.008	19.994	103.715	19.863	4.148	0.518
1132.499	659.689	80.007	19.995	103.715	19.860	4.389	0.519
1132.999	659.975	80.006	19.995	103.715	19.861	4.304	0.532
1133.500	660.165	80.004	19.994	103.716	19.856	4.662	0.513
1134.000	660.447	80.005	19.995	103.716	19.859	4.452	0.474
1134.499	660.672	80.008	19.994	103.716	19.862	4.246	0.490
1134.999	660.959	80.007	19.995	103.716	19.860	4.356	0.510
1135.499	661.230	80.006	19.994	103.716	19.861	4.266	0.535
1135.999	661.488	80.006	19.994	103.715	19.862	4.258	0.543
1136.499	661.716	80.007	19.994	103.715	19.862	4.208	0.508
1136.999	662.016	80.006	19.993	103.715	19.859	4.414	0.507
1137.499	662.271	80.006	19.994	103.715	19.860	4.335	0.541
1137.999	662.528	80.007	19.994	103.715	19.858	4.496	0.533
1138.499	662.785	80.005	19.993	103.718	19.862	4.194	0.513
1138.999	663.024	80.006	19.993	103.720	19.860	4.400	0.506
1139.499	663.317	80.005	19.992	103.721	19.864	4.085	0.514
1139.999	663.566	80.004	19.993	103.721	19.857	4.562	0.537
1140.499	663.825	80.005	19.994	103.721	19.859	4.447	0.524
1140.999	664.034	80.005	19.994	103.720	19.862	4.235	0.488
1141.499	664.295	80.004	19.992	103.719	19.859	4.422	0.470
1141.999	664.595	80.008	19.992	103.718	19.862	4.248	0.516
1142.500	664.854	80.006	19.995	103.718	19.862	4.252	0.560
1143.000	665.120	80.006	19.993	103.719	19.861	4.273	0.542
1143.499	665.398	80.008	19.994	103.719	19.862	4.196	0.534
1143.999	665.618	80.005	19.994	103.719	19.858	4.494	0.521
1144.499	665.927	80.005	19.993	103.719	19.863	4.186	0.514
1144.999	666.157	80.005	19.992	103.719	19.859	4.452	0.534
1145.499	666.411	80.005	19.994	103.718	19.862	4.219	0.512
1145.999	666.671	80.006	19.993	103.717	19.862	4.254	0.499
1146.499	666.937	80.005	19.993	103.717	19.861	4.275	0.520
1146.999	667.168	80.005	19.994	103.717	19.858	4.475	0.512
1147.499	667.418	80.004	19.993	103.716	19.860	4.383	0.489
1147.999	667.656	80.005	19.993	103.715	19.860	4.373	0.484
1148.499	667.934	80.003	19.993	103.714	19.859	4.425	0.502
1148.999	668.182	80.005	19.995	103.715	19.862	4.215	0.521
1149.499	668.408	80.005	19.993	103.715	19.862	4.261	0.500
1149.999	668.680	80.005	19.995	103.716	19.860	4.371	0.486
1150.499	668.986	80.006	19.994	103.719	19.861	4.283	0.538
1150.999	669.235	80.006	19.992	103.719	19.858	4.523	0.566
1151.499	669.460	80.006	19.994	103.718	19.859	4.441	0.514
1151.999	669.764	80.005	19.995	103.718	19.862	4.264	0.501
1152.499	669.970	80.005	19.994	103.717	19.860	4.391	0.520
1152.999	670.231	80.005	19.993	103.716	19.862	4.254	0.489
1153.499	670.488	80.005	19.994	103.716	19.863	4.150	0.492
1153.999	670.768	80.007	19.993	103.716	19.861	4.308	0.528
1154.499	671.039	80.008	19.994	103.715	19.860	4.373	0.544
1154.999	671.267	80.004	19.993	103.714	19.862	4.237	0.525
1155.499	671.556	80.006	19.995	103.709	19.864	4.087	0.508
1155.999	671.822	80.008	19.993	103.706	19.859	4.412	0.537
1156.499	672.028	80.006	19.992	103.706	19.863	4.167	0.514
1157.000	672.308	80.007	19.993	103.706	19.864	4.067	0.479
1157.500	672.531	80.005	19.994	103.712	19.861	4.304	0.494
1157.999	672.794	80.004	19.993	103.717	19.864	4.087	0.494
1158.499	673.104	80.003	19.994	103.719	19.864	4.075	0.529
1158.999	673.327	80.007	19.992	103.714	19.865	3.985	0.553
1159.499	673.583	80.004	19.994	103.712	19.861	4.275	0.506
1159.999	673.866	80.005	19.992	103.706	19.862	4.254	0.509
1160.499	674.111	80.003	19.995	103.706	19.862	4.194	0.534
1160.999	674.338	80.004	19.994	103.709	19.863	4.133	0.500
1161.499	674.633	80.006	19.994	103.714	19.863	4.185	0.497
1162.000	674.859	80.003	19.996	103.715	19.865	3.994	0.522
1162.500	675.139	80.005	19.994	103.717	19.866	3.935	0.513
1162.999	675.389	80.006	19.995	103.716	19.864	4.064	0.518
1163.499	675.696	80.007	19.994	103.714	19.864	4.056	0.544
1163.999	675.906	80.007	19.995	103.715	19.867	3.867	0.537
1164.499	676.203	80.007	19.994	103.715	19.864	4.075	0.512
1165.000	676.465	80.007	19.994	103.715	19.862	4.200	0.533
1165.500	676.691	80.004	19.995	103.715	19.864	4.063	0.523
1165.999	676.972	80.008	19.994	103.715	19.861	4.300	0.497
1166.500	677.200	80.006	19.993	103.714	19.865	4.023	0.508
1167.000	677.517	80.006	19.994	103.714	19.861	4.265	0.527
1167.499	677.713	80.005	19.995	103.714	19.864	4.111	0.529
1168.000	678.007	80.005	19.993	103.714	19.864	4.104	0.501
1168.500	678.266	80.004	19.994	103.715	19.864	4.100	0.521
1168.999	678.519	80.004	19.993	103.714	19.862	4.196	0.533
1169.499	678.766	80.004	19.993	103.714	19.864	4.096	0.506
1169.999	679.035	80.005	19.994	103.714	19.864	4.102	0.508
1170.499	679.300	80.002	19.994	103.713	19.860	4.358	0.525
1171.000	679.550	80.005	19.993	103.713	19.863	4.185	0.524
1171.500	679.783	80.003	19.993	103.714	19.862	4.264	0.499
1171.999	680.077	80.004	19.993	103.714	19.863	4.164	0.505
1172.499	680.343	80.003	19.994	103.714	19.863	4.137	0.543
1172.999	680.608	80.005	19.993	103.715	19.861	4.271	0.546
1173.499	680.848	80.002	19.993	103.715	19.862	4.206	0.518
1173.999	681.052	80.003	19.994	103.714	19.864	4.121	0.474
1174.499	681.365	80.005	19.992	103.711	19.872	3.515	0.480
1174.999	681.584	80.004	19.994	103.711	19.862	4.258	0.524
1175.499	681.859	80.004	19.995	103.711	19.861	4.265	0.513
1175.999	682.115	80.005	19.994	103.711	19.860	4.381	0.512
1176.499	682.376	80.004	19.993	103.711	19.859	4.465	0.524
1177.000	682.649	80.004	19.994	103.713	19.860	4.396	0.525
1177.500	682.903	80.004	19.994	103.711	19.863	4.161	0.530
1177.999	683.153	80.003	19.994	103.710	19.861	4.317	0.516
1178.499	683.375	80.005	19.994	103.710	19.860	4.340	0.488
1179.000	683.658	80.004	19.994	103.711	19.860	4.350	0.488
1179.501	683.911	80.006	19.994	103.712	19.859	4.412	0.521
1180.001	684.159	80.005	19.995	103.714	19.863	4.148	0.519
1180.500	684.428	80.007	19.992	103.715	19.861	4.331	0.509
1180.999	684.624	80.005	19.993	103.715	19.859	4.452	0.490
1181.499	684.914	80.006	19.993	103.715	19.859	4.440	0.475
1182.000	685.181	80.006	19.993	103.715	19.859	4.444	0.522
1182.500	685.412	80.005	19.993	103.715	19.858	4.489	0.528
1182.999	685.685	80.006	19.992	103.714	19.860	4.398	0.501
1183.499	685.926	80.005	19.994	103.715	19.859	4.458	0.509
1183.999	686.146	80.007	19.994	103.715	19.860	4.360	0.488
1184.499	686.408	80.005	19.993	103.715	19.860	4.379	0.471
1184.999	686.670	80.006	19.994	103.715	19.860	4.383	0.502
1185.499	686.864	80.005	19.993	103.715	19.857	4.552	0.490
1185.999	687.204	80.007	19.994	103.714	19.858	4.504	0.495
1186.499	687.531	80.005	19.994	103.709	19.858	4.494	0.600
1186.999	687.644	80.007	19.993	103.705	19.858	4.498	0.553
1187.499	687.966	80.007	19.994	103.706	19.860	4.352	0.438
1187.999	688.256	80.002	19.995	103.706	19.857	4.571	0.524
1188.499	689.089	80.008	19.992	103.705	19.856	4.619	0.868
1188.999	688.667	80.005	19.993	103.710	19.857	4.548	0.767
1189.499	688.966	80.006	19.994	103.712	19.857	4.574	0.144
1189.999	689.118	80.009	19.993	103.710	19.861	4.293	0.164
1190.499	689.492	80.006	19.994	103.710	19.861	4.319	0.489
1190.999	689.648	80.007	19.994	103.711	19.855	4.743	0.528
1191.500	689.965	80.005	19.993	103.709	19.860	4.389	0.501
1192.000	690.230	80.006	19.995	103.710	19.857	4.591	0.528
1192.499	690.437	80.006	19.994	103.711	19.860	4.392	0.527
1192.999	690.718	80.006	19.994	103.711	19.858	4.514	0.480
1193.499	690.972	80.003	19.994	103.709	19.859	4.406	0.512
1193.999	691.233	80.007	19.994	103.712	19.855	4.702	0.525
1194.499	691.494	80.005	19.995	103.713	19.859	4.421	0.518
1194.999	691.721	80.005	19.993	103.713	19.859	4.452	0.505
1195.500	691.977	80.005	19.993	103.713	19.856	4.675	0.485
1196.000	692.197	80.007	19.993	103.714	19.858	4.477	0.479
1196.499	692.451	80.005	19.993	103.713	19.858	4.495	0.475
1196.999	692.719	80.005	19.994	103.713	19.855	4.712	0.498
1197.499	692.966	80.005	19.994	103.711	19.856	4.618	0.518
1197.999	693.213	80.003	19.994	103.709	19.858	4.545	0.505
1198.499	693.485	80.005	19.994	103.711	19.859	4.462	0.507
1198.999	693.693	80.007	19.994	103.713	19.857	4.595	0.500
1199.499	693.955	80.004	19.993	103.713	19.860	4.341	0.475
1199.999	694.215	80.004	19.994	103.715	19.859	4.437	0.496
1200.500	694.512	80.004	19.995	103.718	19.858	4.524	0.540
1201.000	694.759	80.006	19.993	103.717	19.861	4.266	0.551
1201.500	694.993	80.007	19.994	103.716	19.860	4.370	0.513
1202.000	695.252	80.004	19.995	103.715	19.862	4.228	0.487
1202.499	695.499	80.008	19.994	103.715	19.862	4.258	0.499
1202.999	695.752	80.005	19.993	103.714	19.861	4.296	0.503
1203.499	695.961	79.998	19.996	103.713	19.862	4.256	0.481
1204.000	696.307	80.010	19.994	103.713	19.859	4.460	0.508
1204.500	696.504	79.998	19.994	103.714	19.860	4.383	0.549
1204.999	696.756	80.001	19.995	103.714	19.860	4.398	0.496
1205.499	697.036	80.005	19.995	103.713	19.860	4.348	0.491
1205.999	697.273	80.003	19.994	103.714	19.859	4.412	0.524
1206.499	697.526	80.003	19.994	103.715	19.862	4.214	0.503
1206.999	697.853	80.009	19.993	103.716	19.863	4.144	0.535
1207.499	698.017	80.007	19.994	103.719	19.863	4.123	0.536
1208.000	698.296	80.013	19.993	103.722	19.858	4.527	0.467
1208.500	698.561	80.005	19.994	103.723	19.860	4.371	0.493
1208.999	698.827	80.007	19.994	103.722	19.858	4.496	0.537
1209.499	699.058	80.009	19.993	103.721	19.860	4.366	0.514
1209.999	699.222	80.007	19.996	103.719	19.862	4.264	0.447
1210.499	699.556	80.024	19.998	103.720	19.860	4.396	0.447
1210.999	699.788	80.027	20.001	103.722	19.862	4.212	0.532
1211.499	700.035	80.027	20.001	103.730	19.857	4.573	0.522
1211.999	700.297	80.016	20.000	103.730	19.860	4.366	0.493
1212.499	700.570	80.007	19.998	103.730	19.859	4.437	0.522
1213.000	700.828	80.006	19.996	103.728	19.860	4.398	0.534
1213.500	701.086	80.005	19.998	103.725	19.864	4.054	0.524
1213.999	701.360	80.006	19.995	103.718	19.862	4.196	0.524
1214.500	701.630	80.007	19.995	103.717	19.862	4.215	0.538
1215.000	701.859	80.005	19.995	103.715	19.865	4.034	0.521
1215.499	702.096	80.008	19.995	103.716	19.862	4.262	0.483
1216.000	702.385	80.005	19.995	103.715	19.865	4.013	0.496
1216.500	702.631	80.007	19.994	103.715	19.858	4.531	0.530
1216.999	702.883	80.007	19.995	103.714	19.859	4.473	0.517
1217.499	703.084	80.006	19.995	103.715	19.860	4.348	0.476
1217.999	703.390	80.003	19.995	103.714	19.859	4.450	0.480
1218.499	703.620	79.999	19.995	103.713	19.856	4.624	0.522
1218.999	703.881	80.006	19.993	103.713	19.859	4.427	0.513
1219.499	704.107	80.005	19.994	103.714	19.864	4.114	0.489
1219.999	704.370	80.006	19.994	103.713	19.857	4.595	0.488
1220.500	704.617	80.002	19.995	103.712	19.862	4.239	0.499
1221.000	704.908	80.008	19.995	103.712	19.859	4.469	0.524
1221.499	705.125	80.003	19.996	103.714	19.860	4.379	0.524
1221.999	705.357	80.005	19.996	103.712	19.860	4.379	0.479
1222.499	705.618	80.004	19.997	103.713	19.862	4.213	0.471
1222.999	705.851	80.005	19.996	103.713	19.860	4.379	0.493
1223.499	706.113	80.006	19.997	103.714	19.859	4.435	0.494
1223.999	706.352	80.005	19.995	103.710	19.862	4.254	0.498
1224.499	706.668	80.005	19.995	103.710	19.861	4.331	0.528
1224.999	706.897	80.008	19.995	103.710	19.858	4.545	0.550
1225.499	707.157	80.000	19.994	103.711	19.859	4.422	0.517
1225.999	707.401	80.005	19.996	103.709	19.860	4.352	0.497
1226.499	707.643	80.005	19.995	103.711	19.861	4.295	0.495
1226.999	707.907	80.006	19.995	103.711	19.859	4.473	0.496
1227.499	708.174	80.001	19.994	103.711	19.859	4.438	0.519
1227.999	708.477	80.010	19.993	103.712	19.860	4.369	0.550
1228.499	708.692	79.998	19.995	103.716	19.859	4.425	0.544
1228.999	708.911	80.013	19.993	103.718	19.860	4.373	0.476
1229.499	709.197	79.999	19.994	103.717	19.859	4.427	0.469
1229.999	709.440	80.003	19.996	103.718	19.864	4.121	0.517
1230.499	709.729	80.010	19.994	103.716	19.861	4.308	0.531
1231.000	709.937	80.018	19.993	103.714	19.859	4.427	0.515
1231.500	710.194	80.003	19.994	103.715	19.861	4.321	0.481
1231.999	710.474	80.020	19.992	103.714	19.860	4.346	0.501
1232.499	710.720	79.992	19.995	103.716	19.860	4.363	0.531
1233.000	710.973	79.996	19.995	103.714	19.859	4.452	0.512
1233.501	711.211	80.006	19.994	103.711	19.858	4.485	0.495
1234.000	711.462	79.999	19.994	103.707	19.860	4.358	0.490
1234.499	711.773	80.016	19.994	103.707	19.861	4.308	0.525
1234.999	711.988	80.003	19.994	103.706	19.859	4.406	0.544
1235.499	712.281	80.006	19.995	103.711	19.859	4.454	0.517
1235.999	712.523	80.005	19.993	103.714	19.860	4.400	0.522
1236.499	712.760	80.009	19.994	103.717	19.857	4.550	0.507
1236.999	713.034	80.001	19.995	103.717	19.859	4.440	0.495
1237.499	713.306	80.009	19.996	103.717	19.861	4.265	0.529
1238.000	713.566	80.003	19.996	103.712	19.861	4.269	0.540
1238.501	713.819	80.005	19.994	103.709	19.859	4.469	0.523
1239.000	714.095	80.004	19.994	103.708	19.858	4.496	0.521
1239.499	714.325	80.006	19.993	103.708	19.857	4.548	0.517
1239.999	714.620	80.009	19.995	103.708	19.862	4.246	0.516
1240.499	714.904	80.028	19.992	103.710	19.860	4.360	0.552
1240.999	715.126	80.011	19.994	103.718	19.855	4.725	0.542
1241.499	715.405	80.008	19.993	103.719	19.858	4.523	0.503
1242.000	715.710	79.995	19.995	103.719	19.858	4.514	0.543
1242.501	715.918	80.009	19.994	103.717	19.859	4.456	0.549
1243.000	716.222	80.001	19.995	103.718	19.859	4.469	0.512
1243.499	716.464	79.997	19.994	103.710	19.858	4.519	0.529
1243.999	716.708	80.019	19.992	103.708	19.857	4.550	0.516
1244.499	716.964	80.002	19.993	103.709	19.857	4.596	0.493
1244.999	717.217	80.012	19.994	103.710	19.858	4.521	0.504
1245.499	717.513	79.996	19.994	103.708	19.860	4.373	0.528
1245.999	717.744	80.002	19.994	103.708	19.856	4.664	0.538
1246.499	717.992	80.008	19.993	103.709	19.857	4.571	0.503
1246.999	718.257	79.986	19.996	103.706	19.857	4.606	0.496
1247.499	718.512	80.000	19.995	103.699	19.858	4.533	0.517
1247.999	718.770	80.002	19.994	103.701	19.857	4.584	0.517
1248.499	719.025	80.010	19.994	103.703	19.861	4.319	0.513
1248.999	719.293	80.008	19.993	103.705	19.860	4.402	0.518
1249.499	719.515	80.000	19.996	103.707	19.858	4.507	0.507
1249.999	719.834	80.006	19.995	103.714	19.857	4.571	0.516
1250.499	720.065	79.996	19.995	103.712	19.855	4.690	0.545
1250.999	720.326	79.998	19.995	103.711	19.856	4.662	0.521
1251.499	720.593	80.011	19.992	103.709	19.858	4.477	0.510
1251.999	720.828	80.005	19.995	103.711	19.856	4.629	0.515
1252.499	721.112	80.007	19.993	103.712	19.855	4.735	0.511
1252.999	721.355	79.998	19.994	103.715	19.855	4.741	0.523
1253.499	721.597	80.005	19.994	103.713	19.855	4.737	0.506
1254.000	721.872	80.005	19.995	103.710	19.854	4.785	0.501
1254.501	722.106	80.008	19.993	103.708	19.856	4.623	0.513
1255.000	722.308	79.994	19.996	103.708	19.856	4.644	0.473
1255.499	722.561	80.007	19.996	103.706	19.854	4.786	0.446
1255.999	722.854	80.005	19.993	103.709	19.855	4.728	0.501
1256.499	723.105	80.003	19.995	103.713	19.855	4.715	0.545
1257.000	723.370	80.006	19.993	103.712	19.852	4.946	0.530
1257.500	723.626	80.015	19.992	103.711	19.857	4.551	0.519
1257.999	723.855	80.006	19.993	103.714	19.857	4.609	0.503
1258.499	724.081	79.991	19.996	103.713	19.856	4.674	0.470
1258.999	724.415	80.024	19.992	103.705	19.855	4.717	0.508
1259.499	724.634	80.006	19.996	103.706	19.856	4.656	0.557
1259.999	724.848	80.008	19.994	103.705	19.856	4.675	0.493
1260.499	725.139	80.015	19.993	103.703	19.853	4.856	0.469
1261.000	725.391	80.007	19.993	103.702	19.853	4.873	0.524
1261.500	725.639	80.011	19.992	103.707	19.854	4.773	0.521
1261.999	725.905	80.002	19.995	103.707	19.855	4.721	0.507
1262.499	726.174	80.005	19.994	103.710	19.851	4.995	0.524
1262.999	726.403	80.003	19.994	103.709	19.855	4.693	0.516
1263.499	726.677	80.006	19.994	103.708	19.856	4.685	0.501
1263.999	726.927	80.009	19.993	103.711	19.852	4.899	0.514
1264.499	727.098	80.003	19.995	103.711	19.853	4.839	0.473
1264.999	727.432	80.006	19.993	103.708	19.853	4.837	0.463
1265.499	727.672	80.009	19.993	103.708	19.853	4.862	0.539
1265.999	727.911	80.007	19.993	103.707	19.857	4.573	0.526
1266.499	728.156	80.007	19.992	103.703	19.853	4.840	0.482
1266.999	728.375	80.007	19.994	103.698	19.853	4.880	0.475
1267.499	728.677	80.008	19.993	103.696	19.854	4.755	0.492
1267.999	728.919	80.006	19.994	103.694	19.852	4.944	0.532
1268.499	729.203	80.007	19.993	103.692	19.852	4.935	0.535
1268.999	729.433	80.006	19.994	103.691	19.856	4.635	0.520
1269.499	729.697	80.008	19.993	103.692	19.852	4.927	0.504
1269.999	729.946	80.007	19.992	103.697	19.853	4.852	0.504
1270.500	730.197	80.006	19.993	103.702	19.849	5.130	0.507
1271.000	730.408	80.007	19.993	103.707	19.851	4.991	0.480
1271.499	730.715	80.005	19.993	103.710	19.853	4.833	0.490
1271.999	730.983	80.006	19.993	103.712	19.850	5.104	0.546
1272.499	731.210	80.007	19.993	103.712	19.855	4.708	0.535
1272.999	731.443	80.008	19.993	103.711	19.851	5.026	0.478
1273.499	731.683	80.006	19.992	103.712	19.855	4.687	0.466
1273.999	731.985	80.006	19.994	103.715	19.856	4.677	0.507
1274.499	732.250	80.007	19.994	103.716	19.851	5.002	0.555
1275.000	732.499	80.009	19.995	103.716	19.853	4.829	0.541
1275.500	732.693	80.008	19.993	103.717	19.854	4.789	0.479
1275.999	732.989	80.002	19.994	103.718	19.854	4.756	0.467
1276.499	733.206	79.988	19.996	103.710	19.853	4.883	0.501
1276.999	733.470	80.005	19.993	103.703	19.854	4.792	0.496
1277.499	733.738	80.004	19.994	103.700	19.854	4.786	0.506
1277.999	734.013	80.009	19.992	103.694	19.852	4.942	0.538
1278.499	734.209	79.989	19.994	103.692	19.852	4.910	0.508
1278.999	734.475	79.993	19.995	103.697	19.851	5.019	0.467
1279.499	734.719	80.001	19.995	103.703	19.853	4.885	0.486
1279.999	734.996	80.018	19.992	103.706	19.849	5.154	0.515
1280.499	735.210	80.004	19.996	103.713	19.850	5.094	0.506
1280.999	735.525	80.009	19.995	103.714	19.852	4.921	0.510
1281.499	735.735	80.003	19.995	103.717	19.853	4.848	0.527
1281.999	736.006	80.007	19.995	103.718	19.852	4.923	0.503
1282.499	736.240	80.007	19.995	103.718	19.849	5.117	0.493
1282.999	736.505	80.010	19.995	103.715	19.850	5.075	0.502
1283.499	736.781	80.001	19.994	103.717	19.854	4.769	0.520
1283.999	737.013	80.008	19.993	103.716	19.854	4.771	0.524
1284.499	737.254	80.002	19.995	103.716	19.855	4.697	0.490
1284.999	737.512	80.005	19.995	103.714	19.852	4.910	0.486
1285.499	737.774	80.008	19.994	103.714	19.853	4.891	0.510
1285.999	738.021	79.998	19.994	103.712	19.852	4.918	0.515
1286.500	738.301	80.007	19.995	103.711	19.851	4.971	0.518
1287.000	738.534	80.003	19.994	103.708	19.850	5.067	0.520
1287.499	738.848	80.014	19.993	103.708	19.851	5.002	0.530
1287.999	739.075	79.999	19.995	103.707	19.849	5.174	0.543
1288.500	739.309	79.996	19.997	103.704	19.853	4.875	0.501
1289.000	739.591	79.999	19.996	103.703	19.850	5.085	0.489
1289.500	739.861	80.006	19.995	103.703	19.852	4.929	0.534
1290.000	740.120	80.027	19.992	103.705	19.851	5.024	0.541
1290.499	740.376	80.006	19.993	103.709	19.850	5.099	0.522
1290.999	740.607	79.998	19.995	103.711	19.852	4.943	0.501
1291.499	740.898	80.006	19.996	103.708	19.855	4.750	0.504
1291.999	741.161	80.011	19.993	103.704	19.852	4.935	0.538
1292.499	741.412	80.000	19.994	103.706	19.847	5.298	0.534
1292.999	741.650	80.007	19.993	103.701	19.847	5.267	0.502
1293.499	741.933	80.008	19.995	103.704	19.851	4.988	0.505
1293.999	742.140	80.010	19.995	103.706	19.855	4.703	0.506
1294.500	742.430	80.015	19.992	103.711	19.851	4.973	0.494
1295.000	742.680	80.011	19.992	103.711	19.851	5.013	0.519
1295.499	742.979	80.003	19.993	103.715	19.849	5.173	0.544
1295.999	743.208	80.006	19.994	103.709	19.848	5.229	0.538
1296.500	743.470	80.011	19.994	103.709	19.850	5.087	0.510
