Sample ID:	C:\MCC\MCC Cal\Test\Hemp_Sheets_MCC_30K_min_220112_R3.txt
Sample Weight (mg):	4.89
Heating Rate (C/s):	0.5
Combustor Temp (C):	900
N2 Flow Rate (cc/min):	80
O2 Flow Rate (cc/min):	20
Calibration File:	C:\MCC\MCC Cal\Coeff1 JN10440_30_210304.txt.txt
T Correction Coefficients:	0	1.024463	0
Time Shift (s):	14
*
Time (s)	Temperature (C)	N2 flow rate (cc/min)	O2 flow rate (cc/min)	Flow Rate (cc/min)	Oxygen (%)	HRR (W/g)	Heating rate (C/s)
-0.001	110.814	80.006	19.995	104.290	20.222	-0.135	-0.009
0.499	110.782	80.009	19.995	104.290	20.221	-0.093	0.004
1.000	110.787	80.009	19.994	104.290	20.224	-0.286	-0.013
1.500	110.803	80.008	19.995	104.289	20.225	-0.344	-0.003
2.000	110.751	80.008	19.994	104.289	20.221	-0.053	-0.007
2.500	110.754	80.008	19.994	104.289	20.221	-0.099	-0.042
3.000	110.796	80.008	19.995	104.288	20.220	-0.007	-0.002
3.500	110.797	80.009	19.995	104.289	20.222	-0.163	0.044
4.000	110.797	80.008	19.995	104.290	20.224	-0.284	0.022
4.500	110.786	80.009	19.995	104.291	20.223	-0.231	-0.005
5.000	110.798	80.007	19.994	104.291	20.221	-0.101	-0.005
5.500	110.798	80.009	19.994	104.291	20.221	-0.110	0.006
6.000	110.797	80.008	19.994	104.292	20.219	0.055	0.006
6.500	110.782	80.009	19.996	104.293	20.218	0.103	-0.008
7.000	110.776	80.010	19.995	104.293	20.219	0.049	-0.019
7.500	110.774	80.008	19.996	104.293	20.220	0.013	-0.015
8.001	110.769	80.010	19.994	104.295	20.218	0.097	-0.008
8.501	110.793	80.010	19.994	104.301	20.219	0.024	0.006
9.000	110.779	80.008	19.996	104.308	20.218	0.095	0.015
9.501	110.814	80.011	19.995	104.316	20.222	-0.128	0.016
10.001	110.807	80.009	19.995	104.326	20.221	-0.059	0.024
10.500	110.768	80.010	19.994	104.335	20.216	0.233	-0.009
11.000	110.796	80.010	19.993	104.336	20.218	0.154	-0.028
11.500	110.808	80.010	19.994	104.336	20.219	0.062	0.014
12.000	110.858	80.010	19.994	104.339	20.217	0.181	0.051
12.500	110.820	80.010	19.994	104.341	20.217	0.216	0.037
13.000	110.816	80.010	19.994	104.343	20.215	0.355	-0.015
13.500	110.858	80.010	19.994	104.345	20.216	0.235	-0.002
14.000	110.844	80.011	19.994	104.352	20.211	0.599	0.033
14.500	110.878	80.010	19.996	104.356	20.214	0.387	0.024
15.000	110.850	80.011	19.995	104.357	20.215	0.332	0.013
15.500	110.847	80.011	19.994	104.360	20.211	0.610	-0.013
16.000	110.862	80.011	19.993	104.365	20.213	0.438	-0.010
16.500	110.911	80.010	19.993	104.365	20.212	0.528	0.038
17.000	110.914	80.009	19.994	104.366	20.210	0.662	0.057
17.500	110.932	80.009	19.995	104.367	20.211	0.618	0.036
18.000	110.946	80.010	19.994	104.367	20.213	0.484	0.027
18.500	110.975	80.010	19.994	104.368	20.208	0.803	0.038
19.000	110.967	80.010	19.996	104.370	20.209	0.695	0.032
19.500	111.002	80.010	19.994	104.371	20.209	0.735	0.024
20.000	111.024	80.009	19.993	104.377	20.202	1.184	0.042
20.500	111.043	80.009	19.995	104.385	20.203	1.124	0.049
21.000	111.069	80.008	19.994	104.398	20.205	1.014	0.043
21.500	111.121	80.008	19.995	104.407	20.201	1.279	0.062
22.000	111.148	80.007	19.995	104.421	20.203	1.098	0.079
22.500	111.181	80.007	19.995	104.431	20.204	1.089	0.069
23.000	111.228	80.007	19.995	104.439	20.201	1.223	0.070
23.500	111.251	80.008	19.995	104.441	20.201	1.250	0.075
24.001	111.306	80.008	19.995	104.444	20.201	1.281	0.074
24.501	111.324	80.007	19.996	104.444	20.202	1.188	0.076
25.000	111.385	80.007	19.995	104.445	20.197	1.533	0.076
25.500	111.425	80.007	19.995	104.446	20.197	1.522	0.090
26.000	111.462	80.006	19.994	104.446	20.196	1.591	0.089
26.500	111.496	80.006	19.997	104.448	20.197	1.511	0.074
27.000	111.563	80.007	19.995	104.454	20.198	1.459	0.086
27.500	111.596	80.008	19.996	104.459	20.195	1.628	0.101
28.000	111.622	80.007	19.996	104.466	20.196	1.557	0.080
28.501	111.699	80.007	19.997	104.473	20.197	1.551	0.081
29.001	111.699	80.006	19.996	104.478	20.194	1.718	0.089
29.501	111.777	80.006	19.996	104.480	20.196	1.599	0.077
30.001	111.844	80.008	19.994	104.480	20.195	1.685	0.111
30.500	111.877	80.007	19.996	104.477	20.197	1.522	0.122
31.000	111.960	80.008	19.995	104.477	20.192	1.863	0.108
31.500	112.023	80.007	19.995	104.477	20.191	1.912	0.131
32.000	112.073	80.008	19.996	104.475	20.193	1.756	0.129
32.501	112.125	80.006	19.995	104.477	20.194	1.745	0.107
33.001	112.178	80.006	19.994	104.481	20.191	1.921	0.104
33.500	112.256	80.008	19.994	104.483	20.190	2.008	0.118
34.000	112.297	80.008	19.995	104.485	20.191	1.911	0.125
34.501	112.403	80.007	19.994	104.489	20.187	2.175	0.133
35.001	112.457	80.008	19.994	104.494	20.189	2.089	0.154
35.500	112.543	80.008	19.995	104.499	20.188	2.155	0.150
36.000	112.599	80.008	19.994	104.500	20.185	2.292	0.141
36.501	112.691	80.009	19.992	104.503	20.185	2.334	0.145
37.000	112.778	80.009	19.996	104.504	20.185	2.320	0.164
37.500	112.874	80.008	19.994	104.501	20.186	2.256	0.181
38.000	112.927	80.009	19.994	104.497	20.187	2.175	0.165
38.500	113.038	80.007	19.995	104.501	20.188	2.147	0.157
39.000	113.077	80.010	19.993	104.504	20.188	2.155	0.157
39.501	113.205	80.008	19.994	104.503	20.185	2.325	0.158
40.001	113.279	80.007	19.995	104.506	20.188	2.118	0.184
40.501	113.389	80.009	19.995	104.510	20.186	2.231	0.193
41.002	113.489	80.008	19.993	104.515	20.183	2.440	0.197
41.501	113.570	80.008	19.994	104.515	20.184	2.398	0.195
42.000	113.654	80.008	19.993	104.514	20.189	2.039	0.173
42.501	113.789	80.009	19.994	104.511	20.184	2.409	0.192
43.001	113.877	80.009	19.993	104.508	20.184	2.416	0.221
43.501	113.972	80.008	19.993	104.506	20.180	2.625	0.203
44.000	114.072	80.008	19.994	104.508	20.182	2.541	0.189
44.500	114.164	80.008	19.994	104.515	20.183	2.457	0.193
45.000	114.268	80.008	19.993	104.521	20.183	2.486	0.194
45.501	114.361	80.008	19.994	104.526	20.185	2.332	0.196
46.001	114.505	80.009	19.994	104.527	20.185	2.329	0.217
46.501	114.564	80.007	19.993	104.527	20.181	2.605	0.220
47.001	114.704	80.009	19.993	104.527	20.180	2.635	0.201
47.500	114.837	80.007	19.993	104.527	20.183	2.449	0.236
48.000	114.945	80.007	19.994	104.525	20.185	2.323	0.256
48.501	115.012	80.007	19.994	104.526	20.182	2.550	0.208
49.000	115.144	80.006	19.994	104.527	20.183	2.435	0.188
49.500	115.276	80.007	19.994	104.527	20.182	2.523	0.232
50.001	115.394	80.007	19.993	104.525	20.188	2.122	0.257
50.500	115.482	80.007	19.993	104.521	20.184	2.380	0.228
51.000	115.663	80.006	19.993	104.516	20.185	2.345	0.238
51.500	115.760	80.006	19.993	104.510	20.187	2.197	0.273
52.000	115.847	80.007	19.994	104.504	20.187	2.208	0.231
52.500	116.007	80.007	19.993	104.498	20.184	2.413	0.216
53.001	116.127	80.006	19.994	104.496	20.184	2.362	0.263
53.501	116.285	80.007	19.994	104.495	20.182	2.520	0.279
54.000	116.390	80.007	19.993	104.493	20.185	2.336	0.271
54.500	116.466	80.008	19.994	104.494	20.187	2.180	0.222
55.001	116.613	80.007	19.993	104.500	20.186	2.254	0.202
55.501	116.750	80.005	19.993	104.504	20.185	2.316	0.253
56.000	116.900	80.008	19.994	104.505	20.186	2.259	0.285
56.500	116.995	80.006	19.993	104.510	20.186	2.228	0.266
57.000	117.094	80.008	19.994	104.512	20.186	2.278	0.220
57.500	117.240	80.006	19.994	104.506	20.183	2.428	0.220
58.000	117.417	80.007	19.994	104.502	20.182	2.510	0.284
58.500	117.534	80.008	19.994	104.501	20.187	2.177	0.308
59.000	117.666	80.007	19.994	104.500	20.186	2.287	0.271
59.500	117.792	80.007	19.993	104.503	20.185	2.320	0.253
60.000	117.947	80.006	19.994	104.510	20.186	2.267	0.269
60.501	118.054	80.009	19.994	104.512	20.186	2.230	0.272
61.000	118.225	80.007	19.994	104.517	20.186	2.232	0.270
61.501	118.366	80.006	19.994	104.519	20.189	2.067	0.295
62.001	118.502	80.009	19.993	104.519	20.185	2.326	0.295
62.500	118.651	80.008	19.995	104.519	20.187	2.173	0.281
63.000	118.799	80.008	19.994	104.523	20.189	2.034	0.291
63.501	118.918	80.007	19.994	104.525	20.189	2.083	0.282
64.001	119.074	80.007	19.993	104.524	20.185	2.294	0.271
64.501	119.200	80.007	19.994	104.524	20.185	2.290	0.279
65.000	119.359	80.008	19.993	104.523	20.185	2.300	0.283
65.500	119.491	80.009	19.993	104.523	20.185	2.316	0.288
66.001	119.621	80.009	19.993	104.523	20.184	2.415	0.276
66.501	119.799	80.008	19.995	104.522	20.184	2.413	0.285
67.000	119.948	80.009	19.994	104.522	20.184	2.382	0.317
67.500	120.060	80.010	19.993	104.523	20.184	2.380	0.294
68.000	120.227	80.010	19.993	104.523	20.182	2.556	0.270
68.500	120.402	80.009	19.994	104.524	20.184	2.410	0.311
69.000	120.520	80.009	19.993	104.525	20.180	2.637	0.318
69.501	120.692	80.010	19.992	104.525	20.179	2.747	0.292
70.001	120.867	80.009	19.993	104.526	20.182	2.514	0.318
70.500	120.986	80.010	19.993	104.528	20.181	2.584	0.320
71.000	121.136	80.010	19.993	104.528	20.181	2.602	0.281
71.501	121.291	80.009	19.994	104.535	20.180	2.637	0.287
72.001	121.453	80.009	19.993	104.538	20.178	2.804	0.311
72.500	121.642	80.009	19.994	104.540	20.182	2.531	0.334
73.000	121.811	80.009	19.994	104.542	20.178	2.764	0.355
73.500	121.934	80.008	19.994	104.542	20.179	2.723	0.325
74.001	122.118	80.009	19.993	104.537	20.181	2.582	0.300
74.501	122.292	80.009	19.995	104.534	20.178	2.780	0.332
75.001	122.459	80.008	19.994	104.532	20.177	2.877	0.349
75.500	122.661	80.010	19.992	104.528	20.179	2.736	0.355
76.000	122.813	80.011	19.993	104.527	20.180	2.665	0.362
76.500	122.972	80.008	19.994	104.526	20.181	2.612	0.333
77.000	123.147	80.009	19.995	104.524	20.181	2.615	0.323
77.501	123.331	80.009	19.993	104.522	20.177	2.872	0.347
78.001	123.449	80.008	19.994	104.522	20.179	2.738	0.331
78.501	123.652	80.008	19.994	104.523	20.178	2.758	0.311
79.001	123.794	80.009	19.993	104.523	20.178	2.802	0.333
79.501	123.945	80.009	19.994	104.525	20.177	2.865	0.319
80.001	124.134	80.009	19.994	104.526	20.182	2.549	0.316
80.500	124.315	80.007	19.994	104.525	20.180	2.641	0.355
81.000	124.485	80.008	19.993	104.519	20.179	2.716	0.361
81.501	124.599	80.009	19.994	104.518	20.179	2.705	0.317
82.001	124.781	80.010	19.993	104.519	20.178	2.760	0.290
82.500	124.984	80.009	19.994	104.523	20.180	2.624	0.341
83.000	125.129	80.009	19.992	104.527	20.178	2.777	0.367
83.500	125.312	80.009	19.994	104.532	20.180	2.643	0.338
84.001	125.510	80.008	19.994	104.533	20.179	2.712	0.354
84.501	125.675	80.008	19.994	104.532	20.180	2.632	0.372
85.000	125.868	80.009	19.995	104.528	20.180	2.670	0.360
85.500	126.024	80.008	19.994	104.527	20.182	2.544	0.353
86.000	126.199	80.007	19.992	104.527	20.181	2.619	0.340
86.500	126.391	80.009	19.997	104.528	20.181	2.571	0.349
87.000	126.550	80.008	19.995	104.532	20.183	2.443	0.359
87.501	126.749	80.009	19.995	104.535	20.182	2.555	0.355
88.000	126.921	80.009	19.996	104.535	20.181	2.592	0.365
88.500	127.088	80.010	19.995	104.535	20.185	2.331	0.355
89.001	127.307	80.010	19.996	104.534	20.186	2.263	0.362
89.500	127.458	80.011	19.994	104.530	20.185	2.326	0.378
90.000	127.691	80.009	19.993	104.527	20.184	2.368	0.377
90.500	127.831	80.009	19.993	104.530	20.184	2.370	0.378
91.000	128.043	80.011	19.993	104.531	20.183	2.487	0.362
91.500	128.276	80.009	19.994	104.531	20.184	2.397	0.398
92.000	128.396	80.011	19.993	104.532	20.183	2.430	0.399
92.500	128.641	80.009	19.993	104.532	20.185	2.304	0.359
93.001	128.798	80.010	19.994	104.530	20.185	2.357	0.384
93.501	128.959	80.010	19.994	104.533	20.183	2.425	0.360
94.001	129.131	80.011	19.993	104.534	20.186	2.271	0.325
94.501	129.353	80.011	19.992	104.538	20.184	2.419	0.363
95.001	129.545	80.010	19.995	104.537	20.186	2.285	0.404
95.501	129.709	80.011	19.994	104.539	20.184	2.383	0.385
96.001	129.906	80.009	19.994	104.537	20.181	2.579	0.359
96.500	130.118	80.010	19.993	104.537	20.181	2.564	0.385
97.000	130.320	80.009	19.994	104.534	20.183	2.460	0.411
97.500	130.512	80.009	19.993	104.538	20.181	2.590	0.404
98.000	130.730	80.009	19.994	104.542	20.184	2.392	0.402
98.500	130.923	80.009	19.994	104.542	20.182	2.557	0.411
99.001	131.116	80.010	19.994	104.540	20.183	2.475	0.398
99.501	131.299	80.008	19.993	104.541	20.181	2.614	0.381
100.000	131.474	80.008	19.995	104.543	20.180	2.685	0.367
100.500	131.740	80.010	19.994	104.540	20.182	2.529	0.400
101.000	131.910	80.007	19.995	104.544	20.183	2.467	0.438
101.500	132.094	80.007	19.993	104.549	20.183	2.487	0.395
102.000	132.328	80.007	19.993	104.550	20.181	2.573	0.386
102.500	132.532	80.008	19.992	104.545	20.183	2.434	0.428
103.001	132.730	80.007	19.993	104.546	20.179	2.711	0.420
103.501	132.932	80.008	19.993	104.544	20.181	2.568	0.401
104.001	133.131	80.007	19.994	104.541	20.180	2.678	0.401
104.500	133.337	80.009	19.993	104.545	20.179	2.709	0.403
105.000	133.580	80.008	19.993	104.545	20.181	2.579	0.427
105.501	133.754	80.007	19.994	104.544	20.181	2.614	0.433
106.000	133.957	80.008	19.993	104.547	20.180	2.628	0.397
106.500	134.203	80.007	19.994	104.545	20.180	2.680	0.413
107.000	134.382	80.008	19.994	104.541	20.177	2.827	0.437
107.500	134.586	80.008	19.993	104.545	20.181	2.619	0.404
108.000	134.810	80.007	19.994	104.548	20.181	2.577	0.405
108.501	135.001	80.009	19.992	104.551	20.182	2.537	0.421
109.001	135.179	80.006	19.994	104.557	20.181	2.560	0.392
109.501	135.380	80.007	19.994	104.562	20.179	2.753	0.374
110.001	135.579	80.008	19.992	104.563	20.181	2.608	0.389
110.500	135.812	80.007	19.993	104.560	20.182	2.491	0.416
111.000	136.046	80.008	19.994	104.555	20.180	2.680	0.449
111.501	136.220	80.007	19.994	104.554	20.184	2.419	0.437
112.001	136.455	80.007	19.994	104.549	20.181	2.596	0.409
112.500	136.681	80.008	19.993	104.543	20.180	2.687	0.435
113.000	136.921	80.008	19.994	104.542	20.183	2.438	0.463
113.500	137.077	80.008	19.994	104.545	20.181	2.596	0.431
114.000	137.309	80.007	19.994	104.547	20.180	2.660	0.392
114.500	137.567	80.007	19.995	104.550	20.182	2.528	0.439
115.000	137.784	80.008	19.994	104.551	20.179	2.724	0.483
115.500	137.985	80.006	19.995	104.553	20.180	2.643	0.446
116.001	138.206	80.007	19.995	104.553	20.179	2.727	0.420
116.500	138.427	80.008	19.995	104.548	20.179	2.716	0.432
117.000	138.602	80.006	19.996	104.547	20.182	2.517	0.419
117.500	138.842	80.008	19.994	104.550	20.181	2.586	0.405
118.000	139.083	80.007	19.994	104.550	20.176	2.904	0.448
118.500	139.247	80.006	19.995	104.546	20.179	2.695	0.443
119.000	139.495	80.007	19.994	104.546	20.181	2.570	0.408
119.500	139.720	80.008	19.994	104.541	20.180	2.642	0.443
120.001	139.928	80.005	19.994	104.541	20.180	2.629	0.454
120.500	140.170	80.006	19.996	104.537	20.179	2.748	0.442
121.000	140.420	80.007	19.996	104.541	20.180	2.676	0.471
121.500	140.597	80.007	19.995	104.547	20.180	2.632	0.460
122.000	140.827	80.008	19.994	104.550	20.179	2.726	0.417
122.500	141.069	80.007	19.995	104.552	20.182	2.537	0.439
123.000	141.299	80.008	19.995	104.558	20.180	2.674	0.472
123.501	141.481	80.008	19.995	104.559	20.177	2.861	0.442
124.001	141.742	80.007	19.995	104.556	20.181	2.592	0.428
124.500	141.969	80.008	19.995	104.556	20.177	2.832	0.465
125.000	142.199	80.007	19.995	104.555	20.180	2.685	0.472
125.501	142.379	80.008	19.994	104.555	20.180	2.684	0.434
126.001	142.641	80.008	19.994	104.553	20.180	2.682	0.427
126.500	142.826	80.007	19.996	104.553	20.182	2.539	0.445
127.001	143.098	80.008	19.995	104.549	20.184	2.381	0.452
127.501	143.310	80.007	19.994	104.549	20.181	2.593	0.470
128.000	143.568	80.008	19.996	104.550	20.179	2.705	0.477
128.500	143.801	80.008	19.994	104.553	20.180	2.626	0.481
129.001	144.014	80.007	19.995	104.556	20.181	2.616	0.469
129.501	144.233	80.006	19.995	104.562	20.180	2.665	0.439
130.001	144.477	80.007	19.994	104.564	20.181	2.575	0.447
130.501	144.697	80.008	19.994	104.564	20.179	2.695	0.463
131.001	144.945	80.008	19.994	104.564	20.180	2.630	0.466
131.501	145.149	80.008	19.994	104.561	20.181	2.575	0.460
132.001	145.399	80.005	19.994	104.557	20.179	2.706	0.453
132.501	145.631	80.007	19.994	104.551	20.182	2.513	0.468
133.001	145.868	80.007	19.994	104.547	20.181	2.575	0.476
133.501	146.082	80.007	19.994	104.548	20.180	2.685	0.460
134.000	146.315	80.009	19.993	104.551	20.181	2.577	0.449
134.500	146.569	80.006	19.994	104.551	20.178	2.792	0.467
135.000	146.796	80.008	19.994	104.552	20.180	2.652	0.484
135.500	147.007	80.007	19.994	104.555	20.181	2.588	0.459
136.001	147.216	80.008	19.994	104.554	20.179	2.704	0.429
136.501	147.471	80.006	19.994	104.554	20.182	2.493	0.442
137.000	147.752	80.007	19.995	104.553	20.184	2.421	0.500
137.500	147.966	80.007	19.994	104.553	20.183	2.454	0.516
138.001	148.176	80.006	19.994	104.547	20.181	2.573	0.459
138.500	148.417	80.006	19.994	104.544	20.182	2.553	0.437
139.000	148.655	80.008	19.992	104.543	20.181	2.582	0.465
139.500	148.938	80.008	19.994	104.545	20.179	2.746	0.500
140.000	149.181	80.006	19.993	104.549	20.182	2.533	0.523
140.500	149.425	80.008	19.994	104.554	20.184	2.386	0.506
141.000	149.711	80.008	19.994	104.556	20.183	2.487	0.508
141.500	149.929	80.007	19.995	104.556	20.181	2.586	0.517
142.000	150.157	80.009	19.993	104.558	20.184	2.423	0.475
142.501	150.418	80.008	19.993	104.556	20.184	2.381	0.468
143.001	150.654	80.008	19.994	104.554	20.179	2.733	0.493
143.501	150.871	80.009	19.993	104.555	20.181	2.614	0.475
144.001	151.097	80.008	19.993	104.557	20.176	2.940	0.447
144.501	151.290	80.008	19.994	104.557	20.180	2.683	0.431
145.000	151.573	80.008	19.995	104.558	20.178	2.760	0.448
145.500	151.812	80.009	19.994	104.559	20.182	2.524	0.500
146.000	152.015	80.007	19.992	104.552	20.178	2.770	0.482
146.500	152.302	80.009	19.995	104.549	20.180	2.682	0.465
147.000	152.516	80.009	19.995	104.549	20.177	2.845	0.495
147.500	152.768	80.009	19.994	104.550	20.182	2.515	0.484
148.000	153.002	80.010	19.992	104.548	20.183	2.454	0.476
148.500	153.265	80.009	19.995	104.552	20.184	2.382	0.491
149.000	153.483	80.009	19.993	104.552	20.181	2.579	0.489
149.500	153.745	80.009	19.994	104.546	20.183	2.457	0.481
150.000	153.975	80.011	19.995	104.541	20.184	2.380	0.486
150.500	154.207	80.010	19.995	104.540	20.180	2.677	0.477
151.000	154.454	80.010	19.994	104.540	20.183	2.430	0.470
151.500	154.671	80.011	19.993	104.541	20.183	2.478	0.471
152.000	154.967	80.010	19.994	104.546	20.184	2.358	0.489
152.500	155.218	80.010	19.995	104.548	20.183	2.465	0.530
153.000	155.433	80.009	19.994	104.546	20.181	2.584	0.506
153.500	155.668	80.009	19.993	104.545	20.182	2.491	0.458
154.000	155.926	80.009	19.995	104.543	20.184	2.377	0.472
154.500	156.180	80.010	19.994	104.542	20.183	2.487	0.503
155.000	156.436	80.009	19.993	104.545	20.183	2.425	0.511
155.500	156.715	80.008	19.994	104.547	20.183	2.485	0.522
156.000	156.952	80.009	19.995	104.546	20.182	2.520	0.525
156.500	157.140	80.009	19.994	104.550	20.185	2.353	0.471
157.000	157.405	80.009	19.993	104.553	20.184	2.386	0.439
157.500	157.607	80.008	19.995	104.550	20.182	2.545	0.460
158.000	157.873	80.008	19.994	104.554	20.183	2.481	0.467
158.500	158.113	80.008	19.993	104.556	20.182	2.507	0.487
159.001	158.379	80.008	19.994	104.550	20.184	2.419	0.506
159.501	158.597	80.008	19.994	104.543	20.182	2.492	0.495
160.000	158.836	80.008	19.994	104.540	20.181	2.558	0.471
160.501	159.113	80.007	19.994	104.534	20.181	2.558	0.487
161.000	159.340	80.008	19.994	104.531	20.182	2.492	0.509
161.500	159.588	80.008	19.994	104.530	20.182	2.494	0.490
162.000	159.861	80.009	19.993	104.531	20.181	2.613	0.498
162.501	160.122	80.008	19.994	104.532	20.182	2.496	0.527
163.001	160.406	80.009	19.994	104.533	20.182	2.496	0.539
163.501	160.639	80.008	19.993	104.533	20.182	2.516	0.531
164.001	160.870	80.008	19.994	104.537	20.182	2.494	0.490
164.501	161.094	80.008	19.993	104.542	20.187	2.208	0.460
165.000	161.356	80.009	19.993	104.543	20.181	2.578	0.471
165.500	161.608	80.007	19.994	104.545	20.182	2.511	0.500
166.001	161.840	80.008	19.994	104.545	20.184	2.379	0.499
166.500	162.113	80.009	19.993	104.540	20.184	2.391	0.494
167.000	162.354	80.008	19.995	104.536	20.185	2.355	0.509
167.500	162.594	80.008	19.992	104.533	20.182	2.521	0.497
168.000	162.855	80.009	19.993	104.529	20.187	2.177	0.491
168.501	163.094	80.010	19.994	104.529	20.186	2.252	0.500
169.000	163.311	80.010	19.992	104.529	20.184	2.391	0.478
169.500	163.581	80.010	19.993	104.528	20.184	2.413	0.472
170.000	163.834	80.010	19.994	104.529	20.182	2.542	0.505
170.500	164.111	80.009	19.993	104.529	20.183	2.472	0.527
171.001	164.317	80.010	19.993	104.529	20.182	2.522	0.507
171.501	164.627	80.010	19.993	104.529	20.186	2.239	0.499
172.000	164.847	80.008	19.994	104.530	20.184	2.404	0.522
172.500	165.121	80.010	19.993	104.530	20.182	2.503	0.512
173.001	165.355	80.009	19.993	104.531	20.184	2.366	0.501
173.501	165.626	80.010	19.993	104.531	20.183	2.465	0.507
174.001	165.869	80.009	19.994	104.530	20.184	2.369	0.510
174.501	166.099	80.011	19.994	104.529	20.184	2.373	0.493
175.000	166.372	80.011	19.994	104.528	20.185	2.311	0.487
175.501	166.626	80.010	19.993	104.528	20.182	2.490	0.515
176.001	166.841	80.009	19.994	104.528	20.180	2.681	0.498
176.500	167.131	80.011	19.993	104.529	20.183	2.472	0.487
177.000	167.338	80.009	19.993	104.529	20.185	2.334	0.501
177.500	167.599	80.008	19.995	104.528	20.182	2.525	0.483
178.000	167.839	80.009	19.994	104.527	20.184	2.400	0.485
178.500	168.094	80.008	19.993	104.526	20.183	2.444	0.498
179.001	168.329	80.009	19.993	104.525	20.184	2.406	0.492
179.500	168.566	80.009	19.994	104.526	20.182	2.547	0.481
180.000	168.822	80.007	19.994	104.527	20.183	2.453	0.483
180.500	169.070	80.009	19.995	104.528	20.182	2.549	0.498
181.000	169.336	80.009	19.993	104.528	20.184	2.382	0.509
181.501	169.577	80.007	19.994	104.528	20.187	2.217	0.510
182.000	169.859	80.007	19.993	104.528	20.181	2.622	0.515
182.500	170.093	80.005	19.994	104.528	20.185	2.329	0.520
183.000	170.343	80.007	19.995	104.528	20.184	2.419	0.500
183.500	170.616	80.007	19.995	104.527	20.183	2.455	0.504
184.000	170.871	80.007	19.995	104.527	20.182	2.536	0.525
184.500	171.069	80.007	19.995	104.527	20.183	2.488	0.490
185.001	171.343	80.007	19.995	104.528	20.181	2.598	0.462
185.501	171.591	80.006	19.995	104.529	20.183	2.481	0.497
186.001	171.844	80.007	19.994	104.528	20.182	2.521	0.512
186.501	172.075	80.006	19.995	104.523	20.183	2.466	0.493
187.000	172.308	80.007	19.994	104.523	20.184	2.369	0.474
187.500	172.582	80.008	19.996	104.522	20.185	2.301	0.485
188.001	172.833	80.007	19.995	104.521	20.184	2.415	0.516
188.501	173.087	80.006	19.994	104.521	20.183	2.485	0.515
189.001	173.316	80.007	19.994	104.524	20.183	2.483	0.494
189.500	173.569	80.007	19.996	104.522	20.183	2.430	0.483
190.000	173.822	80.008	19.994	104.517	20.183	2.446	0.493
190.500	174.099	80.007	19.995	104.517	20.183	2.428	0.518
191.000	174.328	80.009	19.993	104.517	20.183	2.463	0.519
191.500	174.564	80.009	19.995	104.518	20.184	2.358	0.486
192.000	174.838	80.008	19.995	104.519	20.184	2.408	0.487
192.500	175.119	80.008	19.995	104.523	20.184	2.358	0.533
193.001	175.350	80.008	19.994	104.523	20.185	2.354	0.534
193.500	175.574	80.006	19.995	104.521	20.184	2.374	0.483
194.000	175.818	80.007	19.994	104.521	20.182	2.490	0.461
194.500	176.029	80.007	19.994	104.521	20.186	2.255	0.461
195.000	176.319	80.007	19.995	104.521	20.185	2.329	0.478
195.500	176.581	80.008	19.994	104.520	20.184	2.375	0.527
196.000	176.803	80.007	19.995	104.520	20.185	2.312	0.518
196.501	177.072	80.008	19.994	104.515	20.184	2.373	0.487
197.001	177.329	80.008	19.995	104.513	20.183	2.472	0.508
197.501	177.555	80.007	19.996	104.512	20.185	2.307	0.505
198.000	177.800	80.009	19.995	104.514	20.183	2.450	0.478
198.500	178.028	80.008	19.994	104.516	20.184	2.369	0.472
199.000	178.291	80.008	19.995	104.519	20.183	2.475	0.481
199.500	178.569	80.008	19.995	104.515	20.184	2.391	0.516
200.001	178.814	80.008	19.994	104.515	20.184	2.361	0.532
200.501	179.052	80.008	19.994	104.515	20.184	2.369	0.504
201.001	179.331	80.008	19.994	104.515	20.187	2.198	0.500
201.500	179.614	80.008	19.994	104.516	20.182	2.545	0.539
202.000	179.821	80.007	19.995	104.521	20.181	2.567	0.526
202.500	180.027	80.009	19.993	104.519	20.185	2.299	0.452
203.000	180.333	80.008	19.994	104.518	20.183	2.429	0.462
203.501	180.564	80.009	19.994	104.511	20.184	2.376	0.524
204.000	180.798	80.008	19.994	104.511	20.183	2.479	0.501
204.500	181.015	80.008	19.994	104.513	20.182	2.523	0.458
205.000	181.358	80.008	19.994	104.515	20.182	2.534	0.506
205.501	181.573	80.008	19.994	104.513	20.184	2.418	0.559
206.000	181.835	80.006	19.993	104.519	20.183	2.435	0.517
206.500	182.055	80.009	19.996	104.520	20.186	2.282	0.480
207.001	182.299	80.007	19.997	104.520	20.185	2.294	0.473
207.501	182.557	80.008	19.996	104.519	20.183	2.431	0.483
208.000	182.801	80.007	19.997	104.520	20.184	2.361	0.502
208.500	183.058	80.007	19.997	104.517	20.182	2.517	0.501
209.000	183.314	80.008	19.995	104.514	20.183	2.446	0.507
209.500	183.562	80.008	19.996	104.508	20.181	2.603	0.509
210.000	183.819	80.008	19.996	104.503	20.183	2.484	0.505
210.500	184.042	80.008	19.996	104.500	20.184	2.402	0.493
211.000	184.281	80.006	19.995	104.501	20.185	2.350	0.471
211.500	184.533	80.006	19.996	104.502	20.182	2.501	0.476
212.000	184.789	80.007	19.996	104.504	20.185	2.336	0.499
212.501	185.041	80.006	19.995	104.503	20.183	2.477	0.509
213.001	185.307	80.007	19.995	104.505	20.183	2.457	0.513
213.501	185.528	80.007	19.996	104.505	20.183	2.451	0.502
214.001	185.795	80.007	19.996	104.502	20.183	2.442	0.487
214.501	186.039	80.007	19.995	104.506	20.184	2.394	0.499
215.001	186.277	80.008	19.995	104.510	20.184	2.376	0.496
215.500	186.556	80.006	19.995	104.507	20.185	2.349	0.500
216.000	186.800	80.007	19.995	104.503	20.184	2.413	0.520
216.500	187.046	80.006	19.996	104.501	20.184	2.417	0.506
217.000	187.287	80.005	19.995	104.500	20.186	2.248	0.489
217.500	187.503	80.006	19.997	104.498	20.186	2.274	0.472
218.001	187.775	80.007	19.995	104.500	20.182	2.543	0.473
218.501	188.006	80.006	19.995	104.500	20.184	2.386	0.496
219.000	188.271	80.005	19.995	104.505	20.183	2.439	0.499
219.500	188.521	80.007	19.995	104.503	20.185	2.305	0.506
220.000	188.742	80.008	19.994	104.500	20.185	2.290	0.493
220.501	189.010	80.007	19.996	104.502	20.185	2.297	0.480
221.001	189.257	80.007	19.995	104.504	20.186	2.284	0.502
221.501	189.477	80.008	19.995	104.503	20.185	2.323	0.491
222.001	189.748	80.007	19.994	104.502	20.184	2.402	0.479
222.500	189.957	80.006	19.994	104.503	20.185	2.350	0.485
223.000	190.227	80.009	19.993	104.501	20.184	2.378	0.479
223.501	190.474	80.008	19.995	104.501	20.184	2.370	0.498
224.001	190.741	80.008	19.994	104.500	20.184	2.403	0.515
224.501	190.983	80.009	19.994	104.499	20.183	2.451	0.511
225.001	191.241	80.009	19.994	104.497	20.183	2.427	0.505
225.500	191.474	80.008	19.995	104.499	20.182	2.556	0.496
226.000	191.727	80.008	19.994	104.502	20.181	2.589	0.489
226.501	191.953	80.010	19.993	104.505	20.181	2.565	0.482
227.001	192.200	80.008	19.994	104.506	20.181	2.563	0.476
227.501	192.449	80.010	19.994	104.510	20.181	2.559	0.485
228.001	192.704	80.010	19.993	104.514	20.184	2.383	0.500
228.501	192.967	80.009	19.994	104.513	20.186	2.257	0.511
229.001	193.218	80.009	19.995	104.513	20.184	2.380	0.516
229.500	193.440	80.009	19.994	104.517	20.182	2.519	0.493
230.000	193.695	80.009	19.994	104.519	20.185	2.295	0.475
230.500	193.944	80.010	19.993	104.514	20.182	2.514	0.491
231.000	194.158	80.008	19.993	104.510	20.179	2.743	0.484
231.500	194.413	80.010	19.993	104.505	20.181	2.570	0.466
232.000	194.665	80.009	19.992	104.500	20.182	2.554	0.488
232.501	194.942	80.009	19.995	104.497	20.180	2.636	0.518
233.001	195.139	80.010	19.994	104.495	20.184	2.400	0.502
233.500	195.375	80.009	19.994	104.494	20.182	2.519	0.454
234.000	195.612	80.009	19.993	104.493	20.183	2.462	0.453
234.501	195.906	80.010	19.994	104.493	20.181	2.587	0.502
235.001	196.119	80.009	19.993	104.494	20.184	2.413	0.519
235.501	196.365	80.009	19.993	104.493	20.182	2.545	0.483
236.001	196.596	80.009	19.994	104.493	20.182	2.543	0.468
236.501	196.845	80.007	19.995	104.493	20.183	2.482	0.479
237.000	197.093	80.008	19.995	104.494	20.181	2.563	0.489
237.500	197.319	80.007	19.994	104.496	20.179	2.691	0.485
238.000	197.592	80.008	19.993	104.498	20.181	2.618	0.486
238.500	197.816	80.007	19.994	104.500	20.181	2.618	0.498
239.001	198.045	80.007	19.995	104.502	20.182	2.508	0.475
239.501	198.273	80.008	19.995	104.501	20.181	2.566	0.455
240.000	198.570	80.008	19.992	104.498	20.182	2.532	0.491
240.500	198.778	80.008	19.994	104.499	20.183	2.473	0.515
241.000	199.051	80.009	19.993	104.501	20.180	2.634	0.493
241.500	199.272	80.009	19.994	104.501	20.180	2.631	0.488
242.000	199.524	80.007	19.994	104.502	20.180	2.667	0.483
242.500	199.815	80.008	19.993	104.500	20.180	2.638	0.508
243.001	200.052	80.008	19.994	104.498	20.180	2.625	0.536
243.500	200.263	80.008	19.995	104.494	20.183	2.480	0.487
244.000	200.518	80.007	19.993	104.493	20.182	2.524	0.457
244.500	200.762	80.007	19.994	104.498	20.179	2.697	0.483
245.000	200.986	80.008	19.994	104.500	20.179	2.702	0.483
245.500	201.221	80.006	19.996	104.503	20.179	2.695	0.463
246.001	201.475	80.009	19.995	104.505	20.180	2.688	0.474
246.501	201.734	80.008	19.995	104.504	20.179	2.691	0.501
247.000	201.968	80.006	19.994	104.500	20.180	2.664	0.503
247.500	202.233	80.009	19.995	104.498	20.177	2.849	0.496
248.001	202.459	80.009	19.995	104.495	20.182	2.508	0.495
248.501	202.709	80.010	19.995	104.494	20.182	2.495	0.483
249.001	202.955	80.010	19.994	104.494	20.179	2.730	0.486
249.501	203.191	80.009	19.992	104.493	20.181	2.588	0.489
250.001	203.408	80.009	19.994	104.491	20.182	2.508	0.468
250.500	203.638	80.011	19.994	104.491	20.183	2.447	0.450
251.000	203.923	80.010	19.994	104.493	20.183	2.466	0.481
251.501	204.166	80.010	19.993	104.491	20.185	2.356	0.521
252.001	204.413	80.011	19.994	104.491	20.183	2.473	0.509
252.501	204.650	80.011	19.993	104.491	20.182	2.528	0.487
253.001	204.913	80.010	19.995	104.491	20.181	2.596	0.492
253.501	205.173	80.010	19.993	104.491	20.183	2.469	0.511
254.000	205.378	80.011	19.994	104.491	20.182	2.539	0.494
254.500	205.627	80.011	19.994	104.491	20.182	2.550	0.459
255.001	205.908	80.010	19.993	104.492	20.183	2.451	0.492
255.500	206.140	80.010	19.994	104.492	20.182	2.556	0.522
256.000	206.350	80.011	19.993	104.492	20.183	2.431	0.477
256.500	206.616	80.010	19.994	104.491	20.182	2.501	0.459
257.000	206.858	80.010	19.993	104.494	20.184	2.398	0.492
257.500	207.121	80.010	19.993	104.493	20.181	2.579	0.506
258.000	207.372	80.010	19.994	104.492	20.186	2.246	0.510
258.501	207.627	80.010	19.992	104.490	20.181	2.607	0.510
259.000	207.822	80.011	19.993	104.491	20.180	2.623	0.478
259.500	208.066	80.010	19.993	104.488	20.183	2.464	0.444
260.000	208.347	80.010	19.993	104.488	20.179	2.693	0.482
260.500	208.575	80.009	19.993	104.487	20.180	2.671	0.517
261.000	208.846	80.010	19.993	104.487	20.180	2.678	0.504
261.500	209.063	80.008	19.994	104.487	20.180	2.688	0.494
262.001	209.314	80.008	19.993	104.487	20.181	2.607	0.478
262.501	209.579	80.008	19.994	104.486	20.181	2.620	0.492
263.000	209.840	80.008	19.995	104.487	20.181	2.592	0.521
263.500	210.086	80.007	19.994	104.487	20.179	2.709	0.516
264.000	210.347	80.008	19.994	104.488	20.181	2.576	0.507
264.500	210.581	80.009	19.993	104.489	20.179	2.750	0.501
265.000	210.831	80.010	19.994	104.490	20.179	2.717	0.489
265.500	211.107	80.007	19.994	104.491	20.180	2.686	0.505
266.000	211.329	80.006	19.993	104.494	20.177	2.858	0.512
266.500	211.566	80.009	19.995	104.493	20.178	2.792	0.478
267.000	211.812	80.008	19.996	104.493	20.177	2.860	0.470
267.500	212.036	80.007	19.995	104.493	20.180	2.676	0.477
268.000	212.287	80.007	19.995	104.492	20.179	2.713	0.473
268.500	212.556	80.007	19.994	104.489	20.180	2.680	0.498
269.000	212.809	80.009	19.996	104.489	20.181	2.583	0.521
269.500	213.030	80.007	19.994	104.488	20.179	2.754	0.497
270.000	213.291	80.008	19.995	104.488	20.181	2.609	0.478
270.500	213.544	80.006	19.995	104.491	20.179	2.713	0.498
271.000	213.775	80.007	19.994	104.492	20.179	2.741	0.499
271.500	214.048	80.007	19.995	104.492	20.184	2.363	0.494
272.000	214.271	80.008	19.994	104.493	20.180	2.643	0.501
272.500	214.516	80.005	19.995	104.493	20.180	2.677	0.483
273.000	214.750	80.007	19.995	104.490	20.182	2.506	0.473
273.500	214.956	80.008	19.995	104.489	20.182	2.539	0.459
274.000	215.265	80.006	19.995	104.488	20.182	2.535	0.477
274.500	215.473	80.006	19.995	104.486	20.180	2.625	0.516
275.000	215.729	80.006	19.996	104.489	20.186	2.262	0.491
275.501	215.953	80.007	19.995	104.488	20.184	2.401	0.472
276.002	216.197	80.008	19.995	104.488	20.183	2.436	0.474
276.502	216.493	80.007	19.995	104.488	20.180	2.687	0.504
277.001	216.700	80.008	19.996	104.488	20.180	2.667	0.521
277.500	216.953	80.007	19.996	104.485	20.184	2.403	0.482
278.000	217.234	80.008	19.997	104.488	20.183	2.424	0.498
278.500	217.457	80.007	19.996	104.492	20.183	2.469	0.519
279.000	217.714	80.006	19.994	104.494	20.185	2.321	0.491
279.500	217.964	80.009	19.995	104.495	20.183	2.440	0.493
280.001	218.212	80.007	19.994	104.498	20.182	2.537	0.503
280.501	218.431	80.008	19.994	104.497	20.180	2.638	0.483
281.000	218.659	80.008	19.995	104.493	20.183	2.423	0.457
281.500	218.908	80.007	19.995	104.491	20.181	2.561	0.462
282.000	219.163	80.007	19.993	104.491	20.179	2.711	0.490
282.500	219.430	80.006	19.993	104.489	20.178	2.772	0.513
283.000	219.715	80.007	19.993	104.492	20.181	2.622	0.537
283.500	219.917	80.007	19.994	104.495	20.181	2.622	0.520
284.000	220.222	80.006	19.994	104.495	20.181	2.574	0.498
284.500	220.454	80.006	19.995	104.494	20.179	2.744	0.522
285.001	220.675	80.007	19.995	104.494	20.182	2.550	0.494
285.500	220.974	80.006	19.994	104.490	20.181	2.590	0.486
286.000	221.230	80.007	19.995	104.491	20.181	2.579	0.538
286.500	221.494	80.008	19.994	104.491	20.177	2.830	0.537
287.000	221.705	80.007	19.993	104.492	20.179	2.704	0.497
287.500	221.978	80.007	19.995	104.493	20.180	2.665	0.479
288.000	222.246	80.007	19.995	104.495	20.180	2.667	0.512
288.501	222.463	80.007	19.994	104.495	20.180	2.645	0.513
289.000	222.747	80.007	19.994	104.495	20.179	2.732	0.493
289.501	223.010	80.007	19.995	104.494	20.180	2.671	0.524
290.001	223.252	80.007	19.995	104.494	20.177	2.865	0.526
290.500	223.471	80.007	19.995	104.491	20.178	2.761	0.483
291.000	223.727	80.007	19.993	104.489	20.180	2.665	0.468
291.501	223.999	80.007	19.995	104.491	20.181	2.610	0.502
292.001	224.188	80.008	19.994	104.491	20.181	2.583	0.495
292.500	224.484	80.006	19.995	104.491	20.180	2.653	0.473
293.000	224.744	80.008	19.995	104.494	20.176	2.939	0.520
293.500	225.011	80.007	19.993	104.494	20.180	2.632	0.541
294.000	225.285	80.007	19.995	104.493	20.180	2.684	0.534
294.501	225.486	80.007	19.995	104.493	20.178	2.792	0.509
295.001	225.762	80.007	19.993	104.492	20.176	2.893	0.476
295.500	225.993	80.007	19.994	104.490	20.181	2.601	0.492
296.000	226.227	80.006	19.994	104.489	20.180	2.673	0.486
296.500	226.480	80.007	19.994	104.490	20.182	2.513	0.475
297.001	226.779	80.007	19.995	104.490	20.180	2.669	0.519
297.501	227.031	80.007	19.994	104.491	20.179	2.744	0.552
298.001	227.268	80.007	19.995	104.492	20.179	2.706	0.520
298.501	227.508	80.005	19.996	104.492	20.180	2.676	0.482
299.001	227.782	80.007	19.995	104.494	20.179	2.728	0.495
299.501	228.026	80.006	19.995	104.495	20.179	2.698	0.516
300.001	228.310	80.006	19.994	104.496	20.178	2.770	0.523
300.500	228.564	80.006	19.995	104.495	20.179	2.704	0.533
301.000	228.791	80.009	19.995	104.494	20.180	2.642	0.510
301.500	229.065	80.006	19.995	104.491	20.179	2.730	0.492
302.000	229.372	80.007	19.995	104.490	20.179	2.726	0.541
302.500	229.587	80.006	19.995	104.488	20.177	2.823	0.551
303.000	229.853	80.006	19.995	104.488	20.180	2.645	0.501
303.501	230.139	80.007	19.996	104.489	20.176	2.948	0.516
304.001	230.367	80.007	19.996	104.489	20.176	2.911	0.533
304.501	230.622	80.007	19.996	104.488	20.180	2.678	0.499
305.000	230.907	80.009	19.995	104.488	20.178	2.801	0.511
305.500	231.117	80.009	19.994	104.487	20.179	2.748	0.518
306.000	231.395	80.008	19.995	104.487	20.177	2.863	0.491
306.500	231.647	80.008	19.995	104.487	20.179	2.735	0.509
307.000	231.895	80.007	19.996	104.489	20.177	2.841	0.515
307.500	232.165	80.008	19.995	104.489	20.179	2.731	0.509
308.001	232.384	80.007	19.994	104.488	20.178	2.808	0.504
308.501	232.650	80.008	19.995	104.489	20.177	2.863	0.487
309.001	232.921	80.008	19.996	104.490	20.177	2.843	0.511
309.501	233.173	80.009	19.993	104.489	20.178	2.783	0.530
310.000	233.428	80.008	19.994	104.489	20.176	2.891	0.515
310.500	233.717	80.009	19.994	104.489	20.178	2.770	0.525
311.001	233.950	80.008	19.995	104.489	20.176	2.939	0.533
311.500	234.190	80.009	19.993	104.489	20.176	2.942	0.497
312.000	234.465	80.007	19.995	104.488	20.176	2.895	0.495
312.500	234.717	80.009	19.994	104.488	20.174	3.089	0.521
313.000	234.967	80.010	19.995	104.487	20.175	2.979	0.514
313.501	235.212	80.009	19.994	104.487	20.175	2.959	0.498
314.001	235.470	80.009	19.995	104.486	20.173	3.129	0.499
314.501	235.712	80.010	19.994	104.487	20.175	2.982	0.502
315.001	235.978	80.007	19.995	104.486	20.173	3.125	0.504
315.501	236.211	80.008	19.994	104.487	20.178	2.817	0.504
316.000	236.482	80.008	19.995	104.486	20.177	2.885	0.501
316.500	236.765	80.007	19.995	104.486	20.175	2.957	0.529
317.001	236.976	80.009	19.994	104.485	20.177	2.854	0.524
317.501	237.225	80.009	19.994	104.485	20.176	2.948	0.477
318.001	237.543	80.009	19.995	104.483	20.175	2.986	0.513
318.500	237.780	80.008	19.994	104.484	20.175	2.957	0.561
319.000	238.040	80.009	19.994	104.485	20.176	2.937	0.526
319.501	238.239	80.009	19.993	104.486	20.172	3.191	0.478
320.001	238.515	80.007	19.995	104.486	20.171	3.245	0.467
320.500	238.778	80.008	19.994	104.486	20.174	3.067	0.507
321.000	239.024	80.009	19.994	104.486	20.176	2.949	0.524
321.501	239.277	80.008	19.996	104.487	20.175	2.973	0.504
322.001	239.500	80.008	19.994	104.487	20.173	3.127	0.487
322.501	239.734	80.008	19.994	104.487	20.174	3.087	0.467
323.001	240.009	80.009	19.993	104.487	20.172	3.219	0.483
323.501	240.261	80.009	19.994	104.486	20.174	3.067	0.518
324.000	240.501	80.010	19.994	104.486	20.175	3.019	0.510
324.500	240.765	80.010	19.993	104.485	20.172	3.199	0.498
325.000	241.024	80.009	19.994	104.485	20.177	2.887	0.514
325.500	241.226	80.009	19.995	104.485	20.173	3.105	0.492
326.001	241.539	80.008	19.993	104.485	20.172	3.202	0.488
326.501	241.757	80.010	19.995	104.483	20.171	3.252	0.523
327.001	242.025	80.010	19.995	104.484	20.174	3.036	0.509
327.501	242.261	80.009	19.995	104.484	20.171	3.250	0.495
328.001	242.530	80.008	19.993	104.484	20.175	2.984	0.504
328.501	242.803	80.009	19.995	104.485	20.170	3.305	0.524
329.001	243.027	80.010	19.995	104.486	20.172	3.197	0.520
329.500	243.309	80.010	19.995	104.485	20.172	3.201	0.501
330.000	243.548	80.011	19.995	104.486	20.170	3.318	0.513
330.501	243.796	80.009	19.996	104.485	20.170	3.347	0.504
331.000	244.085	80.009	19.995	104.485	20.167	3.514	0.512
331.500	244.346	80.011	19.993	104.483	20.171	3.278	0.544
332.001	244.557	80.010	19.993	104.481	20.173	3.114	0.511
332.501	244.794	80.009	19.995	104.481	20.171	3.272	0.460
333.001	245.048	80.010	19.994	104.482	20.172	3.202	0.470
333.500	245.349	80.010	19.995	104.483	20.171	3.274	0.523
334.000	245.595	80.010	19.994	104.485	20.168	3.466	0.551
334.500	245.816	80.011	19.994	104.487	20.170	3.318	0.507
335.001	246.067	80.011	19.994	104.487	20.172	3.177	0.469
335.501	246.309	80.010	19.995	104.487	20.168	3.441	0.482
336.000	246.606	80.010	19.995	104.486	20.170	3.351	0.516
336.500	246.826	80.012	19.995	104.485	20.169	3.373	0.528
337.001	247.111	80.009	19.995	104.485	20.169	3.411	0.511
337.500	247.384	80.010	19.995	104.485	20.168	3.439	0.531
338.000	247.605	80.010	19.993	104.485	20.169	3.406	0.526
338.500	247.848	80.009	19.995	104.484	20.169	3.380	0.479
339.001	248.128	80.009	19.994	104.484	20.166	3.587	0.494
339.501	248.391	80.009	19.996	104.484	20.167	3.543	0.533
340.001	248.620	80.009	19.996	104.485	20.168	3.474	0.517
340.501	248.856	80.008	19.994	104.485	20.165	3.644	0.478
341.001	249.126	80.009	19.995	104.485	20.166	3.619	0.486
341.500	249.426	80.008	19.995	104.486	20.170	3.338	0.538
342.000	249.670	80.009	19.994	104.485	20.167	3.538	0.557
342.500	249.933	80.007	19.994	104.485	20.168	3.488	0.526
343.000	250.184	80.008	19.993	104.485	20.168	3.466	0.510
343.500	250.427	80.007	19.995	104.484	20.168	3.430	0.504
344.001	250.678	80.008	19.994	104.484	20.165	3.628	0.494
344.500	250.922	80.008	19.994	104.484	20.168	3.474	0.494
345.000	251.177	80.006	19.995	104.485	20.168	3.426	0.497
345.500	251.495	80.008	19.994	104.485	20.169	3.393	0.536
346.000	251.696	80.008	19.994	104.486	20.171	3.287	0.546
346.500	251.992	80.007	19.995	104.487	20.168	3.433	0.508
347.001	252.225	80.008	19.994	104.487	20.168	3.483	0.513
347.500	252.501	80.007	19.994	104.487	20.169	3.395	0.519
348.000	252.725	80.009	19.994	104.487	20.165	3.681	0.504
348.501	253.006	80.008	19.995	104.487	20.168	3.479	0.502
349.000	253.224	80.009	19.993	104.486	20.165	3.639	0.502
349.500	253.494	80.008	19.994	104.485	20.167	3.538	0.494
350.001	253.720	80.007	19.994	104.484	20.165	3.657	0.492
350.501	253.975	80.008	19.994	104.485	20.167	3.554	0.488
351.001	254.223	80.009	19.994	104.485	20.168	3.477	0.492
351.501	254.486	80.008	19.994	104.485	20.167	3.520	0.507
352.000	254.724	80.009	19.996	104.486	20.165	3.652	0.506
352.500	254.984	80.007	19.994	104.488	20.163	3.784	0.500
353.001	255.244	80.007	19.993	104.488	20.164	3.710	0.509
353.500	255.502	80.008	19.994	104.487	20.167	3.523	0.519
354.000	255.715	80.007	19.994	104.487	20.163	3.778	0.495
354.500	255.985	80.008	19.994	104.487	20.162	3.840	0.477
355.000	256.252	80.007	19.994	104.489	20.166	3.591	0.509
355.500	256.492	80.008	19.994	104.491	20.165	3.685	0.522
356.001	256.768	80.006	19.994	104.491	20.163	3.818	0.512
356.500	257.008	80.007	19.992	104.486	20.163	3.795	0.516
357.000	257.278	80.009	19.993	104.486	20.163	3.787	0.513
357.501	257.527	80.008	19.992	104.483	20.164	3.736	0.514
358.000	257.773	80.007	19.994	104.482	20.165	3.641	0.507
358.500	258.024	80.007	19.994	104.483	20.164	3.738	0.496
359.000	258.259	80.008	19.992	104.488	20.163	3.771	0.491
359.501	258.554	80.007	19.995	104.488	20.161	3.910	0.508
360.001	258.757	80.008	19.993	104.488	20.164	3.705	0.514
360.500	259.055	80.007	19.994	104.488	20.163	3.807	0.499
361.000	259.304	80.007	19.996	104.488	20.165	3.681	0.524
361.500	259.543	80.008	19.994	104.488	20.161	3.897	0.518
362.001	259.810	80.006	19.995	104.487	20.163	3.776	0.497
362.501	260.031	80.007	19.994	104.487	20.162	3.881	0.497
363.000	260.313	80.007	19.992	104.486	20.163	3.807	0.496
363.500	260.564	80.006	19.994	104.486	20.161	3.901	0.518
364.001	260.788	80.006	19.995	104.487	20.166	3.584	0.504
364.500	261.061	80.006	19.994	104.488	20.158	4.095	0.486
365.000	261.281	80.006	19.995	104.489	20.164	3.708	0.495
365.500	261.548	80.007	19.996	104.489	20.162	3.884	0.490
366.000	261.809	80.006	19.994	104.489	20.162	3.851	0.507
366.500	262.036	80.008	19.993	104.489	20.161	3.934	0.508
367.001	262.277	80.006	19.995	104.489	20.161	3.934	0.478
367.501	262.543	80.008	19.995	104.489	20.160	3.969	0.488
368.001	262.744	80.006	19.996	104.490	20.160	3.976	0.488
368.500	263.013	80.006	19.996	104.490	20.160	3.985	0.469
369.000	263.280	80.007	19.995	104.490	20.161	3.947	0.503
369.501	263.522	80.007	19.994	104.491	20.161	3.890	0.522
370.000	263.790	80.006	19.994	104.491	20.157	4.170	0.510
370.500	264.005	80.007	19.994	104.490	20.157	4.203	0.496
371.000	264.263	80.005	19.994	104.490	20.157	4.183	0.478
371.501	264.534	80.007	19.993	104.490	20.158	4.132	0.501
372.001	264.773	80.007	19.993	104.488	20.157	4.178	0.520
372.501	265.040	80.006	19.995	104.488	20.157	4.187	0.508
373.000	265.264	80.006	19.995	104.488	20.157	4.200	0.498
373.500	265.528	80.006	19.994	104.488	20.158	4.097	0.489
374.001	265.767	80.006	19.995	104.488	20.158	4.115	0.495
374.501	266.020	80.006	19.995	104.489	20.157	4.189	0.498
375.001	266.303	80.006	19.994	104.489	20.156	4.240	0.514
375.501	266.539	80.006	19.995	104.488	20.155	4.326	0.527
376.001	266.767	80.008	19.993	104.487	20.153	4.462	0.491
376.500	267.035	80.007	19.994	104.487	20.153	4.462	0.480
377.000	267.263	80.008	19.993	104.487	20.152	4.491	0.496
377.500	267.547	80.007	19.994	104.487	20.153	4.458	0.504
378.000	267.781	80.009	19.994	104.487	20.152	4.497	0.515
378.500	268.054	80.008	19.996	104.487	20.157	4.212	0.512
379.000	268.260	80.008	19.994	104.487	20.158	4.141	0.493
379.500	268.498	80.006	19.994	104.487	20.152	4.544	0.461
380.000	268.743	80.008	19.993	104.486	20.154	4.385	0.463
380.500	268.994	80.007	19.994	104.485	20.153	4.454	0.490
381.000	269.249	80.007	19.994	104.486	20.151	4.621	0.502
381.501	269.511	80.008	19.995	104.486	20.150	4.638	0.512
382.000	269.789	80.008	19.994	104.487	20.150	4.663	0.528
382.500	270.037	80.008	19.994	104.487	20.150	4.632	0.533
383.001	270.248	80.009	19.994	104.487	20.150	4.654	0.493
383.500	270.544	80.008	19.995	104.486	20.152	4.526	0.483
384.000	270.791	80.009	19.995	104.486	20.150	4.660	0.525
384.501	271.018	80.006	19.995	104.486	20.146	4.892	0.509
385.001	271.305	80.007	19.995	104.486	20.147	4.889	0.494
385.501	271.549	80.009	19.994	104.487	20.148	4.786	0.523
386.001	271.802	80.008	19.993	104.487	20.151	4.621	0.514
386.501	272.066	80.009	19.997	104.486	20.145	4.979	0.507
387.000	272.283	80.008	19.996	104.487	20.147	4.849	0.499
387.500	272.569	80.010	19.996	104.487	20.146	4.922	0.492
388.001	272.785	80.009	19.994	104.486	20.141	5.248	0.502
388.501	273.067	80.009	19.995	104.486	20.142	5.162	0.500
389.001	273.304	80.009	19.994	104.485	20.142	5.193	0.508
389.501	273.547	80.009	19.995	104.484	20.144	5.061	0.500
390.000	273.801	80.009	19.996	104.483	20.145	5.010	0.489
390.500	274.046	80.009	19.994	104.483	20.148	4.817	0.498
391.000	274.282	80.007	19.995	104.484	20.142	5.167	0.490
391.500	274.557	80.007	19.996	104.485	20.142	5.204	0.496
392.000	274.779	80.010	19.995	104.485	20.140	5.309	0.504
392.500	275.043	80.010	19.994	104.486	20.139	5.360	0.492
393.000	275.295	80.009	19.995	104.486	20.140	5.336	0.501
393.500	275.555	80.008	19.994	104.485	20.140	5.325	0.514
394.000	275.815	80.008	19.996	104.484	20.136	5.564	0.516
394.500	276.052	80.008	19.995	104.484	20.137	5.524	0.509
395.001	276.315	80.008	19.995	104.484	20.137	5.505	0.499
395.500	276.547	80.009	19.995	104.483	20.135	5.626	0.498
396.000	276.776	80.007	19.995	104.484	20.138	5.488	0.478
396.500	277.012	80.007	19.994	104.484	20.135	5.664	0.463
397.000	277.271	80.007	19.997	104.485	20.135	5.668	0.480
397.500	277.555	80.009	19.993	104.485	20.134	5.740	0.519
398.000	277.776	80.007	19.996	104.486	20.134	5.710	0.524
398.500	278.003	80.008	19.995	104.486	20.133	5.806	0.476
399.000	278.270	80.007	19.995	104.485	20.134	5.740	0.471
399.501	278.526	80.008	19.994	104.485	20.132	5.854	0.509
400.000	278.763	80.007	19.995	104.484	20.129	6.061	0.508
400.500	279.024	80.006	19.995	104.483	20.131	5.922	0.496
401.000	279.258	80.007	19.996	104.484	20.132	5.876	0.496
401.500	279.524	80.008	19.995	104.484	20.126	6.268	0.497
402.000	279.769	80.008	19.995	104.483	20.131	5.908	0.505
402.500	280.007	80.008	19.993	104.484	20.131	5.956	0.497
403.000	280.251	80.008	19.996	104.485	20.130	6.018	0.483
403.500	280.551	80.007	19.996	104.485	20.128	6.094	0.513
404.001	280.744	80.009	19.993	104.489	20.129	6.053	0.519
404.501	280.994	80.009	19.995	104.491	20.127	6.180	0.468
405.000	281.242	80.009	19.995	104.493	20.125	6.298	0.470
405.501	281.483	80.009	19.995	104.493	20.125	6.303	0.494
406.001	281.708	80.010	19.993	104.493	20.127	6.173	0.478
406.501	281.983	80.009	19.995	104.488	20.126	6.266	0.483
407.001	282.255	80.011	19.994	104.488	20.124	6.402	0.524
407.501	282.518	80.009	19.995	104.486	20.124	6.385	0.541
408.000	282.735	80.010	19.994	104.487	20.123	6.435	0.508
408.500	282.998	80.008	19.995	104.489	20.121	6.567	0.481
409.001	283.248	80.008	19.994	104.490	20.122	6.507	0.497
409.501	283.483	80.009	19.994	104.489	20.121	6.567	0.499
410.001	283.744	80.010	19.994	104.491	20.121	6.582	0.490
410.501	284.003	80.010	19.994	104.495	20.118	6.793	0.508
411.001	284.256	80.011	19.994	104.495	20.120	6.684	0.516
411.500	284.506	80.010	19.994	104.496	20.117	6.856	0.507
412.000	284.792	80.010	19.994	104.495	20.119	6.744	0.519
412.501	284.981	80.010	19.993	104.496	20.119	6.746	0.505
413.001	285.237	80.010	19.994	104.491	20.116	6.895	0.460
413.500	285.536	80.010	19.993	104.490	20.117	6.862	0.501
414.000	285.779	80.009	19.994	104.489	20.116	6.921	0.548
414.500	286.022	80.010	19.993	104.492	20.116	6.949	0.514
415.000	286.276	80.010	19.992	104.493	20.113	7.094	0.492
415.500	286.524	80.009	19.994	104.496	20.113	7.094	0.500
416.001	286.771	80.009	19.993	104.500	20.114	7.090	0.498
416.501	287.046	80.009	19.994	104.500	20.113	7.134	0.508
417.001	287.292	80.010	19.993	104.499	20.115	7.012	0.522
417.500	287.544	80.009	19.992	104.498	20.113	7.123	0.510
418.000	287.801	80.008	19.994	104.500	20.112	7.207	0.503
418.501	288.039	80.010	19.994	104.496	20.112	7.183	0.502
419.001	288.266	80.010	19.994	104.496	20.112	7.163	0.480
419.501	288.530	80.009	19.994	104.501	20.108	7.440	0.478
420.001	288.774	80.011	19.994	104.503	20.111	7.253	0.500
420.501	289.046	80.009	19.994	104.501	20.109	7.400	0.513
421.000	289.306	80.009	19.995	104.504	20.108	7.472	0.524
421.500	289.569	80.008	19.993	104.504	20.111	7.252	0.527
422.000	289.817	80.007	19.994	104.498	20.105	7.668	0.517
422.500	290.057	80.008	19.994	104.495	20.106	7.560	0.499
423.001	290.311	80.007	19.993	104.493	20.107	7.518	0.491
423.500	290.574	80.009	19.993	104.491	20.104	7.738	0.506
424.000	290.854	80.008	19.994	104.494	20.100	7.973	0.530
424.501	291.104	80.005	19.995	104.500	20.102	7.847	0.536
425.001	291.322	80.007	19.994	104.502	20.101	7.920	0.499
425.501	291.572	80.007	19.995	104.505	20.100	8.019	0.468
426.001	291.857	80.008	19.993	104.510	20.099	8.089	0.502
426.501	292.105	80.008	19.995	104.512	20.099	8.070	0.534
427.000	292.375	80.010	19.993	104.510	20.097	8.217	0.525
427.500	292.650	80.007	19.994	104.510	20.098	8.120	0.532
428.001	292.887	80.007	19.996	104.512	20.098	8.158	0.529
428.501	293.152	80.008	19.994	104.508	20.096	8.284	0.507
429.000	293.381	80.009	19.995	104.506	20.097	8.194	0.498
429.500	293.658	80.008	19.995	104.503	20.095	8.341	0.500
430.001	293.923	80.008	19.995	104.504	20.093	8.475	0.524
430.501	294.162	80.007	19.994	104.504	20.096	8.273	0.523
431.000	294.426	80.009	19.994	104.508	20.093	8.448	0.504
431.500	294.698	80.006	19.995	104.508	20.092	8.493	0.519
432.000	294.972	80.008	19.995	104.512	20.089	8.756	0.540
432.500	295.192	80.006	19.994	104.513	20.089	8.695	0.520
433.001	295.444	80.009	19.994	104.512	20.091	8.587	0.483
433.501	295.722	80.007	19.995	104.510	20.090	8.669	0.501
434.000	295.939	80.007	19.995	104.515	20.087	8.884	0.512
434.500	296.200	80.008	19.995	104.516	20.087	8.880	0.487
435.000	296.486	80.007	19.993	104.519	20.083	9.131	0.513
435.500	296.721	80.008	19.994	104.521	20.084	9.047	0.534
436.000	297.010	80.008	19.995	104.524	20.082	9.178	0.523
436.500	297.202	80.007	19.995	104.524	20.080	9.312	0.502
437.000	297.526	80.008	19.995	104.525	20.082	9.216	0.498
437.500	297.748	80.008	19.994	104.524	20.077	9.497	0.531
438.000	298.032	80.006	19.994	104.525	20.076	9.563	0.526
438.501	298.247	80.007	19.995	104.526	20.077	9.493	0.502
439.001	298.478	80.008	19.994	104.522	20.074	9.752	0.472
439.500	298.792	80.007	19.995	104.516	20.074	9.735	0.496
440.000	299.030	80.010	19.993	104.516	20.073	9.816	0.548
440.500	299.253	80.008	19.994	104.515	20.073	9.822	0.506
441.000	299.517	80.007	19.994	104.515	20.071	9.943	0.474
441.500	299.788	80.009	19.995	104.516	20.064	10.394	0.511
442.000	300.011	80.008	19.995	104.519	20.064	10.368	0.515
442.500	300.316	80.007	19.995	104.517	20.065	10.348	0.511
443.000	300.555	80.008	19.994	104.516	20.066	10.277	0.536
443.500	300.764	80.009	19.994	104.514	20.062	10.548	0.496
444.000	301.093	80.008	19.994	104.516	20.060	10.642	0.493
444.500	301.306	80.009	19.994	104.514	20.060	10.645	0.540
445.000	301.551	80.008	19.994	104.512	20.061	10.605	0.500
445.500	301.828	80.008	19.993	104.513	20.059	10.710	0.490
446.000	302.054	80.007	19.994	104.515	20.056	10.946	0.512
446.500	302.318	80.009	19.995	104.516	20.056	10.947	0.496
447.000	302.590	80.008	19.995	104.519	20.054	11.066	0.513
447.501	302.864	80.009	19.995	104.522	20.055	11.013	0.542
448.001	303.106	80.008	19.996	104.522	20.053	11.124	0.531
448.501	303.351	80.008	19.993	104.521	20.048	11.443	0.501
449.001	303.604	80.007	19.995	104.521	20.048	11.445	0.492
449.501	303.862	80.008	19.994	104.523	20.046	11.608	0.505
450.000	304.087	80.009	19.994	104.524	20.045	11.684	0.497
450.500	304.359	80.007	19.994	104.524	20.040	11.968	0.490
451.000	304.578	80.007	19.994	104.524	20.044	11.746	0.494
451.501	304.848	80.007	19.995	104.525	20.042	11.836	0.490
452.001	305.091	80.008	19.995	104.525	20.038	12.108	0.501
452.501	305.366	80.009	19.995	104.526	20.035	12.304	0.515
453.001	305.588	80.005	19.995	104.526	20.035	12.322	0.507
453.500	305.906	80.007	19.994	104.527	20.032	12.500	0.518
454.000	306.111	80.005	19.995	104.526	20.030	12.645	0.531
454.500	306.356	80.007	19.995	104.527	20.030	12.628	0.487
455.001	306.637	80.006	19.994	104.526	20.029	12.698	0.489
455.501	306.847	80.007	19.994	104.526	20.026	12.918	0.509
456.001	307.113	80.008	19.994	104.526	20.023	13.146	0.483
456.501	307.371	80.006	19.994	104.529	20.021	13.240	0.500
457.000	307.612	80.006	19.995	104.531	20.022	13.220	0.511
457.500	307.836	80.007	19.994	104.531	20.020	13.350	0.482
458.001	308.106	80.007	19.996	104.531	20.018	13.486	0.480
458.501	308.354	80.006	19.997	104.531	20.016	13.594	0.506
459.001	308.620	80.006	19.996	104.530	20.011	13.933	0.516
459.500	308.862	80.007	19.996	104.528	20.010	14.031	0.511
460.000	309.105	80.008	19.994	104.527	20.010	14.029	0.496
460.500	309.357	80.007	19.997	104.527	20.009	14.057	0.489
461.000	309.636	80.007	19.995	104.529	20.008	14.149	0.513
461.500	309.876	80.008	19.995	104.528	20.005	14.314	0.525
462.000	310.132	80.007	19.995	104.529	20.004	14.382	0.508
462.501	310.397	80.008	19.996	104.530	20.003	14.496	0.509
463.000	310.643	80.006	19.995	104.533	20.002	14.529	0.516
463.500	310.904	80.007	19.995	104.532	20.000	14.634	0.508
464.000	311.111	80.009	19.995	104.532	19.997	14.843	0.487
464.501	311.373	80.007	19.995	104.533	19.994	15.034	0.469
465.001	311.612	80.009	19.996	104.534	19.990	15.311	0.485
465.501	311.868	80.007	19.995	104.530	19.989	15.382	0.498
466.000	312.121	80.009	19.995	104.533	19.987	15.515	0.502
466.500	312.394	80.009	19.995	104.535	19.986	15.629	0.517
467.001	312.636	80.009	19.994	104.534	19.984	15.748	0.521
467.500	312.920	80.009	19.996	104.538	19.981	15.958	0.520
468.000	313.167	80.009	19.995	104.542	19.979	16.088	0.528
468.501	313.429	80.008	19.996	104.543	19.979	16.051	0.520
469.001	313.705	80.009	19.996	104.545	19.979	16.055	0.524
469.500	313.936	80.011	19.995	104.551	19.974	16.425	0.522
470.000	314.171	80.008	19.995	104.553	19.970	16.673	0.486
470.500	314.406	80.010	19.995	104.556	19.968	16.783	0.468
471.000	314.664	80.009	19.993	104.559	19.966	16.961	0.482
471.500	314.929	80.010	19.994	104.562	19.963	17.136	0.508
472.000	315.145	80.009	19.993	104.561	19.962	17.172	0.502
472.500	315.439	80.008	19.994	104.561	19.958	17.448	0.495
473.000	315.669	80.008	19.995	104.561	19.958	17.452	0.517
473.500	315.898	80.007	19.995	104.563	19.952	17.899	0.491
474.000	316.205	80.009	19.994	104.564	19.952	17.844	0.497
474.500	316.407	80.009	19.994	104.565	19.953	17.805	0.523
475.000	316.669	80.009	19.993	104.566	19.946	18.299	0.487
475.500	316.907	80.009	19.994	104.566	19.944	18.389	0.482
476.000	317.190	80.009	19.994	104.565	19.939	18.742	0.510
476.500	317.446	80.009	19.994	104.565	19.940	18.659	0.530
477.000	317.702	80.008	19.995	104.568	19.935	19.038	0.525
477.501	317.992	80.008	19.993	104.572	19.933	19.113	0.529
478.000	318.208	80.006	19.995	104.572	19.928	19.484	0.526
478.500	318.483	80.008	19.994	104.574	19.925	19.701	0.498
479.000	318.721	80.007	19.996	104.575	19.924	19.725	0.502
479.500	318.968	80.007	19.994	104.575	19.921	19.914	0.499
480.000	319.222	80.006	19.995	104.572	19.917	20.238	0.493
480.500	319.493	80.008	19.994	104.573	19.913	20.469	0.513
481.000	319.734	80.008	19.994	104.574	19.909	20.730	0.519
481.501	319.981	80.008	19.994	104.575	19.907	20.877	0.500
482.001	320.230	80.008	19.995	104.575	19.906	20.941	0.492
482.501	320.503	80.006	19.994	104.579	19.904	21.051	0.509
483.000	320.733	80.009	19.995	104.584	19.900	21.316	0.512
483.500	321.023	80.008	19.994	104.587	19.900	21.362	0.511
484.000	321.228	80.007	19.996	104.592	19.896	21.636	0.508
484.500	321.514	80.006	19.994	104.596	19.892	21.863	0.493
485.000	321.770	80.008	19.996	104.599	19.890	21.996	0.517
485.500	322.026	80.007	19.996	104.596	19.885	22.362	0.527
486.001	322.288	80.007	19.994	104.597	19.881	22.591	0.515
486.501	322.514	80.008	19.995	104.599	19.879	22.766	0.503
487.001	322.768	80.009	19.994	104.599	19.876	22.963	0.484
487.500	323.040	80.008	19.994	104.599	19.872	23.249	0.503
488.000	323.267	80.007	19.996	104.602	19.871	23.262	0.512
488.500	323.550	80.010	19.994	104.604	19.866	23.618	0.505
489.000	323.790	80.008	19.996	104.604	19.861	23.972	0.517
489.500	324.038	80.008	19.996	104.606	19.858	24.149	0.505
490.000	324.315	80.007	19.995	104.607	19.854	24.406	0.506
490.500	324.549	80.009	19.995	104.608	19.851	24.608	0.518
491.001	324.790	80.009	19.996	104.611	19.847	24.878	0.493
491.501	325.023	80.009	19.994	104.612	19.842	25.229	0.474
492.000	325.268	80.009	19.995	104.610	19.840	25.382	0.476
492.500	325.521	80.009	19.995	104.612	19.834	25.729	0.488
493.000	325.799	80.009	19.993	104.613	19.829	26.084	0.515
493.501	326.061	80.008	19.995	104.613	19.827	26.231	0.536
494.000	326.332	80.010	19.994	104.614	19.820	26.723	0.536
494.500	326.552	80.009	19.994	104.618	19.818	26.847	0.511
495.000	326.835	80.010	19.994	104.618	19.813	27.166	0.497
495.500	327.066	80.008	19.995	104.623	19.808	27.478	0.509
496.000	327.327	80.009	19.995	104.628	19.805	27.712	0.503
496.500	327.584	80.009	19.995	104.633	19.801	27.984	0.505
497.001	327.862	80.009	19.993	104.637	19.796	28.324	0.526
497.500	328.124	80.009	19.993	104.641	19.791	28.609	0.537
498.000	328.331	80.009	19.993	104.643	19.786	28.989	0.505
498.500	328.605	80.010	19.995	104.643	19.783	29.197	0.475
499.000	328.860	80.010	19.994	104.643	19.776	29.617	0.505
499.500	329.098	80.010	19.993	104.642	19.774	29.781	0.511
500.000	329.415	80.008	19.993	104.642	19.765	30.353	0.524
500.500	329.607	80.010	19.992	104.642	19.760	30.690	0.532
501.000	329.872	80.009	19.993	104.643	19.760	30.696	0.483
501.500	330.146	80.008	19.993	104.644	19.755	31.038	0.498
502.000	330.371	80.009	19.994	104.645	19.752	31.245	0.519
502.500	330.589	80.009	19.993	104.646	19.744	31.784	0.471
503.000	330.851	80.008	19.993	104.647	19.738	32.204	0.462
503.500	331.109	80.008	19.994	104.649	19.734	32.443	0.500
504.000	331.333	80.007	19.994	104.650	19.728	32.851	0.501
504.500	331.628	80.006	19.993	104.653	19.725	33.093	0.501
505.000	331.857	80.008	19.994	104.657	19.716	33.667	0.522
505.501	332.108	80.009	19.994	104.663	19.714	33.822	0.502
506.001	332.353	80.007	19.993	104.667	19.704	34.446	0.488
506.500	332.605	80.008	19.995	104.673	19.700	34.738	0.497
507.000	332.882	80.006	19.995	104.678	19.699	34.813	0.513
507.501	333.126	80.006	19.995	104.679	19.689	35.468	0.524
508.000	333.366	80.006	19.995	104.680	19.686	35.676	0.503
508.500	333.653	80.006	19.994	104.680	19.676	36.377	0.506
509.001	333.883	80.007	19.996	104.680	19.671	36.707	0.522
509.500	334.132	80.007	19.996	104.680	19.665	37.091	0.498
510.000	334.408	80.008	19.994	104.680	19.660	37.424	0.501
510.500	334.640	80.007	19.994	104.680	19.651	38.023	0.516
511.000	334.899	80.008	19.993	104.682	19.645	38.449	0.500
511.500	335.163	80.007	19.994	104.682	19.638	38.881	0.508
512.000	335.399	80.008	19.994	104.682	19.631	39.341	0.512
512.500	335.658	80.006	19.996	104.682	19.627	39.638	0.497
513.000	335.918	80.008	19.994	104.683	19.620	40.120	0.507
513.500	336.144	80.008	19.994	104.686	19.613	40.558	0.503
514.000	336.393	80.008	19.994	104.690	19.604	41.140	0.481
514.500	336.654	80.007	19.995	104.697	19.597	41.616	0.492
515.000	336.883	80.008	19.994	104.704	19.592	41.979	0.500
515.500	337.175	80.008	19.994	104.711	19.586	42.372	0.505
516.000	337.427	80.008	19.995	104.714	19.577	42.959	0.532
516.500	337.639	80.009	19.994	104.718	19.572	43.324	0.504
517.000	337.924	80.006	19.994	104.719	19.565	43.789	0.481
517.501	338.200	80.008	19.996	104.720	19.560	44.094	0.530
518.000	338.418	80.008	19.994	104.720	19.550	44.774	0.528
518.500	338.640	80.007	19.995	104.727	19.546	45.076	0.467
519.000	338.928	80.009	19.995	104.735	19.536	45.736	0.475
519.500	339.165	80.007	19.994	104.741	19.530	46.158	0.518
520.000	339.414	80.009	19.994	104.745	19.524	46.567	0.505
520.500	339.681	80.008	19.995	104.749	19.513	47.244	0.501
521.000	339.931	80.008	19.994	104.751	19.507	47.698	0.517
521.500	340.183	80.008	19.995	104.750	19.498	48.263	0.510
522.000	340.446	80.010	19.994	104.751	19.487	49.008	0.508
522.500	340.688	80.008	19.995	104.755	19.484	49.234	0.510
523.000	340.954	80.009	19.994	104.757	19.475	49.813	0.506
523.500	341.174	80.008	19.993	104.761	19.466	50.427	0.497
524.000	341.414	80.008	19.994	104.765	19.457	51.064	0.474
524.500	341.673	80.008	19.994	104.771	19.446	51.755	0.480
525.000	341.935	80.008	19.995	104.774	19.437	52.378	0.510
525.500	342.150	80.008	19.994	104.778	19.430	52.853	0.499
526.000	342.422	80.007	19.995	104.781	19.420	53.539	0.482
526.500	342.662	80.007	19.994	104.784	19.411	54.149	0.500
527.000	342.930	80.008	19.994	104.786	19.400	54.872	0.510
527.500	343.172	80.007	19.994	104.793	19.392	55.401	0.509
528.000	343.400	80.008	19.995	104.798	19.382	56.107	0.490
528.500	343.664	80.007	19.994	104.801	19.374	56.620	0.480
529.000	343.924	80.007	19.994	104.804	19.364	57.313	0.508
529.500	344.173	80.008	19.994	104.806	19.352	58.095	0.516
530.000	344.413	80.007	19.994	104.811	19.341	58.848	0.499
530.500	344.652	80.008	19.995	104.816	19.332	59.421	0.484
531.000	344.901	80.007	19.994	104.821	19.323	60.001	0.483
531.500	345.178	80.008	19.994	104.826	19.313	60.676	0.507
532.000	345.457	80.008	19.993	104.833	19.304	61.300	0.541
532.500	345.709	80.007	19.996	104.836	19.289	62.348	0.544
533.000	345.952	80.007	19.994	104.839	19.280	62.946	0.513
533.500	346.208	80.008	19.994	104.843	19.268	63.740	0.497
534.000	346.462	80.009	19.995	104.850	19.256	64.540	0.504
534.500	346.710	80.009	19.994	104.856	19.248	65.057	0.506
535.000	346.970	80.006	19.994	104.865	19.237	65.805	0.505
535.500	347.212	80.007	19.992	104.871	19.225	66.596	0.505
536.000	347.459	80.007	19.994	104.876	19.215	67.284	0.496
536.500	347.742	80.007	19.994	104.877	19.202	68.164	0.510
537.000	347.989	80.007	19.994	104.880	19.188	69.087	0.530
537.500	348.232	80.009	19.994	104.885	19.181	69.597	0.510
538.000	348.471	80.006	19.995	104.886	19.168	70.473	0.486
538.500	348.703	80.007	19.995	104.890	19.156	71.266	0.476
539.000	349.007	80.006	19.994	104.897	19.144	72.078	0.504
539.500	349.248	80.007	19.995	104.903	19.135	72.693	0.541
540.000	349.509	80.008	19.995	104.901	19.121	73.615	0.524
540.500	349.772	80.006	19.993	104.908	19.108	74.523	0.513
541.000	350.000	80.006	19.993	104.911	19.096	75.328	0.508
541.500	350.283	80.008	19.995	104.912	19.086	75.966	0.501
542.000	350.542	80.008	19.994	104.915	19.073	76.848	0.526
542.500	350.770	80.009	19.993	104.921	19.060	77.742	0.514
543.000	351.030	80.008	19.994	104.927	19.044	78.816	0.488
543.500	351.281	80.008	19.995	104.935	19.034	79.479	0.500
544.000	351.531	80.008	19.994	104.939	19.021	80.357	0.506
544.500	351.777	80.008	19.994	104.944	19.008	81.214	0.498
545.000	352.040	80.009	19.993	104.951	18.994	82.156	0.503
545.500	352.281	80.009	19.995	104.954	18.981	83.023	0.506
546.000	352.540	80.006	19.995	104.957	18.970	83.758	0.502
546.500	352.802	80.009	19.994	104.962	18.958	84.618	0.511
547.000	353.048	80.008	19.994	104.966	18.942	85.651	0.515
547.500	353.281	80.009	19.995	104.969	18.930	86.470	0.493
548.000	353.552	80.009	19.994	104.975	18.917	87.325	0.491
548.500	353.797	80.009	19.995	104.980	18.905	88.131	0.510
549.000	354.097	80.008	19.995	104.985	18.890	89.127	0.531
549.500	354.319	80.009	19.993	104.992	18.878	89.951	0.534
550.000	354.608	80.008	19.994	104.997	18.864	90.926	0.517
550.500	354.802	80.009	19.995	105.001	18.848	92.002	0.497
551.000	355.060	80.010	19.995	105.008	18.835	92.889	0.467
551.500	355.341	80.009	19.994	105.015	18.822	93.767	0.495
552.000	355.581	80.010	19.994	105.020	18.804	94.949	0.530
552.500	355.824	80.009	19.995	105.027	18.793	95.720	0.502
553.000	356.057	80.008	19.994	105.031	18.777	96.793	0.479
553.500	356.370	80.008	19.995	105.031	18.763	97.693	0.511
554.000	356.592	80.008	19.994	105.033	18.750	98.590	0.541
554.500	356.833	80.008	19.996	105.033	18.734	99.643	0.499
555.000	357.086	80.007	19.995	105.038	18.723	100.435	0.478
555.500	357.337	80.007	19.994	105.044	18.703	101.741	0.499
556.000	357.630	80.007	19.994	105.049	18.691	102.568	0.524
556.500	357.828	80.009	19.993	105.056	18.676	103.569	0.518
557.000	358.093	80.007	19.995	105.063	18.666	104.247	0.477
557.500	358.373	80.010	19.994	105.066	18.646	105.568	0.504
558.000	358.631	80.007	19.994	105.069	18.634	106.428	0.542
558.500	358.839	80.007	19.995	105.072	18.619	107.400	0.502
559.000	359.082	80.008	19.995	105.073	18.602	108.535	0.459
559.500	359.337	80.008	19.995	105.077	18.592	109.245	0.474
560.000	359.593	80.008	19.994	105.080	18.578	110.166	0.504
560.500	359.866	80.007	19.994	105.084	18.562	111.230	0.520
561.001	360.079	80.008	19.994	105.093	18.552	111.927	0.508
561.500	360.326	80.007	19.994	105.100	18.536	112.999	0.473
562.000	360.604	80.008	19.994	105.104	18.523	113.890	0.493
562.501	360.843	80.009	19.995	105.109	18.508	114.840	0.521
563.000	361.109	80.008	19.993	105.113	18.497	115.632	0.511
563.500	361.350	80.007	19.994	105.113	18.482	116.633	0.506
564.000	361.615	80.008	19.994	105.115	18.471	117.350	0.507
564.500	361.861	80.008	19.995	105.117	18.457	118.271	0.508
565.000	362.065	80.007	19.994	105.122	18.443	119.220	0.481
565.500	362.370	80.008	19.994	105.129	18.431	120.036	0.480
566.000	362.567	80.008	19.994	105.136	18.418	120.907	0.505
566.500	362.808	80.008	19.995	105.139	18.406	121.756	0.470
567.000	363.075	80.008	19.993	105.146	18.391	122.709	0.473
567.500	363.327	80.009	19.993	105.149	18.378	123.591	0.513
568.000	363.553	80.008	19.994	105.150	18.365	124.502	0.498
568.500	363.824	80.009	19.995	105.150	18.355	125.140	0.488
569.000	364.054	80.008	19.994	105.153	18.339	126.240	0.499
569.500	364.306	80.008	19.996	105.152	18.330	126.834	0.491
570.000	364.552	80.008	19.993	105.153	18.320	127.508	0.490
570.500	364.841	80.009	19.994	105.154	18.306	128.414	0.517
571.000	365.061	80.009	19.993	105.156	18.297	129.052	0.522
571.500	365.305	80.009	19.995	105.161	18.283	129.975	0.487
572.000	365.539	80.009	19.995	105.162	18.275	130.522	0.471
572.500	365.812	80.010	19.995	105.162	18.266	131.123	0.492
573.000	366.049	80.009	19.995	105.166	18.255	131.853	0.508
573.500	366.301	80.009	19.994	105.169	18.247	132.400	0.500
574.000	366.529	80.009	19.995	105.170	18.234	133.250	0.485
574.500	366.835	80.010	19.994	105.175	18.224	133.945	0.507
575.000	367.051	80.010	19.994	105.181	18.214	134.575	0.528
575.500	367.299	80.010	19.995	105.182	18.207	135.078	0.493
576.000	367.604	80.010	19.995	105.183	18.195	135.852	0.508
576.500	367.795	80.009	19.994	105.185	18.191	136.149	0.524
577.000	368.064	80.009	19.994	105.186	18.180	136.871	0.478
577.500	368.307	80.008	19.993	105.186	18.173	137.343	0.486
578.000	368.561	80.009	19.995	105.187	18.167	137.706	0.504
578.500	368.806	80.009	19.994	105.186	18.161	138.167	0.498
579.000	369.089	80.009	19.995	105.187	18.157	138.428	0.514
579.500	369.327	80.010	19.995	105.187	18.149	138.926	0.524
580.000	369.576	80.009	19.994	105.187	18.142	139.400	0.504
580.500	369.818	80.009	19.995	105.187	18.137	139.756	0.489
581.000	370.058	80.009	19.996	105.187	18.133	139.986	0.486
581.500	370.343	80.008	19.995	105.185	18.129	140.219	0.503
582.000	370.547	80.009	19.995	105.183	18.127	140.363	0.507
582.500	370.852	80.008	19.996	105.182	18.123	140.615	0.498
583.000	371.056	80.006	19.994	105.180	18.120	140.832	0.509
583.500	371.343	80.006	19.995	105.179	18.119	140.894	0.500
584.000	371.579	80.007	19.996	105.179	18.117	141.017	0.507
584.500	371.825	80.007	19.995	105.179	18.118	140.929	0.502
585.000	372.091	80.008	19.995	105.180	18.117	141.005	0.497
585.500	372.354	80.007	19.995	105.180	18.117	140.975	0.521
586.000	372.582	80.007	19.994	105.178	18.117	140.956	0.511
586.500	372.867	80.006	19.995	105.177	18.119	140.831	0.502
587.000	373.141	80.007	19.994	105.172	18.121	140.720	0.536
587.500	373.356	80.007	19.994	105.169	18.122	140.623	0.524
588.000	373.657	80.007	19.995	105.168	18.126	140.340	0.502
588.500	373.908	80.007	19.995	105.165	18.131	140.022	0.534
589.000	374.154	80.008	19.994	105.160	18.132	139.931	0.525
589.500	374.402	80.008	19.995	105.160	18.138	139.514	0.495
590.000	374.663	80.007	19.994	105.155	18.143	139.150	0.501
590.500	374.906	80.007	19.994	105.149	18.151	138.610	0.506
591.000	375.168	80.008	19.994	105.147	18.158	138.143	0.505
591.500	375.432	80.008	19.994	105.144	18.167	137.549	0.515
592.000	375.659	80.008	19.995	105.138	18.174	137.057	0.509
592.500	375.940	80.009	19.994	105.132	18.180	136.635	0.500
593.000	376.203	80.008	19.994	105.126	18.191	135.893	0.526
593.500	376.454	80.008	19.993	105.119	18.201	135.218	0.529
594.000	376.684	80.008	19.994	105.114	18.211	134.544	0.498
594.501	376.925	80.008	19.995	105.108	18.223	133.756	0.476
595.000	377.212	80.007	19.995	105.101	18.235	132.893	0.499
595.500	377.471	80.009	19.994	105.095	18.246	132.172	0.537
596.000	377.745	80.008	19.995	105.087	18.261	131.137	0.539
596.500	377.989	80.009	19.994	105.080	18.273	130.335	0.525
597.000	378.255	80.008	19.994	105.077	18.291	129.146	0.514
597.500	378.487	80.008	19.993	105.075	18.305	128.180	0.504
598.000	378.757	80.008	19.994	105.074	18.320	127.153	0.500
598.500	379.027	80.006	19.994	105.074	18.343	125.605	0.522
599.000	379.304	80.008	19.994	105.072	18.356	124.700	0.544
599.500	379.537	80.008	19.993	105.063	18.375	123.461	0.528
600.000	379.794	80.008	19.993	105.055	18.392	122.271	0.500
600.500	380.043	80.009	19.993	105.047	18.413	120.863	0.498
601.000	380.295	80.008	19.994	105.035	18.434	119.473	0.503
601.500	380.610	80.008	19.994	105.025	18.455	118.077	0.534
602.000	380.820	80.007	19.993	105.019	18.472	116.868	0.546
602.500	381.070	80.008	19.993	105.011	18.496	115.317	0.493
603.000	381.343	80.008	19.994	105.004	18.517	113.877	0.491
603.500	381.587	80.009	19.994	105.000	18.541	112.282	0.520
604.000	381.873	80.007	19.994	104.991	18.565	110.606	0.524
604.500	382.106	80.007	19.993	104.982	18.586	109.237	0.525
605.000	382.377	80.008	19.994	104.975	18.614	107.340	0.511
605.500	382.635	80.008	19.993	104.968	18.638	105.758	0.516
606.000	382.929	80.008	19.994	104.958	18.666	103.876	0.540
606.500	383.187	80.007	19.995	104.949	18.692	102.110	0.552
607.000	383.414	80.008	19.993	104.943	18.720	100.224	0.519
607.500	383.664	80.007	19.994	104.934	18.748	98.407	0.481
608.000	383.908	80.006	19.995	104.926	18.776	96.530	0.485
608.500	384.194	80.007	19.994	104.914	18.802	94.729	0.512
609.000	384.443	80.007	19.995	104.903	18.830	92.904	0.533
609.500	384.709	80.007	19.993	104.893	18.860	90.894	0.525
610.000	384.960	80.006	19.995	104.884	18.888	88.975	0.516
610.500	385.234	80.007	19.993	104.870	18.916	87.135	0.521
611.000	385.481	80.008	19.995	104.861	18.944	85.264	0.523
611.500	385.729	80.008	19.995	104.855	18.974	83.250	0.508
612.000	385.983	80.007	19.994	104.846	19.004	81.229	0.499
612.500	386.266	80.007	19.993	104.834	19.031	79.448	0.520
613.000	386.520	80.007	19.993	104.827	19.060	77.483	0.537
613.500	386.805	80.007	19.993	104.819	19.089	75.518	0.537
614.000	387.018	80.006	19.994	104.808	19.120	73.458	0.518
614.500	387.329	80.006	19.994	104.796	19.148	71.590	0.511
615.000	387.565	80.007	19.994	104.786	19.175	69.794	0.535
615.500	387.822	80.006	19.993	104.777	19.206	67.745	0.520
616.000	388.068	80.007	19.994	104.769	19.237	65.650	0.498
616.500	388.317	80.006	19.994	104.765	19.266	63.702	0.499
617.000	388.556	80.005	19.994	104.763	19.295	61.782	0.491
617.500	388.819	80.007	19.995	104.762	19.322	60.005	0.495
618.000	389.087	80.006	19.995	104.761	19.351	58.048	0.516
618.500	389.343	80.007	19.995	104.758	19.376	56.366	0.528
619.000	389.578	80.007	19.994	104.751	19.402	54.600	0.508
619.500	389.859	80.006	19.994	104.745	19.433	52.590	0.503
620.000	390.110	80.007	19.993	104.739	19.460	50.753	0.524
620.500	390.374	80.005	19.994	104.732	19.487	48.927	0.523
621.000	390.604	80.006	19.994	104.728	19.512	47.301	0.504
621.500	390.902	80.006	19.994	104.724	19.537	45.596	0.511
622.000	391.114	80.008	19.994	104.720	19.560	44.061	0.520
622.500	391.420	80.007	19.994	104.714	19.588	42.182	0.514
623.000	391.714	80.008	19.993	104.711	19.611	40.633	0.559
623.500	391.937	80.007	19.994	104.710	19.633	39.209	0.559
624.000	392.192	80.006	19.994	104.709	19.659	37.477	0.498
624.500	392.466	80.007	19.994	104.709	19.678	36.196	0.504
625.000	392.718	80.007	19.994	104.708	19.701	34.629	0.528
625.500	392.994	80.008	19.994	104.705	19.721	33.305	0.527
626.000	393.262	80.006	19.993	104.704	19.744	31.797	0.536
626.500	393.511	80.008	19.996	104.703	19.763	30.525	0.531
627.000	393.763	80.010	19.996	104.702	19.780	29.359	0.509
627.500	394.073	80.008	19.995	104.703	19.801	27.948	0.531
628.000	394.308	80.009	19.995	104.702	19.821	26.648	0.553
628.500	394.568	80.009	19.996	104.700	19.842	25.254	0.521
629.000	394.836	80.009	19.993	104.702	19.858	24.184	0.512
629.500	395.119	80.009	19.994	104.701	19.870	23.394	0.540
630.000	395.367	80.009	19.994	104.700	19.888	22.177	0.541
630.500	395.653	80.008	19.993	104.697	19.904	21.099	0.532
631.000	395.913	80.009	19.994	104.694	19.916	20.260	0.540
631.500	396.192	80.009	19.993	104.689	19.930	19.386	0.543
632.000	396.394	80.010	19.994	104.689	19.944	18.444	0.510
632.500	396.685	80.009	19.994	104.687	19.957	17.568	0.487
633.000	396.937	80.009	19.993	104.687	19.971	16.587	0.518
633.501	397.188	80.009	19.994	104.686	19.984	15.768	0.523
634.000	397.422	80.009	19.994	104.686	19.992	15.250	0.494
634.500	397.691	80.009	19.995	104.684	20.005	14.365	0.495
635.000	397.957	80.009	19.993	104.683	20.015	13.662	0.519
635.501	398.239	80.009	19.995	104.682	20.026	12.926	0.541
636.000	398.444	80.008	19.993	104.681	20.035	12.376	0.518
636.500	398.739	80.007	19.994	104.681	20.041	11.936	0.493
637.000	399.014	80.008	19.994	104.680	20.051	11.265	0.535
637.500	399.266	80.009	19.993	104.681	20.063	10.492	0.549
638.000	399.563	80.008	19.994	104.681	20.067	10.216	0.538
638.500	399.795	80.008	19.994	104.681	20.073	9.840	0.539
639.000	400.072	80.007	19.992	104.679	20.079	9.408	0.519
639.500	400.332	80.007	19.995	104.679	20.087	8.892	0.523
640.000	400.595	80.008	19.995	104.678	20.092	8.516	0.530
640.500	400.828	80.008	19.994	104.676	20.097	8.231	0.509
641.000	401.073	80.007	19.994	104.677	20.102	7.899	0.487
641.500	401.301	80.007	19.994	104.677	20.110	7.328	0.476
642.000	401.581	80.006	19.994	104.676	20.109	7.414	0.491
642.500	401.844	80.007	19.995	104.678	20.116	6.916	0.526
643.000	402.100	80.008	19.995	104.678	20.123	6.438	0.531
643.500	402.344	80.008	19.995	104.679	20.124	6.420	0.510
644.001	402.638	80.008	19.994	104.680	20.129	6.097	0.519
644.500	402.854	80.008	19.995	104.680	20.130	6.022	0.524
645.000	403.095	80.007	19.995	104.680	20.134	5.730	0.483
645.500	403.351	80.007	19.994	104.681	20.139	5.403	0.476
646.000	403.625	80.006	19.995	104.682	20.140	5.337	0.513
646.500	403.858	80.008	19.996	104.681	20.143	5.159	0.518
647.000	404.137	80.008	19.995	104.682	20.145	5.025	0.510
647.500	404.373	80.008	19.994	104.681	20.148	4.784	0.514
648.000	404.636	80.010	19.996	104.681	20.150	4.670	0.507
648.500	404.896	80.008	19.996	104.680	20.150	4.694	0.511
649.000	405.137	80.008	19.995	104.680	20.152	4.521	0.512
649.500	405.409	80.008	19.995	104.680	20.154	4.428	0.507
650.000	405.676	80.010	19.995	104.680	20.155	4.351	0.526
650.500	405.877	80.008	19.995	104.680	20.158	4.125	0.503
651.000	406.179	80.010	19.995	104.681	20.156	4.239	0.486
651.501	406.421	80.009	19.995	104.681	20.161	3.903	0.523
652.000	406.694	80.010	19.993	104.680	20.159	4.086	0.529
652.500	406.926	80.011	19.995	104.678	20.163	3.770	0.510
653.000	407.157	80.010	19.994	104.678	20.164	3.735	0.484
653.500	407.416	80.010	19.994	104.676	20.162	3.893	0.476
654.000	407.676	80.010	19.994	104.675	20.164	3.754	0.505
654.500	407.912	80.010	19.994	104.676	20.163	3.781	0.508
655.000	408.202	80.010	19.994	104.677	20.165	3.660	0.511
655.500	408.398	80.008	19.994	104.677	20.166	3.576	0.506
656.000	408.723	80.009	19.994	104.679	20.164	3.710	0.503
656.500	408.975	80.008	19.995	104.679	20.166	3.599	0.549
657.000	409.209	80.010	19.994	104.679	20.166	3.588	0.532
657.500	409.473	80.009	19.994	104.679	20.168	3.482	0.492
658.000	409.715	80.009	19.995	104.679	20.168	3.467	0.502
658.500	409.988	80.010	19.995	104.678	20.167	3.521	0.511
659.000	410.227	80.009	19.994	104.677	20.171	3.280	0.514
659.500	410.463	80.008	19.994	104.676	20.169	3.392	0.493
660.000	410.737	80.009	19.995	104.676	20.173	3.137	0.492
660.500	410.985	80.008	19.994	104.677	20.172	3.175	0.516
661.000	411.257	80.010	19.994	104.679	20.169	3.372	0.521
661.500	411.514	80.010	19.993	104.680	20.171	3.273	0.524
662.000	411.749	80.009	19.993	104.679	20.170	3.355	0.511
662.500	412.028	80.009	19.994	104.679	20.172	3.219	0.503
663.000	412.241	80.008	19.995	104.679	20.173	3.157	0.503
663.500	412.523	80.007	19.994	104.678	20.172	3.212	0.494
664.000	412.774	80.006	19.995	104.678	20.172	3.223	0.514
664.500	412.980	80.007	19.994	104.680	20.173	3.115	0.495
665.000	413.282	80.007	19.994	104.680	20.170	3.304	0.482
665.500	413.532	80.007	19.994	104.681	20.173	3.159	0.530
666.000	413.766	80.006	19.995	104.681	20.175	3.023	0.518
666.500	413.997	80.007	19.994	104.679	20.172	3.207	0.475
667.000	414.249	80.007	19.994	104.678	20.173	3.135	0.474
667.500	414.483	80.008	19.995	104.678	20.172	3.166	0.484
668.000	414.757	80.007	19.995	104.677	20.173	3.137	0.497
668.500	414.983	80.007	19.994	104.678	20.173	3.130	0.504
669.000	415.235	80.007	19.994	104.679	20.173	3.119	0.489
669.500	415.505	80.006	19.995	104.681	20.178	2.804	0.501
670.001	415.746	80.006	19.994	104.682	20.172	3.170	0.517
670.500	415.992	80.006	19.995	104.682	20.172	3.205	0.499
671.000	416.242	80.005	19.994	104.683	20.173	3.124	0.491
671.501	416.491	80.006	19.994	104.683	20.172	3.172	0.498
672.000	416.721	80.007	19.996	104.683	20.174	3.045	0.489
672.500	417.001	80.007	19.995	104.682	20.173	3.133	0.494
673.000	417.250	80.006	19.996	104.683	20.176	2.907	0.519
673.500	417.477	80.007	19.996	104.683	20.173	3.115	0.503
674.000	417.725	80.006	19.995	104.683	20.177	2.885	0.475
674.500	418.036	80.007	19.994	104.683	20.176	2.939	0.516
675.000	418.271	80.006	19.996	104.683	20.177	2.871	0.553
675.500	418.522	80.005	19.994	104.683	20.174	3.045	0.517
676.000	418.786	80.006	19.996	104.683	20.173	3.098	0.501
676.500	418.990	80.006	19.995	104.683	20.175	3.023	0.491
677.000	419.260	80.007	19.995	104.684	20.175	3.016	0.471
677.500	419.520	80.007	19.996	104.684	20.173	3.131	0.502
678.000	419.761	80.007	19.996	104.686	20.173	3.126	0.516
678.500	420.038	80.007	19.996	104.686	20.177	2.874	0.510
679.000	420.281	80.007	19.996	104.686	20.175	3.019	0.519
679.500	420.512	80.007	19.994	104.685	20.174	3.095	0.497
680.000	420.775	80.007	19.993	104.684	20.177	2.887	0.484
680.500	421.022	80.006	19.995	104.682	20.174	3.029	0.502
681.000	421.251	80.006	19.993	104.681	20.173	3.128	0.493
681.500	421.506	80.008	19.994	104.681	20.174	3.078	0.480
682.001	421.765	80.007	19.994	104.685	20.175	3.001	0.499
682.501	422.024	80.007	19.994	104.686	20.174	3.053	0.516
683.000	422.251	80.007	19.994	104.686	20.174	3.065	0.502
683.500	422.516	80.007	19.994	104.687	20.175	2.975	0.489
684.000	422.743	80.008	19.994	104.687	20.175	3.021	0.492
684.500	423.003	80.009	19.993	104.686	20.177	2.854	0.490
685.000	423.268	80.006	19.994	104.684	20.177	2.895	0.506
685.500	423.493	80.006	19.993	104.684	20.175	2.986	0.507
686.000	423.750	80.006	19.993	104.684	20.178	2.805	0.486
686.500	423.999	80.007	19.996	104.683	20.177	2.845	0.494
687.000	424.265	80.007	19.995	104.682	20.173	3.135	0.511
687.500	424.521	80.006	19.994	104.682	20.180	2.635	0.518
688.000	424.754	80.007	19.995	104.682	20.180	2.680	0.505
688.500	425.033	80.007	19.994	104.683	20.180	2.678	0.501
689.000	425.218	80.007	19.995	104.682	20.179	2.726	0.488
689.500	425.512	80.007	19.994	104.682	20.177	2.867	0.471
690.000	425.763	80.008	19.993	104.684	20.178	2.808	0.512
690.500	426.017	80.007	19.994	104.685	20.177	2.856	0.525
691.000	426.275	80.007	19.994	104.684	20.177	2.834	0.509
691.500	426.525	80.007	19.994	104.686	20.178	2.782	0.510
692.000	426.779	80.007	19.994	104.688	20.177	2.836	0.506
692.500	427.027	80.008	19.993	104.686	20.178	2.794	0.503
693.000	427.283	80.006	19.993	104.685	20.180	2.654	0.503
693.500	427.543	80.007	19.995	104.689	20.180	2.651	0.510
694.000	427.782	80.006	19.993	104.688	20.177	2.884	0.507
694.500	428.061	80.007	19.993	104.687	20.180	2.658	0.509
695.000	428.299	80.007	19.994	104.687	20.178	2.795	0.518
695.500	428.544	80.006	19.994	104.690	20.179	2.758	0.500
696.000	428.771	80.007	19.993	104.689	20.177	2.865	0.478
696.500	429.046	80.007	19.994	104.690	20.177	2.848	0.487
697.000	429.290	80.006	19.994	104.690	20.179	2.696	0.511
697.500	429.562	80.008	19.993	104.689	20.178	2.771	0.518
698.000	429.798	80.006	19.995	104.687	20.178	2.810	0.512
698.500	430.063	80.008	19.994	104.685	20.179	2.716	0.504
699.000	430.337	80.006	19.994	104.684	20.178	2.813	0.520
699.500	430.588	80.007	19.995	104.685	20.178	2.797	0.532
700.000	430.836	80.007	19.995	104.686	20.178	2.771	0.511
700.500	431.082	80.007	19.995	104.686	20.177	2.850	0.497
701.000	431.369	80.006	19.995	104.686	20.178	2.771	0.514
701.501	431.611	80.008	19.994	104.685	20.178	2.806	0.531
702.001	431.865	80.007	19.994	104.683	20.178	2.790	0.512
702.500	432.092	80.008	19.994	104.682	20.179	2.749	0.488
703.000	432.381	80.008	19.994	104.685	20.178	2.823	0.498
703.500	432.628	80.008	19.995	104.691	20.179	2.742	0.526
704.000	432.856	80.008	19.994	104.696	20.180	2.646	0.506
704.500	433.126	80.006	19.995	104.697	20.181	2.617	0.487
705.000	433.388	80.008	19.994	104.697	20.181	2.584	0.515
705.500	433.633	80.007	19.994	104.694	20.174	3.063	0.519
706.000	433.906	80.007	19.994	104.688	20.178	2.766	0.513
706.500	434.181	80.009	19.994	104.682	20.181	2.569	0.533
707.000	434.426	80.007	19.993	104.681	20.182	2.553	0.534
707.500	434.659	80.008	19.994	104.682	20.178	2.797	0.499
708.000	434.943	80.007	19.995	104.681	20.179	2.696	0.497
708.500	435.177	80.008	19.993	104.680	20.178	2.815	0.518
709.000	435.450	80.008	19.995	104.680	20.179	2.753	0.513
709.500	435.727	80.008	19.994	104.680	20.182	2.554	0.529
710.000	435.992	80.008	19.995	104.678	20.180	2.628	0.546
710.500	436.228	80.009	19.994	104.679	20.182	2.534	0.522
711.000	436.474	80.008	19.994	104.680	20.182	2.503	0.492
711.500	436.719	80.008	19.994	104.680	20.181	2.595	0.486
712.000	436.999	80.009	19.993	104.680	20.179	2.711	0.508
712.500	437.236	80.009	19.994	104.680	20.178	2.768	0.521
713.000	437.472	80.009	19.994	104.681	20.179	2.742	0.495
713.500	437.749	80.010	19.993	104.680	20.181	2.599	0.493
714.000	437.979	80.010	19.994	104.680	20.183	2.483	0.511
714.500	438.243	80.009	19.993	104.679	20.184	2.393	0.501
715.000	438.489	80.008	19.993	104.679	20.181	2.626	0.501
715.500	438.720	80.009	19.992	104.678	20.182	2.494	0.493
716.000	439.009	80.008	19.992	104.679	20.181	2.593	0.499
716.500	439.259	80.008	19.993	104.679	20.180	2.641	0.530
717.000	439.515	80.009	19.994	104.680	20.178	2.773	0.523
717.500	439.787	80.009	19.995	104.681	20.181	2.604	0.517
718.000	440.034	80.009	19.993	104.681	20.180	2.661	0.523
718.500	440.279	80.009	19.994	104.680	20.181	2.573	0.506
719.000	440.535	80.009	19.994	104.679	20.178	2.797	0.496
719.500	440.776	80.009	19.993	104.678	20.183	2.485	0.499
720.000	440.986	80.009	19.993	104.677	20.178	2.812	0.474
720.500	441.268	80.010	19.993	104.677	20.181	2.621	0.472
721.000	441.531	80.010	19.994	104.677	20.182	2.549	0.519
721.500	441.771	80.008	19.994	104.678	20.179	2.735	0.524
722.000	442.016	80.008	19.994	104.678	20.182	2.547	0.493
722.500	442.285	80.009	19.993	104.679	20.183	2.465	0.499
723.000	442.540	80.009	19.994	104.679	20.183	2.459	0.519
723.500	442.787	80.009	19.994	104.680	20.182	2.512	0.513
724.000	443.024	80.009	19.995	104.679	20.182	2.542	0.493
724.500	443.295	80.008	19.994	104.679	20.184	2.393	0.496
725.000	443.517	80.008	19.992	104.680	20.180	2.654	0.500
725.500	443.788	80.008	19.993	104.681	20.181	2.595	0.493
726.000	444.033	80.008	19.993	104.681	20.183	2.463	0.505
726.500	444.285	80.009	19.994	104.682	20.180	2.632	0.506
727.000	444.556	80.009	19.993	104.682	20.180	2.670	0.510
727.500	444.792	80.010	19.993	104.682	20.182	2.520	0.515
728.000	445.077	80.009	19.994	104.681	20.185	2.356	0.514
728.500	445.299	80.008	19.994	104.681	20.182	2.545	0.514
729.000	445.534	80.010	19.993	104.681	20.178	2.784	0.482
729.500	445.799	80.009	19.993	104.681	20.180	2.648	0.478
730.000	446.057	80.009	19.995	104.681	20.181	2.571	0.511
730.500	446.308	80.008	19.994	104.682	20.181	2.569	0.515
731.000	446.547	80.009	19.994	104.678	20.182	2.525	0.499
731.500	446.766	80.009	19.995	104.678	20.184	2.422	0.474
732.000	447.036	80.010	19.994	104.678	20.185	2.318	0.474
732.500	447.303	80.010	19.994	104.678	20.183	2.479	0.513
733.000	447.542	80.008	19.994	104.678	20.182	2.523	0.522
733.500	447.772	80.010	19.993	104.682	20.183	2.476	0.488
734.000	448.049	80.009	19.994	104.682	20.182	2.516	0.488
734.500	448.276	80.009	19.994	104.682	20.183	2.428	0.506
735.000	448.548	80.008	19.994	104.681	20.181	2.613	0.501
735.500	448.795	80.009	19.993	104.681	20.182	2.523	0.509
736.000	449.046	80.009	19.994	104.680	20.184	2.375	0.509
736.500	449.289	80.009	19.993	104.680	20.184	2.382	0.496
737.000	449.569	80.009	19.993	104.681	20.184	2.406	0.508
737.500	449.774	80.009	19.993	104.681	20.183	2.457	0.503
738.000	450.088	80.009	19.994	104.680	20.185	2.294	0.502
738.500	450.322	80.010	19.993	104.680	20.186	2.246	0.534
739.000	450.566	80.009	19.994	104.680	20.182	2.522	0.513
739.500	450.812	80.010	19.994	104.680	20.185	2.310	0.484
740.000	451.064	80.008	19.994	104.680	20.187	2.186	0.494
740.500	451.294	80.008	19.994	104.682	20.188	2.147	0.490
741.000	451.550	80.008	19.994	104.681	20.185	2.331	0.484
741.500	451.791	80.008	19.995	104.680	20.186	2.266	0.492
742.000	452.054	80.008	19.994	104.680	20.184	2.409	0.500
742.500	452.303	80.009	19.995	104.679	20.189	2.062	0.507
743.000	452.539	80.009	19.995	104.679	20.185	2.347	0.499
743.500	452.767	80.008	19.994	104.680	20.187	2.167	0.475
744.001	453.044	80.006	19.995	104.680	20.186	2.250	0.485
744.501	453.319	80.007	19.994	104.678	20.185	2.325	0.528
745.000	453.562	80.008	19.994	104.674	20.185	2.321	0.535
745.500	453.785	80.005	19.995	104.673	20.187	2.171	0.491
746.000	454.055	80.006	19.992	104.673	20.189	2.066	0.479
746.500	454.278	80.010	19.993	104.673	20.188	2.095	0.493
747.000	454.551	80.007	19.994	104.676	20.190	2.016	0.495
747.500	454.822	80.008	19.995	104.681	20.188	2.139	0.520
748.000	455.072	80.006	19.995	104.682	20.188	2.134	0.532
748.500	455.319	80.006	19.994	104.682	20.189	2.060	0.509
749.000	455.556	80.006	19.995	104.682	20.189	2.082	0.491
749.500	455.844	80.006	19.994	104.683	20.188	2.101	0.504
750.000	456.090	80.006	19.994	104.683	20.190	2.020	0.529
750.500	456.325	80.007	19.995	104.684	20.187	2.196	0.507
751.000	456.604	80.007	19.994	104.683	20.191	1.928	0.498
751.501	456.869	80.007	19.994	104.683	20.186	2.235	0.529
752.000	457.110	80.006	19.994	104.683	20.189	2.048	0.525
752.500	457.347	80.007	19.994	104.676	20.185	2.317	0.492
753.000	457.612	80.007	19.993	104.674	20.185	2.323	0.490
753.500	457.850	80.007	19.994	104.674	20.187	2.202	0.503
754.000	458.119	80.006	19.995	104.675	20.187	2.191	0.505
754.500	458.369	80.007	19.994	104.676	20.187	2.161	0.513
755.000	458.620	80.006	19.994	104.682	20.187	2.182	0.510
755.500	458.867	80.006	19.994	104.684	20.188	2.149	0.500
756.000	459.128	80.007	19.994	104.685	20.187	2.209	0.503
756.500	459.372	80.006	19.994	104.684	20.188	2.149	0.507
757.000	459.622	80.006	19.995	104.684	20.186	2.244	0.500
757.500	459.876	80.006	19.994	104.680	20.188	2.145	0.499
758.000	460.146	80.006	19.994	104.673	20.189	2.035	0.514
758.500	460.403	80.006	19.993	104.672	20.189	2.068	0.525
759.000	460.656	80.007	19.994	104.672	20.188	2.103	0.518
759.500	460.880	80.008	19.995	104.672	20.189	2.066	0.494
760.000	461.172	80.008	19.994	104.674	20.184	2.406	0.497
760.500	461.395	80.007	19.995	104.679	20.188	2.147	0.515
761.000	461.641	80.007	19.995	104.680	20.186	2.264	0.492
761.500	461.900	80.006	19.995	104.679	20.188	2.138	0.487
762.000	462.188	80.007	19.995	104.675	20.188	2.093	0.526
762.500	462.433	80.008	19.996	104.670	20.188	2.114	0.540
763.000	462.695	80.008	19.995	104.670	20.186	2.242	0.520
763.500	462.926	80.007	19.995	104.669	20.191	1.906	0.500
764.000	463.178	80.008	19.994	104.667	20.185	2.305	0.488
764.500	463.409	80.007	19.995	104.669	20.186	2.253	0.483
765.000	463.680	80.008	19.995	104.672	20.186	2.237	0.493
765.500	463.955	80.007	19.996	104.672	20.186	2.266	0.524
766.000	464.187	80.006	19.994	104.671	20.187	2.213	0.526
766.500	464.432	80.007	19.995	104.673	20.188	2.147	0.492
767.000	464.646	80.007	19.995	104.674	20.191	1.947	0.468
767.500	464.912	80.007	19.997	104.677	20.193	1.787	0.470
768.000	465.187	80.007	19.995	104.677	20.191	1.910	0.510
768.500	465.391	80.006	19.996	104.676	20.189	2.044	0.510
769.000	465.700	80.008	19.995	104.675	20.190	1.959	0.496
769.500	465.901	80.007	19.995	104.675	20.190	1.991	0.512
770.000	466.165	80.009	19.996	104.675	20.190	1.971	0.488
770.500	466.432	80.007	19.995	104.675	20.190	1.994	0.498
771.000	466.685	80.007	19.995	104.677	20.188	2.108	0.525
771.500	466.948	80.008	19.995	104.676	20.187	2.172	0.518
772.000	467.203	80.009	19.995	104.676	20.189	2.090	0.517
772.500	467.480	80.008	19.994	104.675	20.190	2.015	0.524
773.000	467.729	80.008	19.995	104.672	20.188	2.112	0.529
773.500	467.938	80.007	19.995	104.668	20.190	1.974	0.492
774.000	468.218	80.007	19.995	104.670	20.190	1.996	0.474
774.500	468.482	80.007	19.993	104.670	20.190	1.970	0.517
775.000	468.726	80.006	19.994	104.670	20.191	1.937	0.526
775.500	468.990	80.007	19.994	104.674	20.190	1.998	0.508
776.000	469.232	80.006	19.994	104.678	20.192	1.890	0.507
776.500	469.482	80.006	19.994	104.677	20.194	1.752	0.499
777.000	469.760	80.007	19.994	104.673	20.193	1.792	0.510
777.500	470.029	80.005	19.995	104.674	20.192	1.844	0.537
778.000	470.277	80.006	19.995	104.674	20.194	1.745	0.532
778.500	470.489	80.005	19.994	104.674	20.191	1.917	0.489
779.000	470.800	80.007	19.994	104.675	20.192	1.873	0.492
779.500	471.052	80.007	19.996	104.678	20.192	1.847	0.543
780.000	471.307	80.007	19.995	104.677	20.191	1.935	0.535
780.500	471.558	80.008	19.994	104.677	20.190	1.996	0.506
781.000	471.814	80.007	19.994	104.678	20.192	1.884	0.506
781.500	472.073	80.007	19.996	104.677	20.186	2.231	0.511
782.000	472.317	80.007	19.994	104.677	20.189	2.033	0.509
782.500	472.600	80.008	19.995	104.675	20.189	2.035	0.515
783.000	472.849	80.009	19.995	104.674	20.191	1.912	0.530
783.500	473.124	80.007	19.993	104.674	20.189	2.070	0.528
784.000	473.393	80.007	19.995	104.675	20.189	2.064	0.534
784.500	473.645	80.008	19.995	104.675	20.190	1.987	0.533
785.000	473.923	80.008	19.994	104.674	20.192	1.869	0.526
785.500	474.183	80.008	19.994	104.673	20.189	2.044	0.534
786.000	474.447	80.008	19.994	104.672	20.188	2.160	0.531
786.500	474.685	80.008	19.994	104.670	20.188	2.106	0.513
787.000	474.997	80.008	19.995	104.671	20.192	1.840	0.526
787.500	475.242	80.008	19.995	104.673	20.193	1.807	0.554
788.000	475.503	80.009	19.994	104.675	20.190	1.970	0.532
788.500	475.731	80.009	19.995	104.675	20.191	1.935	0.497
789.000	476.013	80.009	19.993	104.672	20.190	1.992	0.499
789.500	476.269	80.008	19.994	104.669	20.190	1.961	0.524
790.000	476.542	80.008	19.994	104.672	20.190	2.016	0.534
790.500	476.819	80.009	19.994	104.671	20.193	1.776	0.540
791.000	477.061	80.010	19.994	104.666	20.193	1.805	0.534
791.500	477.325	80.008	19.994	104.668	20.194	1.706	0.513
792.000	477.565	80.010	19.994	104.670	20.194	1.737	0.505
792.500	477.817	80.009	19.995	104.669	20.191	1.923	0.497
793.000	478.076	80.009	19.994	104.669	20.194	1.697	0.501
793.500	478.328	80.009	19.994	104.672	20.191	1.956	0.511
794.000	478.581	80.009	19.994	104.669	20.193	1.796	0.508
794.500	478.835	80.008	19.994	104.668	20.193	1.759	0.506
795.000	479.105	80.009	19.993	104.668	20.192	1.867	0.516
795.500	479.354	80.009	19.994	104.668	20.192	1.838	0.521
796.000	479.624	80.008	19.994	104.670	20.192	1.829	0.519
796.500	479.884	80.009	19.993	104.675	20.191	1.902	0.525
797.000	480.148	80.008	19.993	104.675	20.194	1.750	0.527
797.500	480.415	80.009	19.993	104.676	20.189	2.033	0.527
798.000	480.617	80.009	19.994	104.675	20.192	1.855	0.500
798.500	480.884	80.008	19.994	104.670	20.191	1.917	0.469
799.000	481.160	80.009	19.994	104.667	20.192	1.827	0.506
799.501	481.438	80.008	19.994	104.668	20.192	1.860	0.549
800.001	481.688	80.007	19.994	104.668	20.195	1.680	0.541
800.500	481.925	80.008	19.994	104.667	20.195	1.673	0.507
801.000	482.178	80.006	19.994	104.670	20.195	1.678	0.488
801.500	482.473	80.008	19.994	104.673	20.194	1.724	0.519
802.000	482.720	80.008	19.993	104.673	20.192	1.847	0.545
802.500	482.970	80.008	19.994	104.673	20.193	1.807	0.519
803.001	483.268	80.008	19.994	104.672	20.193	1.768	0.522
803.501	483.511	80.007	19.993	104.672	20.191	1.934	0.545
804.000	483.783	80.008	19.994	104.672	20.195	1.636	0.528
804.500	484.042	80.009	19.994	104.673	20.192	1.834	0.523
805.000	484.287	80.008	19.993	104.672	20.191	1.904	0.517
805.500	484.559	80.009	19.994	104.670	20.195	1.680	0.510
806.000	484.792	80.008	19.993	104.667	20.193	1.801	0.511
806.500	485.055	80.008	19.995	104.669	20.194	1.737	0.501
807.000	485.325	80.009	19.995	104.670	20.195	1.686	0.515
807.501	485.619	80.009	19.994	104.667	20.193	1.768	0.548
808.001	485.836	80.009	19.994	104.672	20.192	1.838	0.538
808.500	486.110	80.008	19.995	104.675	20.193	1.798	0.501
809.000	486.361	80.009	19.993	104.674	20.195	1.649	0.508
809.500	486.623	80.009	19.995	104.672	20.196	1.623	0.519
810.000	486.888	80.010	19.995	104.675	20.194	1.750	0.520
810.500	487.127	80.009	19.994	104.674	20.193	1.783	0.515
811.000	487.411	80.009	19.994	104.676	20.195	1.655	0.513
811.500	487.670	80.009	19.994	104.676	20.196	1.561	0.533
812.000	487.884	80.009	19.994	104.674	20.200	1.309	0.508
812.500	488.150	80.009	19.994	104.668	20.201	1.269	0.477
813.000	488.422	80.010	19.994	104.667	20.198	1.438	0.509
813.500	488.695	80.009	19.993	104.664	20.196	1.572	0.542
814.000	488.929	80.010	19.993	104.662	20.198	1.463	0.526
814.500	489.219	80.010	19.994	104.663	20.199	1.419	0.515
815.000	489.471	80.010	19.993	104.669	20.199	1.375	0.533
815.500	489.720	80.010	19.993	104.669	20.198	1.469	0.522
816.000	489.991	80.010	19.994	104.668	20.199	1.403	0.510
816.500	490.220	80.010	19.992	104.669	20.199	1.388	0.510
817.000	490.505	80.009	19.993	104.668	20.199	1.394	0.507
817.500	490.732	80.011	19.993	104.663	20.201	1.282	0.513
818.000	490.989	80.011	19.992	104.663	20.197	1.539	0.498
818.500	491.227	80.011	19.993	104.662	20.197	1.507	0.489
819.000	491.518	80.008	19.993	104.662	20.199	1.392	0.512
819.500	491.786	80.009	19.993	104.663	20.197	1.557	0.544
820.000	492.016	80.008	19.993	104.669	20.197	1.497	0.528
820.500	492.251	80.010	19.994	104.673	20.198	1.467	0.482
821.000	492.527	80.009	19.993	104.677	20.198	1.460	0.488
821.500	492.780	80.009	19.993	104.675	20.200	1.313	0.520
822.000	493.032	80.009	19.994	104.674	20.201	1.280	0.517
822.500	493.279	80.009	19.994	104.672	20.201	1.258	0.502
823.000	493.531	80.009	19.994	104.667	20.198	1.445	0.499
823.500	493.777	80.008	19.993	104.667	20.196	1.568	0.498
824.000	494.081	80.007	19.994	104.666	20.199	1.379	0.524
824.500	494.336	80.008	19.993	104.662	20.196	1.597	0.555
825.000	494.603	80.008	19.995	104.661	20.199	1.416	0.541
825.500	494.877	80.010	19.994	104.658	20.202	1.173	0.531
826.000	495.129	80.009	19.994	104.655	20.199	1.377	0.533
826.500	495.368	80.007	19.993	104.658	20.201	1.258	0.508
827.000	495.640	80.008	19.994	104.660	20.197	1.495	0.501
827.500	495.892	80.007	19.994	104.660	20.201	1.284	0.518
828.000	496.143	80.008	19.994	104.659	20.200	1.298	0.513
828.500	496.394	80.007	19.994	104.654	20.199	1.390	0.503
829.000	496.630	80.008	19.994	104.651	20.199	1.386	0.495
829.500	496.938	80.007	19.994	104.651	20.197	1.539	0.516
830.000	497.172	80.007	19.994	104.651	20.199	1.366	0.543
830.500	497.404	80.008	19.995	104.658	20.200	1.350	0.504
831.000	497.646	80.006	19.995	104.665	20.201	1.229	0.470
831.500	497.935	80.007	19.995	104.668	20.201	1.247	0.502
832.000	498.191	80.007	19.996	104.671	20.201	1.269	0.538
832.500	498.426	80.007	19.994	104.673	20.201	1.274	0.518
833.000	498.673	80.008	19.995	104.669	20.201	1.236	0.487
833.500	498.924	80.008	19.994	104.666	20.201	1.282	0.490
834.000	499.204	80.009	19.993	104.666	20.201	1.272	0.514
834.500	499.438	80.007	19.996	104.660	20.203	1.155	0.522
835.000	499.709	80.008	19.993	104.660	20.202	1.170	0.509
835.500	499.981	80.007	19.994	104.662	20.200	1.300	0.524
836.000	500.235	80.009	19.993	104.660	20.200	1.346	0.535
836.500	500.476	80.008	19.994	104.662	20.199	1.359	0.511
837.000	500.717	80.007	19.994	104.667	20.200	1.315	0.489
837.500	500.981	80.008	19.994	104.668	20.199	1.398	0.493
838.000	501.200	80.007	19.994	104.666	20.201	1.271	0.494
838.500	501.440	80.008	19.994	104.668	20.202	1.172	0.471
839.000	501.716	80.008	19.994	104.666	20.202	1.197	0.488
839.500	501.954	80.007	19.994	104.662	20.202	1.208	0.515
840.000	502.239	80.007	19.994	104.661	20.200	1.298	0.518
840.500	502.520	80.008	19.994	104.666	20.199	1.374	0.544
841.000	502.744	80.008	19.994	104.669	20.200	1.322	0.535
841.500	503.010	80.007	19.994	104.672	20.202	1.223	0.497
842.000	503.249	80.008	19.993	104.677	20.199	1.397	0.498
842.500	503.465	80.008	19.994	104.676	20.201	1.236	0.480
843.000	503.691	80.008	19.994	104.670	20.198	1.456	0.448
843.500	503.960	80.008	19.994	104.663	20.200	1.318	0.469
844.000	504.254	80.007	19.994	104.662	20.200	1.296	0.529
844.500	504.525	80.007	19.995	104.660	20.198	1.475	0.564
845.000	504.757	80.007	19.994	104.659	20.200	1.298	0.534
845.500	505.021	80.008	19.995	104.660	20.200	1.313	0.500
846.000	505.240	80.008	19.994	104.664	20.201	1.271	0.489
846.500	505.578	80.008	19.995	104.666	20.203	1.140	0.520
847.000	505.778	80.007	19.995	104.666	20.202	1.210	0.548
847.500	506.042	80.008	19.994	104.669	20.204	1.082	0.500
848.000	506.294	80.009	19.994	104.673	20.203	1.135	0.490
848.500	506.511	80.008	19.994	104.675	20.203	1.151	0.493
849.001	506.800	80.008	19.995	104.673	20.200	1.313	0.488
849.501	507.037	80.008	19.995	104.675	20.201	1.258	0.516
850.000	507.289	80.007	19.995	104.675	20.203	1.111	0.508
850.500	507.532	80.008	19.995	104.673	20.200	1.346	0.492
851.000	507.839	80.007	19.994	104.670	20.203	1.155	0.522
851.500	508.063	80.006	19.994	104.672	20.205	0.988	0.541
852.000	508.332	80.007	19.995	104.671	20.200	1.300	0.512
852.500	508.551	80.007	19.995	104.667	20.201	1.263	0.490
853.000	508.852	80.006	19.995	104.667	20.201	1.273	0.504
853.500	509.076	80.006	19.995	104.667	20.205	0.986	0.523
854.000	509.370	80.006	19.995	104.669	20.205	0.993	0.522
854.500	509.624	80.006	19.996	104.670	20.202	1.179	0.533
855.000	509.823	80.005	19.995	104.673	20.201	1.258	0.500
855.500	510.116	80.007	19.994	104.673	20.202	1.159	0.473
856.000	510.375	80.007	19.995	104.669	20.200	1.353	0.522
856.500	510.616	80.007	19.996	104.663	20.203	1.150	0.526
857.000	510.864	80.006	19.994	104.662	20.202	1.208	0.495
857.500	511.124	80.006	19.995	104.662	20.199	1.366	0.499
858.000	511.387	80.006	19.995	104.662	20.202	1.192	0.516
858.500	511.607	80.006	19.995	104.667	20.201	1.252	0.503
859.000	511.909	80.006	19.995	104.667	20.201	1.274	0.502
859.500	512.139	80.006	19.995	104.666	20.201	1.271	0.527
860.000	512.387	80.007	19.995	104.665	20.203	1.151	0.505
860.500	512.665	80.006	19.996	104.664	20.203	1.151	0.503
861.000	512.914	80.006	19.996	104.666	20.203	1.102	0.527
861.500	513.182	80.006	19.994	104.670	20.202	1.177	0.522
862.000	513.442	80.006	19.995	104.671	20.204	1.056	0.522
862.500	513.699	80.007	19.994	104.667	20.204	1.083	0.523
863.000	513.971	80.007	19.995	104.670	20.201	1.289	0.524
863.500	514.215	80.008	19.995	104.670	20.200	1.300	0.522
864.000	514.471	80.008	19.995	104.671	20.202	1.179	0.507
864.500	514.753	80.008	19.995	104.669	20.203	1.113	0.519
865.000	514.994	80.007	19.995	104.671	20.200	1.324	0.531
865.500	515.286	80.007	19.993	104.666	20.200	1.357	0.528
866.000	515.509	80.006	19.994	104.663	20.204	1.085	0.524
866.500	515.790	80.008	19.996	104.661	20.202	1.184	0.510
867.000	516.039	80.008	19.994	104.665	20.201	1.271	0.517
867.500	516.326	80.009	19.994	104.668	20.204	1.070	0.533
868.000	516.569	80.009	19.994	104.668	20.204	1.082	0.532
868.500	516.834	80.008	19.994	104.665	20.200	1.333	0.518
869.000	517.069	80.009	19.994	104.663	20.201	1.240	0.504
869.500	517.322	80.009	19.993	104.661	20.203	1.117	0.494
870.000	517.580	80.010	19.993	104.661	20.202	1.199	0.500
870.500	517.820	80.009	19.995	104.661	20.202	1.212	0.505
871.000	518.096	80.008	19.995	104.661	20.203	1.117	0.507
871.500	518.360	80.009	19.994	104.657	20.203	1.142	0.528
872.000	518.606	80.009	19.995	104.652	20.201	1.284	0.525
872.500	518.864	80.009	19.995	104.650	20.203	1.120	0.507
873.000	519.125	80.009	19.993	104.654	20.203	1.120	0.511
873.500	519.351	80.009	19.993	104.658	20.205	0.964	0.503
874.000	519.621	80.009	19.993	104.665	20.202	1.186	0.491
874.500	519.901	80.008	19.993	104.666	20.202	1.206	0.523
875.000	520.129	80.008	19.993	104.663	20.203	1.140	0.529
875.500	520.412	80.008	19.994	104.665	20.203	1.146	0.509
876.000	520.647	80.009	19.993	104.666	20.204	1.087	0.514
876.500	520.906	80.007	19.994	104.663	20.201	1.232	0.506
877.000	521.142	80.008	19.994	104.663	20.201	1.236	0.495
877.500	521.410	80.007	19.996	104.668	20.203	1.126	0.500
878.000	521.712	80.008	19.994	104.663	20.203	1.113	0.537
878.500	521.962	80.008	19.993	104.659	20.203	1.126	0.561
879.000	522.198	80.007	19.995	104.662	20.205	1.008	0.519
879.500	522.467	80.008	19.994	104.666	20.203	1.113	0.495
880.000	522.707	80.008	19.994	104.668	20.204	1.043	0.507
880.500	523.001	80.008	19.994	104.674	20.203	1.102	0.521
881.000	523.229	80.007	19.994	104.680	20.206	0.935	0.529
881.500	523.509	80.008	19.994	104.681	20.203	1.094	0.515
882.000	523.742	80.008	19.994	104.678	20.204	1.083	0.510
882.500	524.048	80.008	19.993	104.675	20.203	1.118	0.526
883.000	524.249	80.008	19.994	104.674	20.201	1.250	0.523
883.500	524.502	80.008	19.994	104.670	20.203	1.129	0.481
884.000	524.777	80.007	19.994	104.667	20.202	1.159	0.491
884.500	525.051	80.009	19.995	104.670	20.203	1.149	0.538
885.000	525.303	80.007	19.993	104.672	20.204	1.061	0.537
885.500	525.573	80.008	19.993	104.672	20.205	1.010	0.524
886.000	525.827	80.009	19.995	104.674	20.204	1.065	0.523
886.500	526.069	80.008	19.994	104.677	20.202	1.206	0.510
887.000	526.346	80.009	19.995	104.678	20.201	1.239	0.507
887.500	526.597	80.008	19.994	104.678	20.201	1.267	0.523
888.000	526.880	80.009	19.993	104.677	20.203	1.146	0.532
888.500	527.146	80.008	19.995	104.673	20.200	1.300	0.542
889.000	527.337	80.009	19.993	104.666	20.199	1.394	0.503
889.500	527.623	80.009	19.994	104.658	20.203	1.094	0.467
890.000	527.888	80.010	19.994	104.653	20.202	1.199	0.514
890.501	528.154	80.010	19.994	104.650	20.202	1.217	0.541
891.000	528.405	80.009	19.993	104.650	20.202	1.221	0.524
891.500	528.661	80.010	19.993	104.652	20.204	1.054	0.512
892.000	528.940	80.009	19.994	104.655	20.203	1.155	0.521
892.500	529.176	80.010	19.993	104.660	20.202	1.173	0.525
893.000	529.435	80.010	19.994	104.657	20.205	0.966	0.505
893.500	529.706	80.009	19.994	104.659	20.205	0.973	0.513
894.000	529.957	80.010	19.993	104.664	20.201	1.225	0.526
894.501	530.243	80.009	19.994	104.667	20.203	1.135	0.529
895.000	530.483	80.011	19.994	104.663	20.204	1.065	0.532
895.500	530.711	80.009	19.994	104.663	20.202	1.181	0.497
896.000	531.005	80.010	19.993	104.665	20.202	1.166	0.495
896.500	531.230	80.011	19.993	104.661	20.203	1.113	0.520
897.000	531.515	80.010	19.993	104.659	20.202	1.192	0.515
897.500	531.809	80.010	19.993	104.661	20.203	1.129	0.545
898.000	532.048	80.011	19.993	104.666	20.201	1.256	0.556
898.500	532.290	80.011	19.994	104.665	20.204	1.048	0.507
899.000	532.540	80.011	19.993	104.666	20.204	1.036	0.486
899.500	532.807	80.012	19.994	104.668	20.203	1.144	0.504
900.000	533.044	80.011	19.993	104.668	20.202	1.175	0.511
900.500	533.307	80.011	19.994	104.661	20.206	0.953	0.502
901.000	533.548	80.010	19.993	104.664	20.202	1.180	0.501
901.500	533.835	80.010	19.994	104.666	20.203	1.103	0.516
902.000	534.086	80.010	19.993	104.663	20.204	1.058	0.534
902.500	534.334	80.008	19.993	104.664	20.202	1.201	0.518
903.000	534.645	80.009	19.993	104.667	20.203	1.138	0.528
903.500	534.873	80.007	19.994	104.660	20.204	1.052	0.549
904.000	535.120	80.009	19.994	104.657	20.202	1.160	0.507
904.500	535.390	80.008	19.993	104.654	20.201	1.225	0.496
905.000	535.647	80.007	19.993	104.651	20.202	1.190	0.522
905.500	535.871	80.007	19.994	104.651	20.203	1.100	0.504
906.001	536.164	80.008	19.993	104.656	20.200	1.304	0.499
906.500	536.425	80.007	19.993	104.655	20.202	1.199	0.535
907.000	536.695	80.009	19.994	104.656	20.205	0.973	0.542
907.500	536.932	80.007	19.994	104.654	20.203	1.120	0.519
908.000	537.197	80.007	19.994	104.654	20.200	1.320	0.505
908.500	537.442	80.008	19.993	104.656	20.205	1.021	0.506
909.000	537.698	80.008	19.994	104.658	20.205	0.982	0.505
909.500	537.955	80.008	19.995	104.659	20.203	1.113	0.507
910.000	538.206	80.007	19.993	104.658	20.204	1.032	0.511
910.500	538.469	80.007	19.994	104.656	20.207	0.878	0.511
911.000	538.739	80.008	19.994	104.650	20.202	1.215	0.523
911.500	538.969	80.008	19.995	104.645	20.204	1.030	0.516
912.000	539.233	80.008	19.994	104.645	20.202	1.214	0.497
912.500	539.479	80.008	19.995	104.648	20.204	1.069	0.502
913.000	539.745	80.007	19.994	104.650	20.202	1.192	0.511
913.500	539.996	80.008	19.995	104.651	20.202	1.182	0.514
914.000	540.239	80.007	19.994	104.655	20.201	1.265	0.505
914.500	540.502	80.008	19.994	104.658	20.203	1.133	0.500
915.000	540.746	80.007	19.994	104.659	20.200	1.322	0.506
915.500	540.973	80.007	19.995	104.661	20.204	1.060	0.489
916.000	541.239	80.007	19.994	104.664	20.205	1.006	0.482
916.500	541.512	80.007	19.995	104.665	20.206	0.935	0.516
917.000	541.744	80.007	19.995	104.660	20.205	0.977	0.522
917.500	541.980	80.008	19.994	104.659	20.204	1.027	0.486
918.000	542.269	80.006	19.994	104.656	20.208	0.812	0.496
918.500	542.549	80.007	19.993	104.653	20.206	0.931	0.547
919.001	542.782	80.008	19.994	104.653	20.205	1.001	0.541
919.500	543.034	80.007	19.994	104.652	20.205	1.021	0.500
920.000	543.294	80.008	19.994	104.650	20.203	1.138	0.499
920.500	543.537	80.007	19.994	104.651	20.205	0.988	0.507
921.000	543.758	80.008	19.994	104.652	20.206	0.947	0.483
921.500	544.012	80.007	19.995	104.651	20.203	1.157	0.470
922.000	544.259	80.008	19.994	104.656	20.205	0.995	0.488
922.500	544.542	80.007	19.996	104.660	20.202	1.179	0.516
923.000	544.789	80.007	19.995	104.659	20.205	1.019	0.530
923.500	545.066	80.007	19.994	104.661	20.206	0.936	0.527
924.000	545.291	80.007	19.994	104.657	20.209	0.727	0.513
924.500	545.529	80.007	19.995	104.653	20.206	0.916	0.482
925.000	545.795	80.008	19.995	104.654	20.205	0.973	0.484
925.500	546.047	80.008	19.995	104.660	20.207	0.834	0.511
926.000	546.264	80.006	19.994	104.661	20.204	1.030	0.494
926.500	546.550	80.007	19.997	104.669	20.202	1.159	0.486
927.001	546.797	80.008	19.995	104.674	20.206	0.894	0.518
927.500	547.014	80.007	19.996	104.673	20.206	0.935	0.498
928.000	547.307	80.007	19.996	104.672	20.206	0.947	0.487
928.500	547.556	80.008	19.995	104.673	20.207	0.854	0.526
929.000	547.805	80.008	19.994	104.670	20.205	0.975	0.520
929.500	548.057	80.007	19.995	104.667	20.206	0.940	0.499
930.000	548.285	80.007	19.994	104.665	20.204	1.026	0.491
930.500	548.548	80.007	19.995	104.659	20.207	0.856	0.485
931.000	548.834	80.007	19.995	104.657	20.207	0.857	0.520
931.500	549.070	80.007	19.994	104.658	20.204	1.074	0.536
932.000	549.300	80.009	19.994	104.659	20.204	1.067	0.494
932.500	549.552	80.008	19.993	104.658	20.206	0.912	0.474
933.000	549.818	80.008	19.994	104.660	20.208	0.819	0.501
933.500	550.043	80.007	19.994	104.658	20.212	0.501	0.504
934.000	550.295	80.007	19.993	104.653	20.206	0.947	0.484
934.500	550.577	80.007	19.995	104.649	20.203	1.107	0.506
935.000	550.819	80.007	19.994	104.649	20.204	1.080	0.529
935.500	551.083	80.007	19.994	104.652	20.203	1.094	0.515
936.000	551.319	80.008	19.994	104.655	20.205	1.002	0.503
936.500	551.540	80.008	19.995	104.657	20.203	1.096	0.478
937.000	551.773	80.006	19.994	104.657	20.204	1.061	0.455
937.500	552.059	80.007	19.994	104.658	20.206	0.894	0.487
938.000	552.308	80.006	19.995	104.655	20.203	1.102	0.527
938.500	552.551	80.008	19.995	104.653	20.207	0.846	0.513
939.000	552.801	80.007	19.995	104.651	20.204	1.069	0.492
939.500	553.051	80.007	19.994	104.653	20.206	0.942	0.496
940.000	553.297	80.008	19.995	104.654	20.205	0.990	0.498
940.500	553.555	80.007	19.995	104.655	20.205	0.986	0.500
941.000	553.793	80.008	19.996	104.655	20.203	1.120	0.500
941.500	554.046	80.008	19.994	104.656	20.203	1.149	0.494
942.000	554.332	80.008	19.995	104.655	20.204	1.032	0.515
942.500	554.585	80.008	19.994	104.651	20.204	1.091	0.539
943.000	554.814	80.006	19.994	104.649	20.205	0.968	0.511
943.500	555.022	80.007	19.996	104.651	20.204	1.063	0.459
944.000	555.333	80.006	19.995	104.650	20.204	1.091	0.478
944.500	555.568	80.007	19.996	104.651	20.205	0.993	0.532
945.000	555.828	80.007	19.994	104.653	20.204	1.045	0.520
945.500	556.056	80.007	19.994	104.655	20.204	1.087	0.492
946.000	556.316	80.006	19.994	104.654	20.203	1.151	0.489
946.500	556.569	80.007	19.995	104.657	20.204	1.061	0.500
947.000	556.822	80.008	19.995	104.655	20.205	0.997	0.509
947.500	557.052	80.007	19.996	104.656	20.203	1.096	0.495
948.000	557.309	80.008	19.995	104.656	20.201	1.247	0.485
948.500	557.560	80.007	19.995	104.656	20.203	1.136	0.498
949.000	557.784	80.008	19.996	104.652	20.201	1.269	0.491
949.500	558.071	80.009	19.995	104.652	20.198	1.472	0.493
950.000	558.270	80.009	19.994	104.649	20.204	1.083	0.499
950.500	558.541	80.008	19.995	104.653	20.203	1.105	0.478
951.000	558.792	80.009	19.995	104.655	20.202	1.181	0.496
951.500	559.098	80.010	19.995	104.656	20.202	1.170	0.539
952.000	559.272	80.009	19.995	104.659	20.202	1.186	0.518
952.500	559.586	80.010	19.995	104.660	20.201	1.239	0.484
953.000	559.787	80.010	19.995	104.655	20.202	1.199	0.501
953.500	560.037	80.010	19.995	104.654	20.203	1.107	0.483
954.000	560.281	80.009	19.995	104.654	20.204	1.074	0.473
954.500	560.568	80.008	19.995	104.654	20.203	1.111	0.512
955.000	560.822	80.010	19.995	104.657	20.201	1.272	0.536
955.500	561.054	80.010	19.995	104.660	20.203	1.137	0.514
956.000	561.287	80.009	19.995	104.658	20.203	1.144	0.476
956.500	561.521	80.011	19.995	104.658	20.201	1.289	0.466
957.000	561.803	80.009	19.994	104.654	20.201	1.258	0.491
957.500	562.063	80.008	19.995	104.649	20.203	1.105	0.529
958.000	562.292	80.009	19.994	104.643	20.203	1.146	0.516
958.500	562.549	80.009	19.994	104.643	20.202	1.188	0.488
959.000	562.787	80.009	19.995	104.642	20.202	1.199	0.490
959.500	563.070	80.009	19.993	104.642	20.203	1.118	0.508
960.000	563.299	80.009	19.994	104.643	20.204	1.052	0.517
960.500	563.554	80.010	19.994	104.643	20.205	1.023	0.498
961.000	563.760	80.008	19.995	104.647	20.201	1.225	0.473
961.500	564.001	80.009	19.995	104.649	20.202	1.164	0.454
962.000	564.297	80.008	19.994	104.651	20.207	0.867	0.492
962.500	564.507	80.008	19.994	104.652	20.203	1.093	0.521
963.000	564.768	80.009	19.995	104.652	20.204	1.041	0.488
963.500	565.005	80.010	19.994	104.649	20.203	1.133	0.485
964.000	565.296	80.011	19.995	104.647	20.202	1.217	0.513
964.500	565.501	80.011	19.994	104.646	20.204	1.089	0.512
965.000	565.778	80.009	19.994	104.648	20.201	1.237	0.489
965.500	565.968	80.009	19.993	104.654	20.202	1.184	0.474
966.000	566.281	80.009	19.994	104.655	20.201	1.274	0.485
966.500	566.535	80.008	19.994	104.656	20.203	1.151	0.535
967.000	566.737	80.010	19.993	104.655	20.202	1.183	0.511
967.500	567.051	80.008	19.995	104.652	20.202	1.212	0.486
968.000	567.274	80.010	19.994	104.646	20.202	1.208	0.526
968.500	567.527	80.010	19.993	104.643	20.203	1.144	0.507
969.000	567.737	80.011	19.993	104.642	20.202	1.190	0.470
969.500	568.016	80.009	19.993	104.642	20.201	1.274	0.476
970.000	568.253	80.009	19.994	104.643	20.202	1.179	0.503
970.500	568.487	80.010	19.994	104.643	20.201	1.260	0.493
971.000	568.792	80.011	19.993	104.643	20.202	1.204	0.504
971.500	569.045	80.009	19.993	104.645	20.200	1.311	0.549
972.000	569.241	80.010	19.995	104.648	20.203	1.120	0.504
972.500	569.536	80.010	19.995	104.653	20.202	1.171	0.470
973.000	569.785	80.010	19.994	104.659	20.201	1.245	0.517
973.500	570.037	80.012	19.994	104.661	20.203	1.157	0.522
974.000	570.260	80.011	19.994	104.660	20.202	1.221	0.488
974.500	570.517	80.011	19.994	104.658	20.204	1.026	0.478
975.000	570.778	80.010	19.994	104.651	20.206	0.931	0.499
975.500	571.037	80.011	19.995	104.644	20.202	1.186	0.519
976.000	571.294	80.011	19.993	104.646	20.202	1.208	0.518
976.500	571.539	80.012	19.993	104.652	20.201	1.254	0.509
977.000	571.791	80.011	19.994	104.657	20.204	1.063	0.500
977.500	572.067	80.012	19.992	104.661	20.204	1.041	0.512
978.000	572.247	80.012	19.994	104.666	20.200	1.320	0.492
978.500	572.540	80.012	19.993	104.666	20.202	1.221	0.464
979.000	572.796	80.011	19.993	104.664	20.203	1.144	0.511
979.500	573.081	80.010	19.994	104.663	20.201	1.265	0.545
980.000	573.312	80.011	19.993	104.665	20.200	1.300	0.529
980.500	573.593	80.010	19.994	104.664	20.202	1.162	0.514
981.000	573.802	80.010	19.993	104.660	20.206	0.937	0.501
981.500	574.153	80.010	19.994	104.656	20.201	1.225	0.525
982.000	574.327	80.010	19.993	104.649	20.200	1.348	0.542
982.500	574.624	80.011	19.994	104.644	20.199	1.375	0.498
983.000	574.898	80.011	19.995	104.641	20.205	1.023	0.521
983.500	575.087	80.010	19.994	104.647	20.204	1.070	0.517
984.000	575.385	80.009	19.996	104.649	20.203	1.138	0.475
984.500	575.596	80.009	19.995	104.651	20.200	1.326	0.498
985.000	575.898	80.010	19.996	104.657	20.203	1.124	0.511
985.500	576.105	80.009	19.994	104.663	20.196	1.594	0.511
986.000	576.402	80.008	19.993	104.659	20.206	0.896	0.507
986.500	576.679	80.009	19.996	104.659	20.202	1.197	0.540
987.001	576.839	80.009	19.995	104.664	20.202	1.207	0.506
987.501	577.155	80.008	19.996	104.663	20.204	1.069	0.456
988.000	577.424	80.009	19.995	104.660	20.201	1.291	0.530
988.500	577.604	80.008	19.994	104.663	20.201	1.252	0.517
989.000	577.967	80.008	19.994	104.664	20.202	1.204	0.496
989.500	578.136	80.008	19.994	104.659	20.202	1.208	0.537
990.000	578.403	80.007	19.993	104.658	20.201	1.269	0.484
990.500	578.650	80.009	19.994	104.660	20.199	1.406	0.474
991.000	578.908	80.009	19.994	104.663	20.203	1.104	0.509
991.500	579.309	80.010	19.995	104.667	20.198	1.451	0.582
992.000	579.279	80.008	19.993	104.672	20.201	1.274	0.515
992.500	579.585	80.008	19.994	104.675	20.200	1.302	0.324
993.000	580.031	80.008	19.993	104.672	20.202	1.159	0.514
993.500	580.135	80.009	19.994	104.670	20.197	1.504	0.651
994.000	580.395	80.008	19.994	104.666	20.199	1.379	0.457
994.500	580.743	80.008	19.993	104.662	20.199	1.425	0.486
995.000	580.900	80.008	19.994	104.657	20.201	1.289	0.557
995.500	581.116	80.009	19.994	104.656	20.202	1.171	0.440
996.000	581.482	80.009	19.994	104.655	20.199	1.417	0.477
996.500	581.764	80.009	19.993	104.657	20.201	1.236	0.615
997.000	582.061	80.007	19.994	104.664	20.198	1.483	0.614
997.500	581.824	80.008	19.992	104.671	20.201	1.256	0.320
998.000	582.151	80.006	19.993	104.676	20.202	1.212	0.075
998.500	582.900	80.008	19.993	104.673	20.202	1.188	0.583
999.000	582.975	80.008	19.994	104.668	20.201	1.252	0.950
999.500	582.866	80.007	19.994	104.661	20.200	1.318	0.395
1000.000	583.818	80.010	19.993	104.657	20.197	1.495	0.404
1000.500	583.748	80.010	19.993	104.657	20.199	1.425	0.863
1001.000	583.993	80.010	19.993	104.658	20.199	1.361	0.529
1001.500	584.201	80.008	19.994	104.658	20.200	1.315	0.314
1002.000	584.383	80.008	19.994	104.661	20.201	1.228	0.421
1002.500	584.819	80.008	19.994	104.661	20.202	1.199	0.504
1003.000	584.975	80.008	19.994	104.662	20.200	1.324	0.605
1003.500	585.283	80.010	19.994	104.661	20.200	1.337	0.528
1004.000	585.489	80.007	19.994	104.660	20.197	1.511	0.489
1004.500	585.689	80.009	19.995	104.659	20.197	1.519	0.460
1005.000	586.016	80.007	19.994	104.660	20.199	1.388	0.467
1005.500	586.318	80.008	19.993	104.658	20.198	1.452	0.578
1006.000	586.430	80.008	19.993	104.657	20.200	1.320	0.522
1006.500	586.786	80.009	19.994	104.657	20.201	1.276	0.441
1007.001	587.076	80.008	19.994	104.655	20.198	1.430	0.557
1007.500	587.235	80.009	19.995	104.651	20.200	1.344	0.547
1008.000	587.575	80.007	19.994	104.648	20.199	1.416	0.474
1008.500	587.748	80.008	19.993	104.649	20.196	1.616	0.506
1009.000	588.008	80.008	19.995	104.651	20.198	1.485	0.473
1009.500	588.278	80.007	19.993	104.652	20.199	1.388	0.481
1010.000	588.565	80.006	19.994	104.653	20.198	1.471	0.543
1010.500	588.786	80.008	19.994	104.653	20.199	1.371	0.532
1011.000	589.039	80.009	19.994	104.656	20.197	1.500	0.492
1011.500	589.283	80.007	19.994	104.656	20.198	1.487	0.486
1012.000	589.570	80.006	19.994	104.655	20.199	1.359	0.513
1012.500	589.787	80.007	19.993	104.657	20.200	1.300	0.517
1013.000	590.064	80.006	19.995	104.657	20.201	1.265	0.499
1013.501	590.332	80.009	19.994	104.657	20.199	1.414	0.520
1014.001	590.594	80.008	19.994	104.658	20.199	1.372	0.538
1014.500	590.809	80.007	19.994	104.657	20.202	1.195	0.504
1015.000	591.078	80.008	19.994	104.656	20.200	1.298	0.480
1015.500	591.303	80.008	19.994	104.660	20.202	1.172	0.489
1016.000	591.620	80.007	19.994	104.659	20.200	1.315	0.518
1016.500	591.858	80.008	19.995	104.659	20.200	1.329	0.548
1017.000	592.062	80.008	19.994	104.659	20.199	1.414	0.499
1017.500	592.399	80.009	19.994	104.660	20.199	1.416	0.492
1018.000	592.621	80.007	19.996	104.654	20.198	1.452	0.550
1018.500	592.838	80.007	19.994	104.652	20.203	1.103	0.499
1019.000	593.181	80.007	19.994	104.649	20.203	1.144	0.500
1019.500	593.365	80.008	19.994	104.648	20.200	1.322	0.543
1020.000	593.666	80.008	19.994	104.645	20.201	1.280	0.506
1020.501	593.885	80.009	19.994	104.644	20.200	1.304	0.502
1021.001	594.191	80.008	19.994	104.644	20.200	1.293	0.522
1021.500	594.421	80.009	19.995	104.651	20.201	1.287	0.531
1022.000	594.673	80.008	19.994	104.657	20.199	1.360	0.509
1022.500	594.913	80.008	19.995	104.663	20.199	1.390	0.487
1023.000	595.174	80.008	19.994	104.668	20.199	1.360	0.497
1023.500	595.446	80.008	19.995	104.674	20.201	1.248	0.517
1024.000	595.719	80.008	19.994	104.671	20.200	1.316	0.539
1024.499	595.954	80.008	19.994	104.670	20.201	1.247	0.527
1024.999	596.207	80.008	19.995	104.671	20.204	1.032	0.498
1025.499	596.508	80.007	19.996	104.671	20.201	1.274	0.520
1025.999	596.700	80.007	19.994	104.666	20.201	1.239	0.523
1026.499	597.004	80.009	19.994	104.664	20.202	1.180	0.495
1027.000	597.280	80.009	19.995	104.661	20.198	1.459	0.538
1027.500	597.512	80.008	19.995	104.655	20.199	1.381	0.544
1028.000	597.739	80.009	19.994	104.650	20.202	1.213	0.483
1028.501	598.032	80.008	19.995	104.648	20.199	1.423	0.489
1029.000	598.245	80.009	19.994	104.646	20.201	1.234	0.513
1029.500	598.537	80.009	19.995	104.645	20.200	1.331	0.506
1030.001	598.765	80.010	19.994	104.645	20.199	1.360	0.513
1030.501	599.033	80.010	19.995	104.645	20.201	1.250	0.508
1031.000	599.288	80.009	19.994	104.646	20.200	1.349	0.509
1031.500	599.524	80.009	19.994	104.649	20.203	1.127	0.507
1032.000	599.806	80.010	19.994	104.649	20.200	1.346	0.505
1032.499	600.052	80.009	19.994	104.649	20.198	1.441	0.523
1033.000	600.342	80.010	19.994	104.650	20.201	1.247	0.532
1033.501	600.527	80.009	19.995	104.650	20.199	1.384	0.506
1034.001	600.798	80.009	19.995	104.650	20.201	1.258	0.466
1034.500	601.066	80.011	19.994	104.651	20.206	0.927	0.497
1035.000	601.273	80.009	19.994	104.651	20.202	1.177	0.507
1035.501	601.539	80.010	19.995	104.649	20.202	1.184	0.474
1036.001	601.772	80.008	19.994	104.646	20.202	1.193	0.485
1036.501	602.049	80.009	19.994	104.645	20.202	1.159	0.504
1037.000	602.301	80.010	19.994	104.643	20.205	0.993	0.520
1037.499	602.591	80.009	19.995	104.642	20.204	1.063	0.536
1037.999	602.804	80.009	19.995	104.642	20.202	1.203	0.523
1038.499	603.063	80.009	19.995	104.642	20.203	1.149	0.488
1038.999	603.302	80.009	19.996	104.641	20.204	1.034	0.485
1039.499	603.536	80.010	19.995	104.640	20.203	1.111	0.485
1040.000	603.803	80.010	19.995	104.640	20.202	1.158	0.487
1040.501	604.041	80.009	19.995	104.641	20.203	1.146	0.503
1041.001	604.300	80.010	19.994	104.645	20.207	0.889	0.501
1041.500	604.532	80.008	19.995	104.644	20.205	1.019	0.494
1042.000	604.779	80.009	19.995	104.645	20.205	1.010	0.485
1042.500	605.035	80.008	19.995	104.644	20.203	1.144	0.492
1043.000	605.268	80.008	19.995	104.643	20.203	1.125	0.496
1043.500	605.533	80.008	19.995	104.641	20.205	0.966	0.494
1044.001	605.804	80.008	19.995	104.644	20.205	0.984	0.517
1044.500	606.057	80.008	19.995	104.644	20.206	0.934	0.529
1045.000	606.250	80.009	19.994	104.647	20.207	0.850	0.485
1045.500	606.515	80.009	19.994	104.651	20.204	1.026	0.452
1046.000	606.814	80.008	19.993	104.654	20.205	0.982	0.511
1046.500	607.004	80.008	19.995	104.655	20.207	0.859	0.527
1047.000	607.304	80.008	19.995	104.657	20.207	0.889	0.490
1047.500	607.542	80.009	19.996	104.660	20.208	0.782	0.514
1048.000	607.785	80.010	19.996	104.657	20.209	0.699	0.510
1048.500	608.038	80.010	19.995	104.653	20.208	0.800	0.488
1049.000	608.323	80.008	19.995	104.651	20.205	0.977	0.517
1049.500	608.539	80.007	19.995	104.647	20.204	1.045	0.520
1050.000	608.812	80.008	19.993	104.642	20.205	1.004	0.495
1050.500	609.034	80.009	19.994	104.642	20.203	1.109	0.492
1051.000	609.330	80.010	19.994	104.642	20.208	0.821	0.507
1051.500	609.564	80.009	19.994	104.641	20.203	1.103	0.524
1051.999	609.807	80.010	19.995	104.642	20.203	1.138	0.503
1052.500	610.042	80.010	19.994	104.642	20.202	1.171	0.478
1053.001	610.298	80.011	19.994	104.643	20.204	1.050	0.484
1053.500	610.555	80.010	19.994	104.643	20.206	0.892	0.502
1054.000	610.789	80.010	19.993	104.644	20.204	1.067	0.502
1054.500	611.049	80.010	19.994	104.643	20.205	0.999	0.492
1055.000	611.304	80.011	19.992	104.645	20.205	0.982	0.505
1055.500	611.559	80.010	19.993	104.646	20.201	1.243	0.513
1056.000	611.828	80.011	19.994	104.646	20.201	1.287	0.517
1056.500	612.063	80.012	19.993	104.646	20.203	1.102	0.514
1057.000	612.322	80.011	19.994	104.648	20.204	1.078	0.499
1057.500	612.585	80.011	19.994	104.647	20.204	1.091	0.508
1058.000	612.833	80.011	19.993	104.647	20.204	1.024	0.517
1058.500	613.088	80.011	19.993	104.648	20.203	1.149	0.507
1059.000	613.326	80.012	19.992	104.648	20.206	0.946	0.497
1059.500	613.574	80.010	19.993	104.648	20.203	1.151	0.490
1060.000	613.853	80.011	19.994	104.648	20.205	1.021	0.507
1060.500	614.085	80.011	19.994	104.647	20.202	1.171	0.519
1061.000	614.334	80.011	19.994	104.649	20.204	1.087	0.496
1061.500	614.592	80.010	19.993	104.649	20.203	1.157	0.494
1062.000	614.843	80.010	19.993	104.648	20.203	1.140	0.508
1062.499	615.078	80.010	19.995	104.647	20.201	1.276	0.498
1063.000	615.316	80.010	19.994	104.647	20.203	1.098	0.479
1063.500	615.571	80.010	19.993	104.647	20.202	1.210	0.483
1064.000	615.846	80.010	19.994	104.647	20.203	1.138	0.511
1064.500	616.082	80.009	19.995	104.647	20.202	1.188	0.520
1065.000	616.347	80.007	19.994	104.649	20.201	1.230	0.506
1065.499	616.618	80.009	19.993	104.649	20.203	1.122	0.519
1065.999	616.830	80.007	19.993	104.648	20.201	1.258	0.509
1066.500	617.118	80.006	19.996	104.650	20.202	1.170	0.491
1067.000	617.334	80.009	19.994	104.650	20.202	1.177	0.503
1067.499	617.621	80.007	19.994	104.648	20.199	1.425	0.504
1068.000	617.832	80.008	19.993	104.649	20.202	1.197	0.500
1068.500	618.068	80.007	19.994	104.648	20.201	1.230	0.472
1069.000	618.313	80.007	19.994	104.647	20.201	1.240	0.464
1069.500	618.533	80.008	19.994	104.648	20.202	1.168	0.473
1069.999	618.761	80.008	19.992	104.650	20.202	1.181	0.456
1070.500	619.062	80.007	19.994	104.652	20.201	1.238	0.488
1071.001	619.298	80.007	19.993	104.654	20.199	1.419	0.533
1071.501	619.548	80.007	19.994	104.655	20.199	1.377	0.511
1072.000	619.778	80.006	19.993	104.656	20.199	1.399	0.483
1072.500	620.058	80.007	19.994	104.657	20.198	1.491	0.495
1073.000	620.335	80.008	19.994	104.655	20.200	1.300	0.533
1073.500	620.571	80.005	19.993	104.656	20.202	1.217	0.535
1074.001	620.834	80.007	19.994	104.655	20.200	1.340	0.506
1074.500	621.085	80.007	19.994	104.654	20.198	1.452	0.506
1074.999	621.330	80.006	19.994	104.650	20.199	1.401	0.505
1075.499	621.590	80.007	19.994	104.651	20.199	1.370	0.501
1076.000	621.856	80.007	19.994	104.650	20.198	1.451	0.516
1076.500	622.079	80.008	19.995	104.650	20.199	1.375	0.508
1076.999	622.361	80.008	19.994	104.648	20.195	1.627	0.497
1077.500	622.644	80.008	19.993	104.650	20.200	1.300	0.535
1078.001	622.846	80.007	19.993	104.656	20.198	1.489	0.524
1078.500	623.130	80.008	19.994	104.658	20.198	1.480	0.485
1079.000	623.393	80.008	19.993	104.660	20.198	1.482	0.517
1079.501	623.630	80.007	19.994	104.665	20.199	1.408	0.524
1080.000	623.888	80.008	19.994	104.668	20.201	1.250	0.498
1080.500	624.147	80.007	19.996	104.665	20.199	1.372	0.506
1081.001	624.421	80.008	19.994	104.663	20.200	1.355	0.525
1081.501	624.648	80.007	19.994	104.661	20.201	1.289	0.517
1082.000	624.906	80.007	19.993	104.656	20.201	1.251	0.493
1082.500	625.180	80.008	19.994	104.653	20.199	1.368	0.509
1083.000	625.446	80.008	19.993	104.651	20.198	1.427	0.536
1083.500	625.694	80.009	19.992	104.651	20.198	1.469	0.527
1084.000	625.971	80.008	19.993	104.654	20.198	1.476	0.519
1084.500	626.212	80.009	19.994	104.655	20.196	1.564	0.521
1085.001	626.467	80.008	19.994	104.652	20.200	1.309	0.507
1085.501	626.746	80.009	19.993	104.655	20.196	1.603	0.515
1086.000	626.979	80.009	19.994	104.658	20.195	1.669	0.523
1086.499	627.275	80.008	19.994	104.655	20.198	1.463	0.520
1086.999	627.542	80.009	19.993	104.660	20.193	1.798	0.546
1087.500	627.793	80.010	19.993	104.665	20.196	1.621	0.540
1088.000	628.058	80.007	19.994	104.667	20.196	1.599	0.517
1088.499	628.357	80.009	19.994	104.670	20.194	1.719	0.540
1088.999	628.616	80.009	19.993	104.673	20.196	1.588	0.561
1089.499	628.880	80.008	19.993	104.669	20.195	1.685	0.540
1090.000	629.136	80.010	19.994	104.665	20.193	1.761	0.521
1090.501	629.378	80.008	19.993	104.661	20.194	1.735	0.509
1091.001	629.696	80.008	19.994	104.659	20.194	1.713	0.529
1091.501	629.936	80.008	19.994	104.662	20.197	1.515	0.559
1092.001	630.260	80.008	19.994	104.668	20.197	1.546	0.561
1092.501	630.504	80.008	19.993	104.671	20.196	1.564	0.566
1093.000	630.779	80.009	19.994	104.673	20.196	1.573	0.543
1093.500	631.055	80.008	19.994	104.668	20.196	1.575	0.535
1094.000	631.325	80.007	19.995	104.664	20.197	1.526	0.549
1094.500	631.621	80.007	19.994	104.659	20.196	1.570	0.556
1095.001	631.900	80.008	19.993	104.653	20.197	1.555	0.570
1095.500	632.156	80.007	19.995	104.650	20.201	1.274	0.555
1096.000	632.437	80.007	19.994	104.650	20.197	1.507	0.536
1096.500	632.704	80.008	19.993	104.648	20.199	1.395	0.542
1097.000	632.987	80.007	19.994	104.648	20.198	1.436	0.549
1097.500	633.258	80.009	19.995	104.651	20.200	1.340	0.552
1098.000	633.522	80.008	19.995	104.656	20.198	1.436	0.545
1098.501	633.802	80.008	19.994	104.658	20.198	1.480	0.539
1099.001	634.078	80.007	19.994	104.659	20.196	1.608	0.550
1099.501	634.349	80.007	19.994	104.656	20.197	1.531	0.552
1100.001	634.618	80.008	19.995	104.654	20.198	1.483	0.543
1100.500	634.923	80.008	19.995	104.652	20.196	1.614	0.557
1101.000	635.193	80.007	19.994	104.649	20.197	1.518	0.575
1101.500	635.455	80.009	19.994	104.649	20.197	1.529	0.553
1102.000	635.737	80.007	19.994	104.649	20.197	1.524	0.538
1102.500	635.993	80.008	19.995	104.650	20.196	1.605	0.541
1102.999	636.290	80.008	19.995	104.649	20.200	1.316	0.546
1103.499	636.559	80.008	19.995	104.650	20.200	1.305	0.560
1103.999	636.819	80.009	19.994	104.650	20.199	1.386	0.547
1104.499	637.111	80.007	19.995	104.651	20.200	1.327	0.540
1104.999	637.389	80.008	19.995	104.648	20.196	1.606	0.561
1105.500	637.643	80.008	19.995	104.646	20.199	1.414	0.551
1106.001	637.901	80.007	19.993	104.648	20.198	1.450	0.522
1106.500	638.228	80.007	19.996	104.651	20.198	1.467	0.548
1107.001	638.489	80.008	19.996	104.653	20.200	1.325	0.586
1107.501	638.729	80.009	19.995	104.654	20.195	1.687	0.544
1108.001	639.031	80.009	19.996	104.656	20.197	1.505	0.522
1108.501	639.305	80.008	19.996	104.653	20.199	1.417	0.559
1109.001	639.585	80.008	19.996	104.650	20.198	1.441	0.565
1109.501	639.863	80.009	19.995	104.647	20.199	1.404	0.556
1110.000	640.127	80.010	19.994	104.646	20.197	1.535	0.550
1110.500	640.420	80.009	19.995	104.647	20.196	1.572	0.549
1111.000	640.681	80.009	19.995	104.650	20.196	1.566	0.555
1111.499	640.945	80.009	19.993	104.652	20.196	1.592	0.539
1111.999	641.249	80.010	19.994	104.652	20.195	1.682	0.547
1112.500	641.486	80.010	19.994	104.652	20.197	1.557	0.555
1113.000	641.746	80.009	19.994	104.650	20.196	1.577	0.519
1113.499	642.042	80.008	19.995	104.646	20.196	1.594	0.526
1113.999	642.318	80.009	19.994	104.644	20.197	1.533	0.564
1114.500	642.579	80.010	19.995	104.645	20.196	1.610	0.555
1115.001	642.843	80.010	19.994	104.645	20.198	1.469	0.531
1115.501	643.128	80.009	19.993	104.644	20.199	1.388	0.537
1116.001	643.370	80.009	19.993	104.643	20.195	1.689	0.538
1116.501	643.686	80.009	19.994	104.643	20.195	1.663	0.542
1117.001	643.956	80.010	19.995	104.642	20.197	1.551	0.572
1117.501	644.210	80.008	19.994	104.642	20.195	1.632	0.555
1118.001	644.484	80.009	19.995	104.643	20.199	1.405	0.526
1118.501	644.714	80.009	19.994	104.645	20.199	1.401	0.516
1119.001	645.001	80.008	19.996	104.645	20.197	1.542	0.510
1119.500	645.208	80.009	19.994	104.646	20.198	1.458	0.506
1120.000	645.492	80.008	19.995	104.646	20.199	1.416	0.493
1120.500	645.817	80.008	19.996	104.646	20.197	1.502	0.550
1121.001	646.045	80.008	19.996	104.648	20.195	1.680	0.581
1121.501	646.360	80.008	19.994	104.650	20.197	1.542	0.548
1122.000	646.594	80.009	19.994	104.650	20.199	1.362	0.546
1122.501	646.826	80.009	19.995	104.650	20.198	1.469	0.508
1123.001	647.108	80.010	19.994	104.650	20.199	1.404	0.490
1123.501	647.386	80.010	19.994	104.648	20.198	1.452	0.537
1124.001	647.617	80.008	19.994	104.647	20.197	1.496	0.535
1124.500	647.923	80.010	19.995	104.646	20.198	1.454	0.523
1125.000	648.193	80.009	19.995	104.649	20.195	1.691	0.556
1125.500	648.410	80.009	19.994	104.649	20.197	1.522	0.532
1126.000	648.692	80.008	19.994	104.649	20.199	1.370	0.493
1126.500	648.956	80.008	19.995	104.649	20.197	1.515	0.522
1126.999	649.233	80.008	19.995	104.648	20.199	1.408	0.543
1127.499	649.474	80.009	19.994	104.645	20.197	1.515	0.530
1128.000	649.791	80.008	19.995	104.647	20.198	1.452	0.538
1128.501	650.014	80.008	19.995	104.651	20.196	1.614	0.549
1129.000	650.290	80.008	19.995	104.652	20.195	1.673	0.519
1129.499	650.566	80.009	19.995	104.652	20.196	1.610	0.526
1130.000	650.805	80.008	19.996	104.655	20.195	1.687	0.533
1130.501	651.051	80.009	19.995	104.651	20.192	1.876	0.500
1131.001	651.360	80.009	19.996	104.648	20.193	1.792	0.520
1131.501	651.604	80.009	19.994	104.647	20.191	1.893	0.554
1132.001	651.904	80.009	19.996	104.648	20.194	1.737	0.549
1132.500	652.124	80.008	19.994	104.646	20.195	1.665	0.532
1132.999	652.445	80.010	19.995	104.647	20.193	1.788	0.531
1133.500	652.669	80.010	19.994	104.647	20.192	1.827	0.543
1134.001	652.953	80.009	19.995	104.648	20.193	1.790	0.527
1134.500	653.189	80.009	19.995	104.647	20.190	1.981	0.514
1134.999	653.513	80.009	19.995	104.646	20.193	1.761	0.539
1135.500	653.734	80.008	19.996	104.646	20.192	1.876	0.552
1136.000	654.009	80.011	19.995	104.646	20.194	1.744	0.521
1136.500	654.300	80.009	19.996	104.646	20.194	1.740	0.531
1137.001	654.535	80.009	19.995	104.646	20.190	1.966	0.546
1137.501	654.796	80.009	19.995	104.647	20.191	1.900	0.511
1138.000	655.048	80.009	19.994	104.648	20.194	1.709	0.505
1138.500	655.357	80.010	19.995	104.648	20.192	1.878	0.537
1139.001	655.579	80.009	19.994	104.648	20.203	1.136	0.546
1139.501	655.889	80.009	19.994	104.648	20.188	2.130	0.532
1140.000	656.120	80.011	19.994	104.646	20.194	1.696	0.536
1140.500	656.354	80.009	19.995	104.646	20.196	1.586	0.503
1141.001	656.663	80.009	19.994	104.645	20.198	1.452	0.504
1141.501	656.889	80.011	19.995	104.644	20.195	1.627	0.539
1142.001	657.185	80.010	19.994	104.644	20.192	1.838	0.528
1142.500	657.423	80.010	19.994	104.643	20.192	1.884	0.528
1143.000	657.661	80.009	19.994	104.643	20.194	1.719	0.505
1143.500	657.956	80.008	19.993	104.643	20.191	1.937	0.504
1144.001	658.209	80.011	19.995	104.643	20.189	2.060	0.540
1144.501	658.434	80.010	19.994	104.643	20.190	1.974	0.513
1145.000	658.720	80.010	19.993	104.642	20.191	1.904	0.495
1145.501	658.947	80.009	19.994	104.642	20.191	1.904	0.512
1146.001	659.219	80.010	19.995	104.642	20.191	1.953	0.506
1146.500	659.466	80.008	19.994	104.641	20.194	1.750	0.509
1147.000	659.698	80.009	19.994	104.640	20.195	1.632	0.499
1147.500	659.993	80.009	19.995	104.639	20.191	1.950	0.503
1148.000	660.260	80.009	19.993	104.639	20.194	1.696	0.544
1148.501	660.497	80.008	19.994	104.639	20.193	1.808	0.533
1149.000	660.787	80.007	19.995	104.640	20.192	1.854	0.516
1149.500	661.007	80.008	19.993	104.641	20.192	1.874	0.519
1150.000	661.307	80.009	19.993	104.643	20.193	1.786	0.515
1150.500	661.540	80.009	19.994	104.643	20.192	1.865	0.526
1151.001	661.848	80.009	19.993	104.643	20.193	1.821	0.537
1151.501	662.055	80.009	19.994	104.649	20.192	1.847	0.528
1152.001	662.286	80.008	19.993	104.657	20.194	1.724	0.477
1152.501	662.702	80.009	19.994	104.663	20.190	1.961	0.543
1153.001	662.948	80.008	19.993	104.663	20.193	1.805	0.654
1153.501	663.068	80.008	19.995	104.662	20.190	1.997	0.513
1154.001	663.537	80.007	19.994	104.656	20.192	1.856	0.478
1154.501	663.940	80.007	19.994	104.648	20.193	1.825	0.731
1155.000	663.714	80.008	19.995	104.642	20.190	1.999	0.525
1155.500	664.286	80.008	19.993	104.643	20.190	1.986	0.262
1156.000	664.447	80.009	19.993	104.645	20.189	2.047	0.539
1156.500	664.666	80.009	19.994	104.645	20.192	1.874	0.556
1157.000	664.920	80.007	19.995	104.645	20.193	1.823	0.426
1157.501	665.153	80.009	19.994	104.645	20.191	1.926	0.480
1158.001	665.316	80.007	19.993	104.644	20.196	1.581	0.441
1158.500	665.668	80.007	19.994	104.643	20.194	1.724	0.456
1159.000	665.951	80.007	19.994	104.644	20.195	1.669	0.575
1159.501	666.203	80.008	19.994	104.647	20.195	1.669	0.585
1160.001	666.391	80.008	19.994	104.647	20.195	1.649	0.488
1160.500	666.695	80.008	19.994	104.647	20.193	1.772	0.466
1161.000	666.941	80.009	19.993	104.648	20.193	1.805	0.520
1161.501	667.238	80.008	19.994	104.650	20.192	1.849	0.546
1162.000	667.487	80.008	19.995	104.648	20.195	1.663	0.545
1162.500	667.706	80.009	19.995	104.648	20.191	1.939	0.507
1163.000	667.942	80.009	19.995	104.648	20.194	1.755	0.461
1163.501	668.272	80.008	19.994	104.647	20.194	1.718	0.511
1164.000	668.461	80.009	19.994	104.644	20.195	1.684	0.542
1164.500	668.773	80.009	19.994	104.644	20.194	1.720	0.510
1165.000	668.970	80.007	19.994	104.644	20.192	1.889	0.505
1165.501	669.319	80.009	19.993	104.644	20.196	1.610	0.528
1166.001	669.502	80.007	19.993	104.642	20.198	1.469	0.539
1166.501	669.780	80.008	19.995	104.642	20.192	1.871	0.496
1167.000	669.972	80.009	19.996	104.642	20.194	1.746	0.466
1167.500	670.317	80.008	19.994	104.643	20.199	1.401	0.504
1168.000	670.518	80.008	19.995	104.644	20.186	2.253	0.541
1168.500	670.825	80.009	19.996	104.644	20.199	1.366	0.527
1169.001	671.011	80.008	19.994	104.644	20.195	1.676	0.501
1169.501	671.269	80.008	19.995	104.644	20.194	1.700	0.468
1170.001	671.551	80.009	19.995	104.643	20.196	1.617	0.492
1170.500	671.823	80.009	19.994	104.643	20.195	1.663	0.547
1171.000	672.054	80.009	19.996	104.646	20.195	1.687	0.528
1171.501	672.356	80.009	19.994	104.647	20.193	1.781	0.518
1172.000	672.595	80.009	19.995	104.649	20.190	1.997	0.536
1172.500	672.875	80.008	19.994	104.651	20.195	1.641	0.530
1173.001	673.084	80.008	19.995	104.651	20.192	1.830	0.505
1173.501	673.374	80.010	19.994	104.647	20.196	1.619	0.494
1174.000	673.635	80.010	19.995	104.648	20.191	1.931	0.524
1174.500	673.885	80.009	19.994	104.646	20.193	1.816	0.531
1175.000	674.153	80.008	19.994	104.645	20.196	1.584	0.515
1175.500	674.363	80.007	19.995	104.645	20.195	1.636	0.498
1176.001	674.666	80.009	19.995	104.646	20.194	1.709	0.495
1176.501	674.885	80.009	19.993	104.644	20.189	2.044	0.518
1177.001	675.222	80.009	19.994	104.644	20.195	1.663	0.539
1177.501	675.434	80.009	19.993	104.646	20.188	2.124	0.552
1178.000	675.710	80.008	19.994	104.647	20.191	1.928	0.519
1178.500	675.969	80.008	19.993	104.647	20.192	1.856	0.512
1179.000	676.205	80.008	19.994	104.646	20.192	1.849	0.515
1179.500	676.501	80.009	19.993	104.647	20.192	1.843	0.514
1180.001	676.936	80.009	19.993	104.646	20.191	1.935	0.631
1180.501	676.762	80.008	19.993	104.645	20.191	1.946	0.495
1181.001	677.413	80.008	19.994	104.645	20.192	1.836	0.369
1181.500	677.666	80.007	19.994	104.645	20.190	1.968	0.691
1182.000	677.304	80.008	19.994	104.644	20.191	1.924	0.397
1182.501	678.230	80.008	19.994	104.645	20.190	2.019	0.228
1183.001	678.289	80.008	19.994	104.646	20.191	1.941	0.775
1183.501	678.569	80.009	19.994	104.646	20.193	1.775	0.661
1184.001	678.846	80.008	19.994	104.646	20.191	1.902	0.448
1184.500	679.076	80.007	19.994	104.646	20.193	1.814	0.532
1185.000	679.331	80.008	19.993	104.647	20.190	1.990	0.496
1185.500	679.596	80.008	19.993	104.649	20.192	1.863	0.503
1186.000	679.841	80.009	19.995	104.651	20.189	2.062	0.515
1186.500	680.072	80.008	19.993	104.651	20.194	1.709	0.492
1187.000	680.349	80.009	19.993	104.653	20.191	1.944	0.492
1187.500	680.603	80.010	19.993	104.653	20.194	1.735	0.520
1188.001	680.796	80.009	19.994	104.651	20.188	2.098	0.489
1188.500	681.135	80.008	19.994	104.650	20.188	2.098	0.489
1189.000	681.362	80.010	19.993	104.651	20.189	2.078	0.549
1189.501	681.607	80.009	19.994	104.649	20.190	1.999	0.519
1190.001	681.844	80.010	19.995	104.647	20.190	2.012	0.477
1190.501	682.114	80.008	19.994	104.646	20.190	1.963	0.494
1191.001	682.397	80.008	19.994	104.646	20.189	2.075	0.530
1191.501	682.657	80.009	19.994	104.645	20.188	2.141	0.548
1192.000	682.923	80.011	19.993	104.645	20.186	2.264	0.535
1192.500	683.175	80.009	19.994	104.645	20.186	2.278	0.522
1193.001	683.437	80.009	19.994	104.645	20.188	2.155	0.515
1193.501	683.690	80.010	19.993	104.645	20.186	2.275	0.514
1194.000	683.939	80.009	19.994	104.645	20.186	2.267	0.509
1194.500	684.197	80.009	19.994	104.645	20.187	2.165	0.505
1195.001	684.395	80.009	19.995	104.646	20.190	2.025	0.482
1195.501	684.725	80.011	19.995	104.647	20.188	2.135	0.492
1196.001	684.965	80.009	19.995	104.647	20.188	2.121	0.549
1196.500	685.169	80.010	19.994	104.648	20.185	2.306	0.508
1197.000	685.439	80.007	19.995	104.648	20.189	2.049	0.459
1197.500	685.743	80.009	19.993	104.647	20.188	2.095	0.524
1198.000	685.951	80.008	19.992	104.646	20.190	1.988	0.543
1198.501	686.238	80.008	19.994	104.646	20.186	2.240	0.503
1199.001	686.479	80.009	19.994	104.646	20.186	2.240	0.511
1199.500	686.709	80.008	19.994	104.646	20.191	1.950	0.500
1200.001	687.008	80.007	19.995	104.647	20.189	2.045	0.500
1200.501	687.385	80.008	19.994	104.646	20.190	2.019	0.602
1201.001	687.363	80.009	19.994	104.647	20.187	2.183	0.516
1201.501	687.834	80.009	19.994	104.646	20.187	2.175	0.403
1202.001	688.042	80.008	19.994	104.646	20.190	2.019	0.564
1202.500	688.260	80.008	19.995	104.646	20.189	2.076	0.552
1203.000	688.524	80.009	19.995	104.646	20.187	2.212	0.454
1203.500	688.792	80.009	19.994	104.646	20.188	2.144	0.507
1204.000	689.052	80.009	19.994	104.645	20.188	2.144	0.530
1204.501	689.269	80.009	19.995	104.646	20.188	2.135	0.503
1205.000	689.590	80.009	19.994	104.646	20.187	2.188	0.507
1205.500	689.844	80.008	19.995	104.646	20.185	2.304	0.557
1206.000	690.097	80.008	19.994	104.647	20.187	2.214	0.541
1206.500	690.316	80.009	19.995	104.650	20.187	2.210	0.489
1207.000	690.552	80.009	19.994	104.651	20.186	2.247	0.463
1207.500	690.828	80.010	19.995	104.651	20.186	2.291	0.484
1208.001	691.109	80.008	19.994	104.650	20.190	2.012	0.535
1208.500	691.354	80.009	19.994	104.651	20.188	2.120	0.542
1209.000	691.629	80.009	19.994	104.649	20.189	2.067	0.523
1209.501	691.877	80.009	19.994	104.646	20.189	2.041	0.521
1210.001	692.147	80.009	19.994	104.646	20.187	2.203	0.521
1210.500	692.395	80.008	19.994	104.646	20.186	2.242	0.518
1211.000	692.652	80.009	19.994	104.645	20.187	2.181	0.512
1211.500	692.938	80.009	19.994	104.642	20.183	2.454	0.524
1212.000	693.184	80.010	19.995	104.642	20.188	2.137	0.537
1212.501	693.443	80.010	19.995	104.642	20.185	2.295	0.518
1213.000	693.702	80.011	19.995	104.642	20.187	2.223	0.512
1213.500	693.958	80.011	19.995	104.641	20.186	2.234	0.517
1214.001	694.241	80.011	19.995	104.641	20.186	2.276	0.527
1214.501	694.503	80.009	19.995	104.640	20.185	2.339	0.542
1215.001	694.736	80.010	19.994	104.641	20.188	2.159	0.520
1215.501	694.997	80.010	19.995	104.640	20.185	2.315	0.495
1216.000	695.302	80.009	19.995	104.640	20.186	2.229	0.530
1216.499	695.540	80.010	19.995	104.640	20.186	2.251	0.554
1217.000	695.777	80.010	19.996	104.640	20.187	2.212	0.509
1217.501	696.033	80.011	19.996	104.638	20.186	2.278	0.484
1218.001	696.284	80.010	19.994	104.638	20.186	2.253	0.500
1218.501	696.547	80.011	19.994	104.638	20.184	2.377	0.510
1219.000	696.808	80.011	19.994	104.639	20.185	2.309	0.519
1219.499	697.042	80.011	19.995	104.639	20.186	2.291	0.510
1219.999	697.309	80.011	19.993	104.640	20.186	2.291	0.498
1220.500	697.566	80.011	19.995	104.640	20.186	2.287	0.513
1221.001	697.832	80.010	19.995	104.640	20.188	2.150	0.524
1221.500	698.066	80.009	19.993	104.640	20.184	2.376	0.512
1221.999	698.343	80.011	19.995	104.640	20.187	2.164	0.505
1222.500	698.622	80.008	19.994	104.640	20.183	2.458	0.533
1223.001	698.879	80.008	19.994	104.641	20.188	2.120	0.546
1223.500	699.126	80.009	19.995	104.641	20.185	2.355	0.520
1223.999	699.402	80.009	19.996	104.641	20.181	2.570	0.513
1224.500	699.643	80.009	19.995	104.640	20.186	2.289	0.520
1225.001	699.905	80.008	19.995	104.637	20.186	2.263	0.510
1225.501	700.158	80.009	19.995	104.635	20.184	2.379	0.509
1226.000	700.429	80.009	19.994	104.635	20.184	2.399	0.519
1226.500	700.638	80.008	19.998	104.634	20.186	2.256	0.502
1227.001	700.931	80.007	19.996	104.635	20.184	2.398	0.491
1227.501	701.165	80.008	19.996	104.639	20.186	2.232	0.515
1228.001	701.437	80.009	19.995	104.639	20.186	2.232	0.516
1228.501	701.686	80.009	19.996	104.640	20.187	2.168	0.513
1229.000	701.932	80.008	19.994	104.639	20.185	2.348	0.507
1229.500	702.223	80.008	19.996	104.639	20.187	2.188	0.516
1230.000	702.443	80.008	19.996	104.638	20.185	2.337	0.524
1230.500	702.692	80.007	19.996	104.639	20.186	2.269	0.490
1231.000	702.995	80.009	19.995	104.638	20.185	2.309	0.511
1231.499	703.208	80.007	19.996	104.640	20.184	2.368	0.534
1232.000	703.474	80.008	19.996	104.642	20.184	2.385	0.497
1232.501	703.725	80.008	19.995	104.643	20.186	2.229	0.497
1233.001	703.998	80.009	19.994	104.643	20.188	2.108	0.520
1233.501	704.265	80.008	19.994	104.641	20.185	2.359	0.532
1234.000	704.529	80.009	19.995	104.638	20.187	2.181	0.535
1234.500	704.758	80.007	19.996	104.633	20.185	2.348	0.512
1235.000	705.038	80.008	19.994	104.632	20.186	2.243	0.501
1235.499	705.338	80.008	19.994	104.632	20.187	2.190	0.544
1235.999	705.577	80.010	19.995	104.633	20.189	2.067	0.560
1236.499	705.788	80.010	19.994	104.637	20.183	2.436	0.495
1236.999	706.088	80.009	19.993	104.639	20.187	2.161	0.481
1237.500	706.345	80.009	19.995	104.640	20.186	2.255	0.533
1238.001	706.597	80.009	19.994	104.640	20.188	2.155	0.533
1238.500	706.814	80.009	19.994	104.641	20.188	2.109	0.489
1239.000	707.093	80.009	19.995	104.640	20.184	2.390	0.483
1239.500	707.330	80.009	19.995	104.641	20.186	2.231	0.506
1240.000	707.581	80.007	19.996	104.640	20.190	2.016	0.502
1240.500	707.869	80.009	19.995	104.640	20.188	2.100	0.514
1241.000	708.132	80.008	19.995	104.641	20.188	2.148	0.546
1241.500	708.371	80.008	19.994	104.642	20.184	2.368	0.526
1242.000	708.654	80.009	19.994	104.642	20.190	1.984	0.512
1242.500	708.936	80.008	19.995	104.643	20.189	2.073	0.543
1243.000	709.135	80.008	19.995	104.643	20.191	1.917	0.523
1243.500	709.405	80.009	19.994	104.644	20.188	2.139	0.475
1244.000	709.647	80.009	19.993	104.643	20.188	2.157	0.490
1244.499	709.941	80.010	19.993	104.644	20.186	2.227	0.524
1244.999	710.175	80.009	19.994	104.644	20.189	2.063	0.532
1245.500	710.422	80.009	19.994	104.643	20.187	2.221	0.505
1246.000	710.654	80.009	19.993	104.645	20.188	2.139	0.480
1246.500	710.945	80.010	19.993	104.648	20.191	1.957	0.501
1247.000	711.156	80.009	19.995	104.648	20.186	2.243	0.512
1247.500	711.451	80.009	19.994	104.650	20.189	2.074	0.504
1247.999	711.681	80.008	19.994	104.650	20.189	2.058	0.516
1248.500	711.954	80.007	19.995	104.649	20.188	2.120	0.514
1249.000	712.241	80.009	19.993	104.646	20.191	1.898	0.531
1249.500	712.478	80.009	19.994	104.646	20.188	2.128	0.542
1250.001	712.725	80.009	19.994	104.645	20.188	2.108	0.504
1250.500	712.944	80.009	19.995	104.646	20.188	2.097	0.475
1251.000	713.198	80.007	19.995	104.645	20.187	2.166	0.469
1251.500	713.437	80.009	19.993	104.645	20.185	2.330	0.483
1251.999	713.683	80.009	19.994	104.645	20.186	2.254	0.489
1252.500	713.976	80.009	19.994	104.642	20.186	2.273	0.512
1253.001	714.179	80.009	19.994	104.639	20.184	2.405	0.517
1253.500	714.477	80.009	19.994	104.638	20.186	2.265	0.498
1253.999	714.722	80.009	19.994	104.638	20.190	2.003	0.522
1254.499	714.948	80.008	19.994	104.638	20.185	2.326	0.507
1254.999	715.229	80.008	19.995	104.640	20.185	2.306	0.489
1255.500	715.480	80.009	19.995	104.642	20.187	2.196	0.520
1256.000	715.732	80.008	19.994	104.642	20.187	2.188	0.518
1256.499	715.963	80.008	19.994	104.642	20.183	2.467	0.493
1257.000	716.245	80.009	19.994	104.642	20.185	2.359	0.498
1257.501	716.445	80.007	19.994	104.643	20.185	2.346	0.498
1258.001	716.737	80.009	19.994	104.643	20.187	2.216	0.487
1258.501	716.967	80.008	19.995	104.639	20.187	2.214	0.507
1259.001	717.237	80.007	19.995	104.639	20.185	2.306	0.511
1259.500	717.455	80.008	19.994	104.639	20.187	2.225	0.494
1259.999	717.688	80.008	19.994	104.639	20.187	2.216	0.469
1260.499	717.926	80.008	19.993	104.640	20.186	2.269	0.461
1260.999	718.167	80.007	19.994	104.645	20.186	2.249	0.475
1261.499	718.427	80.007	19.994	104.645	20.185	2.298	0.491
1261.999	718.669	80.007	19.995	104.644	20.187	2.212	0.501
1262.499	718.908	80.007	19.993	104.642	20.186	2.262	0.491
1262.999	719.208	80.006	19.995	104.642	20.184	2.405	0.510
1263.499	719.415	80.007	19.995	104.643	20.186	2.238	0.523
1263.999	719.619	80.008	19.995	104.644	20.184	2.372	0.459
1264.499	719.866	80.008	19.993	104.645	20.185	2.348	0.431
1264.999	720.132	80.008	19.995	104.646	20.188	2.148	0.482
1265.499	720.380	80.008	19.995	104.646	20.188	2.107	0.514
1265.999	720.593	80.007	19.994	104.645	20.187	2.199	0.488
1266.500	720.855	80.010	19.994	104.643	20.185	2.302	0.468
1267.000	721.077	80.009	19.994	104.643	20.186	2.238	0.479
1267.499	721.330	80.009	19.993	104.643	20.185	2.337	0.479
1267.999	721.562	80.010	19.994	104.644	20.185	2.308	0.481
1268.500	721.831	80.008	19.994	104.644	20.187	2.177	0.494
1269.001	722.067	80.010	19.994	104.646	20.183	2.427	0.503
1269.501	722.314	80.010	19.994	104.647	20.187	2.210	0.493
1270.000	722.561	80.009	19.993	104.647	20.185	2.343	0.488
1270.500	722.769	80.010	19.994	104.647	20.185	2.324	0.475
1271.000	723.043	80.010	19.994	104.646	20.185	2.315	0.469
1271.499	723.255	80.009	19.995	104.645	20.187	2.203	0.484
1272.000	723.542	80.011	19.994	104.644	20.187	2.179	0.492
1272.500	723.747	80.010	19.995	104.643	20.184	2.361	0.495
1273.000	724.013	80.011	19.994	104.636	20.186	2.254	0.481
1273.501	724.235	80.011	19.994	104.632	20.180	2.633	0.480
1274.000	724.468	80.010	19.993	104.632	20.182	2.506	0.472
1274.500	724.751	80.011	19.992	104.632	20.182	2.557	0.485
1275.001	724.958	80.010	19.993	104.632	20.181	2.612	0.503
1275.501	725.200	80.010	19.994	104.636	20.182	2.552	0.469
1276.001	725.478	80.010	19.994	104.637	20.184	2.398	0.484
1276.501	725.677	80.011	19.994	104.637	20.183	2.486	0.499
1277.001	725.949	80.011	19.993	104.636	20.185	2.313	0.474
1277.500	726.156	80.012	19.994	104.637	20.185	2.359	0.475
1277.999	726.390	80.011	19.993	104.638	20.184	2.370	0.460
1278.499	726.649	80.010	19.994	104.641	20.185	2.319	0.467
1278.999	726.896	80.009	19.994	104.640	20.185	2.328	0.500
1279.499	727.172	80.010	19.995	104.640	20.184	2.394	0.515
1280.000	727.396	80.009	19.995	104.638	20.184	2.372	0.511
1280.501	727.622	80.010	19.994	104.640	20.183	2.455	0.475
1281.001	727.867	80.010	19.996	104.643	20.185	2.315	0.461
1281.500	728.110	80.008	19.994	104.645	20.181	2.580	0.479
1282.000	728.356	80.010	19.994	104.646	20.183	2.456	0.488
1282.501	728.589	80.010	19.993	104.648	20.181	2.561	0.484
1283.000	728.834	80.009	19.995	104.645	20.184	2.394	0.478
1283.499	729.098	80.010	19.994	104.643	20.183	2.436	0.493
1284.000	729.312	80.010	19.994	104.640	20.180	2.653	0.493
1284.500	729.560	80.009	19.996	104.639	20.181	2.616	0.470
1284.999	729.784	80.009	19.995	104.639	20.182	2.498	0.467
1285.500	730.087	80.009	19.993	104.640	20.184	2.396	0.500
1286.000	730.292	80.008	19.994	104.639	20.179	2.702	0.518
1286.499	730.525	80.009	19.995	104.641	20.183	2.462	0.473
1287.000	730.787	80.009	19.996	104.646	20.178	2.798	0.466
1287.500	731.034	80.010	19.996	104.647	20.180	2.638	0.502
1287.999	731.277	80.008	19.997	104.647	20.177	2.842	0.500
1288.500	731.535	80.010	19.994	104.648	20.177	2.877	0.496
1289.001	731.789	80.009	19.996	104.647	20.181	2.605	0.507
1289.500	731.999	80.009	19.996	104.642	20.183	2.453	0.488
1289.999	732.275	80.009	19.995	104.640	20.176	2.913	0.475
1290.499	732.539	80.010	19.995	104.640	20.179	2.754	0.512
1291.000	732.788	80.008	19.995	104.640	20.181	2.623	0.526
1291.500	733.041	80.009	19.995	104.642	20.180	2.673	0.507
1292.000	733.300	80.008	19.995	104.647	20.181	2.590	0.507
1292.501	733.530	80.011	19.995	104.648	20.178	2.770	0.501
1293.001	733.807	80.010	19.995	104.648	20.176	2.952	0.498
1293.501	734.060	80.011	19.994	104.648	20.179	2.721	0.519
1294.000	734.297	80.010	19.994	104.643	20.177	2.856	0.510
1294.500	734.513	80.011	19.995	104.640	20.175	2.963	0.472
1295.001	734.797	80.011	19.994	104.637	20.178	2.798	0.476
1295.501	735.008	80.012	19.995	104.637	20.177	2.879	0.497
1296.001	735.279	80.012	19.996	104.637	20.181	2.594	0.489
1296.501	735.602	80.012	19.994	104.640	20.178	2.809	0.538
1297.000	735.769	80.011	19.994	104.640	20.180	2.662	0.542
1297.500	736.020	80.011	19.996	104.641	20.180	2.677	0.454
1298.000	736.252	80.013	19.996	104.640	20.180	2.642	0.450
1298.499	736.507	80.011	19.994	104.640	20.180	2.631	0.485
1298.999	736.781	80.012	19.993	104.638	20.182	2.550	0.509
1299.500	737.068	80.010	19.994	104.639	20.184	2.396	0.545
1300.001	737.269	80.011	19.995	104.638	20.180	2.686	0.524
1300.500	737.506	80.011	19.995	104.639	20.184	2.425	0.463
1300.999	737.741	80.010	19.995	104.639	20.179	2.728	0.455
1301.499	737.976	80.012	19.993	104.639	20.184	2.403	0.471
1302.000	738.268	80.011	19.995	104.639	20.180	2.664	0.499
1302.501	738.507	80.010	19.995	104.639	20.183	2.440	0.529
1303.000	738.724	80.010	19.994	104.636	20.185	2.344	0.494
1303.500	739.019	80.010	19.994	104.634	20.182	2.554	0.484
1304.001	739.270	80.010	19.994	104.634	20.181	2.609	0.529
1304.501	739.513	80.010	19.993	104.634	20.181	2.565	0.520
1305.000	739.765	80.010	19.994	104.635	20.181	2.600	0.495
1305.500	740.030	80.011	19.995	104.638	20.182	2.557	0.506
1306.000	740.263	80.010	19.995	104.640	20.184	2.396	0.507
1306.500	740.498	80.010	19.994	104.641	20.178	2.824	0.483
1307.000	740.779	80.009	19.995	104.640	20.180	2.638	0.492
1307.500	741.062	80.009	19.994	104.640	20.180	2.688	0.541
1308.000	741.264	80.009	19.994	104.640	20.182	2.559	0.524
1308.500	741.524	80.009	19.994	104.640	20.181	2.616	0.473
1309.000	741.766	80.010	19.994	104.640	20.178	2.765	0.482
1309.500	742.066	80.010	19.995	104.642	20.180	2.691	0.522
1310.000	742.276	80.009	19.995	104.642	20.177	2.836	0.526
1310.500	742.531	80.008	19.995	104.642	20.175	3.016	0.487
1311.000	742.814	80.009	19.994	104.642	20.179	2.730	0.502
1311.500	743.087	80.008	19.995	104.643	20.181	2.618	0.547
1312.000	743.332	80.009	19.993	104.643	20.174	3.057	0.537
1312.500	743.579	80.009	19.995	104.643	20.179	2.710	0.505
