Sample ID:	C:\MCC\MCC Cal\Test\Oak_HWF_MCC_30K_min_211105_R2.txt
Sample Weight (mg):	4.81
Heating Rate (C/s):	0.5
Combustor Temp (C):	900
N2 Flow Rate (cc/min):	80
O2 Flow Rate (cc/min):	20
Calibration File:	C:\MCC\MCC Cal\Coeff1 JN10440_30_210304.txt.txt
T Correction Coefficients:	0	1.024463	0
Time Shift (s):	14
*
Time (s)	Temperature (C)	N2 flow rate (cc/min)	O2 flow rate (cc/min)	Flow Rate (cc/min)	Oxygen (%)	HRR (W/g)	Heating rate (C/s)
0.000	106.032	80.027	19.997	103.019	20.203	-0.011	0.037
0.500	106.067	80.027	19.997	103.019	20.207	-0.251	0.033
1.000	106.044	80.025	20.000	103.019	20.206	-0.198	0.020
1.500	106.043	80.027	19.999	103.018	20.204	-0.080	-0.006
2.000	106.039	80.027	19.996	103.017	20.202	0.065	-0.015
2.500	106.041	80.025	19.998	103.017	20.202	0.055	-0.004
3.000	106.045	80.027	19.996	103.016	20.204	-0.044	0.002
3.500	106.018	80.027	19.995	103.019	20.206	-0.237	-0.009
4.000	106.031	80.025	19.995	103.022	20.206	-0.197	-0.019
4.500	106.008	80.028	19.996	103.025	20.203	0.024	-0.012
5.000	106.039	80.027	19.998	103.027	20.204	-0.071	-0.000
5.500	106.025	80.026	19.997	103.029	20.208	-0.346	0.013
6.000	106.021	80.027	19.996	103.026	20.200	0.207	-0.001
6.500	106.007	80.024	19.997	103.023	20.203	0.020	-0.018
7.000	106.039	80.026	19.995	103.020	20.206	-0.173	0.000
7.500	105.991	80.026	19.996	103.021	20.207	-0.240	0.001
8.000	105.985	80.029	19.994	103.019	20.206	-0.215	-0.035
8.500	106.021	80.030	19.992	103.021	20.205	-0.129	-0.012
9.000	106.025	80.033	19.991	103.022	20.203	0.020	0.035
9.500	106.039	80.026	19.997	103.023	20.204	-0.091	0.029
10.001	106.039	80.026	19.995	103.020	20.205	-0.126	0.016
10.501	105.984	80.026	19.996	103.020	20.198	0.346	-0.021
11.000	105.991	80.024	19.997	103.021	20.205	-0.171	-0.052
11.500	106.010	80.026	19.998	103.020	20.200	0.206	-0.011
12.000	105.982	80.026	19.996	103.020	20.200	0.204	0.009
12.500	106.030	80.026	19.997	103.024	20.202	0.078	0.006
13.000	106.014	80.023	19.995	103.033	20.196	0.437	0.026
13.500	106.010	80.024	19.996	103.046	20.194	0.606	0.006
14.001	106.038	80.020	19.997	103.059	20.192	0.710	0.002
14.501	106.063	80.017	19.997	103.074	20.196	0.475	0.038
15.000	106.094	80.013	19.995	103.084	20.189	0.918	0.055
15.500	106.080	80.012	19.996	103.090	20.188	1.007	0.037
16.000	106.072	80.012	19.994	103.091	20.190	0.891	-0.003
16.500	106.066	80.017	19.997	103.094	20.188	0.993	-0.018
17.000	106.012	80.020	19.996	103.093	20.184	1.295	-0.037
17.500	106.074	80.022	19.997	103.095	20.185	1.188	-0.026
18.000	106.084	80.024	19.998	103.103	20.184	1.241	0.041
18.500	106.117	80.022	19.997	103.111	20.185	1.186	0.058
19.000	106.134	80.023	19.996	103.118	20.177	1.716	0.047
19.500	106.122	80.023	19.997	103.130	20.183	1.339	0.028
20.000	106.132	80.025	19.998	103.143	20.183	1.343	0.001
20.500	106.180	80.025	19.998	103.149	20.179	1.632	0.027
21.000	106.166	80.022	19.997	103.156	20.173	1.982	0.046
21.500	106.195	80.014	19.999	103.163	20.174	1.928	0.025
22.000	106.240	80.020	19.997	103.168	20.176	1.798	0.045
22.500	106.276	80.015	19.996	103.172	20.171	2.150	0.077
23.000	106.299	80.014	19.997	103.180	20.176	1.806	0.070
23.500	106.319	80.013	19.997	103.180	20.176	1.808	0.052
24.000	106.338	80.013	19.996	103.181	20.174	1.941	0.041
24.500	106.336	80.012	19.995	103.182	20.175	1.866	0.028
25.000	106.408	80.009	19.998	103.179	20.173	1.985	0.044
25.500	106.432	80.011	19.995	103.175	20.173	1.990	0.083
26.000	106.476	80.007	19.995	103.177	20.169	2.287	0.082
26.500	106.470	80.007	19.997	103.181	20.169	2.289	0.053
27.000	106.560	80.009	19.995	103.188	20.172	2.076	0.061
27.500	106.587	80.010	19.996	103.195	20.164	2.626	0.100
28.000	106.614	80.009	19.996	103.201	20.170	2.205	0.085
28.500	106.689	80.010	19.995	103.207	20.168	2.338	0.078
29.000	106.746	80.012	19.995	103.206	20.172	2.090	0.117
29.500	106.750	80.001	19.998	103.204	20.170	2.213	0.097
30.000	106.832	80.009	19.996	103.205	20.169	2.264	0.074
30.500	106.886	80.008	19.997	103.208	20.166	2.451	0.111
31.000	106.967	80.003	19.998	103.208	20.166	2.486	0.136
31.500	107.017	80.009	19.994	103.217	20.163	2.670	0.133
32.000	107.086	80.009	19.995	103.224	20.164	2.639	0.125
32.500	107.150	80.008	19.997	103.224	20.162	2.750	0.126
33.000	107.218	80.007	19.995	103.225	20.156	3.142	0.132
33.500	107.278	80.010	19.996	103.227	20.164	2.608	0.129
34.000	107.311	80.010	19.995	103.230	20.165	2.559	0.110
34.500	107.396	80.010	19.996	103.232	20.160	2.865	0.105
35.000	107.469	80.015	19.993	103.238	20.163	2.663	0.138
35.500	107.524	80.025	19.996	103.245	20.154	3.257	0.143
36.000	107.615	80.023	19.998	103.252	20.166	2.475	0.137
36.501	107.696	80.025	19.994	103.253	20.157	3.057	0.159
37.001	107.816	80.026	19.997	103.259	20.160	2.877	0.186
37.500	107.880	80.024	19.996	103.259	20.161	2.809	0.193
38.000	107.981	80.025	19.995	103.260	20.161	2.817	0.174
38.500	108.058	80.025	19.994	103.259	20.158	3.026	0.172
39.000	108.120	80.023	19.996	103.259	20.156	3.136	0.159
39.500	108.207	80.024	19.996	103.255	20.158	3.037	0.144
40.000	108.297	80.024	19.995	103.255	20.156	3.134	0.163
40.500	108.416	80.023	19.993	103.258	20.156	3.148	0.193
41.000	108.516	80.022	19.996	103.260	20.162	2.764	0.214
41.500	108.624	80.024	19.992	103.261	20.156	3.168	0.213
42.000	108.703	80.026	19.996	103.263	20.155	3.205	0.198
42.501	108.815	80.023	19.996	103.266	20.147	3.728	0.189
43.001	108.909	80.026	19.996	103.265	20.153	3.356	0.198
43.500	109.018	80.026	19.997	103.265	20.152	3.396	0.204
44.000	109.105	80.024	19.996	103.265	20.151	3.500	0.200
44.500	109.279	80.026	19.996	103.264	20.150	3.513	0.229
45.000	109.310	80.024	19.996	103.262	20.153	3.353	0.233
45.500	109.415	80.026	19.996	103.261	20.148	3.714	0.170
46.000	109.541	80.021	19.998	103.264	20.148	3.648	0.183
46.501	109.639	80.029	19.997	103.269	20.153	3.358	0.228
47.001	109.798	80.026	19.995	103.276	20.151	3.499	0.240
47.500	109.884	80.025	19.998	103.282	20.147	3.770	0.251
48.000	110.031	80.023	19.996	103.286	20.159	2.972	0.240
48.500	110.144	80.026	19.996	103.284	20.151	3.462	0.247
49.000	110.262	80.024	19.995	103.285	20.146	3.792	0.245
49.500	110.376	80.025	19.996	103.285	20.151	3.449	0.231
50.000	110.511	80.024	19.997	103.283	20.149	3.592	0.240
50.500	110.652	80.024	19.996	103.282	20.152	3.444	0.262
51.000	110.778	80.023	19.994	103.284	20.155	3.189	0.271
51.500	110.894	80.025	19.997	103.283	20.150	3.557	0.255
52.000	111.041	80.026	19.998	103.284	20.147	3.768	0.253
52.500	111.161	80.025	19.996	103.286	20.149	3.628	0.265
53.000	111.291	80.023	19.997	103.287	20.146	3.830	0.258
53.500	111.447	80.026	19.995	103.287	20.157	3.103	0.268
54.001	111.547	80.024	19.996	103.287	20.152	3.389	0.271
54.501	111.725	80.024	19.996	103.288	20.149	3.592	0.267
55.000	111.824	80.024	19.997	103.289	20.149	3.616	0.277
55.500	111.953	80.027	19.996	103.290	20.151	3.512	0.253
56.000	112.112	80.026	19.996	103.290	20.149	3.625	0.258
56.500	112.241	80.025	19.996	103.293	20.149	3.607	0.288
57.000	112.357	80.027	19.996	103.295	20.151	3.470	0.266
57.500	112.548	80.024	19.994	103.296	20.150	3.541	0.276
58.000	112.709	80.026	19.996	103.295	20.147	3.776	0.330
58.501	112.819	80.022	19.995	103.295	20.148	3.683	0.312
59.001	112.978	80.023	19.997	103.291	20.150	3.574	0.270
59.500	113.129	80.021	19.996	103.290	20.151	3.466	0.289
60.000	113.276	80.016	19.995	103.292	20.141	4.176	0.304
60.500	113.454	80.019	19.996	103.293	20.149	3.628	0.311
61.000	113.645	80.018	19.997	103.294	20.144	3.960	0.347
61.500	113.761	80.021	19.997	103.294	20.146	3.815	0.338
62.000	113.901	80.018	19.996	103.293	20.144	3.922	0.282
62.500	114.100	80.015	19.996	103.291	20.145	3.913	0.298
63.000	114.268	80.014	19.994	103.290	20.145	3.895	0.353
63.500	114.418	80.015	19.995	103.289	20.146	3.785	0.342
64.000	114.582	80.017	19.995	103.292	20.147	3.732	0.316
64.500	114.739	80.015	19.996	103.294	20.146	3.816	0.318
65.000	114.937	80.014	19.996	103.299	20.141	4.168	0.339
65.500	115.070	80.017	19.995	103.304	20.145	3.893	0.343
66.000	115.247	80.012	19.994	103.309	20.150	3.525	0.320
66.500	115.446	80.014	19.995	103.313	20.140	4.214	0.343
67.000	115.562	80.016	19.994	103.318	20.144	3.934	0.346
67.500	115.785	80.014	19.997	103.320	20.147	3.748	0.327
68.000	115.934	80.013	19.996	103.318	20.143	4.012	0.355
68.500	116.126	80.012	19.995	103.317	20.146	3.837	0.357
69.000	116.290	80.012	19.995	103.313	20.145	3.908	0.349
69.501	116.444	80.014	19.996	103.310	20.145	3.873	0.337
70.001	116.642	80.016	19.996	103.307	20.135	4.520	0.335
70.500	116.816	80.013	19.996	103.307	20.143	4.019	0.362
71.000	116.987	80.017	19.998	103.307	20.140	4.195	0.358
71.500	117.197	80.015	19.999	103.305	20.144	3.929	0.363
72.000	117.371	80.017	19.997	103.305	20.147	3.720	0.383
72.500	117.527	80.015	19.996	103.308	20.145	3.904	0.357
73.000	117.703	80.012	19.997	103.310	20.144	3.949	0.331
73.500	117.922	80.011	19.996	103.312	20.140	4.184	0.363
74.000	118.073	80.012	19.996	103.313	20.138	4.323	0.382
74.500	118.266	80.012	19.996	103.309	20.142	4.101	0.358
75.000	118.479	80.016	19.994	103.305	20.135	4.573	0.376
75.500	118.656	80.020	19.995	103.303	20.143	4.032	0.398
76.000	118.854	80.022	19.997	103.302	20.146	3.794	0.382
76.500	119.038	80.022	19.997	103.303	20.145	3.873	0.378
77.000	119.213	80.027	19.995	103.310	20.146	3.847	0.370
77.500	119.435	80.024	19.997	103.314	20.144	3.929	0.378
78.000	119.639	80.020	19.997	103.319	20.141	4.117	0.411
78.500	119.813	80.020	19.997	103.320	20.136	4.463	0.402
79.000	120.009	80.020	19.995	103.321	20.143	4.009	0.374
79.500	120.192	80.017	19.996	103.317	20.140	4.197	0.374
80.000	120.395	80.023	19.998	103.312	20.144	3.980	0.382
80.500	120.593	80.024	19.996	103.307	20.144	3.918	0.393
81.000	120.809	80.024	19.996	103.305	20.141	4.132	0.408
81.500	120.985	80.021	19.997	103.303	20.144	3.940	0.403
82.000	121.174	80.025	19.996	103.302	20.147	3.729	0.378
82.500	121.424	80.026	19.997	103.304	20.144	3.962	0.401
83.000	121.581	80.024	19.997	103.304	20.149	3.625	0.423
83.500	121.832	80.025	19.998	103.302	20.139	4.307	0.408
84.000	122.011	80.024	19.995	103.300	20.148	3.684	0.419
84.501	122.198	80.026	19.996	103.300	20.136	4.466	0.399
85.001	122.400	80.022	19.997	103.300	20.142	4.059	0.378
85.500	122.640	80.027	19.997	103.305	20.140	4.238	0.415
86.000	122.838	80.025	19.997	103.308	20.144	3.935	0.440
86.501	123.051	80.028	19.997	103.307	20.145	3.871	0.424
87.001	123.248	80.026	19.996	103.307	20.140	4.235	0.410
87.500	123.483	80.027	19.996	103.308	20.146	3.844	0.421
88.000	123.650	80.027	19.994	103.302	20.143	4.019	0.417
88.501	123.846	80.029	19.997	103.299	20.144	3.968	0.382
89.001	124.069	80.028	19.996	103.299	20.139	4.258	0.391
89.500	124.288	80.028	19.997	103.298	20.147	3.753	0.430
90.000	124.474	80.028	19.996	103.296	20.146	3.800	0.424
90.500	124.714	80.027	19.996	103.297	20.141	4.168	0.415
91.001	124.911	80.027	19.996	103.298	20.142	4.104	0.432
91.501	125.089	80.029	19.997	103.300	20.141	4.141	0.406
92.000	125.310	80.029	19.996	103.302	20.143	3.990	0.387
92.500	125.517	80.028	19.996	103.304	20.140	4.219	0.414
93.000	125.787	80.028	19.995	103.305	20.140	4.207	0.453
93.500	125.964	80.027	19.993	103.308	20.142	4.083	0.462
94.000	126.208	80.025	19.996	103.312	20.137	4.390	0.434
94.500	126.410	80.026	19.996	103.313	20.140	4.240	0.433
95.000	126.619	80.027	19.995	103.316	20.140	4.187	0.428
95.500	126.817	80.029	19.996	103.317	20.142	4.057	0.409
96.000	127.054	80.028	19.998	103.311	20.141	4.183	0.421
96.500	127.273	80.026	19.998	103.306	20.141	4.169	0.446
97.001	127.514	80.027	19.996	103.303	20.148	3.682	0.458
97.501	127.726	80.025	19.996	103.299	20.142	4.114	0.456
98.000	127.949	80.027	19.999	103.300	20.146	3.784	0.443
98.500	128.149	80.025	19.999	103.306	20.141	4.160	0.429
99.000	128.374	80.025	19.997	103.310	20.134	4.601	0.424
99.500	128.563	80.027	19.997	103.313	20.140	4.249	0.420
100.000	128.808	80.028	19.998	103.313	20.141	4.134	0.424
100.500	129.013	80.025	19.997	103.311	20.139	4.307	0.442
101.000	129.238	80.026	19.997	103.308	20.142	4.054	0.440
101.501	129.481	80.025	19.996	103.305	20.134	4.619	0.449
102.001	129.719	80.026	19.996	103.305	20.140	4.196	0.475
102.500	129.913	80.025	19.997	103.306	20.135	4.521	0.456
103.000	130.163	80.025	19.997	103.307	20.140	4.218	0.438
103.500	130.343	80.022	19.996	103.310	20.144	3.952	0.438
104.000	130.565	80.027	19.997	103.315	20.143	4.038	0.416
104.500	130.821	80.026	19.996	103.320	20.146	3.795	0.440
105.000	131.054	80.027	19.997	103.323	20.141	4.130	0.483
105.500	131.277	80.025	19.996	103.321	20.143	4.010	0.473
106.000	131.519	80.026	19.997	103.317	20.137	4.396	0.461
106.500	131.737	80.024	19.995	103.313	20.145	3.871	0.462
107.000	131.984	80.024	19.996	103.311	20.143	4.003	0.462
107.500	132.161	80.023	19.997	103.314	20.145	3.901	0.444
108.000	132.408	80.025	19.996	103.317	20.142	4.078	0.424
108.500	132.686	80.026	19.995	103.318	20.144	3.928	0.474
109.000	132.897	80.025	19.996	103.320	20.144	3.974	0.506
109.501	133.106	80.027	19.996	103.317	20.140	4.187	0.455
110.001	133.348	80.025	19.996	103.313	20.141	4.130	0.436
110.500	133.595	80.026	19.994	103.314	20.140	4.206	0.470
111.000	133.826	80.027	19.997	103.318	20.137	4.398	0.483
111.501	134.077	80.026	19.995	103.320	20.139	4.256	0.480
112.001	134.255	80.029	19.999	103.321	20.145	3.893	0.456
112.500	134.503	80.027	19.997	103.320	20.141	4.159	0.428
113.000	134.748	80.028	19.997	103.319	20.146	3.800	0.460
113.500	134.985	80.027	19.996	103.318	20.140	4.241	0.487
114.001	135.228	80.028	19.997	103.319	20.144	3.980	0.481
114.501	135.468	80.023	19.997	103.322	20.141	4.161	0.482
115.000	135.731	80.025	19.995	103.324	20.139	4.309	0.493
115.500	135.923	80.025	19.995	103.320	20.144	3.973	0.479
116.000	136.184	80.027	19.998	103.317	20.133	4.690	0.454
116.500	136.414	80.025	19.995	103.314	20.145	3.895	0.472
117.000	136.658	80.026	19.997	103.309	20.141	4.141	0.482
117.500	136.864	80.028	19.997	103.308	20.141	4.148	0.462
118.000	137.151	80.030	19.998	103.312	20.138	4.333	0.472
118.500	137.377	80.030	19.997	103.316	20.142	4.094	0.503
119.001	137.619	80.025	19.995	103.319	20.139	4.285	0.490
119.501	137.877	80.026	19.996	103.317	20.141	4.139	0.484
120.001	138.103	80.018	19.998	103.315	20.136	4.473	0.493
120.500	138.342	80.015	19.999	103.309	20.135	4.520	0.474
121.000	138.587	80.011	19.995	103.303	20.140	4.225	0.474
121.500	138.831	80.010	19.996	103.295	20.143	4.015	0.486
122.000	139.070	80.010	19.996	103.299	20.141	4.143	0.486
122.500	139.297	80.012	19.995	103.301	20.143	4.024	0.475
123.000	139.549	80.009	19.994	103.301	20.142	4.082	0.473
123.500	139.796	80.009	19.995	103.302	20.138	4.327	0.489
124.000	140.053	80.011	19.993	103.305	20.140	4.221	0.502
124.500	140.267	80.012	19.994	103.303	20.139	4.286	0.488
125.001	140.532	80.011	19.994	103.301	20.141	4.117	0.475
125.501	140.754	80.012	19.995	103.304	20.136	4.494	0.483
126.000	141.009	80.011	19.995	103.303	20.135	4.572	0.482
126.501	141.254	80.010	19.994	103.303	20.141	4.159	0.489
127.001	141.507	80.010	19.995	103.305	20.140	4.215	0.499
127.500	141.756	80.009	19.995	103.306	20.142	4.091	0.500
128.000	141.997	80.011	19.996	103.306	20.135	4.522	0.496
128.500	142.230	80.010	19.995	103.310	20.137	4.405	0.482
129.000	142.475	80.009	19.995	103.312	20.141	4.142	0.476
129.500	142.758	80.011	19.993	103.310	20.145	3.900	0.503
130.000	142.979	80.009	19.994	103.313	20.140	4.184	0.516
130.500	143.256	80.009	19.996	103.314	20.143	3.987	0.501
131.000	143.507	80.011	19.993	103.311	20.140	4.228	0.513
131.500	143.762	80.009	19.995	103.309	20.145	3.872	0.517
132.000	144.026	80.010	19.993	103.309	20.141	4.135	0.512
132.500	144.269	80.008	19.994	103.306	20.141	4.128	0.514
133.000	144.503	80.009	19.995	103.305	20.139	4.315	0.492
133.500	144.758	80.011	19.994	103.304	20.141	4.142	0.482
134.000	144.988	80.009	19.995	103.302	20.144	3.934	0.487
134.500	145.202	80.009	19.994	103.298	20.141	4.122	0.465
135.000	145.513	80.010	19.995	103.294	20.136	4.487	0.485
135.500	145.743	80.011	19.994	103.291	20.142	4.097	0.533
136.000	146.001	80.010	19.996	103.290	20.142	4.065	0.514
136.500	146.252	80.013	19.995	103.290	20.136	4.470	0.499
137.000	146.486	80.010	19.995	103.292	20.140	4.190	0.498
137.500	146.792	80.009	19.995	103.293	20.142	4.075	0.513
138.000	146.988	80.009	19.995	103.293	20.136	4.468	0.520
138.500	147.253	80.010	19.995	103.297	20.143	4.035	0.481
139.000	147.497	80.010	19.994	103.297	20.144	3.938	0.485
139.500	147.738	80.010	19.994	103.294	20.143	4.042	0.497
140.000	148.010	80.010	19.994	103.294	20.144	3.958	0.499
140.500	148.231	80.011	19.995	103.293	20.137	4.448	0.503
141.000	148.475	80.012	19.994	103.289	20.140	4.233	0.479
141.500	148.746	80.012	19.994	103.289	20.141	4.153	0.490
142.000	149.012	80.011	19.993	103.290	20.138	4.352	0.526
142.500	149.301	80.012	19.993	103.289	20.142	4.100	0.546
143.000	149.539	80.013	19.994	103.290	20.144	3.956	0.540
143.500	149.741	80.012	19.994	103.291	20.140	4.215	0.484
144.000	150.010	80.013	19.994	103.292	20.142	4.111	0.456
144.500	150.268	80.011	19.994	103.293	20.142	4.058	0.499
145.000	150.508	80.009	19.995	103.293	20.141	4.124	0.513
145.500	150.755	80.011	19.995	103.292	20.145	3.863	0.493
146.000	150.973	80.013	19.995	103.291	20.140	4.213	0.476
146.500	151.280	80.010	19.993	103.290	20.145	3.883	0.495
147.000	151.519	80.009	19.993	103.289	20.145	3.871	0.535
147.500	151.782	80.010	19.994	103.289	20.141	4.138	0.524
148.000	152.015	80.009	19.994	103.290	20.145	3.849	0.499
148.500	152.252	80.010	19.993	103.292	20.143	4.007	0.483
149.000	152.517	80.013	19.995	103.291	20.143	4.004	0.486
149.500	152.772	80.009	19.994	103.292	20.143	4.015	0.511
150.000	153.031	80.009	19.994	103.291	20.141	4.124	0.517
150.500	153.272	80.010	19.993	103.291	20.143	3.996	0.507
151.000	153.548	80.009	19.994	103.289	20.138	4.337	0.508
151.500	153.783	80.009	19.994	103.289	20.142	4.091	0.514
152.000	154.072	80.011	19.993	103.288	20.139	4.273	0.518
152.500	154.268	80.008	19.994	103.289	20.143	4.000	0.505
153.000	154.508	80.007	19.994	103.290	20.141	4.169	0.460
153.500	154.768	80.010	19.994	103.290	20.141	4.117	0.468
154.000	155.002	80.008	19.994	103.292	20.145	3.891	0.497
154.500	155.267	80.009	19.994	103.292	20.145	3.891	0.497
155.000	155.481	80.008	19.994	103.292	20.145	3.863	0.489
155.500	155.769	80.009	19.996	103.292	20.146	3.810	0.490
156.000	155.997	80.009	19.994	103.293	20.143	4.040	0.509
156.500	156.227	80.008	19.994	103.291	20.146	3.814	0.487
157.000	156.504	80.008	19.996	103.292	20.142	4.051	0.483
157.500	156.764	80.009	19.994	103.292	20.142	4.106	0.522
158.000	157.033	80.009	19.996	103.291	20.146	3.840	0.533
158.500	157.204	80.008	19.995	103.291	20.140	4.199	0.485
159.000	157.506	80.007	19.995	103.292	20.142	4.104	0.457
159.500	157.764	80.009	19.994	103.292	20.142	4.057	0.516
160.000	158.071	80.006	19.995	103.292	20.135	4.572	0.562
160.500	158.268	80.009	19.993	103.291	20.145	3.912	0.535
161.000	158.509	80.007	19.995	103.288	20.143	4.004	0.471
161.500	158.794	80.010	19.995	103.284	20.144	3.978	0.482
162.000	159.043	80.008	19.994	103.284	20.141	4.131	0.530
162.500	159.253	80.010	19.995	103.283	20.144	3.925	0.496
163.000	159.537	80.007	19.996	103.284	20.142	4.084	0.477
163.500	159.740	80.009	19.994	103.287	20.144	3.932	0.491
164.000	160.000	80.009	19.994	103.291	20.146	3.797	0.475
164.500	160.246	80.007	19.995	103.290	20.146	3.837	0.484
165.000	160.489	80.009	19.994	103.291	20.144	3.977	0.498
165.500	160.761	80.010	19.994	103.291	20.140	4.240	0.502
166.000	160.994	80.006	19.994	103.291	20.142	4.080	0.510
166.500	161.253	80.011	19.993	103.291	20.143	4.041	0.499
167.000	161.558	80.005	19.994	103.293	20.141	4.147	0.528
167.500	161.765	80.010	19.995	103.291	20.144	3.961	0.538
168.000	162.031	80.010	19.995	103.291	20.143	4.019	0.493
168.500	162.322	80.009	19.995	103.292	20.152	3.436	0.515
169.000	162.530	80.009	19.994	103.292	20.145	3.861	0.528
169.500	162.854	80.007	19.994	103.292	20.145	3.884	0.515
170.000	163.002	80.007	19.995	103.292	20.143	4.021	0.502
170.500	163.249	80.006	19.995	103.292	20.144	3.968	0.433
171.000	163.520	80.008	19.994	103.291	20.141	4.156	0.456
171.500	163.779	80.008	19.995	103.292	20.144	3.952	0.524
172.000	164.021	80.006	19.994	103.291	20.147	3.729	0.516
172.500	164.304	80.009	19.994	103.289	20.142	4.110	0.513
173.000	164.552	80.009	19.995	103.289	20.144	3.921	0.528
173.500	164.799	80.008	19.995	103.289	20.141	4.128	0.513
174.000	165.087	80.008	19.993	103.285	20.143	4.039	0.515
174.500	165.283	80.008	19.996	103.280	20.144	3.975	0.510
175.000	165.547	80.010	19.996	103.279	20.143	4.039	0.472
175.500	165.812	80.010	19.994	103.275	20.147	3.716	0.495
176.000	166.048	80.007	19.996	103.276	20.144	3.926	0.515
176.500	166.308	80.009	19.993	103.276	20.144	3.919	0.499
177.000	166.533	80.009	19.995	103.279	20.147	3.778	0.491
177.500	166.814	80.011	19.995	103.279	20.143	4.013	0.495
178.000	167.045	80.007	19.995	103.278	20.147	3.744	0.508
178.500	167.313	80.010	19.995	103.270	20.144	3.939	0.505
179.000	167.553	80.008	19.993	103.270	20.148	3.680	0.503
179.500	167.823	80.009	19.995	103.269	20.148	3.656	0.509
180.000	168.049	80.009	19.994	103.268	20.146	3.782	0.503
180.500	168.237	80.009	19.994	103.271	20.145	3.910	0.456
181.000	168.485	80.008	19.995	103.275	20.144	3.928	0.425
181.500	168.747	80.010	19.995	103.273	20.147	3.715	0.472
182.000	168.910	80.010	19.995	103.271	20.145	3.862	0.467
182.500	169.398	80.010	19.996	103.269	20.143	3.993	0.538
183.000	169.698	80.007	19.994	103.267	20.142	4.090	0.720
183.500	169.967	80.009	19.996	103.269	20.149	3.636	0.678
184.000	169.957	80.008	19.994	103.268	20.139	4.288	0.414
184.500	170.366	80.008	19.995	103.265	20.144	3.964	0.329
185.000	170.400	80.008	19.997	103.262	20.145	3.880	0.421
185.500	170.783	80.009	19.995	103.259	20.144	3.975	0.431
186.000	170.988	80.009	19.995	103.255	20.146	3.836	0.503
186.500	171.231	80.008	19.995	103.256	20.146	3.803	0.518
187.000	171.473	80.008	19.995	103.256	20.143	4.034	0.466
187.500	171.705	80.010	19.995	103.260	20.142	4.052	0.479
188.000	171.972	80.009	19.995	103.261	20.145	3.911	0.487
188.500	172.229	80.007	19.995	103.263	20.142	4.048	0.512
189.000	172.468	80.008	19.997	103.265	20.147	3.743	0.510
189.500	172.746	80.009	19.996	103.266	20.146	3.790	0.506
190.000	173.002	80.010	19.996	103.262	20.142	4.052	0.525
190.500	173.220	80.009	19.995	103.264	20.142	4.096	0.504
191.000	173.443	80.009	19.995	103.267	20.148	3.651	0.458
191.500	173.739	80.009	19.996	103.267	20.143	4.041	0.480
192.000	174.000	80.008	19.995	103.271	20.142	4.083	0.538
192.500	174.228	80.010	19.995	103.273	20.145	3.868	0.523
193.000	174.428	80.008	19.996	103.270	20.143	4.012	0.459
193.500	174.694	80.010	19.995	103.264	20.145	3.904	0.448
194.000	174.930	80.009	19.995	103.260	20.147	3.773	0.484
194.500	175.160	80.009	19.995	103.256	20.143	3.983	0.483
195.000	175.484	80.009	19.995	103.256	20.140	4.190	0.509
195.500	175.661	80.010	19.994	103.260	20.150	3.573	0.527
196.000	175.970	80.013	19.997	103.260	20.147	3.766	0.494
196.500	176.158	80.010	19.993	103.262	20.146	3.803	0.492
197.000	176.407	80.010	19.994	103.259	20.144	3.972	0.467
197.500	176.657	80.009	19.995	103.240	20.144	3.967	0.468
198.000	176.939	80.010	19.994	103.222	20.146	3.783	0.515
198.500	177.157	80.010	19.995	103.217	20.149	3.629	0.516
199.000	177.398	80.011	19.995	103.214	20.144	3.957	0.479
199.500	177.639	80.012	19.996	103.217	20.145	3.870	0.470
200.000	177.887	80.009	19.995	103.242	20.149	3.611	0.485
200.500	178.120	80.010	19.994	103.288	20.148	3.703	0.485
201.000	178.401	80.010	19.996	103.307	20.148	3.707	0.498
201.501	178.685	80.009	19.995	103.313	20.149	3.634	0.540
202.000	178.898	80.010	19.995	103.316	20.143	3.995	0.531
202.500	179.166	80.007	19.995	103.309	20.142	4.077	0.489
203.000	179.376	80.007	19.996	103.279	20.147	3.724	0.480
203.500	179.655	80.007	19.996	103.267	20.149	3.622	0.484
204.000	179.848	80.010	19.996	103.261	20.146	3.836	0.481
204.500	180.136	80.013	19.994	103.256	20.147	3.763	0.476
205.000	180.341	80.011	19.995	103.261	20.149	3.636	0.487
205.500	180.606	80.011	19.996	103.266	20.147	3.740	0.481
206.000	180.860	80.010	19.996	103.268	20.144	3.927	0.495
206.500	181.097	80.012	19.995	103.274	20.145	3.884	0.505
207.000	181.344	80.009	19.995	103.280	20.149	3.594	0.487
207.500	181.612	80.010	19.995	103.280	20.143	4.042	0.500
208.000	181.886	80.011	19.995	103.281	20.148	3.700	0.529
208.500	182.088	80.011	19.995	103.281	20.146	3.838	0.509
209.000	182.357	80.009	19.996	103.280	20.140	4.192	0.473
209.500	182.607	80.011	19.997	103.279	20.140	4.187	0.495
210.000	182.830	80.009	19.995	103.277	20.144	3.968	0.496
210.500	183.087	80.010	19.997	103.269	20.149	3.644	0.476
211.000	183.310	80.010	19.996	103.264	20.147	3.762	0.480
211.500	183.615	80.010	19.994	103.260	20.149	3.606	0.504
212.000	183.827	80.009	19.996	103.256	20.141	4.163	0.523
212.500	184.064	80.012	19.996	103.260	20.148	3.664	0.483
213.000	184.291	80.010	19.996	103.265	20.147	3.735	0.457
213.500	184.591	80.011	19.995	103.267	20.146	3.793	0.495
214.000	184.799	80.010	19.997	103.266	20.146	3.793	0.517
214.500	185.085	80.013	19.996	103.265	20.146	3.826	0.501
215.000	185.316	80.007	19.995	103.259	20.142	4.088	0.506
215.500	185.580	80.010	19.996	103.254	20.147	3.753	0.506
216.000	185.856	80.011	19.997	103.253	20.143	4.037	0.517
216.500	186.042	80.011	19.996	103.253	20.147	3.737	0.501
217.000	186.323	80.008	19.995	103.254	20.151	3.481	0.465
217.500	186.554	80.009	19.996	103.254	20.150	3.543	0.490
218.000	186.798	80.008	19.996	103.254	20.144	3.946	0.494
218.500	187.042	80.009	19.995	103.256	20.142	4.077	0.481
219.000	187.287	80.011	19.995	103.257	20.147	3.726	0.488
219.500	187.555	80.013	19.995	103.256	20.147	3.775	0.502
220.000	187.794	80.009	19.995	103.263	20.144	3.935	0.510
220.500	188.022	80.010	19.995	103.267	20.146	3.837	0.487
221.000	188.252	80.010	19.996	103.269	20.140	4.192	0.462
221.500	188.518	80.012	19.994	103.271	20.143	4.044	0.477
222.000	188.712	80.012	19.995	103.274	20.147	3.722	0.478
222.500	188.993	80.011	19.995	103.273	20.145	3.906	0.468
223.000	189.210	80.010	19.995	103.276	20.146	3.811	0.486
223.500	189.436	80.010	19.993	103.278	20.145	3.902	0.470
224.000	189.699	80.011	19.994	103.278	20.145	3.899	0.466
224.500	189.968	80.010	19.994	103.275	20.142	4.103	0.511
225.000	190.235	80.010	19.995	103.271	20.138	4.339	0.534
225.500	190.451	80.012	19.995	103.265	20.138	4.367	0.510
226.000	190.729	80.012	19.993	103.265	20.141	4.130	0.488
226.500	190.948	80.011	19.995	103.263	20.147	3.754	0.495
227.000	191.209	80.010	19.993	103.266	20.146	3.835	0.488
227.500	191.467	80.011	19.993	103.268	20.142	4.066	0.499
228.000	191.687	80.013	19.994	103.270	20.140	4.217	0.498
228.500	191.902	80.010	19.994	103.265	20.140	4.228	0.457
229.000	192.205	80.012	19.993	103.266	20.140	4.203	0.477
229.500	192.413	80.011	19.993	103.267	20.142	4.084	0.514
230.000	192.690	80.012	19.993	103.268	20.146	3.831	0.498
230.500	192.938	80.013	19.995	103.266	20.141	4.142	0.505
231.000	193.183	80.011	19.994	103.265	20.137	4.392	0.509
231.500	193.447	80.012	19.994	103.263	20.141	4.175	0.501
232.000	193.683	80.011	19.994	103.258	20.140	4.243	0.504
232.500	193.937	80.009	19.993	103.257	20.137	4.394	0.495
233.000	194.160	80.011	19.994	103.261	20.138	4.360	0.484
233.500	194.419	80.011	19.994	103.265	20.139	4.287	0.479
234.000	194.655	80.011	19.994	103.266	20.138	4.321	0.488
234.500	194.894	80.009	19.994	103.265	20.140	4.221	0.485
235.000	195.167	80.010	19.994	103.264	20.141	4.172	0.494
235.500	195.395	80.008	19.994	103.261	20.138	4.318	0.506
236.000	195.680	80.011	19.994	103.258	20.135	4.553	0.507
236.500	195.886	80.009	19.994	103.258	20.142	4.059	0.502
237.000	196.138	80.009	19.994	103.259	20.134	4.640	0.475
237.500	196.371	80.009	19.994	103.257	20.138	4.338	0.471
238.000	196.630	80.008	19.995	103.256	20.134	4.598	0.488
238.500	196.882	80.009	19.995	103.256	20.136	4.456	0.502
239.000	197.146	80.009	19.994	103.255	20.140	4.228	0.514
239.500	197.385	80.009	19.993	103.255	20.139	4.252	0.510
240.000	197.635	80.009	19.994	103.255	20.139	4.308	0.496
240.500	197.872	80.009	19.995	103.255	20.134	4.615	0.488
241.000	198.147	80.008	19.994	103.254	20.134	4.585	0.500
241.500	198.356	80.009	19.995	103.254	20.139	4.306	0.498
242.000	198.634	80.008	19.996	103.254	20.135	4.565	0.486
242.500	198.855	80.009	19.994	103.255	20.135	4.521	0.493
243.000	199.121	80.009	19.995	103.254	20.140	4.201	0.493
243.500	199.378	80.008	19.993	103.257	20.137	4.398	0.505
244.000	199.629	80.009	19.995	103.259	20.139	4.301	0.516
244.500	199.864	80.009	19.995	103.261	20.138	4.363	0.497
245.000	200.090	80.008	19.994	103.260	20.134	4.636	0.473
245.500	200.346	80.009	19.996	103.264	20.139	4.283	0.472
246.000	200.594	80.010	19.995	103.263	20.135	4.553	0.493
246.500	200.804	80.009	19.995	103.265	20.133	4.700	0.481
247.000	201.049	80.009	19.993	103.264	20.139	4.305	0.456
247.500	201.326	80.009	19.994	103.263	20.137	4.423	0.489
248.000	201.562	80.009	19.994	103.259	20.134	4.598	0.518
248.500	201.832	80.009	19.995	103.258	20.134	4.595	0.509
249.000	202.056	80.008	19.994	103.254	20.136	4.456	0.500
249.500	202.328	80.007	19.994	103.252	20.132	4.737	0.495
250.000	202.570	80.009	19.995	103.255	20.136	4.469	0.505
250.500	202.841	80.007	19.996	103.258	20.133	4.697	0.514
251.000	203.060	80.010	19.995	103.256	20.136	4.507	0.502
251.500	203.341	80.009	19.993	103.256	20.133	4.702	0.495
252.000	203.562	80.008	19.994	103.256	20.136	4.476	0.501
252.500	203.837	80.010	19.995	103.253	20.137	4.389	0.499
253.000	204.090	80.010	19.994	103.250	20.135	4.523	0.512
253.500	204.296	80.009	19.995	103.250	20.134	4.600	0.494
254.000	204.560	80.009	19.994	103.250	20.138	4.347	0.465
254.500	204.807	80.009	19.993	103.251	20.136	4.465	0.491
255.000	205.072	80.008	19.994	103.253	20.132	4.755	0.512
255.500	205.291	80.009	19.995	103.253	20.131	4.802	0.498
256.000	205.566	80.009	19.994	103.256	20.136	4.480	0.489
256.500	205.837	80.009	19.995	103.258	20.130	4.905	0.520
257.000	206.116	80.008	19.994	103.256	20.134	4.626	0.548
257.500	206.357	80.009	19.996	103.255	20.132	4.784	0.535
258.000	206.563	80.009	19.994	103.254	20.131	4.819	0.483
258.500	206.859	80.009	19.995	103.255	20.131	4.834	0.474
259.000	207.103	80.009	19.994	103.256	20.137	4.413	0.521
259.500	207.349	80.009	19.994	103.259	20.129	4.958	0.516
260.000	207.592	80.008	19.994	103.260	20.132	4.779	0.490
260.500	207.813	80.009	19.994	103.260	20.135	4.529	0.476
261.000	208.098	80.008	19.994	103.258	20.133	4.682	0.485
261.500	208.325	80.009	19.994	103.255	20.130	4.899	0.509
262.000	208.562	80.009	19.994	103.255	20.131	4.790	0.488
262.500	208.809	80.009	19.994	103.253	20.132	4.735	0.474
263.000	209.088	80.009	19.994	103.254	20.128	5.016	0.505
263.500	209.313	80.010	19.994	103.255	20.133	4.704	0.515
264.000	209.568	80.010	19.994	103.255	20.131	4.806	0.492
264.500	209.851	80.009	19.994	103.253	20.131	4.850	0.509
265.000	210.097	80.008	19.994	103.254	20.131	4.848	0.533
265.500	210.345	80.009	19.993	103.256	20.128	4.994	0.512
266.000	210.588	80.009	19.995	103.258	20.129	4.939	0.493
266.500	210.860	80.010	19.995	103.258	20.125	5.207	0.503
267.000	211.088	80.008	19.994	103.261	20.126	5.141	0.507
267.500	211.356	80.010	19.994	103.261	20.128	5.030	0.497
268.000	211.589	80.009	19.995	103.259	20.129	4.934	0.498
268.500	211.818	80.009	19.995	103.258	20.125	5.205	0.482
269.000	212.101	80.009	19.994	103.264	20.127	5.083	0.487
269.500	212.337	80.008	19.996	103.264	20.125	5.244	0.516
270.000	212.571	80.009	19.995	103.265	20.126	5.183	0.495
270.500	212.820	80.008	19.995	103.267	20.127	5.068	0.476
271.000	213.067	80.007	19.995	103.267	20.124	5.314	0.489
271.500	213.316	80.007	19.995	103.262	20.126	5.163	0.496
272.000	213.590	80.009	19.994	103.261	20.122	5.400	0.510
272.500	213.837	80.010	19.995	103.263	20.119	5.624	0.522
273.000	214.118	80.007	19.995	103.262	20.120	5.526	0.525
273.500	214.350	80.008	19.996	103.261	20.118	5.700	0.521
274.000	214.602	80.009	19.996	103.262	20.123	5.339	0.499
274.500	214.896	80.007	19.995	103.261	20.120	5.536	0.515
275.000	215.104	80.007	19.995	103.262	20.120	5.547	0.523
275.500	215.368	80.006	19.995	103.263	20.118	5.690	0.487
276.000	215.651	80.008	19.995	103.263	20.119	5.632	0.510
276.500	215.863	80.008	19.996	103.261	20.118	5.664	0.521
277.000	216.144	80.007	19.994	103.261	20.119	5.590	0.494
277.500	216.385	80.010	19.995	103.256	20.119	5.653	0.508
278.000	216.620	80.008	19.995	103.253	20.116	5.836	0.499
278.500	216.887	80.007	19.996	103.255	20.118	5.703	0.489
279.000	217.151	80.009	19.995	103.259	20.120	5.528	0.516
279.500	217.424	80.009	19.995	103.260	20.118	5.688	0.534
280.000	217.656	80.010	19.994	103.262	20.117	5.789	0.521
280.500	217.877	80.009	19.996	103.262	20.114	5.938	0.479
281.000	218.152	80.008	19.995	103.258	20.107	6.399	0.475
281.500	218.375	80.009	19.995	103.254	20.114	5.925	0.497
282.000	218.667	80.009	19.994	103.253	20.114	5.976	0.506
282.500	218.940	80.007	19.994	103.252	20.113	5.991	0.539
283.000	219.187	80.009	19.995	103.255	20.111	6.157	0.542
283.500	219.441	80.008	19.995	103.256	20.112	6.058	0.511
284.000	219.639	80.008	19.994	103.260	20.112	6.095	0.476
284.500	219.877	80.009	19.995	103.266	20.110	6.218	0.444
285.000	220.156	80.010	19.994	103.270	20.113	5.994	0.477
285.500	220.382	80.009	19.995	103.269	20.111	6.180	0.511
286.000	220.654	80.009	19.995	103.268	20.106	6.525	0.501
286.500	220.919	80.010	19.995	103.266	20.109	6.293	0.517
287.000	221.134	80.011	19.995	103.260	20.106	6.494	0.509
287.500	221.379	80.009	19.995	103.255	20.108	6.346	0.471
288.000	221.647	80.010	19.994	103.257	20.107	6.426	0.487
288.500	221.886	80.010	19.995	103.257	20.106	6.481	0.510
289.000	222.179	80.010	19.994	103.257	20.106	6.479	0.519
289.500	222.424	80.011	19.995	103.260	20.105	6.535	0.536
290.001	222.664	80.010	19.995	103.261	20.102	6.776	0.512
290.500	222.889	80.010	19.995	103.261	20.106	6.510	0.475
291.000	223.195	80.009	19.994	103.261	20.105	6.534	0.498
291.500	223.386	80.010	19.995	103.259	20.104	6.614	0.514
292.000	223.682	80.009	19.995	103.256	20.103	6.689	0.492
292.500	223.965	80.009	19.995	103.256	20.103	6.706	0.533
293.000	224.196	80.010	19.994	103.258	20.105	6.553	0.547
293.500	224.477	80.008	19.994	103.259	20.103	6.715	0.513
294.000	224.764	80.010	19.994	103.262	20.101	6.857	0.540
294.500	224.951	80.010	19.994	103.261	20.100	6.883	0.521
295.000	225.183	80.008	19.995	103.259	20.102	6.757	0.447
295.500	225.416	80.009	19.995	103.256	20.103	6.691	0.441
296.000	225.717	80.009	19.995	103.254	20.100	6.920	0.499
296.500	225.967	80.009	19.996	103.253	20.098	7.024	0.543
297.000	226.231	80.007	19.994	103.255	20.102	6.792	0.533
297.500	226.469	80.009	19.994	103.262	20.099	6.980	0.508
298.000	226.702	80.009	19.994	103.262	20.099	6.964	0.487
298.500	226.954	80.007	19.995	103.262	20.098	7.037	0.478
299.000	227.219	80.009	19.995	103.261	20.098	7.026	0.501
299.500	227.478	80.008	19.995	103.260	20.098	7.012	0.520
300.000	227.721	80.008	19.994	103.254	20.099	6.983	0.513
300.500	227.974	80.010	19.994	103.254	20.100	6.910	0.499
301.000	228.199	80.008	19.995	103.258	20.100	6.920	0.487
301.500	228.458	80.008	19.995	103.262	20.099	6.938	0.481
302.000	228.773	80.008	19.995	103.264	20.096	7.148	0.529
302.500	228.943	80.008	19.995	103.264	20.098	7.055	0.529
303.000	229.246	80.009	19.994	103.265	20.096	7.193	0.479
303.500	229.497	80.009	19.994	103.266	20.096	7.193	0.514
304.000	229.756	80.008	19.995	103.266	20.095	7.204	0.532
304.500	229.996	80.009	19.995	103.270	20.098	7.009	0.504
305.000	230.266	80.009	19.995	103.271	20.094	7.308	0.504
305.500	230.516	80.009	19.994	103.269	20.095	7.255	0.515
306.000	230.759	80.008	19.994	103.266	20.092	7.414	0.507
306.500	231.029	80.009	19.995	103.262	20.091	7.472	0.503
307.000	231.281	80.008	19.995	103.257	20.093	7.393	0.517
307.500	231.525	80.009	19.994	103.256	20.088	7.668	0.509
308.000	231.774	80.008	19.995	103.256	20.090	7.537	0.495
308.500	232.035	80.008	19.996	103.255	20.090	7.568	0.502
309.000	232.256	80.009	19.996	103.257	20.093	7.364	0.496
309.500	232.564	80.009	19.997	103.261	20.088	7.696	0.506
310.000	232.787	80.010	19.997	103.263	20.090	7.593	0.530
310.500	233.019	80.010	19.994	103.267	20.089	7.634	0.493
311.000	233.285	80.010	19.995	103.269	20.086	7.816	0.477
311.500	233.540	80.009	19.995	103.266	20.088	7.729	0.510
312.000	233.810	80.010	19.995	103.260	20.087	7.791	0.523
312.500	234.052	80.010	19.995	103.257	20.085	7.913	0.518
313.000	234.325	80.011	19.996	103.253	20.083	8.039	0.513
313.500	234.560	80.009	19.997	103.251	20.088	7.702	0.511
314.000	234.812	80.011	19.994	103.254	20.087	7.753	0.497
314.500	235.065	80.010	19.996	103.254	20.086	7.855	0.496
315.000	235.305	80.010	19.994	103.255	20.078	8.385	0.499
315.500	235.567	80.010	19.995	103.256	20.082	8.099	0.497
316.000	235.782	80.010	19.994	103.257	20.079	8.329	0.490
316.500	236.056	80.010	19.994	103.253	20.084	7.968	0.484
317.000	236.314	80.011	19.995	103.253	20.081	8.161	0.511
317.500	236.595	80.009	19.995	103.252	20.080	8.260	0.535
318.000	236.840	80.011	19.995	103.250	20.081	8.147	0.532
318.500	237.078	80.010	19.995	103.248	20.081	8.180	0.504
319.000	237.345	80.008	19.994	103.248	20.078	8.371	0.494
319.500	237.570	80.010	19.994	103.250	20.077	8.447	0.499
320.000	237.824	80.010	19.995	103.251	20.081	8.187	0.485
320.500	238.077	80.009	19.995	103.254	20.078	8.381	0.493
321.000	238.335	80.009	19.994	103.256	20.075	8.600	0.509
321.500	238.594	80.009	19.993	103.255	20.075	8.587	0.514
322.000	238.816	80.009	19.994	103.252	20.073	8.706	0.499
322.500	239.069	80.008	19.994	103.251	20.081	8.174	0.478
323.000	239.324	80.008	19.995	103.251	20.075	8.575	0.492
323.500	239.548	80.008	19.994	103.249	20.072	8.741	0.494
324.000	239.828	80.008	19.994	103.249	20.070	8.900	0.491
324.500	240.046	80.010	19.995	103.251	20.074	8.647	0.501
325.000	240.297	80.009	19.995	103.251	20.072	8.743	0.484
325.500	240.544	80.008	19.994	103.251	20.066	9.195	0.484
326.000	240.778	80.010	19.994	103.250	20.064	9.277	0.489
326.500	241.011	80.008	19.994	103.253	20.066	9.147	0.474
327.000	241.309	80.009	19.994	103.254	20.073	8.706	0.499
327.500	241.486	80.009	19.994	103.254	20.062	9.430	0.503
328.000	241.803	80.010	19.994	103.255	20.067	9.116	0.485
328.500	242.009	80.009	19.994	103.258	20.064	9.272	0.509
329.000	242.242	80.009	19.995	103.260	20.061	9.473	0.481
329.500	242.524	80.009	19.995	103.259	20.069	9.003	0.477
330.000	242.773	80.010	19.995	103.259	20.063	9.392	0.523
330.500	243.040	80.009	19.994	103.258	20.060	9.559	0.523
331.000	243.284	80.007	19.994	103.255	20.062	9.457	0.513
331.500	243.543	80.009	19.994	103.251	20.053	10.027	0.507
332.000	243.786	80.009	19.995	103.251	20.060	9.573	0.503
332.500	243.988	80.008	19.994	103.251	20.058	9.698	0.474
333.000	244.275	80.009	19.994	103.251	20.059	9.617	0.467
333.500	244.532	80.008	19.994	103.254	20.057	9.805	0.516
334.000	244.723	80.010	19.995	103.255	20.058	9.741	0.496
334.500	244.983	80.007	19.993	103.261	20.055	9.906	0.449
335.000	245.216	80.009	19.994	103.261	20.053	10.076	0.472
335.500	245.473	80.009	19.994	103.263	20.049	10.297	0.492
336.000	245.725	80.010	19.995	103.261	20.048	10.377	0.500
336.500	246.024	80.009	19.995	103.261	20.048	10.362	0.530
337.000	246.245	80.010	19.994	103.259	20.051	10.149	0.535
337.500	246.476	80.010	19.994	103.259	20.052	10.114	0.486
338.000	246.712	80.008	19.994	103.257	20.046	10.541	0.459
338.500	246.960	80.009	19.995	103.256	20.044	10.639	0.475
339.000	247.212	80.009	19.994	103.255	20.046	10.543	0.492
339.500	247.450	80.011	19.995	103.251	20.041	10.827	0.495
340.000	247.659	80.009	19.994	103.251	20.048	10.389	0.469
340.500	247.896	80.011	19.995	103.255	20.042	10.808	0.446
341.000	248.127	80.008	19.995	103.260	20.043	10.693	0.457
341.500	248.417	80.009	19.995	103.260	20.037	11.091	0.495
342.000	248.665	80.009	19.994	103.260	20.043	10.736	0.530
342.500	248.871	80.009	19.995	103.266	20.037	11.136	0.496
343.000	249.149	80.009	19.993	103.266	20.035	11.266	0.469
343.500	249.431	80.013	19.994	103.264	20.033	11.376	0.522
344.000	249.645	80.008	19.995	103.270	20.029	11.625	0.529
344.500	249.887	80.010	19.994	103.278	20.032	11.462	0.476
345.000	250.182	80.011	19.995	103.278	20.033	11.411	0.496
345.500	250.443	80.009	19.995	103.281	20.030	11.602	0.546
346.000	250.682	80.010	19.995	103.286	20.029	11.655	0.528
346.500	250.907	80.010	19.995	103.286	20.028	11.735	0.483
347.000	251.118	80.009	19.995	103.287	20.026	11.839	0.450
347.500	251.382	80.008	19.995	103.289	20.024	11.980	0.455
348.000	251.649	80.008	19.995	103.289	20.021	12.177	0.503
348.500	251.871	80.008	19.994	103.289	20.022	12.089	0.510
349.000	252.131	80.008	19.995	103.289	20.015	12.565	0.485
349.500	252.365	80.009	19.994	103.286	20.018	12.366	0.488
350.000	252.600	80.009	19.994	103.286	20.012	12.781	0.482
350.500	252.837	80.009	19.996	103.285	20.015	12.579	0.471
351.000	253.102	80.008	19.995	103.283	20.012	12.769	0.487
351.500	253.350	80.009	19.994	103.277	20.010	12.895	0.507
352.000	253.581	80.008	19.995	103.274	20.016	12.541	0.496
352.500	253.825	80.009	19.994	103.269	20.009	13.001	0.477
353.000	254.069	80.008	19.994	103.271	20.003	13.399	0.482
353.500	254.308	80.008	19.994	103.275	20.005	13.272	0.486
354.000	254.566	80.009	19.994	103.282	20.002	13.430	0.490
354.500	254.809	80.009	19.994	103.289	20.001	13.518	0.499
355.000	255.075	80.010	19.995	103.294	19.999	13.636	0.505
355.500	255.305	80.009	19.994	103.292	20.000	13.571	0.502
356.000	255.549	80.009	19.995	103.289	19.996	13.838	0.485
356.501	255.812	80.010	19.994	103.287	19.993	14.072	0.491
357.000	256.055	80.008	19.995	103.288	19.990	14.274	0.507
357.500	256.288	80.008	19.994	103.288	19.991	14.229	0.491
358.000	256.541	80.008	19.994	103.290	19.989	14.321	0.480
358.500	256.788	80.007	19.994	103.293	19.986	14.536	0.493
359.000	257.037	80.008	19.994	103.295	19.983	14.709	0.498
359.500	257.269	80.008	19.994	103.294	19.982	14.808	0.488
360.000	257.488	80.008	19.995	103.294	19.983	14.722	0.466
360.500	257.762	80.008	19.994	103.288	19.976	15.218	0.472
361.000	258.007	80.009	19.994	103.281	19.976	15.231	0.506
361.500	258.281	80.009	19.994	103.275	19.979	15.017	0.519
362.000	258.522	80.008	19.996	103.273	19.975	15.302	0.518
362.500	258.738	80.009	19.994	103.265	19.975	15.251	0.486
363.000	259.002	80.008	19.995	103.270	19.974	15.344	0.468
363.500	259.255	80.009	19.994	103.281	19.968	15.711	0.498
364.000	259.523	80.010	19.995	103.287	19.964	16.035	0.519
364.500	259.731	80.008	19.994	103.292	19.969	15.679	0.499
365.000	259.981	80.010	19.994	103.300	19.965	15.926	0.467
365.500	260.242	80.009	19.994	103.301	19.965	15.932	0.484
366.000	260.486	80.008	19.993	103.300	19.961	16.242	0.508
366.500	260.728	80.009	19.993	103.305	19.958	16.431	0.495
367.000	260.982	80.009	19.996	103.307	19.954	16.651	0.491
367.500	261.246	80.011	19.994	103.313	19.955	16.621	0.507
368.000	261.482	80.010	19.995	103.313	19.951	16.881	0.509
368.500	261.740	80.009	19.994	103.312	19.951	16.878	0.497
369.000	261.987	80.010	19.995	103.305	19.946	17.218	0.500
369.500	262.220	80.010	19.994	103.306	19.946	17.187	0.493
370.000	262.448	80.009	19.995	103.304	19.944	17.379	0.470
370.500	262.690	80.008	19.994	103.308	19.945	17.314	0.465
371.000	262.935	80.009	19.994	103.315	19.941	17.558	0.479
371.500	263.201	80.009	19.993	103.321	19.937	17.837	0.499
372.000	263.461	80.010	19.995	103.318	19.934	18.024	0.519
372.500	263.687	80.010	19.995	103.313	19.935	17.938	0.506
373.000	263.946	80.009	19.994	103.306	19.928	18.451	0.485
373.500	264.173	80.010	19.995	103.298	19.928	18.418	0.485
374.000	264.391	80.009	19.994	103.296	19.926	18.549	0.465
374.500	264.675	80.011	19.996	103.299	19.925	18.604	0.474
375.000	264.896	80.007	19.995	103.309	19.924	18.683	0.504
375.500	265.197	80.009	19.995	103.316	19.925	18.627	0.513
376.000	265.455	80.009	19.995	103.323	19.915	19.292	0.541
376.500	265.695	80.009	19.995	103.328	19.912	19.500	0.529
377.000	265.939	80.010	19.995	103.327	19.917	19.155	0.491
377.500	266.172	80.009	19.995	103.321	19.912	19.524	0.481
378.000	266.443	80.010	19.997	103.318	19.911	19.578	0.490
378.500	266.673	80.009	19.995	103.313	19.907	19.815	0.502
379.000	266.913	80.007	19.996	103.304	19.906	19.919	0.486
379.500	267.193	80.008	19.994	103.297	19.906	19.875	0.496
380.000	267.437	80.009	19.994	103.295	19.900	20.306	0.522
380.500	267.737	80.009	19.994	103.294	19.902	20.177	0.534
381.000	267.955	80.009	19.995	103.295	19.899	20.340	0.531
381.500	268.200	80.008	19.995	103.302	19.893	20.780	0.490
382.000	268.415	80.008	19.995	103.309	19.894	20.738	0.461
382.500	268.675	80.008	19.995	103.312	19.890	20.961	0.467
383.000	268.923	80.009	19.995	103.314	19.885	21.300	0.491
383.500	269.172	80.009	19.995	103.316	19.884	21.353	0.502
384.000	269.407	80.009	19.995	103.309	19.883	21.442	0.491
384.500	269.678	80.010	19.995	103.307	19.882	21.490	0.495
385.000	269.944	80.010	19.995	103.312	19.878	21.767	0.522
385.500	270.172	80.007	19.994	103.315	19.879	21.684	0.515
386.000	270.465	80.009	19.994	103.318	19.875	21.954	0.508
386.500	270.682	80.009	19.995	103.324	19.874	22.026	0.516
387.000	270.969	80.009	19.995	103.327	19.870	22.315	0.507
387.500	271.199	80.011	19.995	103.327	19.866	22.584	0.511
388.000	271.484	80.010	19.995	103.325	19.867	22.548	0.516
388.500	271.733	80.009	19.995	103.321	19.863	22.790	0.524
389.000	272.003	80.009	19.993	103.319	19.860	22.978	0.526
389.500	272.237	80.009	19.994	103.316	19.859	23.043	0.511
390.000	272.508	80.010	19.994	103.315	19.856	23.258	0.505
390.500	272.709	80.010	19.994	103.315	19.850	23.653	0.489
391.000	272.969	80.011	19.995	103.318	19.846	23.940	0.467
391.500	273.205	80.010	19.994	103.322	19.845	23.977	0.479
392.000	273.431	80.010	19.995	103.325	19.847	23.833	0.479
392.500	273.714	80.010	19.994	103.326	19.845	23.986	0.485
393.000	273.958	80.011	19.995	103.328	19.836	24.564	0.518
393.500	274.197	80.012	19.995	103.329	19.832	24.847	0.505
394.000	274.438	80.010	19.995	103.329	19.832	24.856	0.481
394.500	274.684	80.011	19.994	103.328	19.832	24.892	0.483
395.000	274.920	80.009	19.993	103.329	19.826	25.296	0.484
395.500	275.186	80.011	19.995	103.328	19.825	25.316	0.492
396.000	275.436	80.010	19.995	103.330	19.821	25.568	0.509
396.500	275.681	80.012	19.994	103.331	19.819	25.736	0.505
397.000	275.915	80.011	19.994	103.333	19.821	25.632	0.487
397.500	276.155	80.010	19.995	103.336	19.813	26.124	0.477
398.000	276.388	80.010	19.994	103.340	19.812	26.186	0.473
398.500	276.663	80.010	19.994	103.339	19.805	26.679	0.490
399.000	276.905	80.010	19.994	103.340	19.803	26.784	0.513
399.500	277.185	80.010	19.995	103.339	19.803	26.827	0.520
400.000	277.445	80.010	19.995	103.339	19.799	27.044	0.531
400.501	277.660	80.009	19.995	103.335	19.799	27.051	0.508
401.000	277.925	80.009	19.996	103.334	19.795	27.363	0.477
401.500	278.175	80.010	19.995	103.332	19.791	27.592	0.497
402.000	278.454	80.011	19.994	103.332	19.795	27.339	0.522
402.500	278.692	80.009	19.995	103.328	19.788	27.813	0.523
403.000	278.978	80.010	19.995	103.334	19.787	27.909	0.520
403.500	279.194	80.009	19.995	103.335	19.784	28.072	0.513
404.000	279.459	80.008	19.996	103.334	19.781	28.301	0.491
404.500	279.694	80.008	19.996	103.334	19.783	28.172	0.491
405.000	279.950	80.007	19.994	103.336	19.777	28.548	0.496
405.500	280.214	80.009	19.996	103.331	19.772	28.883	0.505
406.000	280.457	80.007	19.996	103.336	19.771	28.944	0.513
406.500	280.699	80.009	19.996	103.336	19.763	29.464	0.496
407.000	280.964	80.009	19.996	103.337	19.766	29.294	0.497
407.500	281.176	80.008	19.995	103.340	19.764	29.414	0.492
408.000	281.416	80.007	19.996	103.340	19.762	29.586	0.464
408.500	281.667	80.008	19.996	103.335	19.760	29.710	0.472
409.000	281.925	80.007	19.995	103.336	19.759	29.751	0.500
409.500	282.169	80.007	19.996	103.337	19.757	29.872	0.506
410.000	282.406	80.008	19.996	103.337	19.750	30.357	0.491
410.500	282.668	80.008	19.996	103.337	19.748	30.492	0.490
411.000	282.886	80.008	19.996	103.340	19.747	30.552	0.489
411.500	283.174	80.009	19.996	103.344	19.749	30.415	0.493
412.000	283.410	80.009	19.997	103.346	19.745	30.725	0.516
412.500	283.626	80.008	19.996	103.348	19.744	30.756	0.488
413.000	283.888	80.008	19.997	103.352	19.738	31.142	0.465
413.500	284.149	80.008	19.996	103.355	19.738	31.205	0.501
414.000	284.391	80.009	19.995	103.356	19.732	31.576	0.513
414.500	284.622	80.008	19.995	103.357	19.730	31.707	0.488
415.000	284.887	80.009	19.995	103.353	19.730	31.717	0.485
415.500	285.128	80.009	19.995	103.354	19.727	31.888	0.501
416.000	285.403	80.008	19.994	103.351	19.719	32.422	0.511
416.500	285.625	80.009	19.995	103.352	19.717	32.550	0.506
417.000	285.909	80.008	19.994	103.355	19.717	32.564	0.501
417.500	286.155	80.009	19.995	103.362	19.714	32.767	0.518
418.000	286.381	80.009	19.994	103.364	19.713	32.829	0.501
418.500	286.614	80.009	19.994	103.367	19.707	33.243	0.466
419.000	286.880	80.009	19.995	103.369	19.705	33.415	0.479
419.500	287.177	80.009	19.994	103.368	19.702	33.580	0.531
420.000	287.408	80.009	19.995	103.367	19.700	33.740	0.545
420.500	287.654	80.009	19.996	103.368	19.696	34.019	0.502
421.000	287.886	80.009	19.994	103.368	19.699	33.817	0.478
421.500	288.151	80.009	19.994	103.368	19.691	34.334	0.488
422.000	288.378	80.010	19.994	103.370	19.693	34.199	0.495
422.500	288.644	80.008	19.994	103.371	19.689	34.472	0.493
423.000	288.878	80.009	19.994	103.370	19.684	34.828	0.496
423.500	289.120	80.009	19.995	103.371	19.684	34.794	0.488
424.000	289.404	80.011	19.994	103.375	19.679	35.157	0.501
424.500	289.637	80.010	19.994	103.377	19.683	34.884	0.521
425.000	289.884	80.009	19.994	103.378	19.677	35.259	0.498
425.500	290.142	80.009	19.995	103.379	19.675	35.424	0.493
426.000	290.425	80.009	19.994	103.379	19.671	35.660	0.524
426.500	290.665	80.009	19.994	103.375	19.671	35.671	0.532
427.000	290.924	80.009	19.994	103.372	19.667	35.956	0.511
427.500	291.216	80.009	19.995	103.372	19.667	35.964	0.525
428.000	291.439	80.010	19.995	103.371	19.666	35.992	0.533
428.500	291.702	80.009	19.995	103.371	19.664	36.172	0.500
429.000	291.962	80.010	19.995	103.371	19.660	36.442	0.504
429.500	292.184	80.008	19.994	103.372	19.654	36.794	0.503
430.000	292.462	80.009	19.994	103.372	19.654	36.796	0.491
430.500	292.706	80.010	19.994	103.374	19.649	37.133	0.512
431.000	292.942	80.010	19.994	103.374	19.649	37.184	0.501
431.500	293.196	80.008	19.995	103.374	19.647	37.288	0.485
432.000	293.402	80.007	19.995	103.375	19.642	37.629	0.475
432.500	293.692	80.009	19.995	103.381	19.643	37.562	0.478
433.000	293.907	80.008	19.995	103.387	19.645	37.415	0.500
433.500	294.164	80.007	19.994	103.389	19.636	38.003	0.489
434.000	294.433	80.009	19.994	103.390	19.635	38.095	0.499
434.500	294.700	80.010	19.995	103.389	19.632	38.285	0.531
435.000	294.986	80.007	19.994	103.388	19.630	38.446	0.544
435.500	295.209	80.007	19.994	103.385	19.628	38.591	0.531
436.000	295.457	80.009	19.995	103.383	19.623	38.891	0.490
436.500	295.692	80.008	19.993	103.385	19.623	38.911	0.478
437.000	295.968	80.008	19.995	103.395	19.622	38.951	0.497
437.500	296.230	80.009	19.994	103.397	19.617	39.272	0.524
438.000	296.474	80.008	19.994	103.396	19.617	39.326	0.522
438.500	296.757	80.008	19.994	103.399	19.611	39.718	0.517
439.000	296.999	80.007	19.995	103.405	19.611	39.693	0.526
439.500	297.242	80.009	19.995	103.399	19.603	40.224	0.505
440.000	297.503	80.009	19.995	103.397	19.607	39.990	0.494
440.500	297.749	80.008	19.994	103.402	19.607	39.987	0.506
441.000	297.971	80.008	19.995	103.413	19.601	40.384	0.488
441.500	298.247	80.009	19.995	103.413	19.603	40.213	0.483
442.000	298.502	80.007	19.995	103.416	19.597	40.672	0.515
442.500	298.789	80.009	19.994	103.418	19.598	40.546	0.537
443.000	299.052	80.010	19.995	103.416	19.598	40.607	0.546
443.500	299.256	80.009	19.995	103.402	19.594	40.869	0.508
444.000	299.538	80.009	19.995	103.393	19.592	40.971	0.476
444.500	299.779	80.011	19.996	103.385	19.589	41.177	0.504
445.000	300.035	80.010	19.995	103.382	19.586	41.347	0.510
445.500	300.302	80.008	19.995	103.383	19.586	41.403	0.510
446.000	300.520	80.009	19.995	103.390	19.586	41.358	0.504
446.500	300.796	80.009	19.995	103.395	19.582	41.655	0.489
447.000	301.060	80.009	19.995	103.402	19.581	41.708	0.517
447.500	301.309	80.010	19.995	103.404	19.577	41.963	0.527
448.000	301.542	80.010	19.994	103.403	19.577	41.981	0.498
448.500	301.826	80.010	19.995	103.403	19.574	42.204	0.500
449.000	302.067	80.011	19.995	103.405	19.571	42.370	0.521
449.500	302.303	80.009	19.995	103.403	19.572	42.340	0.501
450.000	302.574	80.010	19.994	103.399	19.569	42.510	0.492
450.500	302.803	80.011	19.994	103.400	19.567	42.621	0.504
451.000	303.083	80.010	19.994	103.400	19.565	42.799	0.505
451.500	303.313	80.010	19.994	103.397	19.559	43.219	0.509
452.000	303.569	80.012	19.994	103.399	19.561	43.035	0.498
452.500	303.836	80.011	19.993	103.403	19.561	43.086	0.505
453.000	304.059	80.011	19.994	103.403	19.558	43.259	0.506
453.500	304.321	80.010	19.994	103.403	19.553	43.594	0.487
454.000	304.579	80.011	19.994	103.404	19.554	43.506	0.503
454.500	304.847	80.011	19.995	103.401	19.555	43.473	0.524
455.000	305.102	80.010	19.992	103.397	19.549	43.836	0.525
455.500	305.378	80.010	19.995	103.397	19.550	43.802	0.526
456.000	305.588	80.010	19.996	103.396	19.546	44.063	0.508
456.500	305.832	80.011	19.995	103.399	19.544	44.216	0.470
457.000	306.157	80.011	19.995	103.401	19.544	44.218	0.512
457.500	306.411	80.010	19.995	103.405	19.545	44.158	0.574
458.000	306.670	80.012	19.995	103.404	19.540	44.456	0.546
458.500	306.875	80.011	19.995	103.405	19.536	44.730	0.489
459.000	307.143	80.012	19.994	103.404	19.537	44.638	0.469
459.500	307.392	80.011	19.994	103.404	19.536	44.758	0.495
460.000	307.629	80.011	19.994	103.404	19.533	44.919	0.502
460.500	307.885	80.011	19.994	103.407	19.532	45.003	0.489
461.000	308.141	80.010	19.993	103.406	19.528	45.257	0.502
461.500	308.409	80.009	19.994	103.407	19.525	45.441	0.518
462.000	308.669	80.011	19.995	103.405	19.528	45.299	0.526
462.500	308.923	80.009	19.995	103.405	19.520	45.793	0.521
463.000	309.154	80.010	19.995	103.405	19.519	45.857	0.500
463.500	309.441	80.010	19.995	103.405	19.519	45.845	0.502
464.000	309.670	80.010	19.994	103.405	19.516	46.098	0.517
464.500	309.911	80.009	19.995	103.406	19.513	46.306	0.493
465.000	310.172	80.012	19.994	103.406	19.514	46.209	0.485
465.500	310.436	80.011	19.995	103.406	19.508	46.618	0.514
466.000	310.715	80.010	19.996	103.406	19.511	46.402	0.534
466.500	310.928	80.010	19.995	103.406	19.509	46.551	0.517
467.000	311.227	80.010	19.995	103.406	19.504	46.857	0.502
467.500	311.471	80.010	19.995	103.407	19.503	46.956	0.528
468.000	311.718	80.009	19.994	103.407	19.501	47.103	0.517
468.500	312.027	80.010	19.995	103.407	19.497	47.337	0.523
469.000	312.294	80.010	19.994	103.407	19.498	47.306	0.566
469.500	312.529	80.009	19.996	103.408	19.491	47.759	0.539
470.000	312.766	80.011	19.996	103.407	19.488	47.992	0.487
470.500	313.039	80.010	19.995	103.407	19.492	47.710	0.491
471.000	313.315	80.011	19.996	103.407	19.485	48.177	0.529
471.500	313.524	80.011	19.995	103.406	19.487	48.032	0.517
472.000	313.813	80.009	19.996	103.407	19.485	48.177	0.491
472.500	314.053	80.011	19.994	103.407	19.483	48.330	0.513
473.000	314.294	80.010	19.995	103.406	19.480	48.473	0.505
473.500	314.586	80.011	19.996	103.406	19.480	48.476	0.507
474.000	314.855	80.011	19.995	103.407	19.480	48.536	0.547
474.500	315.100	80.010	19.996	103.408	19.477	48.695	0.538
475.000	315.382	80.010	19.995	103.410	19.474	48.934	0.521
475.500	315.587	80.012	19.996	103.410	19.468	49.281	0.507
476.000	315.859	80.010	19.996	103.410	19.468	49.288	0.482
476.500	316.071	80.012	19.995	103.409	19.467	49.378	0.480
477.000	316.339	80.012	19.996	103.408	19.463	49.629	0.482
477.500	316.618	80.011	19.994	103.411	19.463	49.679	0.514
478.000	316.853	80.012	19.995	103.414	19.459	49.947	0.530
478.500	317.110	80.012	19.995	103.418	19.457	50.070	0.503
479.000	317.381	80.012	19.995	103.421	19.455	50.172	0.510
479.500	317.634	80.012	19.995	103.421	19.452	50.420	0.526
480.000	317.895	80.011	19.994	103.419	19.447	50.701	0.519
480.500	318.133	80.010	19.995	103.422	19.445	50.867	0.507
481.000	318.419	80.011	19.995	103.424	19.444	50.949	0.512
481.500	318.671	80.011	19.995	103.422	19.441	51.131	0.531
482.000	318.883	80.012	19.994	103.426	19.439	51.259	0.500
482.500	319.137	80.013	19.995	103.431	19.436	51.438	0.465
483.000	319.402	80.012	19.994	103.431	19.434	51.588	0.493
483.500	319.643	80.011	19.995	103.433	19.432	51.751	0.513
484.000	319.922	80.010	19.993	103.439	19.432	51.746	0.513
484.500	320.139	80.012	19.995	103.441	19.422	52.377	0.508
485.000	320.441	80.010	19.995	103.440	19.422	52.429	0.507
485.500	320.689	80.011	19.994	103.440	19.418	52.676	0.535
486.000	320.929	80.011	19.994	103.441	19.417	52.750	0.519
486.500	321.195	80.011	19.995	103.441	19.414	52.928	0.497
487.000	321.447	80.011	19.995	103.444	19.413	53.009	0.512
487.500	321.716	80.009	19.995	103.446	19.411	53.135	0.520
488.000	321.981	80.009	19.995	103.447	19.406	53.485	0.527
488.500	322.247	80.010	19.995	103.448	19.403	53.713	0.532
489.000	322.529	80.008	19.995	103.448	19.399	53.975	0.540
489.500	322.762	80.008	19.994	103.448	19.398	54.023	0.532
490.000	323.002	80.009	19.994	103.448	19.391	54.509	0.494
490.500	323.257	80.008	19.995	103.448	19.390	54.576	0.484
491.000	323.501	80.010	19.995	103.448	19.388	54.687	0.497
491.500	323.776	80.009	19.995	103.448	19.386	54.810	0.509
492.000	324.027	80.009	19.995	103.447	19.380	55.240	0.523
492.500	324.288	80.008	19.996	103.448	19.381	55.161	0.519
493.000	324.547	80.010	19.996	103.450	19.376	55.493	0.515
493.500	324.766	80.009	19.995	103.450	19.373	55.736	0.499
494.000	325.017	80.009	19.995	103.451	19.369	55.977	0.474
494.500	325.262	80.009	19.996	103.452	19.363	56.372	0.483
495.000	325.525	80.009	19.995	103.451	19.358	56.701	0.502
495.500	325.775	80.007	19.995	103.450	19.353	57.039	0.510
496.000	326.023	80.008	19.996	103.455	19.354	56.979	0.505
496.500	326.281	80.009	19.995	103.456	19.348	57.403	0.502
497.000	326.554	80.008	19.996	103.455	19.345	57.559	0.519
497.500	326.795	80.008	19.996	103.458	19.342	57.814	0.522
498.000	327.062	80.009	19.996	103.459	19.339	58.017	0.511
498.500	327.321	80.006	19.995	103.458	19.335	58.239	0.517
499.000	327.531	80.009	19.996	103.465	19.329	58.698	0.498
499.500	327.768	80.008	19.995	103.468	19.324	59.000	0.458
500.000	328.043	80.007	19.996	103.471	19.321	59.199	0.479
500.500	328.284	80.007	19.996	103.476	19.316	59.527	0.514
501.000	328.545	80.007	19.995	103.480	19.316	59.524	0.509
501.500	328.794	80.009	19.996	103.479	19.312	59.778	0.506
502.000	329.058	80.008	19.995	103.479	19.308	60.097	0.511
502.500	329.290	80.009	19.995	103.480	19.297	60.839	0.505
503.000	329.555	80.007	19.996	103.482	19.299	60.689	0.497
503.500	329.836	80.008	19.996	103.481	19.294	61.041	0.521
504.000	330.064	80.008	19.995	103.483	19.291	61.250	0.527
504.500	330.301	80.008	19.996	103.486	19.289	61.351	0.487
505.000	330.584	80.009	19.996	103.487	19.282	61.851	0.493
505.500	330.818	80.008	19.995	103.487	19.281	61.934	0.518
506.000	331.087	80.007	19.995	103.487	19.276	62.238	0.509
506.500	331.325	80.008	19.996	103.487	19.274	62.403	0.505
507.000	331.620	80.008	19.994	103.489	19.274	62.365	0.520
507.500	331.861	80.008	19.995	103.489	19.267	62.843	0.534
508.000	332.065	80.008	19.995	103.489	19.261	63.242	0.490
508.500	332.340	80.008	19.995	103.489	19.258	63.480	0.463
509.000	332.579	80.007	19.996	103.490	19.251	63.928	0.497
509.500	332.855	80.009	19.995	103.491	19.244	64.389	0.514
510.000	333.101	80.007	19.995	103.492	19.238	64.792	0.518
510.500	333.335	80.009	19.995	103.492	19.235	65.001	0.501
511.000	333.595	80.009	19.996	103.492	19.233	65.159	0.487
511.500	333.851	80.009	19.995	103.492	19.231	65.236	0.505
512.000	334.135	80.009	19.996	103.489	19.227	65.558	0.528
512.500	334.392	80.010	19.996	103.486	19.222	65.871	0.541
513.000	334.617	80.009	19.995	103.488	19.216	66.304	0.512
513.500	334.871	80.009	19.995	103.492	19.211	66.622	0.481
514.000	335.144	80.010	19.995	103.497	19.210	66.664	0.503
514.500	335.385	80.008	19.994	103.506	19.204	67.071	0.520
515.000	335.620	80.009	19.993	103.513	19.201	67.262	0.495
515.500	335.844	80.008	19.995	103.517	19.194	67.770	0.467
516.000	336.127	80.009	19.995	103.520	19.193	67.790	0.483
516.500	336.379	80.009	19.995	103.518	19.187	68.202	0.521
517.000	336.637	80.009	19.994	103.517	19.186	68.279	0.523
517.500	336.876	80.010	19.995	103.517	19.180	68.719	0.504
518.000	337.134	80.008	19.996	103.518	19.177	68.883	0.497
518.500	337.413	80.010	19.995	103.520	19.173	69.194	0.517
519.000	337.617	80.008	19.994	103.523	19.167	69.552	0.510
519.500	337.880	80.009	19.995	103.524	19.164	69.794	0.475
520.000	338.140	80.009	19.996	103.525	19.163	69.833	0.495
520.500	338.422	80.007	19.995	103.525	19.156	70.312	0.532
521.000	338.659	80.008	19.994	103.525	19.152	70.558	0.530
521.500	338.923	80.008	19.995	103.525	19.150	70.730	0.510
522.000	339.169	80.009	19.995	103.524	19.145	71.054	0.506
522.500	339.396	80.007	19.994	103.524	19.142	71.266	0.492
523.000	339.637	80.010	19.996	103.525	19.140	71.379	0.471
523.500	339.872	80.010	19.995	103.525	19.135	71.728	0.472
524.000	340.147	80.009	19.995	103.526	19.130	72.079	0.493
524.500	340.388	80.009	19.995	103.526	19.126	72.319	0.513
525.000	340.625	80.008	19.994	103.525	19.126	72.309	0.497
525.500	340.863	80.009	19.996	103.525	19.121	72.669	0.476
526.000	341.151	80.008	19.994	103.526	19.118	72.847	0.500
526.500	341.383	80.010	19.994	103.526	19.116	73.001	0.523
527.000	341.667	80.008	19.995	103.529	19.111	73.330	0.519
527.500	341.922	80.009	19.995	103.530	19.107	73.624	0.528
528.000	342.114	80.009	19.994	103.530	19.104	73.812	0.493
528.500	342.414	80.010	19.995	103.533	19.101	74.032	0.470
529.000	342.665	80.009	19.996	103.532	19.096	74.349	0.522
529.500	342.907	80.009	19.995	103.532	19.094	74.457	0.522
530.000	343.114	80.010	19.995	103.533	19.090	74.719	0.471
530.500	343.381	80.009	19.995	103.534	19.088	74.851	0.462
531.000	343.606	80.009	19.994	103.531	19.086	74.988	0.483
531.500	343.869	80.010	19.994	103.533	19.081	75.330	0.490
532.000	344.137	80.009	19.995	103.534	19.077	75.583	0.509
532.500	344.358	80.009	19.995	103.534	19.076	75.687	0.510
533.000	344.611	80.010	19.994	103.535	19.076	75.704	0.481
533.500	344.849	80.010	19.994	103.535	19.074	75.826	0.483
534.000	345.100	80.010	19.995	103.534	19.071	75.982	0.491
534.500	345.352	80.010	19.994	103.531	19.066	76.356	0.496
535.000	345.588	80.010	19.995	103.530	19.065	76.445	0.495
535.500	345.862	80.011	19.995	103.528	19.065	76.389	0.499
536.000	346.140	80.009	19.995	103.529	19.063	76.535	0.531
536.500	346.379	80.011	19.995	103.529	19.060	76.767	0.535
537.000	346.617	80.010	19.995	103.528	19.056	76.995	0.497
537.500	346.856	80.010	19.996	103.528	19.055	77.094	0.477
538.000	347.121	80.010	19.994	103.529	19.056	77.009	0.491
538.500	347.377	80.011	19.994	103.528	19.053	77.175	0.512
539.000	347.643	80.011	19.995	103.528	19.056	77.037	0.522
539.500	347.917	80.012	19.994	103.528	19.051	77.342	0.531
540.000	348.111	80.011	19.994	103.528	19.050	77.418	0.504
540.500	348.389	80.011	19.995	103.525	19.052	77.247	0.470
541.000	348.603	80.011	19.994	103.526	19.051	77.318	0.482
541.500	348.879	80.011	19.995	103.525	19.050	77.407	0.491
542.000	349.129	80.012	19.994	103.524	19.050	77.412	0.508
542.500	349.395	80.010	19.994	103.525	19.046	77.658	0.521
543.000	349.624	80.010	19.994	103.526	19.055	77.040	0.505
543.500	349.838	80.009	19.995	103.526	19.051	77.315	0.468
544.000	350.140	80.010	19.994	103.526	19.053	77.209	0.480
544.500	350.348	80.009	19.994	103.526	19.052	77.276	0.513
545.000	350.612	80.012	19.994	103.526	19.051	77.311	0.491
545.500	350.852	80.010	19.994	103.526	19.052	77.233	0.487
546.000	351.063	80.010	19.995	103.525	19.055	77.055	0.478
546.500	351.325	80.011	19.994	103.524	19.055	77.014	0.462
547.000	351.601	80.010	19.995	103.520	19.052	77.203	0.506
547.500	351.833	80.008	19.995	103.516	19.054	77.072	0.523
548.000	352.106	80.012	19.994	103.513	19.055	77.022	0.506
548.500	352.333	80.009	19.995	103.511	19.057	76.896	0.503
549.000	352.577	80.010	19.994	103.510	19.062	76.536	0.486
549.500	352.852	80.010	19.994	103.510	19.068	76.140	0.495
550.000	353.093	80.010	19.995	103.510	19.063	76.500	0.517
550.500	353.329	80.011	19.994	103.508	19.068	76.167	0.496
551.000	353.577	80.010	19.994	103.502	19.069	76.067	0.481
551.500	353.809	80.010	19.994	103.498	19.069	76.066	0.482
552.000	354.099	80.010	19.993	103.493	19.074	75.748	0.501
552.500	354.340	80.010	19.994	103.489	19.078	75.473	0.527
553.000	354.599	80.010	19.994	103.487	19.078	75.469	0.515
553.500	354.854	80.010	19.994	103.485	19.083	75.139	0.507
554.000	355.066	80.009	19.994	103.480	19.084	75.082	0.491
554.500	355.305	80.011	19.994	103.477	19.089	74.723	0.459
555.000	355.575	80.011	19.995	103.474	19.093	74.430	0.480
555.500	355.822	80.010	19.995	103.471	19.098	74.090	0.513
556.000	356.080	80.011	19.994	103.467	19.101	73.913	0.511
556.500	356.345	80.011	19.993	103.465	19.107	73.495	0.514
557.000	356.589	80.011	19.994	103.461	19.111	73.222	0.516
557.500	356.848	80.010	19.994	103.457	19.118	72.777	0.506
558.000	357.078	80.011	19.993	103.454	19.123	72.410	0.496
558.500	357.351	80.011	19.993	103.451	19.129	71.977	0.496
559.000	357.596	80.010	19.994	103.451	19.135	71.570	0.511
559.500	357.817	80.012	19.994	103.449	19.146	70.867	0.492
560.000	358.061	80.011	19.994	103.448	19.147	70.767	0.465
560.500	358.332	80.012	19.993	103.441	19.155	70.278	0.490
561.000	358.570	80.011	19.994	103.434	19.161	69.839	0.512
561.500	358.820	80.011	19.994	103.431	19.170	69.231	0.498
562.000	359.059	80.011	19.994	103.427	19.178	68.682	0.488
562.500	359.320	80.012	19.994	103.420	19.185	68.206	0.494
563.000	359.554	80.012	19.994	103.419	19.190	67.901	0.497
563.500	359.805	80.010	19.995	103.417	19.202	67.106	0.490
564.000	360.044	80.011	19.994	103.413	19.207	66.746	0.488
564.500	360.265	80.012	19.994	103.410	19.214	66.297	0.475
565.000	360.562	80.012	19.994	103.409	19.228	65.334	0.489
565.500	360.747	80.011	19.995	103.403	19.234	64.957	0.500
566.000	361.019	80.012	19.994	103.396	19.242	64.395	0.470
566.500	361.269	80.010	19.995	103.388	19.250	63.887	0.489
567.000	361.502	80.011	19.994	103.380	19.262	63.085	0.502
567.500	361.748	80.010	19.994	103.373	19.265	62.848	0.481
568.000	361.971	80.010	19.993	103.371	19.282	61.723	0.474
568.500	362.213	80.010	19.994	103.371	19.286	61.426	0.467
569.000	362.431	80.011	19.995	103.370	19.299	60.569	0.463
569.500	362.671	80.009	19.994	103.370	19.308	59.962	0.459
570.000	362.927	80.011	19.994	103.367	19.318	59.272	0.477
570.500	363.169	80.009	19.995	103.363	19.330	58.476	0.497
571.000	363.429	80.010	19.995	103.359	19.340	57.772	0.500
571.500	363.677	80.008	19.995	103.358	19.353	56.950	0.505
572.000	363.915	80.009	19.994	103.353	19.361	56.389	0.497
572.500	364.157	80.007	19.995	103.350	19.366	56.085	0.483
573.000	364.438	80.009	19.995	103.346	19.380	55.096	0.501
573.500	364.710	80.009	19.995	103.342	19.391	54.408	0.538
574.000	364.948	80.009	19.995	103.336	19.400	53.779	0.532
574.500	365.185	80.009	19.995	103.334	19.411	53.055	0.492
575.000	365.456	80.008	19.995	103.333	19.424	52.166	0.492
575.500	365.684	80.008	19.995	103.333	19.435	51.458	0.504
576.000	365.957	80.009	19.995	103.333	19.443	50.857	0.500
576.500	366.203	80.010	19.995	103.333	19.452	50.308	0.510
577.000	366.450	80.010	19.995	103.327	19.469	49.153	0.506
577.500	366.720	80.008	19.997	103.319	19.482	48.266	0.505
578.000	366.970	80.010	19.994	103.311	19.489	47.837	0.519
578.500	367.206	80.008	19.995	103.301	19.499	47.127	0.503
579.000	367.484	80.009	19.995	103.293	19.512	46.267	0.500
579.500	367.751	80.009	19.995	103.290	19.525	45.355	0.530
580.000	367.958	80.010	19.995	103.290	19.535	44.704	0.509
580.500	368.243	80.009	19.994	103.288	19.551	43.663	0.483
581.000	368.466	80.010	19.995	103.282	19.560	43.057	0.500
581.500	368.724	80.010	19.996	103.276	19.571	42.292	0.494
582.000	369.006	80.010	19.995	103.271	19.582	41.563	0.511
582.500	369.292	80.010	19.994	103.266	19.593	40.844	0.554
583.000	369.542	80.010	19.996	103.260	19.605	40.011	0.552
583.500	369.810	80.009	19.994	103.258	19.613	39.474	0.526
584.000	370.063	80.009	19.995	103.257	19.628	38.468	0.519
584.500	370.332	80.010	19.995	103.254	19.638	37.788	0.522
585.000	370.602	80.009	19.995	103.250	19.651	36.961	0.530
585.500	370.848	80.010	19.995	103.250	19.659	36.405	0.528
586.000	371.106	80.010	19.994	103.250	19.671	35.583	0.511
586.500	371.353	80.011	19.995	103.245	19.685	34.692	0.505
587.000	371.613	80.010	19.995	103.242	19.694	34.098	0.506
587.500	371.890	80.008	19.995	103.241	19.707	33.207	0.522
588.000	372.134	80.009	19.995	103.236	19.719	32.379	0.529
588.500	372.437	80.009	19.995	103.230	19.727	31.894	0.534
589.000	372.704	80.009	19.995	103.227	19.736	31.244	0.559
589.500	372.967	80.009	19.995	103.222	19.749	30.395	0.550
590.000	373.243	80.007	19.996	103.217	19.764	29.417	0.534
590.500	373.497	80.008	19.995	103.214	19.769	29.032	0.534
591.000	373.765	80.008	19.995	103.213	19.780	28.294	0.527
591.500	374.046	80.009	19.994	103.213	19.790	27.632	0.536
592.000	374.327	80.008	19.995	103.213	19.801	26.939	0.556
592.500	374.554	80.010	19.995	103.214	19.810	26.288	0.535
593.000	374.839	80.008	19.994	103.214	19.818	25.738	0.510
593.500	375.127	80.010	19.995	103.214	19.826	25.221	0.542
594.000	375.382	80.009	19.995	103.214	19.836	24.594	0.558
594.500	375.661	80.010	19.995	103.214	19.840	24.272	0.538
595.000	375.913	80.010	19.995	103.212	19.851	23.556	0.533
595.500	376.169	80.009	19.995	103.207	19.855	23.320	0.520
596.000	376.447	80.009	19.995	103.202	19.865	22.621	0.521
596.500	376.715	80.010	19.996	103.196	19.872	22.132	0.540
597.000	376.972	80.009	19.995	103.193	19.880	21.612	0.535
597.500	377.273	80.009	19.996	103.192	19.887	21.145	0.541
598.000	377.504	80.009	19.995	103.197	19.896	20.548	0.545
598.500	377.792	80.010	19.996	103.201	19.897	20.482	0.525
599.000	378.085	80.009	19.996	103.206	19.905	19.942	0.550
599.500	378.346	80.009	19.996	103.209	19.915	19.280	0.568
600.000	378.601	80.009	19.996	103.210	19.919	18.974	0.535
600.500	378.916	80.009	19.997	103.210	19.922	18.780	0.542
601.000	379.190	80.009	19.995	103.210	19.930	18.240	0.579
601.500	379.461	80.008	19.995	103.210	19.940	17.595	0.567
602.000	379.744	80.008	19.995	103.209	19.944	17.355	0.550
602.500	379.960	80.008	19.996	103.206	19.945	17.256	0.526
603.000	380.246	80.008	19.997	103.202	19.951	16.841	0.500
603.500	380.505	80.008	19.995	103.199	19.958	16.408	0.523
604.000	380.806	80.008	19.995	103.198	19.959	16.337	0.552
604.500	381.064	80.008	19.996	103.199	19.964	16.018	0.560
605.000	381.325	80.008	19.996	103.198	19.969	15.629	0.539
605.500	381.586	80.009	19.995	103.194	19.970	15.559	0.520
606.000	381.859	80.009	19.996	103.192	19.976	15.213	0.528
606.500	382.154	80.007	19.995	103.188	19.982	14.800	0.551
607.000	382.418	80.010	19.996	103.183	19.981	14.826	0.563
607.500	382.672	80.008	19.996	103.179	19.988	14.407	0.539
608.000	382.954	80.009	19.996	103.179	19.990	14.226	0.527
608.500	383.209	80.009	19.997	103.178	19.994	13.962	0.536
609.000	383.498	80.009	19.996	103.182	19.992	14.090	0.541
609.500	383.727	80.009	19.996	103.187	19.998	13.686	0.531
610.000	384.026	80.010	19.995	103.192	19.999	13.629	0.523
610.500	384.289	80.009	19.996	103.198	20.001	13.487	0.545
611.000	384.521	80.009	19.996	103.198	20.007	13.081	0.529
611.500	384.838	80.009	19.995	103.194	20.005	13.246	0.522
612.000	385.086	80.009	19.995	103.187	20.010	12.911	0.557
612.500	385.347	80.010	19.995	103.182	20.016	12.540	0.537
613.000	385.620	80.010	19.995	103.179	20.013	12.735	0.522
613.500	385.848	80.009	19.994	103.183	20.017	12.414	0.518
614.000	386.172	80.010	19.994	103.186	20.020	12.234	0.527
614.500	386.412	80.009	19.994	103.186	20.018	12.391	0.558
615.000	386.687	80.010	19.995	103.186	20.021	12.203	0.539
615.500	386.939	80.010	19.995	103.184	20.024	11.995	0.521
616.000	387.220	80.011	19.995	103.179	20.027	11.779	0.530
616.500	387.461	80.011	19.993	103.176	20.030	11.606	0.528
617.001	387.723	80.009	19.994	103.177	20.028	11.726	0.513
617.500	388.025	80.010	19.994	103.176	20.027	11.797	0.533
618.000	388.258	80.010	19.994	103.177	20.029	11.629	0.549
618.500	388.558	80.012	19.994	103.176	20.031	11.493	0.534
619.000	388.820	80.009	19.994	103.177	20.033	11.362	0.548
619.500	389.064	80.011	19.993	103.177	20.036	11.172	0.534
620.000	389.328	80.011	19.995	103.177	20.031	11.526	0.507
620.500	389.587	80.012	19.994	103.176	20.033	11.363	0.515
621.000	389.868	80.012	19.994	103.176	20.041	10.806	0.531
621.500	390.143	80.010	19.995	103.176	20.037	11.127	0.548
622.000	390.401	80.010	19.994	103.175	20.039	10.939	0.545
622.500	390.603	80.011	19.994	103.175	20.040	10.905	0.496
623.000	390.890	80.012	19.994	103.175	20.046	10.488	0.474
623.500	391.151	80.012	19.995	103.175	20.040	10.874	0.519
624.000	391.404	80.010	19.994	103.176	20.044	10.641	0.531
624.500	391.695	80.011	19.994	103.175	20.047	10.437	0.529
625.000	391.949	80.011	19.994	103.176	20.047	10.451	0.544
625.500	392.230	80.011	19.994	103.176	20.048	10.366	0.540
626.000	392.479	80.010	19.994	103.176	20.045	10.542	0.532
626.500	392.771	80.010	19.994	103.176	20.051	10.173	0.535
627.000	393.039	80.010	19.993	103.176	20.047	10.419	0.551
627.500	393.256	80.010	19.995	103.175	20.052	10.123	0.523
628.000	393.516	80.010	19.993	103.175	20.053	10.047	0.481
628.500	393.763	80.010	19.994	103.176	20.051	10.165	0.492
629.000	394.048	80.012	19.995	103.176	20.051	10.137	0.520
629.500	394.283	80.010	19.995	103.175	20.051	10.168	0.526
630.000	394.577	80.010	19.995	103.176	20.051	10.194	0.525
630.500	394.878	80.009	19.996	103.176	20.051	10.143	0.562
631.000	395.090	80.010	19.994	103.175	20.052	10.111	0.554
631.500	395.313	80.009	19.994	103.174	20.054	9.977	0.474
632.000	395.576	80.009	19.994	103.174	20.054	9.956	0.460
632.500	395.833	80.010	19.994	103.175	20.053	10.039	0.503
633.000	396.085	80.008	19.994	103.175	20.056	9.804	0.515
633.500	396.341	80.010	19.994	103.177	20.056	9.821	0.508
634.000	396.602	80.009	19.993	103.178	20.057	9.787	0.512
634.500	396.851	80.009	19.994	103.178	20.058	9.720	0.513
635.000	397.065	80.008	19.993	103.178	20.058	9.715	0.487
635.500	397.367	80.009	19.994	103.179	20.060	9.597	0.490
636.000	397.627	80.010	19.995	103.178	20.058	9.666	0.539
636.500	397.855	80.009	19.994	103.178	20.064	9.307	0.525
637.000	398.094	80.009	19.994	103.178	20.062	9.431	0.477
637.500	398.353	80.008	19.994	103.178	20.060	9.598	0.482
638.000	398.621	80.010	19.994	103.177	20.063	9.356	0.513
638.500	398.851	80.009	19.995	103.177	20.063	9.350	0.512
639.000	399.108	80.009	19.995	103.175	20.061	9.467	0.492
639.500	399.372	80.010	19.994	103.174	20.058	9.684	0.504
640.000	399.624	80.010	19.995	103.183	20.059	9.655	0.519
640.500	399.846	80.011	19.995	103.167	20.065	9.245	0.495
641.000	400.115	80.012	19.994	103.148	20.063	9.390	0.482
641.500	400.376	80.010	19.995	103.134	20.067	9.106	0.511
642.000	400.615	80.009	19.994	103.126	20.064	9.294	0.515
642.500	400.865	80.010	19.995	103.113	20.062	9.452	0.494
643.000	401.091	80.011	19.994	103.156	20.062	9.401	0.482
643.500	401.335	80.010	19.995	103.189	20.067	9.080	0.473
644.000	401.566	80.011	19.995	103.206	20.064	9.264	0.473
644.500	401.830	80.011	19.994	103.214	20.070	8.874	0.485
645.000	402.039	80.011	19.994	103.217	20.068	9.061	0.484
645.500	402.349	80.011	19.994	103.190	20.067	9.080	0.496
646.000	402.533	80.012	19.994	103.175	20.071	8.838	0.506
646.500	402.793	80.012	19.995	103.172	20.070	8.869	0.469
647.000	403.049	80.012	19.994	103.171	20.070	8.893	0.480
647.500	403.330	80.013	19.993	103.171	20.070	8.869	0.527
648.000	403.511	80.010	19.994	103.168	20.072	8.740	0.499
648.500	403.777	80.012	19.994	103.167	20.069	8.944	0.454
649.000	404.046	80.012	19.994	103.167	20.070	8.869	0.491
649.500	404.258	80.012	19.995	103.166	20.068	8.997	0.508
650.000	404.529	80.013	19.994	103.165	20.074	8.635	0.482
650.500	404.756	80.011	19.993	103.167	20.071	8.861	0.491
651.000	405.007	80.012	19.994	103.167	20.077	8.437	0.488
651.500	405.254	80.011	19.994	103.165	20.076	8.489	0.488
652.000	405.437	80.011	19.995	103.165	20.072	8.768	0.464
652.500	405.695	80.011	19.994	103.165	20.074	8.647	0.436
653.000	405.934	80.011	19.994	103.166	20.075	8.575	0.469
653.500	406.126	80.011	19.995	103.161	20.074	8.611	0.464
654.000	406.380	80.010	19.994	103.159	20.076	8.467	0.438
654.500	406.619	80.009	19.993	103.155	20.073	8.706	0.470
655.000	406.857	80.010	19.995	103.152	20.074	8.600	0.485
655.500	407.097	80.009	19.994	103.148	20.074	8.596	0.477
656.000	407.333	80.008	19.994	103.152	20.075	8.559	0.477
656.500	407.586	80.010	19.995	103.156	20.075	8.541	0.483
657.000	407.807	80.009	19.994	103.156	20.080	8.230	0.482
657.500	408.035	80.007	19.994	103.158	20.080	8.202	0.461
658.000	408.277	80.009	19.994	103.162	20.079	8.305	0.459
658.500	408.506	80.008	19.994	103.162	20.077	8.414	0.470
659.000	408.740	80.009	19.995	103.159	20.078	8.372	0.467
659.500	408.953	80.008	19.995	103.163	20.080	8.224	0.456
660.000	409.187	80.009	19.994	103.162	20.079	8.262	0.447
660.500	409.461	80.008	19.994	103.162	20.080	8.236	0.477
661.000	409.677	80.009	19.995	103.165	20.081	8.185	0.499
661.500	409.894	80.010	19.994	103.168	20.081	8.154	0.462
662.000	410.153	80.008	19.995	103.170	20.084	7.929	0.455
662.500	410.369	80.009	19.995	103.169	20.083	8.037	0.475
663.000	410.604	80.008	19.995	103.164	20.083	8.050	0.462
663.500	410.821	80.008	19.995	103.164	20.084	7.964	0.451
664.000	411.073	80.009	19.995	103.165	20.083	8.041	0.461
664.500	411.287	80.009	19.995	103.165	20.085	7.913	0.468
665.000	411.522	80.008	19.994	103.169	20.083	8.021	0.458
665.500	411.718	80.009	19.995	103.171	20.080	8.227	0.440
666.000	411.985	80.009	19.995	103.167	20.085	7.896	0.446
666.500	412.211	80.008	19.996	103.162	20.082	8.122	0.478
667.000	412.455	80.009	19.996	103.157	20.086	7.825	0.482
667.500	412.678	80.008	19.995	103.155	20.085	7.872	0.468
668.000	412.909	80.009	19.995	103.154	20.084	7.934	0.461
668.500	413.146	80.010	19.996	103.157	20.085	7.872	0.461
669.000	413.350	80.009	19.996	103.158	20.087	7.737	0.454
669.500	413.583	80.009	19.994	103.162	20.086	7.849	0.439
670.000	413.805	80.008	19.996	103.159	20.087	7.761	0.446
670.500	414.031	80.008	19.996	103.156	20.085	7.910	0.451
671.000	414.268	80.010	19.995	103.151	20.087	7.764	0.455
671.500	414.468	80.010	19.996	103.148	20.087	7.733	0.450
672.000	414.673	80.009	19.995	103.142	20.090	7.544	0.422
672.500	414.922	80.010	19.995	103.146	20.089	7.624	0.430
673.000	415.130	80.009	19.995	103.152	20.091	7.484	0.455
673.500	415.347	80.009	19.996	103.158	20.092	7.432	0.441
674.000	415.597	80.009	19.995	103.158	20.085	7.913	0.446
674.500	415.807	80.010	19.994	103.161	20.086	7.796	0.464
675.000	416.061	80.010	19.994	103.160	20.090	7.534	0.462
675.500	416.272	80.010	19.995	103.160	20.088	7.705	0.464
676.000	416.533	80.009	19.995	103.161	20.090	7.550	0.468
676.500	416.751	80.010	19.994	103.167	20.092	7.441	0.475
677.000	416.968	80.010	19.995	103.169	20.091	7.479	0.457
677.500	417.170	80.010	19.994	103.171	20.089	7.627	0.427
678.000	417.425	80.009	19.996	103.171	20.090	7.587	0.438
678.500	417.655	80.009	19.994	103.171	20.087	7.732	0.471
679.000	417.906	80.011	19.996	103.170	20.089	7.619	0.483
679.500	418.124	80.009	19.996	103.170	20.087	7.789	0.475
680.000	418.345	80.007	19.995	103.171	20.089	7.641	0.454
680.500	418.584	80.010	19.996	103.171	20.090	7.530	0.449
681.000	418.823	80.009	19.995	103.169	20.091	7.468	0.469
681.500	419.042	80.009	19.995	103.167	20.089	7.652	0.469
682.000	419.237	80.010	19.993	103.167	20.091	7.465	0.436
682.500	419.492	80.010	19.994	103.166	20.087	7.761	0.432
683.000	419.733	80.009	19.994	103.163	20.087	7.754	0.473
683.500	419.944	80.009	19.995	103.164	20.088	7.709	0.474
684.000	420.197	80.008	19.995	103.169	20.089	7.643	0.458
684.500	420.451	80.008	19.995	103.172	20.090	7.572	0.485
685.000	420.672	80.008	19.994	103.175	20.091	7.514	0.491
685.500	420.906	80.007	19.995	103.178	20.090	7.550	0.465
686.000	421.140	80.008	19.995	103.179	20.088	7.683	0.462
686.500	421.420	80.008	19.995	103.179	20.089	7.592	0.491
687.000	421.674	80.009	19.995	103.176	20.090	7.563	0.524
687.500	421.883	80.008	19.995	103.176	20.091	7.466	0.499
688.000	422.104	80.009	19.995	103.176	20.091	7.466	0.446
688.500	422.398	80.008	19.996	103.177	20.087	7.789	0.472
689.000	422.587	80.008	19.995	103.176	20.086	7.834	0.499
689.500	422.860	80.008	19.995	103.176	20.092	7.423	0.472
690.000	423.101	80.008	19.995	103.176	20.087	7.752	0.488
690.500	423.356	80.009	19.995	103.175	20.088	7.688	0.505
691.000	423.630	80.009	19.995	103.175	20.090	7.537	0.512
691.500	423.833	80.008	19.995	103.175	20.091	7.499	0.503
692.000	424.071	80.008	19.995	103.175	20.090	7.537	0.459
692.500	424.283	80.008	19.995	103.174	20.092	7.423	0.446
693.000	424.526	80.008	19.996	103.175	20.090	7.566	0.453
693.501	424.790	80.007	19.995	103.175	20.088	7.707	0.481
694.001	425.066	80.007	19.996	103.175	20.091	7.503	0.523
694.500	425.337	80.008	19.996	103.176	20.089	7.614	0.543
695.000	425.558	80.008	19.996	103.177	20.091	7.495	0.519
695.500	425.818	80.008	19.996	103.176	20.091	7.461	0.487
696.000	426.065	80.006	19.995	103.176	20.091	7.459	0.494
696.500	426.320	80.007	19.996	103.176	20.090	7.586	0.505
697.000	426.556	80.009	19.995	103.175	20.091	7.488	0.497
697.500	426.778	80.009	19.996	103.175	20.091	7.516	0.475
698.000	427.051	80.009	19.996	103.175	20.090	7.532	0.477
698.500	427.268	80.008	19.995	103.175	20.092	7.430	0.493
699.000	427.555	80.007	19.994	103.175	20.089	7.618	0.497
699.500	427.840	80.009	19.996	103.174	20.093	7.373	0.538
700.000	428.098	80.008	19.995	103.175	20.096	7.189	0.557
700.500	428.337	80.009	19.995	103.174	20.093	7.340	0.520
701.000	428.607	80.009	19.994	103.173	20.090	7.551	0.503
701.500	428.871	80.008	19.995	103.173	20.092	7.426	0.522
702.000	429.105	80.009	19.995	103.172	20.092	7.440	0.516
702.500	429.331	80.008	19.994	103.171	20.094	7.284	0.479
703.000	429.617	80.010	19.995	103.172	20.093	7.324	0.486
703.500	429.852	80.009	19.996	103.173	20.091	7.470	0.516
704.000	430.100	80.010	19.996	103.173	20.094	7.289	0.502
704.500	430.371	80.010	19.995	103.175	20.091	7.468	0.501
705.000	430.605	80.010	19.995	103.173	20.094	7.280	0.512
705.500	430.864	80.010	19.995	103.172	20.091	7.474	0.499
706.000	431.102	80.011	19.994	103.172	20.092	7.399	0.495
706.500	431.349	80.011	19.994	103.171	20.095	7.228	0.491
707.000	431.648	80.010	19.995	103.171	20.095	7.206	0.516
707.501	431.853	80.010	19.994	103.173	20.094	7.271	0.525
708.000	432.148	80.010	19.994	103.174	20.094	7.311	0.502
708.500	432.394	80.010	19.994	103.174	20.097	7.080	0.520
709.000	432.628	80.010	19.994	103.175	20.093	7.326	0.511
709.500	432.911	80.008	19.993	103.175	20.094	7.302	0.499
710.000	433.158	80.010	19.994	103.175	20.095	7.233	0.524
710.500	433.428	80.010	19.994	103.172	20.096	7.169	0.523
711.000	433.706	80.010	19.994	103.168	20.093	7.324	0.532
711.500	433.928	80.008	19.994	103.165	20.094	7.295	0.524
712.000	434.179	80.012	19.995	103.164	20.096	7.160	0.487
712.500	434.508	80.010	19.994	103.164	20.095	7.195	0.526
713.000	434.767	80.010	19.994	103.165	20.095	7.253	0.584
713.500	435.015	80.009	19.993	103.167	20.095	7.211	0.548
714.000	435.248	80.010	19.994	103.168	20.093	7.346	0.494
714.500	435.515	80.009	19.993	103.169	20.097	7.058	0.491
715.000	435.741	80.011	19.995	103.169	20.097	7.089	0.496
715.500	436.069	80.011	19.994	103.170	20.095	7.193	0.524
716.000	436.298	80.011	19.994	103.172	20.095	7.240	0.556
716.500	436.560	80.009	19.994	103.173	20.096	7.164	0.524
717.000	436.770	80.011	19.995	103.173	20.096	7.154	0.481
717.500	437.062	80.010	19.994	103.173	20.097	7.110	0.487
718.000	437.328	80.010	19.995	103.173	20.097	7.074	0.531
718.500	437.579	80.009	19.995	103.173	20.096	7.130	0.537
719.000	437.871	80.011	19.993	103.173	20.098	7.037	0.529
719.500	438.098	80.009	19.994	103.172	20.098	7.030	0.531
720.000	438.307	80.011	19.995	103.172	20.098	7.041	0.478
720.500	438.603	80.011	19.994	103.172	20.097	7.116	0.471
721.000	438.853	80.011	19.995	103.172	20.095	7.205	0.525
721.500	439.135	80.012	19.994	103.171	20.097	7.109	0.539
722.000	439.389	80.010	19.995	103.172	20.098	7.040	0.534
722.500	439.630	80.011	19.994	103.172	20.095	7.248	0.515
723.000	439.885	80.011	19.995	103.172	20.100	6.916	0.495
723.500	440.157	80.011	19.994	103.171	20.095	7.191	0.512
724.000	440.399	80.010	19.995	103.172	20.095	7.227	0.521
724.500	440.653	80.011	19.995	103.172	20.095	7.196	0.505
725.000	440.926	80.011	19.994	103.172	20.096	7.123	0.511
725.500	441.179	80.011	19.994	103.171	20.097	7.065	0.526
726.000	441.462	80.011	19.994	103.172	20.094	7.264	0.531
726.500	441.710	80.011	19.994	103.172	20.100	6.880	0.534
727.000	441.943	80.013	19.994	103.172	20.099	6.949	0.506
727.500	442.244	80.012	19.994	103.171	20.100	6.873	0.507
728.000	442.500	80.010	19.995	103.166	20.096	7.158	0.545
728.500	442.719	80.012	19.994	103.162	20.100	6.901	0.516
729.000	442.998	80.011	19.994	103.161	20.099	6.923	0.486
729.500	443.234	80.014	19.994	103.160	20.099	6.932	0.507
730.000	443.506	80.012	19.995	103.160	20.101	6.796	0.512
730.500	443.786	80.013	19.995	103.163	20.099	6.982	0.530
731.000	444.033	80.011	19.994	103.162	20.096	7.172	0.540
731.500	444.273	80.013	19.995	103.163	20.101	6.812	0.507
732.000	444.536	80.011	19.995	103.163	20.102	6.754	0.495
732.500	444.762	80.010	19.994	103.164	20.100	6.889	0.496
733.000	445.024	80.012	19.994	103.165	20.099	6.943	0.488
733.500	445.301	80.012	19.995	103.170	20.099	6.929	0.513
734.000	445.547	80.010	19.994	103.169	20.102	6.783	0.531
734.500	445.833	80.012	19.995	103.167	20.104	6.637	0.527
735.000	446.076	80.012	19.995	103.168	20.102	6.767	0.531
735.500	446.312	80.011	19.995	103.167	20.103	6.701	0.504
736.000	446.567	80.012	19.995	103.166	20.104	6.625	0.485
736.500	446.839	80.012	19.995	103.167	20.103	6.663	0.509
737.000	447.118	80.011	19.994	103.170	20.105	6.561	0.539
737.500	447.327	80.010	19.993	103.170	20.103	6.689	0.519
738.000	447.567	80.010	19.994	103.171	20.104	6.629	0.468
738.500	447.859	80.009	19.994	103.172	20.102	6.773	0.491
739.000	448.097	80.010	19.994	103.172	20.103	6.656	0.532
739.500	448.392	80.009	19.994	103.169	20.104	6.590	0.532
740.000	448.655	80.010	19.995	103.163	20.103	6.703	0.545
740.500	448.915	80.009	19.995	103.156	20.106	6.456	0.540
741.000	449.161	80.010	19.995	103.151	20.106	6.492	0.515
741.500	449.416	80.009	19.994	103.151	20.104	6.647	0.504
742.000	449.663	80.010	19.994	103.153	20.103	6.720	0.501
742.500	449.930	80.010	19.995	103.160	20.107	6.437	0.508
743.000	450.231	80.010	19.995	103.167	20.106	6.456	0.541
743.500	450.520	80.009	19.994	103.171	20.106	6.488	0.579
744.000	450.742	80.010	19.995	103.169	20.107	6.423	0.550
744.500	451.005	80.011	19.994	103.169	20.105	6.552	0.499
745.000	451.275	80.010	19.994	103.167	20.104	6.594	0.510
745.500	451.558	80.011	19.995	103.166	20.106	6.483	0.543
746.000	451.773	80.010	19.994	103.167	20.105	6.543	0.525
746.500	452.055	80.010	19.994	103.171	20.107	6.441	0.498
747.000	452.300	80.009	19.993	103.172	20.107	6.439	0.512
747.500	452.549	80.009	19.994	103.174	20.108	6.367	0.510
748.000	452.817	80.009	19.994	103.175	20.107	6.421	0.506
748.500	453.070	80.010	19.994	103.175	20.103	6.656	0.519
749.000	453.334	80.008	19.995	103.175	20.107	6.399	0.519
749.500	453.622	80.008	19.993	103.174	20.108	6.321	0.535
750.000	453.901	80.010	19.994	103.172	20.113	6.006	0.560
750.500	454.134	80.011	19.994	103.172	20.111	6.173	0.540
751.000	454.420	80.009	19.994	103.173	20.109	6.259	0.515
751.500	454.693	80.010	19.993	103.173	20.111	6.135	0.539
752.000	454.925	80.010	19.993	103.173	20.112	6.071	0.532
752.500	455.174	80.009	19.995	103.174	20.111	6.135	0.493
753.000	455.444	80.010	19.994	103.174	20.112	6.091	0.500
753.500	455.716	80.009	19.994	103.173	20.113	5.989	0.531
754.000	455.967	80.009	19.994	103.173	20.112	6.073	0.532
754.500	456.260	80.009	19.994	103.174	20.113	5.995	0.533
755.000	456.505	80.007	19.993	103.175	20.115	5.866	0.541
755.500	456.794	80.010	19.995	103.174	20.113	6.026	0.536
756.000	457.021	80.011	19.994	103.176	20.112	6.066	0.526
756.500	457.308	80.010	19.994	103.177	20.111	6.124	0.515
757.000	457.572	80.009	19.994	103.176	20.113	6.000	0.532
757.500	457.828	80.010	19.994	103.176	20.112	6.068	0.536
758.000	458.094	80.009	19.995	103.176	20.115	5.891	0.522
758.500	458.349	80.011	19.993	103.177	20.115	5.904	0.521
759.000	458.600	80.009	19.994	103.176	20.116	5.807	0.513
759.500	458.878	80.010	19.995	103.176	20.116	5.809	0.517
760.000	459.140	80.010	19.994	103.175	20.116	5.831	0.534
760.500	459.408	80.009	19.994	103.174	20.116	5.787	0.535
761.000	459.656	80.008	19.994	103.174	20.118	5.698	0.523
761.500	459.908	80.009	19.995	103.173	20.114	5.979	0.508
762.000	460.240	80.009	19.995	103.174	20.119	5.634	0.542
762.500	460.452	80.010	19.995	103.175	20.116	5.842	0.564
763.000	460.728	80.010	19.995	103.174	20.116	5.838	0.516
763.500	460.966	80.008	19.995	103.172	20.116	5.822	0.501
764.000	461.199	80.008	19.995	103.172	20.115	5.889	0.493
764.500	461.511	80.008	19.994	103.172	20.120	5.530	0.508
765.000	461.756	80.010	19.995	103.171	20.119	5.596	0.551
765.500	462.055	80.008	19.995	103.171	20.119	5.638	0.550
766.000	462.300	80.010	19.995	103.173	20.117	5.720	0.544
766.500	462.610	80.008	19.995	103.173	20.119	5.590	0.550
767.000	462.827	80.008	19.995	103.173	20.118	5.665	0.541
767.500	463.106	80.008	19.995	103.173	20.123	5.346	0.511
768.000	463.373	80.009	19.995	103.173	20.122	5.419	0.520
768.500	463.611	80.008	19.995	103.174	20.119	5.603	0.526
769.000	463.891	80.007	19.994	103.172	20.119	5.621	0.512
769.500	464.149	80.007	19.994	103.172	20.121	5.461	0.528
770.000	464.392	80.008	19.995	103.173	20.124	5.295	0.519
770.500	464.642	80.006	19.994	103.176	20.121	5.467	0.497
771.000	464.938	80.007	19.994	103.174	20.122	5.414	0.520
771.500	465.181	80.007	19.995	103.176	20.120	5.536	0.542
772.000	465.455	80.009	19.995	103.175	20.123	5.341	0.528
772.500	465.727	80.008	19.995	103.175	20.124	5.284	0.531
773.000	465.971	80.008	19.994	103.175	20.122	5.430	0.531
773.500	466.287	80.008	19.995	103.174	20.129	4.951	0.538
774.000	466.544	80.007	19.995	103.172	20.129	4.942	0.567
774.500	466.776	80.007	19.994	103.172	20.129	4.939	0.531
775.000	467.076	80.007	19.995	103.172	20.128	5.015	0.511
775.500	467.317	80.008	19.994	103.172	20.126	5.161	0.537
776.000	467.577	80.008	19.995	103.173	20.127	5.070	0.521
776.500	467.863	80.008	19.994	103.174	20.129	4.953	0.524
777.000	468.112	80.008	19.995	103.168	20.127	5.100	0.541
777.500	468.357	80.009	19.994	103.168	20.130	4.900	0.514
778.000	468.649	80.009	19.994	103.165	20.129	4.928	0.515
778.500	468.895	80.008	19.995	103.164	20.130	4.895	0.538
779.000	469.177	80.009	19.994	103.164	20.126	5.141	0.533
779.500	469.427	80.008	19.994	103.170	20.129	4.922	0.530
780.000	469.673	80.010	19.994	103.171	20.131	4.800	0.514
780.500	469.951	80.009	19.995	103.169	20.133	4.707	0.510
781.000	470.212	80.010	19.995	103.169	20.130	4.906	0.531
781.500	470.452	80.009	19.995	103.168	20.135	4.525	0.520
782.000	470.748	80.009	19.995	103.168	20.128	4.989	0.519
782.500	471.040	80.010	19.995	103.165	20.132	4.771	0.562
783.000	471.284	80.010	19.994	103.168	20.135	4.563	0.562
783.500	471.503	80.009	19.995	103.169	20.134	4.620	0.500
784.000	471.809	80.009	19.994	103.169	20.130	4.878	0.494
784.500	472.052	80.009	19.994	103.170	20.134	4.618	0.537
785.000	472.349	80.009	19.995	103.172	20.131	4.840	0.544
785.500	472.599	80.011	19.995	103.173	20.131	4.844	0.543
786.000	472.852	80.009	19.994	103.171	20.134	4.583	0.525
786.500	473.128	80.008	19.995	103.169	20.135	4.563	0.516
787.000	473.442	80.010	19.996	103.168	20.133	4.687	0.559
787.500	473.728	80.010	19.995	103.166	20.132	4.760	0.595
788.000	473.971	80.009	19.995	103.165	20.133	4.673	0.565
788.500	474.240	80.010	19.994	103.166	20.138	4.365	0.521
789.000	474.520	80.010	19.995	103.168	20.133	4.660	0.530
789.500	474.811	80.010	19.995	103.168	20.134	4.642	0.560
790.000	475.035	80.010	19.995	103.169	20.136	4.472	0.543
790.500	475.344	80.010	19.995	103.169	20.136	4.492	0.524
791.000	475.592	80.010	19.995	103.167	20.136	4.501	0.545
791.500	475.849	80.008	19.996	103.167	20.133	4.654	0.531
792.000	476.109	80.011	19.995	103.168	20.135	4.518	0.511
792.500	476.381	80.009	19.996	103.168	20.133	4.696	0.525
793.000	476.638	80.009	19.996	103.165	20.134	4.609	0.531
793.500	476.889	80.008	19.996	103.165	20.134	4.611	0.518
794.000	477.185	80.010	19.996	103.164	20.138	4.345	0.527
794.500	477.448	80.009	19.996	103.164	20.135	4.539	0.553
795.000	477.703	80.010	19.996	103.164	20.133	4.654	0.539
795.500	477.974	80.009	19.996	103.167	20.137	4.392	0.522
796.000	478.251	80.009	19.995	103.169	20.135	4.539	0.537
796.500	478.479	80.008	19.994	103.171	20.134	4.581	0.526
797.000	478.782	80.009	19.995	103.171	20.133	4.673	0.518
797.500	479.034	80.009	19.996	103.171	20.130	4.848	0.543
798.000	479.290	80.007	19.995	103.171	20.130	4.871	0.532
798.500	479.531	80.010	19.995	103.172	20.132	4.727	0.503
799.000	479.861	80.008	19.996	103.171	20.134	4.629	0.534
799.500	480.059	80.009	19.995	103.171	20.136	4.509	0.549
800.000	480.373	80.011	19.995	103.170	20.135	4.538	0.519
800.500	480.639	80.009	19.996	103.170	20.135	4.547	0.546
801.000	480.856	80.009	19.996	103.171	20.134	4.615	0.532
801.500	481.174	80.009	19.996	103.170	20.135	4.523	0.509
802.000	481.404	80.009	19.996	103.169	20.133	4.669	0.541
802.500	481.696	80.011	19.995	103.169	20.137	4.425	0.535
803.000	481.970	80.008	19.996	103.168	20.134	4.611	0.544
803.500	482.247	80.010	19.995	103.167	20.135	4.574	0.558
804.000	482.453	80.010	19.995	103.168	20.137	4.385	0.517
804.500	482.752	80.011	19.996	103.169	20.138	4.338	0.494
805.000	483.002	80.009	19.995	103.167	20.136	4.503	0.527
805.500	483.287	80.011	19.995	103.164	20.134	4.584	0.542
806.000	483.523	80.010	19.994	103.164	20.137	4.391	0.528
806.500	483.776	80.010	19.994	103.164	20.135	4.525	0.505
807.000	484.038	80.009	19.994	103.164	20.138	4.347	0.502
807.500	484.316	80.009	19.995	103.167	20.137	4.392	0.528
808.000	484.600	80.012	19.994	103.171	20.139	4.287	0.551
808.500	484.828	80.010	19.994	103.172	20.137	4.380	0.537
809.000	485.106	80.011	19.994	103.173	20.139	4.290	0.509
809.500	485.400	80.012	19.994	103.173	20.140	4.185	0.539
810.000	485.608	80.010	19.994	103.173	20.137	4.383	0.537
810.500	485.913	80.010	19.995	103.174	20.139	4.248	0.508
811.000	486.137	80.010	19.994	103.174	20.141	4.168	0.521
811.500	486.452	80.012	19.995	103.173	20.135	4.574	0.534
812.000	486.646	80.010	19.994	103.173	20.138	4.360	0.524
812.500	486.921	80.010	19.994	103.173	20.139	4.261	0.489
813.000	487.203	80.011	19.993	103.171	20.141	4.163	0.513
813.500	487.517	80.012	19.994	103.171	20.141	4.168	0.577
814.000	487.752	80.011	19.993	103.171	20.139	4.276	0.572
814.500	487.993	80.010	19.993	103.170	20.138	4.343	0.512
815.000	488.268	80.010	19.993	103.171	20.142	4.088	0.496
815.500	488.547	80.012	19.996	103.172	20.141	4.159	0.535
816.000	488.784	80.010	19.995	103.172	20.142	4.055	0.535
816.500	489.059	80.010	19.994	103.173	20.138	4.378	0.514
817.000	489.306	80.011	19.994	103.174	20.138	4.358	0.517
817.500	489.570	80.011	19.995	103.174	20.139	4.296	0.517
818.000	489.851	80.010	19.995	103.174	20.145	3.906	0.528
818.500	490.111	80.011	19.994	103.174	20.139	4.258	0.543
819.000	490.339	80.010	19.994	103.174	20.138	4.374	0.515
819.500	490.578	80.010	19.994	103.174	20.139	4.283	0.478
820.000	490.865	80.010	19.994	103.173	20.141	4.166	0.497
820.500	491.154	80.009	19.994	103.173	20.140	4.212	0.551
821.000	491.422	80.010	19.994	103.173	20.139	4.250	0.566
821.500	491.645	80.010	19.994	103.173	20.137	4.383	0.524
822.000	491.927	80.010	19.994	103.173	20.139	4.281	0.498
822.500	492.156	80.009	19.995	103.174	20.138	4.336	0.508
823.000	492.437	80.009	19.994	103.174	20.141	4.158	0.510
823.500	492.730	80.008	19.994	103.175	20.139	4.250	0.542
824.000	492.985	80.007	19.995	103.175	20.140	4.245	0.561
824.500	493.253	80.008	19.995	103.173	20.138	4.323	0.535
825.000	493.493	80.009	19.994	103.170	20.140	4.203	0.515
825.500	493.792	80.008	19.994	103.168	20.137	4.440	0.523
826.000	494.042	80.008	19.995	103.167	20.141	4.123	0.544
826.500	494.291	80.008	19.994	103.167	20.138	4.372	0.524
827.000	494.512	80.007	19.994	103.169	20.140	4.225	0.485
827.500	494.802	80.008	19.995	103.171	20.140	4.196	0.491
828.000	495.099	80.008	19.994	103.173	20.142	4.086	0.549
828.500	495.389	80.008	19.994	103.173	20.141	4.161	0.587
829.000	495.588	80.008	19.994	103.172	20.140	4.225	0.539
829.500	495.820	80.009	19.994	103.173	20.140	4.212	0.460
830.000	496.124	80.008	19.995	103.171	20.142	4.077	0.483
830.500	496.358	80.009	19.995	103.169	20.143	4.002	0.537
831.000	496.614	80.008	19.994	103.166	20.142	4.075	0.514
831.500	496.869	80.008	19.995	103.167	20.139	4.261	0.501
832.000	497.161	80.008	19.994	103.168	20.142	4.077	0.529
832.500	497.389	80.008	19.994	103.170	20.144	3.923	0.534
833.000	497.648	80.007	19.994	103.172	20.144	3.948	0.504
833.500	497.922	80.008	19.994	103.176	20.141	4.137	0.510
834.000	498.171	80.007	19.994	103.176	20.141	4.128	0.528
834.500	498.437	80.009	19.994	103.176	20.141	4.152	0.519
835.000	498.670	80.008	19.994	103.176	20.140	4.207	0.507
835.500	498.914	80.007	19.994	103.176	20.141	4.114	0.488
836.000	499.155	80.008	19.994	103.176	20.141	4.152	0.481
836.500	499.440	80.009	19.993	103.172	20.142	4.099	0.505
837.000	499.694	80.010	19.995	103.171	20.142	4.096	0.532
837.500	499.944	80.009	19.994	103.171	20.143	4.025	0.522
838.000	500.206	80.008	19.994	103.171	20.139	4.267	0.508
838.500	500.492	80.009	19.993	103.171	20.140	4.199	0.530
839.000	500.709	80.009	19.994	103.173	20.138	4.360	0.525
839.500	500.973	80.009	19.994	103.172	20.136	4.452	0.492
840.000	501.223	80.009	19.995	103.171	20.138	4.354	0.498
840.500	501.492	80.010	19.994	103.167	20.138	4.332	0.517
841.000	501.749	80.009	19.994	103.165	20.140	4.214	0.523
841.500	501.966	80.009	19.994	103.165	20.140	4.219	0.500
842.000	502.229	80.010	19.995	103.167	20.139	4.292	0.477
842.500	502.491	80.008	19.993	103.168	20.140	4.196	0.502
843.000	502.764	80.009	19.994	103.171	20.139	4.276	0.530
843.500	502.993	80.010	19.993	103.173	20.139	4.267	0.518
844.000	503.291	80.010	19.994	103.174	20.138	4.339	0.514
844.500	503.508	80.009	19.993	103.174	20.137	4.434	0.521
845.000	503.770	80.009	19.994	103.174	20.139	4.310	0.497
845.500	504.017	80.009	19.993	103.175	20.136	4.463	0.494
846.000	504.307	80.009	19.994	103.176	20.140	4.230	0.523
846.500	504.552	80.009	19.994	103.175	20.137	4.427	0.536
847.000	504.805	80.010	19.994	103.175	20.137	4.403	0.516
847.500	505.051	80.009	19.994	103.174	20.137	4.383	0.498
848.000	505.283	80.009	19.995	103.174	20.139	4.310	0.488
848.500	505.559	80.009	19.994	103.174	20.134	4.613	0.493
849.000	505.813	80.009	19.993	103.174	20.140	4.245	0.520
849.500	506.041	80.009	19.995	103.174	20.139	4.283	0.506
850.000	506.309	80.010	19.996	103.174	20.138	4.334	0.488
850.500	506.587	80.009	19.995	103.174	20.137	4.420	0.521
851.000	506.812	80.009	19.994	103.174	20.139	4.303	0.525
851.500	507.094	80.009	19.994	103.174	20.135	4.560	0.505
852.000	507.335	80.008	19.996	103.174	20.140	4.237	0.515
852.500	507.558	80.008	19.994	103.174	20.139	4.265	0.494
853.000	507.829	80.008	19.995	103.174	20.141	4.137	0.479
853.500	508.081	80.008	19.995	103.173	20.139	4.294	0.508
854.000	508.327	80.009	19.994	103.173	20.137	4.398	0.511
854.500	508.586	80.009	19.995	103.173	20.139	4.266	0.501
855.000	508.869	80.009	19.994	103.171	20.142	4.072	0.523
855.500	509.109	80.008	19.996	103.168	20.140	4.208	0.532
856.000	509.376	80.008	19.995	103.168	20.140	4.208	0.515
856.500	509.627	80.010	19.995	103.168	20.139	4.272	0.513
857.000	509.901	80.009	19.995	103.167	20.139	4.305	0.521
857.500	510.177	80.009	19.994	103.169	20.138	4.357	0.538
858.000	510.370	80.009	19.995	103.170	20.141	4.137	0.510
858.500	510.646	80.009	19.996	103.171	20.137	4.394	0.469
859.000	510.899	80.009	19.995	103.170	20.140	4.208	0.499
859.500	511.172	80.008	19.995	103.170	20.140	4.196	0.527
860.000	511.426	80.009	19.996	103.170	20.135	4.522	0.526
860.500	511.669	80.009	19.995	103.171	20.139	4.279	0.512
861.000	511.928	80.008	19.996	103.170	20.143	4.019	0.500
861.500	512.201	80.009	19.995	103.170	20.141	4.128	0.517
862.000	512.378	80.009	19.996	103.171	20.142	4.068	0.491
862.500	512.687	80.009	19.996	103.170	20.140	4.192	0.468
863.000	512.910	80.009	19.994	103.171	20.142	4.099	0.509
863.500	513.191	80.009	19.996	103.172	20.141	4.167	0.518
864.000	513.430	80.008	19.995	103.171	20.143	4.034	0.512
864.500	513.737	80.009	19.995	103.171	20.140	4.179	0.533
865.001	514.001	80.009	19.995	103.167	20.141	4.128	0.559
865.500	514.254	80.010	19.995	103.166	20.139	4.278	0.544
866.000	514.520	80.009	19.995	103.166	20.139	4.263	0.518
866.500	514.792	80.010	19.994	103.164	20.143	4.026	0.528
867.000	515.089	80.011	19.995	103.161	20.142	4.044	0.553
867.500	515.353	80.010	19.995	103.165	20.143	4.024	0.565
868.000	515.605	80.011	19.995	103.165	20.145	3.880	0.539
868.500	515.846	80.009	19.994	103.165	20.141	4.132	0.505
869.000	516.096	80.011	19.995	103.168	20.140	4.206	0.492
869.500	516.391	80.010	19.995	103.170	20.140	4.237	0.518
870.000	516.639	80.011	19.995	103.170	20.141	4.150	0.544
870.500	516.899	80.011	19.995	103.170	20.143	3.990	0.525
871.000	517.143	80.011	19.995	103.170	20.141	4.132	0.505
871.500	517.438	80.011	19.995	103.170	20.141	4.126	0.522
872.000	517.668	80.010	19.995	103.170	20.139	4.258	0.532
872.501	517.940	80.011	19.995	103.171	20.138	4.374	0.513
873.001	518.163	80.010	19.995	103.172	20.137	4.401	0.498
873.500	518.443	80.010	19.996	103.173	20.138	4.332	0.499
874.000	518.731	80.010	19.995	103.173	20.137	4.380	0.536
874.500	518.985	80.010	19.995	103.173	20.140	4.199	0.555
875.000	519.242	80.011	19.993	103.173	20.143	4.030	0.526
875.500	519.546	80.010	19.994	103.173	20.141	4.163	0.536
876.000	519.774	80.010	19.995	103.172	20.140	4.245	0.547
876.500	520.049	80.011	19.995	103.172	20.139	4.276	0.517
877.000	520.327	80.011	19.995	103.170	20.143	4.024	0.528
877.500	520.579	80.009	19.995	103.169	20.139	4.288	0.541
878.000	520.852	80.010	19.994	103.167	20.140	4.182	0.528
878.500	521.107	80.010	19.995	103.167	20.142	4.062	0.527
879.000	521.366	80.010	19.995	103.167	20.140	4.241	0.521
879.500	521.628	80.012	19.996	103.168	20.140	4.219	0.518
880.000	521.886	80.010	19.996	103.168	20.142	4.052	0.520
880.500	522.152	80.010	19.995	103.169	20.141	4.170	0.522
881.000	522.402	80.010	19.996	103.169	20.143	3.997	0.520
881.500	522.685	80.011	19.996	103.170	20.140	4.223	0.524
882.000	522.942	80.010	19.995	103.171	20.141	4.112	0.536
882.500	523.224	80.009	19.996	103.172	20.140	4.219	0.540
883.000	523.451	80.010	19.995	103.173	20.143	4.002	0.524
883.500	523.740	80.009	19.995	103.173	20.143	3.988	0.512
884.000	523.974	80.009	19.996	103.173	20.146	3.835	0.520
884.500	524.268	80.009	19.995	103.173	20.141	4.144	0.526
885.000	524.514	80.009	19.996	103.174	20.143	3.982	0.534
885.500	524.749	80.010	19.995	103.173	20.144	3.920	0.510
886.000	525.002	80.008	19.996	103.174	20.143	4.036	0.484
886.500	525.269	80.009	19.995	103.174	20.144	3.916	0.504
887.000	525.475	80.009	19.996	103.171	20.144	3.931	0.497
887.500	525.767	80.008	19.995	103.168	20.145	3.875	0.486
888.000	526.013	80.009	19.995	103.168	20.144	3.913	0.518
888.500	526.294	80.010	19.994	103.163	20.146	3.815	0.532
889.000	526.563	80.011	19.996	103.157	20.145	3.902	0.538
889.500	526.810	80.010	19.995	103.160	20.145	3.860	0.533
890.000	527.046	80.010	19.996	103.162	20.146	3.814	0.500
890.500	527.309	80.009	19.995	103.162	20.142	4.045	0.491
891.000	527.568	80.011	19.996	103.166	20.144	3.936	0.510
891.500	527.843	80.009	19.995	103.169	20.144	3.934	0.528
892.000	528.106	80.010	19.996	103.166	20.141	4.115	0.536
892.500	528.382	80.009	19.996	103.166	20.141	4.164	0.539
893.000	528.621	80.011	19.995	103.166	20.142	4.084	0.527
893.500	528.890	80.009	19.996	103.165	20.143	3.989	0.511
894.000	529.177	80.011	19.995	103.167	20.143	4.031	0.532
894.500	529.408	80.011	19.996	103.166	20.138	4.359	0.537
895.000	529.672	80.012	19.997	103.158	20.142	4.069	0.506
895.500	529.913	80.011	19.995	103.153	20.142	4.102	0.499
896.000	530.182	80.010	19.995	103.149	20.142	4.084	0.507
896.500	530.415	80.012	19.995	103.145	20.142	4.102	0.506
897.000	530.711	80.011	19.994	103.144	20.141	4.113	0.516
897.500	530.975	80.011	19.996	103.150	20.140	4.186	0.545
898.000	531.198	80.011	19.994	103.157	20.140	4.195	0.523
898.500	531.447	80.011	19.995	103.161	20.140	4.181	0.479
899.000	531.695	80.011	19.995	103.161	20.140	4.242	0.484
899.500	531.990	80.012	19.995	103.158	20.140	4.197	0.520
900.000	532.268	80.012	19.995	103.153	20.141	4.126	0.559
900.500	532.480	80.011	19.995	103.147	20.139	4.279	0.532
901.000	532.746	80.011	19.994	103.145	20.144	3.938	0.484
901.500	533.029	80.011	19.994	103.143	20.143	4.015	0.513
902.000	533.240	80.011	19.995	103.145	20.139	4.290	0.521
902.500	533.523	80.011	19.994	103.145	20.142	4.093	0.494
903.000	533.787	80.010	19.994	103.148	20.142	4.078	0.520
903.500	534.039	80.010	19.994	103.150	20.138	4.331	0.531
904.000	534.309	80.010	19.994	103.155	20.137	4.384	0.519
904.500	534.561	80.010	19.994	103.159	20.139	4.291	0.522
905.000	534.803	80.009	19.994	103.163	20.141	4.148	0.509
905.500	535.059	80.008	19.994	103.163	20.141	4.164	0.496
906.000	535.340	80.008	19.994	103.159	20.138	4.350	0.517
906.500	535.578	80.008	19.994	103.155	20.141	4.121	0.528
907.000	535.826	80.008	19.995	103.155	20.139	4.268	0.502
907.500	536.084	80.009	19.995	103.156	20.141	4.144	0.495
908.000	536.362	80.010	19.994	103.155	20.137	4.399	0.521
908.500	536.623	80.009	19.995	103.158	20.141	4.133	0.538
909.000	536.864	80.008	19.994	103.162	20.141	4.140	0.520
909.500	537.114	80.010	19.994	103.163	20.140	4.193	0.496
910.000	537.319	80.009	19.995	103.160	20.142	4.095	0.473
910.500	537.605	80.010	19.994	103.159	20.141	4.164	0.473
911.000	537.842	80.009	19.994	103.154	20.143	4.019	0.507
911.500	538.079	80.010	19.995	103.151	20.142	4.102	0.499
912.000	538.338	80.010	19.995	103.152	20.143	4.026	0.485
912.500	538.596	80.010	19.994	103.156	20.139	4.297	0.506
913.000	538.811	80.010	19.994	103.158	20.144	3.971	0.494
913.500	539.080	80.009	19.994	103.161	20.144	3.925	0.479
914.000	539.333	80.009	19.994	103.157	20.143	3.993	0.504
914.500	539.575	80.009	19.994	103.154	20.141	4.113	0.508
915.000	539.893	80.010	19.994	103.152	20.140	4.233	0.527
915.500	540.106	80.008	19.994	103.155	20.141	4.145	0.546
916.000	540.339	80.010	19.995	103.158	20.141	4.174	0.489
916.500	540.624	80.010	19.994	103.163	20.141	4.123	0.482
917.000	540.844	80.009	19.994	103.160	20.141	4.153	0.511
917.500	541.113	80.008	19.994	103.161	20.144	3.958	0.497
918.000	541.336	80.009	19.994	103.155	20.143	3.987	0.491
918.500	541.594	80.011	19.994	103.151	20.144	3.971	0.486
919.000	541.842	80.010	19.995	103.152	20.144	3.960	0.493
919.500	542.080	80.009	19.995	103.156	20.140	4.188	0.496
920.000	542.371	80.011	19.994	103.157	20.139	4.251	0.508
920.500	542.621	80.009	19.995	103.161	20.145	3.889	0.535
921.000	542.865	80.010	19.995	103.163	20.143	4.015	0.517
921.500	543.091	80.009	19.994	103.159	20.141	4.137	0.482
922.000	543.400	80.009	19.995	103.160	20.143	3.984	0.503
922.500	543.616	80.009	19.995	103.160	20.140	4.219	0.530
923.000	543.855	80.008	19.995	103.158	20.139	4.292	0.490
923.500	544.133	80.010	19.995	103.156	20.141	4.123	0.486
924.000	544.356	80.008	19.995	103.159	20.141	4.134	0.509
924.500	544.620	80.009	19.994	103.154	20.141	4.115	0.494
925.000	544.887	80.009	19.995	103.151	20.136	4.456	0.509
925.500	545.101	80.010	19.995	103.148	20.139	4.259	0.506
926.000	545.363	80.007	19.995	103.145	20.141	4.142	0.479
926.500	545.614	80.010	19.994	103.140	20.140	4.202	0.495
927.000	545.854	80.009	19.995	103.141	20.139	4.308	0.502
927.500	546.119	80.009	19.994	103.136	20.141	4.154	0.498
928.000	546.356	80.008	19.995	103.141	20.142	4.066	0.503
928.500	546.603	80.009	19.995	103.144	20.139	4.269	0.493
929.000	546.858	80.010	19.994	103.151	20.137	4.411	0.493
929.500	547.133	80.009	19.995	103.153	20.139	4.292	0.516
930.000	547.383	80.009	19.995	103.157	20.143	4.001	0.528
930.500	547.613	80.010	19.995	103.156	20.139	4.309	0.502
931.000	547.866	80.008	19.994	103.155	20.142	4.110	0.482
931.500	548.124	80.011	19.994	103.153	20.142	4.098	0.497
932.000	548.380	80.009	19.994	103.154	20.135	4.560	0.512
932.500	548.616	80.010	19.994	103.156	20.137	4.398	0.503
933.000	548.873	80.009	19.995	103.160	20.141	4.159	0.493
933.500	549.148	80.010	19.994	103.166	20.140	4.226	0.513
934.000	549.339	80.010	19.995	103.168	20.139	4.268	0.499
934.500	549.587	80.010	19.995	103.171	20.144	3.942	0.452
935.000	549.838	80.009	19.993	103.170	20.140	4.212	0.469
935.500	550.098	80.009	19.995	103.168	20.139	4.267	0.505
936.000	550.358	80.011	19.994	103.164	20.142	4.085	0.516
936.500	550.630	80.009	19.995	103.158	20.145	3.908	0.526
937.000	550.874	80.009	19.994	103.155	20.141	4.163	0.524
937.500	551.140	80.010	19.995	103.156	20.143	4.014	0.513
938.000	551.351	80.009	19.995	103.161	20.145	3.873	0.494
938.500	551.597	80.009	19.994	103.167	20.145	3.875	0.467
939.000	551.842	80.010	19.994	103.174	20.145	3.910	0.474
939.500	552.132	80.010	19.994	103.178	20.146	3.804	0.513
940.000	552.383	80.010	19.994	103.179	20.144	3.962	0.538
940.500	552.636	80.009	19.994	103.180	20.145	3.864	0.522
941.000	552.902	80.009	19.994	103.180	20.143	3.995	0.511
941.500	553.155	80.009	19.994	103.181	20.146	3.836	0.519
942.000	553.387	80.010	19.994	103.180	20.147	3.727	0.502
942.500	553.660	80.007	19.994	103.179	20.143	4.036	0.495
943.000	553.945	80.010	19.995	103.174	20.144	3.910	0.531
943.500	554.179	80.009	19.994	103.172	20.141	4.174	0.539
944.000	554.422	80.009	19.994	103.169	20.142	4.063	0.499
944.500	554.705	80.010	19.993	103.170	20.144	3.928	0.501
945.000	554.968	80.011	19.995	103.169	20.143	4.025	0.535
945.500	555.171	80.009	19.996	103.172	20.144	3.951	0.506
946.000	555.466	80.009	19.994	103.172	20.144	3.940	0.482
946.500	555.720	80.010	19.995	103.175	20.143	4.029	0.524
947.000	556.004	80.010	19.995	103.172	20.140	4.208	0.544
947.500	556.232	80.010	19.994	103.173	20.143	4.008	0.525
948.000	556.479	80.011	19.994	103.173	20.140	4.179	0.493
948.500	556.763	80.011	19.994	103.173	20.139	4.302	0.503
949.000	557.009	80.010	19.993	103.172	20.139	4.302	0.530
949.500	557.259	80.010	19.995	103.171	20.141	4.159	0.513
950.000	557.512	80.010	19.994	103.168	20.144	3.968	0.500
950.500	557.804	80.011	19.995	103.165	20.142	4.066	0.524
951.000	558.030	80.011	19.995	103.163	20.139	4.288	0.532
951.500	558.302	80.009	19.995	103.163	20.139	4.292	0.508
952.000	558.527	80.011	19.995	103.163	20.140	4.199	0.497
952.500	558.809	80.011	19.994	103.159	20.140	4.206	0.502
953.000	559.084	80.011	19.994	103.153	20.139	4.288	0.532
953.500	559.303	80.012	19.995	103.148	20.138	4.326	0.525
954.000	559.597	80.009	19.995	103.142	20.142	4.057	0.504
954.500	559.857	80.011	19.994	103.138	20.142	4.075	0.534
955.000	560.133	80.010	19.995	103.137	20.142	4.084	0.545
955.500	560.347	80.010	19.995	103.137	20.142	4.070	0.513
956.000	560.637	80.011	19.995	103.141	20.140	4.241	0.497
956.500	560.839	80.010	19.995	103.148	20.142	4.102	0.499
957.000	561.165	80.011	19.995	103.153	20.141	4.121	0.510
957.500	561.371	80.011	19.995	103.158	20.140	4.214	0.530
958.000	561.651	80.010	19.995	103.162	20.141	4.124	0.509
958.500	561.912	80.010	19.995	103.159	20.141	4.148	0.513
959.000	562.165	80.009	19.996	103.155	20.136	4.470	0.528
959.500	562.391	80.011	19.994	103.152	20.139	4.248	0.496
960.000	562.620	80.010	19.995	103.153	20.142	4.051	0.466
960.500	562.920	80.010	19.995	103.155	20.141	4.144	0.492
961.000	563.163	80.010	19.994	103.160	20.141	4.172	0.536
961.500	563.394	80.010	19.995	103.163	20.141	4.174	0.509
962.000	563.653	80.011	19.995	103.166	20.141	4.150	0.482
962.500	563.886	80.010	19.995	103.167	20.138	4.325	0.491
963.000	564.160	80.010	19.995	103.167	20.143	4.003	0.500
963.500	564.407	80.008	19.996	103.164	20.140	4.212	0.514
964.000	564.678	80.009	19.995	103.161	20.140	4.225	0.519
964.500	564.912	80.010	19.995	103.161	20.139	4.276	0.511
965.000	565.212	80.010	19.995	103.161	20.140	4.219	0.519
965.500	565.454	80.010	19.995	103.162	20.142	4.061	0.538
966.000	565.692	80.011	19.994	103.161	20.142	4.059	0.512
966.500	565.939	80.011	19.994	103.164	20.140	4.204	0.483
967.000	566.198	80.010	19.995	103.167	20.142	4.110	0.495
967.500	566.470	80.009	19.995	103.165	20.143	4.008	0.518
968.000	566.740	80.009	19.994	103.163	20.143	4.013	0.537
968.500	566.980	80.010	19.994	103.165	20.139	4.275	0.526
969.000	567.282	80.009	19.995	103.163	20.142	4.046	0.526
969.500	567.513	80.010	19.995	103.159	20.140	4.188	0.537
970.000	567.755	80.010	19.994	103.159	20.141	4.174	0.503
970.500	568.013	80.010	19.995	103.160	20.141	4.135	0.486
971.000	568.290	80.009	19.995	103.160	20.139	4.259	0.518
971.500	568.539	80.009	19.994	103.164	20.140	4.197	0.531
972.000	568.768	80.011	19.994	103.169	20.142	4.090	0.502
972.500	569.060	80.009	19.995	103.172	20.140	4.193	0.499
973.000	569.278	80.009	19.994	103.174	20.143	4.026	0.516
973.500	569.544	80.009	19.994	103.174	20.141	4.141	0.498
974.000	569.823	80.010	19.995	103.172	20.141	4.157	0.515
974.500	570.079	80.009	19.994	103.172	20.141	4.148	0.540
975.000	570.327	80.010	19.994	103.171	20.142	4.073	0.519
975.500	570.585	80.012	19.995	103.170	20.141	4.144	0.505
976.000	570.838	80.011	19.994	103.167	20.138	4.335	0.509
976.500	571.124	80.010	19.995	103.166	20.142	4.109	0.525
977.000	571.373	80.011	19.994	103.165	20.140	4.210	0.537
977.500	571.611	80.011	19.994	103.163	20.140	4.224	0.511
978.000	571.906	80.011	19.995	103.162	20.141	4.137	0.510
978.500	572.182	80.012	19.994	103.162	20.141	4.166	0.552
979.000	572.419	80.012	19.995	103.165	20.141	4.177	0.542
979.500	572.649	80.011	19.995	103.164	20.140	4.215	0.489
980.000	572.964	80.012	19.995	103.165	20.139	4.264	0.506
980.500	573.188	80.011	19.995	103.165	20.139	4.292	0.542
981.000	573.480	80.012	19.995	103.169	20.141	4.113	0.528
981.500	573.712	80.011	19.995	103.169	20.139	4.266	0.520
982.000	573.997	80.010	19.995	103.169	20.143	4.037	0.520
982.500	574.242	80.011	19.994	103.166	20.140	4.195	0.524
983.000	574.541	80.010	19.994	103.164	20.144	3.958	0.537
983.500	574.811	80.011	19.995	103.164	20.142	4.107	0.556
984.000	575.040	80.010	19.996	103.162	20.141	4.167	0.534
984.500	575.284	80.011	19.994	103.162	20.141	4.127	0.486
985.000	575.591	80.010	19.995	103.163	20.141	4.144	0.512
985.500	575.805	80.010	19.996	103.166	20.141	4.146	0.536
986.000	576.067	80.010	19.995	103.163	20.141	4.126	0.499
986.500	576.380	80.010	19.996	103.160	20.143	4.041	0.525
987.000	576.590	80.009	19.995	103.158	20.143	3.995	0.549
987.500	576.862	80.009	19.996	103.156	20.144	3.966	0.503
988.000	577.106	80.010	19.995	103.155	20.140	4.181	0.499
988.500	577.356	80.009	19.995	103.153	20.141	4.128	0.505
989.000	577.617	80.009	19.995	103.154	20.142	4.087	0.503
989.500	577.931	80.009	19.995	103.157	20.141	4.148	0.543
990.000	578.123	80.009	19.996	103.158	20.140	4.237	0.540
990.500	578.430	80.009	19.996	103.155	20.141	4.144	0.502
991.000	578.657	80.009	19.996	103.160	20.145	3.900	0.517
991.500	578.890	80.008	19.995	103.162	20.143	4.026	0.497
992.000	579.180	80.009	19.996	103.162	20.144	3.964	0.492
992.500	579.443	80.008	19.996	103.163	20.142	4.082	0.538
993.000	579.665	80.010	19.996	103.160	20.144	3.926	0.519
993.500	579.957	80.009	19.995	103.154	20.144	3.944	0.500
994.000	580.185	80.009	19.994	103.150	20.144	3.936	0.517
994.500	580.444	80.008	19.994	103.145	20.149	3.632	0.503
995.000	580.700	80.009	19.993	103.140	20.145	3.882	0.501
995.500	580.994	80.009	19.996	103.148	20.145	3.865	0.532
996.000	581.238	80.009	19.995	103.155	20.142	4.048	0.544
996.500	581.486	80.009	19.996	103.162	20.143	4.031	0.515
997.000	581.714	80.009	19.994	103.165	20.145	3.893	0.484
997.500	582.025	80.009	19.994	103.168	20.142	4.062	0.508
998.000	582.261	80.009	19.995	103.163	20.145	3.880	0.543
998.500	582.521	80.009	19.994	103.159	20.144	3.960	0.522
999.000	582.792	80.008	19.994	103.158	20.143	4.038	0.514
999.500	583.048	80.009	19.994	103.156	20.144	3.931	0.529
1000.000	583.310	80.010	19.995	103.154	20.148	3.701	0.523
1000.500	583.566	80.010	19.995	103.153	20.145	3.858	0.518
1001.000	583.832	80.010	19.995	103.151	20.143	3.998	0.520
1001.500	584.079	80.009	19.993	103.150	20.146	3.801	0.517
1002.000	584.356	80.010	19.994	103.152	20.142	4.044	0.518
1002.500	584.569	80.010	19.994	103.154	20.144	3.973	0.507
1003.000	584.827	80.010	19.995	103.159	20.143	3.984	0.481
1003.500	585.087	80.010	19.994	103.161	20.145	3.880	0.495
1004.000	585.340	80.009	19.995	103.156	20.143	4.042	0.515
1004.500	585.605	80.010	19.995	103.154	20.147	3.771	0.516
1005.000	585.862	80.010	19.996	103.155	20.146	3.814	0.520
1005.500	586.155	80.010	19.994	103.150	20.147	3.772	0.536
1006.000	586.390	80.009	19.994	103.150	20.142	4.103	0.539
1006.500	586.679	80.010	19.994	103.154	20.144	3.949	0.526
1007.000	586.899	80.010	19.994	103.157	20.142	4.105	0.516
1007.500	587.136	80.011	19.994	103.154	20.141	4.140	0.483
1008.000	587.450	80.010	19.994	103.157	20.144	3.967	0.504
1008.500	587.694	80.009	19.994	103.156	20.144	3.916	0.555
1009.000	587.889	80.010	19.994	103.153	20.145	3.849	0.499
1009.500	588.178	80.010	19.995	103.153	20.145	3.843	0.461
1010.000	588.414	80.011	19.994	103.152	20.147	3.739	0.505
1010.500	588.696	80.009	19.994	103.147	20.145	3.856	0.522
1011.000	588.921	80.010	19.994	103.148	20.147	3.742	0.512
1011.500	589.191	80.009	19.994	103.148	20.145	3.908	0.500
1012.000	589.456	80.009	19.994	103.144	20.147	3.744	0.515
1012.500	589.713	80.010	19.993	103.147	20.147	3.749	0.529
1013.000	590.001	80.009	19.994	103.151	20.146	3.815	0.533
1013.500	590.250	80.012	19.994	103.153	20.145	3.862	0.541
1014.000	590.506	80.010	19.995	103.157	20.145	3.906	0.521
1014.500	590.752	80.010	19.993	103.157	20.146	3.826	0.504
1015.000	591.033	80.009	19.995	103.155	20.143	4.011	0.515
1015.500	591.276	80.009	19.994	103.150	20.144	3.962	0.525
1016.000	591.512	80.010	19.994	103.146	20.143	4.033	0.501
1016.500	591.793	80.008	19.994	103.144	20.141	4.173	0.498
1017.000	592.006	80.009	19.994	103.143	20.143	4.002	0.505
1017.500	592.279	80.009	19.994	103.143	20.144	3.977	0.490
1018.000	592.524	80.009	19.994	103.149	20.144	3.933	0.502
1018.500	592.780	80.009	19.995	103.151	20.144	3.958	0.509
1019.000	593.081	80.009	19.994	103.151	20.146	3.783	0.529
1019.500	593.312	80.009	19.994	103.151	20.144	3.976	0.545
1020.000	593.545	80.008	19.994	103.150	20.147	3.767	0.498
1020.500	593.839	80.009	19.995	103.145	20.144	3.928	0.496
1021.000	594.080	80.008	19.994	103.147	20.144	3.950	0.531
1021.500	594.345	80.009	19.995	103.150	20.147	3.760	0.521
1022.000	594.593	80.008	19.995	103.155	20.142	4.099	0.509
1022.500	594.846	80.009	19.994	103.163	20.143	4.019	0.507
1023.000	595.086	80.009	19.994	103.168	20.144	3.977	0.497
1023.500	595.353	80.008	19.995	103.170	20.144	3.926	0.500
1024.000	595.651	80.009	19.995	103.167	20.145	3.866	0.536
1024.500	595.906	80.007	19.995	103.165	20.143	3.984	0.559
1025.000	596.146	80.008	19.995	103.162	20.148	3.707	0.524
1025.500	596.405	80.009	19.995	103.163	20.146	3.813	0.497
1026.000	596.680	80.008	19.995	103.161	20.144	3.929	0.516
1026.500	596.900	80.009	19.994	103.165	20.145	3.845	0.514
1027.000	597.192	80.008	19.994	103.169	20.145	3.856	0.504
1027.500	597.425	80.009	19.995	103.165	20.147	3.769	0.519
1028.000	597.649	80.009	19.995	103.161	20.142	4.053	0.491
1028.500	597.884	80.010	19.994	103.160	20.145	3.894	0.458
1029.000	598.151	80.008	19.994	103.154	20.144	3.975	0.480
1029.500	598.411	80.010	19.994	103.149	20.146	3.804	0.514
1030.000	598.633	80.009	19.994	103.150	20.147	3.773	0.504
1030.500	598.886	80.010	19.994	103.153	20.146	3.830	0.479
1031.000	599.185	80.009	19.995	103.157	20.147	3.760	0.513
1031.500	599.447	80.010	19.994	103.163	20.147	3.735	0.556
1032.000	599.706	80.009	19.994	103.168	20.146	3.793	0.542
1032.500	599.955	80.010	19.994	103.173	20.144	3.911	0.515
1033.000	600.173	80.011	19.994	103.172	20.147	3.760	0.487
1033.500	600.448	80.010	19.993	103.170	20.146	3.811	0.480
1034.000	600.707	80.010	19.994	103.167	20.144	3.957	0.514
1034.500	600.933	80.010	19.994	103.166	20.147	3.729	0.509
1035.000	601.200	80.011	19.993	103.160	20.146	3.787	0.489
1035.500	601.451	80.011	19.994	103.157	20.145	3.882	0.506
1036.000	601.710	80.010	19.994	103.154	20.145	3.867	0.514
1036.500	601.941	80.009	19.993	103.154	20.143	3.991	0.500
1037.001	602.200	80.012	19.993	103.149	20.147	3.716	0.490
1037.501	602.470	80.012	19.994	103.148	20.148	3.677	0.510
1038.001	602.697	80.011	19.994	103.150	20.141	4.134	0.513
1038.500	602.958	80.010	19.994	103.149	20.144	3.958	0.492
1039.000	603.221	80.013	19.994	103.147	20.144	3.918	0.506
1039.500	603.483	80.011	19.994	103.152	20.149	3.641	0.525
1040.000	603.755	80.012	19.993	103.159	20.143	4.020	0.529
1040.500	603.964	80.011	19.995	103.162	20.143	3.994	0.507
1041.000	604.214	80.012	19.993	103.167	20.143	4.003	0.470
1041.501	604.453	80.010	19.993	103.173	20.145	3.896	0.474
1042.001	604.720	80.011	19.994	103.170	20.143	4.014	0.498
1042.500	604.956	80.011	19.994	103.167	20.146	3.781	0.504
1043.000	605.218	80.012	19.994	103.167	20.144	3.950	0.500
1043.500	605.474	80.011	19.994	103.164	20.144	3.917	0.508
1044.000	605.735	80.010	19.995	103.161	20.144	3.923	0.518
1044.500	605.988	80.010	19.993	103.160	20.146	3.789	0.515
1045.000	606.234	80.011	19.994	103.158	20.143	4.029	0.506
1045.500	606.490	80.011	19.994	103.154	20.144	3.940	0.501
1046.000	606.758	80.011	19.994	103.153	20.147	3.752	0.513
1046.500	607.002	80.011	19.994	103.151	20.146	3.823	0.518
1047.000	607.241	80.011	19.994	103.149	20.145	3.896	0.498
1047.501	607.453	80.010	19.995	103.145	20.147	3.757	0.467
1048.001	607.751	80.011	19.994	103.141	20.145	3.896	0.480
1048.500	607.978	80.011	19.994	103.138	20.146	3.775	0.518
1049.000	608.255	80.010	19.994	103.137	20.145	3.854	0.515
1049.500	608.496	80.009	19.994	103.138	20.145	3.849	0.511
1050.000	608.745	80.010	19.994	103.142	20.144	3.936	0.504
1050.500	608.986	80.010	19.995	103.143	20.145	3.907	0.490
1051.000	609.208	80.011	19.996	103.144	20.145	3.854	0.477
1051.500	609.476	80.010	19.995	103.146	20.144	3.951	0.477
1052.000	609.731	80.009	19.995	103.146	20.143	4.029	0.507
1052.500	609.957	80.010	19.995	103.141	20.142	4.106	0.502
1053.000	610.243	80.011	19.995	103.141	20.146	3.778	0.497
1053.500	610.464	80.010	19.994	103.139	20.144	3.971	0.509
1054.001	610.696	80.010	19.995	103.136	20.143	4.036	0.480
1054.501	610.952	80.011	19.994	103.136	20.144	3.936	0.470
1055.001	611.191	80.010	19.995	103.143	20.147	3.750	0.491
1055.501	611.486	80.010	19.995	103.149	20.144	3.927	0.514
1056.000	611.667	80.011	19.996	103.152	20.147	3.759	0.505
1056.500	611.939	80.011	19.994	103.152	20.144	3.969	0.464
1057.000	612.190	80.011	19.995	103.150	20.145	3.850	0.488
1057.500	612.438	80.012	19.994	103.143	20.146	3.834	0.511
1058.000	612.691	80.011	19.995	103.137	20.148	3.685	0.500
1058.500	612.920	80.012	19.994	103.135	20.144	3.956	0.491
1059.000	613.144	80.011	19.994	103.136	20.144	3.968	0.468
1059.500	613.415	80.012	19.995	103.136	20.146	3.826	0.474
1060.000	613.676	80.012	19.995	103.139	20.146	3.795	0.514
1060.500	613.926	80.012	19.994	103.143	20.147	3.768	0.522
1061.000	614.200	80.012	19.995	103.144	20.143	3.981	0.517
1061.500	614.426	80.013	19.995	103.148	20.144	3.916	0.512
1062.000	614.668	80.012	19.994	103.152	20.144	3.939	0.484
1062.500	614.920	80.012	19.994	103.153	20.146	3.796	0.481
1063.000	615.156	80.012	19.994	103.152	20.143	4.034	0.491
1063.500	615.433	80.013	19.994	103.153	20.146	3.819	0.500
1064.000	615.658	80.013	19.994	103.149	20.142	4.067	0.507
1064.500	615.902	80.012	19.994	103.146	20.146	3.805	0.486
1065.000	616.179	80.012	19.994	103.143	20.145	3.883	0.496
1065.500	616.371	80.013	19.994	103.139	20.147	3.721	0.495
1066.000	616.669	80.012	19.994	103.137	20.143	4.011	0.479
1066.500	616.885	80.013	19.994	103.136	20.142	4.045	0.502
1067.000	617.138	80.011	19.994	103.138	20.142	4.105	0.492
1067.500	617.390	80.012	19.995	103.141	20.145	3.876	0.487
1068.000	617.630	80.011	19.995	103.142	20.144	3.952	0.498
1068.500	617.867	80.011	19.994	103.141	20.144	3.965	0.484
1069.000	618.161	80.012	19.994	103.141	20.144	3.914	0.504
1069.500	618.375	80.010	19.994	103.138	20.144	3.974	0.520
1070.000	618.677	80.011	19.995	103.137	20.143	4.038	0.512
1070.500	618.912	80.011	19.995	103.135	20.144	3.952	0.527
1071.000	619.151	80.011	19.994	103.135	20.143	4.003	0.506
1071.500	619.325	80.010	19.995	103.136	20.146	3.821	0.443
1072.000	619.617	80.009	19.994	103.138	20.141	4.119	0.440
1072.500	619.855	80.009	19.994	103.138	20.144	3.948	0.498
1073.000	620.115	80.010	19.995	103.138	20.144	3.928	0.514
1073.501	620.334	80.010	19.995	103.139	20.145	3.872	0.489
1074.001	620.585	80.010	19.995	103.138	20.143	3.979	0.475
1074.500	620.833	80.009	19.996	103.135	20.142	4.099	0.484
1075.000	621.088	80.010	19.995	103.134	20.143	3.998	0.501
1075.500	621.329	80.008	19.996	103.136	20.145	3.901	0.500
1076.000	621.555	80.009	19.995	103.139	20.142	4.050	0.482
1076.500	621.807	80.009	19.995	103.143	20.142	4.061	0.473
1077.000	622.067	80.009	19.995	103.144	20.145	3.892	0.495
1077.500	622.291	80.009	19.995	103.145	20.145	3.901	0.498
1078.000	622.492	80.008	19.995	103.144	20.147	3.765	0.454
1078.500	622.793	80.010	19.995	103.142	20.146	3.783	0.464
1079.001	623.005	80.008	19.996	103.139	20.146	3.792	0.508
1079.501	623.238	80.009	19.995	103.138	20.146	3.792	0.479
1080.000	623.502	80.008	19.995	103.138	20.142	4.078	0.471
1080.500	623.710	80.009	19.995	103.137	20.148	3.665	0.485
1081.000	623.965	80.008	19.995	103.136	20.145	3.861	0.467
1081.500	624.183	80.008	19.996	103.136	20.146	3.783	0.468
1082.000	624.446	80.008	19.996	103.136	20.144	3.970	0.477
1082.500	624.663	80.009	19.996	103.135	20.145	3.890	0.481
1083.000	624.882	80.008	19.995	103.134	20.145	3.888	0.458
1083.500	625.140	80.010	19.996	103.134	20.145	3.867	0.456
1084.000	625.379	80.008	19.996	103.134	20.146	3.779	0.487
1084.500	625.623	80.009	19.996	103.134	20.148	3.685	0.490
1085.000	625.837	80.010	19.996	103.135	20.147	3.732	0.471
1085.500	626.078	80.008	19.995	103.135	20.146	3.799	0.457
1086.000	626.271	80.009	19.996	103.135	20.145	3.899	0.445
1086.500	626.538	80.010	19.995	103.136	20.149	3.616	0.447
1087.000	626.793	80.007	19.995	103.136	20.146	3.780	0.490
1087.500	626.985	80.009	19.995	103.139	20.149	3.639	0.484
1088.000	627.260	80.008	19.995	103.144	20.144	3.922	0.457
1088.500	627.511	80.009	19.995	103.146	20.144	3.960	0.497
1089.000	627.684	80.009	19.995	103.146	20.144	3.944	0.475
1089.500	628.003	80.009	19.996	103.146	20.141	4.127	0.458
1090.000	628.174	80.009	19.995	103.145	20.144	3.943	0.491
1090.500	628.386	80.008	19.996	103.141	20.145	3.898	0.436
1091.000	628.678	80.010	19.995	103.138	20.148	3.676	0.443
1091.500	628.919	80.010	19.995	103.138	20.144	3.944	0.519
1092.000	629.150	80.009	19.994	103.138	20.147	3.736	0.503
1092.500	629.329	80.009	19.995	103.136	20.146	3.838	0.441
1093.000	629.610	80.009	19.994	103.137	20.146	3.778	0.435
1093.500	629.831	80.010	19.994	103.137	20.146	3.838	0.481
1094.000	630.063	80.011	19.994	103.139	20.142	4.106	0.478
1094.500	630.325	80.010	19.995	103.139	20.144	3.938	0.474
1095.000	630.495	80.010	19.995	103.138	20.149	3.641	0.463
1095.501	630.774	80.009	19.994	103.138	20.149	3.606	0.441
1096.001	630.955	80.009	19.994	103.138	20.146	3.830	0.455
1096.500	631.245	80.009	19.994	103.136	20.150	3.552	0.466
1097.000	631.473	80.010	19.994	103.138	20.145	3.865	0.494
1097.500	631.707	80.009	19.994	103.142	20.143	4.004	0.490
1098.000	631.930	80.008	19.994	103.148	20.148	3.652	0.459
1098.500	632.227	80.008	19.995	103.151	20.144	3.916	0.489
1099.000	632.446	80.009	19.994	103.152	20.147	3.750	0.519
1099.500	632.655	80.009	19.994	103.152	20.146	3.778	0.472
1100.000	632.876	80.010	19.994	103.151	20.145	3.901	0.429
1100.500	633.114	80.009	19.994	103.147	20.145	3.867	0.445
1101.000	633.398	80.009	19.994	103.145	20.143	4.031	0.491
1101.500	633.616	80.008	19.993	103.147	20.144	3.942	0.512
1102.000	633.838	80.009	19.995	103.154	20.145	3.896	0.471
1102.500	634.094	80.009	19.994	103.157	20.142	4.089	0.459
1103.000	634.320	80.008	19.994	103.162	20.146	3.827	0.480
1103.500	634.561	80.009	19.994	103.164	20.141	4.140	0.474
1104.000	634.806	80.008	19.993	103.165	20.143	3.998	0.476
1104.500	635.039	80.009	19.993	103.162	20.145	3.896	0.482
1105.000	635.314	80.008	19.993	103.159	20.142	4.055	0.493
1105.500	635.567	80.007	19.993	103.152	20.146	3.832	0.518
1106.000	635.823	80.010	19.994	103.150	20.148	3.703	0.518
1106.500	636.075	80.008	19.994	103.145	20.141	4.131	0.508
1107.000	636.343	80.008	19.994	103.144	20.145	3.860	0.514
1107.500	636.589	80.010	19.994	103.145	20.143	3.980	0.518
1108.000	636.813	80.008	19.995	103.147	20.143	4.034	0.492
1108.500	637.066	80.010	19.994	103.148	20.144	3.967	0.473
1109.000	637.321	80.009	19.994	103.150	20.142	4.101	0.492
1109.500	637.592	80.008	19.994	103.147	20.144	3.945	0.517
1110.000	637.796	80.009	19.994	103.144	20.144	3.967	0.501
1110.500	638.050	80.009	19.994	103.144	20.144	3.919	0.466
1111.000	638.282	80.009	19.994	103.144	20.142	4.067	0.472
1111.501	638.551	80.010	19.995	103.145	20.145	3.870	0.493
1112.001	638.840	80.010	19.994	103.145	20.142	4.103	0.529
1112.500	639.080	80.010	19.994	103.150	20.143	3.983	0.543
1113.000	639.310	80.010	19.994	103.153	20.142	4.055	0.499
1113.500	639.606	80.009	19.994	103.156	20.143	4.022	0.498
1114.000	639.811	80.009	19.995	103.155	20.141	4.169	0.514
1114.500	640.113	80.010	19.994	103.156	20.143	3.982	0.504
1115.000	640.355	80.010	19.993	103.151	20.144	3.952	0.526
1115.500	640.612	80.010	19.995	103.147	20.144	3.947	0.522
1116.000	640.846	80.012	19.995	103.149	20.146	3.828	0.495
1116.500	641.112	80.011	19.994	103.151	20.141	4.114	0.495
1117.000	641.387	80.011	19.994	103.149	20.146	3.799	0.521
1117.500	641.629	80.010	19.994	103.148	20.144	3.919	0.529
1118.000	641.922	80.009	19.994	103.147	20.144	3.952	0.526
1118.500	642.207	80.012	19.996	103.142	20.143	4.007	0.556
1119.000	642.418	80.010	19.995	103.138	20.142	4.071	0.537
1119.500	642.696	80.011	19.995	103.137	20.146	3.807	0.493
1120.000	642.989	80.011	19.995	103.140	20.141	4.175	0.531
1120.500	643.217	80.012	19.995	103.139	20.143	4.005	0.546
1121.000	643.441	80.011	19.994	103.138	20.146	3.801	0.486
1121.500	643.733	80.012	19.994	103.138	20.146	3.796	0.484
1122.000	643.985	80.011	19.995	103.139	20.145	3.854	0.530
1122.500	644.254	80.010	19.994	103.137	20.144	3.923	0.532
1123.000	644.481	80.011	19.995	103.140	20.142	4.067	0.509
1123.500	644.723	80.010	19.995	103.144	20.146	3.816	0.483
1124.000	645.066	80.011	19.994	103.149	20.145	3.850	0.527
1124.500	645.260	80.011	19.994	103.148	20.145	3.865	0.561
1125.000	645.550	80.012	19.994	103.147	20.145	3.861	0.510
1125.500	645.779	80.011	19.995	103.147	20.144	3.914	0.502
1126.000	646.044	80.011	19.994	103.145	20.142	4.052	0.507
1126.500	646.286	80.011	19.993	103.140	20.143	4.003	0.500
1127.000	646.553	80.011	19.993	103.140	20.142	4.100	0.508
1127.500	646.851	80.011	19.995	103.140	20.143	3.992	0.537
1128.000	647.103	80.012	19.994	103.138	20.143	4.012	0.558
1128.500	647.364	80.010	19.994	103.138	20.141	4.112	0.532
1129.000	647.646	80.011	19.993	103.138	20.139	4.307	0.528
1129.500	647.835	80.011	19.994	103.139	20.141	4.141	0.507
1130.000	648.121	80.009	19.994	103.140	20.140	4.232	0.473
1130.500	648.375	80.009	19.993	103.143	20.143	3.997	0.508
1131.000	648.684	80.009	19.994	103.147	20.141	4.141	0.552
1131.500	648.918	80.009	19.994	103.149	20.143	4.021	0.553
1132.000	649.162	80.011	19.994	103.149	20.143	4.005	0.510
1132.500	649.427	80.011	19.994	103.148	20.142	4.067	0.493
1133.000	649.729	80.011	19.994	103.145	20.142	4.083	0.538
1133.500	649.991	80.010	19.993	103.141	20.140	4.212	0.566
1134.000	650.241	80.011	19.994	103.138	20.139	4.303	0.539
1134.501	650.520	80.012	19.993	103.140	20.143	4.009	0.521
1135.001	650.816	80.010	19.994	103.145	20.139	4.245	0.551
1135.501	651.054	80.011	19.994	103.145	20.140	4.204	0.554
1136.001	651.297	80.010	19.994	103.143	20.140	4.231	0.508
1136.500	651.556	80.011	19.994	103.144	20.142	4.060	0.491
1137.000	651.812	80.011	19.994	103.140	20.143	3.990	0.508
1137.500	652.077	80.011	19.994	103.136	20.142	4.063	0.518
1138.000	652.324	80.012	19.994	103.137	20.142	4.049	0.517
1138.501	652.588	80.011	19.993	103.136	20.141	4.119	0.512
1139.001	652.855	80.011	19.994	103.136	20.140	4.196	0.521
1139.500	653.110	80.013	19.994	103.136	20.142	4.079	0.526
1140.000	653.332	80.012	19.993	103.135	20.142	4.109	0.499
1140.500	653.591	80.012	19.995	103.133	20.141	4.145	0.479
1141.000	653.867	80.013	19.993	103.132	20.142	4.057	0.508
1141.500	654.147	80.012	19.994	103.131	20.140	4.227	0.545
1142.000	654.435	80.012	19.994	103.131	20.141	4.138	0.562
1142.500	654.643	80.012	19.994	103.131	20.140	4.192	0.532
1143.000	654.927	80.011	19.994	103.131	20.140	4.201	0.494
1143.500	655.180	80.012	19.994	103.132	20.138	4.353	0.514
1144.000	655.453	80.012	19.994	103.133	20.139	4.309	0.531
1144.501	655.746	80.012	19.994	103.134	20.138	4.325	0.546
1145.001	655.994	80.011	19.994	103.134	20.139	4.296	0.554
1145.500	656.223	80.012	19.994	103.138	20.139	4.251	0.509
1146.000	656.500	80.012	19.994	103.142	20.140	4.242	0.491
1146.500	656.734	80.012	19.995	103.142	20.140	4.238	0.509
1147.000	656.986	80.011	19.995	103.145	20.137	4.387	0.499
1147.500	657.247	80.013	19.994	103.146	20.143	4.039	0.500
1148.000	657.492	80.012	19.994	103.141	20.143	4.032	0.509
1148.500	657.804	80.012	19.994	103.138	20.140	4.234	0.531
1149.000	658.044	80.011	19.994	103.138	20.141	4.121	0.555
1149.500	658.237	80.011	19.994	103.135	20.139	4.254	0.493
1150.000	658.476	80.012	19.995	103.134	20.141	4.147	0.433
1150.500	658.807	80.010	19.994	103.134	20.139	4.278	0.501
1151.000	659.081	80.010	19.995	103.134	20.142	4.063	0.587
1151.500	659.325	80.011	19.994	103.134	20.142	4.083	0.561
1152.000	659.580	80.010	19.994	103.132	20.144	3.947	0.508
1152.501	659.829	80.011	19.994	103.133	20.142	4.061	0.502
1153.001	660.038	80.010	19.995	103.133	20.139	4.247	0.481
1153.500	660.322	80.009	19.995	103.135	20.142	4.109	0.475
1154.000	660.544	80.010	19.994	103.136	20.143	4.027	0.500
1154.500	660.802	80.010	19.995	103.137	20.141	4.165	0.493
1155.000	661.076	80.009	19.994	103.137	20.140	4.205	0.506
1155.500	661.284	80.010	19.995	103.139	20.144	3.929	0.508
1156.000	661.536	80.009	19.995	103.137	20.140	4.218	0.471
1156.500	661.815	80.010	19.994	103.136	20.141	4.163	0.495
1157.000	662.042	80.009	19.995	103.136	20.143	4.034	0.518
1157.500	662.301	80.008	19.994	103.137	20.143	4.001	0.495
1158.000	662.587	80.010	19.995	103.137	20.142	4.061	0.515
1158.501	662.792	80.008	19.994	103.137	20.140	4.187	0.518
1159.001	663.055	80.008	19.994	103.138	20.146	3.808	0.480
1159.500	663.294	80.008	19.995	103.139	20.144	3.963	0.485
1160.000	663.546	80.008	19.995	103.138	20.147	3.743	0.496
1160.500	663.800	80.009	19.994	103.140	20.144	3.925	0.498
1161.000	664.069	80.009	19.994	103.141	20.144	3.968	0.514
1161.500	664.320	80.009	19.995	103.140	20.143	3.999	0.522
1162.000	664.556	80.009	19.994	103.140	20.144	3.943	0.504
1162.500	664.821	80.008	19.994	103.140	20.148	3.690	0.495
1163.000	665.067	80.009	19.994	103.138	20.144	3.970	0.506
1163.500	665.312	80.010	19.994	103.136	20.146	3.816	0.501
1164.000	665.590	80.008	19.995	103.137	20.144	3.967	0.507
1164.500	665.795	80.010	19.994	103.138	20.142	4.074	0.503
1165.000	666.091	80.009	19.994	103.138	20.147	3.750	0.492
1165.500	666.333	80.011	19.994	103.139	20.143	3.990	0.520
1166.000	666.590	80.009	19.995	103.140	20.145	3.850	0.518
1166.500	666.861	80.009	19.994	103.140	20.146	3.835	0.513
1167.000	667.099	80.009	19.995	103.142	20.144	3.954	0.519
1167.500	667.340	80.009	19.994	103.142	20.145	3.877	0.494
1168.000	667.573	80.009	19.993	103.141	20.146	3.817	0.476
1168.500	667.847	80.010	19.995	103.140	20.142	4.056	0.491
1169.000	668.073	80.010	19.993	103.139	20.143	3.999	0.503
1169.500	668.351	80.009	19.994	103.136	20.142	4.054	0.501
1170.000	668.572	80.009	19.995	103.136	20.144	3.926	0.501
1170.500	668.819	80.008	19.995	103.136	20.142	4.088	0.484
1171.000	669.075	80.009	19.995	103.136	20.143	3.996	0.486
1171.500	669.318	80.009	19.994	103.136	20.142	4.050	0.501
1172.000	669.569	80.008	19.995	103.137	20.145	3.899	0.497
1172.500	669.851	80.010	19.994	103.137	20.143	4.014	0.514
1173.001	670.064	80.009	19.994	103.137	20.144	3.910	0.514
1173.501	670.349	80.011	19.994	103.136	20.144	3.925	0.497
1174.000	670.586	80.010	19.994	103.136	20.142	4.043	0.510
1174.500	670.826	80.008	19.994	103.136	20.142	4.061	0.499
1175.000	671.065	80.008	19.993	103.136	20.142	4.060	0.478
1175.500	671.303	80.012	19.996	103.134	20.140	4.222	0.478
1176.000	671.557	80.012	19.996	103.134	20.142	4.107	0.485
1176.500	671.817	80.009	19.997	103.134	20.141	4.162	0.503
1177.000	672.044	80.009	19.996	103.133	20.140	4.196	0.500
1177.500	672.286	80.009	19.996	103.133	20.139	4.253	0.478
1178.000	672.495	80.009	19.996	103.134	20.141	4.149	0.460
1178.500	672.804	80.010	19.996	103.134	20.142	4.068	0.485
1179.000	673.046	80.010	19.996	103.133	20.142	4.054	0.535
1179.501	673.284	80.010	19.997	103.133	20.144	3.968	0.516
1180.001	673.531	80.009	19.996	103.132	20.141	4.110	0.482
1180.500	673.778	80.009	19.995	103.132	20.143	3.990	0.489
1181.000	674.027	80.010	19.996	103.132	20.143	3.985	0.495
1181.500	674.283	80.008	19.996	103.132	20.142	4.052	0.501
1182.000	674.503	80.010	19.995	103.132	20.143	4.001	0.491
1182.500	674.757	80.010	19.996	103.133	20.141	4.150	0.475
1183.000	675.018	80.009	19.996	103.133	20.142	4.085	0.494
1183.500	675.245	80.009	19.995	103.134	20.144	3.941	0.501
1184.001	675.479	80.009	19.995	103.134	20.142	4.043	0.475
1184.501	675.727	80.008	19.996	103.134	20.142	4.088	0.471
1185.000	675.957	80.009	19.995	103.135	20.140	4.181	0.480
1185.500	676.209	80.008	19.996	103.139	20.140	4.196	0.480
1186.000	676.482	80.010	19.995	103.142	20.143	4.030	0.503
1186.500	676.707	80.008	19.996	103.146	20.143	4.041	0.512
1187.000	676.967	80.010	19.995	103.148	20.139	4.278	0.492
1187.500	677.187	80.009	19.995	103.147	20.139	4.283	0.483
1188.000	677.410	80.010	19.995	103.143	20.140	4.200	0.461
1188.500	677.693	80.011	19.995	103.139	20.140	4.190	0.474
1189.000	677.920	80.010	19.995	103.136	20.142	4.059	0.508
1189.500	678.189	80.009	19.995	103.133	20.142	4.094	0.503
1190.000	678.388	80.011	19.995	103.132	20.140	4.210	0.482
1190.500	678.632	80.010	19.994	103.132	20.142	4.108	0.455
1191.000	678.882	80.010	19.995	103.132	20.140	4.212	0.469
1191.500	679.139	80.010	19.995	103.132	20.140	4.194	0.501
1192.000	679.363	80.010	19.995	103.132	20.140	4.196	0.494
1192.500	679.593	80.010	19.994	103.134	20.146	3.828	0.467
1193.000	679.826	80.010	19.994	103.135	20.142	4.092	0.459
1193.500	680.112	80.009	19.995	103.133	20.144	3.966	0.491
1194.000	680.360	80.009	19.994	103.133	20.142	4.056	0.526
1194.500	680.619	80.010	19.994	103.133	20.143	3.990	0.520
1195.000	680.848	80.010	19.994	103.132	20.143	4.016	0.498
1195.500	681.083	80.011	19.995	103.132	20.142	4.094	0.476
1196.000	681.348	80.009	19.995	103.134	20.141	4.128	0.482
1196.500	681.562	80.010	19.995	103.134	20.142	4.057	0.489
1197.000	681.797	80.010	19.995	103.134	20.144	3.945	0.464
1197.500	682.050	80.011	19.994	103.134	20.145	3.865	0.468
1198.000	682.282	80.010	19.995	103.134	20.143	4.008	0.487
1198.500	682.499	80.012	19.995	103.133	20.142	4.048	0.467
1199.000	682.777	80.010	19.995	103.133	20.144	3.976	0.472
1199.500	682.983	80.012	19.994	103.133	20.141	4.125	0.490
1200.000	683.262	80.012	19.995	103.133	20.141	4.164	0.485
1200.500	683.498	80.012	19.994	103.133	20.146	3.783	0.500
1201.001	683.749	80.012	19.994	103.133	20.141	4.164	0.501
1201.501	683.970	80.012	19.994	103.132	20.143	3.995	0.480
1202.000	684.195	80.011	19.994	103.132	20.141	4.162	0.459
1202.500	684.445	80.013	19.995	103.132	20.141	4.118	0.460
1203.000	684.712	80.011	19.995	103.129	20.140	4.193	0.496
1203.500	684.978	80.012	19.994	103.129	20.141	4.138	0.525
1204.000	685.169	80.011	19.994	103.130	20.142	4.058	0.495
1204.500	685.397	80.011	19.994	103.130	20.140	4.207	0.437
1205.000	685.688	80.012	19.994	103.130	20.143	4.005	0.469
1205.500	685.949	80.011	19.996	103.133	20.141	4.176	0.536
1206.000	686.158	80.012	19.995	103.132	20.141	4.176	0.511
1206.500	686.415	80.012	19.995	103.132	20.140	4.242	0.468
1207.000	686.688	80.013	19.994	103.132	20.139	4.307	0.498
1207.500	686.884	80.011	19.995	103.132	20.138	4.347	0.499
1208.000	687.146	80.012	19.994	103.132	20.145	3.870	0.463
1208.500	687.397	80.013	19.994	103.132	20.141	4.141	0.486
1209.000	687.640	80.012	19.994	103.132	20.141	4.149	0.503
1209.500	687.874	80.011	19.995	103.132	20.141	4.169	0.485
1210.001	688.095	80.011	19.995	103.135	20.142	4.052	0.466
1210.501	688.370	80.011	19.995	103.142	20.142	4.049	0.476
1211.000	688.629	80.011	19.995	103.149	20.142	4.073	0.515
1211.500	688.892	80.010	19.994	103.153	20.141	4.138	0.528
1212.000	689.119	80.011	19.995	103.156	20.141	4.136	0.506
1212.500	689.364	80.012	19.995	103.155	20.141	4.151	0.481
1213.000	689.654	80.011	19.994	103.150	20.144	3.914	0.503
1213.500	689.884	80.010	19.993	103.144	20.140	4.194	0.527
1214.000	690.122	80.011	19.994	103.142	20.141	4.145	0.494
1214.500	690.369	80.011	19.994	103.140	20.139	4.294	0.476
1215.000	690.595	80.011	19.994	103.140	20.143	3.979	0.479
1215.500	690.862	80.010	19.994	103.140	20.140	4.182	0.483
1216.000	691.099	80.011	19.995	103.144	20.141	4.160	0.498
1216.500	691.328	80.011	19.994	103.146	20.143	4.016	0.485
1217.000	691.596	80.012	19.994	103.146	20.142	4.045	0.481
1217.500	691.818	80.010	19.995	103.145	20.141	4.134	0.493
1218.000	692.066	80.011	19.995	103.143	20.140	4.214	0.480
1218.500	692.317	80.010	19.994	103.138	20.141	4.149	0.484
1219.000	692.568	80.010	19.994	103.135	20.138	4.340	0.501
1219.500	692.832	80.009	19.994	103.135	20.138	4.356	0.509
1220.000	693.078	80.010	19.994	103.136	20.142	4.048	0.513
1220.500	693.322	80.011	19.994	103.137	20.142	4.074	0.500
1221.000	693.595	80.011	19.994	103.140	20.145	3.903	0.504
1221.500	693.799	80.011	19.994	103.146	20.141	4.121	0.497
1222.000	694.079	80.011	19.995	103.146	20.140	4.207	0.480
1222.500	694.343	80.011	19.994	103.146	20.141	4.174	0.514
1223.001	694.565	80.011	19.995	103.144	20.142	4.087	0.515
1223.501	694.790	80.011	19.994	103.139	20.141	4.112	0.467
1224.000	695.097	80.012	19.994	103.134	20.145	3.877	0.490
1224.500	695.341	80.012	19.994	103.133	20.143	4.030	0.541
1225.000	695.576	80.011	19.994	103.133	20.143	3.978	0.515
1225.500	695.838	80.011	19.994	103.137	20.143	4.039	0.488
1226.000	696.081	80.012	19.994	103.139	20.142	4.069	0.501
1226.500	696.318	80.012	19.993	103.140	20.143	4.012	0.493
1227.000	696.576	80.012	19.994	103.140	20.143	3.998	0.488
1227.500	696.814	80.012	19.994	103.140	20.142	4.105	0.495
1228.000	697.063	80.012	19.994	103.138	20.142	4.105	0.491
1228.500	697.324	80.013	19.993	103.136	20.142	4.045	0.498
1229.000	697.565	80.013	19.994	103.135	20.141	4.112	0.506
1229.500	697.820	80.012	19.993	103.134	20.142	4.096	0.499
1230.000	698.077	80.012	19.993	103.132	20.142	4.094	0.505
1230.500	698.323	80.012	19.993	103.129	20.142	4.048	0.508
1231.000	698.566	80.012	19.993	103.129	20.140	4.227	0.496
1231.500	698.867	80.012	19.993	103.129	20.140	4.180	0.516
1232.000	699.066	80.012	19.994	103.130	20.140	4.181	0.522
1232.500	699.317	80.012	19.993	103.131	20.141	4.163	0.475
1233.000	699.563	80.012	19.994	103.133	20.141	4.176	0.473
1233.500	699.810	80.012	19.994	103.134	20.141	4.165	0.495
1234.000	700.077	80.011	19.993	103.134	20.142	4.085	0.504
1234.500	700.346	80.011	19.994	103.134	20.142	4.085	0.526
1235.000	700.623	80.010	19.993	103.135	20.145	3.892	0.541
1235.500	700.848	80.012	19.994	103.136	20.144	3.954	0.523
1236.000	701.103	80.011	19.994	103.137	20.142	4.068	0.491
1236.500	701.366	80.010	19.994	103.137	20.142	4.083	0.499
1237.000	701.606	80.009	19.995	103.137	20.142	4.066	0.511
1237.500	701.865	80.010	19.995	103.135	20.143	4.032	0.501
1238.000	702.090	80.010	19.994	103.135	20.141	4.127	0.492
1238.500	702.371	80.009	19.994	103.132	20.142	4.099	0.495
1239.000	702.652	80.008	19.994	103.132	20.139	4.261	0.534
1239.500	702.835	80.009	19.995	103.132	20.141	4.134	0.512
1240.001	703.113	80.009	19.994	103.133	20.141	4.114	0.462
1240.501	703.372	80.008	19.994	103.133	20.144	3.970	0.499
1241.000	703.629	80.009	19.994	103.135	20.141	4.156	0.526
1241.500	703.875	80.009	19.994	103.134	20.142	4.057	0.510
1242.000	704.143	80.009	19.995	103.135	20.142	4.067	0.509
1242.500	704.394	80.009	19.994	103.135	20.142	4.046	0.516
1243.000	704.649	80.008	19.995	103.134	20.141	4.127	0.512
1243.500	704.913	80.009	19.995	103.133	20.139	4.256	0.513
1244.000	705.138	80.009	19.995	103.133	20.141	4.176	0.504
1244.500	705.438	80.010	19.995	103.132	20.140	4.218	0.507
1245.000	705.660	80.009	19.994	103.132	20.139	4.269	0.524
1245.500	705.908	80.009	19.994	103.133	20.143	4.041	0.496
1246.000	706.175	80.010	19.994	103.134	20.141	4.116	0.492
1246.500	706.443	80.008	19.995	103.128	20.140	4.188	0.525
1247.000	706.669	80.010	19.994	103.123	20.141	4.119	0.515
1247.500	706.921	80.008	19.995	103.122	20.139	4.265	0.486
1248.000	707.213	80.008	19.994	103.122	20.139	4.270	0.511
1248.500	707.486	80.008	19.994	103.123	20.138	4.354	0.555
1249.000	707.743	80.009	19.995	103.129	20.140	4.187	0.547
1249.500	707.997	80.009	19.995	103.133	20.141	4.148	0.520
1250.000	708.253	80.010	19.995	103.134	20.139	4.261	0.510
1250.500	708.484	80.009	19.995	103.133	20.138	4.371	0.499
1251.000	708.744	80.008	19.995	103.132	20.139	4.294	0.489
1251.501	709.043	80.009	19.995	103.132	20.137	4.382	0.524
1252.001	709.274	80.008	19.995	103.132	20.138	4.314	0.544
1252.501	709.546	80.009	19.995	103.132	20.139	4.285	0.517
1253.001	709.796	80.008	19.994	103.131	20.137	4.383	0.513
1253.500	710.070	80.009	19.995	103.130	20.141	4.170	0.523
1254.000	710.360	80.010	19.995	103.130	20.139	4.294	0.544
1254.501	710.617	80.009	19.995	103.130	20.137	4.418	0.555
1255.001	710.872	80.011	19.995	103.129	20.139	4.303	0.530
1255.501	711.118	80.011	19.994	103.130	20.138	4.340	0.507
1256.000	711.395	80.012	19.995	103.131	20.140	4.207	0.512
1256.500	711.662	80.010	19.995	103.131	20.137	4.432	0.534
1257.000	711.881	80.011	19.995	103.131	20.137	4.400	0.515
1257.500	712.189	80.011	19.996	103.128	20.140	4.228	0.506
1258.000	712.473	80.011	19.994	103.128	20.141	4.168	0.559
1258.500	712.700	80.010	19.995	103.127	20.140	4.221	0.552
1259.000	712.957	80.009	19.994	103.127	20.139	4.301	0.498
1259.500	713.228	80.010	19.995	103.127	20.140	4.210	0.506
1260.000	713.514	80.011	19.995	103.130	20.139	4.307	0.543
1260.500	713.775	80.009	19.994	103.132	20.138	4.367	0.552
1261.000	714.046	80.009	19.994	103.134	20.138	4.352	0.540
1261.500	714.310	80.009	19.994	103.134	20.138	4.316	0.534
1262.000	714.602	80.010	19.995	103.133	20.135	4.514	0.546
1262.500	714.848	80.010	19.995	103.132	20.136	4.500	0.547
1263.000	715.112	80.009	19.995	103.132	20.139	4.305	0.524
1263.500	715.394	80.012	19.995	103.130	20.140	4.223	0.528
1264.000	715.675	80.011	19.994	103.130	20.139	4.285	0.554
1264.500	715.923	80.010	19.995	103.132	20.140	4.232	0.546
1265.000	716.190	80.011	19.995	103.132	20.139	4.249	0.522
1265.501	716.452	80.009	19.995	103.131	20.138	4.340	0.522
1266.001	716.731	80.010	19.995	103.131	20.139	4.272	0.534
1266.500	716.992	80.009	19.994	103.131	20.143	4.016	0.541
1267.000	717.259	80.010	19.995	103.131	20.138	4.323	0.534
1267.501	717.519	80.009	19.995	103.129	20.141	4.114	0.527
1268.001	717.780	80.010	19.995	103.129	20.139	4.289	0.524
1268.501	718.043	80.009	19.994	103.129	20.140	4.192	0.523
1269.000	718.317	80.010	19.996	103.130	20.140	4.240	0.531
1269.500	718.575	80.010	19.994	103.129	20.141	4.165	0.535
1270.000	718.813	80.009	19.996	103.132	20.138	4.338	0.514
1270.500	719.141	80.010	19.995	103.132	20.141	4.161	0.531
1271.000	719.380	80.010	19.996	103.131	20.134	4.604	0.567
1271.501	719.684	80.011	19.995	103.130	20.138	4.332	0.555
1272.001	719.950	80.009	19.996	103.130	20.140	4.199	0.556
1272.501	720.191	80.010	19.996	103.128	20.137	4.425	0.538
1273.000	720.495	80.009	19.996	103.127	20.141	4.130	0.526
1273.500	720.717	80.009	19.995	103.128	20.141	4.141	0.535
1274.000	720.993	80.009	19.995	103.129	20.144	3.915	0.512
1274.500	721.248	80.010	19.995	103.128	20.139	4.285	0.515
1275.000	721.514	80.009	19.996	103.131	20.143	3.981	0.526
1275.501	721.773	80.009	19.995	103.133	20.141	4.134	0.523
1276.001	722.051	80.008	19.996	103.133	20.142	4.109	0.531
1276.500	722.333	80.010	19.996	103.133	20.141	4.123	0.548
1277.000	722.542	80.009	19.996	103.133	20.137	4.387	0.525
1277.500	722.879	80.009	19.995	103.132	20.140	4.232	0.518
1278.000	723.125	80.010	19.996	103.132	20.140	4.231	0.565
1278.500	723.378	80.009	19.996	103.134	20.140	4.185	0.541
1279.000	723.650	80.009	19.996	103.134	20.142	4.063	0.512
1279.500	723.933	80.009	19.996	103.134	20.141	4.136	0.540
1280.000	724.226	80.009	19.995	103.135	20.144	3.925	0.566
1280.500	724.483	80.010	19.996	103.134	20.143	4.028	0.563
1281.000	724.734	80.010	19.996	103.131	20.142	4.092	0.529
1281.500	724.997	80.011	19.996	103.132	20.144	3.948	0.511
1282.000	725.265	80.011	19.996	103.132	20.142	4.105	0.523
1282.500	725.580	80.011	19.995	103.132	20.144	3.957	0.557
1283.000	725.794	80.010	19.995	103.132	20.143	3.987	0.556
1283.500	726.064	80.010	19.995	103.128	20.144	3.912	0.506
1284.000	726.316	80.010	19.995	103.129	20.146	3.810	0.502
1284.500	726.566	80.010	19.996	103.129	20.142	4.105	0.512
1285.000	726.859	80.011	19.994	103.130	20.144	3.947	0.523
1285.500	727.073	80.010	19.995	103.131	20.144	3.932	0.525
1286.000	727.398	80.011	19.994	103.135	20.143	4.008	0.523
1286.500	727.659	80.010	19.995	103.134	20.144	3.961	0.562
1287.000	727.939	80.012	19.995	103.133	20.143	3.979	0.563
1287.500	728.164	80.012	19.995	103.133	20.143	4.023	0.523
1288.000	728.455	80.012	19.994	103.133	20.140	4.199	0.511
1288.500	728.742	80.011	19.994	103.134	20.144	3.965	0.547
1289.000	728.980	80.011	19.995	103.135	20.144	3.932	0.552
1289.500	729.262	80.011	19.993	103.135	20.145	3.899	0.523
1290.000	729.504	80.011	19.994	103.136	20.142	4.072	0.522
1290.500	729.715	80.011	19.993	103.136	20.142	4.101	0.488
1291.000	729.953	80.012	19.994	103.135	20.143	4.038	0.451
1291.500	730.275	80.012	19.994	103.134	20.145	3.888	0.504
1292.000	730.521	80.011	19.994	103.134	20.145	3.872	0.564
1292.500	730.782	80.011	19.993	103.134	20.146	3.839	0.537
1293.000	731.046	80.012	19.994	103.134	20.146	3.786	0.516
1293.500	731.294	80.010	19.994	103.134	20.142	4.092	0.519
1294.000	731.565	80.011	19.995	103.135	20.143	4.028	0.516
1294.500	731.823	80.011	19.994	103.135	20.143	4.014	0.524
1295.000	732.049	80.010	19.993	103.135	20.143	3.985	0.506
1295.500	732.322	80.011	19.994	103.134	20.144	3.945	0.492
1296.000	732.580	80.011	19.995	103.134	20.138	4.327	0.515
1296.500	732.849	80.011	19.995	103.134	20.144	3.917	0.529
1297.000	733.114	80.010	19.995	103.134	20.143	4.014	0.531
1297.500	733.363	80.010	19.994	103.135	20.146	3.828	0.524
1298.000	733.640	80.010	19.994	103.136	20.142	4.085	0.520
1298.500	733.916	80.010	19.995	103.133	20.145	3.866	0.539
1299.000	734.144	80.011	19.993	103.132	20.142	4.079	0.529
1299.500	734.368	80.011	19.994	103.133	20.144	3.921	0.478
1300.000	734.627	80.011	19.993	103.132	20.143	3.986	0.468
1300.500	734.923	80.010	19.994	103.133	20.144	3.934	0.519
1301.000	735.118	80.010	19.994	103.137	20.142	4.101	0.523
1301.501	735.426	80.010	19.994	103.137	20.142	4.105	0.497
1302.001	735.662	80.010	19.994	103.135	20.144	3.919	0.524
1302.500	735.926	80.011	19.994	103.134	20.142	4.108	0.522
1303.000	736.164	80.012	19.994	103.134	20.143	4.037	0.501
1303.500	736.405	80.011	19.994	103.133	20.145	3.899	0.490
1304.000	736.640	80.011	19.994	103.133	20.143	3.990	0.477
1304.500	736.916	80.010	19.994	103.134	20.141	4.165	0.493
1305.000	737.160	80.012	19.994	103.133	20.142	4.052	0.516
1305.500	737.417	80.011	19.995	103.133	20.145	3.891	0.511
1306.000	737.667	80.011	19.994	103.132	20.142	4.046	0.504
1306.500	737.935	80.011	19.994	103.132	20.144	3.957	0.512
1307.000	738.189	80.011	19.994	103.132	20.144	3.926	0.520
1307.500	738.445	80.010	19.994	103.134	20.144	3.924	0.516
1308.000	738.648	80.011	19.995	103.133	20.143	4.010	0.485
1308.500	738.948	80.011	19.994	103.133	20.143	3.999	0.481
1309.000	739.165	80.011	19.994	103.134	20.146	3.840	0.510
1309.500	739.447	80.012	19.994	103.134	20.144	3.975	0.508
1310.000	739.698	80.012	19.994	103.134	20.147	3.750	0.516
1310.500	739.903	80.013	19.994	103.134	20.143	3.997	0.494
1311.000	740.201	80.012	19.995	103.132	20.145	3.864	0.480
1311.500	740.450	80.011	19.994	103.132	20.144	3.939	0.525
1312.000	740.687	80.014	19.994	103.131	20.145	3.852	0.517
1312.500	740.969	80.012	19.994	103.128	20.146	3.803	0.502
1313.001	741.179	80.013	19.995	103.127	20.146	3.801	0.505
1313.501	741.438	80.013	19.994	103.127	20.144	3.926	0.481
1314.000	741.705	80.011	19.995	103.127	20.144	3.917	0.498
1314.500	741.947	80.012	19.994	103.126	20.144	3.941	0.518
1315.000	742.230	80.013	19.995	103.128	20.144	3.968	0.517
1315.500	742.465	80.013	19.995	103.128	20.143	4.019	0.521
1316.000	742.727	80.013	19.994	103.125	20.141	4.138	0.507
1316.500	742.954	80.013	19.994	103.121	20.144	3.912	0.493
1317.000	743.219	80.012	19.995	103.120	20.140	4.207	0.491
1317.500	743.470	80.012	19.994	103.119	20.142	4.079	0.504
1318.000	743.704	80.013	19.994	103.119	20.147	3.772	0.500
