Sample ID:	C:\MCC\MCC Cal\Test\PE_Foam_Pipe_Insulation_MCC_30K_min_220128_R3.txt
Sample Weight (mg):	4.58
Heating Rate (C/s):	0.5
Combustor Temp (C):	900
N2 Flow Rate (cc/min):	80
O2 Flow Rate (cc/min):	20
Calibration File:	C:\MCC\MCC Cal\Coeff1 JN10440_30_210304.txt.txt
T Correction Coefficients:	0	1.024463	0
Time Shift (s):	14
*
Time (s)	Temperature (C)	N2 flow rate (cc/min)	O2 flow rate (cc/min)	Flow Rate (cc/min)	Oxygen (%)	HRR (W/g)	Heating rate (C/s)
0.000	111.085	80.010	19.992	103.741	20.048	0.091	0.003
0.501	111.103	80.025	19.995	103.742	20.047	0.202	-0.008
1.001	111.098	80.029	19.996	103.742	20.048	0.111	0.013
1.500	111.100	80.025	19.995	103.742	20.048	0.128	0.005
2.000	111.082	80.020	19.996	103.742	20.049	0.021	-0.010
2.500	111.091	80.018	19.996	103.741	20.050	-0.008	-0.013
3.000	111.078	80.013	19.995	103.742	20.049	0.070	-0.006
3.500	111.064	80.013	19.995	103.740	20.047	0.175	-0.015
4.000	111.069	80.011	19.995	103.740	20.049	0.076	-0.018
4.500	111.044	80.012	19.995	103.739	20.046	0.235	-0.014
5.000	111.058	80.012	19.993	103.741	20.046	0.258	-0.015
5.500	111.089	80.013	19.995	103.740	20.044	0.410	0.017
6.000	111.088	80.013	19.993	103.741	20.048	0.115	0.037
6.500	111.072	80.012	19.995	103.741	20.047	0.225	0.007
7.000	111.088	80.012	19.995	103.741	20.047	0.225	-0.008
7.500	111.103	80.012	19.994	103.742	20.042	0.525	0.016
8.000	111.091	80.012	19.994	103.743	20.046	0.294	0.017
8.500	111.053	80.011	19.993	103.744	20.044	0.400	-0.024
9.000	111.040	80.011	19.996	103.747	20.047	0.189	-0.051
9.500	111.095	80.012	19.995	103.750	20.042	0.538	-0.005
10.001	111.055	80.010	19.995	103.753	20.042	0.533	0.029
10.501	111.061	80.011	19.994	103.759	20.045	0.338	-0.009
11.000	111.098	80.011	19.994	103.765	20.044	0.430	0.005
11.500	111.097	80.011	19.995	103.769	20.044	0.416	0.040
12.001	111.097	80.009	19.994	103.773	20.043	0.494	0.017
12.501	111.106	80.010	19.995	103.778	20.042	0.519	0.004
13.000	111.078	80.009	19.995	103.778	20.042	0.566	-0.005
13.500	111.088	80.009	19.995	103.779	20.042	0.576	-0.019
14.001	111.093	80.008	19.995	103.780	20.042	0.545	-0.002
14.501	111.096	80.008	19.994	103.781	20.041	0.589	0.012
15.001	111.108	80.008	19.996	103.781	20.041	0.591	0.012
15.500	111.117	80.007	19.995	103.779	20.041	0.586	0.018
16.000	111.168	80.008	19.994	103.778	20.039	0.757	0.040
16.500	111.134	80.008	19.994	103.779	20.039	0.745	0.038
17.000	111.162	80.008	19.996	103.784	20.040	0.716	0.005
17.500	111.157	80.009	19.995	103.791	20.037	0.922	0.008
18.000	111.149	80.009	19.996	103.797	20.038	0.802	0.005
18.500	111.165	80.009	19.995	103.801	20.037	0.879	-0.003
19.000	111.211	80.008	19.995	103.804	20.037	0.922	0.035
19.500	111.217	80.009	19.994	103.803	20.036	0.971	0.057
20.000	111.217	80.009	19.995	103.802	20.033	1.154	0.029
20.500	111.233	80.008	19.994	103.805	20.035	1.052	0.011
21.000	111.252	80.009	19.994	103.815	20.033	1.163	0.026
21.500	111.286	80.008	19.994	103.822	20.032	1.260	0.044
22.000	111.282	80.008	19.995	103.834	20.032	1.247	0.041
22.500	111.331	80.008	19.994	103.844	20.033	1.219	0.038
23.000	111.336	80.009	19.993	103.852	20.030	1.412	0.050
23.500	111.342	80.008	19.995	103.855	20.030	1.378	0.032
24.000	111.392	80.009	19.994	103.861	20.032	1.272	0.033
24.500	111.415	80.008	19.993	103.862	20.031	1.315	0.064
25.000	111.419	80.010	19.994	103.863	20.026	1.675	0.050
25.500	111.478	80.009	19.993	103.867	20.029	1.490	0.045
26.000	111.526	80.011	19.993	103.873	20.027	1.634	0.086
26.500	111.534	80.011	19.994	103.879	20.025	1.754	0.081
27.000	111.592	80.010	19.993	103.886	20.022	1.935	0.061
27.500	111.617	80.009	19.994	103.893	20.024	1.800	0.075
28.000	111.662	80.009	19.993	103.898	20.024	1.799	0.077
28.500	111.672	80.009	19.995	103.898	20.023	1.886	0.063
29.000	111.731	80.009	19.993	103.899	20.024	1.836	0.062
29.500	111.750	80.009	19.994	103.899	20.021	2.015	0.073
30.000	111.811	80.011	19.993	103.898	20.022	1.941	0.079
30.500	111.834	80.011	19.994	103.899	20.019	2.196	0.082
31.000	111.891	80.010	19.993	103.901	20.018	2.221	0.082
31.500	111.923	80.009	19.993	103.885	20.022	1.976	0.085
32.000	112.012	80.010	19.993	103.862	20.018	2.276	0.105
32.500	112.054	80.009	19.993	103.856	20.017	2.305	0.126
33.000	112.134	80.010	19.994	103.856	20.019	2.194	0.126
33.500	112.158	80.010	19.994	103.862	20.016	2.367	0.113
34.000	112.245	80.010	19.993	103.887	20.015	2.446	0.108
34.500	112.255	80.010	19.993	103.933	20.011	2.710	0.104
35.000	112.347	80.009	19.994	103.982	20.016	2.410	0.099
35.500	112.437	80.009	19.993	103.998	20.015	2.484	0.142
36.000	112.499	80.009	19.993	104.000	20.014	2.553	0.167
36.500	112.540	80.010	19.993	103.999	20.014	2.560	0.128
37.000	112.626	80.009	19.994	103.983	20.010	2.813	0.115
37.500	112.707	80.009	19.993	103.949	20.014	2.533	0.147
38.001	112.801	80.011	19.993	103.939	20.012	2.646	0.171
38.501	112.826	80.009	19.994	103.940	20.014	2.531	0.147
39.000	112.946	80.011	19.995	103.942	20.016	2.405	0.131
39.500	113.011	80.010	19.993	103.949	20.010	2.839	0.165
40.000	113.079	80.011	19.994	103.954	20.010	2.794	0.159
40.500	113.135	80.009	19.994	103.961	20.009	2.864	0.129
41.000	113.271	80.010	19.993	103.967	20.014	2.566	0.158
41.500	113.313	80.008	19.994	103.973	20.009	2.852	0.185
42.001	113.425	80.010	19.994	103.969	20.013	2.588	0.166
42.501	113.499	80.009	19.993	103.965	20.009	2.895	0.170
43.000	113.620	80.010	19.994	103.964	20.010	2.804	0.191
43.501	113.733	80.010	19.995	103.964	20.010	2.825	0.214
44.001	113.812	80.009	19.994	103.964	20.011	2.755	0.213
44.500	113.949	80.010	19.993	103.969	20.011	2.763	0.204
45.000	114.018	80.010	19.992	103.975	20.009	2.870	0.211
45.500	114.114	80.010	19.994	103.975	20.011	2.765	0.186
46.000	114.235	80.009	19.994	103.975	20.009	2.853	0.191
46.500	114.327	80.009	19.993	103.973	20.009	2.872	0.215
47.001	114.447	80.010	19.993	103.973	20.008	2.925	0.212
47.501	114.541	80.010	19.994	103.972	20.009	2.865	0.213
48.000	114.673	80.010	19.994	103.972	20.012	2.703	0.220
48.500	114.752	80.009	19.994	103.971	20.006	3.100	0.219
49.000	114.918	80.010	19.992	103.974	20.010	2.836	0.228
49.500	115.014	80.009	19.994	103.974	20.012	2.688	0.253
50.000	115.123	80.008	19.994	103.976	20.009	2.914	0.233
50.500	115.218	80.008	19.993	103.976	20.011	2.748	0.205
51.000	115.325	80.009	19.996	103.976	20.009	2.913	0.203
51.501	115.440	80.010	19.995	103.976	20.010	2.800	0.212
52.001	115.586	80.010	19.993	103.976	20.010	2.826	0.241
52.500	115.730	80.010	19.994	103.976	20.009	2.921	0.275
53.000	115.846	80.010	19.994	103.976	20.007	3.046	0.275
53.500	115.954	80.009	19.995	103.976	20.007	3.042	0.242
54.000	116.111	80.010	19.994	103.976	20.008	2.983	0.245
54.500	116.242	80.010	19.994	103.976	20.007	3.007	0.277
55.000	116.357	80.011	19.994	103.977	20.004	3.229	0.267
55.500	116.490	80.010	19.994	103.978	20.004	3.241	0.247
56.000	116.639	80.011	19.994	103.978	20.004	3.268	0.265
56.500	116.755	80.010	19.993	103.979	20.005	3.155	0.273
57.000	116.906	80.011	19.994	103.985	20.005	3.139	0.266
57.501	117.034	80.011	19.994	103.986	20.008	2.958	0.273
58.001	117.188	80.011	19.995	103.988	20.004	3.264	0.281
58.500	117.299	80.010	19.994	103.994	20.004	3.247	0.274
59.000	117.468	80.011	19.994	104.001	20.003	3.313	0.273
59.500	117.594	80.011	19.994	104.000	20.002	3.414	0.288
60.000	117.729	80.011	19.993	104.005	20.002	3.414	0.278
60.500	117.899	80.011	19.993	104.006	20.002	3.398	0.283
61.000	118.025	80.012	19.994	104.001	20.002	3.418	0.301
61.501	118.184	80.012	19.994	103.998	20.004	3.252	0.291
62.001	118.362	80.011	19.993	103.999	20.001	3.474	0.311
62.500	118.517	80.012	19.994	103.994	19.999	3.587	0.335
63.000	118.644	80.012	19.994	103.990	20.001	3.462	0.307
63.500	118.783	80.013	19.994	103.989	19.999	3.585	0.274
64.000	118.953	80.011	19.994	103.986	19.998	3.663	0.287
64.501	119.105	80.010	19.993	103.985	20.001	3.488	0.316
65.001	119.313	80.011	19.994	103.991	19.999	3.572	0.341
65.501	119.428	80.011	19.993	103.997	20.001	3.437	0.342
66.000	119.580	80.011	19.994	104.001	19.999	3.608	0.295
66.500	119.732	80.012	19.992	104.006	19.999	3.562	0.285
67.000	119.885	80.012	19.993	104.005	19.999	3.608	0.305
67.501	120.026	80.010	19.993	104.001	19.999	3.614	0.300
68.001	120.220	80.010	19.993	103.998	19.998	3.698	0.314
68.500	120.363	80.011	19.992	103.999	20.001	3.453	0.336
69.001	120.497	80.010	19.993	103.998	20.003	3.322	0.307
69.501	120.713	80.012	19.993	104.000	20.002	3.412	0.314
70.001	120.868	80.011	19.994	104.005	20.001	3.459	0.361
70.501	121.080	80.010	19.994	104.005	19.997	3.702	0.369
71.001	121.241	80.011	19.993	104.004	20.000	3.503	0.370
71.501	121.392	80.010	19.994	104.001	20.000	3.492	0.342
72.000	121.550	80.012	19.994	103.996	20.001	3.429	0.310
72.500	121.750	80.011	19.995	103.991	20.001	3.478	0.333
73.000	121.932	80.009	19.994	103.990	20.001	3.456	0.370
73.500	122.094	80.010	19.995	103.990	20.001	3.441	0.363
74.000	122.251	80.010	19.993	103.990	20.000	3.503	0.332
74.500	122.438	80.009	19.994	103.993	19.999	3.598	0.332
75.001	122.619	80.010	19.993	103.994	19.999	3.564	0.355
75.501	122.830	80.011	19.993	103.993	20.005	3.205	0.380
76.000	123.004	80.009	19.993	103.993	20.000	3.507	0.389
76.501	123.192	80.010	19.993	103.991	20.001	3.455	0.374
77.001	123.361	80.009	19.994	103.988	20.001	3.469	0.359
77.500	123.567	80.009	19.995	103.985	20.003	3.330	0.366
78.000	123.705	80.010	19.993	103.983	20.000	3.519	0.359
78.500	123.967	80.007	19.995	103.983	20.000	3.558	0.372
79.000	124.082	80.010	19.994	103.988	20.001	3.441	0.388
79.501	124.304	80.010	19.993	103.995	20.001	3.467	0.357
80.001	124.433	80.011	19.994	103.998	20.001	3.459	0.344
80.501	124.645	80.011	19.993	104.004	20.000	3.523	0.346
81.001	124.857	80.009	19.995	104.004	20.001	3.465	0.383
81.501	125.026	80.010	19.993	104.001	20.000	3.531	0.402
82.001	125.242	80.010	19.995	103.996	20.001	3.479	0.383
82.500	125.436	80.011	19.992	103.995	20.000	3.514	0.398
83.001	125.624	80.011	19.993	103.989	20.000	3.539	0.396
83.501	125.831	80.012	19.994	103.985	20.000	3.541	0.388
84.001	125.985	80.011	19.992	103.982	20.000	3.514	0.378
84.500	126.175	80.010	19.994	103.981	20.002	3.416	0.352
85.000	126.353	80.013	19.993	103.980	20.002	3.404	0.356
85.501	126.570	80.013	19.993	103.982	20.001	3.463	0.382
86.001	126.768	80.012	19.994	103.987	19.997	3.721	0.405
86.500	126.951	80.012	19.994	103.994	20.001	3.486	0.398
87.000	127.130	80.013	19.993	104.000	19.998	3.694	0.372
87.500	127.335	80.012	19.994	104.007	19.995	3.858	0.373
88.000	127.545	80.012	19.993	104.010	19.998	3.636	0.400
88.500	127.765	80.012	19.993	104.005	19.997	3.704	0.423
89.000	127.969	80.013	19.993	104.001	19.998	3.675	0.427
89.500	128.165	80.012	19.993	103.998	19.997	3.771	0.412
90.000	128.342	80.012	19.994	103.995	19.996	3.833	0.387
90.501	128.538	80.013	19.993	103.997	19.999	3.566	0.373
91.001	128.746	80.012	19.994	104.004	19.998	3.640	0.388
91.500	128.911	80.012	19.994	104.009	19.998	3.698	0.389
92.000	129.178	80.010	19.994	104.013	19.998	3.669	0.402
92.500	129.351	80.012	19.992	104.015	20.000	3.548	0.436
93.001	129.570	80.013	19.993	104.013	19.999	3.589	0.416
93.501	129.799	80.012	19.994	104.011	20.000	3.497	0.420
94.000	129.951	80.012	19.993	104.010	19.998	3.663	0.415
94.500	130.211	80.011	19.993	104.007	19.998	3.636	0.397
95.001	130.361	80.012	19.993	104.005	19.999	3.571	0.411
95.501	130.592	80.011	19.994	104.003	19.998	3.636	0.395
96.000	130.777	80.010	19.993	104.000	19.997	3.711	0.399
96.501	131.029	80.010	19.994	103.996	20.001	3.470	0.426
97.001	131.197	80.010	19.994	103.992	20.003	3.297	0.428
97.500	131.435	80.010	19.994	103.988	20.002	3.380	0.413
98.000	131.624	80.010	19.994	103.989	19.999	3.573	0.416
98.500	131.862	80.010	19.994	103.989	19.999	3.585	0.427
99.000	132.104	80.009	19.994	103.991	19.999	3.608	0.453
99.500	132.306	80.010	19.993	103.995	20.000	3.505	0.462
100.000	132.471	80.010	19.993	104.000	20.001	3.476	0.405
100.500	132.710	80.011	19.995	104.002	20.001	3.452	0.385
101.000	132.932	80.009	19.994	104.003	19.998	3.686	0.433
101.500	133.150	80.010	19.994	104.001	19.995	3.873	0.451
102.000	133.350	80.010	19.993	103.997	19.999	3.575	0.428
102.500	133.554	80.009	19.994	103.991	20.000	3.556	0.411
103.000	133.782	80.010	19.994	103.985	19.999	3.618	0.418
103.500	134.006	80.010	19.994	103.984	19.998	3.645	0.442
104.000	134.182	80.009	19.994	103.983	20.000	3.525	0.426
104.500	134.460	80.008	19.995	103.987	20.000	3.534	0.427
105.000	134.653	80.008	19.995	103.991	20.001	3.449	0.463
105.500	134.864	80.008	19.995	103.991	20.002	3.396	0.438
106.000	135.072	80.008	19.993	103.989	20.001	3.463	0.411
106.501	135.303	80.009	19.994	103.987	19.999	3.581	0.429
107.002	135.511	80.008	19.994	103.985	20.002	3.373	0.439
107.501	135.734	80.009	19.995	103.982	20.003	3.346	0.435
108.000	135.942	80.007	19.995	103.981	20.001	3.488	0.431
108.500	136.173	80.009	19.995	103.980	20.000	3.494	0.435
109.000	136.418	80.008	19.995	103.980	20.001	3.451	0.458
109.500	136.651	80.009	19.995	103.978	20.001	3.459	0.477
110.000	136.882	80.009	19.995	103.981	20.001	3.424	0.470
110.501	137.104	80.007	19.993	103.983	19.998	3.657	0.458
111.001	137.305	80.009	19.995	103.983	20.000	3.538	0.438
111.501	137.521	80.008	19.995	103.983	19.999	3.591	0.420
112.001	137.766	80.009	19.995	103.984	20.001	3.470	0.439
112.500	137.980	80.009	19.995	103.985	19.999	3.575	0.460
113.000	138.184	80.010	19.995	103.988	20.002	3.409	0.439
113.501	138.426	80.009	19.995	103.990	20.003	3.314	0.432
114.001	138.630	80.010	19.995	103.990	20.000	3.538	0.446
114.500	138.874	80.008	19.995	103.990	20.000	3.532	0.447
115.001	139.065	80.010	19.994	103.992	20.001	3.448	0.441
115.501	139.287	80.011	19.995	103.991	20.001	3.474	0.424
116.000	139.541	80.010	19.994	103.991	20.000	3.499	0.445
116.500	139.767	80.011	19.995	103.992	19.999	3.581	0.478
117.000	139.929	80.010	19.994	103.996	20.000	3.503	0.434
117.500	140.170	80.009	19.994	103.995	19.999	3.591	0.396
118.000	140.419	80.011	19.995	103.998	19.998	3.682	0.446
118.500	140.687	80.011	19.994	104.003	20.001	3.480	0.504
119.000	140.877	80.009	19.994	104.008	19.999	3.589	0.488
119.500	141.129	80.009	19.994	104.004	19.999	3.575	0.450
120.000	141.360	80.009	19.996	104.004	19.998	3.639	0.463
120.500	141.597	80.011	19.994	104.003	19.998	3.659	0.475
121.000	141.836	80.012	19.993	103.997	19.996	3.785	0.472
121.500	142.032	80.010	19.995	103.990	19.996	3.805	0.455
122.000	142.305	80.009	19.994	103.988	19.999	3.565	0.452
122.500	142.470	80.010	19.995	103.983	19.998	3.641	0.454
123.000	142.725	80.010	19.994	103.978	19.999	3.573	0.429
123.500	142.952	80.011	19.994	103.978	20.002	3.378	0.451
124.000	143.192	80.010	19.993	103.979	20.000	3.509	0.475
124.501	143.409	80.011	19.993	103.980	20.000	3.489	0.462
125.001	143.669	80.009	19.994	103.981	20.002	3.376	0.467
125.500	143.880	80.009	19.994	103.982	20.002	3.390	0.474
126.000	144.079	80.009	19.994	103.981	20.000	3.532	0.440
126.501	144.351	80.009	19.993	103.980	20.002	3.404	0.440
127.001	144.572	80.009	19.994	103.980	19.999	3.568	0.482
127.500	144.855	80.008	19.994	103.979	20.000	3.550	0.499
128.000	145.065	80.009	19.995	103.983	20.001	3.478	0.498
128.500	145.271	80.009	19.994	103.987	20.000	3.546	0.455
129.000	145.517	80.009	19.993	103.988	20.001	3.447	0.434
129.500	145.790	80.010	19.993	103.989	19.999	3.610	0.486
130.000	145.988	80.010	19.994	103.988	20.000	3.519	0.495
130.500	146.237	80.008	19.994	103.985	20.002	3.408	0.459
131.000	146.469	80.008	19.994	103.982	20.001	3.419	0.464
131.500	146.689	80.008	19.994	103.981	20.002	3.400	0.467
132.000	146.897	80.008	19.993	103.981	20.001	3.449	0.440
132.500	147.162	80.009	19.994	103.981	20.002	3.396	0.450
133.000	147.422	80.009	19.993	103.981	20.003	3.324	0.499
133.500	147.616	80.009	19.994	103.980	19.999	3.613	0.490
134.000	147.875	80.010	19.995	103.980	20.004	3.237	0.453
134.500	148.069	80.008	19.993	103.980	20.000	3.556	0.453
135.000	148.340	80.010	19.994	103.979	20.002	3.412	0.459
135.500	148.563	80.009	19.995	103.980	20.000	3.542	0.480
136.000	148.800	80.009	19.994	103.980	20.004	3.258	0.477
136.500	149.029	80.008	19.993	103.984	20.000	3.507	0.463
137.000	149.290	80.010	19.992	103.989	20.000	3.507	0.478
137.500	149.526	80.009	19.994	103.991	19.998	3.639	0.494
138.000	149.761	80.011	19.993	103.990	20.001	3.454	0.484
138.500	149.991	80.009	19.993	103.990	20.001	3.476	0.468
139.000	150.260	80.011	19.993	103.987	19.998	3.667	0.482
139.500	150.504	80.011	19.994	103.983	20.002	3.398	0.506
140.000	150.695	80.010	19.994	103.983	20.002	3.390	0.474
140.500	150.905	80.010	19.994	103.983	20.002	3.347	0.418
141.000	151.150	80.011	19.993	103.984	20.001	3.435	0.428
141.500	151.381	80.010	19.994	103.983	20.001	3.476	0.465
142.000	151.625	80.011	19.993	103.981	19.999	3.591	0.475
142.500	151.885	80.012	19.994	103.981	19.997	3.744	0.489
143.000	152.093	80.010	19.994	103.985	20.000	3.507	0.486
143.500	152.325	80.012	19.994	103.988	19.997	3.735	0.454
144.000	152.618	80.010	19.992	103.992	19.999	3.585	0.482
144.500	152.816	80.011	19.993	103.995	20.001	3.472	0.508
145.000	153.088	80.011	19.994	103.996	20.000	3.513	0.481
145.500	153.333	80.011	19.993	103.992	19.998	3.631	0.494
146.000	153.537	80.011	19.993	103.989	19.997	3.711	0.483
146.500	153.769	80.010	19.993	103.987	19.998	3.645	0.442
147.000	154.021	80.011	19.994	103.984	20.003	3.339	0.460
147.500	154.236	80.011	19.993	103.983	19.998	3.657	0.476
148.000	154.516	80.012	19.993	103.983	20.001	3.431	0.481
148.500	154.714	80.011	19.994	103.984	20.001	3.444	0.487
149.000	154.916	80.010	19.993	103.983	20.000	3.557	0.439
149.500	155.198	80.011	19.993	103.983	20.001	3.485	0.442
150.000	155.440	80.010	19.994	103.982	19.998	3.696	0.504
150.500	155.643	80.011	19.993	103.980	20.002	3.409	0.484
151.000	155.909	80.011	19.994	103.979	20.001	3.481	0.457
151.500	156.142	80.011	19.994	103.979	20.001	3.444	0.484
152.000	156.384	80.009	19.993	103.979	19.998	3.651	0.487
152.500	156.574	80.011	19.994	103.979	19.996	3.820	0.454
153.000	156.835	80.011	19.994	103.979	19.999	3.587	0.441
153.500	157.105	80.010	19.992	103.979	19.996	3.779	0.490
154.000	157.345	80.011	19.994	103.980	19.999	3.606	0.520
154.500	157.589	80.011	19.993	103.979	20.000	3.530	0.497
155.000	157.805	80.011	19.993	103.979	20.001	3.476	0.472
155.500	158.096	80.011	19.993	103.979	20.001	3.456	0.483
156.000	158.306	80.011	19.993	103.978	20.001	3.466	0.504
156.500	158.541	80.011	19.993	103.977	19.998	3.632	0.473
157.000	158.771	80.011	19.992	103.978	19.998	3.674	0.455
157.500	159.014	80.012	19.994	103.977	19.998	3.667	0.469
158.000	159.252	80.012	19.994	103.977	19.998	3.641	0.477
158.500	159.501	80.012	19.994	103.976	19.996	3.779	0.484
159.000	159.754	80.011	19.993	103.976	19.997	3.744	0.494
159.500	159.985	80.011	19.994	103.975	19.995	3.845	0.493
160.000	160.214	80.010	19.994	103.976	20.000	3.532	0.472
160.500	160.477	80.011	19.993	103.978	20.000	3.549	0.476
161.000	160.729	80.011	19.992	103.978	19.997	3.748	0.503
161.500	160.964	80.013	19.993	103.978	19.995	3.853	0.501
162.000	161.213	80.010	19.994	103.978	19.997	3.727	0.486
162.500	161.506	80.010	19.994	103.978	19.998	3.674	0.513
163.000	161.722	80.012	19.993	103.976	20.000	3.530	0.525
163.500	161.940	80.012	19.993	103.976	20.003	3.314	0.472
164.000	162.168	80.010	19.993	103.976	19.996	3.838	0.440
164.500	162.443	80.011	19.993	103.976	20.002	3.413	0.474
165.000	162.670	80.011	19.994	103.977	19.999	3.569	0.503
165.500	162.916	80.013	19.992	103.978	20.001	3.438	0.487
166.000	163.139	80.011	19.993	103.980	20.002	3.388	0.471
166.500	163.373	80.013	19.993	103.982	20.002	3.353	0.463
167.000	163.667	80.012	19.992	103.984	20.000	3.547	0.493
167.500	163.867	80.013	19.994	103.984	19.999	3.561	0.511
168.000	164.115	80.012	19.994	103.983	19.999	3.598	0.471
168.500	164.380	80.012	19.994	103.982	20.000	3.520	0.481
169.000	164.644	80.012	19.993	103.979	20.000	3.522	0.521
169.501	164.930	80.012	19.992	103.977	20.004	3.269	0.539
170.001	165.118	80.013	19.993	103.975	19.997	3.709	0.512
170.501	165.377	80.012	19.992	103.975	20.001	3.446	0.461
171.000	165.657	80.013	19.995	103.974	20.001	3.463	0.493
171.500	165.902	80.011	19.994	103.974	20.000	3.518	0.532
172.000	166.137	80.012	19.995	103.974	19.999	3.569	0.503
172.500	166.361	80.013	19.995	103.974	19.999	3.590	0.470
173.000	166.643	80.012	19.995	103.973	20.000	3.534	0.483
173.500	166.846	80.011	19.994	103.973	20.000	3.493	0.495
174.000	167.073	80.011	19.995	103.972	20.000	3.493	0.458
174.500	167.363	80.012	19.994	103.972	20.001	3.427	0.473
175.000	167.568	80.010	19.995	103.972	19.999	3.614	0.506
175.500	167.848	80.011	19.994	103.973	20.003	3.339	0.490
176.000	168.083	80.011	19.994	103.972	20.000	3.536	0.500
176.500	168.326	80.011	19.994	103.972	20.002	3.403	0.496
177.000	168.597	80.010	19.994	103.973	20.002	3.390	0.496
177.500	168.863	80.009	19.994	103.973	20.002	3.378	0.526
178.000	169.112	80.010	19.994	103.970	20.002	3.356	0.527
178.500	169.373	80.010	19.993	103.969	20.003	3.343	0.513
179.000	169.582	80.008	19.993	103.966	20.002	3.354	0.490
179.500	169.847	80.008	19.994	103.963	19.997	3.750	0.472
180.000	170.082	80.009	19.994	103.961	20.003	3.314	0.487
180.500	170.395	80.010	19.994	103.962	20.001	3.464	0.524
181.000	170.593	80.010	19.994	103.964	19.998	3.653	0.529
181.500	170.822	80.010	19.994	103.963	20.000	3.518	0.469
182.000	171.059	80.008	19.996	103.964	20.001	3.436	0.447
182.500	171.324	80.009	19.995	103.967	20.001	3.469	0.484
183.000	171.554	80.010	19.995	103.968	19.997	3.747	0.498
183.500	171.812	80.010	19.995	103.968	20.000	3.529	0.491
184.000	172.033	80.009	19.994	103.972	20.000	3.519	0.483
184.500	172.315	80.010	19.994	103.974	19.995	3.864	0.491
185.000	172.532	80.009	19.995	103.974	19.996	3.817	0.501
185.500	172.782	80.009	19.994	103.974	20.000	3.556	0.483
186.000	173.027	80.009	19.994	103.975	20.000	3.554	0.481
186.500	173.279	80.009	19.995	103.976	19.999	3.576	0.496
187.000	173.528	80.010	19.993	103.974	19.996	3.784	0.499
187.500	173.791	80.009	19.994	103.974	20.000	3.533	0.507
188.000	174.051	80.009	19.994	103.973	20.000	3.498	0.517
188.500	174.311	80.009	19.994	103.967	19.997	3.761	0.522
189.000	174.534	80.011	19.994	103.964	19.999	3.628	0.501
189.500	174.747	80.010	19.995	103.965	19.999	3.617	0.459
190.000	175.025	80.011	19.993	103.965	19.998	3.693	0.464
190.500	175.253	80.009	19.993	103.966	19.997	3.702	0.499
191.000	175.488	80.009	19.994	103.971	19.997	3.751	0.484
191.500	175.782	80.009	19.994	103.975	19.999	3.624	0.496
192.000	176.005	80.011	19.995	103.973	19.997	3.764	0.523
192.500	176.230	80.010	19.995	103.969	19.997	3.766	0.483
193.000	176.529	80.010	19.994	103.961	20.000	3.539	0.486
193.500	176.727	80.010	19.994	103.955	19.995	3.875	0.511
194.000	176.952	80.010	19.994	103.948	19.996	3.825	0.460
194.501	177.216	80.009	19.994	103.944	19.996	3.809	0.456
195.001	177.446	80.010	19.993	103.944	19.997	3.714	0.491
195.500	177.682	80.010	19.994	103.945	19.994	3.928	0.480
196.000	177.963	80.011	19.994	103.945	19.997	3.770	0.491
196.500	178.205	80.008	19.994	103.945	19.996	3.829	0.520
197.000	178.480	80.010	19.995	103.945	19.996	3.776	0.520
197.500	178.687	80.009	19.994	103.943	19.996	3.831	0.500
198.000	178.912	80.010	19.994	103.941	19.994	3.930	0.457
198.500	179.194	80.009	19.995	103.943	19.993	3.990	0.469
199.000	179.433	80.008	19.996	103.948	19.997	3.733	0.514
199.500	179.658	80.010	19.993	103.948	19.993	4.012	0.493
200.000	179.929	80.009	19.995	103.950	19.996	3.827	0.480
200.500	180.140	80.009	19.994	103.952	19.996	3.774	0.489
201.000	180.431	80.009	19.994	103.952	19.993	4.047	0.492
201.500	180.649	80.009	19.994	103.947	19.995	3.868	0.505
202.000	180.921	80.009	19.994	103.946	19.992	4.084	0.499
202.500	181.159	80.008	19.994	103.945	19.993	3.991	0.500
203.000	181.381	80.010	19.995	103.943	19.994	3.977	0.485
203.500	181.651	80.010	19.995	103.945	19.995	3.894	0.476
204.000	181.879	80.010	19.994	103.945	19.992	4.063	0.495
204.500	182.124	80.010	19.994	103.945	19.993	4.028	0.485
205.000	182.363	80.010	19.993	103.946	19.991	4.145	0.479
205.500	182.645	80.009	19.994	103.950	19.989	4.303	0.503
206.000	182.867	80.009	19.995	103.947	19.991	4.151	0.513
206.500	183.112	80.009	19.994	103.947	19.996	3.814	0.486
207.000	183.355	80.010	19.994	103.947	19.993	4.013	0.478
207.500	183.593	80.009	19.995	103.946	19.993	4.008	0.484
208.000	183.807	80.008	19.994	103.943	19.992	4.076	0.467
208.500	184.067	80.009	19.994	103.942	19.991	4.191	0.463
209.001	184.305	80.007	19.994	103.946	19.993	4.035	0.486
209.500	184.527	80.010	19.993	103.946	19.992	4.061	0.479
210.000	184.761	80.008	19.996	103.945	19.996	3.839	0.457
210.500	185.051	80.009	19.995	103.945	19.994	3.942	0.490
211.000	185.229	80.008	19.995	103.944	19.992	4.078	0.496
211.500	185.505	80.009	19.994	103.942	19.993	3.989	0.461
212.000	185.771	80.007	19.995	103.942	19.994	3.934	0.498
212.500	186.015	80.009	19.994	103.949	19.990	4.197	0.526
213.000	186.272	80.008	19.994	103.957	19.993	4.046	0.506
213.500	186.449	80.008	19.994	103.961	19.986	4.512	0.468
214.000	186.750	80.009	19.994	103.961	19.991	4.173	0.456
214.500	187.013	80.009	19.994	103.966	19.987	4.412	0.521
215.000	187.231	80.010	19.993	103.967	19.991	4.148	0.522
215.500	187.507	80.008	19.993	103.964	19.988	4.398	0.488
216.000	187.723	80.009	19.995	103.964	19.989	4.287	0.493
216.500	188.001	80.010	19.993	103.968	19.993	4.041	0.493
217.000	188.224	80.008	19.993	103.968	19.991	4.161	0.497
217.500	188.485	80.008	19.995	103.966	19.985	4.605	0.492
218.000	188.716	80.008	19.993	103.965	19.987	4.424	0.488
218.500	188.976	80.009	19.994	103.961	19.988	4.369	0.492
219.000	189.194	80.009	19.993	103.955	19.988	4.351	0.485
219.500	189.442	80.009	19.994	103.953	19.988	4.358	0.472
220.000	189.698	80.010	19.993	103.952	19.988	4.378	0.485
220.500	189.970	80.010	19.992	103.951	19.988	4.338	0.516
221.000	190.192	80.010	19.993	103.957	19.989	4.296	0.511
221.500	190.463	80.011	19.993	103.961	19.989	4.305	0.494
222.000	190.677	80.010	19.994	103.959	19.987	4.471	0.489
222.501	190.959	80.009	19.994	103.956	19.985	4.588	0.490
223.000	191.208	80.011	19.993	103.953	19.986	4.491	0.513
223.500	191.392	80.010	19.994	103.948	19.988	4.405	0.482
224.000	191.706	80.011	19.993	103.925	19.985	4.602	0.466
224.500	191.923	80.010	19.993	103.901	19.985	4.567	0.515
225.000	192.156	80.011	19.993	103.890	19.987	4.454	0.491
225.501	192.365	80.011	19.994	103.888	19.988	4.374	0.446
226.001	192.628	80.010	19.993	103.887	19.987	4.454	0.457
226.500	192.903	80.012	19.994	103.914	19.989	4.267	0.505
227.000	193.136	80.011	19.994	103.972	19.987	4.477	0.523
227.500	193.393	80.012	19.993	104.007	19.985	4.590	0.499
228.000	193.621	80.010	19.995	104.017	19.984	4.679	0.487
228.500	193.893	80.011	19.994	104.021	19.985	4.559	0.493
229.000	194.138	80.010	19.994	104.016	19.982	4.767	0.509
229.500	194.409	80.010	19.994	103.978	19.983	4.698	0.516
230.000	194.602	80.012	19.993	103.955	19.983	4.693	0.490
230.500	194.862	80.010	19.992	103.946	19.986	4.541	0.459
231.000	195.135	80.012	19.995	103.941	19.984	4.633	0.493
231.500	195.363	80.010	19.995	103.938	19.984	4.642	0.517
232.000	195.592	80.011	19.994	103.941	19.985	4.596	0.479
232.500	195.845	80.010	19.996	103.941	19.982	4.792	0.470
233.000	196.086	80.010	19.995	103.943	19.983	4.743	0.488
233.500	196.330	80.011	19.994	103.948	19.980	4.923	0.490
234.000	196.625	80.011	19.994	103.948	19.980	4.934	0.512
234.500	196.827	80.011	19.994	103.950	19.982	4.813	0.518
235.000	197.084	80.011	19.994	103.949	19.984	4.661	0.478
235.500	197.359	80.010	19.993	103.952	19.979	4.996	0.495
236.000	197.575	80.011	19.994	103.951	19.981	4.891	0.511
236.500	197.840	80.010	19.994	103.950	19.983	4.698	0.486
237.000	198.077	80.011	19.994	103.946	19.982	4.778	0.492
237.500	198.356	80.010	19.993	103.948	19.986	4.510	0.509
238.000	198.597	80.010	19.994	103.944	19.983	4.716	0.518
238.500	198.841	80.010	19.993	103.942	19.979	5.016	0.502
239.000	199.074	80.010	19.994	103.942	19.979	4.996	0.480
239.500	199.337	80.010	19.994	103.941	19.982	4.769	0.486
240.000	199.575	80.011	19.994	103.937	19.981	4.874	0.499
240.500	199.858	80.011	19.994	103.936	19.983	4.716	0.512
241.000	200.081	80.011	19.993	103.940	19.982	4.792	0.514
241.500	200.309	80.010	19.995	103.941	19.981	4.843	0.479
242.000	200.547	80.010	19.993	103.942	19.979	5.026	0.458
242.500	200.809	80.010	19.994	103.945	19.979	4.996	0.482
243.000	201.062	80.011	19.993	103.946	19.981	4.887	0.507
243.500	201.278	80.010	19.994	103.942	19.980	4.926	0.492
244.000	201.576	80.010	19.994	103.942	19.980	4.951	0.491
244.500	201.820	80.011	19.994	103.941	19.982	4.817	0.528
245.000	202.066	80.011	19.994	103.938	19.980	4.965	0.517
245.500	202.335	80.010	19.993	103.937	19.980	4.905	0.503
246.000	202.564	80.011	19.994	103.937	19.982	4.817	0.506
246.500	202.828	80.011	19.994	103.936	19.983	4.724	0.495
247.000	203.066	80.011	19.992	103.936	19.979	5.000	0.498
247.500	203.301	80.011	19.994	103.936	19.978	5.099	0.488
248.000	203.536	80.012	19.993	103.936	19.981	4.841	0.472
248.500	203.802	80.012	19.994	103.938	19.981	4.895	0.485
249.000	204.075	80.013	19.992	103.938	19.983	4.739	0.520
249.500	204.332	80.012	19.993	103.938	19.983	4.737	0.534
250.000	204.528	80.011	19.994	103.939	19.980	4.973	0.491
250.500	204.813	80.012	19.992	103.938	19.983	4.761	0.467
251.000	205.071	80.012	19.994	103.936	19.981	4.848	0.512
251.500	205.321	80.013	19.993	103.937	19.981	4.841	0.526
252.000	205.562	80.013	19.993	103.937	19.983	4.722	0.499
252.500	205.830	80.013	19.995	103.938	19.983	4.724	0.500
253.000	206.036	80.014	19.994	103.938	19.981	4.856	0.492
253.500	206.307	80.012	19.991	103.938	19.984	4.640	0.475
254.000	206.619	80.011	19.992	103.937	19.980	4.918	0.530
254.500	206.834	80.013	19.992	103.936	19.980	4.961	0.555
255.001	207.064	80.012	19.993	103.934	19.979	4.985	0.486
255.500	207.320	80.012	19.994	103.933	19.979	5.037	0.465
256.000	207.602	80.012	19.994	103.932	19.984	4.677	0.512
256.500	207.828	80.012	19.994	103.931	19.982	4.784	0.523
257.000	208.118	80.013	19.993	103.932	19.977	5.119	0.512
257.500	208.341	80.012	19.993	103.932	19.978	5.109	0.514
258.000	208.621	80.012	19.993	103.932	19.983	4.747	0.508
258.500	208.838	80.012	19.993	103.934	19.982	4.831	0.500
259.000	209.102	80.010	19.995	103.938	19.980	4.934	0.488
259.500	209.323	80.011	19.994	103.938	19.980	4.944	0.483
260.000	209.583	80.010	19.993	103.938	19.983	4.737	0.484
260.500	209.831	80.010	19.994	103.937	19.978	5.086	0.495
261.000	210.058	80.009	19.993	103.936	19.977	5.166	0.491
261.500	210.312	80.010	19.995	103.935	19.978	5.045	0.478
262.000	210.588	80.009	19.995	103.935	19.981	4.854	0.506
262.500	210.819	80.009	19.994	103.935	19.981	4.868	0.518
263.000	211.089	80.011	19.994	103.937	19.980	4.944	0.504
263.500	211.329	80.009	19.994	103.938	19.979	4.975	0.506
264.000	211.545	80.010	19.994	103.938	19.979	5.016	0.483
264.500	211.827	80.009	19.994	103.937	19.982	4.770	0.477
265.000	212.052	80.009	19.993	103.936	19.980	4.914	0.503
265.500	212.353	80.010	19.993	103.936	19.979	5.017	0.517
266.000	212.604	80.009	19.995	103.938	19.980	4.907	0.539
266.500	212.846	80.010	19.994	103.938	19.980	4.971	0.522
267.000	213.078	80.007	19.994	103.939	19.978	5.058	0.483
267.500	213.386	80.009	19.994	103.940	19.980	4.926	0.507
268.000	213.613	80.009	19.995	103.940	19.977	5.144	0.538
268.500	213.861	80.009	19.995	103.939	19.978	5.088	0.505
269.000	214.116	80.010	19.994	103.939	19.977	5.140	0.489
269.500	214.336	80.009	19.994	103.937	19.975	5.302	0.488
270.000	214.596	80.010	19.994	103.936	19.976	5.242	0.477
270.500	214.867	80.009	19.994	103.936	19.978	5.100	0.506
271.000	215.085	80.010	19.995	103.936	19.979	5.016	0.510
271.500	215.326	80.009	19.994	103.935	19.978	5.047	0.474
272.000	215.582	80.009	19.994	103.937	19.977	5.183	0.478
272.500	215.819	80.008	19.995	103.938	19.976	5.232	0.495
273.000	216.112	80.009	19.994	103.939	19.974	5.352	0.511
273.500	216.314	80.009	19.994	103.939	19.975	5.321	0.513
274.000	216.561	80.007	19.994	103.939	19.975	5.323	0.472
274.501	216.832	80.009	19.995	103.939	19.975	5.286	0.484
275.000	217.069	80.009	19.995	103.936	19.976	5.201	0.513
275.500	217.325	80.011	19.994	103.936	19.974	5.333	0.501
276.000	217.552	80.009	19.995	103.934	19.975	5.274	0.488
276.500	217.805	80.010	19.994	103.932	19.975	5.272	0.481
277.000	218.088	80.009	19.992	103.933	19.974	5.354	0.508
277.500	218.300	80.009	19.994	103.935	19.976	5.236	0.516
278.000	218.587	80.009	19.993	103.933	19.976	5.222	0.497
278.500	218.800	80.010	19.994	103.934	19.974	5.382	0.499
279.000	219.064	80.009	19.993	103.937	19.975	5.267	0.488
279.500	219.305	80.010	19.993	103.937	19.975	5.294	0.491
280.000	219.565	80.009	19.993	103.938	19.974	5.344	0.503
280.500	219.795	80.009	19.993	103.941	19.972	5.502	0.495
281.000	220.007	80.011	19.993	103.941	19.974	5.366	0.466
281.500	220.243	80.011	19.993	103.941	19.973	5.399	0.445
282.000	220.532	80.010	19.994	103.941	19.974	5.368	0.486
282.500	220.760	80.010	19.993	103.941	19.974	5.360	0.521
283.000	221.028	80.010	19.994	103.939	19.975	5.317	0.506
283.500	221.268	80.010	19.993	103.937	19.974	5.354	0.502
284.000	221.490	80.010	19.993	103.937	19.977	5.175	0.485
284.500	221.761	80.009	19.993	103.936	19.979	5.035	0.478
285.000	222.019	80.010	19.994	103.936	19.975	5.321	0.511
285.500	222.260	80.010	19.994	103.938	19.976	5.256	0.514
286.000	222.488	80.010	19.994	103.938	19.974	5.391	0.484
286.500	222.775	80.009	19.994	103.936	19.974	5.373	0.491
287.000	222.987	80.008	19.994	103.933	19.972	5.492	0.507
287.500	223.257	80.009	19.994	103.932	19.975	5.286	0.491
288.000	223.489	80.010	19.994	103.933	19.975	5.307	0.492
288.500	223.739	80.007	19.994	103.935	19.974	5.330	0.492
289.000	223.992	80.009	19.996	103.934	19.971	5.577	0.492
289.500	224.230	80.009	19.994	103.936	19.973	5.459	0.497
290.000	224.494	80.010	19.993	103.937	19.970	5.638	0.497
290.500	224.741	80.009	19.993	103.934	19.971	5.564	0.507
291.000	225.008	80.009	19.996	103.932	19.973	5.465	0.513
291.500	225.251	80.010	19.996	103.933	19.972	5.484	0.512
292.000	225.482	80.009	19.996	103.933	19.969	5.690	0.491
292.501	225.741	80.009	19.996	103.933	19.968	5.765	0.482
293.000	225.991	80.009	19.995	103.935	19.970	5.632	0.500
293.500	226.234	80.009	19.994	103.936	19.971	5.558	0.501
294.000	226.487	80.010	19.995	103.935	19.973	5.459	0.494
294.500	226.726	80.010	19.995	103.934	19.974	5.342	0.494
295.000	226.974	80.009	19.994	103.934	19.973	5.410	0.490
295.500	227.236	80.007	19.995	103.933	19.971	5.609	0.498
296.000	227.476	80.008	19.994	103.926	19.972	5.518	0.506
296.500	227.751	80.008	19.995	103.924	19.969	5.693	0.509
297.000	228.032	80.008	19.995	103.923	19.972	5.518	0.536
297.500	228.259	80.009	19.996	103.922	19.972	5.504	0.532
298.000	228.541	80.009	19.995	103.922	19.974	5.378	0.508
298.500	228.813	80.008	19.995	103.928	19.971	5.547	0.531
299.001	229.020	80.009	19.995	103.927	19.970	5.636	0.516
299.500	229.266	80.008	19.996	103.922	19.971	5.607	0.466
300.000	229.505	80.009	19.994	103.923	19.970	5.680	0.469
300.500	229.811	80.010	19.994	103.920	19.973	5.458	0.515
301.000	230.053	80.009	19.995	103.919	19.973	5.400	0.546
301.500	230.273	80.009	19.996	103.921	19.973	5.422	0.504
302.000	230.554	80.009	19.995	103.926	19.972	5.496	0.481
302.500	230.767	80.009	19.995	103.923	19.973	5.405	0.498
303.000	231.033	80.010	19.995	103.925	19.971	5.570	0.487
303.500	231.305	80.011	19.996	103.927	19.972	5.475	0.509
304.000	231.561	80.009	19.995	103.927	19.971	5.555	0.533
304.501	231.778	80.010	19.995	103.927	19.970	5.617	0.500
305.000	232.045	80.009	19.995	103.930	19.968	5.753	0.478
305.500	232.311	80.011	19.994	103.928	19.971	5.574	0.509
306.000	232.531	80.010	19.995	103.928	19.971	5.554	0.510
306.500	232.795	80.011	19.995	103.928	19.974	5.397	0.485
307.000	233.016	80.010	19.995	103.929	19.972	5.516	0.485
307.500	233.282	80.011	19.994	103.932	19.970	5.646	0.486
308.000	233.570	80.012	19.993	103.931	19.972	5.523	0.520
308.500	233.766	80.011	19.993	103.933	19.973	5.433	0.519
309.000	234.059	80.011	19.994	103.934	19.974	5.334	0.486
309.500	234.291	80.012	19.994	103.931	19.972	5.521	0.507
310.000	234.559	80.011	19.994	103.929	19.973	5.404	0.513
310.500	234.771	80.011	19.995	103.928	19.971	5.550	0.490
311.000	235.023	80.011	19.995	103.920	19.974	5.373	0.472
311.500	235.308	80.011	19.993	103.917	19.972	5.490	0.501
312.000	235.565	80.011	19.993	103.919	19.975	5.311	0.540
312.500	235.792	80.010	19.994	103.921	19.972	5.517	0.513
313.000	236.042	80.012	19.993	103.925	19.973	5.443	0.480
313.500	236.262	80.011	19.993	103.932	19.972	5.505	0.473
314.000	236.553	80.011	19.993	103.936	19.973	5.412	0.491
314.500	236.816	80.011	19.995	103.936	19.978	5.069	0.533
315.000	237.056	80.010	19.993	103.935	19.974	5.387	0.529
315.500	237.329	80.011	19.994	103.931	19.972	5.504	0.508
316.000	237.579	80.011	19.994	103.931	19.972	5.482	0.518
316.500	237.803	80.010	19.993	103.929	19.973	5.427	0.499
317.000	238.063	80.011	19.993	103.928	19.972	5.524	0.479
317.500	238.317	80.011	19.993	103.930	19.972	5.472	0.499
318.000	238.547	80.011	19.992	103.930	19.969	5.698	0.499
318.500	238.788	80.011	19.993	103.924	19.969	5.713	0.478
319.001	239.035	80.010	19.993	103.924	19.972	5.538	0.480
319.501	239.295	80.011	19.992	103.917	19.970	5.647	0.497
320.000	239.543	80.010	19.993	103.913	19.970	5.622	0.507
320.500	239.827	80.012	19.993	103.915	19.971	5.571	0.520
321.000	240.054	80.011	19.993	103.921	19.974	5.394	0.522
321.500	240.296	80.011	19.993	103.922	19.976	5.248	0.490
322.000	240.571	80.011	19.994	103.927	19.975	5.316	0.493
322.500	240.816	80.010	19.993	103.932	19.976	5.256	0.519
323.000	241.062	80.010	19.992	103.930	19.974	5.343	0.506
323.500	241.336	80.009	19.993	103.925	19.975	5.310	0.505
324.000	241.560	80.011	19.993	103.920	19.974	5.396	0.509
324.500	241.836	80.011	19.993	103.918	19.973	5.429	0.499
325.000	242.108	80.010	19.993	103.917	19.976	5.248	0.524
325.500	242.315	80.011	19.994	103.918	19.973	5.421	0.514
326.000	242.615	80.010	19.994	103.921	19.973	5.464	0.494
326.500	242.868	80.010	19.992	103.925	19.973	5.419	0.530
327.000	243.104	80.009	19.994	103.922	19.973	5.403	0.521
327.500	243.357	80.010	19.993	103.918	19.974	5.355	0.489
328.000	243.598	80.010	19.994	103.914	19.974	5.369	0.492
328.500	243.882	80.012	19.992	103.911	19.975	5.316	0.509
329.000	244.115	80.012	19.992	103.912	19.977	5.166	0.521
329.501	244.352	80.011	19.993	103.915	19.976	5.225	0.493
330.000	244.627	80.012	19.993	103.912	19.973	5.451	0.491
330.500	244.870	80.010	19.993	103.912	19.973	5.443	0.515
331.000	245.107	80.011	19.994	103.913	19.972	5.513	0.499
331.500	245.364	80.011	19.993	103.912	19.974	5.389	0.487
332.000	245.614	80.014	19.994	103.912	19.972	5.523	0.501
332.500	245.901	80.013	19.991	103.913	19.976	5.221	0.522
333.000	246.110	80.012	19.994	103.914	19.976	5.219	0.516
333.500	246.376	80.012	19.994	103.912	19.975	5.306	0.486
334.000	246.608	80.012	19.993	103.911	19.975	5.261	0.487
334.500	246.890	80.012	19.993	103.913	19.975	5.308	0.506
335.000	247.116	80.012	19.994	103.913	19.974	5.351	0.511
335.500	247.383	80.013	19.993	103.914	19.977	5.151	0.501
336.000	247.632	80.012	19.993	103.913	19.976	5.211	0.504
336.500	247.900	80.011	19.994	103.910	19.976	5.234	0.516
337.000	248.138	80.012	19.993	103.905	19.975	5.306	0.512
337.500	248.378	80.012	19.994	103.906	19.976	5.217	0.492
338.000	248.656	80.013	19.994	103.905	19.975	5.297	0.498
338.500	248.887	80.011	19.993	103.908	19.976	5.208	0.514
339.000	249.118	80.011	19.991	103.911	19.973	5.435	0.485
339.500	249.409	80.011	19.993	103.912	19.974	5.388	0.492
340.000	249.647	80.011	19.993	103.912	19.977	5.120	0.526
340.500	249.947	80.011	19.993	103.915	19.976	5.219	0.534
341.000	250.190	80.011	19.993	103.915	19.976	5.207	0.541
341.500	250.449	80.009	19.994	103.918	19.977	5.120	0.522
342.000	250.692	80.009	19.993	103.922	19.975	5.307	0.502
342.500	250.962	80.009	19.992	103.920	19.979	4.990	0.507
343.000	251.180	80.008	19.994	103.917	19.976	5.213	0.500
343.500	251.465	80.008	19.993	103.914	19.975	5.268	0.495
344.000	251.684	80.008	19.993	103.911	19.976	5.211	0.504
344.500	251.959	80.010	19.993	103.905	19.978	5.102	0.499
345.000	252.151	80.009	19.993	103.906	19.974	5.351	0.480
345.500	252.435	80.010	19.993	103.906	19.973	5.402	0.471
346.000	252.679	80.008	19.993	103.908	19.978	5.100	0.502
346.500	252.964	80.009	19.993	103.908	19.976	5.219	0.528
347.000	253.225	80.009	19.994	103.908	19.974	5.345	0.537
347.500	253.430	80.009	19.993	103.908	19.977	5.139	0.506
348.000	253.674	80.010	19.994	103.912	19.976	5.234	0.458
348.500	253.897	80.008	19.995	103.915	19.976	5.238	0.458
349.000	254.170	80.009	19.993	103.919	19.980	4.971	0.481
349.500	254.431	80.009	19.993	103.920	19.977	5.123	0.515
350.000	254.691	80.009	19.994	103.919	19.978	5.070	0.527
350.500	254.932	80.009	19.992	103.917	19.979	5.016	0.511
351.001	255.182	80.010	19.996	103.912	19.981	4.884	0.496
351.501	255.428	80.009	19.996	103.909	19.978	5.055	0.494
352.000	255.714	80.010	19.993	103.914	19.979	5.016	0.514
352.500	255.928	80.009	19.993	103.917	19.981	4.847	0.516
353.000	256.153	80.009	19.995	103.915	19.981	4.887	0.470
353.500	256.465	80.009	19.994	103.920	19.981	4.882	0.489
354.000	256.662	80.009	19.993	103.920	19.979	4.975	0.523
354.500	256.900	80.009	19.993	103.919	19.976	5.249	0.472
355.000	257.157	80.010	19.994	103.916	19.977	5.143	0.465
355.500	257.414	80.010	19.993	103.917	19.975	5.269	0.505
356.000	257.686	80.008	19.994	103.911	19.977	5.147	0.521
356.500	257.922	80.010	19.994	103.910	19.978	5.043	0.518
357.000	258.177	80.010	19.994	103.908	19.978	5.059	0.499
357.500	258.430	80.010	19.995	103.909	19.978	5.111	0.500
358.000	258.695	80.011	19.993	103.906	19.980	4.942	0.513
358.500	258.891	80.010	19.993	103.906	19.979	4.981	0.489
359.000	259.166	80.008	19.996	103.905	19.979	5.034	0.466
359.500	259.376	80.009	19.996	103.904	19.981	4.890	0.478
360.000	259.666	80.009	19.994	103.901	19.980	4.968	0.493
360.500	259.883	80.010	19.995	103.903	19.979	4.979	0.503
361.000	260.135	80.011	19.994	103.902	19.978	5.069	0.488
361.501	260.408	80.010	19.994	103.900	19.979	5.007	0.497
362.000	260.606	80.010	19.993	103.900	19.977	5.123	0.498
362.500	260.876	80.008	19.993	103.900	19.981	4.886	0.470
363.000	261.126	80.009	19.995	103.898	19.980	4.905	0.494
363.501	261.372	80.010	19.994	103.897	19.982	4.808	0.508
364.000	261.600	80.010	19.993	103.898	19.980	4.925	0.484
364.500	261.846	80.009	19.994	103.899	19.978	5.086	0.474
365.000	262.149	80.010	19.994	103.899	19.979	5.041	0.512
365.500	262.386	80.010	19.995	103.902	19.980	4.962	0.545
366.000	262.624	80.010	19.993	103.904	19.981	4.898	0.508
366.500	262.893	80.010	19.995	103.905	19.977	5.151	0.491
367.000	263.134	80.010	19.994	103.906	19.980	4.927	0.508
367.500	263.352	80.009	19.995	103.907	19.981	4.845	0.484
368.000	263.578	80.010	19.994	103.906	19.980	4.944	0.451
368.501	263.868	80.009	19.994	103.903	19.981	4.862	0.479
369.000	264.107	80.008	19.995	103.902	19.978	5.103	0.522
369.500	264.316	80.008	19.994	103.900	19.983	4.714	0.488
370.000	264.591	80.009	19.994	103.902	19.982	4.828	0.466
370.500	264.833	80.008	19.994	103.906	19.981	4.878	0.501
371.000	265.092	80.009	19.994	103.907	19.978	5.079	0.509
371.500	265.340	80.009	19.994	103.910	19.982	4.777	0.504
372.000	265.587	80.009	19.994	103.911	19.982	4.777	0.501
372.501	265.829	80.009	19.994	103.912	19.984	4.685	0.492
373.001	266.103	80.008	19.995	103.910	19.984	4.685	0.503
373.501	266.362	80.009	19.994	103.910	19.980	4.917	0.524
374.000	266.604	80.009	19.995	103.908	19.980	4.919	0.517
374.500	266.864	80.008	19.994	103.907	19.984	4.627	0.502
375.000	267.114	80.008	19.993	103.903	19.982	4.782	0.506
375.500	267.377	80.008	19.995	103.899	19.981	4.872	0.511
376.000	267.587	80.009	19.993	103.898	19.984	4.652	0.493
376.500	267.843	80.009	19.995	103.902	19.983	4.697	0.470
377.000	268.109	80.008	19.993	103.907	19.983	4.691	0.494
377.500	268.358	80.009	19.994	103.910	19.983	4.701	0.519
378.000	268.657	80.010	19.995	103.909	19.985	4.594	0.532
378.500	268.835	80.007	19.995	103.910	19.983	4.719	0.513
379.000	269.081	80.007	19.994	103.906	19.984	4.674	0.450
379.500	269.374	80.008	19.995	103.903	19.984	4.680	0.481
380.001	269.595	80.008	19.994	103.900	19.983	4.756	0.527
380.500	269.863	80.008	19.995	103.902	19.985	4.598	0.501
381.000	270.123	80.009	19.995	103.908	19.985	4.610	0.508
381.500	270.371	80.009	19.995	103.911	19.984	4.662	0.518
382.000	270.618	80.009	19.994	103.913	19.985	4.586	0.502
382.500	270.893	80.009	19.995	103.912	19.986	4.538	0.508
383.000	271.146	80.009	19.993	103.910	19.986	4.528	0.525
383.500	271.404	80.009	19.995	103.904	19.984	4.621	0.520
384.000	271.677	80.009	19.994	103.900	19.985	4.610	0.521
384.501	271.939	80.009	19.995	103.898	19.984	4.628	0.533
385.000	272.189	80.009	19.994	103.899	19.983	4.707	0.524
385.500	272.422	80.010	19.993	103.899	19.990	4.256	0.497
386.000	272.699	80.010	19.993	103.899	19.984	4.639	0.496
386.500	272.981	80.010	19.995	103.899	19.989	4.296	0.534
387.000	273.201	80.010	19.995	103.898	19.982	4.777	0.531
387.500	273.415	80.010	19.995	103.900	19.986	4.520	0.468
388.000	273.721	80.010	19.995	103.900	19.986	4.524	0.477
388.500	273.945	80.010	19.995	103.904	19.986	4.524	0.525
389.000	274.198	80.010	19.994	103.908	19.985	4.615	0.504
389.500	274.443	80.011	19.995	103.909	19.984	4.658	0.488
390.000	274.707	80.010	19.994	103.907	19.987	4.448	0.504
390.501	275.005	80.010	19.993	103.909	19.985	4.553	0.535
391.000	275.232	80.009	19.995	103.909	19.985	4.574	0.544
391.500	275.495	80.009	19.994	103.909	19.986	4.500	0.508
392.000	275.716	80.009	19.995	103.910	19.985	4.582	0.487
392.500	275.981	80.009	19.996	103.910	19.986	4.487	0.485
393.000	276.230	80.011	19.995	103.909	19.986	4.510	0.500
393.500	276.485	80.009	19.996	103.906	19.985	4.570	0.509
394.000	276.727	80.010	19.995	103.906	19.985	4.605	0.500
394.500	277.033	80.010	19.994	103.908	19.987	4.409	0.522
395.000	277.233	80.011	19.996	103.913	19.988	4.347	0.527
395.500	277.511	80.010	19.995	103.918	19.989	4.308	0.492
396.000	277.772	80.009	19.995	103.918	19.988	4.401	0.509
396.500	278.020	80.010	19.994	103.917	19.987	4.413	0.524
397.001	278.256	80.009	19.996	103.913	19.990	4.224	0.496
397.501	278.511	80.010	19.996	103.908	19.988	4.364	0.488
398.000	278.787	80.009	19.996	103.903	19.989	4.325	0.511
398.500	279.038	80.009	19.995	103.902	19.987	4.442	0.529
399.000	279.270	80.010	19.993	103.901	19.991	4.146	0.504
399.500	279.552	80.010	19.995	103.900	19.988	4.389	0.498
400.000	279.764	80.011	19.995	103.900	19.989	4.308	0.505
400.500	280.023	80.010	19.994	103.900	19.987	4.426	0.483
401.000	280.246	80.009	19.995	103.900	19.988	4.399	0.477
401.500	280.508	80.009	19.995	103.899	19.988	4.362	0.483
402.000	280.779	80.009	19.995	103.899	19.989	4.312	0.509
402.500	281.028	80.010	19.994	103.899	19.988	4.399	0.527
403.000	281.280	80.009	19.994	103.899	19.986	4.477	0.511
403.500	281.495	80.010	19.994	103.899	19.989	4.288	0.484
404.000	281.781	80.010	19.993	103.899	19.985	4.582	0.483
404.501	282.041	80.009	19.993	103.899	19.990	4.228	0.524
405.000	282.306	80.008	19.994	103.899	19.984	4.654	0.536
405.500	282.562	80.010	19.993	103.899	19.990	4.232	0.523
406.000	282.793	80.010	19.994	103.900	19.990	4.243	0.503
406.500	283.054	80.009	19.993	103.900	19.988	4.352	0.489
407.000	283.324	80.009	19.994	103.901	19.988	4.360	0.512
407.500	283.594	80.008	19.993	103.901	19.991	4.125	0.536
408.000	283.813	80.009	19.994	103.902	19.991	4.127	0.515
408.500	284.099	80.009	19.993	103.902	19.989	4.329	0.497
409.000	284.287	80.010	19.994	103.902	19.990	4.232	0.490
409.500	284.574	80.010	19.993	103.902	19.989	4.327	0.474
410.000	284.803	80.011	19.993	103.901	19.988	4.387	0.495
410.500	285.060	80.008	19.992	103.901	19.991	4.173	0.501
411.000	285.300	80.010	19.994	103.901	19.991	4.127	0.491
411.500	285.569	80.009	19.995	103.900	19.991	4.148	0.503
412.000	285.816	80.011	19.994	103.901	19.991	4.187	0.512
412.500	286.075	80.010	19.994	103.901	19.992	4.103	0.510
413.000	286.353	80.012	19.993	103.901	19.991	4.162	0.521
413.500	286.594	80.011	19.995	103.900	19.992	4.090	0.528
414.000	286.868	80.011	19.995	103.901	19.992	4.119	0.518
414.500	287.120	80.010	19.994	103.900	19.995	3.878	0.520
415.001	287.387	80.011	19.993	103.899	19.994	3.961	0.522
415.501	287.639	80.012	19.995	103.897	19.994	3.955	0.520
416.000	287.872	80.013	19.993	103.898	19.995	3.903	0.502
416.500	288.103	80.011	19.994	103.899	19.991	4.162	0.474
417.000	288.381	80.012	19.994	103.898	19.994	3.911	0.487
417.500	288.659	80.012	19.994	103.899	19.998	3.646	0.533
418.000	288.866	80.011	19.994	103.899	19.994	3.928	0.521
418.500	289.131	80.010	19.994	103.899	19.990	4.255	0.479
419.000	289.389	80.011	19.994	103.898	19.994	3.971	0.497
419.500	289.609	80.012	19.993	103.898	19.992	4.109	0.500
420.000	289.904	80.011	19.993	103.897	19.992	4.123	0.496
420.500	290.147	80.011	19.994	103.897	19.994	3.971	0.526
421.000	290.384	80.011	19.994	103.897	19.993	4.004	0.509
421.500	290.649	80.012	19.993	103.896	19.994	3.946	0.491
422.000	290.921	80.011	19.993	103.896	19.992	4.060	0.520
422.500	291.165	80.010	19.993	103.895	19.996	3.827	0.526
423.000	291.363	80.011	19.993	103.895	19.995	3.880	0.479
423.500	291.655	80.011	19.993	103.895	19.993	4.000	0.466
424.000	291.932	80.011	19.993	103.898	19.992	4.088	0.529
424.500	292.188	80.010	19.992	103.899	19.989	4.274	0.551
425.000	292.457	80.009	19.994	103.898	19.993	4.035	0.529
425.500	292.686	80.009	19.994	103.898	19.992	4.072	0.512
426.000	292.955	80.009	19.993	103.897	19.993	4.025	0.498
426.500	293.168	80.010	19.994	103.894	19.994	3.934	0.490
427.000	293.443	80.009	19.993	103.894	19.992	4.095	0.485
427.500	293.673	80.008	19.994	103.894	19.990	4.235	0.497
428.000	293.956	80.010	19.994	103.894	19.991	4.128	0.509
428.500	294.199	80.009	19.995	103.892	19.992	4.080	0.520
429.000	294.451	80.009	19.993	103.893	19.995	3.856	0.510
429.500	294.735	80.009	19.993	103.893	19.994	3.916	0.515
430.000	294.983	80.009	19.994	103.894	19.994	3.916	0.534
430.500	295.208	80.009	19.995	103.895	19.994	3.955	0.502
431.000	295.466	80.009	19.993	103.897	19.997	3.743	0.478
431.500	295.726	80.009	19.993	103.896	19.994	3.922	0.501
432.000	295.953	80.009	19.993	103.896	19.996	3.788	0.502
432.500	296.201	80.009	19.994	103.896	19.997	3.704	0.481
433.000	296.431	80.010	19.993	103.896	19.997	3.753	0.477
433.500	296.699	80.010	19.992	103.897	19.996	3.813	0.488
434.000	296.925	80.009	19.993	103.897	19.994	3.943	0.496
434.500	297.181	80.010	19.994	103.896	19.995	3.844	0.488
435.000	297.456	80.010	19.993	103.897	19.997	3.763	0.507
435.500	297.700	80.010	19.994	103.896	19.996	3.827	0.525
436.000	297.934	80.010	19.994	103.896	19.993	4.012	0.498
436.500	298.214	80.009	19.994	103.895	19.997	3.729	0.496
437.001	298.424	80.011	19.994	103.893	19.994	3.934	0.502
437.501	298.706	80.010	19.994	103.889	19.997	3.726	0.491
438.000	298.971	80.009	19.993	103.885	19.996	3.809	0.520
438.500	299.221	80.011	19.992	103.884	19.995	3.909	0.531
439.000	299.447	80.010	19.993	103.885	19.997	3.766	0.495
439.500	299.713	80.011	19.993	103.887	19.993	3.992	0.484
440.000	299.961	80.009	19.994	103.890	19.996	3.774	0.503
440.500	300.226	80.010	19.994	103.893	19.996	3.801	0.514
441.001	300.467	80.010	19.994	103.895	19.997	3.731	0.509
441.501	300.676	80.012	19.994	103.895	19.995	3.875	0.478
442.000	300.953	80.010	19.993	103.894	19.997	3.753	0.468
442.500	301.197	80.009	19.994	103.893	19.996	3.805	0.504
443.000	301.431	80.010	19.994	103.888	19.995	3.840	0.500
443.500	301.699	80.010	19.992	103.883	19.996	3.792	0.490
444.000	301.929	80.009	19.994	103.884	19.994	3.922	0.499
444.500	302.214	80.010	19.992	103.885	19.995	3.846	0.506
445.000	302.469	80.010	19.993	103.887	19.996	3.811	0.527
445.500	302.724	80.011	19.994	103.892	19.997	3.737	0.525
446.000	302.967	80.011	19.993	103.895	19.998	3.654	0.504
446.500	303.252	80.011	19.994	103.892	19.996	3.829	0.514
447.001	303.467	80.012	19.993	103.891	19.998	3.697	0.514
447.500	303.736	80.010	19.993	103.891	19.996	3.773	0.492
448.000	303.963	80.010	19.994	103.891	19.996	3.782	0.490
448.500	304.197	80.009	19.994	103.893	19.994	3.969	0.479
449.000	304.437	80.011	19.994	103.896	19.996	3.817	0.468
449.500	304.694	80.010	19.994	103.894	19.996	3.832	0.485
450.000	304.951	80.010	19.993	103.890	19.994	3.951	0.506
450.501	305.233	80.010	19.993	103.888	19.995	3.846	0.526
451.000	305.467	80.010	19.993	103.889	19.999	3.580	0.527
451.500	305.709	80.010	19.994	103.885	19.998	3.689	0.496
452.000	305.955	80.009	19.994	103.888	19.998	3.695	0.482
452.500	306.188	80.010	19.995	103.892	19.998	3.636	0.483
453.000	306.446	80.010	19.993	103.894	20.000	3.553	0.485
453.500	306.700	80.008	19.993	103.892	19.999	3.590	0.502
454.000	306.980	80.009	19.994	103.893	19.999	3.620	0.523
454.500	307.197	80.009	19.994	103.893	19.998	3.642	0.515
455.000	307.456	80.007	19.994	103.893	20.000	3.546	0.487
455.500	307.744	80.009	19.995	103.893	19.998	3.678	0.512
456.000	307.916	80.007	19.995	103.894	19.999	3.595	0.503
456.500	308.209	80.010	19.995	103.897	19.996	3.782	0.462
457.000	308.443	80.008	19.994	103.898	19.998	3.665	0.496
457.500	308.703	80.008	19.994	103.899	19.999	3.593	0.510
458.000	308.933	80.008	19.994	103.898	19.997	3.724	0.492
458.500	309.192	80.009	19.994	103.897	19.997	3.767	0.490
459.000	309.410	80.007	19.994	103.893	19.999	3.564	0.483
459.500	309.715	80.009	19.995	103.889	19.998	3.681	0.500
460.000	309.903	80.009	19.995	103.887	19.996	3.790	0.508
460.500	310.190	80.008	19.995	103.886	19.996	3.819	0.484
461.000	310.435	80.008	19.994	103.887	19.999	3.605	0.503
461.500	310.698	80.008	19.995	103.891	19.998	3.661	0.520
462.000	310.919	80.009	19.994	103.892	19.996	3.802	0.496
462.500	311.182	80.008	19.994	103.894	19.998	3.677	0.484
463.000	311.431	80.009	19.993	103.895	19.997	3.698	0.498
463.500	311.682	80.010	19.993	103.896	19.998	3.691	0.506
464.000	311.943	80.009	19.994	103.898	19.994	3.975	0.506
464.500	312.188	80.010	19.995	103.896	19.992	4.086	0.509
465.000	312.433	80.010	19.995	103.888	19.996	3.819	0.498
465.500	312.729	80.010	19.994	103.881	19.996	3.827	0.515
466.000	312.973	80.009	19.994	103.876	19.995	3.854	0.540
466.500	313.207	80.009	19.994	103.874	19.994	3.949	0.509
467.000	313.416	80.009	19.994	103.874	19.994	3.962	0.460
467.500	313.701	80.010	19.994	103.876	19.995	3.842	0.469
468.001	313.929	80.010	19.993	103.883	19.997	3.731	0.504
468.500	314.161	80.010	19.993	103.888	19.995	3.854	0.487
469.000	314.415	80.010	19.994	103.889	19.995	3.899	0.473
469.500	314.687	80.010	19.995	103.893	19.996	3.790	0.506
470.000	314.922	80.011	19.993	103.896	19.996	3.782	0.516
470.500	315.171	80.010	19.992	103.896	19.995	3.852	0.495
471.000	315.413	80.011	19.996	103.895	19.995	3.854	0.488
471.500	315.665	80.011	19.995	103.895	19.997	3.729	0.493
472.000	315.889	80.011	19.994	103.895	19.996	3.780	0.485
472.500	316.115	80.011	19.995	103.893	19.993	4.012	0.463
473.000	316.348	80.009	19.994	103.893	19.995	3.868	0.455
473.500	316.576	80.010	19.995	103.894	19.994	3.976	0.460
474.000	316.833	80.010	19.994	103.892	19.994	3.926	0.473
474.500	317.069	80.009	19.994	103.892	19.996	3.770	0.489
475.000	317.319	80.011	19.995	103.896	19.995	3.908	0.490
475.500	317.580	80.010	19.993	103.894	19.992	4.089	0.499
476.000	317.816	80.010	19.993	103.890	19.992	4.054	0.504
476.500	318.087	80.012	19.995	103.885	19.995	3.872	0.502
477.000	318.340	80.011	19.993	103.882	19.994	3.918	0.515
477.500	318.549	80.010	19.995	103.880	19.997	3.745	0.493
478.000	318.791	80.011	19.995	103.878	19.997	3.722	0.457
478.500	319.003	80.010	19.994	103.884	19.994	3.912	0.452
479.000	319.264	80.009	19.994	103.890	19.995	3.866	0.464
479.500	319.513	80.008	19.994	103.892	19.996	3.790	0.492
480.000	319.756	80.009	19.995	103.889	19.996	3.796	0.501
480.500	319.956	80.011	19.994	103.886	19.992	4.097	0.468
481.000	320.225	80.009	19.993	103.881	19.992	4.053	0.456
481.500	320.478	80.009	19.994	103.878	19.990	4.241	0.495
482.000	320.730	80.010	19.994	103.880	19.990	4.243	0.513
482.500	320.959	80.011	19.994	103.883	19.994	3.969	0.493
483.000	321.163	80.010	19.993	103.889	19.991	4.146	0.457
483.500	321.419	80.009	19.995	103.893	19.991	4.173	0.447
484.000	321.661	80.009	19.995	103.894	19.993	4.006	0.479
484.500	321.903	80.009	19.994	103.889	19.993	4.027	0.491
485.000	322.189	80.011	19.994	103.886	19.992	4.068	0.506
485.500	322.407	80.010	19.994	103.883	19.993	4.029	0.516
486.000	322.614	80.008	19.996	103.883	19.990	4.257	0.465
486.500	322.870	80.009	19.995	103.884	19.991	4.152	0.444
487.000	323.128	80.009	19.995	103.889	19.989	4.329	0.489
487.500	323.377	80.009	19.995	103.893	19.990	4.245	0.511
488.000	323.607	80.009	19.995	103.894	19.988	4.337	0.493
488.500	323.794	80.008	19.995	103.893	19.990	4.236	0.448
489.000	324.081	80.009	19.994	103.892	19.990	4.251	0.445
489.500	324.343	80.011	19.995	103.892	19.990	4.204	0.511
490.000	324.597	80.009	19.996	103.891	19.985	4.559	0.532
490.500	324.817	80.010	19.995	103.892	19.988	4.399	0.495
491.001	325.062	80.011	19.996	103.893	19.987	4.416	0.470
491.500	325.325	80.010	19.996	103.894	19.983	4.691	0.486
492.000	325.577	80.012	19.995	103.893	19.985	4.574	0.511
492.500	325.848	80.011	19.995	103.894	19.984	4.673	0.519
493.000	326.061	80.011	19.994	103.893	19.982	4.792	0.504
493.500	326.337	80.011	19.995	103.894	19.982	4.817	0.486
494.000	326.588	80.011	19.994	103.894	19.984	4.621	0.508
494.500	326.811	80.010	19.994	103.894	19.983	4.695	0.500
495.000	327.037	80.012	19.994	103.893	19.982	4.808	0.461
495.500	327.283	80.010	19.994	103.894	19.981	4.835	0.461
496.000	327.526	80.010	19.994	103.894	19.982	4.817	0.481
496.500	327.781	80.012	19.994	103.894	19.984	4.673	0.493
497.000	328.049	80.012	19.995	103.895	19.984	4.667	0.510
497.500	328.295	80.012	19.993	103.895	19.984	4.650	0.519
498.000	328.512	80.012	19.994	103.895	19.983	4.724	0.489
498.500	328.789	80.012	19.993	103.895	19.983	4.714	0.478
499.000	329.015	80.012	19.993	103.895	19.982	4.796	0.498
499.500	329.288	80.012	19.994	103.895	19.979	5.023	0.501
500.000	329.528	80.011	19.994	103.896	19.977	5.145	0.506
500.500	329.779	80.012	19.994	103.896	19.979	4.974	0.502
501.000	330.060	80.011	19.993	103.897	19.978	5.044	0.511
501.500	330.272	80.012	19.993	103.897	19.977	5.147	0.512
502.000	330.511	80.012	19.993	103.894	19.976	5.208	0.472
502.501	330.812	80.011	19.993	103.894	19.976	5.247	0.496
503.000	331.031	80.011	19.993	103.894	19.975	5.262	0.530
503.500	331.273	80.012	19.993	103.894	19.975	5.303	0.490
504.000	331.501	80.011	19.993	103.894	19.975	5.264	0.465
504.500	331.771	80.012	19.993	103.896	19.973	5.404	0.485
505.000	332.021	80.010	19.994	103.896	19.970	5.663	0.509
505.500	332.278	80.010	19.993	103.896	19.970	5.665	0.513
506.000	332.524	80.009	19.994	103.895	19.968	5.774	0.505
506.500	332.784	80.010	19.994	103.894	19.969	5.739	0.504
507.000	333.006	80.009	19.994	103.894	19.970	5.652	0.494
507.500	333.321	80.008	19.993	103.894	19.968	5.821	0.510
508.000	333.560	80.010	19.994	103.894	19.966	5.938	0.545
508.500	333.756	80.009	19.993	103.895	19.964	6.041	0.494
509.000	334.057	80.009	19.993	103.896	19.965	5.981	0.466
509.500	334.287	80.009	19.994	103.897	19.966	5.956	0.514
510.000	334.553	80.009	19.994	103.897	19.963	6.137	0.514
510.500	334.812	80.009	19.993	103.892	19.964	6.078	0.511
511.000	335.087	80.009	19.994	103.884	19.963	6.170	0.530
511.500	335.312	80.009	19.994	103.879	19.964	6.103	0.517
512.000	335.622	80.008	19.995	103.877	19.965	5.981	0.517
512.500	335.830	80.009	19.993	103.877	19.961	6.249	0.526
513.000	336.113	80.009	19.995	103.882	19.960	6.360	0.504
513.500	336.342	80.008	19.994	103.887	19.959	6.438	0.502
514.000	336.570	80.009	19.994	103.888	19.964	6.078	0.485
514.500	336.847	80.009	19.994	103.889	19.962	6.238	0.481
515.000	337.064	80.008	19.993	103.889	19.963	6.136	0.499
515.500	337.365	80.009	19.994	103.888	19.959	6.421	0.506
516.000	337.629	80.008	19.994	103.890	19.963	6.170	0.542
516.500	337.874	80.008	19.994	103.892	19.961	6.284	0.537
517.000	338.089	80.008	19.993	103.890	19.962	6.206	0.484
517.500	338.381	80.009	19.994	103.892	19.961	6.247	0.483
518.000	338.638	80.007	19.993	103.894	19.959	6.428	0.528
518.500	338.928	80.009	19.994	103.894	19.964	6.095	0.548
519.000	339.146	80.009	19.994	103.897	19.961	6.280	0.528
519.500	339.414	80.009	19.994	103.899	19.962	6.233	0.497
520.000	339.670	80.008	19.994	103.899	19.961	6.274	0.505
520.500	339.894	80.009	19.993	103.898	19.960	6.349	0.502
521.000	340.181	80.008	19.995	103.899	19.959	6.431	0.495
521.500	340.422	80.009	19.994	103.899	19.959	6.411	0.520
522.000	340.652	80.009	19.995	103.899	19.960	6.376	0.500
522.500	340.929	80.009	19.994	103.898	19.960	6.367	0.489
523.000	341.181	80.009	19.993	103.898	19.960	6.367	0.518
523.500	341.431	80.009	19.993	103.898	19.960	6.353	0.516
524.000	341.705	80.007	19.994	103.898	19.960	6.386	0.513
524.500	341.973	80.010	19.993	103.898	19.959	6.452	0.533
525.000	342.219	80.009	19.994	103.900	19.960	6.366	0.528
525.501	342.471	80.009	19.993	103.900	19.958	6.462	0.506
526.000	342.715	80.009	19.993	103.898	19.958	6.483	0.498
526.500	342.996	80.009	19.993	103.898	19.957	6.532	0.511
527.000	343.220	80.010	19.993	103.897	19.959	6.454	0.515
527.500	343.466	80.010	19.993	103.897	19.958	6.510	0.487
528.000	343.740	80.010	19.993	103.897	19.957	6.536	0.495
528.500	344.014	80.009	19.994	103.898	19.959	6.440	0.534
529.001	344.277	80.009	19.992	103.896	19.961	6.263	0.542
529.500	344.527	80.010	19.993	103.895	19.960	6.337	0.525
530.000	344.816	80.009	19.994	103.893	19.960	6.317	0.526
530.500	345.031	80.008	19.992	103.892	19.957	6.563	0.521
531.000	345.361	80.009	19.994	103.894	19.958	6.522	0.524
531.500	345.580	80.009	19.993	103.900	19.959	6.450	0.547
532.000	345.839	80.009	19.994	103.904	19.959	6.420	0.514
532.500	346.079	80.010	19.994	103.908	19.957	6.590	0.488
533.000	346.383	80.009	19.993	103.908	19.959	6.407	0.522
533.500	346.656	80.010	19.995	103.909	19.959	6.405	0.561
534.000	346.854	80.009	19.994	103.906	19.959	6.430	0.524
534.500	347.122	80.009	19.994	103.903	19.955	6.717	0.468
535.000	347.362	80.009	19.993	103.903	19.956	6.648	0.487
535.500	347.634	80.009	19.994	103.902	19.957	6.565	0.510
536.000	347.936	80.010	19.993	103.901	19.960	6.384	0.543
536.500	348.155	80.009	19.993	103.900	19.957	6.592	0.547
537.000	348.443	80.009	19.994	103.900	19.957	6.594	0.514
537.500	348.653	80.008	19.994	103.900	19.958	6.524	0.502
538.000	348.970	80.010	19.994	103.901	19.957	6.590	0.512
538.500	349.226	80.009	19.993	103.901	19.957	6.548	0.550
539.000	349.492	80.009	19.994	103.901	19.959	6.420	0.547
539.500	349.745	80.010	19.994	103.900	19.959	6.417	0.521
540.000	349.999	80.009	19.993	103.898	19.957	6.541	0.514
540.501	350.283	80.010	19.994	103.898	19.958	6.463	0.522
541.000	350.537	80.010	19.994	103.899	19.958	6.489	0.537
541.500	350.771	80.008	19.995	103.899	19.960	6.382	0.513
542.000	351.073	80.009	19.995	103.900	19.955	6.688	0.512
542.500	351.323	80.009	19.993	103.899	19.957	6.540	0.544
543.000	351.579	80.010	19.994	103.895	19.957	6.553	0.529
543.500	351.850	80.008	19.995	103.894	19.958	6.472	0.517
544.000	352.117	80.009	19.994	103.895	19.958	6.468	0.532
544.500	352.403	80.008	19.993	103.895	19.956	6.617	0.545
545.000	352.671	80.009	19.993	103.899	19.957	6.544	0.553
545.500	352.909	80.008	19.994	103.902	19.956	6.655	0.530
546.000	353.167	80.010	19.993	103.902	19.954	6.762	0.501
546.500	353.426	80.008	19.994	103.902	19.955	6.692	0.506
547.000	353.718	80.009	19.994	103.902	19.957	6.583	0.534
547.500	353.963	80.011	19.993	103.901	19.956	6.615	0.544
548.000	354.240	80.009	19.994	103.902	19.955	6.673	0.530
548.500	354.493	80.010	19.994	103.901	19.955	6.687	0.526
549.000	354.724	80.009	19.993	103.897	19.954	6.755	0.507
549.500	355.011	80.010	19.994	103.891	19.957	6.568	0.501
550.000	355.277	80.011	19.994	103.884	19.956	6.642	0.535
550.500	355.498	80.011	19.995	103.878	19.955	6.726	0.520
551.000	355.791	80.010	19.994	103.871	19.955	6.681	0.500
551.500	356.017	80.011	19.994	103.869	19.959	6.446	0.516
552.000	356.308	80.010	19.994	103.871	19.959	6.409	0.518
552.500	356.568	80.010	19.995	103.876	19.957	6.545	0.534
553.000	356.800	80.011	19.994	103.877	19.961	6.258	0.522
553.501	357.052	80.010	19.994	103.877	19.958	6.501	0.488
554.001	357.343	80.011	19.994	103.876	19.956	6.610	0.513
554.501	357.565	80.012	19.995	103.875	19.961	6.293	0.527
555.000	357.855	80.010	19.995	103.875	19.961	6.274	0.513
555.500	358.114	80.009	19.994	103.874	19.959	6.398	0.531
556.000	358.377	80.010	19.995	103.876	19.962	6.198	0.536
556.500	358.654	80.011	19.994	103.883	19.963	6.124	0.531
557.000	358.887	80.010	19.995	103.887	19.964	6.064	0.525
557.500	359.174	80.010	19.995	103.886	19.962	6.184	0.515
558.000	359.378	80.010	19.994	103.886	19.963	6.116	0.506
558.500	359.676	80.010	19.993	103.890	19.962	6.243	0.497
559.000	359.917	80.012	19.995	103.890	19.959	6.441	0.520
559.500	360.159	80.010	19.994	103.889	19.960	6.383	0.511
560.000	360.428	80.011	19.994	103.892	19.961	6.274	0.497
560.500	360.709	80.010	19.994	103.895	19.960	6.376	0.531
561.000	360.947	80.011	19.993	103.895	19.958	6.459	0.535
561.500	361.183	80.011	19.994	103.896	19.954	6.772	0.496
562.000	361.460	80.010	19.994	103.896	19.957	6.581	0.493
562.500	361.753	80.010	19.995	103.896	19.957	6.599	0.541
563.000	361.977	80.010	19.994	103.896	19.954	6.799	0.543
563.500	362.232	80.011	19.994	103.892	19.955	6.674	0.498
564.000	362.473	80.010	19.994	103.886	19.954	6.776	0.487
564.500	362.726	80.011	19.993	103.881	19.956	6.667	0.495
565.000	362.979	80.011	19.993	103.881	19.955	6.704	0.500
565.500	363.289	80.012	19.994	103.881	19.952	6.923	0.535
566.000	363.550	80.010	19.994	103.883	19.952	6.926	0.567
566.500	363.765	80.009	19.994	103.883	19.954	6.776	0.524
567.000	364.024	80.010	19.994	103.887	19.954	6.764	0.475
567.500	364.321	80.011	19.995	103.885	19.956	6.665	0.515
568.000	364.521	80.011	19.994	103.881	19.955	6.719	0.526
568.500	364.804	80.011	19.995	103.880	19.953	6.864	0.490
569.000	365.050	80.011	19.993	103.883	19.956	6.604	0.506
569.500	365.325	80.010	19.994	103.884	19.952	6.905	0.525
570.000	365.583	80.010	19.995	103.886	19.954	6.754	0.527
570.500	365.826	80.012	19.994	103.890	19.954	6.750	0.517
571.000	366.108	80.010	19.996	103.893	19.954	6.766	0.513
571.500	366.302	80.011	19.996	103.896	19.954	6.779	0.500
572.000	366.560	80.010	19.995	103.895	19.953	6.864	0.464
572.500	366.885	80.010	19.995	103.892	19.950	7.033	0.517
573.000	367.112	80.010	19.994	103.889	19.953	6.875	0.568
573.500	367.379	80.011	19.995	103.886	19.952	6.942	0.523
574.000	367.630	80.010	19.995	103.885	19.950	7.023	0.506
574.500	367.863	80.010	19.994	103.883	19.954	6.760	0.501
575.000	368.102	80.011	19.995	103.885	19.951	6.988	0.478
575.500	368.338	80.010	19.994	103.888	19.953	6.833	0.474
576.000	368.587	80.009	19.994	103.887	19.950	7.024	0.480
576.500	368.839	80.011	19.995	103.883	19.954	6.793	0.493
577.000	369.150	80.011	19.994	103.885	19.953	6.838	0.532
577.500	369.381	80.010	19.994	103.884	19.955	6.719	0.553
578.000	369.623	80.011	19.994	103.883	19.953	6.828	0.508
578.500	369.886	80.011	19.994	103.880	19.955	6.730	0.489
579.000	370.128	80.012	19.995	103.879	19.957	6.590	0.505
579.500	370.362	80.011	19.995	103.872	19.953	6.833	0.491
580.000	370.624	80.011	19.994	103.870	19.954	6.742	0.486
580.500	370.938	80.012	19.994	103.872	19.957	6.590	0.536
581.000	371.162	80.012	19.995	103.875	19.955	6.729	0.557
581.500	371.412	80.012	19.994	103.878	19.955	6.690	0.506
582.000	371.682	80.012	19.995	103.878	19.955	6.676	0.497
582.500	371.982	80.010	19.994	103.878	19.957	6.538	0.545
583.000	372.218	80.010	19.995	103.872	19.959	6.440	0.553
583.500	372.480	80.012	19.994	103.867	19.955	6.713	0.517
584.000	372.706	80.011	19.994	103.862	19.955	6.676	0.493
584.500	372.995	80.011	19.995	103.862	19.960	6.320	0.502
585.000	373.252	80.009	19.996	103.859	19.957	6.552	0.531
585.500	373.526	80.009	19.995	103.858	19.957	6.542	0.538
586.000	373.788	80.011	19.994	103.860	19.958	6.464	0.533
586.500	374.056	80.010	19.995	103.863	19.961	6.264	0.533
587.000	374.303	80.010	19.994	103.869	19.961	6.267	0.523
587.500	374.581	80.009	19.995	103.875	19.962	6.205	0.520
588.000	374.776	80.010	19.994	103.878	19.960	6.378	0.498
588.500	375.066	80.008	19.994	103.880	19.960	6.345	0.479
589.000	375.311	80.008	19.996	103.881	19.961	6.262	0.510
589.500	375.553	80.008	19.994	103.876	19.963	6.143	0.511
590.000	375.841	80.009	19.995	103.872	19.967	5.842	0.509
590.500	376.088	80.008	19.993	103.873	19.967	5.885	0.532
591.000	376.330	80.008	19.996	103.875	19.964	6.041	0.512
591.500	376.592	80.008	19.995	103.877	19.967	5.860	0.497
592.000	376.869	80.008	19.996	103.882	19.965	5.970	0.522
592.500	377.147	80.008	19.995	103.882	19.967	5.881	0.547
593.000	377.404	80.009	19.994	103.877	19.968	5.756	0.545
593.500	377.671	80.009	19.995	103.875	19.968	5.804	0.530
594.000	377.880	80.009	19.994	103.873	19.966	5.960	0.500
594.500	378.149	80.009	19.993	103.871	19.970	5.614	0.477
595.000	378.387	80.009	19.994	103.876	19.969	5.709	0.492
595.500	378.653	80.008	19.994	103.882	19.970	5.661	0.505
596.000	378.906	80.008	19.994	103.883	19.970	5.641	0.512
596.500	379.169	80.010	19.993	103.882	19.974	5.378	0.518
597.000	379.449	80.009	19.993	103.881	19.970	5.614	0.529
597.500	379.660	80.010	19.993	103.875	19.972	5.483	0.517
598.000	379.921	80.010	19.994	103.875	19.973	5.453	0.482
598.500	380.160	80.009	19.994	103.873	19.971	5.561	0.486
599.000	380.450	80.009	19.994	103.875	19.972	5.532	0.514
599.500	380.670	80.009	19.994	103.875	19.972	5.481	0.520
600.000	380.978	80.008	19.994	103.879	19.973	5.438	0.519
600.500	381.189	80.008	19.995	103.877	19.973	5.438	0.524
601.000	381.466	80.009	19.994	103.883	19.972	5.491	0.503
601.500	381.716	80.010	19.993	103.883	19.971	5.598	0.508
602.000	381.974	80.009	19.993	103.888	19.973	5.440	0.518
602.500	382.214	80.009	19.995	103.886	19.973	5.396	0.503
603.000	382.506	80.008	19.993	103.886	19.972	5.477	0.515
603.500	382.722	80.009	19.994	103.880	19.972	5.499	0.520
604.000	382.988	80.009	19.994	103.879	19.969	5.707	0.494
604.500	383.257	80.009	19.993	103.874	19.969	5.683	0.508
605.000	383.477	80.009	19.994	103.875	19.970	5.611	0.512
605.500	383.735	80.009	19.994	103.876	19.974	5.390	0.484
606.000	383.995	80.009	19.993	103.879	19.972	5.487	0.498
606.500	384.277	80.011	19.995	103.878	19.974	5.388	0.530
607.000	384.550	80.009	19.993	103.876	19.973	5.430	0.549
607.500	384.765	80.010	19.994	103.874	19.973	5.465	0.522
608.001	385.030	80.009	19.993	103.873	19.974	5.370	0.484
608.500	385.280	80.009	19.995	103.874	19.975	5.276	0.498
609.000	385.502	80.009	19.994	103.878	19.972	5.479	0.494
609.500	385.791	80.009	19.992	103.877	19.973	5.405	0.492
610.000	386.030	80.009	19.993	103.875	19.973	5.440	0.519
610.500	386.317	80.010	19.993	103.873	19.973	5.450	0.527
611.000	386.555	80.009	19.993	103.869	19.972	5.475	0.526
611.501	386.802	80.010	19.994	103.864	19.973	5.444	0.505
612.001	387.087	80.008	19.994	103.865	19.973	5.399	0.509
612.500	387.319	80.010	19.993	103.865	19.971	5.566	0.525
613.000	387.568	80.010	19.994	103.866	19.973	5.428	0.499
613.500	387.825	80.010	19.993	103.867	19.969	5.706	0.493
614.000	388.035	80.010	19.994	103.869	19.968	5.767	0.487
614.500	388.313	80.009	19.994	103.868	19.969	5.679	0.478
615.000	388.592	80.010	19.993	103.868	19.971	5.582	0.522
615.500	388.862	80.008	19.994	103.868	19.973	5.463	0.553
616.000	389.091	80.009	19.994	103.867	19.969	5.710	0.524
616.500	389.353	80.009	19.994	103.864	19.971	5.562	0.495
617.000	389.576	80.009	19.993	103.864	19.969	5.738	0.488
617.500	389.862	80.010	19.994	103.863	19.968	5.755	0.497
618.000	390.068	80.010	19.993	103.862	19.967	5.846	0.500
618.500	390.329	80.009	19.994	103.859	19.968	5.800	0.479
619.000	390.578	80.008	19.993	103.859	19.967	5.843	0.489
619.500	390.832	80.009	19.995	103.859	19.967	5.870	0.507
620.000	391.093	80.009	19.995	103.859	19.966	5.930	0.509
620.500	391.366	80.009	19.993	103.859	19.967	5.874	0.524
621.000	391.627	80.009	19.994	103.860	19.962	6.177	0.534
621.500	391.852	80.010	19.994	103.861	19.965	6.021	0.510
622.000	392.122	80.008	19.994	103.861	19.967	5.877	0.490
622.501	392.391	80.009	19.994	103.861	19.965	6.016	0.516
623.001	392.640	80.010	19.993	103.861	19.963	6.109	0.528
623.500	392.887	80.008	19.994	103.861	19.966	5.951	0.507
624.000	393.186	80.010	19.994	103.860	19.966	5.909	0.521
624.500	393.391	80.009	19.994	103.861	19.962	6.202	0.525
625.000	393.679	80.010	19.995	103.860	19.967	5.872	0.499
625.500	393.936	80.009	19.994	103.861	19.966	5.930	0.519
626.000	394.194	80.009	19.993	103.861	19.965	5.975	0.530
626.500	394.443	80.009	19.993	103.861	19.965	6.020	0.511
627.000	394.703	80.010	19.994	103.860	19.965	6.026	0.508
627.500	394.947	80.009	19.993	103.861	19.962	6.193	0.506
628.000	395.211	80.008	19.994	103.861	19.961	6.273	0.506
628.501	395.466	80.009	19.994	103.861	19.963	6.113	0.514
629.001	395.679	80.008	19.994	103.861	19.961	6.278	0.493
629.500	395.981	80.009	19.993	103.861	19.957	6.550	0.492
630.000	396.248	80.011	19.993	103.861	19.958	6.457	0.542
630.500	396.530	80.010	19.994	103.860	19.957	6.527	0.559
631.000	396.751	80.009	19.994	103.859	19.959	6.407	0.526
631.500	396.974	80.009	19.993	103.859	19.961	6.266	0.473
632.000	397.216	80.011	19.993	103.859	19.960	6.360	0.455
632.500	397.471	80.011	19.993	103.858	19.961	6.280	0.481
633.000	397.735	80.009	19.993	103.859	19.962	6.176	0.508
633.500	397.957	80.012	19.992	103.859	19.961	6.300	0.502
634.000	398.238	80.011	19.993	103.858	19.958	6.475	0.495
634.500	398.507	80.011	19.994	103.859	19.960	6.327	0.527
635.000	398.713	80.011	19.994	103.860	19.960	6.365	0.512
635.500	398.988	80.011	19.994	103.862	19.956	6.640	0.478
636.000	399.279	80.012	19.995	103.866	19.957	6.531	0.524
636.501	399.522	80.010	19.993	103.868	19.957	6.535	0.550
637.001	399.764	80.011	19.994	103.868	19.956	6.634	0.509
637.501	400.032	80.011	19.993	103.867	19.959	6.455	0.497
638.000	400.256	80.011	19.994	103.863	19.955	6.698	0.501
638.500	400.535	80.011	19.993	103.838	19.954	6.807	0.498
639.000	400.789	80.012	19.994	103.814	19.955	6.694	0.518
639.500	401.042	80.011	19.993	103.803	19.954	6.755	0.520
640.000	401.291	80.011	19.994	103.796	19.956	6.607	0.505
640.500	401.539	80.012	19.994	103.796	19.953	6.879	0.500
641.000	401.797	80.011	19.993	103.823	19.952	6.903	0.501
641.500	402.062	80.012	19.994	103.860	19.953	6.846	0.514
642.000	402.320	80.010	19.994	103.905	19.950	7.023	0.523
642.500	402.584	80.011	19.993	103.921	19.951	6.953	0.522
643.001	402.841	80.010	19.994	103.927	19.950	7.045	0.522
643.501	403.113	80.010	19.994	103.922	19.950	7.041	0.525
644.000	403.367	80.010	19.994	103.907	19.950	7.027	0.527
644.500	403.556	80.010	19.995	103.872	19.949	7.122	0.485
645.000	403.827	80.010	19.996	103.863	19.952	6.897	0.452
645.500	404.089	80.009	19.995	103.857	19.944	7.500	0.496
646.000	404.330	80.011	19.995	103.857	19.950	7.044	0.518
646.500	404.620	80.009	19.995	103.857	19.946	7.361	0.517
647.000	404.908	80.010	19.995	103.858	19.942	7.657	0.555
647.500	405.133	80.009	19.995	103.859	19.941	7.659	0.546
648.000	405.392	80.009	19.995	103.861	19.939	7.846	0.499
648.500	405.625	80.009	19.995	103.861	19.940	7.782	0.488
649.000	405.884	80.008	19.994	103.861	19.939	7.871	0.492
649.500	406.146	80.010	19.994	103.860	19.935	8.147	0.506
650.000	406.398	80.010	19.994	103.860	19.937	8.011	0.518
650.500	406.665	80.007	19.994	103.860	19.937	8.005	0.517
651.000	406.912	80.009	19.996	103.860	19.938	7.941	0.517
651.500	407.178	80.010	19.996	103.860	19.935	8.147	0.513
652.000	407.409	80.009	19.996	103.861	19.934	8.180	0.505
652.500	407.680	80.008	19.996	103.861	19.932	8.309	0.499
653.000	407.939	80.010	19.994	103.861	19.929	8.538	0.516
653.500	408.226	80.010	19.994	103.862	19.926	8.762	0.538
654.000	408.418	80.009	19.995	103.861	19.927	8.709	0.513
654.500	408.700	80.010	19.994	103.860	19.926	8.736	0.477
655.000	408.955	80.009	19.994	103.860	19.924	8.876	0.505
655.500	409.172	80.010	19.995	103.861	19.923	8.954	0.504
656.000	409.450	80.010	19.993	103.860	19.920	9.158	0.483
656.500	409.732	80.011	19.994	103.860	19.920	9.145	0.528
657.000	409.980	80.011	19.994	103.860	19.917	9.370	0.545
657.500	410.250	80.011	19.994	103.860	19.914	9.578	0.525
658.000	410.485	80.011	19.993	103.860	19.916	9.491	0.511
658.500	410.741	80.010	19.994	103.860	19.916	9.462	0.497
659.000	410.991	80.012	19.994	103.860	19.912	9.732	0.498
659.500	411.281	80.011	19.995	103.860	19.910	9.870	0.523
660.001	411.534	80.012	19.994	103.859	19.909	9.922	0.542
660.500	411.776	80.011	19.993	103.859	19.910	9.910	0.519
661.000	412.029	80.012	19.993	103.859	19.905	10.235	0.495
661.500	412.289	80.011	19.993	103.859	19.903	10.410	0.504
662.000	412.569	80.010	19.994	103.858	19.902	10.459	0.526
662.500	412.806	80.010	19.994	103.858	19.900	10.609	0.528
663.000	413.054	80.012	19.993	103.858	19.898	10.742	0.501
663.500	413.318	80.013	19.993	103.858	19.898	10.713	0.499
664.000	413.582	80.012	19.993	103.858	19.896	10.909	0.520
664.500	413.818	80.013	19.993	103.860	19.893	11.084	0.514
665.000	414.046	80.011	19.994	103.859	19.890	11.323	0.482
665.500	414.343	80.011	19.994	103.859	19.892	11.192	0.495
666.001	414.548	80.010	19.994	103.859	19.887	11.522	0.513
666.501	414.810	80.010	19.995	103.859	19.885	11.642	0.485
667.000	415.027	80.012	19.994	103.857	19.883	11.798	0.473
667.500	415.298	80.010	19.994	103.857	19.881	11.967	0.483
668.000	415.517	80.010	19.993	103.855	19.875	12.391	0.489
668.500	415.790	80.009	19.994	103.855	19.873	12.475	0.491
669.000	416.034	80.008	19.993	103.854	19.873	12.477	0.504
669.500	416.308	80.010	19.993	103.855	19.868	12.827	0.518
670.000	416.582	80.008	19.995	103.853	19.868	12.853	0.533
670.500	416.830	80.009	19.993	103.852	19.865	13.068	0.535
671.000	417.074	80.008	19.994	103.849	19.863	13.210	0.507
671.500	417.325	80.008	19.994	103.847	19.861	13.361	0.493
672.000	417.558	80.008	19.994	103.846	19.860	13.446	0.489
672.500	417.851	80.009	19.995	103.850	19.856	13.688	0.505
673.000	418.083	80.009	19.995	103.851	19.856	13.684	0.526
673.500	418.369	80.008	19.995	103.855	19.853	13.947	0.521
674.000	418.566	80.007	19.995	103.859	19.845	14.459	0.500
674.500	418.888	80.007	19.995	103.860	19.842	14.711	0.501
675.000	419.124	80.008	19.994	103.860	19.844	14.570	0.539
675.500	419.350	80.007	19.995	103.859	19.840	14.837	0.510
676.000	419.615	80.008	19.995	103.855	19.836	15.142	0.476
676.500	419.854	80.007	19.994	103.849	19.832	15.375	0.498
677.000	420.130	80.008	19.994	103.845	19.831	15.494	0.510
677.501	420.430	80.008	19.994	103.842	19.826	15.804	0.546
678.001	420.598	80.007	19.995	103.843	19.824	15.971	0.522
678.500	420.893	80.009	19.996	103.841	19.819	16.335	0.465
679.000	421.128	80.007	19.996	103.844	19.816	16.503	0.496
679.500	421.426	80.009	19.995	103.843	19.816	16.501	0.531
680.000	421.677	80.008	19.996	103.845	19.812	16.804	0.541
680.500	421.919	80.008	19.995	103.845	19.808	17.065	0.521
681.001	422.177	80.009	19.995	103.849	19.801	17.573	0.496
681.501	422.422	80.008	19.995	103.849	19.802	17.554	0.501
682.000	422.643	80.009	19.996	103.847	19.798	17.799	0.484
682.500	422.916	80.008	19.995	103.840	19.793	18.188	0.480
683.000	423.160	80.008	19.995	103.835	19.790	18.354	0.506
683.500	423.387	80.009	19.995	103.829	19.786	18.653	0.494
684.000	423.657	80.009	19.995	103.825	19.784	18.802	0.484
684.500	423.913	80.009	19.995	103.829	19.779	19.142	0.511
685.000	424.158	80.009	19.994	103.833	19.777	19.288	0.514
685.500	424.458	80.009	19.994	103.832	19.771	19.730	0.523
686.000	424.671	80.008	19.995	103.837	19.769	19.872	0.529
686.500	424.905	80.009	19.995	103.840	19.762	20.349	0.480
687.000	425.208	80.010	19.993	103.838	19.758	20.606	0.492
687.500	425.455	80.010	19.994	103.837	19.755	20.830	0.543
688.000	425.696	80.010	19.994	103.839	19.752	21.036	0.519
688.500	425.937	80.010	19.994	103.835	19.748	21.349	0.485
689.000	426.156	80.010	19.994	103.831	19.741	21.805	0.471
689.500	426.450	80.009	19.994	103.830	19.737	22.135	0.487
690.000	426.665	80.010	19.994	103.827	19.734	22.335	0.511
690.500	426.950	80.010	19.994	103.824	19.726	22.896	0.504
691.000	427.163	80.009	19.994	103.823	19.719	23.359	0.499
691.500	427.434	80.010	19.995	103.826	19.715	23.699	0.491
692.000	427.681	80.011	19.994	103.830	19.709	24.068	0.501
692.500	427.928	80.009	19.994	103.831	19.705	24.362	0.506
693.000	428.156	80.009	19.993	103.832	19.699	24.779	0.484
693.500	428.423	80.011	19.995	103.832	19.697	24.933	0.485
694.000	428.673	80.010	19.994	103.829	19.690	25.430	0.506
694.500	428.880	80.009	19.994	103.822	19.682	25.982	0.487
695.000	429.173	80.010	19.994	103.820	19.676	26.433	0.479
695.500	429.386	80.009	19.994	103.820	19.669	26.924	0.503
696.000	429.667	80.011	19.995	103.821	19.665	27.222	0.500
696.500	429.915	80.009	19.994	103.822	19.655	27.950	0.511
697.000	430.159	80.010	19.993	103.823	19.650	28.267	0.510
697.500	430.418	80.008	19.993	103.826	19.644	28.685	0.497
698.000	430.640	80.010	19.993	103.827	19.635	29.313	0.492
698.500	430.950	80.010	19.994	103.829	19.628	29.838	0.506
699.000	431.162	80.010	19.994	103.829	19.624	30.145	0.527
699.500	431.411	80.010	19.994	103.828	19.614	30.819	0.492
700.000	431.693	80.009	19.994	103.826	19.605	31.425	0.496
700.500	431.912	80.010	19.994	103.825	19.599	31.861	0.516
701.000	432.181	80.011	19.994	103.821	19.591	32.419	0.494
701.500	432.454	80.009	19.994	103.820	19.584	32.963	0.515
702.000	432.696	80.008	19.995	103.819	19.576	33.538	0.529
702.500	432.960	80.009	19.994	103.819	19.568	34.062	0.511
703.000	433.197	80.009	19.994	103.819	19.558	34.739	0.503
703.500	433.463	80.009	19.994	103.820	19.548	35.462	0.502
704.000	433.712	80.008	19.993	103.816	19.542	35.924	0.509
704.500	433.959	80.010	19.993	103.815	19.534	36.490	0.505
705.000	434.185	80.009	19.994	103.815	19.525	37.092	0.484
705.500	434.472	80.010	19.995	103.815	19.510	38.147	0.493
706.000	434.735	80.009	19.995	103.815	19.503	38.633	0.531
706.500	434.980	80.010	19.995	103.818	19.491	39.499	0.529
707.000	435.210	80.009	19.995	103.819	19.483	40.068	0.492
707.500	435.491	80.008	19.995	103.815	19.473	40.762	0.493
708.000	435.776	80.009	19.995	103.810	19.460	41.689	0.539
708.500	436.006	80.009	19.994	103.810	19.450	42.390	0.541
709.000	436.230	80.010	19.994	103.811	19.440	43.143	0.484
709.500	436.507	80.010	19.994	103.812	19.425	44.204	0.477
710.000	436.761	80.009	19.994	103.815	19.410	45.250	0.516
710.500	436.984	80.010	19.993	103.819	19.398	46.053	0.505
711.000	437.212	80.010	19.994	103.820	19.385	46.987	0.464
711.500	437.477	80.009	19.996	103.820	19.373	47.816	0.472
712.000	437.731	80.009	19.995	103.820	19.359	48.809	0.506
712.500	437.982	80.009	19.994	103.820	19.348	49.589	0.512
713.000	438.249	80.010	19.995	103.817	19.334	50.627	0.511
713.500	438.512	80.010	19.994	103.810	19.321	51.509	0.524
714.000	438.737	80.010	19.994	103.804	19.308	52.458	0.510
714.500	438.987	80.010	19.995	103.797	19.294	53.396	0.482
715.000	439.225	80.010	19.995	103.790	19.280	54.425	0.481
715.500	439.489	80.010	19.994	103.787	19.267	55.298	0.495
716.000	439.741	80.011	19.993	103.787	19.255	56.197	0.509
716.500	439.993	80.011	19.993	103.785	19.244	56.926	0.510
717.000	440.287	80.011	19.994	103.784	19.226	58.235	0.525
717.501	440.477	80.011	19.994	103.784	19.215	59.032	0.515
718.000	440.778	80.011	19.994	103.783	19.197	60.250	0.488
718.500	441.026	80.011	19.993	103.782	19.183	61.259	0.521
719.000	441.254	80.011	19.994	103.782	19.168	62.321	0.513
719.500	441.488	80.011	19.993	103.782	19.154	63.323	0.468
720.000	441.774	80.012	19.993	103.782	19.138	64.434	0.491
720.500	442.003	80.012	19.995	103.783	19.123	65.498	0.518
721.000	442.237	80.011	19.993	103.783	19.106	66.711	0.489
721.500	442.480	80.009	19.994	103.784	19.090	67.805	0.470
722.000	442.748	80.011	19.994	103.782	19.074	68.974	0.494
722.500	442.962	80.011	19.994	103.781	19.060	69.930	0.496
723.000	443.264	80.011	19.995	103.776	19.043	71.166	0.498
723.500	443.478	80.011	19.993	103.773	19.029	72.133	0.516
724.000	443.742	80.012	19.994	103.770	19.008	73.628	0.497
724.500	443.985	80.011	19.994	103.770	18.991	74.786	0.492
725.000	444.238	80.010	19.993	103.770	18.974	75.986	0.501
725.500	444.475	80.011	19.994	103.770	18.956	77.271	0.493
726.000	444.727	80.009	19.994	103.768	18.940	78.432	0.489
726.500	445.013	80.010	19.993	103.763	18.923	79.609	0.514
727.000	445.251	80.011	19.994	103.757	18.903	81.035	0.531
727.500	445.455	80.010	19.993	103.750	18.885	82.311	0.483
728.000	445.682	80.010	19.994	103.749	18.866	83.628	0.437
728.500	445.993	80.010	19.994	103.750	18.844	85.172	0.484
729.000	446.257	80.011	19.994	103.755	18.827	86.408	0.557
729.500	446.453	80.010	19.994	103.755	18.807	87.802	0.518
730.000	446.714	80.011	19.993	103.754	18.786	89.232	0.458
730.500	446.948	80.010	19.993	103.753	18.768	90.532	0.476
731.000	447.184	80.010	19.993	103.750	18.745	92.151	0.482
731.500	447.462	80.009	19.994	103.745	18.721	93.816	0.492
732.000	447.727	80.009	19.993	103.744	18.702	95.204	0.529
732.501	447.967	80.010	19.994	103.743	18.678	96.907	0.524
733.000	448.202	80.010	19.993	103.740	18.656	98.411	0.490
733.500	448.430	80.009	19.994	103.735	18.630	100.247	0.469
734.000	448.716	80.010	19.994	103.730	18.608	101.802	0.488
734.500	448.975	80.011	19.995	103.729	18.588	103.211	0.530
735.000	449.234	80.010	19.995	103.725	18.561	105.099	0.531
735.500	449.477	80.009	19.993	103.726	18.540	106.636	0.510
736.000	449.742	80.011	19.994	103.728	18.516	108.272	0.505
736.500	449.969	80.011	19.993	103.729	18.494	109.879	0.500
737.000	450.209	80.011	19.993	103.725	18.465	111.871	0.479
737.500	450.455	80.012	19.994	103.723	18.440	113.665	0.476
738.000	450.726	80.010	19.995	103.719	18.412	115.649	0.502
738.500	450.970	80.011	19.993	103.714	18.386	117.492	0.516
739.000	451.178	80.010	19.993	103.709	18.363	119.112	0.483
739.500	451.458	80.012	19.994	103.700	18.335	121.084	0.470
740.000	451.689	80.011	19.993	103.694	18.309	122.905	0.499
740.500	451.953	80.011	19.994	103.687	18.282	124.802	0.503
741.000	452.218	80.011	19.993	103.684	18.254	126.761	0.512
741.500	452.463	80.011	19.993	103.678	18.228	128.612	0.519
742.000	452.706	80.012	19.994	103.676	18.202	130.404	0.499
742.500	452.977	80.012	19.994	103.672	18.173	132.430	0.501
743.000	453.229	80.012	19.993	103.670	18.143	134.543	0.519
743.500	453.454	80.012	19.993	103.666	18.116	136.470	0.500
744.000	453.712	80.012	19.993	103.664	18.087	138.525	0.479
744.500	453.946	80.012	19.994	103.664	18.057	140.629	0.487
745.000	454.215	80.012	19.993	103.663	18.018	143.330	0.498
745.500	454.484	80.013	19.994	103.663	17.990	145.311	0.521
746.000	454.708	80.011	19.993	103.663	17.957	147.645	0.516
746.500	454.979	80.012	19.994	103.660	17.921	150.181	0.494
747.000	455.249	80.010	19.992	103.660	17.891	152.319	0.518
747.500	455.476	80.012	19.993	103.660	17.859	154.539	0.519
748.000	455.731	80.011	19.993	103.658	17.823	157.072	0.490
748.500	455.994	80.011	19.994	103.655	17.794	159.117	0.500
749.000	456.190	80.011	19.994	103.652	17.757	161.682	0.488
749.500	456.479	80.011	19.994	103.644	17.725	163.939	0.472
750.000	456.684	80.011	19.994	103.637	17.690	166.379	0.490
750.500	456.969	80.010	19.994	103.631	17.650	169.219	0.492
751.000	457.230	80.010	19.994	103.626	17.614	171.769	0.517
751.500	457.464	80.010	19.995	103.624	17.577	174.382	0.520
752.000	457.712	80.010	19.994	103.622	17.539	176.994	0.489
752.500	457.939	80.010	19.995	103.615	17.504	179.495	0.479
753.000	458.192	80.009	19.995	103.611	17.466	182.162	0.478
753.500	458.455	80.008	19.994	103.604	17.427	184.883	0.498
754.000	458.671	80.009	19.994	103.596	17.386	187.774	0.497
754.500	458.950	80.010	19.995	103.590	17.346	190.537	0.487
755.000	459.214	80.009	19.996	103.586	17.303	193.601	0.519
755.500	459.452	80.009	19.994	103.581	17.265	196.260	0.522
756.000	459.666	80.008	19.995	103.579	17.225	199.052	0.477
756.500	459.961	80.008	19.995	103.576	17.180	202.242	0.481
757.000	460.196	80.008	19.994	103.575	17.140	205.016	0.519
757.500	460.465	80.008	19.994	103.572	17.096	208.116	0.517
758.000	460.683	80.008	19.994	103.566	17.051	211.235	0.496
758.500	460.955	80.009	19.994	103.561	17.009	214.201	0.489
759.000	461.223	80.008	19.995	103.554	16.965	217.204	0.515
759.500	461.443	80.009	19.994	103.545	16.920	220.401	0.514
760.000	461.746	80.009	19.995	103.536	16.870	223.856	0.506
760.500	461.928	80.010	19.995	103.528	16.826	226.932	0.504
761.000	462.170	80.009	19.995	103.518	16.780	230.151	0.455
761.500	462.453	80.008	19.994	103.514	16.735	233.294	0.475
762.001	462.714	80.009	19.994	103.511	16.685	236.802	0.534
762.500	462.936	80.009	19.995	103.502	16.635	240.294	0.513
763.000	463.190	80.008	19.994	103.491	16.586	243.718	0.480
763.500	463.455	80.009	19.995	103.489	16.535	247.289	0.498
764.000	463.688	80.011	19.995	103.477	16.482	250.993	0.508
764.500	463.965	80.009	19.995	103.470	16.434	254.391	0.504
765.000	464.160	80.008	19.994	103.470	16.377	258.372	0.491
765.500	464.423	80.009	19.996	103.467	16.324	262.069	0.465
766.000	464.676	80.009	19.995	103.462	16.270	265.836	0.487
766.500	464.945	80.010	19.995	103.458	16.217	269.538	0.519
767.000	465.169	80.008	19.996	103.451	16.163	273.284	0.508
767.500	465.452	80.009	19.994	103.444	16.108	277.105	0.500
768.000	465.676	80.010	19.995	103.433	16.055	280.821	0.507
768.500	465.932	80.009	19.996	103.422	16.002	284.527	0.493
769.000	466.156	80.010	19.995	103.414	15.947	288.330	0.480
769.500	466.433	80.009	19.996	103.396	15.894	292.058	0.491
770.000	466.685	80.010	19.995	103.378	15.838	296.027	0.515
770.500	466.967	80.008	19.994	103.371	15.781	300.071	0.532
771.000	467.196	80.009	19.996	103.356	15.720	304.368	0.523
771.500	467.449	80.009	19.997	103.340	15.662	308.415	0.496
772.000	467.726	80.009	19.997	103.329	15.606	312.265	0.506
772.500	467.952	80.009	19.998	103.320	15.541	316.665	0.516
773.000	468.207	80.009	19.997	103.311	15.484	320.597	0.492
773.500	468.466	80.009	19.996	103.304	15.421	324.882	0.497
774.000	468.689	80.009	19.997	103.298	15.362	329.021	0.498
774.500	468.989	80.010	19.995	103.293	15.299	333.357	0.502
775.000	469.212	80.009	19.996	103.285	15.234	337.865	0.523
775.500	469.513	80.008	19.995	103.274	15.171	342.159	0.524
776.000	469.722	80.009	19.996	103.264	15.110	346.410	0.517
776.500	470.005	80.008	19.996	103.257	15.040	351.269	0.501
777.000	470.204	80.009	19.995	103.247	14.976	355.701	0.487
777.500	470.493	80.008	19.996	103.234	14.913	360.188	0.485
778.000	470.741	80.009	19.996	103.219	14.843	365.200	0.512
778.500	471.000	80.009	19.996	103.207	14.781	369.612	0.522
779.000	471.244	80.009	19.995	103.191	14.714	374.248	0.505
779.500	471.517	80.010	19.995	103.176	14.650	378.717	0.510
780.000	471.744	80.008	19.993	103.164	14.580	383.560	0.508
780.500	472.010	80.009	19.994	103.160	14.515	387.951	0.496
781.000	472.245	80.008	19.994	103.180	14.452	392.274	0.497
781.500	472.494	80.009	19.994	103.189	14.383	397.065	0.492
782.000	472.771	80.009	19.995	103.187	14.317	401.665	0.505
782.500	473.052	80.009	19.994	103.176	14.250	406.314	0.542
783.000	473.299	80.010	19.995	103.159	14.185	410.843	0.543
783.500	473.581	80.008	19.995	103.109	14.116	415.641	0.529
784.000	473.818	80.010	19.995	103.069	14.053	420.042	0.524
784.500	474.063	80.009	19.995	103.042	13.986	424.699	0.500
785.000	474.311	80.009	19.995	103.025	13.919	429.396	0.487
785.500	474.626	80.009	19.995	103.012	13.853	433.949	0.528
786.001	474.848	80.009	19.994	102.985	13.788	438.439	0.550
786.501	475.091	80.008	19.995	102.955	13.722	443.031	0.501
787.000	475.312	80.008	19.995	102.937	13.657	447.499	0.464
787.500	475.593	80.009	19.994	102.922	13.594	451.788	0.483
788.000	475.846	80.009	19.993	102.909	13.531	456.087	0.518
788.500	476.155	80.009	19.994	102.926	13.463	460.780	0.548
789.000	476.305	80.009	19.994	102.971	13.403	464.874	0.510
789.500	476.610	80.009	19.993	102.974	13.340	469.225	0.457
790.000	476.811	80.009	19.993	102.965	13.275	473.692	0.481
790.500	477.104	80.009	19.994	102.954	13.208	478.296	0.500
791.000	477.366	80.009	19.994	102.930	13.148	482.496	0.524
791.500	477.605	80.009	19.994	102.886	13.086	486.876	0.528
792.000	477.821	80.010	19.994	102.869	13.026	491.149	0.478
792.500	478.134	80.009	19.995	102.859	12.968	495.262	0.492
793.000	478.376	80.009	19.994	102.849	12.908	499.597	0.542
793.500	478.643	80.009	19.994	102.843	12.848	503.896	0.533
794.000	478.831	80.009	19.994	102.835	12.796	507.672	0.482
794.500	479.136	80.009	19.995	102.827	12.740	511.749	0.474
795.000	479.416	80.009	19.995	102.821	12.689	515.470	0.539
795.500	479.625	80.010	19.994	102.816	12.640	518.964	0.537
796.000	479.873	80.011	19.994	102.807	12.597	522.003	0.473
796.500	480.155	80.010	19.993	102.797	12.550	525.304	0.494
797.000	480.372	80.010	19.994	102.786	12.517	527.586	0.514
797.500	480.630	80.009	19.994	102.771	12.471	530.715	0.487
798.000	480.897	80.011	19.994	102.751	12.452	531.930	0.500
798.500	481.127	80.010	19.994	102.729	12.408	534.905	0.511
799.000	481.430	80.010	19.993	102.712	12.384	536.495	0.515
799.500	481.607	80.010	19.994	102.690	12.359	538.125	0.507
800.000	481.937	80.011	19.993	102.668	12.344	539.035	0.494
800.500	482.163	80.012	19.993	102.650	12.328	540.097	0.532
801.000	482.461	80.011	19.994	102.635	12.307	541.463	0.540
801.500	482.692	80.011	19.994	102.626	12.283	543.127	0.526
802.000	482.916	80.012	19.994	102.627	12.252	545.254	0.492
802.500	483.097	80.010	19.993	102.637	12.243	545.907	0.431
803.000	483.421	80.011	19.994	102.652	12.209	548.236	0.455
803.500	483.625	80.011	19.994	102.667	12.195	549.215	0.516
804.000	483.932	80.012	19.993	102.686	12.174	550.691	0.520
804.500	484.074	80.012	19.994	102.710	12.158	551.851	0.480
805.000	484.412	80.010	19.992	102.738	12.144	552.844	0.464
805.500	484.595	80.017	19.995	102.765	12.122	554.468	0.501
806.000	484.885	80.030	19.997	102.794	12.112	555.178	0.497
806.500	485.136	80.029	19.999	102.816	12.102	555.963	0.507
807.000	485.439	80.030	20.001	102.823	12.091	556.753	0.547
807.500	485.588	80.030	19.998	102.824	12.087	557.161	0.502
808.000	485.855	80.029	19.997	102.816	12.080	557.713	0.434
808.500	486.075	80.024	19.996	102.801	12.083	557.608	0.452
809.000	486.447	80.019	19.995	102.778	12.084	557.638	0.540
809.500	486.596	80.012	19.996	102.757	12.090	557.299	0.557
810.000	486.979	80.010	19.995	102.733	12.100	556.611	0.526
810.500	486.824	80.009	19.995	102.710	12.108	556.107	0.380
811.000	487.559	80.011	19.994	102.689	12.127	554.886	0.404
811.500	487.326	80.010	19.994	102.673	12.142	553.896	0.541
812.000	488.097	80.011	19.995	102.662	12.166	552.295	0.520
812.500	487.680	80.010	19.993	102.654	12.195	550.352	0.446
813.000	488.372	80.011	19.994	102.648	12.223	548.429	0.314
813.500	488.319	80.011	19.993	102.647	12.261	545.916	0.457
814.000	488.556	80.009	19.995	102.648	12.300	543.200	0.412
814.500	489.338	80.011	19.993	102.647	12.343	540.319	0.601
815.000	489.561	80.011	19.993	102.647	12.393	536.898	1.012
815.500	489.942	80.010	19.995	102.650	12.446	533.257	0.805
816.000	489.687	80.010	19.995	102.656	12.500	529.464	0.366
816.500	490.414	80.012	19.995	102.663	12.558	525.363	0.299
817.000	490.137	80.011	19.995	102.670	12.622	520.967	0.461
817.500	490.643	80.010	19.994	102.682	12.687	516.479	0.339
818.000	490.807	80.010	19.994	102.696	12.758	511.637	0.449
818.500	490.972	80.009	19.996	102.709	12.829	506.840	0.499
819.000	491.332	80.012	19.995	102.724	12.907	501.603	0.427
819.500	491.422	80.011	19.995	102.742	12.987	496.120	0.488
820.000	491.852	80.012	19.994	102.759	13.072	490.323	0.485
820.500	492.016	80.011	19.994	102.773	13.163	484.124	0.557
821.000	492.178	80.012	19.994	102.785	13.251	478.056	0.459
821.500	492.579	80.012	19.994	102.797	13.350	471.224	0.444
822.000	492.774	80.012	19.993	102.811	13.450	464.329	0.580
822.500	493.054	80.012	19.994	102.822	13.556	456.964	0.536
823.000	493.344	80.012	19.993	102.836	13.661	449.706	0.522
823.500	493.480	80.011	19.993	102.851	13.772	441.994	0.498
824.000	493.816	80.012	19.994	102.867	13.885	434.064	0.449
824.500	494.081	80.012	19.993	102.883	14.002	425.953	0.537
825.000	494.372	80.012	19.993	102.899	14.120	417.738	0.579
825.500	494.561	80.011	19.994	102.914	14.239	409.451	0.518
826.000	494.817	80.012	19.994	102.929	14.368	400.523	0.462
826.500	495.096	80.011	19.994	102.944	14.491	391.904	0.490
827.000	495.362	80.012	19.993	102.943	14.617	383.124	0.540
827.501	495.641	80.011	19.995	102.947	14.749	373.901	0.545
828.000	495.906	80.012	19.993	102.960	14.880	364.723	0.544
828.500	496.112	80.011	19.994	102.979	15.013	355.462	0.508
829.000	496.437	80.011	19.994	103.001	15.148	345.990	0.501
829.500	496.681	80.012	19.994	103.044	15.283	336.550	0.550
830.000	496.924	80.011	19.993	103.088	15.419	327.014	0.528
830.500	497.231	80.011	19.993	103.121	15.556	317.418	0.519
831.000	497.524	80.011	19.997	103.151	15.686	308.254	0.575
831.500	497.712	80.011	19.996	103.188	15.822	298.699	0.540
832.000	498.070	80.010	19.995	103.216	15.957	289.209	0.514
832.500	498.263	80.010	19.996	103.247	16.093	279.673	0.549
833.000	498.586	80.010	19.994	103.279	16.221	270.629	0.533
833.500	498.825	80.010	19.994	103.306	16.351	261.485	0.539
834.000	499.091	80.010	19.995	103.323	16.481	252.316	0.534
834.500	499.322	80.010	19.994	103.346	16.608	243.363	0.501
835.000	499.639	80.008	19.994	103.365	16.737	234.266	0.522
835.501	499.865	80.009	19.995	103.388	16.860	225.533	0.545
836.000	500.165	80.009	19.995	103.416	16.981	217.024	0.535
836.500	500.441	80.009	19.994	103.447	17.102	208.471	0.551
837.000	500.691	80.009	19.994	103.473	17.219	200.246	0.551
837.500	500.952	80.009	19.994	103.499	17.336	191.955	0.519
838.000	501.237	80.009	19.994	103.525	17.446	184.210	0.529
838.500	501.521	80.009	19.994	103.548	17.556	176.410	0.557
839.000	501.795	80.008	19.994	103.571	17.664	168.821	0.563
839.500	502.036	80.008	19.995	103.592	17.768	161.480	0.537
840.000	502.304	80.009	19.994	103.615	17.866	154.509	0.512
840.500	502.586	80.008	19.995	103.638	17.963	147.674	0.529
841.000	502.871	80.009	19.995	103.659	18.061	140.704	0.558
841.500	503.097	80.009	19.994	103.680	18.150	134.448	0.539
842.000	503.442	80.009	19.995	103.703	18.239	128.143	0.541
842.500	503.685	80.009	19.995	103.719	18.326	122.002	0.579
843.000	503.950	80.008	19.995	103.732	18.410	116.046	0.548
843.500	504.232	80.008	19.994	103.748	18.491	110.328	0.528
844.000	504.518	80.008	19.995	103.759	18.565	105.090	0.558
844.500	504.764	80.009	19.994	103.767	18.642	99.661	0.550
845.000	505.081	80.009	19.994	103.777	18.714	94.523	0.548
845.500	505.273	80.008	19.994	103.790	18.785	89.492	0.536
846.000	505.605	80.009	19.994	103.799	18.853	84.661	0.516
846.500	505.907	80.010	19.993	103.807	18.919	79.994	0.579
847.000	506.164	80.010	19.994	103.815	18.978	75.819	0.596
847.500	506.408	80.010	19.994	103.823	19.037	71.698	0.530
848.000	506.681	80.009	19.994	103.829	19.093	67.672	0.509
848.500	506.966	80.008	19.994	103.837	19.148	63.814	0.537
849.000	507.289	80.007	19.993	103.845	19.198	60.251	0.583
849.500	507.543	80.009	19.994	103.853	19.250	56.632	0.592
850.000	507.769	80.008	19.994	103.863	19.297	53.256	0.529
850.500	508.064	80.009	19.994	103.868	19.339	50.329	0.501
851.000	508.331	80.009	19.994	103.869	19.379	47.467	0.541
851.500	508.625	80.008	19.995	103.870	19.427	44.057	0.562
852.000	508.885	80.008	19.994	103.870	19.465	41.345	0.558
852.500	509.153	80.009	19.995	103.867	19.497	39.075	0.540
853.000	509.438	80.009	19.995	103.870	19.533	36.567	0.541
853.500	509.709	80.008	19.994	103.875	19.569	34.036	0.555
854.000	509.971	80.010	19.994	103.881	19.599	31.918	0.544
854.500	510.277	80.007	19.994	103.885	19.628	29.825	0.550
855.000	510.539	80.008	19.995	103.885	19.656	27.880	0.568
855.500	510.838	80.008	19.993	103.887	19.684	25.878	0.565
856.000	511.054	80.008	19.994	103.886	19.707	24.233	0.538
856.500	511.374	80.009	19.994	103.886	19.729	22.693	0.525
857.000	511.597	80.008	19.994	103.883	19.755	20.838	0.539
857.500	511.910	80.009	19.994	103.885	19.777	19.305	0.539
858.000	512.115	80.008	19.995	103.882	19.795	18.048	0.527
858.500	512.403	80.008	19.995	103.883	19.812	16.846	0.506
859.000	512.655	80.008	19.995	103.879	19.828	15.673	0.517
859.500	512.968	80.008	19.994	103.882	19.846	14.424	0.553
860.000	513.217	80.008	19.996	103.886	19.859	13.481	0.564
860.500	513.512	80.009	19.994	103.889	19.874	12.451	0.553
861.000	513.786	80.008	19.995	103.888	19.886	11.576	0.556
861.500	514.021	80.007	19.995	103.889	19.898	10.757	0.539
862.000	514.325	80.007	19.994	103.884	19.909	9.987	0.524
862.500	514.582	80.007	19.995	103.876	19.921	9.118	0.550
863.000	514.877	80.007	19.994	103.871	19.927	8.709	0.557
863.500	515.130	80.007	19.995	103.864	19.934	8.192	0.550
864.000	515.411	80.007	19.995	103.862	19.942	7.642	0.541
864.500	515.666	80.008	19.995	103.861	19.949	7.130	0.535
865.000	515.936	80.007	19.995	103.862	19.952	6.892	0.531
865.500	516.228	80.007	19.994	103.861	19.958	6.465	0.543
866.000	516.480	80.006	19.995	103.859	19.965	6.002	0.553
866.500	516.743	80.007	19.994	103.855	19.970	5.608	0.530
867.000	517.008	80.007	19.995	103.850	19.974	5.334	0.521
867.500	517.296	80.007	19.995	103.849	19.980	4.937	0.541
868.000	517.559	80.007	19.995	103.844	19.980	4.905	0.552
868.500	517.802	80.008	19.995	103.839	19.985	4.567	0.529
869.000	518.050	80.007	19.994	103.835	19.986	4.471	0.498
869.500	518.391	80.006	19.995	103.833	19.991	4.117	0.540
870.000	518.628	80.007	19.994	103.827	19.992	4.099	0.584
870.500	518.901	80.008	19.995	103.825	19.995	3.855	0.544
871.000	519.126	80.006	19.994	103.824	19.999	3.602	0.504
871.500	519.440	80.008	19.995	103.821	19.999	3.555	0.518
872.000	519.718	80.007	19.995	103.821	20.001	3.450	0.565
872.500	519.945	80.008	19.995	103.819	20.003	3.324	0.548
873.000	520.180	80.008	19.994	103.818	20.006	3.093	0.484
873.500	520.503	80.008	19.995	103.815	20.006	3.089	0.510
874.000	520.737	80.008	19.994	103.814	20.005	3.140	0.557
874.500	521.017	80.008	19.993	103.810	20.008	2.925	0.536
875.000	521.331	80.008	19.993	103.808	20.011	2.737	0.554
875.500	521.575	80.008	19.996	103.802	20.011	2.752	0.576
876.001	521.807	80.008	19.995	103.797	20.010	2.840	0.517
876.500	522.048	80.010	19.994	103.792	20.010	2.831	0.475
877.000	522.338	80.010	19.995	103.787	20.009	2.866	0.502
877.500	522.612	80.010	19.993	103.774	20.014	2.498	0.547
878.000	522.865	80.009	19.994	103.765	20.015	2.475	0.545
878.500	523.144	80.009	19.993	103.756	20.014	2.556	0.530
879.000	523.401	80.011	19.994	103.746	20.013	2.609	0.534
879.500	523.648	80.011	19.994	103.731	20.015	2.483	0.520
880.000	523.917	80.010	19.994	103.717	20.015	2.439	0.510
880.500	524.171	80.010	19.994	103.700	20.013	2.583	0.519
881.000	524.443	80.010	19.993	103.680	20.015	2.427	0.524
881.500	524.684	80.010	19.993	103.660	20.017	2.328	0.520
882.000	524.969	80.010	19.993	103.644	20.015	2.457	0.520
882.501	525.235	80.009	19.993	103.630	20.017	2.350	0.539
883.001	525.485	80.010	19.994	103.619	20.019	2.150	0.534
883.500	525.750	80.011	19.994	103.615	20.020	2.070	0.515
884.000	526.064	80.010	19.994	103.615	20.020	2.076	0.547
884.500	526.276	80.008	19.993	103.615	20.022	1.987	0.552
885.000	526.542	80.011	19.993	103.623	20.022	1.991	0.502
885.500	526.798	80.011	19.993	103.634	20.019	2.179	0.500
886.000	527.059	80.010	19.993	103.643	20.019	2.199	0.520
886.500	527.348	80.012	19.993	103.654	20.021	2.047	0.534
887.000	527.590	80.010	19.993	103.669	20.017	2.347	0.541
887.500	527.801	80.010	19.993	103.683	20.023	1.927	0.492
888.000	528.099	80.010	19.994	103.700	20.019	2.146	0.481
888.500	528.342	80.010	19.993	103.715	20.021	2.016	0.525
889.000	528.631	80.011	19.994	103.729	20.023	1.888	0.536
889.500	528.871	80.010	19.993	103.738	20.022	1.997	0.531
890.000	529.127	80.010	19.994	103.745	20.022	1.960	0.513
890.500	529.370	80.010	19.992	103.753	20.024	1.847	0.497
891.000	529.654	80.009	19.995	103.761	20.020	2.111	0.513
891.500	529.903	80.010	19.995	103.769	20.024	1.824	0.530
892.000	530.161	80.010	19.995	103.776	20.023	1.874	0.519
892.500	530.401	80.010	19.994	103.782	20.022	1.944	0.502
893.000	530.634	80.009	19.995	103.787	20.024	1.841	0.486
893.500	530.894	80.010	19.993	103.790	20.020	2.123	0.483
894.000	531.157	80.010	19.994	103.795	20.023	1.896	0.508
894.500	531.412	80.009	19.994	103.802	20.027	1.620	0.521
895.000	531.659	80.010	19.993	103.809	20.024	1.791	0.510
895.500	531.911	80.011	19.993	103.813	20.025	1.736	0.500
896.000	532.213	80.010	19.993	103.815	20.023	1.886	0.526
896.500	532.453	80.010	19.993	103.818	20.026	1.660	0.548
897.000	532.707	80.011	19.994	103.817	20.021	2.010	0.518
897.500	532.940	80.010	19.993	103.817	20.020	2.084	0.491
898.000	533.199	80.010	19.993	103.817	20.022	1.946	0.489
898.500	533.442	80.011	19.996	103.820	20.026	1.692	0.497
899.000	533.684	80.010	19.994	103.823	20.021	2.059	0.494
899.500	533.921	80.010	19.994	103.828	20.021	2.020	0.482
900.000	534.171	80.011	19.994	103.828	20.022	1.985	0.483
900.500	534.421	80.011	19.994	103.828	20.022	1.966	0.494
901.000	534.663	80.010	19.993	103.828	20.026	1.647	0.497
901.500	534.952	80.011	19.993	103.824	20.027	1.631	0.511
902.000	535.161	80.012	19.993	103.820	20.023	1.872	0.514
902.500	535.472	80.012	19.993	103.820	20.024	1.789	0.509
903.000	535.689	80.013	19.994	103.820	20.020	2.125	0.524
903.500	535.946	80.012	19.993	103.821	20.022	1.974	0.501
904.000	536.200	80.011	19.992	103.822	20.024	1.808	0.493
904.500	536.433	80.012	19.992	103.823	20.025	1.719	0.499
905.000	536.672	80.013	19.993	103.823	20.025	1.779	0.480
905.500	536.905	80.011	19.993	103.823	20.023	1.894	0.473
906.000	537.141	80.012	19.992	103.821	20.024	1.799	0.470
906.500	537.410	80.013	19.993	103.821	20.023	1.896	0.487
907.000	537.671	80.012	19.994	103.823	20.025	1.738	0.517
907.500	537.901	80.012	19.992	103.825	20.024	1.820	0.511
908.000	538.136	80.012	19.993	103.832	20.024	1.830	0.478
908.500	538.383	80.012	19.992	103.836	20.027	1.637	0.474
909.000	538.655	80.013	19.993	103.838	20.021	2.061	0.500
909.500	538.859	80.012	19.993	103.837	20.023	1.902	0.497
910.000	539.136	80.011	19.993	103.840	20.025	1.783	0.479
910.500	539.388	80.012	19.992	103.837	20.025	1.767	0.505
911.000	539.613	80.012	19.992	103.838	20.024	1.837	0.503
911.500	539.847	80.011	19.992	103.838	20.024	1.793	0.467
912.000	540.114	80.010	19.993	103.840	20.023	1.911	0.480
912.500	540.379	80.011	19.993	103.835	20.024	1.816	0.517
913.000	540.612	80.010	19.992	103.835	20.024	1.818	0.515
913.500	540.834	80.011	19.993	103.836	20.026	1.690	0.476
914.000	541.128	80.010	19.993	103.841	20.027	1.612	0.485
914.500	541.356	80.010	19.993	103.843	20.024	1.839	0.519
915.000	541.614	80.010	19.993	103.844	20.024	1.816	0.504
915.501	541.885	80.010	19.992	103.844	20.025	1.725	0.508
916.000	542.103	80.010	19.992	103.841	20.024	1.851	0.509
916.500	542.393	80.009	19.993	103.834	20.023	1.902	0.498
917.000	542.660	80.009	19.992	103.833	20.024	1.806	0.533
917.500	542.885	80.009	19.993	103.834	20.026	1.659	0.525
918.000	543.144	80.010	19.994	103.833	20.024	1.818	0.488
918.500	543.415	80.010	19.993	103.838	20.027	1.639	0.507
919.001	543.653	80.010	19.994	103.843	20.028	1.511	0.519
919.501	543.943	80.010	19.993	103.844	20.023	1.884	0.519
920.000	544.172	80.008	19.993	103.842	20.025	1.767	0.524
920.500	544.443	80.009	19.993	103.842	20.023	1.867	0.509
921.000	544.710	80.008	19.993	103.837	20.027	1.616	0.519
921.500	544.945	80.008	19.993	103.833	20.029	1.484	0.520
922.000	545.202	80.009	19.992	103.830	20.027	1.587	0.497
922.500	545.470	80.009	19.993	103.830	20.024	1.822	0.509
923.000	545.725	80.009	19.994	103.831	20.029	1.474	0.524
923.500	545.991	80.009	19.993	103.831	20.028	1.567	0.522
924.000	546.242	80.008	19.994	103.831	20.026	1.662	0.519
924.500	546.514	80.008	19.993	103.832	20.027	1.602	0.520
925.000	546.815	80.009	19.993	103.834	20.025	1.761	0.548
925.500	547.030	80.008	19.994	103.832	20.023	1.911	0.544
926.000	547.352	80.008	19.994	103.832	20.025	1.725	0.527
926.500	547.572	80.009	19.994	103.832	20.025	1.732	0.540
927.000	547.859	80.008	19.994	103.834	20.028	1.518	0.524
927.500	548.132	80.009	19.993	103.832	20.027	1.579	0.534
928.000	548.374	80.009	19.993	103.832	20.026	1.658	0.538
928.500	548.632	80.008	19.994	103.831	20.025	1.744	0.507
929.000	548.901	80.009	19.993	103.829	20.025	1.773	0.514
929.500	549.158	80.007	19.994	103.827	20.026	1.670	0.526
930.000	549.457	80.009	19.994	103.827	20.026	1.693	0.541
930.500	549.732	80.009	19.994	103.826	20.028	1.549	0.565
931.000	549.996	80.009	19.994	103.826	20.028	1.569	0.557
931.500	550.251	80.009	19.995	103.827	20.027	1.579	0.529
932.000	550.506	80.008	19.994	103.830	20.026	1.682	0.515
932.500	550.784	80.008	19.994	103.832	20.026	1.695	0.521
933.000	551.041	80.008	19.993	103.832	20.027	1.592	0.534
933.500	551.325	80.009	19.993	103.831	20.029	1.479	0.538
934.000	551.579	80.009	19.995	103.831	20.029	1.481	0.539
934.500	551.848	80.009	19.995	103.827	20.025	1.744	0.530
935.000	552.125	80.009	19.994	103.825	20.027	1.635	0.535
935.500	552.364	80.009	19.994	103.824	20.027	1.575	0.531
936.000	552.642	80.009	19.994	103.824	20.026	1.709	0.516
936.500	552.917	80.009	19.994	103.824	20.028	1.546	0.535
937.000	553.169	80.009	19.993	103.823	20.026	1.670	0.540
937.500	553.444	80.009	19.995	103.823	20.026	1.695	0.527
938.000	553.693	80.009	19.994	103.823	20.026	1.656	0.526
938.500	553.950	80.008	19.994	103.822	20.027	1.618	0.515
939.000	554.243	80.011	19.993	103.821	20.027	1.577	0.528
939.500	554.500	80.009	19.993	103.821	20.030	1.419	0.550
940.001	554.778	80.010	19.994	103.820	20.025	1.760	0.543
940.500	555.073	80.010	19.994	103.820	20.031	1.307	0.554
941.000	555.310	80.009	19.994	103.820	20.029	1.476	0.552
941.500	555.573	80.009	19.994	103.820	20.026	1.697	0.516
942.000	555.858	80.009	19.994	103.820	20.026	1.647	0.525
942.500	556.136	80.008	19.994	103.819	20.027	1.635	0.556
943.000	556.365	80.009	19.994	103.819	20.027	1.608	0.535
943.500	556.646	80.009	19.993	103.818	20.027	1.596	0.508
944.000	556.884	80.009	19.995	103.819	20.027	1.596	0.514
944.500	557.219	80.009	19.994	103.819	20.027	1.612	0.546
945.000	557.465	80.010	19.993	103.820	20.027	1.590	0.577
945.500	557.711	80.008	19.994	103.820	20.026	1.653	0.536
946.000	557.989	80.009	19.993	103.821	20.026	1.701	0.507
946.500	558.253	80.008	19.994	103.820	20.028	1.509	0.533
947.000	558.489	80.009	19.994	103.820	20.027	1.594	0.521
947.500	558.775	80.009	19.994	103.820	20.028	1.526	0.511
948.000	559.051	80.009	19.993	103.820	20.028	1.520	0.542
948.500	559.314	80.010	19.994	103.821	20.029	1.503	0.550
949.000	559.559	80.008	19.993	103.823	20.027	1.575	0.523
949.500	559.844	80.009	19.994	103.825	20.029	1.503	0.519
950.000	560.101	80.008	19.994	103.825	20.028	1.544	0.536
950.500	560.352	80.007	19.994	103.825	20.024	1.791	0.525
951.000	560.638	80.009	19.996	103.823	20.025	1.736	0.522
951.501	560.897	80.008	19.997	103.822	20.029	1.482	0.541
952.000	561.156	80.009	19.994	103.820	20.028	1.557	0.532
952.500	561.436	80.008	19.997	103.820	20.028	1.526	0.529
953.000	561.678	80.008	19.995	103.820	20.031	1.312	0.530
953.500	561.959	80.008	19.996	103.820	20.027	1.575	0.522
954.000	562.224	80.009	19.995	103.819	20.031	1.322	0.535
954.500	562.523	80.008	19.995	103.819	20.030	1.398	0.555
955.000	562.747	80.008	19.994	103.819	20.030	1.425	0.544
955.500	563.036	80.008	19.995	103.821	20.027	1.608	0.519
956.000	563.268	80.008	19.994	103.823	20.030	1.379	0.517
956.500	563.528	80.008	19.995	103.825	20.030	1.392	0.506
957.000	563.787	80.009	19.994	103.825	20.030	1.408	0.506
957.500	564.052	80.008	19.994	103.826	20.030	1.386	0.522
958.000	564.295	80.009	19.994	103.825	20.030	1.385	0.516
958.500	564.560	80.009	19.995	103.824	20.028	1.511	0.508
959.000	564.854	80.010	19.995	103.822	20.029	1.453	0.534
959.500	565.092	80.010	19.994	103.823	20.031	1.320	0.546
960.000	565.373	80.010	19.996	103.824	20.033	1.196	0.525
960.500	565.636	80.010	19.995	103.824	20.030	1.367	0.531
961.000	565.887	80.009	19.996	103.826	20.030	1.410	0.529
961.500	566.138	80.010	19.995	103.829	20.029	1.441	0.508
962.000	566.407	80.010	19.995	103.828	20.031	1.347	0.511
962.500	566.670	80.011	19.995	103.826	20.034	1.081	0.526
963.000	566.940	80.012	19.995	103.830	20.032	1.275	0.533
963.500	567.166	80.011	19.995	103.832	20.030	1.386	0.515
964.000	567.456	80.011	19.994	103.834	20.028	1.517	0.506
964.500	567.714	80.010	19.995	103.839	20.029	1.472	0.532
965.000	567.956	80.010	19.994	103.845	20.027	1.593	0.524
965.500	568.248	80.009	19.995	103.843	20.029	1.482	0.517
966.001	568.518	80.010	19.995	103.838	20.030	1.373	0.548
966.501	568.752	80.010	19.994	103.834	20.029	1.476	0.533
967.000	569.030	80.010	19.994	103.830	20.033	1.159	0.508
967.500	569.301	80.010	19.994	103.829	20.031	1.311	0.531
968.000	569.601	80.011	19.995	103.832	20.031	1.299	0.560
968.500	569.835	80.010	19.994	103.836	20.031	1.342	0.552
969.000	570.085	80.010	19.993	103.840	20.030	1.418	0.509
969.500	570.390	80.010	19.994	103.843	20.031	1.340	0.519
970.000	570.652	80.011	19.994	103.841	20.031	1.291	0.561
970.500	570.881	80.009	19.994	103.835	20.028	1.527	0.529
971.000	571.193	80.011	19.994	103.832	20.030	1.400	0.516
971.500	571.430	80.011	19.993	103.829	20.031	1.346	0.545
972.000	571.689	80.010	19.993	103.824	20.034	1.130	0.522
972.500	571.935	80.011	19.994	103.824	20.027	1.598	0.501
973.000	572.206	80.010	19.993	103.824	20.030	1.423	0.511
973.500	572.472	80.009	19.994	103.825	20.028	1.550	0.527
974.000	572.758	80.011	19.993	103.828	20.028	1.515	0.544
974.500	573.008	80.010	19.994	103.828	20.030	1.429	0.544
975.000	573.250	80.009	19.992	103.829	20.028	1.519	0.514
975.500	573.518	80.010	19.994	103.833	20.029	1.483	0.501
976.001	573.833	80.010	19.994	103.836	20.026	1.678	0.547
976.501	574.131	80.009	19.994	103.834	20.030	1.417	0.598
977.000	574.375	80.010	19.993	103.834	20.029	1.497	0.577
977.500	574.639	80.010	19.993	103.835	20.030	1.408	0.525
978.000	574.917	80.010	19.994	103.834	20.029	1.464	0.525
978.500	575.176	80.009	19.993	103.831	20.032	1.276	0.539
979.000	575.429	80.010	19.993	103.831	20.032	1.283	0.524
979.500	575.743	80.011	19.993	103.836	20.030	1.367	0.540
980.000	575.992	80.010	19.994	103.838	20.030	1.400	0.565
980.500	576.232	80.010	19.992	103.840	20.029	1.437	0.526
981.000	576.523	80.010	19.994	103.843	20.029	1.464	0.510
981.500	576.782	80.011	19.993	103.847	20.030	1.363	0.540
982.000	577.034	80.010	19.993	103.844	20.030	1.375	0.530
982.500	577.344	80.010	19.992	103.843	20.032	1.244	0.537
983.000	577.580	80.011	19.994	103.843	20.029	1.454	0.554
983.500	577.828	80.011	19.994	103.843	20.031	1.355	0.515
984.000	578.122	80.011	19.993	103.841	20.033	1.209	0.513
984.500	578.354	80.011	19.993	103.839	20.032	1.275	0.534
985.000	578.642	80.011	19.993	103.840	20.032	1.268	0.523
985.500	578.886	80.012	19.993	103.835	20.033	1.190	0.526
986.000	579.131	80.011	19.994	103.829	20.030	1.367	0.511
986.500	579.400	80.011	19.993	103.827	20.029	1.472	0.501
987.000	579.648	80.012	19.992	103.827	20.031	1.355	0.515
987.500	579.937	80.012	19.993	103.828	20.031	1.299	0.527
988.000	580.192	80.011	19.992	103.833	20.033	1.184	0.541
988.500	580.449	80.012	19.992	103.835	20.031	1.349	0.528
989.000	580.685	80.011	19.994	103.837	20.032	1.225	0.503
989.500	580.972	80.011	19.993	103.837	20.031	1.347	0.508
990.000	581.207	80.012	19.992	103.834	20.035	1.071	0.523
990.500	581.488	80.012	19.993	103.829	20.033	1.184	0.519
991.000	581.747	80.012	19.993	103.828	20.028	1.505	0.528
991.500	581.983	80.012	19.992	103.826	20.030	1.388	0.517
992.000	582.286	80.011	19.994	103.824	20.031	1.336	0.517
992.500	582.514	80.012	19.993	103.824	20.032	1.231	0.535
993.000	582.794	80.010	19.993	103.824	20.032	1.256	0.520
993.500	583.041	80.010	19.992	103.824	20.030	1.379	0.518
994.001	583.309	80.010	19.993	103.825	20.030	1.423	0.521
994.501	583.562	80.010	19.994	103.827	20.031	1.312	0.518
995.000	583.789	80.010	19.993	103.827	20.032	1.235	0.501
995.500	584.052	80.011	19.993	103.827	20.032	1.252	0.486
996.000	584.358	80.009	19.993	103.828	20.032	1.270	0.530
996.500	584.600	80.011	19.994	103.829	20.031	1.361	0.558
997.000	584.868	80.010	19.993	103.826	20.032	1.281	0.529
997.500	585.101	80.010	19.994	103.825	20.030	1.429	0.506
998.000	585.376	80.009	19.993	103.826	20.031	1.359	0.504
998.500	585.614	80.010	19.995	103.825	20.029	1.460	0.510
999.000	585.912	80.010	19.994	103.824	20.030	1.390	0.524
999.500	586.148	80.009	19.993	103.827	20.030	1.365	0.535
1000.000	586.414	80.010	19.993	103.827	20.030	1.386	0.518
1000.500	586.668	80.010	19.992	103.831	20.032	1.272	0.511
1001.000	586.931	80.009	19.993	103.834	20.033	1.155	0.519
1001.500	587.190	80.009	19.993	103.834	20.033	1.171	0.520
1002.000	587.463	80.010	19.992	103.833	20.033	1.163	0.527
1002.500	587.701	80.010	19.994	103.833	20.033	1.198	0.521
1003.000	587.948	80.009	19.993	103.833	20.032	1.244	0.498
1003.500	588.235	80.008	19.993	103.831	20.033	1.207	0.509
1004.000	588.470	80.010	19.993	103.833	20.033	1.186	0.528
1004.500	588.727	80.010	19.993	103.836	20.031	1.347	0.507
1005.000	588.964	80.010	19.993	103.836	20.031	1.338	0.493
1005.500	589.255	80.011	19.993	103.833	20.034	1.139	0.511
1006.001	589.500	80.010	19.993	103.832	20.034	1.130	0.532
1006.501	589.738	80.011	19.993	103.830	20.034	1.085	0.509
1007.000	590.001	80.010	19.993	103.827	20.031	1.326	0.492
1007.500	590.296	80.010	19.994	103.828	20.031	1.316	0.529
1008.000	590.530	80.009	19.994	103.830	20.032	1.231	0.544
1008.500	590.780	80.010	19.993	103.832	20.031	1.316	0.507
1009.000	591.045	80.010	19.993	103.833	20.029	1.472	0.500
1009.500	591.298	80.010	19.993	103.830	20.032	1.240	0.517
1010.000	591.549	80.010	19.993	103.827	20.032	1.268	0.511
1010.500	591.793	80.010	19.993	103.825	20.032	1.239	0.499
1011.000	592.074	80.010	19.995	103.823	20.031	1.334	0.510
1011.500	592.313	80.011	19.994	103.823	20.031	1.340	0.523
1012.001	592.556	80.009	19.993	103.826	20.031	1.303	0.501
1012.501	592.807	80.009	19.993	103.832	20.033	1.180	0.488
1013.000	593.073	80.009	19.994	103.835	20.030	1.380	0.506
1013.500	593.334	80.010	19.994	103.837	20.031	1.355	0.522
1014.000	593.605	80.011	19.993	103.836	20.031	1.340	0.529
1014.500	593.847	80.011	19.994	103.833	20.031	1.336	0.523
1015.000	594.122	80.010	19.993	103.831	20.037	0.918	0.515
1015.500	594.358	80.010	19.993	103.829	20.030	1.396	0.514
1016.000	594.626	80.009	19.994	103.828	20.035	1.032	0.508
1016.501	594.919	80.009	19.994	103.827	20.033	1.170	0.533
1017.001	595.159	80.010	19.994	103.828	20.033	1.184	0.547
1017.500	595.379	80.010	19.994	103.824	20.033	1.167	0.496
1018.000	595.650	80.010	19.994	103.824	20.030	1.404	0.475
1018.500	595.877	80.010	19.994	103.822	20.030	1.410	0.494
1019.000	596.141	80.009	19.993	103.824	20.033	1.219	0.494
1019.500	596.427	80.010	19.994	103.827	20.032	1.242	0.521
1020.000	596.654	80.009	19.994	103.830	20.033	1.198	0.532
1020.500	596.909	80.010	19.994	103.830	20.032	1.235	0.498
1021.000	597.168	80.010	19.994	103.830	20.031	1.316	0.498
1021.500	597.435	80.010	19.994	103.828	20.033	1.198	0.520
1022.000	597.688	80.010	19.993	103.826	20.030	1.388	0.523
1022.500	597.939	80.011	19.994	103.823	20.033	1.211	0.512
1023.000	598.189	80.010	19.994	103.821	20.032	1.285	0.503
1023.500	598.435	80.010	19.994	103.821	20.032	1.268	0.499
1024.001	598.720	80.009	19.994	103.821	20.034	1.087	0.514
1024.500	598.950	80.009	19.994	103.821	20.032	1.258	0.523
1025.000	599.176	80.010	19.993	103.822	20.033	1.174	0.485
1025.500	599.435	80.010	19.994	103.822	20.033	1.198	0.470
1026.000	599.733	80.009	19.995	103.821	20.031	1.359	0.521
1026.500	599.985	80.009	19.993	103.821	20.031	1.353	0.554
1027.000	600.233	80.009	19.993	103.820	20.030	1.419	0.525
1027.500	600.472	80.010	19.994	103.821	20.033	1.194	0.493
1028.000	600.721	80.008	19.994	103.821	20.031	1.324	0.488
1028.501	600.978	80.009	19.993	103.821	20.033	1.192	0.497
1029.001	601.259	80.010	19.993	103.824	20.031	1.338	0.522
1029.500	601.471	80.010	19.994	103.824	20.033	1.180	0.515
1030.000	601.740	80.009	19.995	103.823	20.035	1.017	0.487
1030.500	601.969	80.010	19.996	103.824	20.035	1.071	0.490
1031.000	602.215	80.010	19.996	103.825	20.035	1.065	0.487
1031.500	602.465	80.009	19.996	103.822	20.033	1.161	0.485
1032.000	602.715	80.008	19.995	103.823	20.035	1.054	0.498
1032.500	602.972	80.010	19.994	103.825	20.035	1.015	0.504
1033.000	603.243	80.009	19.995	103.823	20.032	1.275	0.518
1033.500	603.485	80.009	19.994	103.823	20.032	1.227	0.520
1034.000	603.726	80.009	19.994	103.823	20.032	1.227	0.498
1034.501	603.982	80.009	19.995	103.821	20.033	1.176	0.490
1035.001	604.222	80.009	19.994	103.820	20.033	1.200	0.497
1035.500	604.450	80.009	19.995	103.822	20.032	1.258	0.482
1036.000	604.733	80.009	19.994	103.823	20.034	1.106	0.489
1036.500	604.928	80.011	19.994	103.823	20.033	1.161	0.494
1037.000	605.238	80.010	19.994	103.824	20.030	1.418	0.491
1037.500	605.471	80.010	19.994	103.823	20.035	1.075	0.524
1038.000	605.741	80.011	19.993	103.820	20.031	1.320	0.523
1038.500	605.995	80.010	19.994	103.819	20.032	1.246	0.514
1039.000	606.237	80.009	19.993	103.819	20.033	1.153	0.510
1039.501	606.447	80.009	19.994	103.819	20.035	1.069	0.474
1040.001	606.708	80.010	19.994	103.820	20.032	1.289	0.461
1040.500	606.967	80.009	19.994	103.821	20.035	1.066	0.495
1041.000	607.245	80.009	19.995	103.821	20.036	1.005	0.529
1041.500	607.496	80.010	19.995	103.822	20.035	1.050	0.533
1042.000	607.714	80.010	19.994	103.823	20.035	1.030	0.499
1042.501	608.012	80.010	19.992	103.822	20.033	1.168	0.493
1043.001	608.243	80.011	19.993	103.825	20.034	1.112	0.522
1043.500	608.467	80.010	19.992	103.825	20.033	1.161	0.492
1044.000	608.761	80.010	19.993	103.825	20.035	1.030	0.486
1044.500	608.992	80.011	19.994	103.825	20.035	1.050	0.522
1045.001	609.253	80.010	19.993	103.825	20.034	1.085	0.508
1045.501	609.489	80.011	19.993	103.825	20.036	0.992	0.494
1046.000	609.739	80.011	19.994	103.827	20.035	1.071	0.491
1046.500	610.002	80.010	19.993	103.831	20.035	1.019	0.500
1047.000	610.252	80.012	19.994	103.834	20.032	1.252	0.513
1047.500	610.490	80.010	19.993	103.837	20.034	1.133	0.500
1048.000	610.729	80.011	19.994	103.839	20.035	1.011	0.482
1048.500	610.979	80.012	19.992	103.836	20.032	1.227	0.483
1049.000	611.254	80.009	19.994	103.831	20.031	1.308	0.507
1049.500	611.494	80.009	19.993	103.829	20.031	1.332	0.520
1050.000	611.729	80.009	19.993	103.828	20.034	1.124	0.495
1050.500	612.004	80.010	19.993	103.830	20.034	1.137	0.493
1051.000	612.250	80.010	19.994	103.832	20.030	1.371	0.515
1051.500	612.491	80.010	19.995	103.833	20.030	1.408	0.503
1052.000	612.752	80.010	19.993	103.832	20.035	1.060	0.494
1052.500	613.009	80.009	19.994	103.829	20.032	1.281	0.510
1053.000	613.247	80.011	19.995	103.823	20.033	1.163	0.507
1053.501	613.509	80.010	19.994	103.821	20.033	1.161	0.498
1054.001	613.769	80.009	19.994	103.820	20.033	1.215	0.511
1054.501	614.032	80.009	19.993	103.821	20.032	1.235	0.522
1055.001	614.267	80.009	19.994	103.821	20.032	1.268	0.511
1055.500	614.560	80.010	19.995	103.822	20.028	1.548	0.513
1056.000	614.773	80.008	19.994	103.824	20.032	1.260	0.516
1056.500	615.044	80.010	19.994	103.824	20.034	1.135	0.495
1057.000	615.291	80.010	19.994	103.823	20.033	1.213	0.501
1057.500	615.565	80.010	19.995	103.823	20.033	1.194	0.519
1058.000	615.802	80.010	19.994	103.822	20.031	1.308	0.516
1058.500	616.051	80.009	19.994	103.821	20.032	1.252	0.499
1059.000	616.327	80.009	19.995	103.822	20.029	1.435	0.506
1059.501	616.579	80.009	19.994	103.822	20.030	1.375	0.526
1060.001	616.867	80.009	19.994	103.824	20.031	1.349	0.534
1060.500	617.084	80.010	19.994	103.824	20.032	1.244	0.523
1061.000	617.318	80.008	19.993	103.824	20.031	1.338	0.478
1061.500	617.559	80.009	19.994	103.823	20.032	1.283	0.463
1062.000	617.813	80.009	19.993	103.824	20.032	1.262	0.486
1062.500	618.057	80.010	19.993	103.824	20.032	1.229	0.497
1063.000	618.289	80.009	19.993	103.828	20.033	1.190	0.487
1063.500	618.573	80.011	19.994	103.829	20.034	1.081	0.495
1064.001	618.837	80.011	19.993	103.830	20.033	1.184	0.532
1064.501	619.056	80.010	19.993	103.831	20.033	1.192	0.516
1065.001	619.315	80.012	19.993	103.829	20.030	1.400	0.480
1065.501	619.576	80.010	19.993	103.825	20.032	1.235	0.499
1066.001	619.878	80.011	19.992	103.824	20.032	1.252	0.542
1066.500	620.129	80.010	19.993	103.823	20.034	1.098	0.558
1067.000	620.380	80.011	19.993	103.822	20.035	1.019	0.527
1067.500	620.625	80.012	19.992	103.824	20.036	0.984	0.499
1068.001	620.838	80.012	19.994	103.824	20.033	1.172	0.477
1068.501	621.082	80.013	19.993	103.827	20.033	1.184	0.457
1069.000	621.366	80.014	19.992	103.826	20.028	1.524	0.492
1069.501	621.569	80.012	19.993	103.826	20.037	0.869	0.507
1070.001	621.838	80.012	19.993	103.824	20.032	1.248	0.479
1070.500	622.138	80.012	19.992	103.823	20.032	1.221	0.521
1071.001	622.340	80.012	19.995	103.820	20.032	1.242	0.536
1071.501	622.587	80.013	19.995	103.821	20.029	1.487	0.475
1072.000	622.861	80.012	19.994	103.821	20.030	1.386	0.485
1072.500	623.111	80.012	19.994	103.821	20.029	1.437	0.522
1073.000	623.350	80.012	19.993	103.821	20.032	1.287	0.506
1073.500	623.609	80.012	19.993	103.821	20.032	1.252	0.494
1074.000	623.870	80.012	19.993	103.818	20.030	1.398	0.510
1074.500	624.113	80.012	19.993	103.818	20.030	1.412	0.512
1075.000	624.353	80.011	19.993	103.818	20.033	1.161	0.493
1075.500	624.619	80.011	19.992	103.818	20.033	1.184	0.494
1076.000	624.862	80.012	19.993	103.819	20.036	0.943	0.508
1076.500	625.129	80.011	19.993	103.819	20.034	1.149	0.509
1077.001	625.384	80.011	19.993	103.819	20.029	1.470	0.516
1077.501	625.648	80.011	19.993	103.820	20.029	1.497	0.521
1078.000	625.881	80.010	19.993	103.820	20.031	1.314	0.508
1078.501	626.141	80.009	19.993	103.822	20.032	1.277	0.495
1079.001	626.406	80.010	19.993	103.822	20.032	1.229	0.509
1079.501	626.638	80.010	19.993	103.822	20.033	1.217	0.511
1080.000	626.874	80.010	19.994	103.823	20.031	1.355	0.483
1080.500	627.159	80.009	19.993	103.822	20.035	1.073	0.494
1081.000	627.403	80.010	19.993	103.820	20.034	1.124	0.525
1081.500	627.667	80.010	19.993	103.820	20.034	1.149	0.519
1082.000	627.914	80.009	19.994	103.820	20.035	1.052	0.510
1082.500	628.164	80.010	19.993	103.819	20.034	1.085	0.504
1083.000	628.400	80.010	19.993	103.821	20.034	1.089	0.491
1083.500	628.718	80.010	19.994	103.822	20.034	1.100	0.520
1084.000	628.923	80.010	19.994	103.826	20.028	1.507	0.538
1084.501	629.159	80.008	19.993	103.828	20.038	0.811	0.482
1085.001	629.420	80.010	19.994	103.831	20.036	1.005	0.469
1085.500	629.638	80.010	19.992	103.830	20.034	1.099	0.487
1086.001	629.899	80.010	19.994	103.829	20.034	1.083	0.479
1086.501	630.141	80.010	19.993	103.826	20.035	1.030	0.491
1087.001	630.406	80.009	19.993	103.827	20.034	1.122	0.505
1087.501	630.661	80.010	19.993	103.824	20.033	1.209	0.513
1088.001	630.917	80.008	19.994	103.824	20.035	1.056	0.515
1088.501	631.163	80.010	19.995	103.825	20.034	1.087	0.506
1089.000	631.406	80.010	19.994	103.828	20.033	1.153	0.496
1089.500	631.701	80.011	19.995	103.829	20.033	1.206	0.514
1090.000	631.940	80.009	19.993	103.829	20.034	1.104	0.536
1090.500	632.221	80.010	19.993	103.829	20.034	1.116	0.527
1091.000	632.438	80.010	19.993	103.829	20.035	1.060	0.509
1091.500	632.681	80.011	19.994	103.826	20.032	1.248	0.480
1092.000	632.937	80.010	19.993	103.823	20.035	1.015	0.480
1092.500	633.199	80.009	19.994	103.823	20.034	1.126	0.509
1093.000	633.422	80.010	19.994	103.822	20.034	1.143	0.502
1093.500	633.685	80.011	19.993	103.822	20.037	0.906	0.485
1094.000	633.940	80.010	19.994	103.820	20.036	0.984	0.502
1094.500	634.208	80.010	19.994	103.823	20.034	1.099	0.520
1095.000	634.460	80.009	19.993	103.826	20.035	1.042	0.521
1095.500	634.732	80.010	19.993	103.831	20.037	0.929	0.522
1096.000	634.958	80.011	19.993	103.833	20.029	1.447	0.511
1096.500	635.252	80.011	19.994	103.833	20.036	1.001	0.509
1097.000	635.485	80.010	19.993	103.829	20.032	1.244	0.523
1097.500	635.718	80.010	19.994	103.826	20.035	1.009	0.496
1098.000	635.986	80.010	19.994	103.823	20.033	1.182	0.484
1098.500	636.280	80.010	19.994	103.824	20.031	1.301	0.532
1099.001	636.512	80.010	19.993	103.827	20.033	1.192	0.544
1099.501	636.750	80.010	19.993	103.832	20.033	1.172	0.498
1100.000	637.029	80.011	19.993	103.833	20.036	0.959	0.494
1100.500	637.281	80.011	19.992	103.831	20.032	1.237	0.525
1101.000	637.491	80.010	19.993	103.829	20.036	0.999	0.497
1101.500	637.743	80.010	19.993	103.829	20.031	1.301	0.462
1102.000	638.022	80.011	19.993	103.828	20.034	1.087	0.496
1102.500	638.251	80.010	19.993	103.829	20.036	0.988	0.519
1103.000	638.520	80.010	19.993	103.830	20.036	1.007	0.503
1103.500	638.782	80.011	19.993	103.832	20.033	1.204	0.515
1104.000	639.007	80.010	19.993	103.833	20.034	1.116	0.509
1104.501	639.280	80.010	19.992	103.834	20.031	1.301	0.492
1105.001	639.537	80.011	19.993	103.837	20.034	1.079	0.514
1105.500	639.757	80.010	19.993	103.840	20.034	1.141	0.504
1106.000	640.036	80.011	19.993	103.839	20.035	1.054	0.488
1106.500	640.300	80.010	19.993	103.835	20.034	1.139	0.521
1107.000	640.526	80.011	19.993	103.834	20.032	1.279	0.517
1107.500	640.763	80.011	19.992	103.828	20.034	1.116	0.477
1108.000	641.023	80.010	19.993	103.825	20.035	1.044	0.480
1108.500	641.248	80.009	19.993	103.826	20.034	1.132	0.491
1109.001	641.527	80.010	19.993	103.827	20.035	1.056	0.494
1109.501	641.776	80.010	19.992	103.825	20.034	1.139	0.516
1110.001	642.005	80.009	19.993	103.827	20.034	1.118	0.503
1110.500	642.268	80.010	19.993	103.828	20.032	1.244	0.485
1111.000	642.516	80.010	19.994	103.827	20.035	1.073	0.501
1111.500	642.776	80.008	19.993	103.826	20.032	1.246	0.510
1112.000	643.005	80.010	19.994	103.826	20.031	1.336	0.499
1112.500	643.260	80.009	19.993	103.825	20.035	1.069	0.487
1113.000	643.522	80.009	19.994	103.825	20.033	1.192	0.500
1113.500	643.748	80.009	19.993	103.827	20.030	1.404	0.502
1114.000	644.011	80.009	19.993	103.828	20.034	1.101	0.489
1114.501	644.340	80.009	19.994	103.830	20.034	1.104	0.541
1115.001	644.482	80.008	19.994	103.831	20.034	1.079	0.531
1115.500	644.730	80.009	19.994	103.831	20.030	1.375	0.430
1116.001	644.971	80.010	19.993	103.831	20.030	1.381	0.439
1116.501	645.246	80.009	19.996	103.830	20.035	1.015	0.502
1117.000	645.474	80.010	19.994	103.828	20.035	1.038	0.510
1117.500	645.737	80.009	19.994	103.827	20.031	1.301	0.497
1118.000	645.995	80.010	19.994	103.828	20.036	0.976	0.505
1118.500	646.208	80.009	19.993	103.830	20.035	1.036	0.496
1119.000	646.501	80.009	19.993	103.831	20.037	0.881	0.489
1119.500	646.759	80.009	19.994	103.832	20.037	0.929	0.528
1120.001	646.997	80.009	19.992	103.836	20.034	1.116	0.524
1120.501	647.282	80.010	19.994	103.836	20.036	1.001	0.510
1121.000	647.497	80.010	19.994	103.833	20.036	0.986	0.511
1121.500	647.762	80.010	19.994	103.833	20.032	1.254	0.490
1122.001	647.987	80.010	19.994	103.831	20.037	0.914	0.485
1122.501	648.212	80.009	19.993	103.827	20.034	1.120	0.470
1123.000	648.509	80.010	19.994	103.827	20.033	1.200	0.486
1123.500	648.728	80.010	19.993	103.828	20.035	1.056	0.519
1124.000	648.961	80.010	19.994	103.832	20.034	1.122	0.484
1124.500	649.221	80.010	19.993	103.835	20.034	1.101	0.472
1125.000	649.484	80.011	19.994	103.835	20.036	0.978	0.508
1125.500	649.723	80.010	19.994	103.834	20.036	0.962	0.513
1126.000	649.991	80.011	19.993	103.834	20.033	1.153	0.504
1126.500	650.245	80.010	19.992	103.833	20.034	1.112	0.514
1127.000	650.469	80.010	19.994	103.836	20.034	1.093	0.499
1127.500	650.742	80.010	19.993	103.838	20.034	1.128	0.488
1128.000	650.957	80.011	19.995	103.840	20.034	1.135	0.493
1128.500	651.228	80.010	19.992	103.844	20.036	0.995	0.487
1129.000	651.448	80.011	19.993	103.842	20.037	0.918	0.489
1129.500	651.712	80.012	19.993	103.837	20.036	0.939	0.487
1130.000	651.970	80.011	19.994	103.835	20.036	0.960	0.503
1130.500	652.240	80.010	19.993	103.834	20.036	0.997	0.525
1131.000	652.463	80.011	19.995	103.830	20.034	1.137	0.510
1131.500	652.695	80.010	19.994	103.831	20.035	1.027	0.473
1132.000	652.945	80.011	19.994	103.832	20.036	0.953	0.468
1132.501	653.218	80.010	19.994	103.839	20.037	0.929	0.502
1133.001	653.422	80.010	19.994	103.840	20.036	0.982	0.500
1133.500	653.724	80.010	19.995	103.840	20.036	0.961	0.492
1134.000	653.975	80.009	19.994	103.840	20.033	1.182	0.530
1134.500	654.204	80.011	19.994	103.839	20.036	0.955	0.517
1135.000	654.443	80.012	19.995	103.833	20.033	1.151	0.475
1135.500	654.722	80.010	19.994	103.830	20.035	1.048	0.493
1136.000	654.957	80.012	19.994	103.829	20.035	1.038	0.515
1136.500	655.182	80.011	19.994	103.827	20.037	0.883	0.487
1137.000	655.438	80.011	19.994	103.826	20.035	1.036	0.471
1137.500	655.688	80.009	19.994	103.826	20.036	0.968	0.494
1138.000	655.968	80.010	19.994	103.828	20.036	0.988	0.518
1138.501	656.170	80.010	19.994	103.830	20.037	0.920	0.506
1139.001	656.430	80.010	19.994	103.829	20.033	1.161	0.472
1139.501	656.696	80.010	19.994	103.829	20.037	0.926	0.494
1140.001	656.934	80.011	19.994	103.830	20.034	1.081	0.515
1140.500	657.158	80.011	19.995	103.828	20.037	0.916	0.483
1141.000	657.411	80.010	19.994	103.827	20.039	0.754	0.470
1141.500	657.601	80.012	19.995	103.826	20.036	0.992	0.460
1142.000	657.886	80.011	19.994	103.824	20.038	0.852	0.459
1142.500	658.129	80.010	19.994	103.823	20.037	0.883	0.501
1143.000	658.389	80.011	19.995	103.825	20.035	1.015	0.515
1143.500	658.642	80.011	19.995	103.824	20.037	0.887	0.508
1144.000	658.886	80.010	19.995	103.827	20.036	0.955	0.505
1144.501	659.118	80.011	19.995	103.833	20.035	1.015	0.486
1145.001	659.386	80.011	19.995	103.835	20.036	0.951	0.488
1145.501	659.617	80.010	19.994	103.833	20.038	0.809	0.500
1146.001	659.863	80.011	19.995	103.833	20.035	1.044	0.488
1146.501	660.091	80.011	19.995	103.832	20.037	0.879	0.475
1147.001	660.388	80.010	19.994	103.828	20.037	0.896	0.500
1147.500	660.628	80.011	19.993	103.827	20.033	1.157	0.531
1148.000	660.840	80.011	19.994	103.830	20.034	1.093	0.494
1148.500	661.132	80.011	19.993	103.834	20.039	0.770	0.478
1149.000	661.301	80.012	19.995	103.835	20.038	0.861	0.483
1149.500	661.557	80.011	19.994	103.835	20.038	0.822	0.444
1150.001	661.839	80.011	19.994	103.832	20.035	1.065	0.482
1150.501	662.071	80.011	19.994	103.830	20.033	1.188	0.526
1151.000	662.310	80.011	19.994	103.826	20.035	1.063	0.492
1151.500	662.523	80.010	19.995	103.825	20.034	1.095	0.461
1152.000	662.805	80.011	19.994	103.825	20.038	0.824	0.474
1152.500	663.037	80.010	19.994	103.826	20.035	1.071	0.505
1153.000	663.292	80.012	19.994	103.824	20.036	0.982	0.501
1153.500	663.579	80.011	19.993	103.826	20.034	1.089	0.514
1154.000	663.823	80.012	19.994	103.825	20.036	1.007	0.536
1154.500	664.057	80.013	19.994	103.826	20.037	0.894	0.504
1155.000	664.302	80.010	19.993	103.829	20.035	1.029	0.478
1155.500	664.583	80.012	19.992	103.833	20.034	1.145	0.502
1156.000	664.849	80.011	19.993	103.831	20.035	1.054	0.537
1156.500	665.064	80.012	19.994	103.830	20.038	0.844	0.514
1157.000	665.306	80.011	19.994	103.829	20.038	0.805	0.469
1157.500	665.567	80.011	19.993	103.828	20.039	0.745	0.480
1158.001	665.797	80.012	19.995	103.826	20.036	0.939	0.497
1158.501	666.056	80.011	19.993	103.825	20.037	0.931	0.490
1159.000	666.351	80.011	19.993	103.825	20.036	0.994	0.522
1159.500	666.577	80.010	19.994	103.823	20.036	0.976	0.538
1160.000	666.846	80.009	19.994	103.822	20.038	0.803	0.508
1160.500	667.083	80.010	19.993	103.820	20.036	0.951	0.500
1161.000	667.304	80.011	19.994	103.822	20.033	1.192	0.482
1161.500	667.607	80.010	19.994	103.824	20.039	0.774	0.492
1162.000	667.851	80.010	19.994	103.823	20.037	0.896	0.536
1162.500	668.107	80.010	19.993	103.823	20.038	0.834	0.523
1163.000	668.333	80.009	19.992	103.826	20.034	1.083	0.491
1163.500	668.566	80.009	19.992	103.824	20.035	1.015	0.471
1164.000	668.872	80.010	19.994	103.825	20.032	1.268	0.499
1164.500	669.124	80.010	19.994	103.826	20.033	1.159	0.548
1165.000	669.361	80.010	19.993	103.826	20.033	1.163	0.523
1165.500	669.645	80.009	19.993	103.825	20.032	1.231	0.505
1166.000	669.890	80.010	19.993	103.827	20.033	1.163	0.526
1166.500	670.135	80.009	19.994	103.826	20.032	1.285	0.510
1167.000	670.399	80.009	19.993	103.831	20.033	1.211	0.499
1167.500	670.643	80.010	19.992	103.835	20.034	1.087	0.508
1168.000	670.896	80.009	19.993	103.835	20.035	1.027	0.502
1168.500	671.180	80.009	19.993	103.839	20.034	1.120	0.517
1169.000	671.447	80.009	19.993	103.841	20.036	0.986	0.544
1169.500	671.671	80.010	19.994	103.836	20.036	0.996	0.521
1170.001	671.919	80.010	19.994	103.834	20.036	0.962	0.481
1170.501	672.217	80.010	19.993	103.837	20.036	0.964	0.509
1171.000	672.478	80.010	19.994	103.836	20.037	0.871	0.552
1171.501	672.706	80.011	19.994	103.835	20.034	1.130	0.524
1172.001	672.958	80.011	19.993	103.835	20.034	1.095	0.485
1172.500	673.209	80.010	19.993	103.837	20.037	0.924	0.492
1173.000	673.536	80.009	19.994	103.836	20.034	1.147	0.541
1173.500	673.731	80.010	19.993	103.833	20.037	0.922	0.550
1174.000	674.043	80.010	19.994	103.832	20.033	1.161	0.514
1174.500	674.226	80.011	19.993	103.832	20.036	0.953	0.501
1175.000	674.572	80.009	19.993	103.829	20.036	0.962	0.512
1175.500	675.041	80.010	19.993	103.827	20.034	1.085	0.672
1176.001	675.092	80.010	19.994	103.829	20.036	1.003	0.667
1176.501	675.375	80.011	19.993	103.835	20.035	1.067	0.427
1177.000	675.615	80.009	19.993	103.838	20.032	1.248	0.429
1177.501	675.861	80.010	19.994	103.840	20.037	0.906	0.505
1178.001	676.109	80.009	19.994	103.841	20.037	0.906	0.490
1178.500	676.387	80.010	19.994	103.839	20.033	1.174	0.510
1179.001	676.585	80.011	19.994	103.836	20.033	1.167	0.501
1179.501	676.858	80.010	19.993	103.834	20.036	0.941	0.473
1180.000	677.149	80.010	19.994	103.832	20.034	1.134	0.517
1180.500	677.383	80.010	19.993	103.831	20.034	1.122	0.545
1181.000	677.635	80.010	19.994	103.831	20.036	0.966	0.506
1181.500	677.923	80.011	19.994	103.833	20.035	1.077	0.513
1182.000	678.149	80.010	19.994	103.838	20.034	1.079	0.527
1182.500	678.461	80.010	19.993	103.837	20.034	1.120	0.526
1183.001	678.684	80.010	19.992	103.836	20.037	0.918	0.537
1183.501	678.946	80.010	19.993	103.835	20.036	0.968	0.510
1184.000	679.245	80.010	19.993	103.835	20.035	1.009	0.523
1184.500	679.459	80.010	19.993	103.831	20.034	1.089	0.537
1185.001	679.733	80.011	19.993	103.834	20.032	1.231	0.500
1185.501	679.961	80.009	19.993	103.834	20.035	1.077	0.495
1186.000	680.226	80.010	19.993	103.833	20.031	1.316	0.497
1186.500	680.478	80.010	19.993	103.832	20.031	1.297	0.504
1187.001	680.763	80.009	19.994	103.833	20.034	1.116	0.527
1187.501	681.010	80.009	19.993	103.833	20.030	1.429	0.535
1188.000	681.292	80.009	19.993	103.835	20.035	1.015	0.531
1188.500	681.558	80.010	19.994	103.838	20.033	1.212	0.538
1189.000	681.821	80.009	19.993	103.836	20.033	1.182	0.538
1189.500	682.062	80.009	19.992	103.835	20.036	1.000	0.516
1190.000	682.329	80.009	19.993	103.834	20.034	1.138	0.507
1190.501	682.608	80.007	19.991	103.834	20.033	1.186	0.527
1191.001	682.857	80.009	19.994	103.835	20.035	1.038	0.537
1191.500	683.078	80.010	19.995	103.839	20.035	1.023	0.499
1192.001	683.359	80.009	19.995	103.839	20.034	1.118	0.486
1192.501	683.572	80.008	19.994	103.838	20.033	1.178	0.498
1193.000	683.869	80.009	19.994	103.842	20.035	1.046	0.502
1193.500	684.063	80.008	19.994	103.844	20.033	1.159	0.501
1194.001	684.384	80.008	19.994	103.841	20.036	0.982	0.504
1194.501	684.627	80.008	19.993	103.841	20.034	1.101	0.539
1195.001	684.938	80.009	19.993	103.843	20.033	1.171	0.559
1195.500	685.180	80.009	19.993	103.842	20.032	1.235	0.553
1196.000	685.440	80.010	19.993	103.840	20.031	1.334	0.527
1196.500	685.686	80.009	19.992	103.837	20.031	1.348	0.504
1197.000	685.954	80.010	19.993	103.835	20.032	1.248	0.510
1197.500	686.191	80.009	19.993	103.835	20.032	1.235	0.510
1198.000	686.461	80.011	19.993	103.836	20.032	1.262	0.506
1198.500	686.721	80.009	19.993	103.838	20.032	1.231	0.518
1199.000	686.959	80.010	19.992	103.842	20.036	0.999	0.514
1199.501	687.232	80.010	19.993	103.845	20.037	0.933	0.505
1200.001	687.489	80.010	19.992	103.846	20.034	1.145	0.521
1200.500	687.721	80.011	19.994	103.847	20.034	1.141	0.510
1201.001	687.994	80.010	19.992	103.845	20.033	1.172	0.497
1201.501	688.227	80.010	19.994	103.840	20.033	1.176	0.505
1202.000	688.512	80.009	19.993	103.835	20.035	1.052	0.512
1202.501	688.754	80.011	19.994	103.830	20.031	1.293	0.523
1203.001	689.055	80.010	19.994	103.824	20.035	1.027	0.535
1203.501	689.327	80.011	19.993	103.824	20.034	1.085	0.558
1204.001	689.583	80.012	19.994	103.827	20.032	1.272	0.550
1204.501	689.814	80.010	19.994	103.830	20.035	1.069	0.507
1205.000	690.087	80.012	19.994	103.832	20.033	1.161	0.495
1205.500	690.364	80.012	19.994	103.837	20.033	1.176	0.527
1206.000	690.615	80.013	19.993	103.836	20.032	1.268	0.539
1206.500	690.853	80.011	19.994	103.835	20.031	1.305	0.509
1207.000	691.131	80.012	19.992	103.836	20.033	1.190	0.502
1207.500	691.382	80.012	19.992	103.839	20.033	1.207	0.523
1208.000	691.635	80.012	19.993	103.838	20.037	0.935	0.517
1208.500	691.910	80.012	19.994	103.840	20.035	1.048	0.516
1209.001	692.152	80.012	19.993	103.843	20.035	1.009	0.522
1209.501	692.398	80.012	19.993	103.841	20.035	1.065	0.502
1210.000	692.647	80.011	19.994	103.835	20.037	0.904	0.492
1210.501	692.914	80.011	19.994	103.832	20.035	1.075	0.505
1211.001	693.189	80.011	19.993	103.827	20.032	1.233	0.529
1211.500	693.447	80.012	19.993	103.822	20.034	1.147	0.538
1212.000	693.718	80.011	19.994	103.823	20.034	1.099	0.531
1212.500	693.872	80.011	19.994	103.824	20.033	1.157	0.477
1213.000	694.139	80.011	19.994	103.825	20.034	1.104	0.423
1213.500	694.421	80.011	19.994	103.826	20.032	1.254	0.485
1214.001	694.726	80.011	19.994	103.825	20.037	0.894	0.568
1214.501	694.971	80.012	19.994	103.823	20.036	1.001	0.568
1215.000	695.258	80.010	19.994	103.824	20.039	0.756	0.541
1215.500	695.503	80.011	19.992	103.825	20.037	0.931	0.533
1216.001	695.756	80.011	19.994	103.825	20.038	0.807	0.515
1216.501	695.962	80.011	19.994	103.827	20.038	0.844	0.478
1217.000	696.250	80.010	19.993	103.826	20.035	1.013	0.476
1217.500	696.532	80.011	19.993	103.823	20.039	0.750	0.532
1218.000	696.744	80.010	19.993	103.823	20.036	0.959	0.532
1218.500	697.024	80.011	19.993	103.822	20.036	0.947	0.493
1219.000	697.282	80.011	19.993	103.823	20.037	0.904	0.515
1219.500	697.532	80.011	19.993	103.824	20.038	0.811	0.523
1220.000	697.756	80.011	19.994	103.823	20.038	0.817	0.491
1220.501	698.045	80.011	19.993	103.823	20.038	0.834	0.493
1221.001	698.305	80.011	19.993	103.825	20.036	0.968	0.531
1221.501	698.532	80.012	19.994	103.825	20.040	0.702	0.518
1222.001	698.783	80.011	19.993	103.828	20.038	0.813	0.482
1222.501	699.077	80.012	19.994	103.829	20.038	0.844	0.511
1223.000	699.309	80.011	19.993	103.830	20.038	0.826	0.535
1223.500	699.556	80.011	19.993	103.833	20.036	1.007	0.502
1224.000	699.864	80.012	19.994	103.832	20.035	1.011	0.517
1224.500	700.053	80.012	19.993	103.828	20.036	0.939	0.526
1225.001	700.347	80.011	19.993	103.827	20.036	0.947	0.490
1225.501	700.565	80.012	19.993	103.825	20.037	0.902	0.498
1226.000	700.807	80.010	19.993	103.820	20.034	1.141	0.486
1226.500	701.078	80.013	19.994	103.822	20.036	1.005	0.487
1227.000	701.321	80.012	19.993	103.826	20.034	1.110	0.513
1227.500	701.589	80.012	19.993	103.826	20.035	1.015	0.512
1228.000	701.864	80.012	19.995	103.826	20.034	1.089	0.527
1228.500	702.135	80.012	19.992	103.826	20.034	1.126	0.544
1229.000	702.364	80.013	19.993	103.824	20.035	1.060	0.523
1229.500	702.642	80.010	19.993	103.822	20.031	1.359	0.504
1230.000	702.897	80.011	19.994	103.824	20.033	1.170	0.520
1230.500	703.121	80.011	19.993	103.825	20.036	0.974	0.505
1231.000	703.400	80.012	19.994	103.827	20.033	1.167	0.490
1231.500	703.659	80.012	19.994	103.826	20.035	1.027	0.521
1232.000	703.866	80.010	19.993	103.828	20.034	1.095	0.503
1232.500	704.145	80.012	19.994	103.829	20.035	1.013	0.476
1233.000	704.389	80.013	19.994	103.830	20.034	1.122	0.504
1233.500	704.664	80.012	19.994	103.832	20.033	1.161	0.521
1234.000	704.910	80.013	19.993	103.835	20.037	0.887	0.520
1234.501	705.159	80.012	19.994	103.836	20.032	1.277	0.508
1235.001	705.393	80.013	19.994	103.838	20.032	1.256	0.489
1235.500	705.608	80.011	19.993	103.837	20.034	1.087	0.466
1236.000	705.913	80.012	19.993	103.838	20.034	1.091	0.485
1236.501	706.172	80.013	19.994	103.837	20.034	1.091	0.542
1237.001	706.364	80.011	19.994	103.837	20.033	1.204	0.508
1237.500	706.669	80.011	19.993	103.836	20.034	1.081	0.474
1238.001	706.908	80.011	19.994	103.835	20.033	1.200	0.521
1238.501	707.147	80.011	19.994	103.832	20.031	1.328	0.511
1239.000	707.387	80.011	19.994	103.830	20.032	1.283	0.478
1239.500	707.683	80.011	19.994	103.827	20.032	1.237	0.508
1240.000	707.878	80.011	19.993	103.824	20.034	1.126	0.513
1240.500	708.152	80.010	19.994	103.825	20.033	1.151	0.480
1241.000	708.392	80.010	19.993	103.827	20.034	1.145	0.492
1241.500	708.649	80.009	19.994	103.827	20.035	1.013	0.506
1242.000	708.882	80.010	19.993	103.829	20.032	1.270	0.493
1242.500	709.142	80.008	19.995	103.829	20.032	1.256	0.492
1243.000	709.372	80.009	19.994	103.831	20.035	1.056	0.491
1243.500	709.635	80.009	19.994	103.831	20.033	1.153	0.491
1244.001	709.894	80.008	19.994	103.830	20.034	1.145	0.507
1244.501	710.151	80.008	19.995	103.828	20.034	1.132	0.519
1245.001	710.384	80.010	19.995	103.828	20.030	1.367	0.503
1245.501	710.657	80.009	19.994	103.826	20.035	1.023	0.498
1246.000	710.892	80.008	19.994	103.829	20.033	1.157	0.507
1246.500	711.159	80.009	19.994	103.831	20.033	1.202	0.505
1247.000	711.406	80.009	19.993	103.831	20.030	1.363	0.508
1247.501	711.664	80.007	19.994	103.830	20.032	1.254	0.509
1248.001	711.910	80.009	19.993	103.829	20.037	0.918	0.505
1248.500	712.159	80.008	19.994	103.825	20.033	1.196	0.500
1249.000	712.388	80.008	19.994	103.825	20.032	1.227	0.486
1249.500	712.665	80.009	19.994	103.826	20.032	1.237	0.492
1250.000	712.897	80.009	19.993	103.825	20.031	1.295	0.507
1250.501	713.164	80.009	19.992	103.825	20.036	1.005	0.504
1251.001	713.426	80.008	19.994	103.827	20.032	1.252	0.515
1251.501	713.664	80.009	19.993	103.833	20.032	1.254	0.515
1252.001	713.892	80.009	19.995	103.838	20.033	1.163	0.483
1252.500	714.162	80.009	19.994	103.841	20.034	1.097	0.482
1253.000	714.436	80.011	19.993	103.849	20.033	1.190	0.521
1253.500	714.682	80.008	19.993	103.853	20.033	1.192	0.532
1254.001	714.900	80.010	19.993	103.852	20.033	1.182	0.492
1254.501	715.186	80.011	19.994	103.850	20.032	1.270	0.484
1255.000	715.439	80.009	19.992	103.848	20.033	1.180	0.521
1255.501	715.704	80.009	19.993	103.841	20.032	1.254	0.528
1256.001	715.945	80.009	19.993	103.836	20.033	1.161	0.512
1256.501	716.210	80.008	19.994	103.831	20.034	1.112	0.506
1257.000	716.440	80.009	19.993	103.831	20.033	1.180	0.501
1257.500	716.683	80.010	19.992	103.837	20.031	1.318	0.484
1258.000	716.944	80.009	19.993	103.840	20.035	1.025	0.488
1258.500	717.175	80.010	19.993	103.838	20.030	1.402	0.498
1259.001	717.431	80.010	19.993	103.838	20.030	1.377	0.490
1259.501	717.703	80.009	19.993	103.838	20.032	1.266	0.508
1260.000	717.959	80.010	19.994	103.834	20.032	1.281	0.528
1260.500	718.156	80.010	19.993	103.832	20.031	1.316	0.491
1261.001	718.406	80.010	19.992	103.833	20.030	1.369	0.450
1261.501	718.672	80.009	19.992	103.832	20.033	1.165	0.481
1262.000	718.936	80.010	19.995	103.828	20.032	1.264	0.523
1262.500	719.164	80.010	19.993	103.825	20.032	1.246	0.511
1263.001	719.410	80.010	19.994	103.823	20.033	1.171	0.483
1263.501	719.683	80.010	19.993	103.823	20.035	1.011	0.497
1264.001	719.918	80.010	19.993	103.822	20.033	1.157	0.513
1264.500	720.163	80.010	19.993	103.823	20.031	1.305	0.494
1265.000	720.406	80.010	19.993	103.824	20.034	1.116	0.484
1265.501	720.654	80.011	19.994	103.823	20.034	1.116	0.490
1266.001	720.911	80.010	19.994	103.822	20.031	1.291	0.498
1266.500	721.144	80.010	19.993	103.821	20.033	1.213	0.498
1267.000	721.424	80.010	19.994	103.820	20.030	1.410	0.502
1267.500	721.669	80.009	19.994	103.821	20.032	1.262	0.519
1268.000	721.908	80.011	19.994	103.829	20.032	1.283	0.504
1268.501	722.119	80.010	19.993	103.834	20.031	1.351	0.467
1269.001	722.407	80.010	19.994	103.840	20.028	1.522	0.475
1269.501	722.652	80.010	19.993	103.845	20.029	1.450	0.516
1270.000	722.881	80.010	19.993	103.842	20.030	1.425	0.504
1270.500	723.146	80.009	19.994	103.837	20.031	1.353	0.485
1271.000	723.392	80.008	19.992	103.835	20.030	1.410	0.503
1271.501	723.649	80.010	19.993	103.831	20.031	1.346	0.507
1272.001	723.938	80.010	19.993	103.831	20.030	1.416	0.524
1272.500	724.173	80.009	19.993	103.832	20.031	1.342	0.535
1273.000	724.419	80.009	19.993	103.833	20.029	1.441	0.503
1273.501	724.676	80.009	19.994	103.830	20.032	1.225	0.492
1274.001	724.961	80.010	19.993	103.831	20.029	1.455	0.522
1274.500	725.217	80.011	19.993	103.829	20.030	1.416	0.542
1275.000	725.483	80.010	19.993	103.833	20.033	1.198	0.532
1275.500	725.725	80.009	19.994	103.837	20.032	1.258	0.515
1276.000	725.986	80.009	19.994	103.844	20.033	1.190	0.505
1276.500	726.273	80.009	19.994	103.848	20.032	1.256	0.525
1277.001	726.539	80.008	19.994	103.848	20.032	1.287	0.551
1277.501	726.804	80.009	19.995	103.845	20.031	1.297	0.542
1278.000	727.072	80.008	19.993	103.842	20.031	1.318	0.532
1278.500	727.311	80.010	19.994	103.836	20.037	0.937	0.520
1279.000	727.635	80.009	19.993	103.831	20.033	1.219	0.535
1279.501	727.851	80.009	19.993	103.831	20.033	1.200	0.551
1280.001	728.173	80.009	19.993	103.830	20.031	1.301	0.539
1280.500	728.436	80.010	19.993	103.827	20.032	1.223	0.562
1281.000	728.681	80.010	19.992	103.827	20.031	1.336	0.547
1281.500	729.014	80.010	19.994	103.828	20.030	1.419	0.543
1282.000	729.252	80.009	19.995	103.827	20.032	1.275	0.574
1282.500	729.516	80.010	19.993	103.832	20.029	1.456	0.536
1283.000	729.761	80.011	19.993	103.838	20.030	1.431	0.505
1283.501	730.052	80.010	19.994	103.843	20.028	1.557	0.523
1284.001	730.352	80.010	19.993	103.846	20.028	1.524	0.564
1284.500	730.599	80.012	19.992	103.850	20.033	1.176	0.569
1285.001	730.896	80.009	19.994	103.850	20.031	1.314	0.545
1285.501	731.184	80.011	19.993	103.844	20.031	1.357	0.565
1286.001	731.438	80.010	19.993	103.838	20.032	1.254	0.564
1286.501	731.736	80.011	19.994	103.837	20.029	1.435	0.547
1287.001	732.058	80.011	19.992	103.834	20.031	1.334	0.586
1287.501	732.306	80.011	19.993	103.834	20.030	1.387	0.595
1288.001	732.609	80.011	19.994	103.837	20.033	1.173	0.560
1288.501	732.824	80.009	19.993	103.842	20.030	1.388	0.534
1289.000	733.160	80.011	19.994	103.846	20.033	1.217	0.535
1289.501	733.438	80.011	19.993	103.846	20.030	1.420	0.582
1290.001	733.716	80.011	19.993	103.847	20.033	1.180	0.585
1290.501	734.006	80.012	19.992	103.850	20.029	1.454	0.562
1291.001	734.277	80.012	19.994	103.848	20.030	1.427	0.565
1291.501	734.563	80.013	19.993	103.841	20.029	1.464	0.559
1292.000	734.855	80.012	19.993	103.840	20.029	1.487	0.567
1292.500	735.146	80.013	19.993	103.836	20.029	1.435	0.580
1293.000	735.382	80.012	19.993	103.830	20.028	1.571	0.555
1293.500	735.677	80.012	19.993	103.827	20.030	1.415	0.529
1294.000	735.962	80.011	19.993	103.829	20.029	1.464	0.555
1294.501	736.206	80.011	19.992	103.832	20.029	1.462	0.554
1295.001	736.494	80.012	19.993	103.833	20.030	1.363	0.531
1295.501	736.787	80.011	19.993	103.834	20.030	1.375	0.557
1296.000	737.056	80.011	19.993	103.837	20.029	1.447	0.571
1296.501	737.348	80.011	19.994	103.842	20.028	1.505	0.561
1297.001	737.621	80.011	19.993	103.841	20.032	1.277	0.563
1297.501	737.902	80.010	19.993	103.845	20.029	1.485	0.559
1298.000	738.184	80.010	19.993	103.849	20.027	1.625	0.558
1298.500	738.476	80.011	19.992	103.850	20.027	1.592	0.569
1299.001	738.781	80.009	19.994	103.847	20.030	1.369	0.585
1299.501	739.072	80.010	19.993	103.845	20.027	1.633	0.596
1300.000	739.307	80.009	19.993	103.844	20.027	1.592	0.561
1300.500	739.621	80.011	19.994	103.843	20.029	1.462	0.538
1301.001	739.894	80.011	19.993	103.839	20.026	1.645	0.568
1301.501	740.188	80.010	19.993	103.835	20.027	1.596	0.577
1302.000	740.488	80.011	19.993	103.832	20.031	1.295	0.580
1302.500	740.729	80.009	19.993	103.827	20.026	1.711	0.567
1303.000	741.030	80.011	19.994	103.826	20.026	1.682	0.542
1303.500	741.326	80.010	19.994	103.826	20.029	1.499	0.570
1304.000	741.583	80.010	19.994	103.826	20.028	1.550	0.575
1304.501	741.894	80.010	19.994	103.827	20.028	1.542	0.560
1305.001	742.143	80.011	19.994	103.833	20.030	1.425	0.564
1305.500	742.460	80.011	19.993	103.833	20.030	1.392	0.563
1306.000	742.727	80.009	19.993	103.834	20.028	1.559	0.575
1306.500	742.992	80.011	19.993	103.834	20.027	1.625	0.558
