Sample ID:	C:\MCC\MCC Cal\Test\PE_Foam_Pipe_Insulation_MCC_30K_min_220127_R2.txt
Sample Weight (mg):	4.1
Heating Rate (C/s):	0.5
Combustor Temp (C):	900
N2 Flow Rate (cc/min):	80
O2 Flow Rate (cc/min):	20
Calibration File:	C:\MCC\MCC Cal\Coeff1 JN10440_30_210304.txt.txt
T Correction Coefficients:	0	1.024463	0
Time Shift (s):	14
*
Time (s)	Temperature (C)	N2 flow rate (cc/min)	O2 flow rate (cc/min)	Flow Rate (cc/min)	Oxygen (%)	HRR (W/g)	Heating rate (C/s)
0.000	113.339	80.009	19.993	103.732	20.184	0.332	-0.030
0.500	113.357	80.008	19.993	103.737	20.184	0.352	-0.030
1.000	113.370	80.009	19.993	103.738	20.185	0.281	0.007
1.501	113.340	80.008	19.993	103.734	20.189	-0.086	0.006
2.000	113.350	80.008	19.993	103.734	20.185	0.300	-0.019
2.500	113.373	80.008	19.993	103.734	20.188	0.030	0.007
3.000	113.318	80.007	19.993	103.732	20.186	0.196	0.001
3.500	113.349	80.009	19.993	103.729	20.188	0.045	-0.028
4.000	113.338	80.008	19.993	103.731	20.186	0.177	-0.002
4.500	113.342	80.006	19.993	103.731	20.185	0.283	0.006
5.000	113.359	80.007	19.992	103.729	20.187	0.097	0.007
5.500	113.353	80.006	19.993	103.731	20.183	0.399	0.016
6.000	113.357	80.009	19.993	103.733	20.186	0.220	0.005
6.500	113.347	80.007	19.993	103.733	20.186	0.179	-0.004
7.000	113.346	80.007	19.993	103.735	20.188	0.054	-0.008
7.500	113.338	80.007	19.993	103.737	20.190	-0.134	-0.010
8.000	113.338	80.006	19.993	103.736	20.189	-0.032	-0.009
8.500	113.340	80.007	19.993	103.735	20.188	0.041	-0.003
9.000	113.338	80.007	19.993	103.733	20.188	0.039	0.001
9.501	113.317	80.006	19.992	103.732	20.188	0.009	-0.011
10.001	113.328	80.006	19.994	103.731	20.185	0.270	-0.017
10.501	113.286	80.006	19.994	103.734	20.184	0.324	-0.021
11.000	113.319	80.006	19.992	103.737	20.186	0.208	-0.020
11.500	113.335	80.006	19.994	103.740	20.188	0.032	0.020
12.000	113.324	80.007	19.993	103.741	20.181	0.547	0.027
12.500	113.322	80.006	19.994	103.740	20.186	0.179	-0.004
13.000	113.273	80.007	19.993	103.739	20.187	0.089	-0.032
13.500	113.286	80.006	19.993	103.739	20.186	0.156	-0.044
14.000	113.301	80.007	19.993	103.736	20.183	0.422	-0.005
14.500	113.285	80.006	19.994	103.733	20.188	0.028	0.013
15.000	113.295	80.006	19.993	103.735	20.183	0.426	-0.003
15.501	113.289	80.005	19.992	103.737	20.182	0.487	-0.000
16.001	113.278	80.007	19.993	103.745	20.181	0.575	-0.006
16.500	113.280	80.006	19.992	103.756	20.179	0.729	-0.013
17.000	113.312	80.005	19.992	103.766	20.180	0.638	0.012
17.500	113.304	80.008	19.992	103.775	20.180	0.686	0.029
18.001	113.296	80.006	19.993	103.788	20.176	0.969	0.004
18.501	113.335	80.006	19.992	103.802	20.176	0.936	0.008
19.000	113.312	80.006	19.992	103.817	20.176	0.939	0.023
19.500	113.364	80.007	19.992	103.832	20.174	1.131	0.022
20.000	113.363	80.006	19.993	103.845	20.169	1.520	0.040
20.500	113.352	80.007	19.994	103.855	20.173	1.218	0.020
21.000	113.379	80.007	19.994	103.862	20.164	1.923	0.002
21.500	113.417	80.007	19.992	103.870	20.165	1.882	0.040
22.000	113.420	80.005	19.992	103.879	20.167	1.702	0.053
22.500	113.436	80.006	19.993	103.888	20.165	1.836	0.030
23.001	113.472	80.006	19.993	103.894	20.164	1.942	0.036
23.501	113.475	80.006	19.993	103.898	20.163	2.020	0.046
24.000	113.513	80.006	19.993	103.899	20.156	2.587	0.040
24.500	113.552	80.005	19.993	103.899	20.159	2.332	0.059
25.000	113.578	80.006	19.991	103.901	20.157	2.477	0.071
25.500	113.628	80.005	19.992	103.902	20.158	2.414	0.071
26.000	113.633	80.006	19.991	103.906	20.155	2.654	0.065
26.500	113.673	80.005	19.992	103.913	20.151	2.940	0.050
27.000	113.730	80.007	19.994	103.920	20.155	2.648	0.071
27.500	113.802	80.006	19.993	103.925	20.152	2.856	0.113
28.000	113.793	80.006	19.993	103.927	20.154	2.700	0.096
28.501	113.860	80.007	19.993	103.926	20.156	2.587	0.060
29.001	113.930	80.007	19.992	103.925	20.153	2.810	0.098
29.500	113.942	80.006	19.993	103.924	20.156	2.535	0.109
30.000	113.997	80.006	19.992	103.925	20.151	2.964	0.074
30.500	114.069	80.006	19.992	103.929	20.153	2.821	0.097
31.000	114.125	80.006	19.993	103.934	20.150	3.033	0.128
31.501	114.188	80.007	19.993	103.935	20.148	3.174	0.124
32.001	114.262	80.006	19.993	103.936	20.148	3.158	0.128
32.501	114.282	80.006	19.994	103.936	20.147	3.247	0.115
33.001	114.362	80.006	19.992	103.936	20.149	3.072	0.097
33.500	114.412	80.006	19.993	103.936	20.145	3.400	0.115
34.000	114.469	80.006	19.992	103.938	20.146	3.320	0.119
34.500	114.572	80.007	19.992	103.939	20.146	3.350	0.134
35.000	114.613	80.007	19.992	103.939	20.145	3.404	0.152
35.500	114.695	80.006	19.993	103.944	20.145	3.409	0.133
36.000	114.759	80.005	19.993	103.949	20.143	3.545	0.134
36.500	114.861	80.005	19.994	103.952	20.143	3.599	0.156
37.000	114.949	80.006	19.994	103.957	20.142	3.662	0.178
37.500	114.985	80.006	19.994	103.959	20.147	3.240	0.157
38.000	115.063	80.005	19.993	103.959	20.146	3.353	0.119
38.500	115.180	80.006	19.994	103.958	20.143	3.591	0.154
39.000	115.232	80.005	19.994	103.960	20.144	3.511	0.182
39.500	115.352	80.006	19.992	103.957	20.143	3.610	0.171
40.000	115.423	80.007	19.993	103.955	20.144	3.472	0.182
40.500	115.496	80.005	19.992	103.952	20.145	3.426	0.167
41.000	115.609	80.006	19.992	103.950	20.141	3.749	0.165
41.500	115.693	80.006	19.994	103.950	20.141	3.770	0.191
42.000	115.804	80.006	19.993	103.951	20.147	3.288	0.196
42.500	115.887	80.006	19.992	103.955	20.141	3.723	0.194
43.000	116.026	80.005	19.993	103.955	20.144	3.521	0.208
43.500	116.107	80.005	19.993	103.955	20.144	3.480	0.221
44.000	116.215	80.006	19.992	103.950	20.145	3.415	0.204
44.500	116.288	80.004	19.994	103.946	20.142	3.634	0.185
45.000	116.430	80.007	19.994	103.940	20.145	3.454	0.198
45.500	116.538	80.007	19.993	103.939	20.142	3.630	0.233
46.000	116.647	80.005	19.993	103.938	20.143	3.619	0.233
46.500	116.717	80.006	19.994	103.938	20.146	3.314	0.198
47.000	116.837	80.005	19.993	103.939	20.143	3.580	0.185
47.500	116.959	80.006	19.995	103.940	20.144	3.480	0.216
48.000	117.036	80.006	19.992	103.941	20.146	3.372	0.221
48.500	117.155	80.006	19.993	103.941	20.143	3.578	0.198
49.001	117.287	80.006	19.991	103.941	20.145	3.407	0.223
49.501	117.393	80.006	19.992	103.941	20.144	3.526	0.244
50.000	117.542	80.006	19.992	103.942	20.146	3.327	0.247
50.500	117.672	80.007	19.992	103.948	20.144	3.478	0.267
51.000	117.760	80.008	19.993	103.948	20.142	3.651	0.248
51.500	117.887	80.007	19.993	103.948	20.147	3.240	0.217
52.001	118.029	80.006	19.993	103.948	20.145	3.405	0.242
52.501	118.151	80.008	19.992	103.947	20.148	3.227	0.267
53.000	118.245	80.007	19.993	103.941	20.147	3.299	0.240
53.500	118.387	80.007	19.993	103.942	20.145	3.402	0.226
54.000	118.521	80.008	19.994	103.941	20.145	3.456	0.256
54.500	118.620	80.008	19.995	103.941	20.143	3.545	0.254
55.000	118.755	80.007	19.995	103.943	20.147	3.253	0.234
55.501	118.850	80.008	19.995	103.944	20.145	3.433	0.233
56.001	119.028	80.006	19.994	103.944	20.142	3.655	0.251
56.500	119.116	80.007	19.992	103.944	20.144	3.541	0.269
57.000	119.255	80.007	19.995	103.944	20.142	3.634	0.247
57.500	119.402	80.007	19.993	103.941	20.146	3.368	0.256
58.000	119.539	80.006	19.994	103.943	20.146	3.381	0.285
58.500	119.708	80.006	19.993	103.943	20.146	3.381	0.295
59.000	119.818	80.007	19.993	103.943	20.142	3.666	0.292
59.500	119.943	80.008	19.992	103.943	20.143	3.547	0.257
60.000	120.079	80.007	19.994	103.942	20.144	3.478	0.248
60.500	120.213	80.007	19.992	103.939	20.141	3.733	0.265
61.000	120.355	80.007	19.993	103.940	20.142	3.651	0.272
61.500	120.508	80.008	19.993	103.940	20.143	3.584	0.285
62.001	120.671	80.007	19.993	103.940	20.148	3.201	0.306
62.501	120.748	80.007	19.994	103.940	20.144	3.476	0.278
63.001	120.912	80.006	19.993	103.940	20.146	3.322	0.241
63.500	121.048	80.007	19.994	103.939	20.146	3.311	0.271
64.000	121.196	80.008	19.993	103.939	20.145	3.417	0.292
64.500	121.368	80.007	19.994	103.939	20.143	3.545	0.302
65.000	121.507	80.006	19.993	103.939	20.145	3.387	0.315
65.500	121.637	80.006	19.993	103.939	20.144	3.486	0.290
66.000	121.773	80.007	19.993	103.938	20.147	3.236	0.268
66.500	121.934	80.007	19.993	103.938	20.142	3.646	0.282
67.000	122.098	80.007	19.993	103.937	20.143	3.579	0.311
67.501	122.212	80.006	19.993	103.938	20.144	3.536	0.301
68.001	122.392	80.007	19.993	103.939	20.141	3.748	0.286
68.500	122.542	80.008	19.994	103.939	20.142	3.696	0.312
69.000	122.675	80.007	19.994	103.939	20.144	3.495	0.306
69.500	122.856	80.008	19.993	103.939	20.144	3.532	0.299
70.000	122.991	80.008	19.993	103.938	20.142	3.636	0.316
70.500	123.171	80.008	19.994	103.938	20.145	3.446	0.315
71.000	123.280	80.007	19.993	103.939	20.141	3.705	0.302
71.500	123.419	80.008	19.992	103.939	20.146	3.318	0.269
72.000	123.597	80.007	19.993	103.939	20.145	3.396	0.283
72.500	123.735	80.008	19.993	103.939	20.142	3.673	0.316
73.000	123.872	80.007	19.994	103.940	20.144	3.511	0.295
73.500	124.053	80.008	19.993	103.938	20.147	3.290	0.296
74.000	124.227	80.008	19.993	103.937	20.145	3.435	0.336
74.500	124.371	80.008	19.993	103.937	20.144	3.504	0.336
75.000	124.491	80.009	19.993	103.937	20.145	3.428	0.292
75.501	124.688	80.009	19.994	103.934	20.146	3.383	0.291
76.001	124.780	80.009	19.995	103.932	20.144	3.476	0.303
76.501	124.970	80.009	19.994	103.931	20.145	3.415	0.286
77.001	125.124	80.008	19.993	103.931	20.146	3.318	0.313
77.500	125.314	80.008	19.994	103.931	20.146	3.322	0.344
78.000	125.467	80.007	19.993	103.933	20.144	3.539	0.343
78.501	125.625	80.007	19.994	103.935	20.147	3.259	0.327
79.001	125.734	80.008	19.993	103.936	20.144	3.528	0.289
79.501	125.952	80.007	19.994	103.936	20.145	3.430	0.297
80.001	126.084	80.008	19.993	103.938	20.146	3.331	0.339
80.500	126.277	80.010	19.992	103.938	20.145	3.437	0.338
81.000	126.411	80.009	19.993	103.938	20.146	3.310	0.326
81.500	126.573	80.008	19.993	103.938	20.143	3.576	0.312
82.000	126.740	80.009	19.993	103.938	20.143	3.593	0.313
82.500	126.895	80.008	19.993	103.936	20.143	3.593	0.325
83.000	127.057	80.009	19.993	103.936	20.143	3.559	0.319
83.500	127.244	80.008	19.993	103.940	20.140	3.794	0.333
84.000	127.399	80.007	19.994	103.943	20.142	3.664	0.346
84.500	127.559	80.007	19.994	103.943	20.141	3.723	0.329
85.000	127.706	80.007	19.994	103.943	20.142	3.641	0.311
85.500	127.921	80.008	19.993	103.944	20.141	3.725	0.334
86.000	128.051	80.005	19.993	103.942	20.141	3.749	0.353
86.500	128.224	80.007	19.995	103.939	20.143	3.611	0.324
87.000	128.417	80.006	19.994	103.940	20.143	3.561	0.335
87.500	128.584	80.006	19.995	103.941	20.137	4.078	0.363
88.000	128.751	80.006	19.995	103.940	20.140	3.784	0.347
88.500	128.923	80.005	19.995	103.939	20.138	3.949	0.336
89.001	129.104	80.005	19.993	103.938	20.141	3.750	0.346
89.501	129.264	80.005	19.995	103.936	20.138	3.962	0.347
90.001	129.439	80.006	19.995	103.938	20.142	3.698	0.339
90.500	129.610	80.005	19.994	103.940	20.143	3.622	0.341
91.000	129.760	80.007	19.993	103.944	20.140	3.806	0.334
91.500	129.949	80.006	19.995	103.950	20.140	3.853	0.330
92.000	130.126	80.005	19.995	103.956	20.141	3.717	0.352
92.500	130.268	80.006	19.993	103.957	20.141	3.706	0.343
93.000	130.490	80.006	19.994	103.956	20.145	3.466	0.342
93.500	130.667	80.006	19.993	103.957	20.144	3.494	0.381
94.000	130.801	80.006	19.994	103.954	20.141	3.726	0.355
94.500	131.004	80.004	19.994	103.951	20.140	3.827	0.324
95.000	131.197	80.006	19.993	103.949	20.143	3.622	0.366
95.500	131.367	80.005	19.995	103.953	20.139	3.927	0.379
96.000	131.526	80.006	19.994	103.955	20.136	4.113	0.346
96.500	131.690	80.007	19.995	103.956	20.140	3.819	0.326
97.000	131.865	80.006	19.994	103.960	20.138	3.957	0.331
97.500	132.087	80.005	19.997	103.965	20.138	3.975	0.368
98.000	132.203	80.005	19.993	103.968	20.138	3.975	0.367
98.500	132.414	80.006	19.996	103.970	20.138	3.944	0.333
99.000	132.579	80.006	19.994	103.972	20.138	4.016	0.352
99.500	132.787	80.005	19.994	103.972	20.140	3.860	0.375
100.000	132.983	80.007	19.993	103.972	20.137	4.087	0.388
100.500	133.156	80.006	19.995	103.973	20.137	4.061	0.386
101.000	133.358	80.006	19.993	103.972	20.136	4.150	0.372
101.501	133.542	80.007	19.994	103.968	20.137	4.027	0.381
102.001	133.707	80.007	19.993	103.966	20.132	4.459	0.368
102.500	133.906	80.005	19.994	103.962	20.135	4.232	0.357
103.000	134.095	80.007	19.994	103.957	20.134	4.330	0.376
103.501	134.290	80.007	19.992	103.956	20.135	4.254	0.386
104.001	134.494	80.007	19.992	103.960	20.137	4.051	0.391
104.501	134.641	80.006	19.994	103.963	20.132	4.477	0.375
105.001	134.841	80.008	19.993	103.965	20.140	3.823	0.349
105.500	135.064	80.006	19.993	103.969	20.136	4.105	0.385
106.001	135.247	80.007	19.993	103.971	20.136	4.133	0.414
106.501	135.420	80.005	19.992	103.972	20.137	4.029	0.381
107.000	135.618	80.007	19.993	103.973	20.134	4.304	0.363
107.500	135.826	80.008	19.992	103.975	20.137	4.070	0.388
108.000	135.984	80.005	19.993	103.975	20.131	4.496	0.386
108.500	136.193	80.006	19.993	103.974	20.135	4.243	0.367
109.000	136.378	80.007	19.992	103.974	20.139	3.910	0.381
109.500	136.586	80.007	19.993	103.973	20.136	4.174	0.393
110.000	136.772	80.007	19.993	103.974	20.134	4.319	0.393
110.501	136.967	80.005	19.993	103.975	20.139	3.934	0.387
111.001	137.213	80.006	19.992	103.976	20.139	3.936	0.411
111.500	137.350	80.005	19.994	103.976	20.132	4.483	0.412
112.000	137.525	80.006	19.992	103.978	20.136	4.120	0.348
112.500	137.763	80.005	19.993	103.977	20.136	4.161	0.362
113.000	137.958	80.005	19.993	103.977	20.132	4.466	0.423
113.500	138.140	80.005	19.993	103.976	20.134	4.297	0.406
114.000	138.350	80.005	19.993	103.976	20.133	4.401	0.384
114.500	138.526	80.006	19.992	103.976	20.134	4.289	0.388
115.000	138.731	80.006	19.994	103.977	20.136	4.118	0.383
115.500	138.947	80.006	19.993	103.978	20.134	4.293	0.401
116.000	139.160	80.007	19.992	103.979	20.134	4.269	0.425
116.500	139.350	80.007	19.994	103.979	20.133	4.375	0.416
117.000	139.564	80.006	19.993	103.979	20.132	4.433	0.404
117.500	139.761	80.006	19.992	103.978	20.137	4.081	0.407
118.000	139.982	80.007	19.993	103.977	20.132	4.444	0.415
118.501	140.152	80.007	19.992	103.977	20.132	4.435	0.404
119.001	140.383	80.007	19.992	103.977	20.134	4.267	0.396
119.500	140.600	80.005	19.993	103.977	20.134	4.297	0.425
120.000	140.802	80.006	19.993	103.978	20.131	4.511	0.434
120.500	141.006	80.005	19.993	103.979	20.137	4.094	0.412
121.000	141.212	80.008	19.994	103.979	20.134	4.275	0.408
121.500	141.403	80.006	19.993	103.979	20.131	4.557	0.404
122.001	141.570	80.007	19.992	103.979	20.135	4.256	0.377
122.501	141.800	80.005	19.993	103.980	20.134	4.317	0.378
123.001	142.032	80.005	19.994	103.981	20.136	4.148	0.430
123.501	142.281	80.006	19.993	103.981	20.135	4.219	0.471
124.000	142.482	80.005	19.993	103.981	20.134	4.258	0.465
124.500	142.693	80.006	19.993	103.982	20.136	4.131	0.431
125.000	142.884	80.006	19.993	103.981	20.136	4.172	0.407
125.500	143.095	80.006	19.993	103.980	20.134	4.299	0.402
126.001	143.334	80.005	19.993	103.978	20.134	4.293	0.426
126.501	143.549	80.006	19.993	103.975	20.137	4.098	0.453
127.000	143.759	80.006	19.994	103.975	20.136	4.159	0.439
127.500	143.946	80.006	19.993	103.975	20.135	4.234	0.411
128.000	144.153	80.005	19.993	103.974	20.137	4.048	0.396
128.500	144.415	80.006	19.993	103.975	20.137	4.044	0.432
129.000	144.622	80.006	19.994	103.974	20.134	4.332	0.469
129.500	144.802	80.006	19.994	103.972	20.137	4.042	0.428
130.000	145.033	80.006	19.994	103.971	20.132	4.457	0.399
130.500	145.251	80.007	19.993	103.971	20.131	4.503	0.430
131.000	145.461	80.007	19.994	103.971	20.132	4.431	0.438
131.500	145.714	80.007	19.993	103.974	20.137	4.038	0.445
132.001	145.924	80.008	19.994	103.975	20.134	4.323	0.463
132.500	146.127	80.008	19.994	103.976	20.132	4.438	0.438
133.000	146.374	80.009	19.994	103.975	20.134	4.304	0.431
133.500	146.559	80.009	19.995	103.975	20.131	4.552	0.441
134.000	146.777	80.009	19.993	103.974	20.127	4.862	0.417
134.500	146.997	80.009	19.995	103.975	20.130	4.635	0.420
135.000	147.229	80.009	19.993	103.975	20.136	4.124	0.445
135.500	147.432	80.007	19.994	103.975	20.133	4.375	0.444
136.000	147.669	80.008	19.994	103.975	20.134	4.330	0.438
136.500	147.888	80.008	19.993	103.976	20.134	4.282	0.448
137.000	148.106	80.008	19.993	103.975	20.130	4.587	0.446
137.500	148.360	80.008	19.994	103.975	20.133	4.403	0.454
138.000	148.545	80.009	19.994	103.975	20.131	4.546	0.456
138.500	148.780	80.010	19.993	103.976	20.130	4.594	0.430
139.000	148.999	80.008	19.993	103.976	20.131	4.552	0.437
139.500	149.240	80.009	19.993	103.976	20.132	4.420	0.457
140.000	149.464	80.008	19.992	103.976	20.133	4.394	0.462
140.500	149.686	80.009	19.993	103.976	20.130	4.581	0.455
141.000	149.876	80.009	19.993	103.975	20.129	4.658	0.429
141.500	150.122	80.008	19.993	103.977	20.131	4.568	0.424
142.000	150.397	80.009	19.992	103.978	20.134	4.299	0.479
142.500	150.587	80.009	19.993	103.978	20.134	4.291	0.493
143.000	150.804	80.010	19.993	103.978	20.128	4.765	0.436
143.500	151.038	80.006	19.994	103.978	20.132	4.433	0.429
144.000	151.292	80.009	19.993	103.976	20.133	4.397	0.470
144.500	151.515	80.008	19.993	103.976	20.135	4.185	0.483
145.000	151.724	80.007	19.993	103.975	20.134	4.336	0.455
145.500	151.957	80.010	19.993	103.975	20.132	4.429	0.437
146.000	152.136	80.007	19.993	103.975	20.129	4.671	0.427
146.500	152.376	80.008	19.992	103.975	20.131	4.526	0.415
147.000	152.633	80.008	19.993	103.975	20.132	4.481	0.458
147.500	152.844	80.008	19.993	103.975	20.130	4.602	0.483
148.000	153.078	80.008	19.993	103.976	20.130	4.652	0.457
148.500	153.265	80.007	19.993	103.976	20.131	4.509	0.432
149.000	153.521	80.007	19.993	103.976	20.127	4.864	0.432
149.500	153.748	80.007	19.994	103.975	20.130	4.598	0.463
150.000	153.994	80.008	19.993	103.975	20.128	4.737	0.478
150.500	154.234	80.007	19.994	103.975	20.130	4.637	0.479
151.000	154.457	80.007	19.994	103.975	20.127	4.840	0.474
151.500	154.699	80.008	19.994	103.975	20.127	4.877	0.464
152.000	154.908	80.006	19.994	103.976	20.128	4.803	0.458
152.500	155.129	80.008	19.993	103.977	20.130	4.637	0.441
153.000	155.342	80.007	19.993	103.977	20.128	4.764	0.432
153.500	155.569	80.008	19.993	103.977	20.129	4.661	0.437
154.000	155.815	80.007	19.993	103.977	20.131	4.557	0.457
154.500	156.049	80.009	19.993	103.976	20.128	4.769	0.477
155.000	156.263	80.008	19.993	103.974	20.132	4.425	0.464
155.500	156.523	80.008	19.993	103.973	20.129	4.719	0.461
156.000	156.753	80.008	19.994	103.973	20.127	4.853	0.482
156.500	157.006	80.008	19.995	103.973	20.130	4.615	0.486
157.000	157.225	80.008	19.994	103.974	20.129	4.726	0.477
157.500	157.477	80.007	19.994	103.974	20.123	5.161	0.472
158.000	157.714	80.009	19.994	103.974	20.134	4.282	0.480
158.500	157.948	80.008	19.994	103.974	20.129	4.721	0.480
159.001	158.184	80.009	19.994	103.974	20.126	4.953	0.470
159.500	158.414	80.009	19.994	103.974	20.128	4.799	0.468
160.000	158.652	80.008	19.994	103.979	20.131	4.537	0.467
160.500	158.929	80.008	19.994	103.979	20.133	4.382	0.492
161.001	159.163	80.009	19.993	103.980	20.131	4.496	0.513
161.500	159.352	80.009	19.993	103.980	20.128	4.799	0.467
162.000	159.606	80.009	19.996	103.981	20.130	4.615	0.433
162.500	159.833	80.010	19.995	103.976	20.126	4.931	0.462
163.000	160.140	80.009	19.994	103.976	20.127	4.834	0.508
163.500	160.305	80.008	19.994	103.975	20.129	4.667	0.503
164.000	160.529	80.007	19.993	103.975	20.130	4.635	0.431
164.500	160.802	80.009	19.993	103.975	20.128	4.747	0.443
165.000	161.020	80.008	19.993	103.976	20.126	4.964	0.494
165.500	161.284	80.009	19.994	103.977	20.128	4.799	0.487
166.000	161.488	80.007	19.995	103.978	20.127	4.819	0.475
166.500	161.769	80.009	19.994	103.978	20.128	4.767	0.476
167.000	162.036	80.008	19.994	103.978	20.128	4.754	0.516
167.500	162.267	80.008	19.994	103.978	20.130	4.585	0.523
168.000	162.501	80.007	19.994	103.977	20.128	4.752	0.482
168.500	162.697	80.009	19.993	103.977	20.128	4.751	0.448
169.000	162.953	80.007	19.994	103.977	20.131	4.572	0.441
169.500	163.188	80.007	19.994	103.977	20.127	4.844	0.472
170.000	163.480	80.008	19.993	103.977	20.130	4.639	0.509
170.500	163.668	80.006	19.993	103.979	20.129	4.684	0.504
171.000	163.964	80.007	19.993	103.979	20.128	4.799	0.482
171.500	164.191	80.006	19.994	103.978	20.128	4.758	0.503
172.000	164.469	80.007	19.993	103.978	20.126	4.970	0.514
172.500	164.697	80.006	19.994	103.978	20.129	4.693	0.505
173.000	164.959	80.008	19.994	103.977	20.128	4.775	0.498
173.500	165.229	80.007	19.994	103.977	20.125	5.011	0.511
174.000	165.476	80.005	19.995	103.978	20.125	5.044	0.525
174.500	165.709	80.007	19.994	103.977	20.127	4.855	0.498
175.000	165.936	80.006	19.995	103.977	20.120	5.388	0.469
175.500	166.233	80.006	19.993	103.978	20.126	4.953	0.492
176.000	166.476	80.005	19.994	103.977	20.124	5.119	0.532
176.500	166.723	80.007	19.995	103.976	20.125	4.990	0.515
177.000	166.936	80.007	19.994	103.977	20.125	5.026	0.475
177.500	167.203	80.006	19.994	103.977	20.124	5.061	0.470
178.000	167.448	80.005	19.994	103.976	20.123	5.206	0.496
178.500	167.710	80.006	19.995	103.977	20.123	5.197	0.510
179.000	167.927	80.006	19.994	103.976	20.120	5.377	0.493
179.500	168.185	80.007	19.995	103.975	20.126	4.957	0.477
180.000	168.439	80.004	19.994	103.974	20.125	4.972	0.494
180.500	168.680	80.005	19.994	103.974	20.124	5.050	0.504
181.000	168.919	80.006	19.994	103.973	20.124	5.108	0.487
181.500	169.172	80.006	19.995	103.975	20.125	5.024	0.486
182.000	169.436	80.004	19.994	103.975	20.123	5.201	0.504
182.500	169.683	80.006	19.994	103.976	20.125	4.996	0.514
183.000	169.973	80.005	19.995	103.976	20.124	5.065	0.524
183.500	170.184	80.006	19.995	103.977	20.124	5.078	0.519
184.000	170.444	80.006	19.994	103.977	20.124	5.058	0.486
184.500	170.696	80.006	19.994	103.977	20.127	4.890	0.492
185.000	170.938	80.005	19.994	103.977	20.127	4.837	0.503
185.500	171.167	80.006	19.993	103.977	20.128	4.805	0.482
186.000	171.442	80.005	19.994	103.977	20.123	5.187	0.488
186.500	171.706	80.005	19.994	103.977	20.125	5.008	0.522
187.000	171.929	80.006	19.995	103.978	20.123	5.136	0.513
187.500	172.194	80.006	19.995	103.979	20.122	5.246	0.488
188.000	172.399	80.007	19.994	103.979	20.126	4.950	0.480
188.500	172.663	80.006	19.994	103.978	20.125	4.976	0.469
189.000	172.889	80.004	19.995	103.976	20.122	5.272	0.479
189.500	173.150	80.005	19.994	103.974	20.123	5.144	0.489
190.000	173.411	80.006	19.994	103.972	20.126	4.956	0.505
190.500	173.672	80.006	19.994	103.971	20.125	4.982	0.522
191.000	173.938	80.007	19.994	103.970	20.124	5.073	0.524
191.500	174.177	80.006	19.994	103.972	20.128	4.746	0.516
192.000	174.418	80.006	19.993	103.974	20.125	4.982	0.493
192.500	174.680	80.006	19.993	103.974	20.128	4.809	0.491
193.000	174.909	80.007	19.993	103.972	20.125	5.017	0.497
193.500	175.178	80.006	19.995	103.972	20.126	4.909	0.495
194.000	175.464	80.008	19.994	103.971	20.129	4.677	0.526
194.500	175.681	80.007	19.994	103.967	20.126	4.913	0.529
195.000	175.949	80.007	19.994	103.965	20.122	5.209	0.494
195.500	176.164	80.005	19.994	103.965	20.125	5.001	0.484
196.000	176.455	80.006	19.994	103.963	20.127	4.839	0.495
196.500	176.710	80.008	19.993	103.957	20.125	4.995	0.527
197.000	176.917	80.007	19.994	103.953	20.126	4.928	0.504
197.500	177.181	80.007	19.993	103.952	20.126	4.942	0.466
198.000	177.486	80.006	19.993	103.953	20.125	5.004	0.520
198.500	177.733	80.006	19.994	103.956	20.127	4.844	0.560
199.000	177.961	80.007	19.995	103.959	20.124	5.101	0.514
199.500	178.238	80.006	19.992	103.958	20.126	4.961	0.491
200.000	178.467	80.008	19.993	103.955	20.124	5.086	0.505
200.500	178.734	80.007	19.994	103.949	20.123	5.164	0.501
201.000	178.957	80.007	19.993	103.946	20.123	5.161	0.493
201.500	179.253	80.006	19.993	103.948	20.125	5.014	0.505
202.000	179.472	80.005	19.994	103.950	20.126	4.908	0.517
202.500	179.710	80.007	19.993	103.952	20.125	5.036	0.486
203.000	180.001	80.006	19.993	103.955	20.126	4.947	0.493
203.500	180.267	80.006	19.993	103.955	20.127	4.841	0.543
204.000	180.537	80.006	19.992	103.958	20.125	5.023	0.546
204.500	180.760	80.007	19.992	103.961	20.124	5.088	0.515
205.000	181.033	80.005	19.993	103.961	20.121	5.288	0.495
205.500	181.294	80.007	19.993	103.957	20.123	5.174	0.515
206.000	181.580	80.005	19.994	103.953	20.119	5.475	0.540
206.500	181.793	80.006	19.993	103.950	20.122	5.273	0.523
207.000	182.062	80.006	19.993	103.952	20.120	5.401	0.491
207.500	182.324	80.007	19.994	103.958	20.121	5.298	0.506
208.000	182.572	80.006	19.993	103.961	20.123	5.142	0.521
208.500	182.790	80.006	19.993	103.967	20.121	5.334	0.489
209.000	183.052	80.007	19.994	103.969	20.126	4.895	0.473
209.500	183.317	80.006	19.994	103.967	20.122	5.245	0.503
210.000	183.573	80.007	19.994	103.962	20.123	5.165	0.523
210.500	183.817	80.007	19.994	103.962	20.126	4.966	0.511
211.001	184.075	80.006	19.993	103.962	20.122	5.248	0.501
211.500	184.340	80.009	19.994	103.956	20.126	4.908	0.512
212.000	184.601	80.008	19.993	103.951	20.122	5.211	0.525
212.500	184.885	80.007	19.993	103.950	20.123	5.189	0.536
213.000	185.094	80.008	19.994	103.951	20.121	5.305	0.519
213.500	185.385	80.008	19.994	103.950	20.120	5.394	0.496
214.000	185.633	80.008	19.994	103.951	20.118	5.530	0.520
214.500	185.906	80.008	19.993	103.951	20.122	5.269	0.530
215.000	186.162	80.008	19.993	103.950	20.118	5.595	0.525
215.500	186.463	80.007	19.993	103.944	20.119	5.472	0.543
216.000	186.702	80.009	19.993	103.940	20.122	5.275	0.549
216.500	186.950	80.011	19.995	103.939	20.121	5.288	0.513
217.000	187.199	80.009	19.995	103.942	20.119	5.500	0.492
217.500	187.457	80.009	19.994	103.942	20.119	5.487	0.502
218.000	187.707	80.008	19.994	103.948	20.119	5.496	0.508
218.500	187.978	80.009	19.993	103.951	20.120	5.438	0.515
219.000	188.197	80.007	19.993	103.950	20.120	5.386	0.505
219.500	188.488	80.008	19.994	103.947	20.120	5.410	0.500
220.000	188.733	80.009	19.993	103.946	20.120	5.438	0.523
220.500	188.986	80.009	19.994	103.942	20.117	5.621	0.518
221.000	189.218	80.008	19.995	103.943	20.116	5.758	0.492
221.500	189.478	80.008	19.993	103.943	20.117	5.643	0.488
222.000	189.746	80.010	19.994	103.943	20.117	5.680	0.510
222.500	189.953	80.008	19.994	103.942	20.118	5.587	0.502
223.000	190.273	80.008	19.994	103.939	20.119	5.494	0.502
223.500	190.544	80.008	19.993	103.934	20.121	5.362	0.559
224.000	190.755	80.008	19.993	103.934	20.117	5.639	0.536
224.500	190.997	80.010	19.993	103.935	20.120	5.418	0.467
225.000	191.246	80.008	19.993	103.935	20.116	5.719	0.472
225.500	191.465	80.009	19.993	103.937	20.120	5.373	0.480
226.000	191.761	80.006	19.994	103.937	20.120	5.388	0.492
226.500	192.004	80.008	19.994	103.937	20.121	5.312	0.527
227.000	192.258	80.007	19.995	103.935	20.118	5.531	0.518
227.500	192.483	80.009	19.994	103.935	20.119	5.457	0.488
228.000	192.726	80.009	19.994	103.935	20.120	5.401	0.473
228.500	192.971	80.008	19.992	103.935	20.120	5.383	0.478
229.000	193.239	80.007	19.994	103.935	20.117	5.628	0.501
229.500	193.477	80.007	19.994	103.938	20.117	5.658	0.510
230.000	193.787	80.008	19.993	103.938	20.117	5.617	0.527
230.500	193.991	80.007	19.995	103.938	20.122	5.275	0.531
231.000	194.263	80.008	19.994	103.938	20.119	5.487	0.494
231.500	194.511	80.008	19.993	103.938	20.120	5.416	0.498
232.000	194.752	80.007	19.993	103.937	20.120	5.403	0.505
232.500	195.034	80.009	19.993	103.937	20.120	5.407	0.506
233.000	195.199	80.007	19.992	103.937	20.118	5.556	0.485
233.500	195.479	80.008	19.993	103.937	20.116	5.710	0.446
234.000	195.727	80.008	19.993	103.939	20.118	5.586	0.487
234.500	195.959	80.009	19.993	103.938	20.117	5.612	0.504
235.000	196.189	80.008	19.993	103.939	20.118	5.549	0.471
235.500	196.487	80.008	19.993	103.939	20.116	5.718	0.495
236.000	196.708	80.008	19.994	103.940	20.118	5.560	0.523
236.500	196.991	80.008	19.992	103.939	20.119	5.459	0.512
237.000	197.249	80.009	19.993	103.938	20.117	5.634	0.523
237.500	197.522	80.009	19.992	103.937	20.114	5.863	0.536
238.000	197.744	80.008	19.993	103.937	20.115	5.800	0.513
238.500	198.004	80.009	19.993	103.937	20.115	5.819	0.488
239.000	198.236	80.007	19.995	103.937	20.117	5.674	0.487
239.500	198.465	80.010	19.993	103.935	20.117	5.670	0.476
240.000	198.774	80.010	19.993	103.935	20.117	5.650	0.499
240.500	199.026	80.009	19.994	103.932	20.112	6.001	0.549
241.000	199.253	80.008	19.993	103.931	20.113	5.921	0.520
241.500	199.486	80.010	19.992	103.930	20.116	5.757	0.470
242.000	199.735	80.009	19.992	103.932	20.113	5.969	0.471
242.500	199.968	80.009	19.992	103.933	20.114	5.881	0.482
243.000	200.249	80.010	19.992	103.934	20.112	6.047	0.498
243.500	200.457	80.009	19.992	103.934	20.113	5.940	0.502
244.000	200.742	80.010	19.992	103.934	20.115	5.806	0.491
244.501	200.969	80.009	19.993	103.931	20.116	5.752	0.502
245.000	201.203	80.010	19.993	103.928	20.114	5.841	0.486
245.500	201.460	80.009	19.993	103.928	20.114	5.844	0.476
246.000	201.727	80.009	19.994	103.926	20.113	5.976	0.508
246.500	201.954	80.010	19.992	103.926	20.111	6.127	0.509
247.000	202.239	80.009	19.993	103.928	20.111	6.099	0.503
247.500	202.446	80.008	19.993	103.930	20.113	5.952	0.501
248.000	202.723	80.009	19.993	103.927	20.111	6.077	0.488
248.500	202.941	80.009	19.993	103.926	20.112	6.038	0.490
249.000	203.180	80.008	19.993	103.920	20.112	6.016	0.476
249.500	203.456	80.008	19.994	103.916	20.111	6.090	0.486
250.000	203.722	80.008	19.993	103.912	20.111	6.101	0.529
250.500	203.919	80.007	19.995	103.912	20.111	6.079	0.503
251.000	204.182	80.008	19.993	103.913	20.110	6.161	0.461
251.500	204.401	80.009	19.994	103.920	20.113	5.960	0.471
252.000	204.658	80.008	19.993	103.925	20.113	5.953	0.479
252.500	204.928	80.008	19.993	103.931	20.108	6.362	0.501
253.000	205.180	80.006	19.994	103.930	20.110	6.191	0.524
253.500	205.415	80.008	19.994	103.930	20.109	6.263	0.505
254.000	205.633	80.006	19.994	103.924	20.110	6.165	0.470
254.500	205.900	80.008	19.994	103.918	20.110	6.206	0.469
255.000	206.163	80.006	19.993	103.915	20.112	6.013	0.507
255.500	206.390	80.007	19.994	103.918	20.111	6.085	0.509
256.000	206.612	80.005	19.994	103.921	20.112	6.055	0.469
256.500	206.910	80.007	19.993	103.925	20.112	6.070	0.485
257.000	207.127	80.006	19.996	103.929	20.108	6.321	0.518
257.500	207.373	80.007	19.995	103.932	20.110	6.165	0.489
258.000	207.667	80.007	19.995	103.933	20.111	6.132	0.501
258.500	207.883	80.007	19.994	103.932	20.112	6.041	0.525
259.000	208.125	80.008	19.994	103.926	20.108	6.318	0.484
259.500	208.392	80.008	19.994	103.926	20.110	6.220	0.484
260.000	208.595	80.007	19.993	103.924	20.108	6.350	0.490
260.500	208.837	80.006	19.993	103.923	20.110	6.156	0.458
261.000	209.069	80.007	19.993	103.922	20.109	6.308	0.459
261.500	209.314	80.008	19.993	103.923	20.107	6.436	0.475
262.000	209.567	80.006	19.994	103.921	20.108	6.360	0.488
262.500	209.847	80.007	19.994	103.922	20.108	6.341	0.516
263.000	210.092	80.008	19.994	103.919	20.110	6.154	0.529
263.500	210.335	80.007	19.993	103.918	20.109	6.295	0.506
264.000	210.559	80.008	19.993	103.918	20.109	6.262	0.477
264.500	210.821	80.006	19.994	103.919	20.110	6.199	0.476
265.000	211.070	80.007	19.994	103.913	20.108	6.340	0.499
265.500	211.285	80.007	19.994	103.911	20.111	6.085	0.488
266.000	211.549	80.010	19.994	103.909	20.111	6.081	0.471
266.500	211.753	80.007	19.994	103.912	20.107	6.420	0.474
267.000	212.021	80.006	19.994	103.914	20.105	6.574	0.470
267.500	212.279	80.008	19.994	103.914	20.106	6.494	0.499
268.000	212.557	80.007	19.993	103.913	20.112	6.072	0.531
268.500	212.792	80.010	19.993	103.911	20.111	6.137	0.525
269.000	213.030	80.007	19.994	103.906	20.110	6.170	0.493
269.500	213.274	80.009	19.994	103.899	20.108	6.325	0.478
270.000	213.519	80.010	19.995	103.899	20.109	6.245	0.486
270.500	213.773	80.007	19.995	103.900	20.108	6.377	0.494
271.000	213.996	80.009	19.994	103.903	20.108	6.338	0.488
271.500	214.249	80.009	19.995	103.908	20.108	6.387	0.476
272.000	214.479	80.007	19.995	103.916	20.109	6.301	0.479
272.500	214.747	80.009	19.992	103.922	20.106	6.490	0.491
273.000	214.958	80.008	19.993	103.923	20.108	6.332	0.489
273.500	215.197	80.006	19.993	103.920	20.107	6.455	0.464
274.000	215.481	80.007	19.995	103.915	20.107	6.432	0.486
274.500	215.679	80.005	19.993	103.909	20.107	6.466	0.503
275.000	215.939	80.008	19.994	103.906	20.105	6.613	0.470
275.500	216.147	80.007	19.993	103.907	20.105	6.576	0.463
276.000	216.441	80.006	19.993	103.913	20.107	6.450	0.485
276.500	216.661	80.009	19.996	103.914	20.106	6.474	0.508
277.000	216.913	80.008	19.996	103.914	20.106	6.474	0.492
277.500	217.170	80.008	19.995	103.914	20.108	6.377	0.490
278.000	217.405	80.007	19.994	103.913	20.105	6.593	0.501
278.501	217.669	80.007	19.995	103.913	20.107	6.436	0.496
279.000	217.910	80.005	19.996	103.915	20.108	6.330	0.502
279.500	218.125	80.008	19.995	103.916	20.107	6.459	0.480
280.000	218.405	80.008	19.996	103.918	20.105	6.617	0.476
280.500	218.616	80.006	19.996	103.916	20.104	6.638	0.493
281.000	218.846	80.007	19.996	103.909	20.103	6.716	0.466
281.500	219.140	80.007	19.995	103.909	20.105	6.552	0.482
282.000	219.377	80.005	19.996	103.906	20.108	6.388	0.528
282.500	219.620	80.007	19.995	103.906	20.106	6.517	0.506
283.000	219.885	80.006	19.994	103.911	20.104	6.637	0.494
283.500	220.110	80.007	19.995	103.917	20.106	6.529	0.499
284.000	220.370	80.006	19.995	103.918	20.104	6.682	0.487
284.500	220.579	80.007	19.995	103.923	20.104	6.682	0.477
285.000	220.814	80.006	19.995	103.924	20.105	6.602	0.457
285.500	221.084	80.004	19.995	103.926	20.105	6.621	0.475
286.000	221.282	80.006	19.995	103.921	20.105	6.610	0.486
286.500	221.533	80.007	19.994	103.918	20.104	6.686	0.458
287.000	221.821	80.008	19.994	103.912	20.102	6.815	0.494
287.500	222.065	80.007	19.994	103.906	20.103	6.759	0.536
288.000	222.305	80.007	19.994	103.905	20.104	6.681	0.508
288.500	222.569	80.006	19.994	103.909	20.103	6.774	0.494
289.000	222.779	80.008	19.994	103.912	20.101	6.871	0.489
289.500	223.007	80.009	19.994	103.916	20.101	6.867	0.455
290.000	223.298	80.008	19.994	103.917	20.104	6.690	0.478
290.500	223.538	80.007	19.994	103.914	20.099	7.042	0.525
291.000	223.784	80.007	19.993	103.913	20.103	6.774	0.508
291.500	223.993	80.007	19.993	103.911	20.101	6.867	0.471
292.000	224.297	80.007	19.994	103.911	20.101	6.932	0.485
292.500	224.521	80.008	19.993	103.912	20.103	6.781	0.521
293.000	224.757	80.004	19.995	103.912	20.102	6.796	0.494
293.500	224.997	80.010	19.993	103.909	20.100	6.947	0.468
294.000	225.275	80.007	19.993	103.915	20.107	6.456	0.497
294.500	225.493	80.008	19.992	103.917	20.101	6.934	0.507
295.000	225.728	80.008	19.993	103.914	20.101	6.906	0.475
295.500	225.993	80.007	19.993	103.914	20.101	6.865	0.477
296.000	226.242	80.010	19.993	103.914	20.102	6.815	0.507
296.500	226.483	80.009	19.993	103.907	20.103	6.741	0.502
297.000	226.705	80.010	19.994	103.902	20.102	6.811	0.476
297.500	226.973	80.006	19.993	103.903	20.106	6.514	0.476
298.000	227.203	80.009	19.993	103.902	20.098	7.142	0.493
298.500	227.414	80.009	19.994	103.903	20.105	6.610	0.469
299.000	227.695	80.010	19.994	103.903	20.107	6.467	0.467
299.500	227.983	80.009	19.993	103.903	20.100	6.962	0.531
300.000	228.192	80.009	19.993	103.902	20.101	6.865	0.533
300.500	228.439	80.010	19.992	103.903	20.100	7.001	0.477
301.000	228.683	80.008	19.993	103.901	20.100	7.004	0.474
301.500	228.930	80.009	19.992	103.900	20.100	7.014	0.491
302.000	229.156	80.008	19.993	103.900	20.100	6.965	0.482
302.500	229.412	80.009	19.994	103.900	20.103	6.714	0.478
303.000	229.686	80.011	19.993	103.900	20.100	7.018	0.506
303.500	229.926	80.008	19.994	103.901	20.101	6.917	0.522
304.000	230.164	80.007	19.994	103.901	20.100	6.951	0.496
304.500	230.412	80.010	19.993	103.902	20.101	6.917	0.482
305.000	230.648	80.010	19.995	103.903	20.102	6.842	0.485
305.501	230.906	80.008	19.993	103.901	20.102	6.839	0.489
306.000	231.150	80.007	19.994	103.901	20.100	6.954	0.497
306.500	231.355	80.009	19.993	103.900	20.102	6.794	0.475
307.000	231.611	80.007	19.994	103.900	20.100	6.997	0.455
307.500	231.897	80.007	19.993	103.899	20.100	6.949	0.502
308.000	232.150	80.008	19.993	103.900	20.103	6.738	0.541
308.500	232.381	80.008	19.992	103.899	20.101	6.867	0.512
309.000	232.592	80.007	19.993	103.899	20.101	6.893	0.463
309.500	232.880	80.007	19.993	103.899	20.106	6.539	0.470
310.001	233.125	80.009	19.994	103.900	20.098	7.149	0.516
310.500	233.368	80.007	19.992	103.900	20.098	7.107	0.511
311.000	233.589	80.007	19.992	103.900	20.101	6.943	0.476
311.500	233.858	80.006	19.994	103.903	20.098	7.152	0.477
312.000	234.109	80.009	19.992	103.905	20.101	6.943	0.505
312.500	234.367	80.008	19.993	103.905	20.102	6.830	0.514
313.000	234.595	80.008	19.995	103.905	20.101	6.887	0.497
313.500	234.844	80.006	19.994	103.905	20.101	6.911	0.481
314.000	235.081	80.008	19.994	103.902	20.097	7.211	0.481
314.500	235.337	80.008	19.993	103.902	20.102	6.824	0.490
315.000	235.578	80.006	19.993	103.901	20.101	6.913	0.495
315.500	235.794	80.006	19.994	103.901	20.101	6.893	0.477
316.000	236.036	80.006	19.993	103.908	20.101	6.902	0.458
316.500	236.305	80.009	19.992	103.909	20.103	6.750	0.484
317.000	236.527	80.007	19.995	103.909	20.099	7.075	0.501
317.501	236.812	80.008	19.994	103.909	20.099	7.040	0.499
318.001	237.043	80.008	19.993	103.908	20.101	6.897	0.511
318.501	237.314	80.008	19.994	103.903	20.100	6.988	0.509
319.000	237.569	80.010	19.993	103.906	20.099	7.046	0.514
319.500	237.787	80.009	19.993	103.907	20.098	7.143	0.500
320.000	238.055	80.009	19.994	103.907	20.100	6.983	0.480
320.500	238.295	80.009	19.992	103.909	20.102	6.847	0.497
321.000	238.552	80.009	19.992	103.907	20.102	6.821	0.502
321.500	238.773	80.011	19.994	103.904	20.101	6.908	0.488
322.000	239.033	80.009	19.992	103.902	20.101	6.914	0.480
322.500	239.256	80.012	19.993	103.900	20.098	7.124	0.482
323.000	239.510	80.009	19.995	103.900	20.103	6.778	0.480
323.500	239.769	80.010	19.994	103.904	20.102	6.826	0.494
324.000	240.027	80.010	19.993	103.909	20.100	7.003	0.515
324.500	240.246	80.010	19.993	103.909	20.103	6.711	0.498
325.000	240.480	80.010	19.993	103.909	20.101	6.906	0.465
325.500	240.722	80.009	19.993	103.908	20.099	7.094	0.464
326.000	241.000	80.010	19.995	103.904	20.100	6.984	0.498
326.500	241.220	80.009	19.994	103.899	20.097	7.180	0.509
327.000	241.475	80.009	19.995	103.900	20.101	6.921	0.486
327.500	241.760	80.009	19.994	103.901	20.103	6.761	0.507
328.000	241.959	80.010	19.993	103.901	20.100	7.012	0.512
328.500	242.278	80.011	19.993	103.901	20.099	7.074	0.501
329.000	242.518	80.012	19.993	103.900	20.101	6.938	0.539
329.500	242.776	80.011	19.993	103.898	20.100	6.990	0.529
330.000	243.022	80.011	19.993	103.897	20.100	6.945	0.501
330.500	243.263	80.010	19.992	103.895	20.098	7.163	0.495
331.000	243.494	80.008	19.993	103.896	20.100	6.956	0.479
331.500	243.765	80.007	19.994	103.896	20.099	7.027	0.487
332.000	244.005	80.010	19.992	103.896	20.103	6.707	0.506
332.501	244.233	80.010	19.992	103.896	20.102	6.791	0.490
333.000	244.541	80.009	19.993	103.896	20.101	6.942	0.502
333.500	244.738	80.008	19.993	103.896	20.099	7.059	0.520
334.000	244.952	80.009	19.992	103.895	20.102	6.841	0.458
334.500	245.235	80.008	19.993	103.896	20.100	6.992	0.454
335.000	245.529	80.006	19.992	103.896	20.105	6.596	0.537
335.500	245.745	80.008	19.993	103.896	20.105	6.618	0.543
336.000	245.986	80.008	19.993	103.897	20.099	7.042	0.483
336.500	246.306	80.008	19.993	103.898	20.101	6.925	0.509
337.000	246.499	80.008	19.996	103.899	20.100	7.005	0.537
337.500	246.757	80.008	19.995	103.900	20.103	6.776	0.482
338.000	246.992	80.007	19.994	103.900	20.099	7.046	0.472
338.500	247.229	80.007	19.993	103.900	20.102	6.832	0.482
339.000	247.496	80.008	19.994	103.899	20.104	6.690	0.488
339.500	247.766	80.006	19.994	103.898	20.100	6.986	0.521
340.000	248.002	80.007	19.992	103.900	20.100	7.010	0.522
340.500	248.241	80.007	19.992	103.900	20.102	6.832	0.490
341.000	248.457	80.007	19.994	103.900	20.102	6.863	0.465
341.500	248.763	80.007	19.993	103.900	20.102	6.830	0.488
342.000	248.986	80.004	19.994	103.898	20.100	6.945	0.525
342.500	249.290	80.007	19.994	103.896	20.100	6.955	0.528
343.000	249.517	80.009	19.993	103.895	20.104	6.646	0.529
343.500	249.782	80.005	19.995	103.896	20.101	6.867	0.511
344.000	250.041	80.006	19.995	103.896	20.103	6.743	0.508
344.500	250.287	80.007	19.994	103.897	20.102	6.860	0.515
345.000	250.534	80.005	19.993	103.896	20.101	6.867	0.499
345.500	250.802	80.004	19.993	103.896	20.105	6.594	0.505
346.000	251.077	80.006	19.994	103.895	20.105	6.620	0.529
346.500	251.318	80.009	19.993	103.895	20.101	6.901	0.529
347.000	251.553	80.003	19.996	103.895	20.102	6.808	0.496
347.500	251.788	80.006	19.994	103.895	20.104	6.668	0.473
348.000	252.066	80.009	19.995	103.897	20.101	6.923	0.492
348.500	252.284	80.005	19.994	103.899	20.102	6.843	0.504
349.000	252.542	80.008	19.994	103.899	20.103	6.718	0.485
349.500	252.838	80.002	19.994	103.898	20.102	6.863	0.515
350.000	253.070	80.007	19.995	103.898	20.102	6.858	0.541
350.500	253.350	80.008	19.993	103.897	20.100	6.949	0.520
351.000	253.504	80.007	19.994	103.899	20.103	6.743	0.474
351.500	253.775	80.006	19.996	103.900	20.103	6.765	0.429
352.000	254.073	80.008	19.993	103.900	20.100	6.960	0.497
352.500	254.293	80.008	19.993	103.900	20.101	6.903	0.544
353.000	254.546	80.008	19.994	103.898	20.107	6.463	0.496
353.500	254.811	80.006	19.995	103.894	20.104	6.705	0.495
354.000	255.059	80.010	19.993	103.893	20.099	7.031	0.515
354.500	255.315	80.008	19.994	103.894	20.101	6.878	0.509
355.000	255.534	80.009	19.995	103.892	20.101	6.910	0.490
355.500	255.793	80.006	19.994	103.895	20.100	6.960	0.476
356.000	256.075	80.007	19.993	103.894	20.102	6.791	0.510
356.500	256.257	80.004	19.996	103.895	20.105	6.594	0.503
357.000	256.560	80.007	19.993	103.894	20.105	6.581	0.474
357.500	256.787	80.006	19.993	103.897	20.104	6.640	0.508
358.000	257.044	80.007	19.992	103.895	20.105	6.564	0.507
358.500	257.279	80.005	19.997	103.897	20.103	6.759	0.488
359.000	257.545	80.009	19.986	103.897	20.104	6.692	0.497
359.500	257.810	80.007	19.996	103.899	20.104	6.694	0.516
360.000	258.043	80.009	19.996	103.899	20.108	6.337	0.514
360.500	258.312	80.007	19.996	103.898	20.106	6.527	0.500
361.000	258.593	80.004	19.997	103.898	20.101	6.880	0.526
361.500	258.801	80.003	20.000	103.897	20.102	6.834	0.519
362.000	259.029	80.008	19.996	103.894	20.103	6.733	0.463
362.500	259.327	80.008	19.992	103.894	20.105	6.573	0.481
363.000	259.583	80.008	19.994	103.896	20.103	6.761	0.540
363.500	259.831	80.005	19.995	103.896	20.106	6.543	0.529
364.000	260.063	80.007	19.992	103.898	20.106	6.547	0.492
364.500	260.317	80.008	19.992	103.900	20.108	6.320	0.483
365.000	260.537	80.005	19.995	103.901	20.105	6.564	0.480
365.500	260.805	80.004	19.994	103.900	20.107	6.426	0.481
366.000	261.030	80.005	19.994	103.900	20.106	6.475	0.491
366.500	261.311	80.007	19.993	103.899	20.108	6.387	0.500
367.000	261.535	80.008	19.992	103.898	20.105	6.549	0.505
367.500	261.805	80.005	19.994	103.898	20.106	6.543	0.500
368.000	262.009	80.006	19.994	103.898	20.108	6.382	0.484
368.500	262.287	80.006	19.993	103.898	20.107	6.413	0.477
369.000	262.554	80.006	19.995	103.899	20.106	6.508	0.514
369.500	262.815	80.005	19.994	103.899	20.106	6.512	0.537
370.000	263.046	80.007	19.995	103.899	20.105	6.584	0.510
370.500	263.300	80.005	19.994	103.898	20.102	6.830	0.489
371.000	263.563	80.007	19.994	103.898	20.100	7.003	0.501
371.500	263.826	80.005	19.995	103.898	20.107	6.424	0.521
372.000	264.072	80.005	19.995	103.898	20.105	6.579	0.518
372.500	264.322	80.006	19.995	103.898	20.105	6.601	0.503
373.000	264.534	80.007	19.994	103.899	20.103	6.778	0.479
373.500	264.813	80.005	19.996	103.898	20.104	6.646	0.476
374.000	265.050	80.006	19.994	103.899	20.103	6.774	0.503
374.500	265.301	80.010	19.994	103.898	20.110	6.222	0.502
375.000	265.535	80.007	19.994	103.899	20.108	6.350	0.487
375.500	265.815	80.004	19.995	103.899	20.106	6.497	0.500
376.000	266.083	80.006	19.994	103.898	20.107	6.447	0.531
376.500	266.333	80.007	19.994	103.898	20.107	6.453	0.533
377.000	266.575	80.006	19.995	103.898	20.109	6.250	0.505
377.500	266.799	80.005	19.994	103.897	20.110	6.224	0.479
378.000	267.059	80.006	19.995	103.897	20.109	6.302	0.475
378.500	267.299	80.008	19.994	103.899	20.108	6.376	0.492
379.000	267.557	80.008	19.992	103.897	20.109	6.237	0.499
379.500	267.811	80.008	19.993	103.898	20.112	6.019	0.505
380.000	268.080	80.008	19.993	103.899	20.112	6.073	0.517
380.500	268.315	80.009	19.995	103.899	20.108	6.324	0.513
381.000	268.565	80.007	19.994	103.899	20.111	6.120	0.495
381.500	268.811	80.007	19.993	103.900	20.107	6.412	0.490
382.000	269.077	80.007	19.994	103.899	20.109	6.308	0.504
382.500	269.286	80.010	19.993	103.897	20.110	6.219	0.494
383.000	269.595	80.007	19.992	103.896	20.110	6.221	0.497
383.500	269.810	80.008	19.994	103.896	20.109	6.284	0.521
384.000	270.051	80.010	19.993	103.895	20.110	6.179	0.490
384.500	270.320	80.010	19.994	103.894	20.108	6.384	0.483
385.000	270.542	80.009	19.993	103.895	20.110	6.170	0.500
385.500	270.815	80.011	19.993	103.897	20.112	6.030	0.493
386.000	271.111	80.011	19.995	103.896	20.110	6.175	0.531
386.500	271.328	80.009	19.994	103.896	20.110	6.205	0.541
387.000	271.526	80.010	19.992	103.893	20.110	6.224	0.465
387.500	271.810	80.009	19.993	103.892	20.108	6.317	0.449
388.000	272.068	80.007	19.992	103.890	20.113	5.943	0.512
388.500	272.296	80.009	19.992	103.891	20.109	6.300	0.514
389.000	272.550	80.010	19.994	103.891	20.109	6.237	0.484
389.500	272.823	80.010	19.992	103.892	20.113	5.977	0.505
390.000	273.094	80.009	19.994	103.892	20.110	6.194	0.535
390.500	273.337	80.011	19.991	103.891	20.112	6.045	0.529
391.000	273.578	80.010	19.992	103.890	20.112	6.021	0.499
391.500	273.836	80.008	19.994	103.889	20.112	6.017	0.491
392.000	274.091	80.010	19.991	103.888	20.110	6.162	0.506
392.500	274.307	80.008	19.998	103.886	20.111	6.088	0.492
393.000	274.592	80.012	19.997	103.885	20.113	5.972	0.486
393.500	274.835	80.008	19.994	103.882	20.111	6.136	0.514
394.000	275.026	80.005	19.991	103.880	20.113	5.954	0.481
394.500	275.316	80.009	19.994	103.882	20.110	6.166	0.457
395.000	275.583	80.000	19.996	103.885	20.113	5.937	0.519
395.500	275.800	80.009	19.992	103.889	20.113	5.956	0.521
396.000	276.061	80.007	19.992	103.891	20.117	5.671	0.481
396.500	276.314	80.010	19.996	103.894	20.113	5.967	0.496
397.000	276.574	80.008	19.992	103.894	20.115	5.792	0.513
397.500	276.812	80.007	19.995	103.895	20.116	5.682	0.506
398.000	277.084	80.010	19.994	103.895	20.114	5.878	0.504
398.500	277.306	80.007	19.992	103.894	20.112	6.053	0.502
399.000	277.556	80.010	19.994	103.892	20.113	5.919	0.483
399.500	277.802	80.009	19.993	103.889	20.111	6.122	0.484
400.000	278.030	80.010	19.994	103.884	20.111	6.103	0.485
400.500	278.299	80.011	19.994	103.884	20.113	5.962	0.486
401.000	278.522	80.006	19.994	103.885	20.113	5.986	0.495
401.500	278.772	80.009	19.993	103.887	20.113	5.982	0.482
402.000	279.049	80.011	19.994	103.890	20.113	5.943	0.500
402.500	279.315	80.009	19.992	103.893	20.114	5.908	0.535
403.000	279.549	80.008	19.991	103.894	20.115	5.789	0.522
403.500	279.823	80.010	19.995	103.894	20.114	5.858	0.504
404.000	280.042	80.013	19.994	103.896	20.114	5.884	0.500
404.500	280.307	80.009	19.991	103.894	20.113	5.962	0.488
405.000	280.507	80.007	19.996	103.889	20.114	5.867	0.474
405.500	280.821	80.011	19.993	103.889	20.113	5.921	0.490
406.000	281.049	80.011	19.993	103.889	20.115	5.791	0.529
406.500	281.275	80.008	19.995	103.890	20.113	5.928	0.498
407.000	281.556	80.010	19.997	103.890	20.115	5.785	0.480
407.500	281.778	80.017	19.992	103.894	20.113	5.924	0.505
408.000	282.040	80.012	19.997	103.895	20.115	5.828	0.494
408.500	282.278	80.011	19.992	103.894	20.115	5.794	0.492
409.000	282.538	80.012	19.992	103.892	20.114	5.869	0.499
409.500	282.789	80.012	19.993	103.888	20.116	5.720	0.505
410.000	283.062	80.011	19.993	103.887	20.114	5.848	0.518
410.500	283.284	80.011	19.993	103.886	20.115	5.792	0.510
411.000	283.560	80.009	19.993	103.886	20.115	5.777	0.496
411.501	283.798	80.009	19.994	103.887	20.116	5.736	0.506
412.001	284.015	80.012	19.994	103.892	20.116	5.736	0.484
412.501	284.289	80.012	19.997	103.894	20.117	5.617	0.473
413.000	284.542	80.008	19.995	103.893	20.117	5.665	0.509
413.500	284.785	80.008	19.994	103.886	20.115	5.792	0.512
414.000	284.993	80.007	19.992	103.880	20.118	5.533	0.474
414.500	285.251	80.010	19.992	103.877	20.116	5.717	0.458
415.000	285.513	80.007	19.994	103.876	20.118	5.546	0.493
415.500	285.748	80.009	19.994	103.872	20.115	5.766	0.508
416.000	286.015	80.009	19.994	103.875	20.118	5.546	0.499
416.500	286.242	80.009	19.992	103.881	20.120	5.429	0.498
417.000	286.556	80.008	19.993	103.884	20.118	5.591	0.518
417.500	286.809	80.005	19.994	103.884	20.120	5.373	0.554
418.000	287.036	80.010	19.991	103.885	20.122	5.275	0.524
418.500	287.310	80.011	19.992	103.888	20.116	5.692	0.490
419.000	287.527	80.009	19.994	103.888	20.118	5.552	0.496
419.500	287.774	80.007	19.994	103.885	20.118	5.530	0.477
420.000	288.034	80.008	19.993	103.883	20.123	5.126	0.486
420.500	288.299	80.008	19.991	103.884	20.118	5.528	0.516
421.000	288.533	80.007	19.992	103.886	20.120	5.383	0.512
421.500	288.763	80.007	19.991	103.887	20.120	5.411	0.481
422.000	289.049	80.007	19.993	103.891	20.117	5.616	0.490
422.500	289.284	80.007	19.994	103.894	20.123	5.195	0.518
423.000	289.515	80.007	19.992	103.898	20.121	5.314	0.493
423.500	289.767	80.008	19.992	103.896	20.119	5.502	0.475
424.000	290.009	80.006	19.993	103.897	20.121	5.299	0.489
424.500	290.267	80.009	19.992	103.898	20.124	5.107	0.497
425.000	290.505	80.008	19.993	103.899	20.124	5.096	0.498
425.500	290.777	80.008	19.993	103.900	20.122	5.267	0.503
426.000	291.077	80.008	19.993	103.901	20.123	5.161	0.541
426.500	291.299	80.006	19.992	103.900	20.120	5.425	0.547
427.000	291.551	80.008	19.993	103.898	20.120	5.407	0.499
427.500	291.847	80.008	19.993	103.898	20.125	5.027	0.512
428.000	292.072	80.007	19.991	103.897	20.124	5.111	0.535
428.500	292.321	80.008	19.993	103.894	20.121	5.353	0.497
429.000	292.546	80.007	19.992	103.891	20.120	5.439	0.474
429.500	292.792	80.008	19.992	103.892	20.123	5.187	0.473
430.000	293.097	80.006	19.994	103.892	20.121	5.332	0.511
430.500	293.326	80.007	19.994	103.892	20.121	5.288	0.542
431.000	293.537	80.008	19.993	103.894	20.122	5.211	0.487
431.500	293.834	80.011	19.993	103.894	20.120	5.436	0.474
432.000	294.076	80.009	19.993	103.891	20.122	5.252	0.524
432.500	294.344	80.007	19.993	103.887	20.123	5.144	0.525
433.000	294.577	80.007	19.995	103.886	20.120	5.375	0.505
433.500	294.799	80.007	19.993	103.886	20.124	5.092	0.477
434.000	295.093	80.008	19.994	103.890	20.122	5.271	0.485
434.500	295.264	80.008	19.994	103.894	20.123	5.174	0.490
435.000	295.595	80.007	19.990	103.898	20.124	5.096	0.483
435.500	295.822	80.010	19.992	103.900	20.123	5.148	0.530
436.000	296.079	80.007	19.993	103.901	20.122	5.239	0.521
436.500	296.316	80.007	19.994	103.902	20.119	5.455	0.489
437.000	296.555	80.008	19.995	103.901	20.122	5.234	0.485
437.500	296.808	80.007	19.994	103.901	20.121	5.292	0.484
438.000	297.086	80.007	19.995	103.899	20.124	5.100	0.512
438.500	297.330	80.007	19.993	103.894	20.123	5.166	0.527
439.000	297.583	80.007	19.995	103.891	20.122	5.268	0.509
439.500	297.858	80.007	19.993	103.890	20.121	5.283	0.512
440.001	298.080	80.008	19.992	103.889	20.124	5.095	0.513
440.500	298.334	80.006	19.995	103.891	20.122	5.223	0.487
441.000	298.566	80.006	19.994	103.895	20.122	5.264	0.481
441.500	298.852	80.009	19.993	103.898	20.122	5.264	0.501
442.000	299.100	80.008	19.993	103.899	20.123	5.182	0.526
442.500	299.310	80.009	19.993	103.900	20.123	5.145	0.497
443.000	299.548	80.005	19.993	103.899	20.122	5.219	0.453
443.500	299.838	80.009	19.993	103.896	20.121	5.290	0.488
444.000	300.063	80.009	19.994	103.896	20.121	5.325	0.522
444.500	300.350	80.007	19.995	103.896	20.121	5.312	0.513
445.000	300.556	80.006	19.992	103.896	20.123	5.184	0.502
445.500	300.848	80.008	19.993	103.896	20.125	5.039	0.495
446.000	301.065	80.008	19.993	103.899	20.123	5.145	0.504
446.500	301.351	80.009	19.992	103.899	20.124	5.076	0.506
447.000	301.622	80.007	19.995	103.899	20.124	5.050	0.530
447.500	301.838	80.007	19.993	103.896	20.121	5.336	0.522
448.000	302.138	80.009	19.993	103.891	20.123	5.126	0.502
448.500	302.353	80.006	19.991	103.885	20.121	5.290	0.515
449.000	302.592	80.009	19.994	103.880	20.120	5.365	0.484
449.501	302.861	80.006	19.993	103.879	20.122	5.246	0.481
450.000	303.084	80.008	19.993	103.879	20.121	5.298	0.500
450.500	303.352	80.006	19.993	103.882	20.125	5.009	0.492
451.000	303.580	80.007	19.994	103.885	20.125	4.992	0.493
451.500	303.870	80.008	19.993	103.888	20.125	5.030	0.507
452.000	304.078	80.005	19.994	103.890	20.123	5.191	0.508
452.500	304.376	80.006	19.994	103.891	20.124	5.108	0.502
453.000	304.633	80.008	19.993	103.887	20.124	5.124	0.531
453.500	304.870	80.008	19.993	103.888	20.125	5.013	0.525
454.000	305.105	80.005	19.994	103.889	20.124	5.106	0.483
454.500	305.375	80.009	19.995	103.887	20.124	5.061	0.488
455.000	305.629	80.004	19.995	103.888	20.127	4.877	0.514
455.500	305.879	80.008	19.992	103.891	20.126	4.948	0.514
456.000	306.132	80.007	19.993	103.889	20.122	5.229	0.504
456.500	306.390	80.008	19.995	103.887	20.124	5.121	0.507
457.000	306.610	80.007	19.995	103.889	20.128	4.788	0.494
457.500	306.888	80.011	19.993	103.889	20.124	5.054	0.488
458.000	307.166	80.007	19.995	103.888	20.126	4.963	0.527
458.500	307.375	80.008	19.993	103.887	20.122	5.222	0.522
459.000	307.649	80.007	19.996	103.886	20.124	5.049	0.485
459.500	307.903	80.004	19.998	103.880	20.125	5.032	0.505
460.000	308.133	80.007	19.994	103.877	20.123	5.197	0.506
460.500	308.402	80.006	19.994	103.879	20.123	5.197	0.492
461.000	308.616	80.006	19.994	103.878	20.124	5.052	0.491
461.500	308.886	80.009	19.994	103.877	20.126	4.907	0.483
462.000	309.188	80.010	19.994	103.882	20.123	5.196	0.528
462.500	309.413	80.009	19.993	103.882	20.123	5.140	0.549
463.000	309.666	80.008	19.994	103.884	20.125	5.021	0.503
463.500	309.897	80.006	19.993	103.886	20.125	4.997	0.481
464.000	310.180	80.008	19.994	103.885	20.121	5.300	0.499
464.500	310.459	80.008	19.993	103.885	20.126	4.941	0.538
465.000	310.678	80.011	19.994	103.887	20.126	4.948	0.530
465.500	310.906	80.007	19.994	103.885	20.122	5.231	0.472
466.000	311.167	80.008	19.996	103.882	20.120	5.387	0.468
466.500	311.427	80.006	19.996	103.883	20.121	5.356	0.505
467.000	311.692	80.006	19.994	103.879	20.123	5.149	0.523
467.500	311.969	80.008	19.992	103.875	20.122	5.237	0.533
468.000	312.187	80.010	19.994	103.870	20.123	5.201	0.518
468.500	312.470	80.006	19.995	103.869	20.122	5.209	0.498
469.000	312.772	80.008	19.994	103.866	20.125	4.989	0.543
469.500	312.986	80.007	19.994	103.864	20.124	5.123	0.551
470.000	313.243	80.008	19.995	103.867	20.122	5.203	0.493
470.500	313.507	80.004	19.994	103.872	20.124	5.067	0.496
471.000	313.735	80.007	19.996	103.876	20.124	5.095	0.506
471.500	314.020	80.009	19.993	103.878	20.123	5.192	0.502
472.000	314.248	80.008	19.995	103.877	20.122	5.229	0.513
472.500	314.461	80.007	19.995	103.872	20.122	5.261	0.478
473.000	314.740	80.005	19.996	103.865	20.123	5.168	0.466
473.500	315.022	80.005	19.995	103.860	20.125	4.976	0.526
474.000	315.254	80.010	19.993	103.862	20.122	5.209	0.538
474.500	315.514	80.008	19.996	103.864	20.120	5.391	0.503
475.000	315.755	80.011	19.996	103.866	20.123	5.181	0.497
475.500	315.993	80.009	19.992	103.869	20.126	4.961	0.490
476.000	316.255	80.002	19.995	103.876	20.121	5.298	0.489
476.500	316.507	80.009	19.993	103.878	20.122	5.219	0.507
477.000	316.784	80.005	19.994	103.878	20.120	5.418	0.522
477.501	317.040	80.010	19.992	103.875	20.123	5.174	0.532
478.000	317.298	80.008	19.994	103.873	20.121	5.357	0.524
478.500	317.527	80.004	19.994	103.870	20.125	5.011	0.501
479.000	317.808	80.007	19.994	103.869	20.123	5.176	0.498
479.500	318.087	80.009	19.992	103.875	20.123	5.163	0.535
480.000	318.266	80.009	19.994	103.881	20.121	5.327	0.509
480.500	318.560	80.007	19.994	103.881	20.121	5.286	0.465
481.000	318.816	80.008	19.994	103.881	20.123	5.200	0.511
481.500	319.060	80.008	19.993	103.879	20.124	5.063	0.525
482.000	319.332	80.008	19.992	103.878	20.121	5.357	0.508
482.500	319.574	80.008	19.993	103.876	20.125	5.041	0.515
483.000	319.822	80.008	19.992	103.877	20.121	5.290	0.502
483.500	320.100	80.008	19.993	103.877	20.125	5.033	0.508
484.000	320.346	80.009	19.994	103.875	20.124	5.124	0.525
484.500	320.611	80.012	19.992	103.871	20.123	5.137	0.518
485.000	320.854	80.012	19.992	103.867	20.125	4.998	0.510
485.500	321.120	80.011	19.993	103.870	20.120	5.413	0.508
486.000	321.355	80.008	19.992	103.870	20.119	5.515	0.505
486.500	321.607	80.009	19.994	103.876	20.123	5.197	0.495
487.000	321.888	80.012	19.993	103.881	20.121	5.355	0.510
487.500	322.135	80.009	19.996	103.886	20.122	5.218	0.531
488.000	322.399	80.011	19.993	103.887	20.123	5.192	0.519
488.500	322.658	80.009	19.989	103.891	20.118	5.562	0.517
489.000	322.892	80.009	19.994	103.892	20.120	5.424	0.508
489.500	323.166	80.009	19.994	103.892	20.117	5.627	0.500
490.000	323.416	80.012	19.993	103.894	20.121	5.288	0.516
490.500	323.651	80.009	19.991	103.896	20.121	5.312	0.505
491.000	323.868	80.008	19.994	103.896	20.117	5.621	0.469
491.500	324.177	80.010	19.993	103.894	20.119	5.513	0.488
492.000	324.436	80.009	19.993	103.894	20.119	5.502	0.547
492.500	324.683	80.005	19.993	103.890	20.120	5.375	0.537
493.000	324.950	80.009	19.993	103.884	20.119	5.461	0.511
493.500	325.199	80.008	19.994	103.885	20.120	5.386	0.515
494.000	325.460	80.004	19.993	103.884	20.119	5.470	0.513
494.500	325.710	80.010	19.993	103.884	20.116	5.695	0.510
495.000	325.950	80.009	19.992	103.888	20.116	5.717	0.500
495.500	326.279	80.011	19.992	103.892	20.116	5.732	0.530
496.000	326.528	80.010	19.992	103.889	20.116	5.734	0.574
496.500	326.780	80.012	19.995	103.886	20.115	5.827	0.540
497.000	327.032	80.007	19.993	103.882	20.118	5.531	0.503
497.500	327.239	80.008	19.994	103.882	20.115	5.775	0.482
498.000	327.542	80.007	19.993	103.881	20.115	5.767	0.484
498.500	327.788	80.002	19.994	103.880	20.115	5.827	0.529
499.000	328.048	80.007	19.993	103.880	20.111	6.093	0.527
499.500	328.285	80.010	19.993	103.880	20.115	5.781	0.502
500.000	328.538	80.003	19.995	103.879	20.115	5.770	0.494
500.500	328.801	80.008	19.994	103.879	20.112	6.023	0.503
501.000	329.064	80.007	19.993	103.881	20.112	6.041	0.521
501.500	329.300	80.005	19.993	103.884	20.111	6.149	0.512
502.000	329.567	80.006	19.993	103.888	20.110	6.179	0.501
502.500	329.794	80.005	19.994	103.889	20.108	6.313	0.499
503.000	330.061	80.006	19.993	103.890	20.107	6.410	0.494
503.500	330.294	80.006	19.994	103.894	20.108	6.389	0.497
504.000	330.620	80.007	19.993	103.896	20.108	6.354	0.530
504.500	330.861	80.007	19.990	103.897	20.108	6.326	0.563
505.000	331.109	80.005	19.995	103.896	20.105	6.555	0.528
505.500	331.375	80.007	19.992	103.896	20.107	6.454	0.502
506.000	331.632	80.006	19.994	103.897	20.107	6.430	0.519
506.500	331.900	80.007	19.994	103.897	20.104	6.655	0.524
507.001	332.151	80.007	19.990	103.898	20.106	6.491	0.522
507.500	332.420	80.005	19.994	103.901	20.106	6.493	0.520
508.000	332.706	80.005	19.994	103.902	20.104	6.644	0.538
508.500	332.952	80.006	19.994	103.902	20.107	6.458	0.543
509.000	333.231	80.007	19.992	103.902	20.107	6.456	0.528
509.500	333.507	80.009	19.992	103.900	20.104	6.668	0.540
510.000	333.718	80.008	19.994	103.894	20.104	6.667	0.521
510.500	334.028	80.007	19.993	103.893	20.101	6.886	0.504
511.000	334.276	80.007	19.993	103.891	20.102	6.823	0.540
511.500	334.564	80.009	19.991	103.892	20.103	6.758	0.547
512.000	334.825	80.010	19.992	103.894	20.100	6.966	0.543
512.500	335.074	80.006	19.993	103.900	20.095	7.415	0.529
513.001	335.326	80.005	19.993	103.898	20.100	6.978	0.505
513.500	335.606	80.009	19.993	103.897	20.101	6.888	0.517
514.000	335.878	80.006	19.993	103.892	20.100	6.948	0.542
514.500	336.145	80.003	19.993	103.890	20.099	7.061	0.546
515.000	336.386	80.009	19.992	103.890	20.101	6.927	0.523
515.500	336.648	80.006	19.994	103.891	20.095	7.355	0.506
516.000	336.899	80.005	19.998	103.893	20.101	6.903	0.508
516.500	337.217	80.012	19.994	103.897	20.093	7.543	0.541
517.000	337.505	80.007	19.994	103.898	20.095	7.408	0.588
517.500	337.789	80.004	19.995	103.898	20.097	7.236	0.589
518.000	338.038	80.010	19.993	103.896	20.093	7.506	0.553
518.500	338.322	80.008	19.994	103.896	20.098	7.150	0.533
519.000	338.583	80.006	19.994	103.896	20.096	7.301	0.539
519.500	338.858	79.999	19.994	103.895	20.094	7.431	0.540
520.000	339.104	80.003	19.991	103.892	20.092	7.597	0.528
520.500	339.384	80.008	19.993	103.892	20.094	7.476	0.523
521.000	339.658	80.014	19.991	103.891	20.095	7.391	0.540
521.500	339.930	80.003	19.996	103.892	20.090	7.765	0.550
522.000	340.197	80.004	19.998	103.890	20.091	7.724	0.543
522.500	340.456	80.006	19.997	103.891	20.089	7.851	0.533
523.000	340.747	80.007	19.994	103.890	20.087	8.038	0.538
523.500	341.015	80.006	19.994	103.888	20.091	7.726	0.554
524.001	341.292	80.005	19.997	103.886	20.090	7.750	0.552
524.500	341.575	80.008	19.998	103.887	20.089	7.877	0.552
525.000	341.824	80.009	19.997	103.886	20.089	7.877	0.546
525.500	342.105	80.008	19.993	103.888	20.089	7.876	0.531
526.000	342.417	80.003	19.993	103.887	20.090	7.770	0.562
526.500	342.651	80.007	19.991	103.887	20.087	8.000	0.570
527.000	342.913	80.005	19.993	103.885	20.086	8.067	0.521
527.500	343.159	80.007	19.990	103.883	20.085	8.203	0.502
528.000	343.417	80.004	19.995	103.883	20.086	8.085	0.506
528.500	343.696	80.004	19.998	103.885	20.086	8.119	0.521
529.000	343.983	80.010	19.995	103.887	20.089	7.838	0.551
529.500	344.241	79.997	19.988	103.891	20.083	8.315	0.555
530.000	344.512	80.011	19.996	103.889	20.085	8.177	0.537
530.500	344.773	80.009	19.991	103.891	20.086	8.064	0.531
531.000	345.070	80.008	19.991	103.889	20.081	8.469	0.545
531.500	345.355	80.004	19.994	103.884	20.085	8.183	0.570
532.000	345.625	80.009	19.988	103.878	20.081	8.484	0.569
532.500	345.898	80.012	19.993	103.885	20.083	8.328	0.549
533.000	346.146	80.011	19.993	103.883	20.085	8.164	0.532
533.500	346.408	80.008	19.989	103.880	20.081	8.476	0.515
534.000	346.706	80.007	19.992	103.883	20.084	8.275	0.535
534.500	346.977	80.011	19.987	103.884	20.081	8.502	0.565
535.000	347.235	80.009	19.995	103.877	20.084	8.232	0.550
535.500	347.527	80.000	19.992	103.872	20.082	8.375	0.540
536.000	347.760	80.001	19.995	103.871	20.083	8.295	0.537
536.500	348.066	80.005	19.992	103.865	20.080	8.554	0.532
537.000	348.332	80.011	19.998	103.865	20.081	8.466	0.555
537.500	348.579	80.013	19.995	103.868	20.082	8.390	0.543
538.000	348.840	79.994	19.994	103.870	20.084	8.265	0.511
538.500	349.155	80.012	19.992	103.871	20.080	8.535	0.542
539.000	349.417	80.002	19.996	103.877	20.082	8.375	0.576
539.500	349.726	80.008	19.992	103.877	20.080	8.578	0.574
540.000	349.977	80.004	19.997	103.873	20.081	8.468	0.566
540.500	350.243	80.007	19.997	103.867	20.080	8.537	0.538
541.000	350.502	80.004	19.995	103.863	20.083	8.360	0.521
541.500	350.762	80.007	19.995	103.863	20.078	8.684	0.522
542.000	351.004	80.002	20.000	103.867	20.081	8.473	0.510
542.500	351.285	80.003	19.997	103.866	20.078	8.726	0.512
543.000	351.587	80.011	19.994	103.866	20.076	8.840	0.553
543.500	351.836	80.009	19.991	103.867	20.079	8.615	0.567
544.000	352.085	80.009	19.992	103.863	20.080	8.557	0.524
544.500	352.367	80.015	19.997	103.857	20.080	8.537	0.514
545.000	352.611	80.001	19.995	103.856	20.082	8.399	0.528
545.500	352.925	80.001	19.997	103.855	20.078	8.682	0.542
546.000	353.206	80.004	19.992	103.855	20.079	8.606	0.577
546.500	353.474	80.008	19.993	103.855	20.078	8.686	0.572
547.000	353.713	80.008	19.997	103.853	20.080	8.552	0.528
547.500	353.982	80.008	19.992	103.852	20.083	8.304	0.508
548.000	354.274	80.010	19.993	103.858	20.082	8.420	0.535
548.500	354.509	80.007	19.992	103.859	20.083	8.336	0.544
549.000	354.765	80.011	19.996	103.860	20.082	8.420	0.509
549.500	355.053	80.012	19.993	103.861	20.086	8.122	0.517
550.000	355.349	80.006	19.998	103.865	20.083	8.327	0.564
550.500	355.563	79.996	19.998	103.863	20.085	8.159	0.547
551.000	355.870	80.009	19.990	103.858	20.081	8.476	0.516
551.500	356.099	80.010	19.995	103.860	20.081	8.507	0.529
552.000	356.371	80.018	19.990	103.857	20.082	8.396	0.518
552.500	356.618	80.016	19.988	103.860	20.081	8.472	0.509
553.000	356.894	80.004	19.994	103.862	20.080	8.561	0.521
553.500	357.144	80.007	19.991	103.867	20.080	8.569	0.524
554.000	357.363	80.003	19.995	103.865	20.078	8.727	0.498
554.500	357.601	80.000	20.006	103.866	20.080	8.593	0.463
555.000	357.877	80.009	19.992	103.860	20.082	8.416	0.486
555.500	358.127	80.004	19.993	103.858	20.080	8.544	0.520
556.000	358.379	80.010	19.991	103.857	20.080	8.539	0.514
556.500	358.635	80.012	19.993	103.856	20.079	8.641	0.505
557.000	358.865	80.007	19.995	103.859	20.077	8.770	0.497
557.500	359.121	80.001	19.996	103.861	20.079	8.638	0.486
558.000	359.406	80.005	19.997	103.858	20.079	8.643	0.513
558.500	359.642	80.005	19.991	103.858	20.079	8.630	0.531
559.000	359.894	80.006	19.997	103.857	20.081	8.518	0.504
559.500	360.164	80.008	19.994	103.854	20.080	8.595	0.505
560.000	360.418	80.003	19.990	103.856	20.085	8.187	0.523
560.500	360.671	80.001	19.994	103.858	20.081	8.455	0.516
561.000	360.923	80.007	19.993	103.858	20.080	8.539	0.506
561.500	361.211	80.009	19.993	103.857	20.081	8.500	0.522
562.000	361.397	80.009	19.992	103.858	20.083	8.360	0.507
562.500	361.677	80.010	19.995	103.858	20.079	8.647	0.470
563.000	361.937	80.007	19.995	103.857	20.079	8.636	0.503
563.500	362.151	80.007	19.997	103.858	20.080	8.593	0.507
564.000	362.412	80.000	19.992	103.857	20.081	8.508	0.475
564.500	362.640	80.004	19.996	103.858	20.083	8.323	0.482
565.000	362.909	80.011	19.992	103.857	20.080	8.589	0.493
565.500	363.193	80.012	19.992	103.858	20.079	8.664	0.525
566.000	363.383	80.011	19.994	103.859	20.080	8.539	0.513
566.500	363.593	80.008	19.995	103.859	20.080	8.526	0.436
567.000	363.846	80.007	19.997	103.859	20.080	8.563	0.431
567.500	364.109	80.007	19.995	103.859	20.082	8.392	0.490
568.000	364.375	80.006	19.994	103.857	20.082	8.429	0.523
568.500	364.635	80.010	19.991	103.857	20.081	8.483	0.527
569.000	364.884	80.009	19.993	103.858	20.081	8.444	0.517
569.500	365.101	80.000	19.997	103.858	20.079	8.608	0.488
570.000	365.360	80.008	19.995	103.858	20.083	8.286	0.471
570.500	365.602	80.010	19.992	103.858	20.084	8.258	0.489
571.000	365.873	80.011	19.993	103.858	20.083	8.345	0.507
571.500	366.103	80.010	19.991	103.858	20.088	7.962	0.507
572.000	366.366	80.008	19.993	103.858	20.082	8.405	0.497
572.500	366.601	80.008	19.994	103.857	20.085	8.145	0.495
573.000	366.880	80.008	19.993	103.855	20.087	8.020	0.505
573.500	367.132	80.011	19.991	103.854	20.085	8.139	0.522
574.000	367.350	80.010	19.993	103.852	20.082	8.385	0.501
574.500	367.596	80.009	19.994	103.851	20.086	8.078	0.468
575.000	367.849	80.011	19.996	103.853	20.087	8.022	0.482
575.500	368.109	80.010	19.991	103.854	20.089	7.813	0.505
576.000	368.371	80.010	19.996	103.857	20.088	7.908	0.517
576.500	368.602	80.004	19.995	103.857	20.087	8.014	0.508
577.000	368.869	80.004	19.997	103.858	20.088	7.936	0.496
577.500	369.092	80.005	19.995	103.858	20.091	7.729	0.494
578.000	369.347	80.010	19.992	103.859	20.089	7.889	0.484
578.500	369.618	80.010	19.995	103.858	20.091	7.694	0.502
579.000	369.833	80.009	19.997	103.859	20.088	7.919	0.506
579.501	370.085	80.015	19.987	103.859	20.089	7.844	0.476
580.000	370.387	80.006	19.991	103.860	20.085	8.137	0.510
580.500	370.598	80.004	19.994	103.860	20.086	8.103	0.533
581.000	370.833	80.006	19.994	103.859	20.091	7.727	0.480
581.500	371.074	80.006	19.995	103.859	20.086	8.066	0.461
582.000	371.345	80.006	19.994	103.858	20.088	7.897	0.495
582.500	371.566	80.006	19.993	103.856	20.086	8.066	0.503
583.000	371.855	80.000	19.997	103.856	20.084	8.262	0.501
583.500	372.085	80.006	19.992	103.851	20.087	8.016	0.514
584.000	372.308	80.005	19.998	103.849	20.089	7.860	0.486
584.500	372.596	80.004	19.995	103.849	20.084	8.249	0.482
585.000	372.849	80.007	19.996	103.848	20.087	8.042	0.526
585.500	373.089	80.012	19.990	103.847	20.086	8.091	0.517
586.000	373.374	80.002	19.993	103.854	20.086	8.063	0.509
586.500	373.609	80.005	20.000	103.857	20.084	8.271	0.523
587.000	373.869	80.008	19.992	103.856	20.085	8.141	0.507
587.500	374.084	80.013	19.992	103.856	20.085	8.191	0.485
588.000	374.351	80.009	19.990	103.858	20.089	7.875	0.479
588.500	374.587	80.006	19.994	103.858	20.089	7.813	0.492
589.000	374.849	80.006	19.994	103.859	20.087	8.024	0.501
589.500	375.100	80.013	19.991	103.861	20.088	7.931	0.506
590.000	375.338	80.014	19.989	103.861	20.088	7.955	0.501
590.500	375.584	80.006	19.992	103.862	20.093	7.560	0.486
591.000	375.851	80.007	19.993	103.861	20.085	8.185	0.499
591.500	376.070	80.007	19.993	103.858	20.086	8.118	0.500
592.000	376.344	80.008	19.996	103.859	20.091	7.694	0.490
592.500	376.545	80.008	19.992	103.858	20.087	8.020	0.484
593.000	376.803	80.009	19.994	103.856	20.089	7.815	0.467
593.500	377.088	80.007	19.992	103.856	20.089	7.856	0.501
594.000	377.305	80.008	19.993	103.854	20.091	7.679	0.523
594.500	377.588	80.010	19.992	103.852	20.089	7.841	0.501
595.000	377.790	80.009	19.993	103.852	20.090	7.806	0.492
595.500	378.035	79.999	19.996	103.852	20.086	8.055	0.466
596.000	378.256	80.005	19.995	103.851	20.085	8.156	0.456
596.500	378.572	79.998	19.994	103.853	20.087	7.996	0.501
597.000	378.791	80.005	19.995	103.854	20.088	7.916	0.536
597.500	379.043	80.013	19.990	103.853	20.087	7.968	0.503
598.000	379.253	80.001	19.994	103.855	20.086	8.063	0.467
598.500	379.522	80.005	19.997	103.854	20.086	8.050	0.471
599.000	379.808	80.007	19.991	103.853	20.088	7.907	0.517
599.500	379.990	80.009	19.995	103.852	20.089	7.888	0.511
600.000	380.265	80.007	19.990	103.851	20.087	8.035	0.462
600.500	380.566	80.010	19.986	103.852	20.085	8.148	0.516
601.000	380.751	79.998	19.994	103.855	20.091	7.728	0.532
601.500	381.010	80.007	19.992	103.856	20.090	7.748	0.465
602.000	381.302	80.008	19.995	103.857	20.090	7.741	0.497
602.500	381.521	80.011	19.991	103.859	20.089	7.817	0.531
603.001	381.772	80.012	19.994	103.856	20.091	7.724	0.491
603.500	382.018	80.011	19.991	103.856	20.091	7.714	0.484
604.000	382.260	80.007	19.994	103.859	20.089	7.830	0.493
604.500	382.539	80.023	19.996	103.859	20.089	7.854	0.504
605.000	382.769	80.003	19.993	103.857	20.089	7.815	0.514
605.500	383.023	79.998	19.995	103.855	20.092	7.573	0.496
606.000	383.308	80.022	19.991	103.852	20.092	7.580	0.512
606.500	383.550	80.009	19.993	103.852	20.092	7.634	0.533
607.000	383.790	79.997	19.994	103.856	20.092	7.649	0.505
607.500	384.040	79.997	19.994	103.854	20.092	7.573	0.487
608.000	384.293	79.998	19.994	103.855	20.090	7.735	0.497
608.500	384.584	80.008	19.995	103.850	20.090	7.797	0.523
609.000	384.832	80.018	19.992	103.849	20.093	7.525	0.541
609.500	385.083	80.002	19.995	103.847	20.091	7.687	0.519
610.000	385.358	80.010	19.992	103.850	20.089	7.845	0.513
610.500	385.577	80.004	19.993	103.852	20.092	7.620	0.510
611.000	385.847	80.016	19.995	103.857	20.093	7.503	0.491
611.500	386.092	79.993	19.994	103.856	20.091	7.657	0.502
612.000	386.357	80.006	19.998	103.852	20.092	7.609	0.512
612.500	386.583	80.009	19.991	103.850	20.093	7.518	0.500
613.001	386.881	80.015	19.992	103.851	20.093	7.566	0.508
613.500	387.122	80.007	19.994	103.853	20.094	7.416	0.532
614.000	387.391	79.995	19.993	103.854	20.092	7.602	0.524
614.500	387.632	79.995	19.993	103.857	20.093	7.520	0.510
615.000	387.930	80.022	19.986	103.859	20.091	7.693	0.524
615.500	388.166	79.989	19.996	103.864	20.093	7.527	0.536
616.000	388.397	80.008	19.995	103.861	20.093	7.562	0.501
616.500	388.687	80.017	19.994	103.859	20.093	7.516	0.495
617.000	388.979	80.016	19.991	103.862	20.090	7.754	0.551
617.500	389.179	80.003	19.992	103.867	20.093	7.566	0.537
618.000	389.469	79.997	19.997	103.864	20.091	7.717	0.491
618.500	389.716	80.006	19.992	103.862	20.090	7.752	0.514
619.000	389.965	79.994	19.999	103.858	20.094	7.493	0.517
619.500	390.245	80.004	19.995	103.851	20.092	7.631	0.512
620.000	390.535	80.005	19.995	103.846	20.094	7.465	0.549
620.500	390.766	80.005	19.996	103.844	20.093	7.568	0.545
621.000	390.994	80.006	19.989	103.846	20.094	7.423	0.489
621.500	391.293	80.007	19.998	103.849	20.092	7.594	0.493
622.001	391.544	80.011	19.990	103.851	20.092	7.631	0.539
622.501	391.804	80.005	19.995	103.853	20.090	7.769	0.531
623.000	392.035	79.998	20.000	103.852	20.092	7.581	0.501
623.500	392.299	79.994	19.999	103.849	20.095	7.378	0.493
624.000	392.577	80.012	19.996	103.843	20.095	7.350	0.518
624.500	392.854	80.004	19.994	103.842	20.093	7.542	0.548
625.000	393.088	80.010	19.993	103.839	20.092	7.607	0.532
625.500	393.361	80.005	19.992	103.840	20.090	7.746	0.509
626.001	393.611	80.009	19.991	103.843	20.095	7.402	0.516
626.500	393.915	80.006	19.994	103.850	20.092	7.588	0.539
627.000	394.178	80.004	19.991	103.851	20.092	7.594	0.560
627.500	394.402	80.001	19.995	103.852	20.090	7.761	0.527
628.000	394.696	79.999	19.993	103.848	20.094	7.443	0.503
628.500	394.944	80.012	19.991	103.849	20.092	7.624	0.530
629.000	395.206	79.999	19.995	103.851	20.090	7.767	0.526
629.500	395.473	80.010	19.995	103.852	20.086	8.108	0.519
630.000	395.729	80.009	19.999	103.850	20.089	7.816	0.526
630.500	396.025	80.005	19.988	103.849	20.089	7.809	0.538
631.000	396.288	80.003	19.995	103.852	20.082	8.401	0.556
631.500	396.532	80.012	19.988	103.847	20.088	7.949	0.533
632.000	396.787	80.010	19.992	103.848	20.089	7.847	0.503
632.500	397.045	80.003	19.997	103.852	20.088	7.934	0.507
633.000	397.317	80.013	19.991	103.854	20.086	8.076	0.521
633.500	397.566	80.006	19.995	103.850	20.083	8.290	0.525
634.000	397.820	80.006	19.994	103.851	20.086	8.098	0.512
634.500	398.093	80.001	19.993	103.851	20.083	8.329	0.515
635.000	398.311	80.008	19.994	103.849	20.082	8.392	0.509
635.500	398.603	80.005	19.999	103.850	20.082	8.410	0.501
636.000	398.856	80.003	19.996	103.854	20.082	8.401	0.527
636.500	399.103	80.008	19.995	103.857	20.082	8.438	0.522
637.000	399.379	80.007	19.997	103.858	20.081	8.517	0.511
637.500	399.660	80.013	19.993	103.855	20.080	8.550	0.540
638.000	399.912	80.003	19.996	103.855	20.083	8.319	0.545
638.500	400.176	80.009	19.990	103.851	20.080	8.565	0.525
639.000	400.454	80.007	19.992	103.849	20.079	8.601	0.529
639.500	400.698	80.010	19.993	103.843	20.081	8.509	0.532
640.000	400.919	80.019	19.992	103.845	20.076	8.837	0.494
640.500	401.176	80.012	19.993	103.844	20.077	8.787	0.472
641.000	401.482	80.009	19.994	103.840	20.076	8.856	0.521
641.500	401.705	80.001	19.993	103.839	20.076	8.845	0.546
642.000	401.961	80.008	19.994	103.837	20.074	9.011	0.503
642.500	402.234	80.006	19.997	103.832	20.075	8.964	0.504
643.000	402.484	80.008	19.998	103.827	20.074	9.002	0.526
643.500	402.717	80.004	19.999	103.824	20.074	8.994	0.503
644.000	402.994	80.012	19.991	103.820	20.073	9.076	0.497
644.500	403.228	80.009	20.001	103.822	20.072	9.171	0.510
645.000	403.530	80.013	19.991	103.823	20.071	9.303	0.524
645.500	403.781	80.009	19.995	103.828	20.069	9.452	0.545
646.000	404.008	80.028	19.991	103.831	20.070	9.381	0.515
646.500	404.248	80.021	19.992	103.836	20.069	9.463	0.473
647.000	404.517	80.014	19.993	103.838	20.067	9.567	0.488
647.500	404.717	79.998	19.995	103.839	20.065	9.761	0.489
648.000	404.996	80.008	19.994	103.830	20.062	9.977	0.474
648.500	405.241	80.009	19.994	103.833	20.061	10.057	0.501
649.000	405.541	80.011	19.993	103.831	20.066	9.675	0.534
649.500	405.696	80.002	19.994	103.827	20.065	9.726	0.500
650.000	405.995	80.012	19.992	103.824	20.061	10.037	0.454
650.500	406.309	80.012	19.995	103.827	20.061	10.046	0.533
651.000	406.503	80.006	19.996	103.822	20.062	9.988	0.561
651.500	406.766	80.010	19.994	103.820	20.063	9.908	0.483
652.000	407.036	80.010	19.993	103.818	20.056	10.463	0.495
652.500	407.232	80.012	19.994	103.818	20.062	9.975	0.500
653.000	407.559	80.007	19.995	103.816	20.060	10.137	0.495
653.500	407.759	80.018	19.993	103.816	20.057	10.372	0.525
654.000	407.993	80.011	19.996	103.817	20.055	10.547	0.480
654.500	408.238	80.012	19.993	103.818	20.054	10.638	0.457
655.000	408.499	80.008	19.994	103.819	20.052	10.749	0.493
655.500	408.731	80.015	19.995	103.820	20.052	10.805	0.499
656.000	409.015	80.011	19.991	103.819	20.053	10.729	0.504
656.500	409.227	80.009	19.996	103.820	20.051	10.828	0.506
657.000	409.470	80.009	19.996	103.820	20.050	10.938	0.476
657.500	409.731	80.017	19.995	103.818	20.052	10.763	0.479
658.000	409.985	80.011	19.995	103.819	20.047	11.135	0.510
658.500	410.222	80.013	19.994	103.821	20.048	11.091	0.504
659.000	410.482	80.007	19.990	103.819	20.045	11.293	0.494
659.500	410.703	80.006	19.988	103.821	20.044	11.436	0.489
660.000	410.961	80.007	19.995	103.822	20.042	11.539	0.480
660.500	411.168	80.012	19.997	103.819	20.042	11.559	0.472
661.000	411.419	79.992	19.995	103.819	20.038	11.844	0.461
661.500	411.676	79.979	19.994	103.817	20.042	11.595	0.483
662.000	411.927	80.002	19.994	103.816	20.036	12.036	0.509
662.500	412.213	80.011	19.995	103.816	20.036	12.003	0.523
663.000	412.362	80.012	19.994	103.816	20.031	12.413	0.486
663.500	412.632	80.008	19.991	103.816	20.030	12.491	0.427
664.000	412.858	80.010	19.989	103.818	20.031	12.405	0.458
664.500	413.134	80.009	19.993	103.820	20.028	12.697	0.499
665.000	413.358	80.009	19.990	103.819	20.027	12.716	0.501
665.500	413.587	80.012	19.989	103.821	20.027	12.756	0.476
666.000	413.841	80.007	19.992	103.823	20.023	13.039	0.468
666.500	414.092	80.012	19.992	103.824	20.023	13.028	0.494
667.000	414.294	80.006	20.001	103.825	20.022	13.176	0.479
667.500	414.525	80.007	19.991	103.822	20.021	13.189	0.444
668.000	414.781	80.007	19.997	103.819	20.018	13.421	0.460
668.500	415.014	80.001	19.991	103.818	20.016	13.621	0.488
669.000	415.219	80.003	19.995	103.817	20.012	13.896	0.463
669.500	415.503	80.013	19.993	103.814	20.012	13.932	0.464
670.000	415.738	80.014	19.991	103.818	20.010	14.049	0.504
670.500	415.953	80.016	19.995	103.822	20.008	14.206	0.485
671.000	416.183	80.004	19.994	103.822	20.005	14.457	0.448
671.500	416.374	80.000	19.996	103.823	20.008	14.265	0.433
672.000	416.699	80.020	19.994	103.821	20.004	14.548	0.468
672.500	416.897	80.003	19.992	103.820	20.004	14.542	0.519
673.000	417.201	80.008	19.994	103.817	20.000	14.877	0.512
673.500	417.398	80.000	19.994	103.816	19.997	15.109	0.502
674.000	417.597	80.004	19.993	103.812	19.997	15.098	0.448
674.500	417.853	80.012	19.991	103.816	19.993	15.441	0.425
675.000	418.113	80.013	19.987	103.816	19.993	15.408	0.486
675.500	418.383	80.004	19.996	103.819	19.988	15.830	0.523
676.000	418.596	80.009	19.990	103.817	19.988	15.864	0.506
676.500	418.819	80.010	19.994	103.820	19.985	16.035	0.459
677.000	419.080	80.001	19.994	103.821	19.984	16.165	0.460
677.500	419.283	80.010	19.992	103.819	19.978	16.623	0.474
678.000	419.540	80.008	19.994	103.817	19.981	16.375	0.462
678.500	419.792	80.008	19.991	103.817	19.976	16.753	0.484
679.000	420.027	80.006	19.994	103.818	19.973	17.034	0.498
679.500	420.247	80.008	19.999	103.816	19.973	17.036	0.471
680.000	420.506	80.010	19.989	103.816	19.966	17.531	0.467
680.500	420.712	80.008	19.992	103.815	19.968	17.429	0.472
681.000	420.943	79.983	20.000	103.818	19.965	17.674	0.451
681.500	421.209	80.007	19.992	103.812	19.963	17.797	0.467
682.000	421.429	80.000	19.993	103.813	19.960	18.069	0.492
682.500	421.694	80.013	19.990	103.815	19.955	18.453	0.486
683.000	421.911	80.009	19.997	103.816	19.954	18.476	0.483
683.500	422.143	80.003	19.997	103.817	19.951	18.712	0.465
684.000	422.387	80.008	19.993	103.822	19.946	19.123	0.462
684.500	422.601	80.006	19.994	103.823	19.948	18.974	0.467
685.000	422.841	80.006	19.992	103.822	19.942	19.497	0.456
685.500	423.092	80.005	19.999	103.822	19.941	19.564	0.473
686.000	423.323	80.002	19.995	103.819	19.937	19.823	0.486
686.500	423.566	80.007	19.995	103.820	19.935	20.017	0.478
687.000	423.836	80.009	19.989	103.819	19.931	20.310	0.493
687.500	424.054	80.006	19.995	103.820	19.929	20.458	0.500
688.000	424.292	80.009	19.995	103.820	19.924	20.916	0.472
688.500	424.529	80.008	19.990	103.822	19.920	21.233	0.466
689.000	424.774	80.010	19.992	103.823	19.919	21.251	0.479
689.500	424.986	80.003	19.994	103.824	19.913	21.718	0.469
690.000	425.236	80.005	19.993	103.822	19.915	21.597	0.459
690.500	425.463	80.010	19.992	103.822	19.904	22.433	0.470
691.000	425.695	80.005	19.993	103.823	19.904	22.474	0.469
691.500	425.951	80.002	20.003	103.820	19.901	22.696	0.473
692.000	426.185	80.003	19.998	103.814	19.897	22.988	0.489
692.500	426.426	80.007	19.997	103.813	19.891	23.522	0.483
693.000	426.648	80.009	19.996	103.813	19.887	23.797	0.469
693.500	426.906	80.008	19.992	103.812	19.887	23.780	0.471
694.000	427.164	80.008	19.989	103.815	19.881	24.291	0.498
694.500	427.386	80.011	19.995	103.822	19.877	24.605	0.498
695.000	427.617	80.008	19.994	103.824	19.871	25.081	0.467
695.500	427.860	80.002	19.998	103.825	19.867	25.349	0.464
696.000	428.145	80.011	19.991	103.824	19.862	25.757	0.501
696.500	428.330	80.005	19.994	103.823	19.857	26.207	0.499
697.000	428.604	80.003	19.997	103.822	19.852	26.539	0.465
697.500	428.824	80.006	19.995	103.820	19.847	26.957	0.477
698.000	429.108	80.005	19.990	103.819	19.845	27.161	0.499
698.500	429.320	80.005	19.996	103.821	19.839	27.628	0.500
699.000	429.603	80.007	19.995	103.821	19.833	28.060	0.495
699.500	429.817	80.014	19.992	103.821	19.829	28.408	0.496
700.000	430.025	80.003	19.992	103.824	19.823	28.856	0.459
700.500	430.320	80.011	19.995	103.825	19.817	29.327	0.463
701.000	430.631	80.004	20.001	103.824	19.813	29.659	0.554
701.500	430.844	80.011	19.997	103.822	19.808	30.016	0.565
702.000	431.063	80.008	19.995	103.823	19.804	30.330	0.479
702.500	431.347	80.012	19.994	103.821	19.795	31.055	0.467
703.000	431.570	80.012	19.993	103.821	19.789	31.531	0.504
703.500	431.865	80.014	19.991	103.822	19.785	31.873	0.513
704.000	432.101	80.016	19.993	103.826	19.781	32.164	0.525
704.500	432.341	80.011	19.990	103.827	19.771	32.991	0.504
705.000	432.643	80.016	19.990	103.831	19.764	33.485	0.509
705.500	432.875	80.005	19.995	103.833	19.759	33.941	0.538
706.000	433.151	80.006	19.994	103.830	19.753	34.352	0.521
706.500	433.461	80.014	19.991	103.828	19.741	35.320	0.546
707.000	433.684	80.003	19.995	103.828	19.735	35.811	0.559
707.500	433.914	80.009	19.994	103.823	19.727	36.407	0.493
708.000	434.176	80.008	19.995	103.819	19.717	37.244	0.473
708.500	434.436	80.011	19.993	103.821	19.709	37.846	0.507
709.000	434.694	79.997	19.994	103.817	19.703	38.366	0.520
709.500	434.968	80.017	19.993	103.811	19.693	39.100	0.526
710.000	435.207	80.007	19.993	103.810	19.685	39.774	0.523
710.500	435.469	80.012	19.993	103.810	19.680	40.153	0.507
711.000	435.722	80.001	19.993	103.808	19.670	40.929	0.508
711.500	436.007	80.017	19.992	103.806	19.654	42.171	0.527
712.000	436.270	80.014	19.989	103.805	19.644	42.983	0.543
712.500	436.480	80.013	19.989	103.799	19.634	43.780	0.510
713.000	436.759	80.006	19.994	103.796	19.629	44.143	0.481
713.500	437.058	80.009	19.995	103.792	19.615	45.284	0.534
714.000	437.288	80.009	19.992	103.789	19.610	45.692	0.553
714.500	437.573	80.003	19.990	103.789	19.597	46.698	0.522
715.000	437.812	80.014	19.991	103.787	19.587	47.477	0.520
715.500	438.099	80.015	19.993	103.787	19.579	48.132	0.525
716.000	438.366	80.008	19.989	103.792	19.569	48.905	0.540
716.500	438.616	80.017	19.987	103.794	19.555	49.963	0.535
717.000	438.880	80.012	19.994	103.796	19.543	50.954	0.515
717.500	439.124	80.011	19.987	103.796	19.532	51.810	0.511
718.000	439.389	80.008	19.997	103.792	19.523	52.505	0.508
718.500	439.639	80.011	19.993	103.785	19.510	53.567	0.512
719.000	439.900	80.013	19.995	103.784	19.500	54.341	0.513
719.500	440.176	80.006	19.997	103.780	19.489	55.232	0.524
720.000	440.435	80.014	19.996	103.779	19.472	56.523	0.537
720.500	440.665	80.004	19.998	103.780	19.462	57.330	0.512
721.000	440.944	80.015	19.992	103.779	19.449	58.367	0.498
721.500	441.218	80.004	19.992	103.776	19.435	59.435	0.531
722.000	441.436	80.001	19.997	103.774	19.422	60.525	0.523
722.500	441.676	80.006	19.994	103.774	19.408	61.578	0.475
723.000	441.990	80.013	19.995	103.773	19.394	62.722	0.506
723.500	442.163	80.004	19.995	103.770	19.379	63.844	0.521
724.000	442.441	80.007	20.000	103.763	19.371	64.508	0.469
724.500	442.696	80.009	19.993	103.761	19.352	65.987	0.492
725.000	443.001	80.007	19.993	103.757	19.337	67.155	0.546
725.500	443.195	79.993	19.997	103.751	19.322	68.408	0.530
726.000	443.489	79.993	19.994	103.745	19.306	69.601	0.494
726.500	443.706	80.006	19.995	103.747	19.292	70.752	0.500
727.000	443.955	79.987	19.996	103.743	19.275	72.038	0.488
727.500	444.243	80.015	19.990	103.738	19.260	73.260	0.501
728.000	444.483	80.008	19.994	103.739	19.245	74.475	0.532
728.500	444.732	80.011	19.994	103.741	19.230	75.649	0.509
729.000	445.004	80.012	19.992	103.741	19.214	76.882	0.506
729.500	445.253	80.006	19.995	103.741	19.197	78.213	0.521
730.000	445.483	79.998	19.996	103.739	19.178	79.703	0.500
730.500	445.778	80.015	19.992	103.734	19.163	80.905	0.502
731.000	446.030	79.998	19.996	103.734	19.149	82.015	0.536
731.500	446.276	80.013	19.993	103.729	19.132	83.331	0.523
732.001	446.507	80.008	19.994	103.726	19.116	84.632	0.488
732.500	446.750	80.010	19.993	103.727	19.097	86.085	0.475
733.000	447.032	80.012	19.995	103.726	19.077	87.655	0.499
733.500	447.313	80.011	19.993	103.726	19.062	88.832	0.544
734.000	447.510	80.008	19.992	103.726	19.043	90.389	0.521
734.500	447.767	80.009	19.993	103.725	19.023	91.898	0.466
735.000	448.028	80.010	19.995	103.723	19.003	93.478	0.486
735.500	448.255	80.001	19.995	103.718	18.983	95.053	0.503
736.000	448.532	80.009	19.994	103.712	18.966	96.374	0.496
736.500	448.806	80.005	19.995	103.709	18.948	97.802	0.528
737.000	449.023	80.010	19.992	103.703	18.926	99.593	0.521
737.500	449.278	80.010	19.993	103.701	18.907	101.035	0.481
738.000	449.527	80.012	19.994	103.700	18.885	102.786	0.488
738.500	449.800	80.014	19.993	103.701	18.865	104.390	0.513
739.000	450.051	80.017	19.994	103.701	18.842	106.135	0.523
739.500	450.324	80.014	19.992	103.702	18.824	107.626	0.524
740.000	450.532	80.008	19.993	103.705	18.800	109.478	0.502
740.500	450.810	80.012	19.992	103.704	18.778	111.184	0.483
741.000	451.014	80.010	19.994	103.700	18.751	113.337	0.484
741.500	451.262	80.008	19.993	103.695	18.734	114.697	0.467
742.000	451.503	80.002	19.995	103.693	18.709	116.656	0.471
742.500	451.745	80.010	19.993	103.684	18.683	118.711	0.486
743.000	452.013	80.023	19.990	103.682	18.658	120.704	0.497
743.500	452.293	80.006	19.992	103.685	18.634	122.528	0.530
744.000	452.515	80.014	19.994	103.685	18.612	124.326	0.526
744.500	452.726	80.010	19.996	103.679	18.586	126.316	0.467
745.000	453.010	80.007	19.994	103.675	18.557	128.638	0.463
745.500	453.287	80.006	19.993	103.671	18.532	130.575	0.528
746.000	453.506	80.008	19.994	103.665	18.502	132.970	0.529
746.500	453.760	80.005	19.993	103.656	18.481	134.629	0.485
747.000	454.017	80.008	19.995	103.649	18.459	136.366	0.492
747.500	454.261	80.012	19.992	103.646	18.430	138.583	0.505
748.000	454.515	80.014	19.994	103.640	18.403	140.774	0.500
748.500	454.749	80.002	19.995	103.634	18.375	142.937	0.494
749.001	455.008	80.007	19.994	103.634	18.345	145.328	0.490
749.500	455.246	80.005	19.994	103.634	18.317	147.465	0.495
750.000	455.517	79.999	19.998	103.634	18.291	149.561	0.503
750.500	455.777	80.029	19.990	103.633	18.261	151.956	0.520
751.000	456.017	80.004	19.994	103.634	18.227	154.592	0.515
751.500	456.280	80.012	19.991	103.632	18.195	157.144	0.502
752.000	456.535	80.006	19.989	103.632	18.168	159.270	0.511
752.500	456.741	80.006	20.001	103.632	18.138	161.559	0.489
753.000	457.001	79.999	19.997	103.629	18.109	163.888	0.464
753.500	457.232	80.007	19.998	103.623	18.072	166.769	0.479
754.001	457.516	80.004	19.994	103.622	18.040	169.280	0.503
754.501	457.719	80.009	19.993	103.618	18.011	171.590	0.501
755.000	458.022	80.007	19.997	103.614	17.978	174.121	0.496
755.500	458.278	80.007	19.994	103.614	17.943	176.895	0.533
756.000	458.488	80.004	19.994	103.612	17.907	179.706	0.513
756.500	458.815	80.005	19.996	103.607	17.875	182.190	0.502
757.000	459.036	80.007	19.994	103.604	17.840	184.973	0.543
757.500	459.274	79.998	19.995	103.600	17.810	187.292	0.503
758.000	459.519	80.006	19.995	103.596	17.774	190.181	0.470
758.500	459.788	80.007	19.994	103.592	17.739	192.859	0.498
759.000	460.065	80.007	19.996	103.590	17.700	195.893	0.530
759.500	460.279	80.002	19.993	103.588	17.663	198.819	0.519
760.000	460.525	79.997	19.996	103.588	17.626	201.683	0.476
760.500	460.763	80.003	19.994	103.583	17.584	204.954	0.472
761.000	461.051	80.005	19.992	103.585	17.544	208.107	0.505
761.500	461.298	80.006	19.993	103.588	17.502	211.415	0.531
762.000	461.556	80.018	19.991	103.592	17.461	214.638	0.520
762.500	461.789	80.001	19.992	103.588	17.421	217.791	0.498
763.000	462.092	80.008	19.995	103.581	17.379	221.084	0.514
763.500	462.330	80.000	19.993	103.573	17.331	224.781	0.539
764.000	462.561	80.003	19.994	103.563	17.291	227.916	0.505
764.500	462.805	80.025	19.991	103.549	17.247	231.419	0.472
765.000	463.079	80.016	19.992	103.546	17.203	234.827	0.497
765.500	463.344	79.996	19.994	103.547	17.159	238.220	0.529
766.000	463.607	80.000	19.991	103.537	17.111	242.038	0.534
766.500	463.867	80.009	19.992	103.530	17.065	245.588	0.526
767.000	464.088	80.006	19.992	103.525	17.021	249.062	0.502
767.500	464.356	80.005	19.994	103.515	16.971	252.934	0.485
768.000	464.582	80.004	19.993	103.507	16.924	256.612	0.492
768.500	464.831	80.006	19.994	103.506	16.877	260.246	0.485
769.000	465.054	80.000	19.995	103.500	16.825	264.324	0.473
769.500	465.340	80.009	19.993	103.485	16.776	268.180	0.491
770.000	465.618	80.002	19.992	103.473	16.724	272.280	0.536
770.500	465.868	79.986	19.998	103.466	16.674	276.157	0.546
771.000	466.107	79.997	19.996	103.444	16.623	280.116	0.509
771.501	466.412	80.013	19.992	103.434	16.568	284.378	0.516
772.001	466.702	80.004	19.994	103.432	16.517	288.417	0.569
772.500	466.928	80.005	19.997	103.419	16.467	292.260	0.556
773.000	467.185	80.007	19.994	103.407	16.411	296.661	0.500
773.500	467.441	80.006	19.994	103.406	16.356	300.939	0.498
774.000	467.697	80.009	19.993	103.400	16.302	305.187	0.512
774.500	467.933	80.002	19.994	103.390	16.249	309.304	0.502
775.000	468.194	80.038	19.989	103.380	16.194	313.547	0.495
775.501	468.461	79.985	19.995	103.377	16.141	317.710	0.512
776.000	468.705	80.008	19.994	103.364	16.085	322.081	0.519
776.500	468.976	80.004	19.991	103.347	16.031	326.259	0.513
777.000	469.227	80.003	19.996	103.344	15.975	330.637	0.519
777.500	469.501	80.005	19.993	103.337	15.923	334.698	0.523
778.000	469.738	80.001	19.993	103.319	15.865	339.312	0.518
778.500	470.049	80.019	19.992	103.313	15.806	343.987	0.530
779.000	470.267	79.998	19.995	103.311	15.746	348.602	0.539
779.500	470.534	80.007	19.994	103.295	15.688	353.169	0.507
780.000	470.780	80.008	19.993	103.289	15.633	357.341	0.499
780.500	471.046	80.010	19.995	103.282	15.574	361.813	0.513
781.000	471.300	80.009	19.993	103.275	15.514	366.504	0.516
781.500	471.538	80.005	19.994	103.260	15.455	371.078	0.506
782.000	471.801	80.007	19.994	103.250	15.392	375.929	0.496
782.500	472.079	80.000	19.994	103.237	15.331	380.670	0.521
783.000	472.343	80.009	19.995	103.225	15.266	385.700	0.542
783.500	472.575	80.010	19.994	103.215	15.207	390.233	0.519
784.000	472.835	80.010	19.994	103.201	15.145	395.039	0.494
784.500	473.114	80.017	19.990	103.189	15.083	399.834	0.516
785.000	473.351	80.000	19.995	103.184	15.020	404.747	0.528
785.500	473.605	80.008	19.993	103.173	14.959	409.525	0.503
786.000	473.842	80.006	19.993	103.164	14.896	414.359	0.491
786.500	474.108	80.000	19.993	103.155	14.835	419.096	0.497
787.000	474.403	80.006	19.993	103.142	14.771	424.022	0.532
787.500	474.650	80.006	19.994	103.126	14.712	428.645	0.551
788.000	474.888	80.006	19.994	103.114	14.651	433.425	0.513
788.500	475.163	80.018	19.993	103.124	14.586	438.467	0.499
789.000	475.425	80.009	19.995	103.140	14.527	443.015	0.525
789.500	475.638	80.011	19.994	103.139	14.463	447.987	0.506
790.000	475.913	80.007	19.993	103.131	14.402	452.676	0.482
790.500	476.230	80.009	19.993	103.119	14.343	457.256	0.540
791.000	476.434	80.007	19.991	103.086	14.285	461.763	0.556
791.500	476.688	80.010	19.995	103.048	14.224	466.504	0.490
792.000	476.980	80.024	19.991	103.028	14.164	471.109	0.502
792.500	477.199	80.006	19.994	103.014	14.107	475.515	0.528
793.000	477.473	80.007	19.993	103.000	14.047	480.138	0.502
793.500	477.705	80.004	19.995	102.985	13.992	484.473	0.500
794.000	477.994	80.011	19.991	102.970	13.934	488.989	0.513
794.500	478.264	80.006	19.994	102.956	13.876	493.646	0.540
795.000	478.494	80.008	19.994	102.938	13.820	498.094	0.530
795.500	478.744	80.011	19.995	102.927	13.766	502.332	0.489
796.000	479.033	80.010	19.993	102.913	13.711	506.712	0.509
796.500	479.266	80.010	19.993	102.903	13.659	510.932	0.531
797.000	479.555	80.009	19.992	102.890	13.610	514.815	0.522
797.500	479.781	80.003	19.994	102.880	13.560	518.713	0.519
798.000	480.035	80.019	19.992	102.866	13.513	522.388	0.498
798.500	480.269	80.021	19.991	102.858	13.474	525.487	0.484
799.000	480.516	80.004	19.994	102.851	13.429	528.974	0.484
799.500	480.801	80.013	19.994	102.841	13.390	532.029	0.506
800.001	481.054	80.023	19.992	102.830	13.353	534.888	0.535
800.500	481.299	80.016	19.994	102.824	13.317	537.577	0.518
801.000	481.587	80.007	19.993	102.811	13.286	539.918	0.516
801.500	481.856	80.018	19.991	102.797	13.249	542.689	0.545
802.000	482.093	80.016	19.993	102.789	13.223	544.667	0.531
802.500	482.350	80.016	19.992	102.777	13.195	546.778	0.500
803.000	482.629	80.009	19.993	102.762	13.166	549.068	0.515
803.500	482.829	80.018	19.991	102.751	13.139	551.060	0.507
804.000	483.110	80.014	19.992	102.746	13.115	552.899	0.480
804.500	483.359	80.011	19.995	102.744	13.090	554.780	0.506
805.000	483.646	80.006	19.991	102.746	13.060	557.067	0.533
805.500	483.893	80.007	19.992	102.761	13.032	559.263	0.535
806.000	484.185	80.007	19.992	102.776	13.011	561.002	0.536
806.500	484.409	80.008	19.992	102.790	12.987	562.839	0.528
807.000	484.636	80.007	19.992	102.807	12.962	564.874	0.484
807.500	484.964	80.007	19.992	102.827	12.941	566.559	0.503
808.000	485.176	80.007	19.993	102.834	12.921	568.098	0.547
808.500	485.429	80.009	19.992	102.841	12.900	569.861	0.502
809.000	485.695	80.011	19.992	102.845	12.885	571.077	0.492
809.500	485.975	80.010	19.993	102.847	12.871	572.208	0.533
810.000	486.229	80.013	19.992	102.845	12.859	573.130	0.540
810.500	486.524	80.002	19.994	102.839	12.853	573.607	0.541
811.000	486.734	80.003	19.994	102.828	12.841	574.636	0.527
811.500	486.999	80.007	19.992	102.810	12.836	575.045	0.490
812.000	487.233	80.004	19.993	102.794	12.837	574.952	0.487
812.500	487.498	80.013	19.993	102.777	12.839	574.883	0.499
813.001	487.784	80.015	19.992	102.760	12.844	574.573	0.525
813.500	488.055	80.012	19.992	102.749	12.851	574.098	0.554
814.000	488.300	80.013	19.993	102.742	12.859	573.524	0.537
814.500	488.589	80.009	19.994	102.726	12.875	572.352	0.525
815.000	488.854	80.010	19.993	102.713	12.894	570.963	0.544
815.500	489.078	80.011	19.992	102.705	12.913	569.523	0.521
816.000	489.342	80.005	19.992	102.702	12.937	567.787	0.489
816.500	489.610	80.013	19.994	102.701	12.965	565.668	0.510
817.000	489.852	80.010	19.995	102.708	12.996	563.382	0.521
817.500	490.150	80.009	19.993	102.714	13.033	560.501	0.525
818.000	490.401	80.013	19.994	102.723	13.073	557.436	0.544
818.500	490.665	80.012	19.994	102.728	13.114	554.331	0.532
819.000	490.923	80.024	19.993	102.733	13.163	550.611	0.519
819.500	491.200	80.011	19.993	102.741	13.214	546.745	0.529
820.000	491.451	80.010	19.992	102.751	13.268	542.765	0.531
820.500	491.725	80.012	19.996	102.759	13.332	537.955	0.526
821.000	491.959	80.016	19.993	102.762	13.394	533.137	0.517
821.500	492.229	80.015	19.993	102.768	13.462	527.924	0.506
822.000	492.518	80.017	19.991	102.774	13.531	522.682	0.531
822.500	492.725	79.992	19.998	102.783	13.602	517.195	0.528
823.000	493.007	80.003	19.994	102.784	13.682	511.043	0.493
823.500	493.298	80.008	19.994	102.795	13.764	504.694	0.530
824.000	493.547	80.002	19.994	102.810	13.852	497.913	0.556
824.500	493.902	80.024	19.991	102.817	13.940	491.152	0.572
825.000	494.098	79.976	19.997	102.831	14.035	483.783	0.577
825.500	494.324	79.993	19.996	102.844	14.131	476.399	0.487
826.000	494.633	80.011	19.992	102.856	14.225	469.046	0.479
826.500	494.921	80.003	19.994	102.874	14.327	461.204	0.566
827.000	495.150	80.010	19.994	102.896	14.438	452.575	0.557
827.500	495.453	80.007	19.994	102.916	14.547	444.130	0.525
828.000	495.680	79.996	19.996	102.937	14.656	435.639	0.531
828.500	495.990	80.001	19.992	102.939	14.772	426.691	0.534
829.000	496.243	80.012	19.994	102.948	14.889	417.591	0.550
829.500	496.498	80.010	19.992	102.967	15.006	408.428	0.535
830.000	496.774	79.992	19.994	102.990	15.128	398.894	0.520
830.500	497.068	80.008	19.992	103.018	15.252	389.196	0.550
831.000	497.313	80.015	19.993	103.067	15.376	379.471	0.554
831.500	497.567	80.021	19.994	103.100	15.503	369.580	0.519
832.000	497.825	80.009	19.992	103.122	15.631	359.496	0.505
832.500	498.090	80.004	19.993	103.145	15.760	349.436	0.518
833.001	498.337	80.004	19.993	103.170	15.887	339.492	0.518
833.500	498.637	80.002	19.993	103.193	16.017	329.252	0.530
834.000	498.893	80.006	19.994	103.213	16.144	319.297	0.551
834.500	499.177	80.004	19.993	103.241	16.273	309.172	0.548
835.000	499.436	80.008	19.994	103.264	16.397	299.389	0.541
835.500	499.695	80.002	19.993	103.291	16.523	289.514	0.531
836.000	499.962	80.006	19.995	103.316	16.648	279.672	0.522
836.500	500.233	80.005	19.994	103.345	16.775	269.679	0.532
837.000	500.487	80.016	19.992	103.369	16.902	259.635	0.532
837.500	500.795	80.015	19.992	103.395	17.023	250.109	0.544
838.000	501.042	80.020	19.991	103.424	17.140	240.857	0.559
838.500	501.307	80.010	19.994	103.454	17.258	231.505	0.533
839.000	501.545	80.021	19.992	103.484	17.375	222.280	0.507
839.500	501.831	80.020	19.993	103.516	17.487	213.483	0.513
840.000	502.108	80.017	19.993	103.545	17.599	204.641	0.543
840.500	502.350	79.996	19.994	103.571	17.708	196.055	0.541
841.000	502.655	80.014	19.994	103.593	17.808	188.148	0.533
841.500	502.909	80.019	19.996	103.615	17.908	180.179	0.553
842.000	503.155	80.001	19.995	103.634	18.008	172.275	0.530
842.500	503.450	80.009	19.995	103.653	18.110	164.214	0.520
843.000	503.698	80.008	19.993	103.672	18.201	157.108	0.542
843.500	503.998	80.010	19.992	103.691	18.292	149.919	0.545
844.000	504.222	80.010	19.993	103.711	18.381	142.869	0.536
844.500	504.531	80.009	19.994	103.729	18.466	136.143	0.529
845.000	504.759	80.002	19.995	103.746	18.546	129.844	0.535
845.500	505.057	80.011	19.992	103.764	18.630	123.174	0.531
846.001	505.285	80.016	19.993	103.780	18.706	117.171	0.526
846.501	505.569	80.014	19.994	103.793	18.784	111.017	0.520
847.001	505.806	80.014	19.995	103.806	18.851	105.682	0.517
847.500	506.111	80.000	19.995	103.814	18.919	100.302	0.531
848.000	506.336	79.999	19.996	103.819	18.988	94.900	0.535
848.500	506.591	80.012	19.992	103.827	19.049	90.073	0.505
849.000	506.871	80.000	19.994	103.829	19.110	85.216	0.508
849.500	507.130	80.010	19.993	103.833	19.168	80.632	0.537
850.000	507.401	80.000	19.994	103.841	19.221	76.463	0.535
850.500	507.680	80.010	19.993	103.848	19.275	72.231	0.540
851.000	507.929	80.007	19.994	103.850	19.325	68.231	0.539
851.500	508.191	80.001	19.995	103.854	19.375	64.329	0.520
852.000	508.446	80.007	19.993	103.855	19.420	60.766	0.514
852.500	508.709	80.022	19.995	103.856	19.466	57.125	0.517
853.000	508.974	80.009	19.993	103.853	19.508	53.738	0.523
853.500	509.248	80.014	19.994	103.854	19.543	50.975	0.533
854.000	509.534	80.008	19.994	103.863	19.581	48.026	0.549
854.500	509.800	80.010	19.993	103.872	19.616	45.222	0.556
855.000	510.011	80.009	19.993	103.878	19.652	42.355	0.514
855.500	510.251	79.999	19.994	103.888	19.684	39.886	0.464
856.000	510.545	80.014	19.993	103.892	19.712	37.678	0.493
856.500	510.800	80.004	19.992	103.893	19.743	35.186	0.542
857.000	511.051	80.007	19.994	103.894	19.769	33.150	0.528
857.500	511.306	80.000	19.994	103.890	19.794	31.179	0.506
858.000	511.548	80.002	19.995	103.884	19.819	29.150	0.501
858.500	511.810	80.004	19.996	103.882	19.844	27.193	0.501
859.000	512.099	80.007	19.994	103.871	19.865	25.563	0.527
859.500	512.317	80.009	19.993	103.871	19.886	23.864	0.529
860.000	512.607	80.009	19.993	103.876	19.906	22.308	0.507
860.500	512.830	80.006	19.993	103.882	19.923	20.948	0.510
861.000	513.072	80.010	19.993	103.886	19.939	19.709	0.489
861.500	513.375	80.007	19.989	103.891	19.953	18.580	0.505
862.000	513.609	80.009	19.996	103.887	19.967	17.514	0.541
862.500	513.882	80.000	19.996	103.881	19.980	16.422	0.522
863.000	514.133	80.010	19.994	103.872	19.992	15.480	0.515
863.500	514.414	80.010	19.992	103.866	20.001	14.786	0.528
864.000	514.662	80.005	19.994	103.863	20.016	13.606	0.531
864.500	514.910	80.009	19.993	103.860	20.025	12.886	0.513
865.000	515.185	80.004	19.993	103.859	20.034	12.188	0.509
865.500	515.453	80.004	19.993	103.858	20.042	11.553	0.533
866.000	515.697	80.005	19.992	103.858	20.047	11.175	0.527
866.500	515.956	80.010	19.993	103.858	20.056	10.421	0.507
867.000	516.248	80.006	19.994	103.859	20.061	10.078	0.527
867.500	516.496	80.008	19.992	103.853	20.069	9.402	0.546
868.000	516.701	80.009	19.994	103.851	20.074	9.062	0.497
868.500	517.000	80.006	19.993	103.846	20.074	9.016	0.478
869.000	517.253	80.009	19.992	103.840	20.081	8.464	0.528
869.500	517.502	80.010	19.991	103.834	20.087	7.988	0.527
870.000	517.754	80.007	19.994	103.837	20.090	7.772	0.502
870.500	518.028	80.010	19.993	103.836	20.095	7.398	0.513
871.000	518.257	80.006	19.992	103.833	20.098	7.152	0.514
871.500	518.521	80.007	19.993	103.830	20.102	6.832	0.498
872.000	518.775	80.009	19.993	103.827	20.102	6.805	0.506
872.500	519.029	80.008	19.992	103.820	20.105	6.595	0.513
873.000	519.284	80.008	19.992	103.813	20.106	6.489	0.508
873.500	519.525	80.009	19.993	103.809	20.110	6.176	0.502
874.000	519.807	80.008	19.994	103.807	20.113	5.976	0.510
874.500	520.067	80.008	19.994	103.802	20.115	5.823	0.532
875.000	520.327	80.008	19.994	103.797	20.113	5.946	0.531
875.500	520.583	80.008	19.993	103.795	20.117	5.627	0.518
876.000	520.807	80.008	19.994	103.791	20.118	5.544	0.498
876.500	521.064	80.007	19.994	103.788	20.117	5.598	0.481
877.000	521.314	80.009	19.995	103.786	20.119	5.465	0.494
877.500	521.565	80.010	19.995	103.782	20.121	5.342	0.503
878.000	521.850	80.011	19.994	103.773	20.120	5.379	0.518
878.500	522.105	80.010	19.995	103.766	20.121	5.343	0.538
879.000	522.390	80.007	19.993	103.758	20.125	4.974	0.540
879.500	522.606	80.008	19.992	103.743	20.123	5.164	0.520
880.000	522.893	79.999	19.996	103.731	20.125	4.974	0.502
880.500	523.100	80.007	19.993	103.722	20.124	5.115	0.499
881.000	523.357	80.003	19.995	103.713	20.128	4.778	0.479
881.500	523.595	80.009	19.993	103.704	20.127	4.839	0.480
882.000	523.880	80.001	19.994	103.699	20.123	5.152	0.509
882.500	524.082	80.006	19.994	103.692	20.125	4.965	0.505
883.000	524.357	80.004	19.995	103.684	20.126	4.939	0.482
883.500	524.641	80.007	19.993	103.675	20.126	4.885	0.518
884.000	524.899	80.007	19.993	103.671	20.127	4.821	0.551
884.500	525.157	80.006	19.993	103.668	20.130	4.573	0.529
885.000	525.415	80.008	19.993	103.669	20.128	4.726	0.516
885.500	525.678	80.011	19.992	103.675	20.128	4.767	0.518
886.000	525.915	80.004	19.994	103.683	20.127	4.834	0.510
886.500	526.166	80.008	19.993	103.688	20.130	4.618	0.495
887.000	526.420	80.008	19.994	103.696	20.129	4.685	0.497
887.500	526.669	80.014	19.992	103.703	20.129	4.700	0.503
888.000	526.920	80.011	19.993	103.711	20.129	4.687	0.501
888.500	527.205	80.012	19.991	103.718	20.127	4.812	0.518
889.000	527.451	80.012	19.992	103.726	20.129	4.681	0.534
889.500	527.714	80.009	19.994	103.734	20.130	4.586	0.520
890.000	527.969	80.007	19.993	103.741	20.131	4.563	0.514
890.500	528.205	80.010	19.995	103.743	20.130	4.578	0.505
891.000	528.484	80.010	19.993	103.747	20.129	4.654	0.503
891.500	528.701	80.008	19.993	103.748	20.130	4.608	0.505
892.000	528.985	80.008	19.993	103.752	20.128	4.729	0.498
892.501	529.244	80.004	19.993	103.757	20.130	4.574	0.522
893.000	529.515	80.014	19.992	103.765	20.131	4.543	0.536
893.500	529.757	80.005	19.994	103.772	20.130	4.628	0.521
894.000	529.992	80.011	19.992	103.780	20.133	4.386	0.495
894.500	530.243	80.014	19.991	103.784	20.135	4.245	0.482
895.000	530.492	80.027	19.990	103.788	20.134	4.329	0.493
895.500	530.777	80.014	19.992	103.792	20.137	4.083	0.517
896.000	530.989	80.009	19.992	103.794	20.135	4.200	0.515
896.500	531.285	80.012	19.992	103.794	20.132	4.431	0.502
897.000	531.509	80.015	19.992	103.794	20.131	4.489	0.514
897.500	531.767	80.006	19.994	103.793	20.134	4.271	0.501
898.000	532.016	80.014	19.992	103.788	20.135	4.237	0.495
898.500	532.291	80.007	19.993	103.788	20.130	4.639	0.515
899.000	532.522	80.010	19.994	103.791	20.135	4.179	0.515
899.500	532.795	80.012	19.993	103.795	20.133	4.397	0.505
900.000	533.059	80.011	19.994	103.801	20.134	4.276	0.520
900.500	533.325	80.020	19.991	103.809	20.136	4.166	0.534
901.000	533.563	80.013	19.992	103.816	20.134	4.313	0.517
901.500	533.796	80.010	19.993	103.819	20.134	4.272	0.487
902.000	534.071	79.995	19.995	103.820	20.135	4.192	0.489
902.500	534.313	80.008	19.994	103.818	20.133	4.367	0.512
903.000	534.602	80.012	19.991	103.817	20.135	4.202	0.524
903.500	534.849	80.010	19.993	103.816	20.134	4.306	0.534
904.000	535.088	80.007	19.994	103.816	20.134	4.291	0.511
904.500	535.329	80.008	19.993	103.815	20.135	4.217	0.483
905.000	535.616	80.012	19.992	103.818	20.136	4.163	0.504
905.500	535.836	80.005	19.993	103.819	20.133	4.371	0.517
906.000	536.112	80.015	19.993	103.816	20.130	4.617	0.501
906.500	536.374	80.007	19.994	103.816	20.133	4.403	0.517
907.000	536.574	80.014	19.994	103.814	20.131	4.527	0.500
907.500	536.841	80.005	19.994	103.812	20.134	4.276	0.465
908.000	537.143	80.012	19.993	103.811	20.132	4.470	0.518
908.500	537.431	80.021	19.993	103.814	20.132	4.464	0.579
909.000	537.656	80.006	19.995	103.816	20.132	4.429	0.551
909.500	537.889	80.006	19.997	103.819	20.132	4.449	0.486
910.000	538.155	80.017	19.994	103.825	20.133	4.362	0.479
910.500	538.414	79.996	19.996	103.832	20.133	4.393	0.512
911.000	538.655	80.007	19.995	103.835	20.135	4.211	0.512
911.500	538.931	80.008	19.994	103.839	20.135	4.231	0.509
912.000	539.201	80.012	19.994	103.841	20.133	4.345	0.531
912.500	539.464	80.010	19.995	103.840	20.134	4.272	0.539
913.000	539.729	80.007	19.996	103.836	20.136	4.099	0.531
913.501	539.982	80.000	19.996	103.832	20.133	4.349	0.524
914.000	540.192	80.009	19.994	103.825	20.134	4.286	0.490
914.500	540.502	80.006	19.996	103.824	20.134	4.271	0.491
915.000	540.723	79.995	19.996	103.821	20.133	4.334	0.525
915.501	541.002	80.008	19.996	103.817	20.134	4.267	0.516
916.001	541.225	80.004	19.994	103.823	20.131	4.524	0.502
916.500	541.517	80.006	19.994	103.827	20.135	4.234	0.509
917.000	541.763	80.007	19.994	103.827	20.137	4.090	0.526
917.500	542.007	80.011	19.994	103.828	20.136	4.172	0.514
918.000	542.271	80.007	19.995	103.829	20.136	4.150	0.499
918.500	542.545	80.009	19.993	103.824	20.139	3.919	0.523
919.000	542.813	80.009	19.994	103.823	20.137	4.083	0.540
919.500	543.029	80.008	19.994	103.821	20.137	4.029	0.513
920.000	543.286	80.000	19.994	103.822	20.136	4.131	0.479
920.500	543.523	80.004	19.995	103.827	20.135	4.180	0.483
921.000	543.789	80.006	19.993	103.828	20.132	4.414	0.498
921.500	544.050	80.012	19.992	103.828	20.137	4.064	0.515
922.000	544.320	80.010	19.993	103.828	20.137	4.031	0.529
922.500	544.551	80.015	19.995	103.828	20.136	4.107	0.516
923.000	544.793	80.015	19.994	103.826	20.135	4.213	0.488
923.500	545.026	80.014	19.993	103.827	20.138	3.990	0.474
924.000	545.316	80.005	19.994	103.827	20.135	4.180	0.498
924.500	545.563	79.996	19.996	103.827	20.135	4.178	0.530
925.001	545.843	80.009	19.995	103.822	20.137	4.038	0.533
925.500	546.105	80.016	19.994	103.820	20.138	3.949	0.534
926.000	546.359	79.983	19.995	103.817	20.137	4.027	0.528
926.500	546.599	80.006	19.996	103.816	20.134	4.254	0.505
927.000	546.889	80.010	19.993	103.813	20.140	3.796	0.512
927.500	547.119	80.003	19.995	103.819	20.140	3.824	0.525
928.000	547.376	80.006	19.994	103.815	20.137	4.085	0.504
928.500	547.655	80.016	19.994	103.815	20.138	3.975	0.512
929.000	547.905	80.006	19.994	103.816	20.138	3.988	0.533
929.500	548.167	80.009	19.994	103.817	20.139	3.917	0.520
930.000	548.417	79.997	19.996	103.816	20.140	3.816	0.512
930.500	548.688	80.006	19.994	103.817	20.139	3.922	0.517
931.000	548.959	80.013	19.994	103.818	20.140	3.844	0.531
931.500	549.208	80.007	19.993	103.818	20.137	4.029	0.531
932.000	549.474	80.004	19.995	103.818	20.137	4.029	0.518
932.500	549.739	80.010	19.993	103.818	20.138	3.992	0.523
933.000	549.988	80.005	19.995	103.818	20.136	4.150	0.523
933.500	550.255	80.010	19.994	103.816	20.137	4.051	0.515
934.000	550.502	80.009	19.996	103.816	20.136	4.098	0.515
934.501	550.772	80.006	19.993	103.816	20.137	4.021	0.515
935.000	551.008	80.003	19.997	103.817	20.138	4.008	0.511
935.500	551.286	80.013	19.994	103.818	20.134	4.323	0.510
936.000	551.505	80.009	19.993	103.820	20.136	4.131	0.506
936.500	551.775	79.997	19.997	103.819	20.132	4.453	0.494
937.000	552.012	80.007	19.996	103.818	20.134	4.316	0.498
937.500	552.305	80.006	19.996	103.816	20.135	4.250	0.518
938.000	552.553	80.004	19.998	103.817	20.135	4.230	0.535
938.500	552.799	80.004	19.996	103.817	20.136	4.148	0.518
939.000	553.053	80.020	19.994	103.816	20.134	4.252	0.497
939.500	553.374	80.022	19.994	103.820	20.135	4.202	0.538
940.000	553.621	80.036	19.992	103.825	20.136	4.133	0.571
940.500	553.846	79.993	19.996	103.833	20.136	4.113	0.520
941.000	554.152	80.009	19.995	103.830	20.136	4.122	0.502
941.500	554.382	80.003	19.996	103.831	20.135	4.241	0.534
942.000	554.662	80.013	19.992	103.825	20.139	3.923	0.523
942.500	554.908	80.009	19.996	103.822	20.137	4.085	0.518
943.000	555.180	80.005	19.994	103.815	20.138	3.958	0.522
943.500	555.436	80.015	19.993	103.817	20.138	3.936	0.523
944.000	555.661	80.001	19.995	103.818	20.137	4.066	0.504
944.500	555.900	80.005	19.994	103.821	20.138	3.938	0.473
945.000	556.201	80.013	19.996	103.821	20.137	4.083	0.502
945.500	556.400	80.005	19.995	103.819	20.137	4.076	0.520
946.000	556.677	80.010	19.994	103.817	20.139	3.893	0.488
946.500	556.945	80.009	19.993	103.817	20.139	3.869	0.510
947.000	557.179	80.014	19.995	103.818	20.137	4.066	0.524
947.500	557.450	80.012	19.994	103.818	20.136	4.159	0.504
948.000	557.715	80.009	19.991	103.816	20.134	4.282	0.521
948.500	557.921	80.009	19.993	103.819	20.135	4.200	0.504
949.000	558.161	80.004	19.994	103.819	20.135	4.232	0.458
949.500	558.415	80.006	19.993	103.817	20.135	4.207	0.470
950.000	558.706	80.010	19.995	103.816	20.135	4.228	0.520
950.500	558.949	80.012	19.989	103.818	20.140	3.846	0.540
951.000	559.200	80.007	19.992	103.817	20.138	3.936	0.514
951.500	559.450	80.008	19.994	103.818	20.140	3.835	0.497
952.000	559.694	80.019	19.993	103.817	20.138	3.940	0.497
952.501	559.990	80.013	19.992	103.819	20.138	4.009	0.517
953.000	560.220	80.008	19.993	103.820	20.141	3.729	0.533
953.500	560.440	80.011	19.993	103.818	20.139	3.906	0.488
954.000	560.710	80.013	19.992	103.816	20.140	3.848	0.471
954.500	560.964	80.003	19.995	103.819	20.138	3.984	0.507
955.000	561.228	80.004	19.994	103.815	20.137	4.064	0.521
955.500	561.514	79.999	19.995	103.813	20.135	4.217	0.534
956.001	561.758	80.015	19.993	103.811	20.136	4.146	0.540
956.500	561.987	80.013	19.993	103.811	20.136	4.135	0.502
957.000	562.264	80.019	19.994	103.811	20.136	4.169	0.490
957.500	562.504	80.013	19.993	103.813	20.139	3.895	0.511
958.000	562.713	80.005	19.994	103.816	20.137	4.038	0.483
958.500	563.010	80.010	19.993	103.817	20.139	3.878	0.478
959.000	563.202	80.006	19.995	103.818	20.136	4.141	0.498
959.500	563.513	80.007	19.993	103.817	20.138	4.010	0.496
960.000	563.716	80.018	19.991	103.820	20.135	4.174	0.508
960.500	564.039	80.023	19.993	103.822	20.136	4.131	0.520
961.000	564.220	79.998	19.995	103.824	20.136	4.124	0.515
961.500	564.511	79.999	19.995	103.823	20.135	4.239	0.488
962.000	564.683	79.996	19.995	103.821	20.135	4.241	0.467
962.500	564.931	80.013	19.993	103.816	20.137	4.088	0.441
963.000	565.206	79.995	19.994	103.813	20.140	3.789	0.472
963.500	565.506	80.008	19.993	103.810	20.137	4.023	0.550
964.000	565.751	80.009	19.994	103.812	20.136	4.126	0.561
964.500	565.987	80.011	19.992	103.813	20.135	4.222	0.513
965.000	566.230	80.007	19.995	103.818	20.138	4.012	0.480
965.500	566.519	80.001	19.995	103.816	20.136	4.124	0.505
966.000	566.728	80.009	19.992	103.815	20.138	3.999	0.515
966.500	566.995	80.002	19.996	103.814	20.142	3.668	0.487
967.000	567.245	80.012	19.994	103.813	20.136	4.141	0.496
967.500	567.499	80.007	19.994	103.811	20.139	3.891	0.510
968.000	567.762	80.011	19.994	103.810	20.137	4.066	0.510
968.500	567.982	80.012	19.991	103.812	20.138	3.999	0.500
969.000	568.174	80.005	19.993	103.812	20.137	4.031	0.448
969.500	568.464	80.008	19.993	103.812	20.137	4.044	0.447
970.000	568.680	80.005	19.995	103.813	20.133	4.364	0.493
970.500	569.012	80.009	19.994	103.817	20.139	3.867	0.527
971.000	569.206	80.008	19.995	103.816	20.135	4.178	0.537
971.500	569.490	80.008	19.993	103.817	20.136	4.141	0.502
972.000	569.728	80.007	19.994	103.819	20.137	4.055	0.500
972.500	570.016	80.016	19.992	103.819	20.142	3.679	0.524
973.000	570.192	80.011	19.992	103.820	20.136	4.163	0.495
973.500	570.495	80.008	19.994	103.821	20.141	3.727	0.472
974.000	570.695	80.007	19.995	103.819	20.139	3.859	0.491
974.500	570.943	80.009	19.993	103.819	20.134	4.295	0.476
975.000	571.213	80.011	19.994	103.819	20.138	3.941	0.483
975.500	571.476	80.002	19.995	103.818	20.139	3.867	0.525
976.000	571.645	80.007	19.993	103.816	20.142	3.690	0.482
976.500	571.983	80.008	19.993	103.816	20.137	4.070	0.470
977.000	572.230	80.018	19.991	103.815	20.143	3.612	0.546
977.500	572.438	80.014	19.991	103.816	20.127	4.805	0.519
978.000	572.685	80.013	19.993	103.816	20.127	4.854	0.455
978.500	572.883	80.017	19.992	103.817	20.143	3.619	0.450
979.000	573.246	80.008	19.993	103.821	20.136	4.148	0.503
979.500	573.402	80.004	19.994	103.823	20.131	4.543	0.540
980.000	573.662	80.011	19.994	103.820	20.142	3.688	0.468
980.500	573.990	80.009	19.993	103.818	20.141	3.712	0.502
981.000	574.214	80.011	19.993	103.817	20.146	3.370	0.570
981.500	574.459	80.007	19.992	103.815	20.146	3.351	0.510
982.000	574.743	80.003	19.993	103.814	20.135	4.228	0.499
982.500	574.958	80.011	19.993	103.815	20.133	4.384	0.514
983.000	575.215	80.009	19.993	103.816	20.139	3.874	0.485
983.500	575.529	80.012	19.993	103.818	20.139	3.897	0.521
984.001	575.654	80.005	19.992	103.818	20.136	4.098	0.505
984.501	575.898	80.012	19.993	103.818	20.135	4.178	0.404
985.001	576.171	80.014	19.992	103.819	20.139	3.915	0.443
985.501	576.480	80.012	19.993	103.819	20.137	4.079	0.549
986.000	576.792	80.017	19.992	103.816	20.133	4.368	0.602
986.500	576.966	80.010	19.992	103.816	20.138	4.003	0.554
987.000	577.145	80.011	19.994	103.817	20.136	4.124	0.419
987.500	577.620	80.008	19.993	103.815	20.137	4.053	0.504
988.000	577.763	80.021	19.991	103.811	20.136	4.120	0.636
988.500	577.757	80.006	19.993	103.818	20.138	3.971	0.378
989.000	578.174	80.011	19.992	103.816	20.143	3.580	0.274
989.500	578.402	79.999	19.994	103.817	20.139	3.913	0.528
990.000	579.056	80.011	19.994	103.816	20.138	3.999	0.763
990.500	578.593	80.006	19.995	103.819	20.139	3.934	0.536
991.000	579.372	80.009	19.992	103.815	20.138	3.958	0.254
991.500	578.811	80.007	19.993	103.816	20.137	4.016	0.268
992.000	579.196	80.010	19.994	103.817	20.138	3.975	0.021
992.500	580.400	80.008	19.994	103.820	20.140	3.828	0.706
993.000	579.760	80.006	19.994	103.820	20.140	3.833	1.077
993.500	580.425	80.000	19.994	103.820	20.137	4.062	0.295
994.000	581.177	80.009	19.994	103.821	20.144	3.506	0.721
994.500	581.590	80.007	19.997	103.819	20.141	3.757	1.291
995.000	581.829	80.000	19.995	103.815	20.142	3.673	0.909
995.500	582.112	80.012	19.993	103.813	20.138	3.962	0.587
996.000	582.016	80.009	19.992	103.814	20.140	3.796	0.355
996.500	581.668	80.006	19.995	103.814	20.142	3.632	-0.128
997.000	582.459	80.012	19.996	103.815	20.137	4.077	-0.000
997.500	582.389	80.004	19.999	103.821	20.141	3.761	0.582
998.000	582.708	80.006	19.997	103.823	20.138	3.984	0.484
998.500	582.895	80.012	19.992	103.821	20.139	3.923	0.377
999.000	583.293	80.005	19.992	103.822	20.139	3.891	0.545
999.500	583.566	80.010	19.996	103.823	20.139	3.887	0.628
1000.000	583.646	80.006	19.993	103.821	20.143	3.548	0.513
1000.500	583.894	80.016	19.999	103.821	20.139	3.859	0.341
1001.000	584.364	80.004	19.996	103.823	20.139	3.902	0.523
1001.500	584.390	80.014	19.995	103.822	20.139	3.880	0.607
1002.000	584.686	80.006	19.996	103.822	20.139	3.897	0.409
1002.501	585.002	80.001	19.996	103.821	20.140	3.837	0.467
1003.000	585.319	80.004	19.994	103.820	20.137	4.047	0.622
1003.500	585.504	80.010	19.994	103.818	20.140	3.811	0.567
1004.000	585.669	80.004	19.995	103.818	20.136	4.135	0.426
1004.500	585.908	80.005	19.994	103.817	20.136	4.135	0.377
1005.000	586.326	80.011	19.994	103.817	20.137	4.081	0.531
1005.500	586.438	80.009	19.994	103.819	20.135	4.185	0.594
1006.000	586.749	80.010	19.993	103.817	20.141	3.746	0.477
1006.500	586.984	80.010	19.996	103.817	20.137	4.062	0.484
1007.000	587.246	80.008	19.993	103.815	20.142	3.664	0.521
1007.500	587.494	80.006	19.994	103.815	20.139	3.867	0.504
1008.000	587.743	80.011	19.994	103.816	20.140	3.818	0.504
1008.500	587.980	80.007	19.992	103.819	20.140	3.816	0.491
1009.000	588.244	80.013	19.993	103.819	20.140	3.850	0.493
1009.500	588.549	80.005	19.996	103.822	20.142	3.692	0.535
1010.000	588.778	80.013	19.994	103.822	20.143	3.608	0.551
1010.500	588.947	80.014	19.995	103.822	20.141	3.720	0.466
1011.000	589.203	79.992	19.995	103.822	20.145	3.446	0.411
1011.500	589.504	80.005	19.994	103.817	20.142	3.642	0.491
1012.000	589.737	80.008	19.994	103.818	20.142	3.673	0.546
1012.500	589.985	80.007	19.993	103.817	20.141	3.768	0.508
1013.000	590.271	80.008	19.995	103.816	20.142	3.681	0.508
1013.500	590.487	80.009	19.995	103.817	20.140	3.818	0.518
1014.000	590.767	80.006	19.993	103.820	20.139	3.919	0.499
1014.500	591.043	80.007	19.992	103.820	20.140	3.837	0.526
1015.000	591.227	80.005	19.992	103.821	20.142	3.684	0.508
1015.500	591.500	80.003	19.995	103.822	20.143	3.582	0.458
1016.000	591.737	80.009	19.993	103.821	20.140	3.822	0.483
1016.500	592.026	80.011	19.995	103.823	20.139	3.859	0.518
1017.000	592.229	80.006	19.996	103.823	20.139	3.906	0.509
1017.500	592.553	80.005	19.995	103.823	20.141	3.766	0.510
1018.000	592.735	80.006	19.993	103.821	20.138	3.949	0.516
1018.500	592.978	80.007	19.993	103.821	20.141	3.733	0.465
1019.000	593.253	80.009	19.994	103.821	20.141	3.751	0.472
1019.500	593.524	80.008	19.992	103.823	20.140	3.820	0.532
1020.000	593.809	80.010	19.993	103.824	20.137	4.049	0.551
1020.500	594.047	80.014	19.993	103.825	20.137	4.027	0.539
1021.000	594.336	80.005	19.994	103.825	20.138	3.958	0.526
1021.500	594.613	80.004	19.995	103.823	20.135	4.230	0.547
1022.000	594.860	80.003	19.996	103.819	20.137	4.025	0.545
1022.500	595.109	80.004	19.993	103.817	20.136	4.163	0.510
1023.000	595.347	80.008	19.994	103.817	20.137	4.018	0.491
1023.500	595.632	80.010	19.994	103.817	20.139	3.861	0.505
1024.000	595.913	80.007	19.996	103.820	20.139	3.858	0.544
1024.500	596.149	80.008	19.994	103.823	20.137	4.076	0.542
1025.000	596.412	80.010	19.993	103.823	20.138	3.942	0.508
1025.500	596.675	80.015	19.993	103.824	20.140	3.828	0.512
1026.000	596.921	80.025	19.993	103.824	20.137	4.057	0.517
1026.500	597.201	80.006	19.993	103.826	20.137	4.038	0.518
1027.000	597.447	80.014	19.993	103.826	20.136	4.133	0.527
1027.500	597.698	80.003	19.995	103.828	20.138	3.973	0.512
1028.000	597.926	80.001	19.996	103.827	20.136	4.172	0.488
1028.500	598.182	80.011	19.993	103.826	20.135	4.208	0.481
1029.000	598.511	80.006	19.995	103.822	20.138	3.997	0.535
1029.500	598.739	80.010	19.994	103.822	20.137	4.051	0.571
1030.000	599.037	80.016	19.993	103.821	20.136	4.119	0.541
1030.500	599.246	80.003	19.996	103.823	20.138	3.983	0.516
1031.000	599.499	80.001	19.997	103.822	20.136	4.137	0.485
1031.500	599.796	80.000	19.995	103.819	20.137	4.053	0.506
1032.000	600.016	80.008	19.995	103.819	20.135	4.187	0.533
1032.500	600.259	80.010	19.993	103.818	20.135	4.226	0.490
1033.000	600.560	80.009	19.995	103.816	20.135	4.221	0.504
1033.501	600.798	80.008	19.996	103.818	20.135	4.210	0.541
1034.001	601.090	80.015	19.994	103.818	20.134	4.299	0.534
1034.500	601.280	80.006	19.996	103.816	20.135	4.243	0.506
1035.000	601.522	80.010	19.994	103.809	20.137	4.057	0.457
1035.500	601.803	80.008	19.995	103.806	20.137	4.059	0.477
1036.000	602.015	80.008	19.995	103.805	20.136	4.122	0.508
1036.500	602.305	80.001	19.995	103.805	20.135	4.174	0.497
1037.000	602.596	80.007	19.995	103.806	20.136	4.141	0.542
1037.500	602.847	80.009	19.995	103.812	20.135	4.176	0.562
1038.000	603.071	80.010	19.995	103.815	20.134	4.288	0.508
1038.500	603.360	80.008	19.994	103.814	20.135	4.226	0.494
1039.000	603.635	80.011	19.994	103.812	20.138	3.986	0.539
1039.500	603.894	80.008	19.995	103.810	20.136	4.165	0.549
1040.000	604.094	80.007	19.995	103.810	20.138	3.990	0.496
1040.500	604.397	80.008	19.994	103.810	20.136	4.109	0.481
1041.001	604.661	80.009	19.995	103.805	20.136	4.124	0.535
1041.501	604.931	80.010	19.993	103.807	20.138	3.936	0.550
1042.000	605.203	80.009	19.995	103.809	20.137	4.018	0.537
1042.500	605.448	80.009	19.992	103.809	20.138	3.964	0.529
1043.000	605.665	80.011	19.994	103.810	20.138	3.955	0.490
1043.500	605.927	80.007	19.994	103.816	20.136	4.165	0.471
1044.000	606.165	80.000	19.995	103.813	20.138	3.938	0.490
1044.500	606.478	80.007	19.994	103.807	20.134	4.281	0.526
1045.000	606.725	80.010	19.993	103.806	20.138	4.002	0.555
1045.500	606.939	80.003	19.994	103.805	20.138	3.977	0.510
1046.000	607.235	80.008	19.995	103.804	20.138	3.979	0.486
1046.501	607.449	80.004	19.994	103.808	20.135	4.176	0.510
1047.001	607.744	80.007	19.993	103.813	20.135	4.245	0.509
1047.500	607.982	80.009	19.994	103.811	20.135	4.215	0.521
1048.000	608.272	80.006	19.994	103.813	20.137	4.016	0.531
1048.500	608.504	80.008	19.994	103.814	20.140	3.783	0.525
1049.001	608.770	80.009	19.993	103.814	20.135	4.215	0.510
1049.501	609.008	80.008	19.993	103.816	20.138	3.999	0.500
1050.000	609.282	80.008	19.993	103.820	20.137	4.018	0.508
1050.500	609.538	80.009	19.992	103.819	20.136	4.135	0.521
1051.001	609.807	80.007	19.993	103.819	20.137	4.023	0.527
1051.501	610.043	80.008	19.995	103.817	20.138	3.951	0.515
1052.001	610.275	80.009	19.992	103.816	20.136	4.133	0.487
1052.501	610.528	80.008	19.993	103.815	20.140	3.800	0.477
1053.000	610.815	80.010	19.993	103.815	20.137	4.046	0.512
1053.500	611.077	80.009	19.993	103.813	20.138	3.949	0.544
1054.001	611.285	80.009	19.993	103.811	20.140	3.852	0.510
1054.501	611.564	80.009	19.993	103.809	20.139	3.929	0.479
1055.000	611.877	80.007	19.995	103.804	20.141	3.739	0.540
1055.500	612.114	80.010	19.993	103.799	20.136	4.141	0.571
1056.001	612.356	80.008	19.992	103.796	20.137	4.083	0.514
1056.501	612.622	80.010	19.995	103.797	20.139	3.906	0.494
1057.001	612.856	80.009	19.995	103.800	20.141	3.735	0.504
1057.500	613.094	80.005	19.995	103.805	20.139	3.859	0.486
1058.001	613.362	80.010	19.994	103.811	20.138	3.960	0.489
1058.501	613.631	80.010	19.993	103.814	20.141	3.759	0.521
1059.000	613.882	80.009	19.994	103.816	20.138	3.949	0.529
1059.500	614.124	80.010	19.994	103.815	20.137	4.035	0.507
1060.000	614.380	80.010	19.994	103.815	20.137	4.083	0.495
1060.500	614.659	80.009	19.994	103.813	20.140	3.834	0.516
1061.000	614.914	80.009	19.993	103.813	20.138	3.951	0.535
1061.500	615.160	80.010	19.994	103.813	20.138	3.984	0.518
1062.000	615.433	80.010	19.993	103.813	20.138	4.007	0.510
1062.500	615.673	80.010	19.994	103.812	20.136	4.109	0.516
1063.001	615.925	80.007	19.994	103.814	20.140	3.787	0.503
1063.501	616.193	80.011	19.992	103.812	20.139	3.910	0.506
1064.000	616.435	80.009	19.992	103.811	20.139	3.891	0.515
1064.501	616.689	80.006	19.994	103.809	20.138	3.941	0.503
1065.001	616.952	80.011	19.994	103.809	20.137	4.029	0.506
1065.500	617.206	80.009	19.992	103.809	20.136	4.103	0.517
1066.000	617.481	80.008	19.994	103.812	20.137	4.062	0.523
1066.500	617.754	80.008	19.993	103.814	20.136	4.131	0.538
1067.000	617.999	80.008	19.993	103.816	20.139	3.928	0.533
1067.501	618.267	80.008	19.993	103.819	20.138	3.960	0.516
1068.001	618.513	80.008	19.993	103.819	20.136	4.144	0.514
1068.501	618.779	80.007	19.994	103.818	20.134	4.267	0.513
1069.001	619.024	80.010	19.994	103.818	20.137	4.027	0.512
1069.501	619.297	80.010	19.993	103.818	20.135	4.213	0.514
1070.000	619.505	80.007	19.993	103.814	20.136	4.159	0.499
1070.500	619.825	80.011	19.992	103.810	20.137	4.085	0.505
1071.000	620.072	80.005	19.993	103.811	20.138	3.969	0.547
1071.500	620.325	80.010	19.992	103.810	20.138	3.949	0.533
1072.000	620.566	80.006	19.992	103.808	20.138	4.001	0.497
1072.500	620.839	80.008	19.993	103.811	20.135	4.221	0.504
1073.000	621.098	80.008	19.993	103.815	20.136	4.170	0.523
1073.500	621.338	80.006	19.993	103.814	20.136	4.128	0.516
1074.001	621.598	80.008	19.993	103.817	20.135	4.176	0.499
1074.501	621.865	80.010	19.992	103.820	20.135	4.217	0.513
1075.000	622.123	80.009	19.992	103.818	20.138	3.966	0.526
1075.500	622.389	80.009	19.992	103.815	20.135	4.239	0.525
1076.000	622.661	80.007	19.993	103.816	20.136	4.107	0.531
1076.500	622.887	80.008	19.993	103.817	20.133	4.336	0.518
1077.001	623.189	80.007	19.993	103.817	20.137	4.051	0.513
1077.501	623.451	80.005	19.993	103.816	20.133	4.377	0.546
1078.000	623.708	80.007	19.993	103.818	20.137	4.090	0.541
1078.500	623.975	80.007	19.994	103.817	20.137	4.064	0.522
1079.000	624.245	80.008	19.993	103.817	20.138	4.012	0.531
1079.500	624.475	80.006	19.992	103.818	20.136	4.142	0.518
1080.000	624.724	80.007	19.993	103.821	20.137	4.029	0.489
1080.500	625.003	80.010	19.993	103.822	20.133	4.349	0.503
1081.000	625.265	80.007	19.992	103.820	20.139	3.915	0.535
1081.500	625.536	80.006	19.993	103.818	20.133	4.351	0.537
1082.000	625.780	80.009	19.994	103.819	20.135	4.187	0.524
1082.500	626.032	80.005	19.994	103.819	20.134	4.321	0.505
1083.000	626.272	80.006	19.994	103.819	20.131	4.494	0.494
1083.500	626.561	80.007	19.993	103.817	20.136	4.124	0.510
1084.000	626.816	80.006	19.993	103.815	20.134	4.282	0.536
1084.500	627.053	80.005	19.992	103.812	20.134	4.269	0.518
1085.000	627.349	80.008	19.992	103.810	20.133	4.360	0.513
1085.500	627.616	80.008	19.992	103.811	20.136	4.155	0.548
1086.000	627.855	80.007	19.993	103.815	20.135	4.215	0.534
1086.500	628.068	80.008	19.995	103.820	20.134	4.327	0.479
1087.000	628.402	80.007	19.993	103.823	20.131	4.541	0.499
1087.500	628.684	80.005	19.993	103.824	20.132	4.483	0.581
1088.000	628.907	80.006	19.993	103.824	20.136	4.167	0.561
1088.500	629.159	80.007	19.994	103.824	20.135	4.226	0.490
1089.000	629.422	80.009	19.993	103.823	20.133	4.358	0.495
1089.501	629.693	80.010	19.993	103.823	20.132	4.435	0.524
1090.001	629.953	80.008	19.993	103.823	20.134	4.308	0.533
1090.500	630.227	80.006	19.995	103.823	20.136	4.133	0.533
1091.000	630.510	80.008	19.995	103.822	20.134	4.260	0.545
1091.500	630.739	80.007	19.994	103.821	20.135	4.206	0.534
1092.000	631.020	80.009	19.994	103.821	20.136	4.137	0.511
1092.501	631.255	80.010	19.994	103.820	20.135	4.206	0.514
1093.001	631.566	80.006	19.994	103.819	20.134	4.254	0.531
1093.501	631.784	80.009	19.994	103.818	20.135	4.213	0.537
1094.001	632.038	80.008	19.996	103.818	20.136	4.124	0.501
1094.500	632.329	80.006	19.993	103.818	20.138	3.990	0.509
1095.000	632.558	80.009	19.995	103.818	20.135	4.241	0.532
1095.500	632.786	80.008	19.993	103.817	20.135	4.215	0.488
1096.000	633.096	80.008	19.994	103.819	20.137	4.070	0.497
1096.500	633.346	80.006	19.994	103.818	20.135	4.247	0.549
1097.000	633.602	80.005	19.995	103.818	20.137	4.047	0.533
1097.500	633.900	80.010	19.994	103.817	20.135	4.202	0.530
1098.000	634.138	80.007	19.995	103.818	20.137	4.040	0.545
1098.500	634.433	80.008	19.994	103.816	20.137	4.031	0.535
1099.000	634.678	80.010	19.994	103.816	20.136	4.114	0.537
1099.500	634.948	80.009	19.994	103.817	20.139	3.859	0.527
1100.000	635.202	80.008	19.994	103.820	20.135	4.189	0.519
1100.500	635.453	80.007	19.994	103.820	20.136	4.159	0.514
1101.000	635.726	80.009	19.994	103.820	20.136	4.111	0.514
1101.500	636.009	80.006	19.996	103.819	20.137	4.092	0.540
1102.001	636.267	80.006	19.994	103.818	20.137	4.053	0.549
1102.501	636.561	80.008	19.993	103.817	20.138	4.005	0.547
1103.000	636.824	80.010	19.993	103.817	20.135	4.243	0.554
1103.500	637.089	80.008	19.994	103.817	20.137	4.016	0.542
1104.001	637.345	80.009	19.993	103.817	20.138	3.984	0.524
1104.501	637.622	80.007	19.995	103.819	20.140	3.822	0.527
1105.000	637.835	80.010	19.994	103.818	20.137	4.038	0.512
1105.500	638.142	80.009	19.994	103.819	20.136	4.096	0.505
1106.000	638.424	80.008	19.994	103.820	20.137	4.062	0.554
1106.501	638.666	80.006	19.994	103.821	20.136	4.148	0.557
1107.001	638.903	80.005	19.995	103.820	20.136	4.170	0.502
1107.500	639.180	80.008	19.993	103.819	20.134	4.258	0.497
1108.000	639.479	80.006	19.995	103.818	20.136	4.155	0.545
1108.500	639.730	80.006	19.993	103.819	20.139	3.932	0.563
1109.000	639.972	80.007	19.996	103.818	20.139	3.904	0.522
1109.500	640.279	80.009	19.994	103.819	20.138	3.990	0.521
1110.000	640.511	80.009	19.994	103.819	20.139	3.913	0.544
1110.500	640.777	80.009	19.995	103.819	20.137	4.066	0.519
1111.001	641.056	80.007	19.994	103.819	20.137	4.018	0.521
1111.501	641.312	80.010	19.993	103.819	20.137	4.072	0.540
1112.000	641.555	80.010	19.994	103.819	20.140	3.850	0.517
1112.500	641.825	80.009	19.995	103.819	20.137	4.040	0.506
1113.000	642.085	80.010	19.994	103.819	20.137	4.057	0.522
1113.500	642.388	80.008	19.994	103.819	20.138	3.967	0.547
1114.000	642.606	80.009	19.993	103.820	20.137	4.088	0.543
1114.500	642.898	80.006	19.994	103.819	20.136	4.120	0.515
1115.000	643.136	80.009	19.995	103.819	20.136	4.111	0.520
1115.500	643.434	80.011	19.993	103.819	20.137	4.038	0.533
1116.000	643.672	80.008	19.992	103.821	20.134	4.258	0.536
1116.500	643.927	80.012	19.995	103.821	20.135	4.181	0.514
1117.000	644.217	80.009	19.996	103.824	20.137	4.019	0.519
1117.500	644.459	80.009	19.995	103.825	20.139	3.930	0.538
1118.000	644.742	80.009	19.995	103.825	20.139	3.928	0.529
1118.500	644.998	80.010	19.994	103.824	20.138	4.008	0.532
1119.001	645.260	80.009	19.995	103.823	20.134	4.308	0.529
1119.501	645.495	80.010	19.994	103.821	20.137	4.029	0.507
1120.001	645.759	80.009	19.995	103.820	20.138	3.997	0.498
1120.501	645.999	80.010	19.995	103.820	20.140	3.811	0.502
1121.000	646.263	80.009	19.996	103.819	20.139	3.921	0.504
1121.500	646.518	80.010	19.996	103.818	20.136	4.111	0.511
1122.000	646.796	80.008	19.994	103.817	20.140	3.805	0.526
1122.500	647.073	80.009	19.994	103.816	20.140	3.852	0.544
1123.000	647.329	80.006	19.994	103.817	20.137	4.038	0.544
1123.500	647.585	80.008	19.995	103.817	20.137	4.079	0.523
1124.000	647.822	80.008	19.995	103.817	20.135	4.202	0.503
1124.500	648.117	80.007	19.995	103.818	20.139	3.880	0.512
1125.000	648.372	80.010	19.994	103.818	20.140	3.839	0.541
1125.500	648.620	80.007	19.995	103.818	20.137	4.021	0.526
1126.000	648.885	80.008	19.995	103.819	20.137	4.079	0.508
1126.500	649.152	80.009	19.993	103.819	20.137	4.088	0.523
1127.000	649.409	80.007	19.993	103.821	20.136	4.148	0.528
1127.500	649.682	80.008	19.994	103.822	20.137	4.085	0.526
1128.000	649.927	80.009	19.994	103.821	20.136	4.105	0.524
1128.500	650.177	80.007	19.994	103.820	20.141	3.750	0.506
1129.000	650.472	80.006	19.995	103.820	20.138	3.971	0.520
1129.500	650.704	80.009	19.994	103.819	20.139	3.915	0.536
1130.000	650.952	80.008	19.994	103.818	20.139	3.872	0.503
1130.500	651.198	80.007	19.994	103.819	20.141	3.774	0.487
1131.000	651.486	80.007	19.994	103.821	20.135	4.204	0.514
1131.500	651.746	80.007	19.994	103.821	20.137	4.038	0.541
1132.000	652.001	80.007	19.994	103.821	20.128	4.755	0.532
1132.500	652.273	80.010	19.995	103.822	20.133	4.353	0.521
1133.000	652.497	80.010	19.995	103.823	20.137	4.016	0.512
1133.500	652.731	80.011	19.994	103.822	20.137	4.038	0.477
1134.000	653.005	80.006	19.995	103.823	20.137	4.021	0.483
1134.500	653.267	80.009	19.995	103.822	20.138	3.945	0.522
1135.000	653.557	80.007	19.994	103.820	20.141	3.701	0.544
1135.500	653.796	80.008	19.994	103.818	20.138	3.969	0.540
1136.000	654.072	80.008	19.993	103.818	20.138	3.937	0.522
1136.500	654.359	80.014	19.993	103.817	20.138	3.943	0.539
1137.000	654.584	80.009	19.993	103.818	20.141	3.749	0.538
1137.500	654.832	80.008	19.994	103.817	20.138	3.945	0.493
1138.000	655.095	80.006	19.994	103.817	20.138	3.975	0.492
1138.500	655.354	80.006	19.995	103.817	20.137	4.029	0.517
1139.000	655.626	80.010	19.993	103.815	20.137	4.062	0.526
1139.500	655.879	80.010	19.993	103.816	20.140	3.833	0.527
1140.000	656.176	80.008	19.994	103.818	20.138	3.941	0.538
1140.500	656.391	80.009	19.992	103.820	20.139	3.928	0.531
1141.000	656.593	80.008	19.995	103.821	20.140	3.844	0.464
1141.501	656.914	80.009	19.994	103.822	20.139	3.878	0.470
1142.001	657.150	80.012	19.993	103.821	20.142	3.658	0.540
1142.500	657.433	80.011	19.994	103.821	20.137	4.038	0.538
1143.000	657.634	80.011	19.993	103.822	20.140	3.779	0.502
1143.500	657.929	80.011	19.993	103.820	20.138	3.962	0.490
1144.000	658.154	80.010	19.993	103.821	20.139	3.889	0.508
1144.500	658.442	80.008	19.995	103.821	20.138	3.982	0.517
1145.000	658.669	80.011	19.993	103.821	20.137	4.027	0.514
1145.500	658.839	80.011	19.993	103.822	20.138	3.962	0.456
1146.000	658.340	80.007	19.993	103.825	20.139	3.932	0.034
1146.500	659.513	80.007	19.993	103.825	20.139	3.904	0.172
1147.000	659.624	80.011	19.993	103.825	20.142	3.683	0.979
1147.500	660.012	80.012	19.993	103.826	20.137	4.059	0.891
1148.000	660.185	80.010	19.993	103.825	20.139	3.904	0.530
1148.501	660.498	80.009	19.993	103.822	20.139	3.858	0.524
1149.001	660.703	80.009	19.993	103.822	20.138	3.947	0.502
1149.500	660.982	80.008	19.993	103.822	20.139	3.930	0.501
1150.000	661.239	80.009	19.993	103.822	20.138	3.969	0.510
1150.500	661.502	80.007	19.996	103.821	20.141	3.774	0.528
1151.000	661.716	80.010	19.995	103.821	20.138	3.988	0.498
1151.500	661.984	80.007	19.993	103.822	20.140	3.818	0.480
1152.000	662.246	80.007	19.994	103.822	20.140	3.789	0.506
1152.500	662.462	80.007	19.992	103.820	20.140	3.779	0.503
1153.001	662.718	80.008	19.993	103.821	20.138	3.943	0.475
1153.501	662.985	80.005	19.993	103.822	20.139	3.899	0.498
1154.001	663.197	80.008	19.994	103.821	20.138	3.973	0.501
1154.501	663.528	80.004	19.992	103.821	20.141	3.757	0.511
1155.001	663.715	80.008	19.995	103.822	20.141	3.748	0.530
1155.500	663.992	80.008	19.993	103.821	20.140	3.804	0.491
1156.001	664.259	80.010	19.993	103.820	20.139	3.895	0.504
1156.501	664.512	80.008	19.994	103.820	20.139	3.928	0.532
1157.000	664.742	80.008	19.995	103.817	20.137	4.018	0.501
1157.500	665.011	80.007	19.993	103.814	20.140	3.848	0.491
1158.000	665.267	80.007	19.995	103.815	20.138	3.977	0.512
1158.500	665.504	80.009	19.994	103.813	20.142	3.638	0.509
1159.000	665.760	80.008	19.994	103.814	20.139	3.911	0.493
1159.501	665.983	80.007	19.995	103.816	20.139	3.876	0.486
1160.001	666.262	80.009	19.994	103.818	20.138	3.939	0.491
1160.500	666.516	80.007	19.994	103.818	20.138	4.014	0.517
1161.000	666.782	80.008	19.994	103.819	20.141	3.708	0.526
1161.501	667.055	80.007	19.994	103.818	20.141	3.738	0.530
1162.001	667.276	80.009	19.993	103.819	20.138	3.965	0.517
1162.500	667.536	80.008	19.993	103.820	20.141	3.764	0.487
1163.000	667.745	80.006	19.994	103.820	20.140	3.796	0.475
1163.501	668.006	80.008	19.994	103.820	20.140	3.792	0.469
1164.001	668.323	80.009	19.993	103.820	20.140	3.785	0.524
1164.501	668.574	80.008	19.994	103.815	20.140	3.796	0.574
1165.000	668.841	80.007	19.994	103.814	20.138	3.943	0.543
1165.500	669.085	80.008	19.995	103.813	20.137	4.036	0.514
1166.000	669.324	80.007	19.994	103.814	20.139	3.865	0.497
1166.500	669.579	80.010	19.995	103.815	20.138	3.956	0.488
1167.000	669.816	80.008	19.994	103.820	20.138	3.973	0.493
1167.501	670.105	80.007	19.995	103.820	20.138	3.967	0.510
1168.001	670.357	80.008	19.993	103.820	20.139	3.906	0.534
1168.501	670.646	80.007	19.995	103.819	20.138	3.984	0.541
1169.001	670.869	80.010	19.993	103.819	20.137	4.055	0.526
1169.501	671.108	80.008	19.994	103.823	20.137	4.068	0.487
1170.001	671.397	80.009	19.993	103.824	20.138	3.971	0.495
1170.501	671.640	80.008	19.994	103.825	20.140	3.807	0.530
1171.000	671.879	80.007	19.994	103.826	20.136	4.122	0.507
1171.500	672.191	80.008	19.994	103.825	20.137	4.051	0.516
1172.000	672.429	80.008	19.993	103.824	20.138	3.990	0.551
1172.500	672.616	80.010	19.993	103.823	20.137	4.051	0.488
1173.000	672.952	80.008	19.993	103.826	20.139	3.895	0.474
1173.501	673.169	80.008	19.994	103.827	20.140	3.805	0.538
1174.001	673.449	80.008	19.994	103.829	20.139	3.921	0.525
1174.501	673.695	80.010	19.994	103.828	20.139	3.887	0.512
1175.000	674.002	80.009	19.994	103.828	20.143	3.599	0.540
1175.500	674.253	80.009	19.993	103.824	20.140	3.794	0.555
1176.000	674.456	80.008	19.993	103.824	20.140	3.783	0.506
1176.500	674.690	80.010	19.997	103.822	20.138	3.951	0.446
1177.000	675.073	80.012	19.995	103.821	20.137	4.034	0.528
1177.500	675.228	80.007	19.995	103.821	20.139	3.921	0.578
1178.000	675.607	80.009	19.994	103.821	20.139	3.919	0.536
1178.501	675.773	80.007	19.995	103.820	20.137	4.055	0.539
1179.001	676.140	80.006	19.997	103.821	20.139	3.923	0.539
1179.500	676.275	80.009	19.995	103.821	20.140	3.779	0.517
1180.000	676.571	80.008	19.993	103.820	20.139	3.917	0.466
1180.500	676.826	80.008	19.995	103.820	20.139	3.926	0.491
1181.000	677.061	80.007	19.994	103.820	20.135	4.219	0.520
1181.500	677.284	80.009	19.994	103.820	20.138	4.014	0.474
1182.000	677.535	80.010	19.995	103.820	20.140	3.839	0.466
1182.500	677.811	80.005	19.995	103.821	20.139	3.934	0.500
1183.000	678.029	80.006	19.994	103.821	20.137	4.064	0.510
1183.500	678.292	80.010	19.996	103.821	20.138	3.999	0.488
1184.001	678.571	80.008	19.994	103.821	20.136	4.115	0.512
1184.501	678.854	80.007	19.993	103.820	20.139	3.891	0.552
1185.000	679.068	80.005	19.994	103.820	20.138	3.967	0.529
1185.500	679.324	80.010	19.993	103.820	20.140	3.820	0.484
1186.000	679.540	80.004	19.996	103.820	20.139	3.910	0.471
1186.500	679.851	80.009	19.995	103.819	20.137	4.079	0.500
1187.000	680.097	80.008	19.994	103.820	20.139	3.908	0.541
1187.500	680.328	80.009	19.994	103.819	20.136	4.107	0.516
1188.000	680.588	80.005	19.994	103.819	20.138	3.964	0.484
1188.500	680.852	80.007	19.995	103.818	20.138	4.014	0.508
1189.000	681.081	80.007	19.994	103.817	20.139	3.885	0.509
1189.500	681.340	80.006	19.994	103.816	20.138	3.952	0.491
1190.000	681.617	80.006	19.995	103.817	20.140	3.794	0.512
1190.500	681.872	80.008	19.994	103.816	20.138	3.958	0.534
1191.001	682.109	80.008	19.995	103.816	20.140	3.818	0.512
1191.501	682.371	80.007	19.994	103.819	20.137	4.064	0.495
1192.000	682.615	80.006	19.994	103.819	20.137	4.068	0.502
1192.500	682.864	80.007	19.994	103.819	20.138	3.999	0.499
1193.000	683.086	80.007	19.995	103.820	20.140	3.783	0.482
1193.500	683.387	80.009	19.995	103.815	20.139	3.934	0.497
1194.001	683.619	80.007	19.994	103.814	20.135	4.176	0.529
1194.501	683.878	80.006	19.994	103.814	20.138	3.945	0.512
1195.000	684.093	80.007	19.994	103.814	20.138	3.967	0.482
1195.500	684.376	80.008	19.994	103.814	20.137	4.027	0.486
1196.000	684.619	80.009	19.993	103.817	20.139	3.908	0.512
1196.500	684.818	80.008	19.994	103.819	20.137	4.051	0.484
1197.000	685.133	80.010	19.994	103.819	20.141	3.774	0.478
1197.500	685.396	80.009	19.993	103.819	20.140	3.843	0.546
1198.000	685.626	80.010	19.992	103.820	20.136	4.146	0.535
1198.500	685.841	80.008	19.994	103.821	20.136	4.126	0.468
1199.001	686.111	80.010	19.993	103.820	20.140	3.794	0.465
1199.501	686.369	80.010	19.994	103.820	20.138	4.008	0.507
1200.000	686.652	80.010	19.993	103.820	20.141	3.737	0.535
1200.501	686.888	80.010	19.994	103.820	20.140	3.780	0.530
1201.001	687.158	80.010	19.993	103.820	20.138	3.975	0.512
1201.500	687.377	80.008	19.994	103.821	20.141	3.771	0.498
1202.000	687.625	80.008	19.995	103.821	20.139	3.923	0.478
1202.500	687.858	80.008	19.993	103.821	20.139	3.929	0.474
1203.000	688.137	80.011	19.994	103.821	20.140	3.826	0.496
1203.500	688.426	80.010	19.993	103.821	20.139	3.917	0.540
1204.001	688.651	80.008	19.993	103.821	20.139	3.900	0.541
1204.501	688.919	80.012	19.993	103.821	20.138	3.945	0.504
1205.000	689.131	80.009	19.994	103.821	20.139	3.915	0.487
1205.500	689.389	80.008	19.993	103.820	20.142	3.645	0.475
1206.000	689.687	80.009	19.993	103.821	20.138	4.007	0.513
1206.501	689.907	80.011	19.993	103.821	20.140	3.793	0.538
1207.001	690.150	80.007	19.993	103.822	20.138	3.994	0.490
1207.500	690.405	80.010	19.994	103.821	20.139	3.918	0.480
1208.000	690.645	80.007	19.993	103.821	20.138	3.994	0.496
1208.501	690.924	80.008	19.995	103.820	20.142	3.657	0.508
1209.001	691.179	80.009	19.995	103.818	20.136	4.139	0.526
1209.500	691.429	80.006	19.994	103.817	20.139	3.865	0.519
1210.000	691.691	80.009	19.995	103.817	20.139	3.895	0.509
1210.500	691.926	80.007	19.995	103.818	20.139	3.858	0.505
1211.000	692.151	80.006	19.993	103.814	20.140	3.832	0.479
1211.500	692.420	80.008	19.994	103.810	20.142	3.668	0.477
1212.000	692.670	80.005	19.994	103.804	20.137	4.039	0.507
1212.501	692.905	80.006	19.994	103.799	20.139	3.860	0.502
1213.001	693.181	80.007	19.994	103.797	20.137	4.055	0.498
1213.500	693.428	80.005	19.994	103.803	20.139	3.860	0.517
1214.000	693.723	80.006	19.994	103.808	20.140	3.845	0.532
1214.500	693.921	80.006	19.994	103.816	20.139	3.906	0.517
1215.000	694.233	80.008	19.993	103.821	20.142	3.690	0.502
1215.500	694.438	80.010	19.993	103.822	20.139	3.878	0.514
1216.000	694.675	80.008	19.993	103.819	20.139	3.876	0.479
1216.500	694.952	80.008	19.995	103.816	20.142	3.664	0.478
1217.000	695.189	80.009	19.994	103.808	20.139	3.895	0.514
1217.500	695.448	80.006	19.996	103.801	20.141	3.767	0.505
1218.000	695.692	80.008	19.995	103.799	20.141	3.741	0.499
1218.500	695.938	80.009	19.995	103.799	20.141	3.705	0.496
1219.000	696.204	80.007	19.995	103.801	20.139	3.865	0.501
1219.500	696.467	80.008	19.994	103.807	20.140	3.793	0.521
1220.000	696.699	80.010	19.993	103.812	20.138	3.953	0.512
1220.500	696.961	80.008	19.994	103.814	20.141	3.742	0.495
1221.000	697.185	80.010	19.995	103.814	20.141	3.752	0.490
1221.500	697.421	80.009	19.995	103.812	20.139	3.871	0.472
1222.001	697.668	80.010	19.994	103.808	20.139	3.910	0.471
1222.501	697.953	80.009	19.993	103.806	20.139	3.873	0.508
1223.000	698.185	80.010	19.995	103.804	20.139	3.925	0.525
1223.500	698.494	80.009	19.994	103.805	20.140	3.804	0.529
1224.000	698.723	80.009	19.995	103.805	20.142	3.655	0.540
1224.500	698.988	80.009	19.994	103.806	20.142	3.679	0.516
1225.000	699.227	80.010	19.994	103.809	20.138	3.973	0.499
1225.500	699.461	80.012	19.994	103.810	20.140	3.852	0.489
1226.000	699.719	80.011	19.993	103.812	20.137	4.066	0.482
1226.500	699.979	80.010	19.994	103.813	20.134	4.286	0.505
1227.000	700.246	80.009	19.993	103.815	20.136	4.111	0.522
1227.500	700.501	80.008	19.994	103.812	20.140	3.804	0.524
1228.001	700.756	80.011	19.993	103.809	20.139	3.863	0.516
1228.501	701.027	80.010	19.992	103.807	20.140	3.837	0.518
1229.000	701.284	80.011	19.994	103.805	20.139	3.880	0.527
1229.500	701.531	80.010	19.994	103.806	20.138	3.980	0.516
1230.000	701.778	80.007	19.993	103.808	20.141	3.733	0.499
1230.500	702.029	80.010	19.994	103.810	20.138	3.964	0.496
1231.001	702.269	80.010	19.994	103.811	20.139	3.910	0.494
1231.501	702.541	80.010	19.993	103.814	20.138	4.001	0.501
1232.001	702.790	80.009	19.993	103.810	20.141	3.718	0.516
1232.501	703.044	80.010	19.994	103.807	20.139	3.912	0.512
1233.000	703.331	80.009	19.994	103.809	20.139	3.914	0.522
1233.500	703.577	80.009	19.994	103.809	20.139	3.914	0.537
1234.000	703.832	80.009	19.993	103.808	20.140	3.845	0.517
1234.500	704.111	80.008	19.993	103.807	20.141	3.768	0.517
1235.000	704.369	80.009	19.994	103.811	20.140	3.854	0.536
1235.500	704.624	80.009	19.993	103.812	20.139	3.886	0.526
1236.000	704.839	80.007	19.993	103.811	20.142	3.699	0.492
1236.500	705.109	80.008	19.994	103.809	20.140	3.850	0.477
1237.000	705.331	80.007	19.994	103.813	20.140	3.787	0.488
1237.500	705.632	80.008	19.994	103.811	20.140	3.830	0.508
1238.000	705.900	80.007	19.993	103.811	20.139	3.873	0.546
1238.501	706.144	80.009	19.993	103.811	20.140	3.813	0.540
1239.001	706.361	80.008	19.995	103.816	20.139	3.906	0.486
1239.501	706.655	80.008	19.994	103.816	20.139	3.932	0.486
1240.001	706.892	80.009	19.994	103.819	20.139	3.912	0.521
1240.501	707.123	80.007	19.995	103.819	20.139	3.923	0.500
1241.001	707.364	80.008	19.994	103.819	20.139	3.884	0.470
1241.501	707.630	80.007	19.995	103.815	20.136	4.122	0.489
1242.001	707.934	80.008	19.995	103.814	20.139	3.858	0.539
1242.501	708.196	80.008	19.994	103.813	20.139	3.929	0.568
1243.000	708.449	80.008	19.994	103.809	20.140	3.806	0.541
1243.500	708.665	80.008	19.994	103.807	20.137	4.031	0.492
1244.000	708.966	80.008	19.994	103.809	20.142	3.696	0.493
1244.500	709.160	80.009	19.994	103.810	20.141	3.703	0.506
1245.000	709.426	80.009	19.994	103.810	20.140	3.809	0.477
1245.500	709.683	80.008	19.994	103.813	20.139	3.863	0.492
1246.000	709.946	80.008	19.994	103.814	20.143	3.593	0.521
1246.500	710.178	80.008	19.994	103.814	20.138	3.968	0.507
1247.000	710.430	80.007	19.994	103.815	20.141	3.724	0.489
1247.500	710.745	80.008	19.993	103.816	20.140	3.847	0.526
1248.000	710.948	80.008	19.994	103.815	20.141	3.709	0.543
1248.500	711.183	80.010	19.995	103.812	20.141	3.700	0.478
1249.000	711.435	80.009	19.995	103.811	20.140	3.787	0.463
1249.501	711.734	80.009	19.994	103.809	20.138	3.971	0.519
1250.001	711.968	80.008	19.994	103.808	20.142	3.673	0.542
1250.500	712.187	80.007	19.994	103.809	20.141	3.776	0.493
1251.000	712.463	80.007	19.994	103.812	20.139	3.921	0.474
1251.500	712.713	80.009	19.995	103.812	20.142	3.677	0.511
1252.000	712.960	80.009	19.995	103.812	20.140	3.833	0.511
1252.501	713.243	80.008	19.994	103.809	20.142	3.632	0.513
1253.001	713.460	80.009	19.993	103.805	20.138	3.964	0.515
1253.500	713.715	80.008	19.994	103.806	20.139	3.897	0.486
1254.001	713.968	80.009	19.994	103.805	20.140	3.822	0.490
1254.501	714.188	80.008	19.995	103.805	20.142	3.632	0.491
1255.000	714.485	80.009	19.994	103.809	20.143	3.593	0.495
1255.501	714.786	80.009	19.993	103.815	20.141	3.733	0.557
1256.001	715.005	80.007	19.993	103.817	20.140	3.857	0.559
1256.500	715.209	80.008	19.994	103.819	20.140	3.835	0.471
1257.000	715.486	80.009	19.993	103.816	20.138	3.979	0.452
1257.500	715.772	80.007	19.993	103.810	20.139	3.865	0.522
1258.000	716.049	80.010	19.993	103.807	20.139	3.899	0.563
1258.500	716.375	80.008	19.994	103.804	20.141	3.746	0.583
1259.000	716.608	80.007	19.993	103.803	20.143	3.597	0.581
1259.500	716.804	80.007	19.993	103.807	20.138	3.962	0.494
1260.000	717.049	80.008	19.992	103.812	20.140	3.806	0.435
1260.500	717.268	80.008	19.994	103.813	20.140	3.800	0.453
1261.000	717.534	80.009	19.994	103.816	20.139	3.867	0.474
1261.500	717.821	80.007	19.993	103.815	20.137	4.053	0.519
1262.001	718.051	80.009	19.993	103.815	20.139	3.919	0.535
1262.501	718.297	80.008	19.994	103.817	20.136	4.140	0.497
1263.000	718.576	80.007	19.993	103.819	20.138	3.973	0.500
1263.500	718.817	80.007	19.993	103.816	20.140	3.790	0.522
1264.000	719.066	80.007	19.994	103.817	20.139	3.934	0.505
1264.500	719.294	80.008	19.994	103.818	20.140	3.830	0.484
1265.000	719.546	80.008	19.993	103.818	20.142	3.621	0.478
1265.500	719.798	80.007	19.994	103.819	20.141	3.761	0.491
1266.000	720.031	80.009	19.994	103.823	20.139	3.934	0.495
1266.500	720.322	80.008	19.995	103.824	20.139	3.897	0.505
1267.000	720.558	80.008	19.994	103.822	20.140	3.804	0.526
1267.500	720.814	80.008	19.994	103.820	20.140	3.798	0.509
1268.000	721.076	80.008	19.993	103.817	20.140	3.780	0.505
1268.500	721.336	80.008	19.993	103.815	20.139	3.888	0.520
1269.000	721.573	80.005	19.994	103.811	20.140	3.837	0.510
1269.500	721.827	80.008	19.994	103.808	20.138	3.940	0.495
1270.000	722.043	80.007	19.994	103.806	20.140	3.809	0.481
1270.500	722.278	80.007	19.994	103.808	20.138	3.951	0.460
1271.000	722.574	80.008	19.993	103.810	20.139	3.895	0.491
1271.500	722.809	80.007	19.992	103.813	20.136	4.108	0.531
1272.000	723.050	80.006	19.993	103.818	20.138	4.009	0.503
1272.500	723.267	80.007	19.994	103.822	20.138	3.979	0.467
1273.000	723.528	80.006	19.993	103.823	20.138	3.966	0.468
1273.500	723.782	80.008	19.994	103.822	20.138	3.973	0.496
1274.000	724.030	80.008	19.994	103.823	20.137	4.074	0.508
1274.500	724.282	80.007	19.994	103.822	20.138	3.968	0.501
1275.000	724.493	80.005	19.995	103.821	20.137	4.024	0.481
1275.500	724.759	80.008	19.993	103.817	20.138	3.959	0.470
1276.001	725.040	80.007	19.994	103.817	20.136	4.098	0.512
1276.501	725.245	80.008	19.993	103.817	20.137	4.042	0.516
1277.001	725.486	80.009	19.993	103.816	20.137	4.080	0.466
1277.501	725.780	80.008	19.994	103.811	20.137	4.072	0.490
1278.000	725.992	80.007	19.994	103.809	20.137	4.067	0.521
1278.500	726.245	80.008	19.994	103.805	20.137	4.057	0.486
1279.000	726.486	80.008	19.993	103.803	20.139	3.899	0.480
1279.501	726.750	80.009	19.994	103.804	20.139	3.886	0.499
1280.001	726.995	80.008	19.994	103.810	20.139	3.921	0.507
1280.500	727.232	80.008	19.993	103.812	20.137	4.035	0.495
1281.000	727.491	80.009	19.994	103.813	20.136	4.111	0.489
1281.500	727.710	80.009	19.994	103.807	20.138	3.984	0.487
1282.000	727.965	80.009	19.993	103.801	20.138	3.947	0.476
1282.501	728.206	80.009	19.994	103.796	20.136	4.115	0.485
1283.001	728.461	80.010	19.994	103.798	20.138	4.005	0.496
1283.501	728.680	80.009	19.995	103.802	20.138	3.975	0.485
1284.001	728.963	80.010	19.994	103.808	20.136	4.109	0.488
1284.500	729.175	80.009	19.994	103.807	20.139	3.906	0.499
1285.000	729.437	80.009	19.995	103.809	20.136	4.111	0.485
1285.500	729.663	80.009	19.995	103.807	20.140	3.850	0.481
1286.000	729.910	80.010	19.994	103.804	20.139	3.891	0.480
1286.500	730.179	80.009	19.995	103.801	20.136	4.167	0.495
1287.000	730.396	80.008	19.995	103.804	20.136	4.126	0.501
1287.500	730.652	80.010	19.994	103.803	20.135	4.234	0.479
1288.000	730.882	80.009	19.993	103.801	20.139	3.884	0.480
1288.500	731.153	80.009	19.994	103.801	20.137	4.092	0.494
1289.001	731.378	80.009	19.993	103.800	20.136	4.113	0.499
1289.501	731.642	80.010	19.994	103.802	20.138	3.971	0.492
1290.000	731.896	80.009	19.994	103.805	20.137	4.021	0.503
1290.500	732.128	80.008	19.995	103.809	20.136	4.120	0.502
1291.000	732.360	80.009	19.995	103.811	20.138	4.001	0.475
1291.500	732.618	80.008	19.993	103.812	20.138	3.994	0.477
1292.001	732.834	80.010	19.994	103.813	20.139	3.867	0.482
1292.501	733.098	80.009	19.994	103.812	20.139	3.930	0.476
1293.000	733.341	80.008	19.994	103.810	20.139	3.858	0.493
1293.500	733.598	80.008	19.994	103.811	20.137	4.064	0.504
1294.000	733.850	80.008	19.993	103.813	20.134	4.325	0.505
1294.500	734.071	80.010	19.994	103.811	20.139	3.925	0.491
1295.000	734.327	80.008	19.993	103.810	20.138	3.979	0.475
1295.500	734.617	80.010	19.994	103.812	20.138	4.011	0.512
1296.000	734.847	80.010	19.993	103.809	20.136	4.130	0.533
1296.500	735.086	80.009	19.995	103.809	20.134	4.255	0.494
1297.000	735.314	80.010	19.996	103.813	20.138	3.999	0.468
1297.500	735.572	80.008	19.995	103.815	20.137	4.029	0.477
1298.000	735.823	80.008	19.995	103.815	20.138	4.003	0.498
1298.500	736.094	80.010	19.994	103.815	20.138	3.940	0.515
1299.000	736.319	80.009	19.994	103.814	20.136	4.111	0.509
1299.501	736.557	80.009	19.995	103.814	20.138	3.999	0.479
1300.001	736.794	80.009	19.995	103.814	20.136	4.143	0.469
1300.500	737.040	80.009	19.994	103.814	20.136	4.145	0.479
1301.000	737.316	80.009	19.994	103.817	20.135	4.240	0.502
1301.500	737.531	80.010	19.995	103.819	20.137	4.068	0.507
1302.001	737.813	80.010	19.995	103.815	20.135	4.195	0.495
1302.501	738.054	80.010	19.995	103.810	20.137	4.091	0.510
1303.000	738.292	80.009	19.995	103.810	20.135	4.195	0.501
1303.501	738.534	80.009	19.994	103.811	20.135	4.195	0.479
1304.001	738.844	80.010	19.995	103.811	20.136	4.120	0.515
1304.500	739.066	80.011	19.995	103.813	20.134	4.251	0.542
1305.000	739.347	80.010	19.994	103.817	20.138	4.012	0.518
1305.501	739.582	80.010	19.994	103.811	20.135	4.243	0.510
1306.001	739.835	80.011	19.994	103.808	20.136	4.111	0.502
1306.500	740.056	80.010	19.994	103.807	20.134	4.303	0.481
1307.001	740.324	80.011	19.994	103.807	20.134	4.266	0.482
1307.501	740.565	80.011	19.995	103.804	20.133	4.370	0.499
1308.000	740.796	80.011	19.995	103.809	20.136	4.161	0.490
1308.500	741.080	80.010	19.995	103.811	20.137	4.081	0.493
1309.000	741.307	80.010	19.995	103.812	20.136	4.154	0.513
1309.500	741.603	80.011	19.994	103.814	20.135	4.178	0.517
1310.000	741.822	80.010	19.994	103.818	20.135	4.176	0.519
1310.500	742.124	80.010	19.995	103.816	20.135	4.222	0.518
1311.000	742.378	80.009	19.994	103.811	20.132	4.474	0.539
1311.500	742.620	80.010	19.995	103.808	20.135	4.183	0.526
1312.000	742.863	80.011	19.995	103.807	20.134	4.301	0.491
1312.500	743.098	80.009	19.995	103.804	20.135	4.197	0.481
1313.000	743.395	80.009	19.994	103.803	20.135	4.182	0.505
1313.500	743.577	80.009	19.995	103.806	20.135	4.221	0.505
