Sample ID:	C:\MCC\MCC Cal\Test\PE_Foam_Pipe_Insulation_MCC_30K_min_220127_R1.txt
Sample Weight (mg):	4.17
Heating Rate (C/s):	0.5
Combustor Temp (C):	900
N2 Flow Rate (cc/min):	80
O2 Flow Rate (cc/min):	20
Calibration File:	C:\MCC\MCC Cal\Coeff1 JN10440_30_210304.txt.txt
T Correction Coefficients:	0	1.024463	0
Time Shift (s):	14
*
Time (s)	Temperature (C)	N2 flow rate (cc/min)	O2 flow rate (cc/min)	Flow Rate (cc/min)	Oxygen (%)	HRR (W/g)	Heating rate (C/s)
0.000	113.571	80.009	19.994	103.769	20.170	-0.435	0.005
0.500	113.562	80.009	19.994	103.766	20.169	-0.327	0.028
1.000	113.564	80.007	19.994	103.765	20.172	-0.575	0.012
1.500	113.568	80.007	19.994	103.761	20.169	-0.359	-0.000
2.000	113.570	80.007	19.994	103.761	20.169	-0.352	0.006
2.500	113.563	80.009	19.993	103.764	20.171	-0.527	0.000
3.000	113.543	80.007	19.993	103.764	20.170	-0.446	-0.016
3.500	113.522	80.009	19.993	103.763	20.171	-0.484	-0.034
4.000	113.522	80.008	19.993	103.767	20.170	-0.452	-0.031
4.500	113.547	80.008	19.994	103.768	20.168	-0.234	0.001
5.000	113.527	80.008	19.992	103.767	20.170	-0.450	0.015
5.500	113.546	80.007	19.994	103.765	20.170	-0.397	0.002
6.000	113.550	80.008	19.993	103.765	20.169	-0.325	0.011
6.500	113.542	80.008	19.994	103.762	20.170	-0.465	0.009
7.000	113.559	80.009	19.994	103.764	20.173	-0.654	0.002
7.500	113.532	80.008	19.994	103.767	20.170	-0.414	-0.000
8.000	113.511	80.007	19.992	103.771	20.167	-0.229	-0.029
8.500	113.505	80.008	19.994	103.774	20.168	-0.280	-0.037
9.000	113.515	80.009	19.993	103.773	20.169	-0.357	-0.011
9.500	113.524	80.007	19.994	103.772	20.168	-0.244	0.012
10.000	113.530	80.009	19.994	103.769	20.167	-0.176	0.017
10.500	113.545	80.008	19.994	103.770	20.170	-0.448	0.018
11.000	113.520	80.009	19.993	103.772	20.168	-0.274	0.006
11.501	113.509	80.010	19.993	103.776	20.171	-0.527	-0.023
12.001	113.503	80.009	19.994	103.772	20.166	-0.145	-0.027
12.500	113.490	80.008	19.993	103.770	20.169	-0.346	-0.018
13.000	113.497	80.010	19.993	103.771	20.167	-0.210	-0.012
13.500	113.498	80.008	19.993	103.772	20.169	-0.376	0.001
14.000	113.497	80.010	19.993	103.772	20.164	0.043	0.004
14.500	113.523	80.009	19.992	103.777	20.167	-0.232	0.012
15.000	113.490	80.011	19.993	103.781	20.166	-0.119	0.009
15.500	113.514	80.009	19.991	103.783	20.165	-0.064	-0.008
16.000	113.496	80.010	19.993	103.790	20.165	-0.009	-0.002
16.500	113.502	80.009	19.993	103.800	20.161	0.291	-0.003
17.000	113.480	80.011	19.993	103.815	20.163	0.140	-0.014
17.500	113.483	80.011	19.993	103.824	20.162	0.206	-0.017
18.000	113.513	80.010	19.992	103.832	20.161	0.311	0.007
18.500	113.515	80.009	19.994	103.832	20.158	0.483	0.032
19.000	113.520	80.009	19.993	103.834	20.159	0.438	0.020
19.500	113.545	80.010	19.992	103.834	20.158	0.472	0.019
20.000	113.530	80.011	19.993	103.843	20.156	0.651	0.020
20.500	113.559	80.011	19.993	103.856	20.153	0.900	0.012
21.000	113.543	80.010	19.993	103.871	20.152	0.962	0.013
21.500	113.565	80.010	19.991	103.883	20.156	0.696	0.010
22.000	113.583	80.009	19.994	103.888	20.154	0.800	0.024
22.500	113.621	80.011	19.993	103.885	20.153	0.879	0.048
23.000	113.641	80.010	19.993	103.885	20.152	0.940	0.057
23.500	113.646	80.010	19.992	103.888	20.151	1.047	0.041
24.000	113.667	80.009	19.992	103.888	20.148	1.249	0.025
24.500	113.706	80.010	19.993	103.897	20.146	1.406	0.043
25.000	113.745	80.010	19.992	103.910	20.147	1.345	0.069
25.500	113.759	80.010	19.994	103.920	20.147	1.340	0.065
26.000	113.770	80.009	19.993	103.925	20.145	1.498	0.039
26.500	113.792	80.009	19.993	103.934	20.142	1.742	0.029
27.000	113.852	80.009	19.993	103.938	20.142	1.713	0.058
27.500	113.895	80.010	19.993	103.945	20.141	1.819	0.092
28.000	113.929	80.009	19.992	103.950	20.140	1.887	0.090
28.500	113.964	80.010	19.992	103.957	20.139	1.949	0.073
29.000	114.044	80.011	19.993	103.965	20.139	1.994	0.092
29.500	114.080	80.011	19.993	103.973	20.139	1.979	0.115
30.000	114.141	80.010	19.993	103.981	20.139	2.013	0.107
30.500	114.156	80.010	19.992	103.985	20.137	2.143	0.087
31.000	114.195	80.010	19.993	103.986	20.139	1.985	0.065
31.500	114.284	80.009	19.992	103.986	20.131	2.585	0.091
32.000	114.378	80.009	19.994	103.984	20.133	2.458	0.156
32.500	114.428	80.009	19.993	103.980	20.136	2.183	0.163
33.000	114.473	80.010	19.993	103.980	20.134	2.368	0.120
33.500	114.541	80.009	19.994	103.979	20.133	2.432	0.104
34.000	114.601	80.009	19.993	103.979	20.132	2.513	0.120
34.500	114.654	80.009	19.994	103.980	20.132	2.547	0.121
35.000	114.773	80.009	19.994	103.979	20.130	2.700	0.142
35.500	114.852	80.009	19.994	103.978	20.133	2.422	0.185
36.000	114.947	80.010	19.993	103.978	20.133	2.462	0.186
36.500	114.996	80.009	19.994	103.978	20.129	2.771	0.159
37.000	115.098	80.010	19.994	103.977	20.132	2.518	0.148
37.500	115.140	80.010	19.994	103.977	20.131	2.624	0.148
38.000	115.241	80.010	19.995	103.978	20.130	2.684	0.143
38.500	115.346	80.010	19.994	103.984	20.129	2.737	0.175
39.000	115.416	80.010	19.994	103.990	20.128	2.833	0.191
39.500	115.485	80.010	19.994	103.997	20.129	2.790	0.156
40.001	115.588	80.011	19.994	104.002	20.127	2.913	0.155
40.501	115.679	80.010	19.994	104.007	20.130	2.666	0.184
41.001	115.802	80.011	19.993	104.006	20.127	2.915	0.204
41.501	115.893	80.011	19.995	104.006	20.128	2.871	0.214
42.000	115.983	80.011	19.993	104.003	20.128	2.845	0.197
42.500	116.089	80.011	19.993	104.002	20.129	2.764	0.188
43.000	116.166	80.011	19.995	103.997	20.125	3.082	0.190
43.500	116.326	80.012	19.994	103.996	20.125	3.048	0.210
44.000	116.390	80.010	19.993	103.995	20.128	2.871	0.230
44.500	116.509	80.011	19.994	103.997	20.124	3.156	0.203
45.000	116.619	80.011	19.994	103.997	20.124	3.132	0.206
45.500	116.705	80.012	19.994	104.002	20.124	3.175	0.213
46.000	116.866	80.012	19.994	104.004	20.121	3.407	0.221
46.500	116.942	80.012	19.994	104.005	20.121	3.358	0.242
47.000	117.053	80.012	19.993	104.004	20.119	3.543	0.212
47.500	117.164	80.010	19.994	104.007	20.120	3.460	0.205
48.000	117.306	80.010	19.993	104.009	20.120	3.498	0.237
48.500	117.415	80.011	19.996	104.010	20.119	3.520	0.252
49.000	117.540	80.010	19.993	104.010	20.120	3.443	0.242
49.500	117.670	80.009	19.993	104.012	20.119	3.519	0.245
50.000	117.799	80.009	19.994	104.010	20.120	3.496	0.257
50.500	117.932	80.009	19.993	104.010	20.123	3.243	0.261
51.000	118.050	80.009	19.994	104.010	20.120	3.451	0.257
51.501	118.185	80.009	19.993	104.009	20.123	3.262	0.252
52.001	118.355	80.009	19.993	104.007	20.124	3.134	0.278
52.500	118.474	80.008	19.993	104.009	20.121	3.371	0.297
53.000	118.597	80.010	19.994	104.009	20.121	3.384	0.266
53.500	118.752	80.010	19.993	104.009	20.122	3.324	0.260
54.000	118.907	80.008	19.993	104.011	20.120	3.473	0.294
54.500	119.027	80.009	19.994	104.013	20.122	3.314	0.293
55.000	119.172	80.009	19.993	104.011	20.122	3.318	0.270
55.500	119.293	80.009	19.993	104.005	20.122	3.311	0.266
56.000	119.469	80.009	19.994	104.004	20.119	3.569	0.282
56.500	119.585	80.009	19.994	104.003	20.120	3.467	0.294
57.000	119.765	80.008	19.994	104.002	20.124	3.126	0.294
57.500	119.873	80.008	19.994	104.004	20.124	3.135	0.292
58.000	120.014	80.007	19.994	104.008	20.125	3.097	0.268
58.500	120.150	80.009	19.994	104.002	20.126	3.029	0.263
59.001	120.326	80.007	19.994	104.000	20.123	3.237	0.295
59.501	120.484	80.009	19.994	104.001	20.123	3.192	0.323
60.001	120.628	80.009	19.993	103.998	20.124	3.186	0.318
60.500	120.762	80.009	19.993	103.996	20.124	3.139	0.290
61.000	120.912	80.008	19.994	103.997	20.122	3.299	0.281
61.500	121.061	80.009	19.993	103.998	20.120	3.469	0.292
62.000	121.250	80.009	19.994	103.997	20.122	3.284	0.318
62.500	121.398	80.008	19.994	103.999	20.123	3.231	0.338
63.000	121.560	80.009	19.995	104.000	20.123	3.261	0.324
63.500	121.711	80.009	19.994	104.005	20.126	3.018	0.311
64.000	121.896	80.009	19.994	104.007	20.124	3.186	0.324
64.500	122.085	80.008	19.995	104.009	20.124	3.122	0.355
65.000	122.215	80.010	19.994	104.011	20.123	3.216	0.347
65.500	122.396	80.010	19.994	104.014	20.126	2.965	0.315
66.000	122.579	80.008	19.993	104.013	20.124	3.171	0.337
66.500	122.736	80.008	19.995	104.014	20.122	3.297	0.352
67.000	122.916	80.009	19.994	104.013	20.121	3.399	0.338
67.500	123.065	80.007	19.995	104.014	20.123	3.199	0.333
68.000	123.247	80.009	19.993	104.014	20.122	3.273	0.330
68.501	123.383	80.008	19.994	104.014	20.121	3.386	0.324
69.001	123.594	80.008	19.994	104.017	20.120	3.444	0.333
69.500	123.782	80.008	19.995	104.018	20.122	3.322	0.373
70.000	123.975	80.007	19.995	104.020	20.121	3.399	0.390
70.500	124.145	80.008	19.994	104.020	20.121	3.363	0.372
71.000	124.317	80.009	19.995	104.020	20.121	3.380	0.352
71.500	124.489	80.008	19.995	104.018	20.122	3.312	0.343
72.000	124.718	80.009	19.995	104.020	20.122	3.288	0.373
72.500	124.861	80.008	19.995	104.020	20.120	3.448	0.386
73.000	125.054	80.009	19.994	104.019	20.123	3.256	0.354
73.500	125.198	80.008	19.995	104.020	20.123	3.265	0.337
74.000	125.374	80.008	19.995	104.019	20.122	3.338	0.328
74.500	125.584	80.007	19.994	104.017	20.124	3.176	0.353
75.000	125.778	80.009	19.995	104.014	20.122	3.321	0.395
75.500	125.950	80.008	19.994	104.016	20.119	3.548	0.385
76.000	126.115	80.008	19.994	104.017	20.120	3.463	0.352
76.501	126.307	80.007	19.994	104.019	20.121	3.410	0.347
77.001	126.497	80.009	19.996	104.020	20.122	3.312	0.369
77.501	126.721	80.008	19.996	104.022	20.124	3.122	0.398
78.001	126.880	80.009	19.996	104.022	20.121	3.401	0.399
78.500	127.112	80.008	19.996	104.022	20.120	3.446	0.387
79.000	127.277	80.008	19.995	104.020	20.121	3.384	0.394
79.500	127.497	80.008	19.995	104.020	20.120	3.497	0.391
80.000	127.658	80.009	19.994	104.022	20.119	3.514	0.383
80.500	127.839	80.008	19.994	104.023	20.118	3.623	0.361
81.000	128.024	80.008	19.994	104.024	20.121	3.397	0.354
81.500	128.246	80.007	19.994	104.024	20.120	3.470	0.387
82.000	128.443	80.007	19.993	104.023	20.121	3.384	0.413
82.500	128.624	80.009	19.994	104.019	20.122	3.329	0.399
83.000	128.828	80.008	19.993	104.019	20.120	3.446	0.382
83.500	129.034	80.010	19.994	104.020	20.120	3.497	0.397
84.000	129.251	80.008	19.994	104.022	20.118	3.653	0.417
84.500	129.473	80.009	19.994	104.026	20.121	3.398	0.432
85.000	129.662	80.008	19.995	104.030	20.119	3.553	0.425
85.500	129.847	80.008	19.994	104.032	20.119	3.521	0.392
86.000	130.044	80.008	19.994	104.035	20.119	3.521	0.378
86.500	130.229	80.010	19.994	104.034	20.118	3.589	0.381
87.000	130.466	80.007	19.993	104.030	20.121	3.399	0.402
87.500	130.666	80.008	19.992	104.026	20.119	3.580	0.430
88.001	130.852	80.007	19.993	104.023	20.120	3.433	0.412
88.501	131.073	80.007	19.993	104.019	20.121	3.365	0.397
89.001	131.288	80.007	19.993	104.018	20.122	3.301	0.421
89.500	131.458	80.010	19.993	104.018	20.119	3.557	0.410
90.000	131.688	80.008	19.993	104.019	20.120	3.493	0.393
90.500	131.937	80.009	19.993	104.023	20.118	3.621	0.440
91.000	132.117	80.008	19.994	104.029	20.120	3.499	0.454
91.500	132.351	80.008	19.993	104.032	20.121	3.388	0.421
92.000	132.564	80.009	19.994	104.034	20.118	3.588	0.430
92.500	132.745	80.008	19.993	104.036	20.120	3.484	0.421
93.000	132.934	80.007	19.994	104.035	20.120	3.488	0.382
93.500	133.173	80.008	19.993	104.034	20.118	3.582	0.399
94.000	133.409	80.008	19.992	104.034	20.117	3.703	0.452
94.500	133.615	80.007	19.992	104.038	20.117	3.701	0.459
95.000	133.851	80.010	19.994	104.040	20.120	3.482	0.442
95.500	134.034	80.008	19.994	104.043	20.119	3.574	0.430
96.000	134.253	80.008	19.995	104.040	20.119	3.554	0.410
96.500	134.473	80.009	19.995	104.037	20.124	3.165	0.420
97.001	134.726	80.009	19.993	104.031	20.121	3.380	0.456
97.501	134.891	80.009	19.995	104.027	20.118	3.623	0.445
98.000	135.145	80.010	19.994	104.022	20.121	3.376	0.418
98.500	135.357	80.010	19.993	104.023	20.120	3.431	0.442
99.000	135.578	80.009	19.993	104.022	20.117	3.678	0.449
99.500	135.811	80.009	19.992	104.027	20.118	3.589	0.444
100.001	135.998	80.010	19.993	104.027	20.120	3.478	0.438
100.501	136.237	80.010	19.993	104.029	20.120	3.502	0.423
101.000	136.494	80.010	19.994	104.027	20.120	3.440	0.460
101.500	136.736	80.010	19.993	104.030	20.117	3.685	0.497
102.000	136.942	80.010	19.993	104.026	20.118	3.602	0.474
102.500	137.166	80.011	19.994	104.024	20.116	3.780	0.439
103.000	137.443	80.011	19.993	104.024	20.116	3.772	0.466
103.500	137.628	80.011	19.993	104.025	20.120	3.463	0.481
104.000	137.819	80.012	19.993	104.020	20.118	3.588	0.419
104.500	138.087	80.011	19.993	104.019	20.117	3.667	0.417
105.000	138.290	80.011	19.993	104.019	20.119	3.576	0.464
105.500	138.527	80.010	19.993	104.018	20.116	3.753	0.455
106.000	138.723	80.011	19.992	104.018	20.116	3.759	0.437
106.500	138.985	80.011	19.994	104.023	20.116	3.748	0.446
107.000	139.228	80.009	19.993	104.024	20.118	3.627	0.481
107.500	139.436	80.009	19.993	104.025	20.120	3.472	0.478
108.000	139.710	80.009	19.994	104.027	20.117	3.697	0.466
108.500	139.886	80.010	19.993	104.028	20.120	3.459	0.466
109.001	140.143	80.009	19.993	104.027	20.121	3.380	0.441
109.501	140.421	80.009	19.993	104.028	20.120	3.497	0.484
110.001	140.634	80.009	19.993	104.033	20.120	3.482	0.513
110.500	140.854	80.009	19.993	104.039	20.122	3.318	0.462
111.000	141.075	80.009	19.993	104.043	20.123	3.205	0.437
111.500	141.326	80.009	19.993	104.047	20.123	3.256	0.456
112.000	141.566	80.010	19.993	104.049	20.123	3.237	0.482
112.500	141.755	80.008	19.993	104.044	20.121	3.391	0.460
113.000	142.007	80.008	19.993	104.036	20.120	3.478	0.435
113.500	142.243	80.009	19.993	104.030	20.121	3.407	0.464
114.000	142.489	80.009	19.993	104.025	20.121	3.375	0.485
114.500	142.767	80.009	19.993	104.025	20.122	3.269	0.503
115.000	143.009	80.009	19.994	104.024	20.124	3.184	0.523
115.500	143.234	80.010	19.994	104.026	20.121	3.354	0.494
116.000	143.455	80.010	19.992	104.031	20.123	3.205	0.456
116.500	143.729	80.008	19.995	104.034	20.125	3.071	0.471
117.000	143.982	80.010	19.994	104.034	20.125	3.078	0.511
117.500	144.184	80.009	19.993	104.033	20.123	3.243	0.491
118.000	144.441	80.011	19.993	104.034	20.123	3.203	0.457
118.500	144.682	80.009	19.994	104.032	20.122	3.303	0.479
119.000	144.934	80.011	19.994	104.028	20.121	3.380	0.495
119.500	145.150	80.009	19.993	104.024	20.123	3.233	0.480
120.000	145.395	80.012	19.993	104.024	20.121	3.420	0.465
120.500	145.686	80.010	19.992	104.021	20.125	3.105	0.498
121.000	145.907	80.011	19.993	104.018	20.123	3.220	0.523
121.500	146.137	80.011	19.993	104.019	20.122	3.322	0.481
122.000	146.395	80.012	19.992	104.022	20.122	3.335	0.470
122.500	146.649	80.011	19.992	104.024	20.123	3.248	0.500
123.000	146.864	80.011	19.992	104.024	20.121	3.358	0.490
123.501	147.109	80.012	19.993	104.024	20.121	3.367	0.465
124.001	147.339	80.013	19.994	104.022	20.122	3.292	0.468
124.500	147.644	80.012	19.992	104.020	20.121	3.418	0.505
125.000	147.909	80.012	19.993	104.019	20.123	3.241	0.553
125.500	148.107	80.012	19.991	104.018	20.122	3.326	0.517
126.000	148.371	80.011	19.993	104.019	20.121	3.352	0.462
126.500	148.593	80.011	19.992	104.019	20.121	3.380	0.474
127.000	148.855	80.012	19.993	104.018	20.119	3.569	0.485
127.500	149.089	80.012	19.993	104.016	20.123	3.214	0.490
128.000	149.356	80.012	19.993	104.020	20.118	3.629	0.498
128.500	149.600	80.012	19.993	104.019	20.121	3.365	0.506
129.000	149.909	80.011	19.993	104.017	20.119	3.556	0.532
129.500	150.149	80.010	19.994	104.018	20.123	3.258	0.551
130.000	150.376	80.011	19.992	104.018	20.121	3.412	0.508
130.500	150.614	80.011	19.993	104.014	20.121	3.384	0.466
131.000	150.862	80.010	19.993	104.014	20.122	3.339	0.475
131.500	151.129	80.011	19.994	104.014	20.119	3.518	0.500
132.000	151.360	80.010	19.994	104.014	20.124	3.177	0.506
132.500	151.580	80.011	19.994	104.014	20.123	3.194	0.474
133.000	151.846	80.010	19.993	104.013	20.121	3.350	0.469
133.500	152.106	80.010	19.994	104.015	20.125	3.075	0.506
134.000	152.337	80.010	19.993	104.016	20.123	3.222	0.509
134.500	152.645	80.010	19.994	104.016	20.122	3.329	0.515
135.000	152.856	80.009	19.994	104.016	20.121	3.352	0.529
135.500	153.098	80.009	19.994	104.016	20.124	3.141	0.486
136.000	153.354	80.008	19.994	104.014	20.123	3.256	0.475
136.500	153.595	80.008	19.994	104.014	20.124	3.182	0.497
137.000	153.830	80.009	19.994	104.014	20.122	3.309	0.486
137.500	154.103	80.007	19.993	104.015	20.121	3.377	0.492
138.000	154.347	80.009	19.994	104.015	20.123	3.267	0.513
138.500	154.600	80.009	19.993	104.015	20.122	3.311	0.507
139.000	154.879	80.008	19.994	104.015	20.120	3.446	0.514
139.500	155.104	80.007	19.994	104.015	20.122	3.286	0.518
140.000	155.351	80.007	19.994	104.015	20.123	3.260	0.488
140.500	155.545	80.008	19.993	104.018	20.121	3.382	0.457
141.000	155.839	80.008	19.994	104.019	20.122	3.275	0.464
141.500	156.116	80.008	19.994	104.019	20.123	3.218	0.529
142.000	156.333	80.008	19.994	104.022	20.123	3.224	0.533
142.500	156.600	80.008	19.994	104.021	20.124	3.128	0.489
143.000	156.811	80.008	19.994	104.018	20.126	2.975	0.481
143.500	157.080	80.008	19.994	104.017	20.125	3.080	0.479
144.000	157.331	80.008	19.994	104.017	20.124	3.158	0.501
144.500	157.605	80.008	19.994	104.015	20.125	3.088	0.523
145.000	157.828	80.009	19.994	104.015	20.123	3.203	0.511
145.500	158.141	80.009	19.993	104.016	20.123	3.211	0.516
146.000	158.378	80.010	19.993	104.017	20.124	3.160	0.543
146.500	158.629	80.009	19.994	104.016	20.125	3.039	0.519
147.000	158.861	80.008	19.994	104.016	20.119	3.558	0.486
147.500	159.121	80.009	19.994	104.015	20.123	3.234	0.488
148.000	159.379	80.007	19.993	104.015	20.123	3.202	0.505
148.500	159.635	80.009	19.993	104.015	20.123	3.220	0.515
149.000	159.892	80.008	19.994	104.013	20.126	3.015	0.514
149.500	160.152	80.009	19.994	104.013	20.122	3.315	0.515
150.000	160.409	80.008	19.993	104.014	20.124	3.173	0.517
150.500	160.658	80.008	19.993	104.012	20.120	3.449	0.511
151.000	160.904	80.009	19.994	104.013	20.121	3.373	0.501
151.500	161.162	80.008	19.994	104.014	20.123	3.262	0.500
152.000	161.400	80.008	19.993	104.010	20.121	3.349	0.500
152.500	161.690	80.008	19.993	104.011	20.120	3.449	0.512
153.000	161.946	80.010	19.994	104.013	20.122	3.291	0.537
153.500	162.185	80.008	19.993	104.013	20.118	3.591	0.520
154.000	162.420	80.009	19.994	104.014	20.120	3.453	0.485
154.500	162.671	80.008	19.993	104.018	20.122	3.287	0.480
155.000	162.920	80.007	19.995	104.018	20.120	3.478	0.493
155.500	163.176	80.007	19.995	104.017	20.121	3.372	0.503
156.000	163.459	80.008	19.994	104.016	20.120	3.453	0.522
156.500	163.717	80.009	19.994	104.012	20.121	3.366	0.540
157.000	163.987	80.008	19.994	104.005	20.122	3.340	0.534
157.500	164.251	80.009	19.993	104.002	20.120	3.483	0.531
158.000	164.480	80.007	19.994	104.001	20.121	3.398	0.513
158.500	164.782	80.009	19.994	104.003	20.122	3.317	0.512
159.000	164.991	80.007	19.995	104.000	20.121	3.376	0.521
159.500	165.276	80.009	19.993	104.003	20.120	3.459	0.503
160.000	165.505	80.008	19.993	104.005	20.123	3.212	0.504
160.500	165.768	80.008	19.994	104.004	20.121	3.417	0.503
161.000	166.012	80.008	19.993	104.002	20.122	3.327	0.499
161.500	166.277	80.008	19.993	104.002	20.121	3.421	0.508
162.000	166.538	80.008	19.994	104.000	20.120	3.478	0.518
162.500	166.808	80.007	19.994	103.995	20.123	3.266	0.528
163.000	167.042	80.008	19.995	103.990	20.120	3.432	0.517
163.500	167.293	80.008	19.994	103.984	20.123	3.259	0.495
164.000	167.568	80.007	19.994	103.982	20.121	3.406	0.506
164.500	167.818	80.008	19.995	103.982	20.121	3.359	0.526
165.000	168.027	80.007	19.994	103.982	20.126	3.021	0.492
165.500	168.311	80.008	19.995	103.981	20.121	3.412	0.476
166.000	168.563	80.007	19.993	103.981	20.123	3.191	0.514
166.500	168.754	80.008	19.994	103.981	20.120	3.425	0.490
167.000	169.072	80.008	19.995	103.980	20.121	3.376	0.476
167.500	169.308	80.008	19.995	103.979	20.121	3.376	0.531
168.000	169.539	80.007	19.994	103.980	20.120	3.463	0.511
168.500	169.792	80.008	19.994	103.982	20.121	3.383	0.476
169.000	170.065	80.006	19.994	103.981	20.121	3.348	0.505
169.500	170.350	80.007	19.995	103.980	20.119	3.521	0.543
170.000	170.548	80.007	19.996	103.979	20.124	3.176	0.521
170.500	170.834	80.006	19.995	103.978	20.122	3.274	0.483
171.000	171.103	80.006	19.995	103.976	20.122	3.287	0.519
171.500	171.322	80.007	19.994	103.975	20.121	3.414	0.521
172.000	171.615	80.009	19.995	103.975	20.121	3.400	0.499
172.500	171.853	80.008	19.995	103.977	20.124	3.140	0.521
173.000	172.107	80.008	19.995	103.977	20.121	3.393	0.512
173.500	172.363	80.008	19.995	103.977	20.124	3.189	0.501
174.000	172.585	80.007	19.995	103.977	20.120	3.444	0.494
174.500	172.845	80.008	19.994	103.977	20.121	3.359	0.480
175.000	173.119	80.008	19.995	103.973	20.119	3.559	0.508
175.500	173.389	80.009	19.993	103.970	20.122	3.297	0.539
176.000	173.565	80.008	19.994	103.971	20.124	3.129	0.495
176.500	173.868	80.008	19.993	103.971	20.120	3.434	0.463
177.000	174.109	80.008	19.994	103.971	20.121	3.395	0.511
177.500	174.327	80.008	19.995	103.974	20.122	3.338	0.501
178.000	174.610	80.008	19.994	103.975	20.120	3.438	0.480
178.500	174.870	80.008	19.994	103.974	20.120	3.461	0.523
179.000	175.108	80.009	19.993	103.975	20.119	3.572	0.521
179.500	175.348	80.009	19.993	103.974	20.123	3.242	0.488
180.000	175.587	80.009	19.994	103.974	20.119	3.523	0.478
180.500	175.870	80.011	19.993	103.976	20.119	3.519	0.500
181.000	176.114	80.010	19.994	103.976	20.122	3.278	0.524
181.500	176.334	80.010	19.993	103.975	20.125	3.087	0.496
182.000	176.556	80.009	19.994	103.975	20.118	3.589	0.453
182.500	176.826	80.010	19.994	103.976	20.120	3.478	0.467
183.000	177.092	80.009	19.994	103.975	20.122	3.274	0.514
183.500	177.340	80.010	19.993	103.976	20.122	3.306	0.525
184.000	177.620	80.011	19.992	103.976	20.117	3.659	0.521
184.500	177.851	80.010	19.993	103.976	20.120	3.461	0.519
185.000	178.109	80.011	19.993	103.974	20.122	3.280	0.500
185.500	178.337	80.009	19.993	103.974	20.123	3.259	0.488
186.000	178.612	80.011	19.993	103.974	20.124	3.161	0.495
186.500	178.831	80.010	19.993	103.974	20.122	3.282	0.498
187.000	179.051	80.011	19.994	103.974	20.120	3.461	0.467
187.500	179.345	80.010	19.994	103.975	20.119	3.504	0.476
188.000	179.610	80.012	19.993	103.975	20.118	3.597	0.536
188.500	179.824	80.012	19.993	103.975	20.121	3.402	0.519
189.001	180.070	80.011	19.993	103.976	20.122	3.319	0.470
189.501	180.324	80.011	19.993	103.977	20.119	3.504	0.480
190.000	180.579	80.010	19.993	103.977	20.123	3.242	0.504
190.500	180.849	80.010	19.994	103.978	20.121	3.372	0.517
191.000	181.042	80.011	19.993	103.977	20.124	3.157	0.494
191.500	181.255	80.009	19.993	103.976	20.120	3.434	0.435
192.000	181.503	80.010	19.994	103.975	20.121	3.399	0.433
192.500	181.809	80.009	19.993	103.974	20.119	3.501	0.508
193.000	182.019	80.011	19.993	103.974	20.119	3.569	0.536
193.500	182.244	80.010	19.994	103.973	20.120	3.450	0.475
194.000	182.530	80.010	19.993	103.973	20.123	3.240	0.473
194.500	182.782	80.010	19.994	103.973	20.120	3.431	0.525
195.000	183.031	80.009	19.993	103.974	20.119	3.531	0.520
195.500	183.312	80.009	19.994	103.974	20.119	3.576	0.515
196.000	183.514	80.009	19.993	103.974	20.116	3.804	0.506
196.500	183.807	80.010	19.994	103.975	20.119	3.540	0.489
197.000	184.029	80.009	19.994	103.973	20.118	3.612	0.505
197.500	184.303	80.010	19.993	103.970	20.116	3.750	0.505
198.000	184.538	80.009	19.993	103.971	20.117	3.725	0.503
198.500	184.754	80.010	19.994	103.971	20.118	3.584	0.480
199.000	185.003	80.009	19.994	103.969	20.119	3.544	0.458
199.500	185.242	80.009	19.994	103.971	20.118	3.602	0.476
200.000	185.503	80.009	19.994	103.974	20.121	3.368	0.494
200.500	185.748	80.010	19.994	103.974	20.118	3.648	0.503
201.000	185.991	80.010	19.993	103.974	20.114	3.895	0.497
201.500	186.257	80.009	19.994	103.977	20.119	3.538	0.499
202.000	186.503	80.008	19.993	103.977	20.119	3.552	0.511
202.500	186.738	80.010	19.993	103.976	20.121	3.386	0.496
203.001	186.985	80.010	19.994	103.970	20.119	3.542	0.481
203.501	187.240	80.010	19.994	103.967	20.118	3.625	0.492
204.000	187.475	80.009	19.993	103.964	20.116	3.735	0.496
204.500	187.750	80.010	19.993	103.962	20.116	3.774	0.500
205.000	187.974	80.011	19.993	103.963	20.115	3.816	0.505
205.500	188.198	80.009	19.993	103.969	20.118	3.627	0.474
206.000	188.475	80.010	19.993	103.972	20.117	3.683	0.475
206.500	188.707	80.010	19.993	103.970	20.117	3.697	0.505
207.000	188.933	80.012	19.993	103.968	20.119	3.572	0.484
207.500	189.179	80.011	19.993	103.966	20.116	3.740	0.465
208.000	189.418	80.011	19.994	103.963	20.118	3.619	0.478
208.500	189.683	80.011	19.993	103.962	20.114	3.917	0.494
209.000	189.916	80.010	19.992	103.965	20.115	3.855	0.501
209.500	190.157	80.011	19.992	103.968	20.114	3.959	0.486
210.000	190.397	80.011	19.994	103.970	20.117	3.719	0.477
210.500	190.651	80.011	19.993	103.972	20.116	3.751	0.487
211.000	190.851	80.011	19.992	103.975	20.116	3.808	0.474
211.500	191.134	80.012	19.992	103.975	20.115	3.885	0.469
212.000	191.339	80.011	19.993	103.973	20.117	3.682	0.486
212.500	191.592	80.011	19.992	103.971	20.116	3.800	0.473
213.000	191.858	80.011	19.992	103.965	20.115	3.885	0.488
213.500	192.101	80.011	19.993	103.964	20.116	3.740	0.514
214.000	192.336	80.011	19.993	103.965	20.115	3.878	0.494
214.500	192.580	80.011	19.991	103.966	20.112	4.048	0.479
215.000	192.777	80.010	19.994	103.967	20.114	3.936	0.460
215.500	193.049	80.011	19.993	103.973	20.115	3.870	0.455
216.000	193.312	80.010	19.994	103.974	20.113	3.995	0.502
216.500	193.563	80.011	19.994	103.974	20.116	3.757	0.524
217.000	193.784	80.009	19.994	103.976	20.114	3.953	0.493
217.500	194.048	80.009	19.994	103.978	20.113	4.031	0.479
218.000	194.289	80.008	19.993	103.977	20.113	3.974	0.495
218.500	194.479	80.008	19.992	103.978	20.115	3.889	0.468
219.000	194.705	80.009	19.994	103.978	20.114	3.961	0.424
219.500	194.967	80.009	19.994	103.978	20.114	3.906	0.452
220.000	195.232	80.008	19.993	103.975	20.115	3.886	0.507
220.500	195.439	80.008	19.993	103.975	20.112	4.050	0.499
221.000	195.700	80.008	19.992	103.973	20.114	3.958	0.470
221.500	195.950	80.007	19.993	103.973	20.111	4.154	0.490
222.001	196.207	80.007	19.993	103.972	20.113	3.997	0.510
222.500	196.408	80.008	19.993	103.975	20.114	3.916	0.482
223.000	196.680	80.008	19.994	103.975	20.111	4.180	0.465
223.500	196.899	80.007	19.992	103.976	20.111	4.124	0.482
224.000	197.176	80.008	19.994	103.975	20.112	4.086	0.494
224.500	197.378	80.009	19.992	103.978	20.116	3.748	0.487
225.000	197.616	80.008	19.994	103.979	20.112	4.067	0.460
225.500	197.874	80.008	19.993	103.976	20.115	3.852	0.469
226.000	198.115	80.008	19.994	103.974	20.113	3.988	0.498
226.500	198.376	80.007	19.993	103.975	20.112	4.046	0.501
227.000	198.600	80.008	19.993	103.973	20.113	4.033	0.493
227.500	198.842	80.007	19.994	103.972	20.112	4.122	0.475
228.000	199.089	80.008	19.993	103.975	20.112	4.088	0.478
228.500	199.332	80.008	19.994	103.976	20.111	4.197	0.489
229.000	199.557	80.007	19.993	103.974	20.111	4.184	0.479
229.500	199.803	80.008	19.994	103.972	20.111	4.186	0.470
230.000	200.066	80.008	19.994	103.971	20.110	4.237	0.491
230.500	200.285	80.008	19.993	103.967	20.109	4.344	0.495
231.000	200.516	80.007	19.993	103.965	20.110	4.267	0.466
231.500	200.743	80.008	19.992	103.963	20.109	4.310	0.454
232.000	201.037	80.007	19.994	103.959	20.108	4.399	0.490
232.500	201.255	80.008	19.994	103.957	20.108	4.412	0.516
233.000	201.522	80.008	19.994	103.958	20.108	4.378	0.498
233.500	201.735	80.009	19.994	103.958	20.110	4.231	0.483
234.000	201.990	80.008	19.993	103.956	20.110	4.203	0.475
234.500	202.219	80.009	19.995	103.958	20.108	4.426	0.476
235.000	202.492	80.007	19.994	103.954	20.109	4.339	0.492
235.500	202.723	80.008	19.993	103.952	20.110	4.250	0.503
236.000	202.947	80.009	19.994	103.952	20.109	4.309	0.480
236.500	203.188	80.008	19.995	103.954	20.109	4.354	0.460
237.000	203.454	80.008	19.995	103.954	20.110	4.252	0.486
237.500	203.676	80.009	19.994	103.957	20.112	4.105	0.498
238.000	203.900	80.008	19.995	103.958	20.110	4.233	0.467
238.500	204.158	80.008	19.994	103.958	20.108	4.390	0.464
239.000	204.437	80.007	19.994	103.959	20.107	4.461	0.510
239.500	204.651	80.009	19.994	103.962	20.109	4.282	0.515
240.000	204.905	80.008	19.994	103.965	20.108	4.403	0.480
240.500	205.152	80.007	19.993	103.968	20.106	4.571	0.484
241.000	205.369	80.007	19.994	103.969	20.106	4.529	0.483
241.500	205.654	80.009	19.995	103.966	20.103	4.782	0.483
242.000	205.846	80.009	19.994	103.964	20.105	4.627	0.490
242.500	206.102	80.008	19.993	103.964	20.106	4.538	0.463
243.000	206.360	80.009	19.994	103.960	20.107	4.465	0.481
243.500	206.597	80.007	19.994	103.960	20.107	4.467	0.504
244.000	206.848	80.009	19.993	103.961	20.102	4.876	0.492
244.500	207.116	80.009	19.993	103.959	20.103	4.818	0.504
245.000	207.380	80.009	19.994	103.954	20.105	4.618	0.525
245.500	207.583	80.008	19.993	103.955	20.107	4.494	0.499
246.000	207.833	80.008	19.993	103.954	20.108	4.399	0.460
246.500	208.061	80.009	19.993	103.953	20.105	4.654	0.465
247.000	208.357	80.008	19.993	103.955	20.109	4.292	0.501
247.500	208.574	80.009	19.993	103.959	20.107	4.499	0.519
248.000	208.869	80.008	19.994	103.960	20.104	4.686	0.512
248.500	209.095	80.008	19.995	103.958	20.107	4.435	0.516
249.000	209.331	80.008	19.994	103.959	20.109	4.309	0.492
249.500	209.576	80.009	19.994	103.961	20.106	4.520	0.472
250.000	209.797	80.008	19.993	103.962	20.108	4.420	0.473
250.500	210.072	80.008	19.994	103.960	20.110	4.267	0.481
251.000	210.303	80.008	19.993	103.965	20.108	4.358	0.501
251.500	210.566	80.009	19.993	103.967	20.108	4.375	0.500
252.000	210.810	80.008	19.994	103.967	20.107	4.509	0.500
252.500	211.043	80.008	19.995	103.969	20.107	4.489	0.492
253.000	211.301	80.008	19.995	103.972	20.106	4.521	0.484
253.500	211.541	80.008	19.995	103.971	20.107	4.451	0.494
254.000	211.768	80.007	19.996	103.972	20.105	4.649	0.482
254.500	212.034	80.009	19.995	103.971	20.105	4.621	0.480
255.000	212.283	80.008	19.995	103.968	20.107	4.488	0.504
255.500	212.529	80.007	19.995	103.964	20.104	4.722	0.505
256.000	212.750	80.007	19.994	103.961	20.103	4.754	0.481
256.500	213.008	80.006	19.994	103.956	20.104	4.730	0.473
257.000	213.242	80.008	19.994	103.956	20.107	4.502	0.485
257.500	213.507	80.006	19.994	103.958	20.103	4.770	0.495
258.000	213.778	80.008	19.994	103.960	20.104	4.668	0.518
258.500	213.998	80.009	19.994	103.965	20.105	4.628	0.514
259.000	214.260	80.009	19.995	103.964	20.104	4.717	0.486
259.500	214.480	80.007	19.994	103.959	20.105	4.662	0.482
260.000	214.744	80.009	19.994	103.958	20.104	4.711	0.483
260.500	215.001	80.008	19.995	103.957	20.101	4.962	0.503
261.000	215.243	80.008	19.994	103.952	20.100	4.981	0.510
261.500	215.504	80.008	19.995	103.951	20.101	4.972	0.501
262.000	215.762	80.009	19.995	103.950	20.098	5.209	0.511
262.500	216.003	80.008	19.995	103.945	20.101	4.906	0.509
263.000	216.257	80.009	19.995	103.940	20.101	4.938	0.497
263.500	216.464	80.008	19.995	103.938	20.101	4.970	0.478
264.000	216.709	80.008	19.995	103.937	20.101	4.913	0.456
264.500	216.981	80.010	19.994	103.937	20.100	5.030	0.484
265.000	217.227	80.009	19.995	103.938	20.101	4.935	0.517
265.500	217.463	80.009	19.994	103.941	20.100	4.999	0.500
266.000	217.731	80.008	19.995	103.947	20.102	4.875	0.493
266.500	217.967	80.010	19.994	103.950	20.101	4.963	0.504
267.000	218.228	80.009	19.995	103.950	20.099	5.101	0.501
267.500	218.439	80.011	19.994	103.949	20.102	4.868	0.485
268.000	218.703	80.010	19.994	103.945	20.102	4.896	0.474
268.500	218.916	80.009	19.993	103.940	20.102	4.836	0.476
269.000	219.145	80.009	19.993	103.940	20.099	5.055	0.460
269.500	219.418	80.009	19.995	103.942	20.103	4.809	0.472
270.000	219.659	80.007	19.995	103.947	20.104	4.730	0.508
270.500	219.923	80.010	19.993	103.950	20.102	4.854	0.509
271.000	220.186	80.009	19.994	103.952	20.103	4.762	0.516
271.500	220.441	80.009	19.993	103.952	20.103	4.783	0.522
272.001	220.639	80.009	19.994	103.949	20.101	4.960	0.485
272.500	220.900	80.008	19.994	103.947	20.102	4.864	0.456
273.000	221.172	80.010	19.994	103.946	20.101	4.928	0.496
273.500	221.377	80.008	19.993	103.944	20.100	4.989	0.505
274.000	221.582	80.009	19.992	103.942	20.100	5.053	0.444
274.500	221.875	80.009	19.993	103.945	20.102	4.873	0.454
275.000	222.105	80.010	19.995	103.946	20.100	4.998	0.510
275.500	222.379	80.008	19.995	103.950	20.101	4.954	0.513
276.000	222.612	80.009	19.995	103.955	20.102	4.886	0.506
276.500	222.876	80.009	19.995	103.959	20.101	4.918	0.502
277.000	223.132	80.010	19.994	103.963	20.100	5.041	0.509
277.500	223.362	80.008	19.994	103.961	20.097	5.226	0.503
278.000	223.619	80.009	19.993	103.956	20.100	4.981	0.486
278.500	223.838	80.009	19.993	103.952	20.099	5.121	0.481
279.000	224.131	80.009	19.993	103.946	20.098	5.198	0.494
279.500	224.363	80.008	19.994	103.941	20.099	5.057	0.518
280.000	224.606	80.008	19.993	103.940	20.096	5.359	0.500
280.500	224.838	80.009	19.992	103.946	20.098	5.198	0.475
281.000	225.090	80.008	19.994	103.948	20.097	5.238	0.480
281.500	225.365	80.009	19.994	103.951	20.097	5.221	0.506
282.000	225.616	80.009	19.993	103.953	20.097	5.272	0.527
282.500	225.871	80.007	19.993	103.953	20.099	5.117	0.516
283.000	226.135	80.009	19.994	103.947	20.099	5.119	0.512
283.500	226.339	80.010	19.992	103.946	20.101	4.902	0.493
284.000	226.619	80.009	19.993	103.943	20.096	5.355	0.476
284.500	226.884	80.009	19.993	103.942	20.099	5.125	0.514
285.000	227.101	80.010	19.994	103.943	20.098	5.200	0.513
285.500	227.374	80.008	19.994	103.948	20.099	5.123	0.486
286.000	227.589	80.010	19.994	103.954	20.097	5.259	0.489
286.500	227.880	80.009	19.993	103.961	20.099	5.091	0.498
287.000	228.126	80.009	19.993	103.962	20.097	5.259	0.521
287.500	228.371	80.010	19.992	103.961	20.101	4.972	0.513
288.000	228.623	80.010	19.993	103.957	20.098	5.189	0.494
288.500	228.904	80.011	19.993	103.953	20.098	5.136	0.515
289.000	229.160	80.010	19.992	103.947	20.098	5.204	0.535
289.500	229.389	80.010	19.992	103.948	20.098	5.136	0.511
290.000	229.670	80.011	19.993	103.947	20.097	5.270	0.498
290.500	229.894	80.011	19.993	103.945	20.097	5.270	0.508
291.000	230.185	80.011	19.993	103.944	20.097	5.285	0.510
291.500	230.368	80.011	19.993	103.944	20.100	5.002	0.494
292.000	230.629	80.011	19.993	103.945	20.100	5.042	0.459
292.500	230.880	80.009	19.992	103.949	20.098	5.187	0.478
293.000	231.125	80.011	19.992	103.948	20.100	4.995	0.504
293.500	231.402	80.011	19.992	103.947	20.098	5.208	0.509
294.000	231.628	80.011	19.993	103.946	20.101	4.906	0.512
294.500	231.870	80.011	19.992	103.944	20.095	5.410	0.485
295.000	232.145	80.011	19.992	103.940	20.095	5.397	0.493
295.500	232.393	80.012	19.993	103.940	20.094	5.463	0.520
296.000	232.662	80.010	19.994	103.939	20.097	5.278	0.520
296.500	232.933	80.011	19.993	103.940	20.099	5.131	0.529
297.000	233.175	80.011	19.992	103.939	20.098	5.148	0.526
297.500	233.432	80.011	19.992	103.938	20.096	5.308	0.505
298.000	233.698	80.009	19.993	103.938	20.097	5.217	0.511
298.500	233.942	80.010	19.992	103.938	20.098	5.168	0.517
299.000	234.167	80.010	19.993	103.937	20.096	5.346	0.490
299.500	234.406	80.010	19.993	103.937	20.096	5.317	0.467
300.000	234.646	80.010	19.992	103.937	20.095	5.412	0.472
300.500	234.904	80.011	19.993	103.937	20.096	5.333	0.489
301.000	235.182	80.010	19.994	103.942	20.093	5.587	0.517
301.500	235.480	80.009	19.993	103.943	20.094	5.487	0.556
302.000	235.717	80.010	19.993	103.944	20.093	5.544	0.556
302.500	235.960	80.008	19.994	103.944	20.095	5.408	0.508
303.000	236.173	80.009	19.993	103.943	20.093	5.552	0.468
303.500	236.441	80.009	19.993	103.939	20.095	5.380	0.469
304.000	236.684	80.009	19.993	103.936	20.095	5.376	0.496
304.500	236.947	80.010	19.993	103.936	20.097	5.227	0.508
305.000	237.196	80.009	19.994	103.935	20.096	5.291	0.509
305.500	237.458	80.009	19.993	103.936	20.093	5.548	0.512
306.000	237.711	80.009	19.994	103.935	20.094	5.472	0.513
306.500	237.958	80.009	19.992	103.935	20.098	5.140	0.508
307.000	238.214	80.007	19.994	103.935	20.095	5.376	0.502
307.500	238.466	80.010	19.993	103.936	20.096	5.299	0.506
308.000	238.688	80.008	19.993	103.936	20.101	4.921	0.491
308.500	238.944	80.009	19.994	103.938	20.099	5.063	0.476
309.000	239.190	80.008	19.993	103.940	20.097	5.267	0.490
309.500	239.444	80.009	19.993	103.940	20.094	5.478	0.501
310.000	239.699	80.009	19.994	103.940	20.100	5.029	0.505
310.500	239.932	80.010	19.994	103.940	20.098	5.182	0.499
311.000	240.182	80.007	19.993	103.938	20.097	5.212	0.486
311.500	240.431	80.009	19.994	103.936	20.097	5.229	0.491
312.000	240.713	80.009	19.994	103.937	20.100	5.051	0.515
312.500	240.960	80.009	19.993	103.936	20.099	5.108	0.530
313.001	241.147	80.009	19.994	103.934	20.096	5.297	0.481
313.501	241.454	80.010	19.992	103.933	20.097	5.287	0.464
314.000	241.678	80.008	19.993	103.934	20.101	4.961	0.513
314.500	241.941	80.008	19.994	103.934	20.098	5.180	0.509
315.000	242.165	80.008	19.992	103.934	20.099	5.114	0.487
315.500	242.429	80.009	19.993	103.937	20.101	4.936	0.487
316.000	242.703	80.010	19.993	103.937	20.097	5.217	0.513
316.500	242.942	80.009	19.993	103.937	20.100	4.989	0.525
317.000	243.231	80.009	19.992	103.935	20.100	5.021	0.520
317.500	243.486	80.008	19.992	103.934	20.101	4.970	0.536
318.000	243.710	80.010	19.992	103.934	20.101	4.916	0.511
318.500	243.974	80.009	19.994	103.934	20.101	4.976	0.483
319.000	244.240	80.009	19.993	103.935	20.100	5.031	0.509
319.500	244.473	80.009	19.993	103.937	20.099	5.069	0.515
320.000	244.730	80.010	19.993	103.934	20.099	5.089	0.495
320.500	244.981	80.011	19.992	103.929	20.101	4.944	0.499
321.000	245.257	80.009	19.994	103.925	20.100	5.040	0.518
321.500	245.518	80.009	19.994	103.925	20.099	5.068	0.532
322.000	245.767	80.010	19.993	103.925	20.100	5.051	0.523
322.500	245.995	80.010	19.993	103.929	20.101	4.940	0.493
323.000	246.256	80.009	19.992	103.935	20.098	5.139	0.483
323.500	246.549	80.009	19.993	103.937	20.102	4.835	0.521
324.000	246.774	80.009	19.994	103.937	20.101	4.927	0.536
324.500	247.073	80.010	19.994	103.937	20.100	4.991	0.521
325.000	247.321	80.009	19.994	103.935	20.103	4.787	0.535
325.500	247.565	80.009	19.993	103.935	20.102	4.896	0.519
326.000	247.825	80.010	19.994	103.936	20.102	4.823	0.498
326.500	248.069	80.010	19.992	103.936	20.099	5.091	0.504
327.000	248.307	80.009	19.993	103.936	20.098	5.202	0.493
327.500	248.561	80.008	19.995	103.936	20.101	4.961	0.487
328.000	248.798	80.009	19.993	103.934	20.102	4.844	0.492
328.500	249.086	80.009	19.994	103.933	20.104	4.723	0.508
329.000	249.322	80.009	19.994	103.928	20.105	4.596	0.525
329.500	249.586	80.008	19.994	103.926	20.105	4.645	0.512
330.000	249.845	80.009	19.993	103.927	20.101	4.925	0.512
330.500	250.107	80.007	19.993	103.926	20.101	4.900	0.522
331.000	250.364	80.009	19.994	103.928	20.102	4.846	0.520
331.500	250.652	80.008	19.994	103.932	20.103	4.787	0.532
332.000	250.878	80.009	19.995	103.935	20.105	4.619	0.530
332.500	251.154	80.008	19.994	103.935	20.106	4.568	0.508
333.000	251.374	80.008	19.995	103.935	20.104	4.676	0.498
333.500	251.660	80.009	19.995	103.930	20.103	4.768	0.501
334.000	251.898	80.008	19.995	103.926	20.105	4.638	0.515
334.500	252.204	80.007	19.994	103.925	20.105	4.600	0.534
335.000	252.424	80.007	19.995	103.927	20.105	4.589	0.535
335.500	252.624	80.008	19.996	103.929	20.105	4.612	0.473
336.000	252.924	80.009	19.994	103.934	20.103	4.778	0.460
336.500	253.124	80.007	19.995	103.938	20.106	4.574	0.500
337.000	253.426	80.007	19.995	103.938	20.105	4.629	0.501
337.500	253.647	80.010	19.993	103.937	20.104	4.691	0.512
338.000	253.900	80.008	19.994	103.936	20.106	4.534	0.499
338.501	254.162	80.009	19.994	103.935	20.107	4.508	0.494
339.001	254.416	80.009	19.995	103.935	20.103	4.806	0.515
339.500	254.676	80.009	19.992	103.937	20.105	4.593	0.515
340.000	254.922	80.009	19.994	103.939	20.103	4.770	0.510
340.500	255.115	80.008	19.994	103.940	20.104	4.742	0.472
341.000	255.415	80.007	19.994	103.940	20.103	4.748	0.466
341.500	255.660	80.008	19.995	103.936	20.104	4.723	0.519
342.000	255.928	80.010	19.993	103.933	20.105	4.665	0.529
342.500	256.175	80.008	19.994	103.932	20.103	4.814	0.514
343.000	256.413	80.010	19.993	103.931	20.106	4.568	0.500
343.500	256.693	80.008	19.995	103.931	20.105	4.598	0.502
344.000	256.952	80.010	19.993	103.934	20.104	4.681	0.529
344.500	257.184	80.009	19.995	103.937	20.107	4.506	0.515
345.000	257.431	80.010	19.993	103.936	20.103	4.748	0.485
345.500	257.688	80.009	19.993	103.932	20.106	4.518	0.492
346.000	257.936	80.009	19.993	103.928	20.108	4.420	0.504
346.500	258.153	80.010	19.993	103.927	20.108	4.431	0.485
347.000	258.444	80.009	19.993	103.928	20.106	4.552	0.487
347.500	258.702	80.009	19.994	103.929	20.107	4.499	0.529
348.000	258.947	80.008	19.994	103.930	20.106	4.559	0.526
348.500	259.195	80.010	19.993	103.934	20.107	4.438	0.498
349.000	259.425	80.008	19.993	103.935	20.105	4.665	0.486
349.500	259.686	80.011	19.993	103.933	20.106	4.557	0.484
350.000	259.886	80.009	19.994	103.933	20.103	4.752	0.476
350.500	260.162	80.010	19.995	103.936	20.106	4.570	0.469
351.000	260.423	80.010	19.994	103.936	20.108	4.414	0.506
351.500	260.640	80.009	19.994	103.933	20.107	4.468	0.507
352.000	260.905	80.010	19.994	103.930	20.107	4.451	0.480
352.500	261.160	80.009	19.992	103.930	20.104	4.680	0.501
353.000	261.433	80.009	19.994	103.930	20.108	4.406	0.524
353.500	261.645	80.009	19.993	103.929	20.108	4.393	0.507
354.000	261.906	80.009	19.995	103.934	20.106	4.510	0.479
354.500	262.167	80.009	19.993	103.939	20.107	4.489	0.497
355.000	262.395	80.009	19.993	103.939	20.104	4.742	0.505
355.500	262.654	80.009	19.994	103.933	20.106	4.544	0.488
356.000	262.917	80.010	19.994	103.926	20.101	4.954	0.505
356.500	263.133	80.008	19.994	103.920	20.106	4.582	0.501
357.000	263.409	80.009	19.993	103.914	20.108	4.431	0.485
357.500	263.651	80.008	19.994	103.913	20.106	4.576	0.505
358.000	263.912	80.009	19.993	103.916	20.107	4.502	0.510
358.500	264.147	80.008	19.994	103.922	20.107	4.506	0.500
359.000	264.409	80.007	19.993	103.927	20.108	4.414	0.497
359.500	264.646	80.009	19.994	103.931	20.109	4.331	0.498
360.000	264.896	80.008	19.995	103.929	20.110	4.233	0.493
360.500	265.161	80.009	19.992	103.930	20.108	4.425	0.501
361.000	265.391	80.009	19.994	103.926	20.107	4.461	0.505
361.500	265.688	80.009	19.994	103.925	20.108	4.416	0.511
362.000	265.915	80.008	19.995	103.927	20.108	4.393	0.526
362.500	266.174	80.008	19.996	103.928	20.108	4.361	0.505
363.000	266.423	80.008	19.994	103.927	20.109	4.320	0.497
363.500	266.647	80.008	19.993	103.928	20.109	4.305	0.491
364.000	266.892	80.009	19.994	103.926	20.110	4.227	0.471
364.500	267.171	80.009	19.994	103.923	20.112	4.073	0.497
365.000	267.413	80.008	19.994	103.923	20.113	3.969	0.523
365.500	267.650	80.011	19.993	103.922	20.112	4.050	0.500
366.000	267.888	80.010	19.994	103.921	20.109	4.303	0.477
366.500	268.155	80.008	19.995	103.920	20.115	3.861	0.490
367.000	268.416	80.009	19.994	103.921	20.113	4.004	0.517
367.500	268.630	80.009	19.993	103.921	20.111	4.133	0.502
368.000	268.902	80.011	19.993	103.921	20.115	3.836	0.481
368.500	269.119	80.010	19.994	103.924	20.114	3.927	0.488
369.000	269.367	80.011	19.995	103.925	20.112	4.116	0.477
369.500	269.622	80.010	19.994	103.924	20.114	3.939	0.483
370.000	269.843	80.011	19.993	103.924	20.115	3.882	0.489
370.500	270.138	80.010	19.993	103.926	20.115	3.867	0.496
371.000	270.409	80.011	19.994	103.922	20.113	4.035	0.542
371.500	270.679	80.011	19.993	103.921	20.115	3.855	0.554
372.000	270.920	80.012	19.992	103.920	20.114	3.891	0.526
372.500	271.135	80.011	19.992	103.918	20.113	4.025	0.483
373.000	271.432	80.012	19.993	103.915	20.113	3.968	0.483
373.500	271.682	80.012	19.991	103.916	20.113	4.031	0.529
374.000	271.933	80.011	19.993	103.912	20.115	3.819	0.524
374.500	272.185	80.011	19.993	103.909	20.111	4.195	0.502
375.001	272.416	80.011	19.992	103.908	20.112	4.108	0.493
375.500	272.668	80.010	19.993	103.906	20.113	4.033	0.483
376.000	272.916	80.010	19.994	103.908	20.112	4.088	0.491
376.501	273.176	80.011	19.994	103.912	20.112	4.046	0.504
377.000	273.407	80.012	19.994	103.916	20.112	4.107	0.500
377.500	273.694	80.012	19.992	103.919	20.115	3.835	0.504
378.000	273.937	80.010	19.993	103.922	20.116	3.759	0.524
378.500	274.178	80.011	19.992	103.918	20.115	3.816	0.507
379.000	274.430	80.011	19.993	103.915	20.114	3.952	0.489
379.500	274.686	80.011	19.993	103.914	20.114	3.937	0.500
380.000	274.926	80.010	19.991	103.910	20.113	4.016	0.501
380.500	275.144	80.010	19.994	103.906	20.112	4.057	0.477
381.000	275.437	80.011	19.992	103.907	20.113	4.025	0.485
381.500	275.649	80.011	19.992	103.909	20.113	3.984	0.509
382.000	275.887	80.011	19.993	103.907	20.110	4.229	0.478
382.500	276.168	80.010	19.993	103.912	20.112	4.055	0.484
383.000	276.422	80.010	19.993	103.916	20.116	3.763	0.527
383.500	276.666	80.010	19.993	103.918	20.113	4.021	0.516
384.000	276.893	80.010	19.994	103.921	20.116	3.797	0.485
384.500	277.168	80.009	19.993	103.923	20.113	3.999	0.487
385.000	277.405	80.009	19.993	103.917	20.116	3.800	0.507
385.500	277.639	80.008	19.994	103.913	20.113	3.998	0.492
386.000	277.931	80.009	19.993	103.910	20.110	4.218	0.499
386.500	278.143	80.009	19.993	103.907	20.112	4.086	0.515
387.000	278.406	80.009	19.993	103.906	20.113	3.976	0.489
387.500	278.618	80.007	19.994	103.905	20.113	3.984	0.475
388.000	278.872	80.008	19.993	103.906	20.114	3.935	0.470
388.500	279.135	80.009	19.993	103.908	20.116	3.797	0.491
389.000	279.348	80.009	19.994	103.907	20.113	3.965	0.497
389.500	279.615	80.008	19.993	103.905	20.115	3.874	0.478
390.000	279.840	80.009	19.994	103.906	20.119	3.557	0.486
390.500	280.088	80.008	19.993	103.906	20.116	3.789	0.482
391.000	280.363	80.008	19.994	103.908	20.117	3.668	0.498
391.500	280.633	80.008	19.993	103.912	20.116	3.761	0.534
392.000	280.870	80.010	19.995	103.915	20.115	3.846	0.526
392.500	281.079	80.009	19.993	103.915	20.117	3.674	0.476
393.000	281.375	80.008	19.994	103.916	20.117	3.700	0.476
393.500	281.617	80.008	19.993	103.915	20.115	3.821	0.521
394.000	281.826	80.009	19.993	103.911	20.116	3.778	0.495
394.500	282.068	80.008	19.992	103.915	20.115	3.827	0.451
395.000	282.313	80.008	19.996	103.919	20.115	3.825	0.469
395.500	282.535	80.009	19.995	103.920	20.116	3.748	0.477
396.000	282.806	80.008	19.996	103.921	20.116	3.742	0.480
396.500	283.033	80.009	19.995	103.924	20.116	3.765	0.495
397.000	283.335	80.008	19.994	103.919	20.117	3.721	0.513
397.500	283.560	80.008	19.993	103.916	20.117	3.714	0.528
398.000	283.805	80.008	19.994	103.912	20.115	3.857	0.499
398.500	284.046	80.008	19.995	103.911	20.118	3.602	0.478
399.000	284.329	80.009	19.994	103.912	20.116	3.755	0.505
399.500	284.584	80.009	19.995	103.913	20.118	3.627	0.531
400.000	284.811	80.009	19.995	103.913	20.116	3.763	0.509
400.500	285.033	80.009	19.992	103.912	20.117	3.672	0.465
401.000	285.289	80.009	19.994	103.913	20.119	3.565	0.463
401.500	285.546	80.010	19.995	103.911	20.117	3.729	0.496
402.000	285.781	80.008	19.995	103.912	20.117	3.723	0.503
402.500	286.026	80.010	19.993	103.917	20.118	3.591	0.486
403.000	286.307	80.009	19.992	103.919	20.119	3.574	0.503
403.500	286.536	80.009	19.993	103.916	20.120	3.427	0.518
404.000	286.780	80.009	19.992	103.917	20.118	3.621	0.492
404.500	287.053	80.009	19.993	103.913	20.117	3.718	0.495
405.000	287.296	80.008	19.995	103.910	20.120	3.472	0.516
405.500	287.526	80.009	19.994	103.910	20.119	3.525	0.495
406.000	287.762	80.008	19.994	103.909	20.119	3.574	0.470
406.500	287.994	80.009	19.992	103.910	20.120	3.479	0.467
407.000	288.231	80.009	19.992	103.910	20.119	3.553	0.468
407.500	288.479	80.007	19.993	103.911	20.120	3.455	0.477
408.000	288.751	80.009	19.994	103.913	20.119	3.506	0.503
408.500	288.965	80.009	19.993	103.911	20.116	3.803	0.503
409.000	289.207	80.009	19.994	103.911	20.119	3.525	0.471
409.500	289.434	80.008	19.993	103.918	20.120	3.431	0.463
410.000	289.720	80.009	19.992	103.917	20.119	3.527	0.491
410.500	289.957	80.009	19.993	103.915	20.117	3.667	0.518
411.000	290.188	80.009	19.993	103.915	20.120	3.455	0.496
411.500	290.444	80.008	19.993	103.913	20.120	3.451	0.477
412.000	290.692	80.009	19.992	103.906	20.120	3.459	0.495
412.500	290.970	80.007	19.994	103.905	20.121	3.357	0.515
413.000	291.206	80.008	19.994	103.907	20.122	3.334	0.520
413.500	291.468	80.009	19.992	103.908	20.120	3.442	0.506
414.000	291.731	80.008	19.993	103.908	20.118	3.608	0.511
414.500	291.995	80.008	19.993	103.909	20.116	3.765	0.526
415.000	292.204	80.009	19.993	103.911	20.120	3.432	0.500
415.500	292.452	80.008	19.992	103.911	20.120	3.460	0.465
416.000	292.681	80.008	19.993	103.911	20.119	3.504	0.467
416.500	292.940	80.009	19.993	103.914	20.122	3.341	0.482
417.000	293.210	80.007	19.993	103.917	20.123	3.262	0.509
417.500	293.424	80.008	19.993	103.920	20.120	3.449	0.506
418.000	293.691	80.008	19.993	103.918	20.121	3.351	0.482
418.500	293.949	80.009	19.993	103.916	20.119	3.527	0.503
419.000	294.180	80.006	19.995	103.912	20.122	3.285	0.507
419.500	294.452	80.006	19.993	103.909	20.125	3.102	0.496
420.000	294.691	80.007	19.993	103.906	20.123	3.219	0.507
420.500	294.961	80.008	19.993	103.905	20.121	3.351	0.510
421.000	295.216	80.007	19.992	103.907	20.121	3.372	0.517
421.500	295.425	80.008	19.993	103.910	20.123	3.251	0.494
422.000	295.686	80.009	19.993	103.911	20.121	3.378	0.467
422.500	295.912	80.007	19.994	103.911	20.125	3.034	0.478
423.000	296.195	80.009	19.995	103.910	20.122	3.312	0.498
423.500	296.428	80.008	19.994	103.909	20.126	3.029	0.512
424.000	296.642	80.008	19.995	103.906	20.123	3.193	0.481
424.500	296.924	80.007	19.995	103.906	20.122	3.270	0.471
425.001	297.143	80.009	19.994	103.908	20.122	3.276	0.498
425.500	297.418	80.007	19.994	103.914	20.124	3.153	0.498
426.000	297.682	80.008	19.994	103.919	20.125	3.034	0.517
426.500	297.905	80.009	19.994	103.924	20.124	3.170	0.514
427.000	298.182	80.009	19.994	103.925	20.126	2.974	0.493
427.500	298.384	80.009	19.993	103.926	20.125	3.100	0.489
428.000	298.666	80.009	19.994	103.920	20.126	3.006	0.481
428.500	298.914	80.008	19.995	103.915	20.125	3.066	0.507
429.000	299.137	80.010	19.994	103.914	20.121	3.370	0.501
429.500	299.396	80.009	19.994	103.914	20.124	3.178	0.476
430.000	299.670	80.011	19.993	103.911	20.122	3.280	0.508
430.501	299.912	80.010	19.994	103.911	20.126	2.989	0.525
431.000	300.127	80.010	19.994	103.914	20.123	3.227	0.486
431.500	300.389	80.010	19.993	103.909	20.121	3.351	0.467
432.000	300.662	80.010	19.993	103.905	20.123	3.213	0.507
432.500	300.875	80.012	19.994	103.905	20.121	3.383	0.511
433.000	301.137	80.011	19.994	103.906	20.122	3.304	0.480
433.500	301.403	80.011	19.994	103.900	20.122	3.319	0.501
434.000	301.633	80.011	19.992	103.900	20.119	3.555	0.512
434.500	301.851	80.011	19.994	103.900	20.121	3.348	0.472
435.000	302.133	80.010	19.994	103.900	20.124	3.170	0.474
435.500	302.427	80.010	19.993	103.901	20.124	3.181	0.538
436.000	302.635	80.010	19.993	103.902	20.125	3.045	0.539
436.500	302.874	80.011	19.994	103.903	20.126	2.994	0.475
437.000	303.131	80.012	19.993	103.903	20.124	3.185	0.471
437.500	303.362	80.010	19.993	103.901	20.121	3.346	0.492
438.000	303.608	80.010	19.994	103.900	20.124	3.121	0.482
438.500	303.899	80.010	19.994	103.902	20.120	3.442	0.507
439.000	304.078	80.012	19.994	103.904	20.120	3.446	0.504
439.500	304.355	80.010	19.993	103.906	20.125	3.055	0.463
440.000	304.606	80.011	19.993	103.908	20.123	3.227	0.492
440.500	304.819	80.010	19.993	103.907	20.122	3.289	0.496
441.000	305.107	80.010	19.993	103.906	20.122	3.310	0.482
441.500	305.324	80.010	19.994	103.907	20.122	3.272	0.504
442.000	305.634	80.010	19.993	103.907	20.121	3.366	0.516
442.500	305.830	80.009	19.994	103.909	20.118	3.627	0.516
443.000	306.105	80.009	19.995	103.912	20.120	3.463	0.489
443.500	306.336	80.009	19.992	103.913	20.121	3.344	0.489
444.000	306.601	80.010	19.993	103.909	20.118	3.635	0.501
444.500	306.832	80.010	19.994	103.907	20.120	3.476	0.496
445.001	307.046	80.009	19.995	103.908	20.120	3.442	0.470
445.500	307.288	80.008	19.994	103.907	20.122	3.304	0.451
446.000	307.514	80.010	19.993	103.910	20.125	3.104	0.462
446.500	307.808	80.009	19.994	103.911	20.121	3.382	0.494
447.000	308.051	80.009	19.992	103.911	20.121	3.403	0.528
447.500	308.302	80.010	19.993	103.916	20.121	3.355	0.515
448.000	308.509	80.009	19.995	103.917	20.122	3.267	0.476
448.500	308.789	80.010	19.995	103.913	20.123	3.218	0.473
449.000	309.054	80.010	19.993	103.912	20.122	3.342	0.516
449.500	309.298	80.011	19.994	103.910	20.125	3.063	0.527
450.000	309.552	80.010	19.994	103.904	20.120	3.431	0.503
450.500	309.806	80.011	19.994	103.901	20.123	3.236	0.503
451.000	310.031	80.011	19.993	103.904	20.124	3.170	0.493
451.500	310.322	80.010	19.994	103.910	20.124	3.127	0.498
452.000	310.565	80.010	19.994	103.916	20.123	3.240	0.526
452.500	310.806	80.011	19.994	103.919	20.125	3.046	0.509
453.000	311.061	80.010	19.994	103.918	20.124	3.148	0.490
453.500	311.295	80.011	19.994	103.917	20.126	3.019	0.493
454.000	311.556	80.011	19.994	103.910	20.125	3.106	0.492
454.500	311.801	80.010	19.995	103.905	20.124	3.155	0.500
455.000	312.066	80.010	19.997	103.901	20.123	3.219	0.508
455.500	312.334	80.010	19.997	103.904	20.122	3.336	0.522
456.000	312.549	80.011	19.995	103.904	20.122	3.334	0.508
456.500	312.819	80.010	19.996	103.905	20.122	3.323	0.484
457.000	313.056	80.012	19.994	103.904	20.122	3.327	0.496
457.500	313.309	80.011	19.994	103.903	20.125	3.095	0.498
458.000	313.541	80.010	19.995	103.899	20.125	3.053	0.488
458.500	313.797	80.011	19.993	103.898	20.122	3.295	0.487
459.001	314.072	80.010	19.995	103.898	20.124	3.110	0.510
459.500	314.325	80.012	19.995	103.898	20.123	3.257	0.529
460.000	314.602	80.010	19.993	103.898	20.120	3.421	0.528
460.500	314.799	80.012	19.993	103.899	20.124	3.125	0.502
461.000	315.057	80.010	19.994	103.900	20.122	3.265	0.465
461.500	315.321	80.011	19.994	103.899	20.122	3.274	0.488
462.000	315.542	80.010	19.993	103.901	20.121	3.359	0.503
462.501	315.809	80.010	19.994	103.905	20.121	3.391	0.486
463.000	316.078	80.010	19.993	103.904	20.123	3.193	0.512
463.500	316.363	80.011	19.993	103.903	20.124	3.187	0.545
464.000	316.610	80.011	19.994	103.903	20.122	3.280	0.543
464.500	316.865	80.011	19.993	103.902	20.125	3.106	0.517
465.000	317.097	80.009	19.994	103.898	20.124	3.136	0.494
465.500	317.358	80.010	19.994	103.900	20.121	3.384	0.490
466.000	317.619	80.010	19.994	103.902	20.119	3.567	0.507
466.500	317.841	80.009	19.994	103.905	20.121	3.344	0.503
467.000	318.121	80.010	19.992	103.906	20.122	3.327	0.493
467.500	318.335	80.010	19.993	103.907	20.120	3.433	0.498
468.000	318.620	80.009	19.992	103.907	20.120	3.427	0.497
468.500	318.874	80.008	19.994	103.906	20.120	3.493	0.519
469.000	319.114	80.009	19.993	103.903	20.121	3.346	0.517
469.500	319.352	80.008	19.993	103.903	20.121	3.355	0.486
470.000	319.594	80.009	19.991	103.902	20.119	3.508	0.479
470.500	319.858	80.009	19.994	103.902	20.123	3.212	0.493
471.000	320.098	80.009	19.993	103.904	20.122	3.327	0.504
471.500	320.335	80.009	19.992	103.904	20.118	3.616	0.490
472.000	320.588	80.008	19.993	103.905	20.120	3.425	0.483
472.500	320.868	80.009	19.993	103.906	20.121	3.344	0.511
473.000	321.142	80.008	19.994	103.907	20.121	3.412	0.544
473.501	321.389	80.009	19.993	103.908	20.120	3.476	0.538
474.000	321.647	80.009	19.992	103.908	20.120	3.452	0.513
474.500	321.892	80.009	19.993	103.908	20.120	3.446	0.504
475.000	322.132	80.009	19.993	103.906	20.120	3.436	0.494
475.500	322.409	80.008	19.993	103.905	20.119	3.574	0.501
476.000	322.627	80.009	19.993	103.901	20.119	3.519	0.506
476.500	322.875	80.010	19.993	103.902	20.119	3.542	0.481
477.000	323.139	80.009	19.993	103.904	20.117	3.731	0.489
477.500	323.400	80.009	19.994	103.905	20.115	3.823	0.518
478.000	323.604	80.010	19.992	103.905	20.115	3.825	0.495
478.500	323.889	80.008	19.993	103.905	20.118	3.582	0.476
479.000	324.120	80.010	19.993	103.904	20.118	3.587	0.502
479.500	324.362	80.009	19.993	103.903	20.115	3.880	0.495
480.000	324.624	80.009	19.992	103.902	20.113	4.012	0.489
480.500	324.853	80.009	19.993	103.903	20.118	3.591	0.497
481.000	325.129	80.009	19.993	103.904	20.118	3.608	0.498
481.500	325.354	80.009	19.993	103.905	20.117	3.655	0.503
482.000	325.642	80.009	19.993	103.905	20.117	3.731	0.507
482.500	325.908	80.009	19.994	103.905	20.117	3.718	0.534
483.000	326.164	80.008	19.994	103.905	20.116	3.754	0.538
483.500	326.380	80.009	19.993	103.904	20.120	3.467	0.497
484.000	326.619	80.009	19.993	103.904	20.116	3.805	0.463
484.500	326.896	80.009	19.992	103.903	20.115	3.880	0.485
485.000	327.156	80.010	19.992	103.903	20.116	3.797	0.527
485.500	327.397	80.010	19.993	103.909	20.112	4.073	0.519
486.000	327.653	80.008	19.993	103.912	20.112	4.088	0.499
486.500	327.941	80.009	19.991	103.912	20.112	4.097	0.521
487.000	328.149	80.008	19.992	103.912	20.112	4.097	0.520
487.500	328.425	80.009	19.994	103.913	20.111	4.175	0.490
488.000	328.666	80.010	19.993	103.908	20.110	4.211	0.501
488.500	328.933	80.009	19.993	103.907	20.111	4.139	0.512
489.000	329.204	80.010	19.994	103.908	20.109	4.277	0.522
489.500	329.438	80.010	19.993	103.909	20.108	4.360	0.521
490.000	329.659	80.009	19.993	103.912	20.108	4.401	0.480
490.500	329.985	80.010	19.993	103.919	20.107	4.460	0.501
491.000	330.213	80.009	19.993	103.918	20.104	4.690	0.551
491.500	330.458	80.011	19.994	103.919	20.106	4.567	0.514
492.000	330.702	80.010	19.993	103.918	20.108	4.382	0.481
492.500	330.983	80.009	19.994	103.914	20.105	4.660	0.507
493.000	331.233	80.009	19.994	103.909	20.105	4.607	0.528
493.500	331.478	80.008	19.994	103.907	20.104	4.732	0.513
494.000	331.755	80.009	19.994	103.904	20.103	4.777	0.508
494.500	332.013	80.009	19.993	103.903	20.104	4.679	0.528
495.000	332.241	80.010	19.994	103.903	20.103	4.749	0.511
495.500	332.511	80.009	19.993	103.903	20.103	4.800	0.492
496.000	332.779	80.009	19.994	103.904	20.106	4.530	0.518
496.500	333.079	80.009	19.994	103.904	20.102	4.888	0.553
497.000	333.297	80.010	19.994	103.904	20.101	4.936	0.543
497.500	333.616	80.010	19.993	103.903	20.100	4.985	0.527
498.000	333.817	80.010	19.993	103.903	20.099	5.064	0.529
498.500	334.062	80.009	19.994	103.902	20.100	5.047	0.483
499.000	334.344	80.009	19.993	103.903	20.099	5.117	0.486
499.500	334.589	80.011	19.993	103.903	20.100	5.043	0.527
500.000	334.850	80.010	19.993	103.901	20.100	5.015	0.517
500.500	335.103	80.009	19.993	103.900	20.098	5.189	0.510
501.000	335.353	80.009	19.993	103.901	20.102	4.834	0.508
501.500	335.617	80.010	19.993	103.901	20.100	5.011	0.508
502.000	335.865	80.011	19.993	103.903	20.102	4.826	0.513
502.500	336.094	80.010	19.992	103.905	20.100	4.987	0.494
503.000	336.393	80.010	19.993	103.905	20.095	5.383	0.503
503.500	336.614	80.009	19.992	103.903	20.097	5.270	0.524
504.000	336.905	80.010	19.992	103.903	20.099	5.123	0.516
504.500	337.140	80.010	19.992	103.903	20.097	5.278	0.519
505.000	337.418	80.009	19.993	103.901	20.097	5.247	0.519
505.500	337.616	80.010	19.992	103.902	20.098	5.145	0.494
506.000	337.902	80.009	19.992	103.904	20.097	5.274	0.480
506.500	338.166	80.009	19.995	103.905	20.097	5.223	0.517
507.000	338.429	80.011	19.992	103.903	20.095	5.391	0.538
507.500	338.672	80.009	19.992	103.904	20.095	5.404	0.516
508.000	338.930	80.010	19.993	103.905	20.097	5.266	0.504
508.500	339.191	80.010	19.993	103.904	20.097	5.242	0.511
509.000	339.422	80.010	19.991	103.903	20.097	5.251	0.506
509.500	339.710	80.010	19.993	103.904	20.093	5.557	0.505
510.000	339.986	80.011	19.993	103.905	20.093	5.595	0.541
510.500	340.220	80.010	19.992	103.904	20.091	5.684	0.537
511.000	340.462	80.010	19.994	103.902	20.090	5.771	0.493
511.500	340.733	80.010	19.993	103.901	20.091	5.708	0.495
512.000	341.016	80.010	19.993	103.901	20.092	5.661	0.534
512.500	341.244	80.011	19.992	103.899	20.093	5.589	0.533
513.000	341.528	80.010	19.993	103.900	20.092	5.653	0.512
513.500	341.780	80.011	19.993	103.899	20.091	5.676	0.524
514.000	342.030	80.011	19.992	103.899	20.090	5.765	0.519
514.500	342.295	80.012	19.993	103.900	20.090	5.766	0.509
515.000	342.545	80.011	19.996	103.900	20.089	5.846	0.515
515.500	342.810	80.011	19.994	103.900	20.092	5.642	0.515
516.000	343.067	80.010	19.993	103.899	20.090	5.774	0.519
516.500	343.320	80.010	19.994	103.900	20.091	5.676	0.516
517.000	343.576	80.011	19.993	103.903	20.091	5.727	0.509
517.500	343.844	80.011	19.994	103.902	20.091	5.712	0.516
518.000	344.089	80.011	19.993	103.902	20.092	5.644	0.519
518.500	344.362	80.012	19.993	103.902	20.093	5.553	0.516
519.000	344.601	80.011	19.994	103.903	20.090	5.804	0.515
519.500	344.840	80.010	19.994	103.900	20.090	5.821	0.495
520.000	345.153	80.012	19.994	103.899	20.089	5.870	0.515
520.500	345.369	80.010	19.994	103.900	20.090	5.830	0.540
521.000	345.639	80.011	19.993	103.899	20.092	5.638	0.508
521.500	345.882	80.009	19.994	103.897	20.090	5.774	0.500
522.000	346.151	80.010	19.994	103.897	20.090	5.753	0.513
522.500	346.421	80.011	19.994	103.898	20.089	5.861	0.525
523.000	346.652	80.011	19.994	103.897	20.089	5.889	0.520
523.500	346.896	80.011	19.993	103.899	20.092	5.598	0.488
524.000	347.172	80.010	19.994	103.902	20.087	6.025	0.498
524.500	347.429	80.009	19.993	103.902	20.092	5.674	0.526
525.000	347.659	80.009	19.994	103.903	20.089	5.863	0.510
525.500	347.909	80.010	19.993	103.906	20.088	5.942	0.483
526.000	348.197	80.010	19.995	103.907	20.089	5.878	0.508
526.500	348.416	80.011	19.994	103.905	20.086	6.105	0.522
527.000	348.703	80.010	19.995	103.904	20.091	5.697	0.507
527.500	348.954	80.011	19.994	103.904	20.089	5.899	0.522
528.000	349.219	80.010	19.994	103.901	20.089	5.846	0.527
528.500	349.472	80.009	19.994	103.901	20.090	5.761	0.517
529.000	349.721	80.011	19.994	103.902	20.086	6.105	0.510
529.500	350.005	80.010	19.993	103.908	20.093	5.578	0.518
530.001	350.223	80.011	19.993	103.913	20.089	5.835	0.517
530.500	350.505	80.010	19.995	103.913	20.089	5.857	0.501
531.000	350.782	80.010	19.992	103.911	20.090	5.753	0.530
531.500	351.029	80.009	19.994	103.910	20.088	5.944	0.541
532.000	351.290	80.010	19.993	103.905	20.090	5.782	0.516
532.500	351.538	80.009	19.993	103.903	20.090	5.829	0.509
533.000	351.783	80.010	19.994	103.906	20.092	5.640	0.501
533.500	352.063	80.010	19.993	103.908	20.090	5.825	0.509
534.000	352.343	80.009	19.994	103.909	20.091	5.723	0.543
534.500	352.597	80.010	19.995	103.910	20.089	5.899	0.547
535.000	352.854	80.010	19.993	103.907	20.090	5.755	0.522
535.500	353.131	80.010	19.993	103.904	20.090	5.806	0.522
536.000	353.397	80.011	19.994	103.900	20.085	6.193	0.538
536.500	353.637	80.011	19.993	103.899	20.088	5.952	0.525
537.000	353.936	80.012	19.993	103.899	20.091	5.676	0.522
537.500	354.183	80.012	19.994	103.898	20.092	5.646	0.543
538.000	354.445	80.010	19.994	103.898	20.089	5.886	0.528
538.500	354.715	80.012	19.994	103.900	20.091	5.716	0.520
539.000	354.959	80.012	19.992	103.900	20.087	6.016	0.523
539.500	355.232	80.012	19.993	103.900	20.088	5.922	0.516
540.000	355.476	80.012	19.993	103.901	20.089	5.833	0.517
540.500	355.742	80.012	19.994	103.901	20.090	5.818	0.513
541.000	355.955	80.011	19.993	103.901	20.089	5.884	0.494
541.500	356.258	80.010	19.994	103.901	20.092	5.651	0.497
542.000	356.525	80.011	19.993	103.901	20.089	5.884	0.543
542.500	356.735	80.011	19.993	103.901	20.091	5.708	0.523
543.000	357.046	80.013	19.992	103.902	20.089	5.853	0.499
543.500	357.289	80.010	19.992	103.902	20.088	5.921	0.537
544.000	357.555	80.011	19.993	103.901	20.089	5.906	0.532
544.500	357.834	80.010	19.993	103.901	20.087	6.025	0.527
545.000	358.091	80.012	19.992	103.901	20.091	5.704	0.541
545.500	358.348	80.011	19.994	103.900	20.088	5.952	0.525
546.000	358.637	80.010	19.991	103.900	20.085	6.159	0.530
546.500	358.917	80.010	19.994	103.899	20.091	5.736	0.557
547.000	359.147	80.009	19.993	103.900	20.092	5.640	0.540
547.500	359.433	80.010	19.993	103.900	20.089	5.884	0.513
548.000	359.632	80.010	19.994	103.898	20.093	5.582	0.500
548.500	359.895	80.009	19.994	103.895	20.089	5.855	0.474
549.000	360.178	80.010	19.994	103.895	20.092	5.655	0.504
549.500	360.421	80.007	19.994	103.894	20.091	5.691	0.536
550.000	360.661	80.008	19.993	103.894	20.089	5.835	0.505
550.500	360.948	80.009	19.994	103.896	20.094	5.508	0.505
551.000	361.190	80.008	19.994	103.899	20.093	5.544	0.528
551.500	361.488	80.009	19.993	103.900	20.094	5.478	0.535
552.000	361.735	80.008	19.994	103.900	20.095	5.404	0.543
552.500	362.015	80.007	19.994	103.901	20.096	5.338	0.536
553.000	362.260	80.008	19.995	103.901	20.096	5.336	0.526
553.500	362.537	80.006	19.994	103.901	20.095	5.408	0.524
554.000	362.782	80.009	19.994	103.901	20.096	5.302	0.522
554.500	363.042	80.009	19.995	103.902	20.096	5.338	0.513
555.000	363.315	80.008	19.994	103.901	20.094	5.487	0.519
555.500	363.556	80.008	19.993	103.902	20.097	5.213	0.523
556.000	363.817	80.008	19.994	103.901	20.095	5.421	0.508
556.500	364.069	80.009	19.994	103.901	20.096	5.334	0.508
557.000	364.314	80.010	19.994	103.900	20.096	5.289	0.505
557.500	364.603	80.009	19.994	103.900	20.093	5.580	0.515
558.000	364.835	80.008	19.994	103.899	20.095	5.423	0.528
558.500	365.095	80.009	19.994	103.900	20.096	5.302	0.507
559.000	365.366	80.010	19.993	103.899	20.095	5.406	0.511
559.500	365.602	80.009	19.994	103.899	20.095	5.438	0.519
560.000	365.883	80.008	19.994	103.898	20.097	5.268	0.512
560.500	366.165	80.009	19.995	103.899	20.094	5.506	0.540
561.000	366.429	80.010	19.994	103.897	20.093	5.584	0.554
561.500	366.710	80.009	19.994	103.898	20.093	5.533	0.546
562.000	366.955	80.010	19.992	103.897	20.095	5.389	0.535
562.500	367.195	80.010	19.993	103.897	20.091	5.705	0.505
563.000	367.474	80.010	19.993	103.897	20.093	5.550	0.502
563.500	367.654	80.010	19.993	103.897	20.092	5.597	0.489
564.000	367.936	80.008	19.993	103.897	20.092	5.622	0.460
564.500	368.216	80.009	19.992	103.898	20.092	5.669	0.512
565.000	368.489	80.009	19.992	103.898	20.093	5.542	0.557
565.500	368.757	80.010	19.993	103.899	20.090	5.795	0.547
566.000	368.997	80.009	19.994	103.899	20.089	5.863	0.525
566.500	369.319	80.009	19.993	103.899	20.090	5.769	0.535
567.000	369.582	80.010	19.992	103.900	20.093	5.544	0.574
567.500	369.824	80.010	19.992	103.900	20.089	5.837	0.545
568.000	370.078	80.010	19.992	103.899	20.088	5.912	0.500
568.500	370.237	80.010	19.993	103.899	20.090	5.776	0.455
569.000	370.528	80.011	19.993	103.899	20.090	5.799	0.432
569.500	370.845	80.010	19.992	103.898	20.089	5.888	0.529
570.000	371.111	80.010	19.994	103.897	20.090	5.822	0.595
570.500	371.365	80.008	19.993	103.897	20.091	5.735	0.551
571.000	371.601	80.009	19.993	103.896	20.087	6.056	0.505
571.500	371.875	80.010	19.993	103.892	20.089	5.859	0.500
572.000	372.123	80.010	19.992	103.890	20.088	5.950	0.516
572.500	372.323	80.009	19.993	103.890	20.087	6.022	0.485
573.000	372.651	80.009	19.993	103.890	20.086	6.080	0.488
573.500	372.908	80.010	19.992	103.890	20.089	5.882	0.557
574.000	373.150	80.009	19.993	103.889	20.087	5.994	0.542
574.500	373.405	80.009	19.992	103.888	20.090	5.756	0.498
575.000	373.679	80.009	19.996	103.888	20.088	5.969	0.513
575.500	373.942	80.009	19.994	103.889	20.090	5.807	0.533
576.000	374.197	80.010	19.993	103.890	20.090	5.797	0.527
576.500	374.472	80.010	19.994	103.895	20.088	5.954	0.524
577.000	374.746	80.009	19.993	103.898	20.091	5.737	0.539
577.500	374.965	80.009	19.993	103.898	20.090	5.780	0.521
578.000	375.289	80.010	19.993	103.897	20.089	5.873	0.518
578.500	375.469	80.008	19.994	103.896	20.092	5.601	0.524
579.000	375.743	80.010	19.994	103.894	20.090	5.782	0.479
579.500	375.990	80.010	19.993	103.893	20.089	5.878	0.488
580.000	376.247	80.009	19.994	103.893	20.093	5.586	0.513
580.500	376.498	80.009	19.994	103.893	20.089	5.905	0.506
581.000	376.742	80.010	19.993	103.893	20.091	5.690	0.502
581.500	376.993	80.008	19.994	103.896	20.091	5.737	0.495
582.000	377.258	80.009	19.994	103.896	20.092	5.644	0.505
582.500	377.513	80.009	19.994	103.896	20.091	5.710	0.518
583.000	377.782	80.009	19.993	103.896	20.094	5.510	0.522
583.500	378.032	80.009	19.994	103.895	20.091	5.718	0.522
584.000	378.294	80.009	19.994	103.894	20.089	5.867	0.515
584.500	378.564	80.010	19.993	103.894	20.089	5.890	0.522
585.000	378.827	80.008	19.993	103.893	20.092	5.669	0.532
585.500	379.049	80.008	19.992	103.894	20.089	5.907	0.509
586.000	379.320	80.009	19.994	103.895	20.089	5.905	0.489
586.500	379.557	80.010	19.994	103.893	20.091	5.677	0.500
587.000	379.790	80.009	19.994	103.892	20.090	5.764	0.489
587.500	380.077	80.010	19.994	103.892	20.089	5.849	0.495
588.000	380.333	80.009	19.993	103.891	20.091	5.696	0.531
588.500	380.594	80.010	19.993	103.891	20.092	5.631	0.530
589.000	380.835	80.010	19.994	103.892	20.091	5.705	0.510
589.500	381.109	80.010	19.993	103.895	20.093	5.552	0.509
590.000	381.354	80.010	19.993	103.895	20.089	5.837	0.517
590.500	381.570	80.009	19.993	103.895	20.092	5.659	0.490
591.000	381.833	80.010	19.993	103.893	20.089	5.841	0.471
591.500	382.142	80.009	19.993	103.892	20.092	5.614	0.526
592.000	382.403	80.011	19.994	103.892	20.090	5.822	0.571
592.500	382.613	80.009	19.993	103.893	20.092	5.612	0.520
593.000	382.885	80.011	19.992	103.895	20.094	5.472	0.476
593.500	383.181	80.010	19.993	103.895	20.093	5.529	0.525
594.000	383.368	80.010	19.992	103.894	20.095	5.433	0.525
594.500	383.666	80.010	19.993	103.894	20.095	5.369	0.484
595.000	383.940	80.011	19.993	103.893	20.097	5.218	0.529
595.500	384.173	80.011	19.992	103.892	20.096	5.288	0.540
596.000	384.408	80.011	19.993	103.891	20.096	5.320	0.487
596.500	384.710	80.011	19.993	103.891	20.096	5.346	0.502
597.000	384.916	80.012	19.993	103.886	20.096	5.329	0.523
597.500	385.183	80.010	19.991	103.884	20.098	5.201	0.490
598.000	385.447	80.010	19.993	103.882	20.097	5.222	0.502
598.500	385.664	80.011	19.992	103.884	20.096	5.309	0.506
599.000	385.937	80.011	19.992	103.884	20.097	5.264	0.486
599.500	386.208	80.011	19.993	103.890	20.098	5.152	0.517
600.001	386.458	80.010	19.992	103.892	20.096	5.322	0.532
600.500	386.688	80.012	19.991	103.892	20.097	5.246	0.500
601.000	386.949	80.011	19.991	103.891	20.097	5.274	0.485
601.500	387.183	80.011	19.992	103.891	20.097	5.269	0.494
602.000	387.445	80.012	19.993	103.892	20.097	5.267	0.496
602.500	387.720	80.010	19.993	103.893	20.095	5.388	0.517
603.000	387.985	80.011	19.993	103.896	20.099	5.126	0.538
603.500	388.214	80.009	19.992	103.895	20.097	5.228	0.517
604.000	388.486	80.010	19.992	103.895	20.096	5.324	0.497
604.500	388.724	80.010	19.993	103.895	20.096	5.290	0.505
605.000	388.973	80.011	19.992	103.890	20.095	5.394	0.499
605.500	389.206	80.010	19.993	103.889	20.097	5.248	0.485
606.000	389.480	80.011	19.993	103.890	20.097	5.246	0.494
606.500	389.702	80.010	19.993	103.886	20.099	5.099	0.501
607.000	389.967	80.010	19.993	103.882	20.099	5.093	0.492
607.500	390.225	80.010	19.992	103.886	20.099	5.108	0.505
608.000	390.517	80.011	19.992	103.883	20.099	5.114	0.537
608.500	390.795	80.010	19.992	103.876	20.098	5.133	0.561
609.000	391.019	80.010	19.992	103.876	20.100	5.040	0.536
609.500	391.331	80.010	19.993	103.872	20.097	5.246	0.518
610.000	391.556	80.010	19.993	103.870	20.098	5.133	0.536
610.500	391.839	80.009	19.993	103.874	20.099	5.063	0.523
611.000	392.065	80.010	19.992	103.879	20.101	4.958	0.508
611.500	392.309	80.010	19.993	103.882	20.099	5.073	0.489
612.000	392.564	80.011	19.994	103.886	20.094	5.471	0.484
612.500	392.839	80.011	19.994	103.882	20.097	5.254	0.514
613.000	393.080	80.008	19.993	103.879	20.101	4.973	0.523
613.500	393.338	80.009	19.993	103.875	20.098	5.148	0.508
614.000	393.607	80.010	19.993	103.871	20.097	5.237	0.513
614.500	393.869	80.009	19.993	103.868	20.099	5.092	0.529
615.000	394.103	80.010	19.992	103.873	20.097	5.228	0.514
615.500	394.353	80.010	19.994	103.876	20.099	5.128	0.490
616.000	394.591	80.009	19.993	103.881	20.096	5.313	0.486
616.500	394.847	80.010	19.993	103.887	20.100	5.007	0.491
617.000	395.083	80.011	19.994	103.892	20.096	5.318	0.493
617.500	395.382	80.009	19.993	103.889	20.099	5.079	0.513
618.000	395.626	80.011	19.994	103.887	20.098	5.194	0.538
618.500	395.851	80.009	19.993	103.888	20.098	5.132	0.506
619.000	396.124	80.012	19.994	103.889	20.095	5.419	0.484
619.500	396.377	80.012	19.993	103.890	20.095	5.394	0.512
620.000	396.628	80.011	19.994	103.889	20.094	5.485	0.515
620.500	396.867	80.010	19.995	103.886	20.098	5.204	0.497
621.000	397.156	80.010	19.994	103.882	20.098	5.173	0.509
621.500	397.382	80.012	19.994	103.875	20.091	5.742	0.521
622.000	397.607	80.011	19.993	103.869	20.092	5.643	0.483
622.500	397.905	80.012	19.994	103.870	20.090	5.754	0.487
623.000	398.095	80.012	19.994	103.875	20.093	5.584	0.505
623.500	398.392	80.012	19.993	103.874	20.090	5.815	0.487
624.000	398.664	80.012	19.992	103.875	20.091	5.749	0.528
624.500	398.919	80.012	19.993	103.876	20.088	5.932	0.548
625.000	399.143	80.011	19.993	103.873	20.086	6.112	0.503
625.500	399.377	80.010	19.993	103.866	20.087	6.046	0.469
626.000	399.630	80.012	19.993	103.867	20.086	6.118	0.473
626.500	399.885	80.012	19.993	103.870	20.088	5.969	0.497
627.000	400.155	80.010	19.993	103.873	20.085	6.186	0.516
627.500	400.387	80.011	19.993	103.875	20.085	6.180	0.513
628.000	400.633	80.011	19.993	103.874	20.083	6.299	0.490
628.500	400.885	80.011	19.994	103.872	20.087	6.027	0.488
629.000	401.154	80.011	19.993	103.866	20.083	6.333	0.509
629.500	401.344	80.012	19.993	103.861	20.082	6.377	0.490
630.000	401.643	80.010	19.992	103.860	20.079	6.635	0.474
630.500	401.879	80.010	19.992	103.864	20.078	6.692	0.512
631.000	402.136	80.010	19.993	103.865	20.078	6.735	0.514
631.501	402.392	80.011	19.993	103.866	20.079	6.658	0.503
632.000	402.668	80.010	19.994	103.866	20.080	6.550	0.523
632.500	402.913	80.010	19.994	103.871	20.080	6.590	0.527
633.000	403.101	80.009	19.992	103.875	20.081	6.488	0.477
633.500	403.377	80.010	19.993	103.879	20.075	6.970	0.448
634.000	403.662	80.008	19.992	103.885	20.075	6.993	0.512
634.500	403.918	80.008	19.993	103.885	20.074	7.042	0.551
635.000	404.148	80.009	19.995	103.878	20.076	6.906	0.514
635.500	404.359	80.010	19.995	103.870	20.074	7.030	0.463
636.000	404.640	80.009	19.994	103.863	20.070	7.306	0.466
636.500	404.859	80.009	19.995	103.860	20.072	7.174	0.496
637.000	405.119	80.010	19.994	103.862	20.070	7.350	0.489
637.500	405.368	80.008	19.994	103.864	20.068	7.478	0.494
638.000	405.606	80.009	19.994	103.865	20.067	7.559	0.498
638.500	405.836	80.008	19.994	103.866	20.065	7.767	0.478
639.000	406.095	80.008	19.994	103.864	20.066	7.641	0.479
639.500	406.356	80.008	19.994	103.862	20.064	7.790	0.504
640.000	406.582	80.009	19.993	103.862	20.062	7.986	0.503
640.500	406.849	80.008	19.993	103.863	20.061	8.052	0.490
641.000	407.120	80.010	19.994	103.866	20.059	8.164	0.516
641.500	407.369	80.009	19.994	103.869	20.061	8.069	0.529
642.000	407.620	80.009	19.993	103.870	20.058	8.305	0.510
642.500	407.889	80.009	19.993	103.868	20.059	8.164	0.510
643.000	408.122	80.008	19.995	103.866	20.058	8.292	0.511
643.500	408.363	80.009	19.994	103.863	20.056	8.419	0.488
644.000	408.619	80.008	19.993	103.859	20.054	8.568	0.485
644.500	408.864	80.009	19.994	103.859	20.051	8.791	0.499
645.000	409.092	80.009	19.993	103.859	20.052	8.717	0.487
645.500	409.364	80.008	19.994	103.859	20.052	8.749	0.487
646.000	409.591	80.009	19.994	103.859	20.048	9.067	0.500
646.500	409.828	80.009	19.994	103.860	20.050	8.931	0.481
647.000	410.108	80.010	19.994	103.859	20.049	8.940	0.490
647.500	410.373	80.009	19.994	103.859	20.046	9.242	0.531
648.000	410.618	80.009	19.995	103.859	20.042	9.516	0.528
648.500	410.863	80.008	19.994	103.859	20.043	9.469	0.501
649.000	411.070	80.009	19.995	103.858	20.039	9.780	0.471
649.500	411.358	80.009	19.994	103.857	20.038	9.867	0.473
650.000	411.620	80.009	19.996	103.857	20.037	9.930	0.523
650.500	411.854	80.009	19.994	103.857	20.035	10.073	0.523
651.000	412.108	80.009	19.994	103.859	20.036	9.984	0.492
651.500	412.337	80.009	19.994	103.859	20.031	10.372	0.486
652.000	412.628	80.010	19.994	103.860	20.032	10.293	0.502
652.500	412.824	80.008	19.994	103.861	20.032	10.329	0.504
653.000	413.101	80.009	19.994	103.860	20.030	10.444	0.480
653.500	413.336	80.009	19.994	103.859	20.028	10.604	0.492
654.000	413.586	80.010	19.995	103.858	20.024	10.880	0.498
654.500	413.883	80.010	19.994	103.858	20.023	11.006	0.516
655.000	414.079	80.009	19.994	103.858	20.024	10.912	0.520
655.500	414.310	80.011	19.993	103.858	20.019	11.305	0.460
656.000	414.568	80.010	19.995	103.859	20.021	11.148	0.458
656.500	414.825	80.010	19.994	103.860	20.015	11.603	0.502
657.000	415.081	80.010	19.994	103.860	20.016	11.543	0.514
657.500	415.341	80.010	19.993	103.860	20.014	11.694	0.514
658.000	415.573	80.009	19.995	103.861	20.010	12.021	0.504
658.500	415.837	80.011	19.995	103.863	20.011	11.964	0.494
659.000	416.095	80.010	19.994	103.863	20.006	12.351	0.509
659.500	416.334	80.010	19.993	103.863	20.006	12.330	0.509
660.000	416.596	80.010	19.993	103.864	20.004	12.506	0.499
660.500	416.857	80.009	19.993	103.863	20.001	12.686	0.512
661.000	417.072	80.010	19.993	103.861	19.999	12.878	0.500
661.500	417.336	80.009	19.993	103.861	19.995	13.156	0.477
662.000	417.604	80.010	19.993	103.862	19.996	13.120	0.505
662.500	417.829	80.009	19.994	103.858	19.995	13.154	0.513
663.000	418.077	80.009	19.993	103.857	19.991	13.508	0.483
663.500	418.362	80.010	19.993	103.857	19.990	13.521	0.502
664.000	418.598	80.010	19.992	103.857	19.986	13.858	0.527
664.500	418.847	80.008	19.993	103.857	19.985	13.924	0.503
665.000	419.108	80.008	19.993	103.861	19.982	14.168	0.497
665.500	419.347	80.009	19.994	103.862	19.980	14.355	0.505
666.000	419.622	80.009	19.993	103.862	19.975	14.759	0.507
666.500	419.857	80.010	19.993	103.862	19.975	14.758	0.512
667.000	420.076	80.009	19.993	103.860	19.971	15.046	0.482
667.500	420.390	80.009	19.993	103.860	19.969	15.212	0.494
668.000	420.631	80.008	19.993	103.860	19.963	15.668	0.544
668.500	420.860	80.010	19.993	103.860	19.962	15.701	0.512
669.000	421.115	80.008	19.993	103.860	19.959	15.995	0.477
669.500	421.366	80.010	19.993	103.862	19.956	16.199	0.495
670.000	421.611	80.010	19.993	103.861	19.953	16.431	0.501
670.500	421.806	80.009	19.994	103.861	19.950	16.681	0.468
671.000	422.070	80.009	19.993	103.861	19.944	17.108	0.449
671.500	422.321	80.009	19.994	103.859	19.945	17.044	0.487
672.000	422.574	80.009	19.993	103.859	19.945	17.081	0.509
672.500	422.838	80.009	19.994	103.859	19.938	17.603	0.511
673.000	423.109	80.010	19.993	103.858	19.935	17.860	0.527
673.500	423.347	80.010	19.994	103.858	19.935	17.839	0.522
674.000	423.586	80.008	19.993	103.857	19.931	18.179	0.493
674.500	423.836	80.008	19.994	103.854	19.925	18.645	0.483
675.000	424.086	80.009	19.994	103.850	19.923	18.778	0.495
675.500	424.350	80.010	19.993	103.848	19.918	19.171	0.507
676.000	424.608	80.009	19.994	103.846	19.913	19.574	0.518
676.500	424.828	80.009	19.994	103.849	19.913	19.506	0.500
677.000	425.080	80.010	19.993	103.848	19.909	19.845	0.475
677.500	425.323	80.010	19.993	103.846	19.904	20.225	0.483
678.000	425.624	80.010	19.993	103.849	19.900	20.583	0.519
678.500	425.839	80.010	19.993	103.850	19.897	20.784	0.530
679.000	426.091	80.010	19.993	103.850	19.892	21.139	0.492
679.500	426.323	80.010	19.993	103.853	19.887	21.589	0.475
680.000	426.575	80.010	19.993	103.859	19.882	21.968	0.484
680.500	426.855	80.010	19.992	103.859	19.878	22.224	0.508
681.000	427.078	80.011	19.993	103.860	19.873	22.675	0.517
681.500	427.349	80.010	19.993	103.859	19.867	23.101	0.498
682.000	427.578	80.010	19.992	103.857	19.864	23.341	0.497
682.500	427.801	80.010	19.993	103.856	19.860	23.656	0.476
683.000	428.069	80.012	19.993	103.848	19.855	24.021	0.472
683.500	428.314	80.010	19.993	103.843	19.850	24.416	0.502
684.000	428.592	80.011	19.992	103.840	19.844	24.926	0.518
684.500	428.807	80.010	19.994	103.842	19.839	25.316	0.508
685.000	429.074	80.011	19.993	103.844	19.834	25.712	0.488
685.500	429.337	80.010	19.993	103.851	19.829	26.062	0.506
686.000	429.591	80.011	19.993	103.855	19.824	26.424	0.523
686.500	429.818	80.009	19.993	103.854	19.819	26.851	0.499
687.000	430.067	80.010	19.993	103.848	19.815	27.152	0.479
687.500	430.319	80.010	19.992	103.841	19.807	27.775	0.488
688.000	430.536	80.010	19.993	103.835	19.798	28.440	0.485
688.500	430.818	80.011	19.994	103.834	19.794	28.748	0.484
689.000	431.065	80.010	19.993	103.838	19.788	29.237	0.514
689.500	431.283	80.010	19.993	103.844	19.783	29.645	0.497
690.000	431.569	80.010	19.993	103.847	19.776	30.176	0.485
690.500	431.790	80.011	19.993	103.845	19.770	30.667	0.505
691.000	432.083	80.010	19.993	103.839	19.760	31.442	0.511
691.500	432.345	80.010	19.993	103.831	19.754	31.876	0.535
692.000	432.584	80.010	19.993	103.824	19.748	32.346	0.528
692.500	432.814	80.011	19.992	103.821	19.741	32.891	0.485
693.000	433.077	80.009	19.992	103.822	19.735	33.348	0.481
693.500	433.314	80.010	19.993	103.822	19.728	33.895	0.497
694.000	433.553	80.010	19.992	103.823	19.719	34.584	0.488
694.500	433.790	80.009	19.993	103.823	19.712	35.108	0.476
695.000	434.019	80.010	19.993	103.823	19.703	35.856	0.471
695.500	434.326	80.009	19.994	103.827	19.695	36.475	0.501
696.000	434.561	80.011	19.994	103.830	19.685	37.236	0.539
696.500	434.838	80.009	19.993	103.830	19.679	37.726	0.527
697.000	435.060	80.011	19.994	103.831	19.672	38.281	0.506
697.500	435.317	80.010	19.993	103.833	19.658	39.308	0.489
698.000	435.567	80.011	19.993	103.829	19.651	39.891	0.493
698.500	435.823	80.012	19.993	103.824	19.643	40.524	0.506
699.000	436.094	80.010	19.993	103.824	19.635	41.156	0.516
699.500	436.337	80.011	19.993	103.822	19.623	42.080	0.521
700.000	436.565	80.010	19.992	103.819	19.613	42.793	0.493
700.500	436.816	80.012	19.992	103.818	19.604	43.569	0.475
701.000	437.084	80.011	19.993	103.818	19.590	44.592	0.499
701.500	437.349	80.012	19.993	103.818	19.583	45.170	0.526
702.000	437.584	80.011	19.993	103.818	19.572	46.029	0.517
702.500	437.840	80.010	19.992	103.819	19.560	46.931	0.495
703.000	438.055	80.011	19.993	103.821	19.549	47.803	0.481
703.500	438.328	80.010	19.993	103.820	19.537	48.692	0.479
704.000	438.598	80.012	19.993	103.819	19.525	49.644	0.516
704.500	438.816	80.012	19.994	103.818	19.514	50.507	0.516
705.000	439.044	80.011	19.994	103.814	19.503	51.398	0.467
705.500	439.310	80.012	19.994	103.811	19.491	52.314	0.470
706.000	439.618	80.012	19.993	103.811	19.478	53.266	0.534
706.500	439.865	80.012	19.993	103.809	19.466	54.258	0.565
707.000	440.109	80.011	19.994	103.811	19.454	55.149	0.523
707.500	440.342	80.011	19.994	103.814	19.443	56.043	0.484
708.000	440.629	80.012	19.993	103.817	19.426	57.303	0.499
708.500	440.876	80.012	19.994	103.813	19.414	58.242	0.527
709.000	441.070	80.013	19.993	103.810	19.400	59.370	0.487
709.500	441.371	80.012	19.993	103.805	19.388	60.307	0.468
710.000	441.588	80.013	19.994	103.802	19.373	61.474	0.507
710.500	441.901	80.011	19.994	103.797	19.361	62.366	0.524
711.000	442.128	80.010	19.997	103.801	19.341	63.972	0.535
711.500	442.355	80.010	19.995	103.803	19.329	64.878	0.497
712.000	442.633	80.010	19.996	103.805	19.315	65.929	0.479
712.500	442.910	80.010	19.996	103.803	19.293	67.628	0.530
713.000	443.170	80.011	19.994	103.804	19.282	68.493	0.546
713.500	443.398	80.010	19.996	103.797	19.264	69.925	0.512
714.000	443.665	80.009	19.995	103.792	19.249	71.030	0.492
714.500	443.917	80.009	19.995	103.789	19.231	72.463	0.507
715.000	444.203	80.008	19.994	103.787	19.214	73.765	0.529
715.500	444.413	80.009	19.994	103.785	19.196	75.162	0.517
716.000	444.733	80.008	19.994	103.783	19.180	76.428	0.513
716.500	444.917	80.008	19.993	103.779	19.165	77.551	0.517
717.000	445.183	80.008	19.994	103.776	19.146	79.053	0.477
717.500	445.477	80.008	19.995	103.774	19.130	80.254	0.505
718.000	445.758	80.009	19.994	103.768	19.111	81.758	0.568
718.500	445.978	80.008	19.994	103.766	19.096	82.944	0.539
719.000	446.233	80.009	19.993	103.762	19.072	84.748	0.488
719.500	446.494	80.009	19.994	103.757	19.052	86.333	0.495
720.000	446.775	80.010	19.994	103.755	19.035	87.632	0.529
720.500	446.990	80.008	19.993	103.759	19.017	89.035	0.519
721.000	447.297	80.010	19.993	103.762	18.993	90.928	0.509
721.500	447.584	80.008	19.994	103.768	18.974	92.424	0.558
722.000	447.825	80.008	19.993	103.775	18.951	94.136	0.561
722.500	448.075	80.009	19.994	103.773	18.931	95.731	0.510
723.000	448.315	80.009	19.994	103.766	18.909	97.429	0.490
723.500	448.624	80.009	19.993	103.760	18.888	99.049	0.520
724.000	448.866	80.009	19.993	103.753	18.864	100.930	0.550
724.500	449.109	80.008	19.994	103.745	18.844	102.453	0.518
725.000	449.386	80.009	19.993	103.744	18.823	104.062	0.502
725.500	449.685	80.009	19.993	103.743	18.802	105.716	0.548
726.000	449.911	80.008	19.994	103.742	18.782	107.273	0.551
726.500	450.156	80.008	19.993	103.739	18.758	109.063	0.498
727.000	450.408	80.009	19.994	103.732	18.742	110.311	0.484
727.500	450.692	80.008	19.994	103.724	18.721	111.939	0.516
728.000	450.989	80.008	19.993	103.717	18.697	113.858	0.558
728.500	451.219	80.008	19.992	103.710	18.662	116.538	0.554
729.000	451.459	80.008	19.994	103.705	18.631	118.902	0.499
729.500	451.706	80.007	19.994	103.705	18.610	120.569	0.478
730.000	451.938	80.007	19.994	103.706	18.580	122.856	0.483
730.500	452.235	80.008	19.993	103.709	18.566	123.989	0.504
731.000	452.472	80.009	19.993	103.716	18.533	126.530	0.532
731.500	452.828	80.007	19.993	103.722	18.505	128.639	0.563
732.000	452.997	80.009	19.993	103.724	18.477	130.842	0.558
732.500	453.306	80.008	19.993	103.724	18.449	132.998	0.501
733.000	453.558	80.009	19.994	103.721	18.422	135.031	0.520
733.500	453.838	80.009	19.993	103.714	18.391	137.427	0.546
734.000	454.059	80.008	19.993	103.707	18.365	139.449	0.517
734.500	454.398	80.007	19.993	103.703	18.333	141.944	0.531
735.000	454.610	80.009	19.993	103.703	18.302	144.359	0.556
735.500	454.827	80.009	19.993	103.700	18.270	146.827	0.490
736.000	455.031	80.007	19.994	103.692	18.241	149.113	0.425
736.500	455.401	80.008	19.994	103.685	18.208	151.645	0.498
737.000	455.621	80.009	19.995	103.680	18.177	154.067	0.582
737.500	455.899	80.009	19.994	103.672	18.143	156.686	0.544
738.000	456.077	80.008	19.993	103.667	18.114	158.929	0.477
738.500	456.360	80.008	19.994	103.666	18.081	161.476	0.458
739.000	456.586	80.007	19.995	103.666	18.049	163.943	0.485
739.500	457.153	80.008	19.994	103.663	18.013	166.665	0.651
740.000	456.942	80.007	19.995	103.662	17.980	169.244	0.574
740.500	457.475	80.008	19.994	103.662	17.946	171.836	0.339
741.000	458.004	80.010	19.995	103.657	17.914	174.278	0.692
741.500	458.131	80.008	19.993	103.649	17.877	177.141	0.859
742.000	458.600	80.009	19.994	103.640	17.840	180.001	0.626
742.500	458.614	80.007	19.994	103.626	17.805	182.679	0.540
743.000	458.300	80.008	19.995	103.610	17.771	185.315	0.092
743.500	458.560	80.007	19.994	103.601	17.734	188.191	-0.177
744.000	458.735	80.008	19.994	103.596	17.698	191.003	0.190
744.500	459.585	80.009	19.993	103.595	17.660	193.963	0.729
745.000	459.756	80.009	19.994	103.597	17.620	196.994	1.023
745.500	459.957	80.007	19.994	103.597	17.579	200.228	0.697
746.000	460.226	80.007	19.996	103.598	17.539	203.261	0.422
746.500	460.512	80.008	19.994	103.603	17.499	206.378	0.513
747.000	460.834	80.008	19.994	103.599	17.456	209.687	0.582
747.500	460.835	80.009	19.993	103.595	17.412	213.106	0.465
748.000	461.359	80.008	19.994	103.591	17.373	216.092	0.424
748.500	461.377	80.009	19.994	103.586	17.331	219.289	0.534
749.000	461.825	80.008	19.994	103.575	17.290	222.485	0.504
749.500	461.887	80.008	19.994	103.566	17.247	225.748	0.488
750.000	462.317	80.009	19.993	103.559	17.204	229.057	0.501
750.500	462.509	80.007	19.994	103.550	17.158	232.612	0.557
751.000	462.743	80.009	19.994	103.537	17.117	235.743	0.525
751.500	462.990	80.008	19.994	103.523	17.072	239.207	0.453
752.000	463.278	80.009	19.995	103.512	17.028	242.570	0.508
752.500	463.529	80.009	19.994	103.501	16.980	246.294	0.537
753.000	463.738	80.009	19.994	103.496	16.930	250.094	0.499
753.500	463.966	80.007	19.994	103.497	16.883	253.681	0.448
754.000	464.252	80.008	19.994	103.495	16.833	257.514	0.476
754.500	464.495	80.009	19.993	103.492	16.780	261.599	0.521
755.000	464.774	80.010	19.996	103.494	16.734	265.159	0.525
755.500	465.053	80.009	19.994	103.499	16.681	269.214	0.540
756.000	465.255	80.009	19.995	103.494	16.627	273.384	0.520
756.500	465.467	80.010	19.995	103.492	16.572	277.602	0.448
757.000	465.804	80.010	19.994	103.492	16.519	281.686	0.482
757.500	465.998	80.009	19.994	103.484	16.464	285.871	0.540
758.000	466.284	80.010	19.994	103.473	16.414	289.786	0.505
758.500	466.570	80.009	19.993	103.462	16.357	294.169	0.526
759.000	466.817	80.010	19.993	103.454	16.299	298.563	0.552
759.500	467.071	80.010	19.993	103.444	16.247	302.572	0.517
760.000	467.310	80.010	19.993	103.431	16.188	307.129	0.497
760.500	467.562	80.010	19.994	103.422	16.135	311.203	0.492
761.000	467.804	80.009	19.994	103.414	16.080	315.401	0.493
761.500	468.077	80.010	19.993	103.397	16.023	319.783	0.505
762.001	468.331	80.010	19.993	103.386	15.971	323.803	0.521
762.500	468.526	80.009	19.994	103.385	15.915	328.219	0.488
763.000	468.865	80.010	19.994	103.368	15.856	332.729	0.491
763.500	469.061	80.009	19.993	103.356	15.794	337.522	0.534
764.000	469.357	80.011	19.993	103.347	15.737	341.925	0.514
764.500	469.609	80.010	19.994	103.331	15.678	346.375	0.520
765.000	469.875	80.011	19.994	103.316	15.618	350.840	0.533
765.500	470.119	80.011	19.994	103.312	15.560	355.272	0.514
766.000	470.415	80.011	19.993	103.309	15.501	359.768	0.525
766.500	470.685	80.010	19.993	103.304	15.444	364.077	0.553
767.000	470.963	80.011	19.992	103.298	15.377	369.244	0.557
767.500	471.233	80.011	19.994	103.286	15.314	374.045	0.548
768.000	471.461	80.011	19.993	103.274	15.251	378.842	0.523
768.500	471.727	80.011	19.993	103.263	15.187	383.690	0.496
769.000	472.017	80.012	19.993	103.256	15.125	388.435	0.525
769.500	472.236	80.010	19.993	103.250	15.062	393.154	0.533
770.000	472.526	80.011	19.993	103.245	14.998	397.989	0.509
770.500	472.762	80.010	19.993	103.236	14.934	402.872	0.517
771.000	473.086	80.010	19.993	103.225	14.871	407.655	0.543
771.500	473.354	80.012	19.994	103.215	14.807	412.526	0.576
772.000	473.587	80.010	19.993	103.206	14.741	417.615	0.547
772.500	473.845	80.011	19.993	103.195	14.676	422.538	0.496
773.000	474.159	80.010	19.993	103.206	14.610	427.607	0.531
773.500	474.402	80.011	19.993	103.225	14.545	432.589	0.564
774.000	474.692	80.012	19.993	103.226	14.478	437.703	0.545
774.500	474.943	80.010	19.993	103.219	14.415	442.557	0.537
775.000	475.267	80.011	19.994	103.210	14.350	447.491	0.558
775.500	475.513	80.010	19.994	103.180	14.283	452.622	0.573
776.000	475.781	80.010	19.994	103.145	14.217	457.578	0.542
776.500	476.037	80.009	19.994	103.121	14.151	462.613	0.519
777.000	476.266	80.010	19.993	103.105	14.085	467.623	0.505
777.500	476.558	80.010	19.994	103.094	14.023	472.353	0.503
778.000	476.837	80.010	19.993	103.078	13.959	477.242	0.546
778.500	477.090	80.010	19.993	103.063	13.899	481.877	0.552
779.000	477.334	80.011	19.994	103.051	13.837	486.613	0.514
779.500	477.602	80.010	19.994	103.035	13.773	491.465	0.504
780.000	477.916	80.010	19.993	103.013	13.713	496.127	0.547
780.500	478.125	80.012	19.993	102.991	13.655	500.611	0.553
781.000	478.414	80.011	19.993	102.967	13.595	505.189	0.511
781.500	478.653	80.010	19.994	102.945	13.537	509.689	0.513
782.000	478.927	80.010	19.993	102.930	13.482	513.967	0.520
782.500	479.228	80.009	19.993	102.917	13.425	518.390	0.544
783.000	479.451	80.011	19.993	102.909	13.375	522.278	0.549
783.500	479.735	80.011	19.993	102.901	13.319	526.610	0.516
784.000	479.989	80.010	19.993	102.893	13.269	530.473	0.523
784.500	480.277	80.012	19.993	102.886	13.221	534.197	0.540
785.000	480.498	80.011	19.994	102.881	13.177	537.573	0.525
785.500	480.795	80.011	19.993	102.873	13.135	540.773	0.513
786.000	481.108	80.012	19.993	102.863	13.094	543.817	0.564
786.500	481.380	80.012	19.992	102.848	13.054	546.830	0.598
787.000	481.632	80.011	19.993	102.832	13.014	549.821	0.554
787.500	481.906	80.011	19.994	102.819	12.978	552.559	0.525
788.000	482.175	80.013	19.993	102.811	12.941	555.267	0.534
788.500	482.458	80.013	19.992	102.802	12.912	557.506	0.548
789.000	482.722	80.013	19.993	102.795	12.880	559.829	0.550
789.500	482.998	80.012	19.992	102.792	12.848	562.280	0.544
790.000	483.232	80.011	19.992	102.786	12.820	564.392	0.525
790.500	483.474	80.011	19.992	102.779	12.791	566.537	0.492
791.000	483.796	80.012	19.993	102.776	12.763	568.748	0.520
791.500	484.019	80.012	19.993	102.780	12.735	570.938	0.555
792.000	484.322	80.011	19.992	102.784	12.713	572.608	0.536
792.500	484.545	80.011	19.992	102.790	12.687	574.682	0.526
793.000	484.828	80.012	19.993	102.798	12.664	576.496	0.516
793.500	485.100	80.011	19.993	102.804	12.635	578.691	0.530
794.000	485.348	80.012	19.994	102.807	12.618	580.018	0.537
794.500	485.667	80.012	19.992	102.812	12.600	581.448	0.544
795.000	485.908	80.011	19.992	102.820	12.584	582.717	0.564
795.500	486.186	80.010	19.993	102.822	12.572	583.755	0.540
796.000	486.428	80.011	19.994	102.822	12.563	584.467	0.519
796.500	486.681	80.010	19.992	102.817	12.558	584.936	0.507
797.000	486.960	80.010	19.994	102.804	12.552	585.437	0.514
797.500	487.239	80.009	19.993	102.789	12.548	585.774	0.545
798.000	487.470	80.009	19.993	102.774	12.557	585.150	0.534
798.500	487.739	80.009	19.993	102.759	12.560	585.064	0.506
799.000	488.024	80.010	19.994	102.747	12.568	584.503	0.527
799.500	488.287	80.009	19.993	102.735	12.584	583.356	0.551
800.000	488.560	80.010	19.994	102.722	12.603	581.984	0.542
800.500	488.873	80.009	19.994	102.711	12.623	580.532	0.560
801.000	489.144	80.009	19.993	102.704	12.642	579.140	0.585
801.500	489.369	80.009	19.994	102.699	12.674	576.817	0.541
802.000	489.638	80.009	19.993	102.700	12.707	574.351	0.495
802.500	489.929	80.009	19.993	102.705	12.745	571.492	0.526
803.000	490.206	80.010	19.994	102.713	12.786	568.356	0.564
803.500	490.465	80.009	19.993	102.720	12.834	564.724	0.552
804.000	490.711	80.010	19.993	102.726	12.885	560.922	0.520
804.500	490.967	80.008	19.994	102.728	12.943	556.647	0.504
805.000	491.259	80.008	19.993	102.732	13.003	552.209	0.525
805.500	491.497	80.009	19.994	102.739	13.067	547.533	0.539
806.000	491.771	80.009	19.994	102.747	13.135	542.446	0.521
806.500	492.064	80.008	19.994	102.755	13.208	536.998	0.540
807.000	492.300	80.008	19.994	102.763	13.286	531.065	0.548
807.500	492.559	80.008	19.993	102.775	13.367	524.990	0.512
808.000	492.842	80.008	19.993	102.784	13.454	518.451	0.519
808.500	493.108	80.008	19.994	102.793	13.540	511.938	0.545
809.000	493.347	80.009	19.994	102.809	13.636	504.699	0.527
809.500	493.643	80.008	19.994	102.826	13.735	497.172	0.520
810.000	493.928	80.008	19.993	102.842	13.839	489.343	0.558
810.500	494.232	80.009	19.993	102.857	13.943	481.350	0.585
811.000	494.471	80.009	19.995	102.871	14.054	472.956	0.566
811.500	494.719	80.009	19.994	102.884	14.166	464.386	0.515
812.000	494.989	80.008	19.994	102.902	14.279	455.771	0.502
812.500	495.257	80.008	19.993	102.918	14.398	446.699	0.528
813.000	495.535	80.009	19.994	102.938	14.520	437.384	0.542
813.500	495.792	80.008	19.993	102.949	14.643	427.968	0.540
814.000	496.062	80.007	19.993	102.951	14.772	418.050	0.531
814.500	496.336	80.008	19.993	102.966	14.901	408.211	0.535
815.000	496.630	80.008	19.996	102.991	15.032	398.141	0.556
815.500	496.872	80.009	19.994	103.018	15.168	387.658	0.552
816.000	497.155	80.010	19.995	103.058	15.300	377.512	0.531
816.500	497.430	80.010	19.994	103.110	15.435	367.173	0.542
817.000	497.728	80.009	19.996	103.145	15.571	356.657	0.565
817.500	497.978	80.009	19.995	103.170	15.710	345.939	0.561
818.000	498.235	80.009	19.992	103.197	15.843	335.667	0.528
818.500	498.586	80.009	19.994	103.226	15.984	324.778	0.557
819.000	498.834	80.010	19.994	103.258	16.114	314.705	0.603
819.500	499.101	80.009	19.993	103.291	16.251	304.048	0.557
820.000	499.387	80.010	19.994	103.327	16.386	293.622	0.534
820.500	499.621	80.009	19.994	103.359	16.517	283.512	0.536
821.000	499.931	80.010	19.994	103.390	16.652	273.005	0.532
821.500	500.172	80.010	19.993	103.414	16.780	263.086	0.548
822.000	500.476	80.010	19.993	103.441	16.914	252.666	0.548
822.500	500.732	80.009	19.993	103.472	17.036	243.196	0.553
823.000	501.030	80.010	19.994	103.503	17.161	233.474	0.557
823.500	501.288	80.010	19.994	103.532	17.282	224.068	0.555
824.000	501.572	80.010	19.993	103.564	17.400	214.932	0.549
824.500	501.838	80.011	19.993	103.596	17.517	205.836	0.546
825.000	502.111	80.009	19.994	103.621	17.630	197.049	0.544
825.500	502.406	80.010	19.994	103.648	17.740	188.544	0.553
826.000	502.600	80.010	19.993	103.677	17.848	180.115	0.529
826.500	502.904	80.009	19.993	103.704	17.952	172.025	0.494
827.000	503.161	80.009	19.994	103.729	18.054	164.132	0.529
827.500	503.475	80.010	19.992	103.754	18.150	156.678	0.566
828.000	503.695	80.009	19.993	103.775	18.248	149.014	0.553
828.500	503.995	80.009	19.993	103.793	18.341	141.790	0.527
829.000	504.253	80.009	19.994	103.810	18.431	134.831	0.539
829.500	504.531	80.008	19.994	103.824	18.514	128.347	0.547
830.000	504.763	80.008	19.994	103.839	18.601	121.576	0.524
830.500	505.056	80.009	19.994	103.850	18.682	115.304	0.518
831.000	505.332	80.009	19.993	103.863	18.757	109.430	0.546
831.500	505.584	80.008	19.994	103.875	18.832	103.615	0.548
832.000	505.857	80.008	19.995	103.884	18.901	98.228	0.527
832.500	506.148	80.008	19.995	103.891	18.973	92.675	0.544
833.000	506.409	80.007	19.994	103.897	19.038	87.600	0.558
833.500	506.716	80.008	19.995	103.901	19.102	82.589	0.561
834.000	506.935	80.008	19.996	103.905	19.162	77.945	0.547
834.501	507.199	80.009	19.994	103.911	19.215	73.796	0.504
835.000	507.491	80.008	19.996	103.919	19.271	69.461	0.519
835.500	507.735	80.007	19.994	103.925	19.326	65.226	0.546
836.000	508.014	80.007	19.995	103.930	19.376	61.339	0.530
836.500	508.302	80.008	19.995	103.932	19.422	57.707	0.546
837.000	508.563	80.008	19.994	103.932	19.466	54.302	0.558
837.500	508.844	80.009	19.995	103.932	19.509	51.000	0.545
838.000	509.100	80.009	19.994	103.932	19.549	47.864	0.539
838.500	509.399	80.008	19.995	103.934	19.589	44.782	0.546
839.000	509.693	80.009	19.995	103.936	19.625	41.915	0.575
839.500	509.939	80.009	19.994	103.936	19.657	39.481	0.567
840.000	510.226	80.009	19.995	103.937	19.695	36.516	0.536
840.500	510.467	80.010	19.995	103.937	19.728	33.967	0.531
841.000	510.730	80.008	19.996	103.935	19.753	31.973	0.516
841.500	511.060	80.010	19.994	103.937	19.784	29.614	0.548
842.000	511.299	80.010	19.995	103.938	19.810	27.542	0.581
842.500	511.584	80.011	19.995	103.937	19.834	25.710	0.546
843.000	511.826	80.009	19.995	103.937	19.857	23.909	0.525
843.500	512.088	80.010	19.995	103.937	19.879	22.211	0.516
844.000	512.361	80.009	19.994	103.935	19.900	20.568	0.520
844.501	512.636	80.010	19.995	103.935	19.915	19.386	0.541
845.000	512.895	80.011	19.994	103.935	19.935	17.854	0.541
845.500	513.141	80.010	19.994	103.929	19.953	16.437	0.520
846.000	513.424	80.009	19.992	103.928	19.967	15.350	0.517
846.500	513.691	80.010	19.994	103.925	19.980	14.366	0.539
847.000	513.993	80.010	19.994	103.921	19.992	13.410	0.560
847.500	514.282	80.010	19.994	103.922	20.006	12.304	0.580
848.000	514.530	80.010	19.993	103.926	20.019	11.339	0.564
848.500	514.774	80.011	19.994	103.924	20.027	10.670	0.514
849.000	515.037	80.011	19.994	103.920	20.039	9.786	0.499
849.500	515.327	80.010	19.995	103.916	20.050	8.900	0.530
850.000	515.597	80.011	19.994	103.910	20.056	8.426	0.557
850.500	515.865	80.011	19.993	103.906	20.063	7.924	0.549
851.000	516.135	80.009	19.994	103.902	20.066	7.661	0.538
851.500	516.389	80.009	19.992	103.902	20.075	6.968	0.531
852.000	516.639	80.009	19.994	103.901	20.081	6.483	0.514
852.500	516.933	80.010	19.993	103.896	20.087	6.038	0.524
853.000	517.204	80.011	19.993	103.890	20.094	5.488	0.554
853.500	517.466	80.010	19.993	103.884	20.096	5.309	0.549
854.000	517.717	80.010	19.993	103.878	20.100	5.024	0.523
854.500	518.004	80.010	19.994	103.872	20.104	4.701	0.525
855.000	518.274	80.009	19.993	103.870	20.108	4.375	0.547
855.500	518.549	80.010	19.993	103.870	20.107	4.492	0.551
856.000	518.769	80.010	19.993	103.871	20.112	4.101	0.520
856.500	519.025	80.010	19.994	103.871	20.111	4.158	0.486
857.000	519.290	80.009	19.993	103.869	20.118	3.585	0.498
857.500	519.585	80.010	19.993	103.867	20.118	3.625	0.540
858.000	519.835	80.009	19.992	103.865	20.121	3.345	0.553
858.500	520.088	80.010	19.993	103.862	20.121	3.355	0.524
859.000	520.377	80.011	19.994	103.861	20.120	3.469	0.522
859.500	520.647	80.009	19.993	103.861	20.123	3.231	0.550
860.000	520.892	80.010	19.993	103.860	20.125	3.091	0.537
860.500	521.168	80.010	19.993	103.859	20.125	3.044	0.518
861.000	521.422	80.010	19.993	103.858	20.127	2.908	0.526
861.501	521.713	80.009	19.993	103.858	20.130	2.645	0.538
862.000	521.961	80.009	19.993	103.858	20.134	2.354	0.542
862.500	522.189	80.011	19.993	103.857	20.131	2.573	0.507
863.000	522.495	80.010	19.993	103.852	20.134	2.343	0.504
863.500	522.699	80.010	19.993	103.844	20.133	2.481	0.521
864.000	522.979	80.010	19.993	103.837	20.133	2.434	0.497
864.500	523.268	80.011	19.994	103.830	20.136	2.190	0.527
865.000	523.498	80.011	19.992	103.822	20.139	1.986	0.544
865.500	523.737	80.011	19.993	103.814	20.137	2.105	0.494
866.000	524.065	80.011	19.994	103.808	20.138	2.091	0.518
866.500	524.316	80.011	19.994	103.802	20.138	2.076	0.573
867.000	524.564	80.011	19.993	103.798	20.140	1.929	0.539
867.500	524.846	80.010	19.993	103.794	20.140	1.876	0.514
868.000	525.093	80.011	19.994	103.793	20.139	1.968	0.530
868.500	525.325	80.011	19.992	103.790	20.142	1.785	0.504
869.000	525.616	80.011	19.993	103.788	20.142	1.741	0.501
869.500	525.882	80.010	19.993	103.779	20.143	1.680	0.540
870.000	526.120	80.011	19.993	103.770	20.141	1.847	0.531
870.500	526.399	80.010	19.993	103.763	20.142	1.756	0.511
871.000	526.644	80.010	19.992	103.757	20.141	1.824	0.520
871.500	526.877	80.012	19.993	103.750	20.144	1.603	0.501
872.000	527.147	80.012	19.993	103.746	20.145	1.497	0.491
872.500	527.387	80.011	19.993	103.743	20.145	1.514	0.507
873.000	527.669	80.012	19.992	103.742	20.145	1.523	0.516
873.500	527.899	80.011	19.993	103.741	20.144	1.591	0.517
874.000	528.188	80.011	19.993	103.735	20.144	1.565	0.516
874.500	528.457	80.010	19.992	103.729	20.141	1.801	0.538
875.000	528.712	80.011	19.994	103.726	20.144	1.612	0.541
875.500	528.984	80.011	19.994	103.726	20.141	1.797	0.525
876.000	529.290	80.011	19.994	103.726	20.138	2.024	0.552
876.500	529.484	80.011	19.993	103.732	20.142	1.710	0.539
877.000	529.757	80.011	19.992	103.738	20.141	1.799	0.484
877.500	530.004	80.010	19.993	103.742	20.140	1.886	0.494
878.000	530.299	80.011	19.993	103.742	20.144	1.568	0.531
878.500	530.570	80.010	19.993	103.744	20.144	1.581	0.554
879.000	530.811	80.010	19.993	103.751	20.142	1.780	0.539
879.500	531.073	80.011	19.994	103.758	20.142	1.738	0.508
880.000	531.346	80.010	19.993	103.766	20.142	1.712	0.519
880.500	531.587	80.010	19.994	103.774	20.141	1.812	0.524
881.001	531.871	80.009	19.994	103.779	20.144	1.627	0.520
881.500	532.106	80.009	19.993	103.780	20.145	1.538	0.522
882.000	532.373	80.009	19.993	103.781	20.145	1.536	0.510
882.500	532.608	80.009	19.994	103.785	20.143	1.708	0.502
883.000	532.878	80.009	19.993	103.790	20.143	1.632	0.503
883.500	533.110	80.010	19.993	103.794	20.147	1.390	0.503
884.000	533.415	80.011	19.993	103.804	20.147	1.322	0.519
884.500	533.683	80.010	19.993	103.810	20.146	1.445	0.555
885.000	533.940	80.009	19.994	103.811	20.146	1.445	0.550
885.500	534.181	80.010	19.993	103.813	20.143	1.706	0.512
886.000	534.444	80.011	19.992	103.816	20.149	1.232	0.501
886.500	534.711	80.009	19.992	103.815	20.147	1.392	0.517
887.000	534.976	80.010	19.993	103.816	20.146	1.403	0.531
887.500	535.216	80.009	19.993	103.819	20.146	1.422	0.519
888.000	535.472	80.009	19.992	103.819	20.146	1.439	0.501
888.500	535.703	80.008	19.993	103.821	20.148	1.264	0.492
889.000	535.972	80.010	19.992	103.824	20.147	1.334	0.493
889.501	536.227	80.010	19.993	103.831	20.147	1.398	0.512
890.000	536.481	80.009	19.993	103.832	20.147	1.360	0.516
890.500	536.770	80.009	19.991	103.835	20.147	1.324	0.525
891.001	537.000	80.008	19.993	103.842	20.145	1.545	0.531
891.500	537.199	80.010	19.993	103.841	20.148	1.307	0.474
892.000	537.515	80.010	19.994	103.840	20.147	1.381	0.472
892.500	537.754	80.010	19.993	103.844	20.150	1.154	0.535
893.000	538.003	80.008	19.993	103.849	20.147	1.322	0.521
893.500	538.289	80.011	19.993	103.848	20.148	1.258	0.511
894.000	538.561	80.010	19.993	103.849	20.149	1.167	0.546
894.500	538.828	80.009	19.993	103.852	20.147	1.334	0.549
895.000	539.048	80.010	19.993	103.851	20.146	1.407	0.514
895.500	539.303	80.009	19.994	103.850	20.144	1.562	0.481
896.000	539.584	80.009	19.993	103.852	20.148	1.290	0.505
896.500	539.830	80.010	19.993	103.857	20.148	1.307	0.531
897.000	540.088	80.011	19.994	103.857	20.148	1.279	0.515
897.500	540.350	80.009	19.994	103.858	20.148	1.258	0.512
898.000	540.639	80.009	19.993	103.859	20.150	1.137	0.535
898.500	540.867	80.008	19.994	103.858	20.146	1.409	0.534
899.000	541.111	80.010	19.994	103.858	20.147	1.330	0.495
899.500	541.315	80.009	19.993	103.858	20.147	1.394	0.460
900.000	541.626	80.010	19.994	103.858	20.147	1.337	0.482
900.500	541.876	80.009	19.993	103.858	20.146	1.405	0.538
901.000	542.095	80.009	19.993	103.858	20.147	1.341	0.515
901.500	542.380	80.010	19.993	103.857	20.149	1.196	0.486
902.000	542.618	80.010	19.993	103.857	20.147	1.351	0.513
902.500	542.890	80.009	19.994	103.857	20.148	1.275	0.517
903.000	543.160	80.009	19.993	103.857	20.147	1.332	0.526
903.500	543.402	80.009	19.993	103.857	20.150	1.162	0.527
904.000	543.658	80.009	19.994	103.858	20.147	1.370	0.505
904.500	543.910	80.010	19.994	103.858	20.147	1.339	0.503
905.000	544.183	80.009	19.994	103.858	20.146	1.402	0.517
905.500	544.388	80.009	19.994	103.858	20.147	1.396	0.502
906.000	544.643	80.010	19.995	103.859	20.146	1.447	0.469
906.500	544.914	80.009	19.995	103.859	20.149	1.190	0.493
907.000	545.150	80.009	19.994	103.858	20.148	1.254	0.516
907.500	545.417	80.009	19.995	103.858	20.147	1.381	0.505
908.000	545.678	80.009	19.994	103.858	20.150	1.128	0.515
908.500	545.891	80.009	19.994	103.856	20.151	1.067	0.501
909.000	546.181	80.010	19.994	103.856	20.148	1.273	0.489
909.500	546.379	80.009	19.995	103.856	20.147	1.334	0.495
910.000	546.661	80.010	19.994	103.854	20.151	1.030	0.484
910.500	546.960	80.008	19.994	103.854	20.148	1.292	0.531
911.000	547.168	80.010	19.994	103.855	20.150	1.105	0.544
911.500	547.445	80.009	19.995	103.855	20.150	1.160	0.495
912.000	547.698	80.008	19.993	103.854	20.152	0.986	0.507
912.500	547.919	80.010	19.994	103.856	20.150	1.105	0.502
913.000	548.182	80.009	19.994	103.851	20.152	0.990	0.479
913.500	548.409	80.008	19.994	103.848	20.149	1.222	0.487
914.000	548.691	80.008	19.994	103.846	20.149	1.222	0.499
914.500	548.939	80.010	19.994	103.848	20.148	1.285	0.520
915.000	549.163	80.008	19.993	103.848	20.145	1.500	0.502
915.500	549.429	80.008	19.994	103.849	20.150	1.122	0.481
916.000	549.690	80.009	19.993	103.849	20.147	1.323	0.508
916.500	549.931	80.008	19.995	103.850	20.148	1.306	0.514
917.000	550.188	80.008	19.994	103.849	20.149	1.181	0.500
917.500	550.450	80.009	19.995	103.850	20.148	1.279	0.509
918.000	550.693	80.009	19.995	103.853	20.149	1.175	0.512
918.500	550.906	80.009	19.994	103.857	20.148	1.279	0.480
919.000	551.179	80.009	19.993	103.858	20.147	1.334	0.471
919.500	551.420	80.008	19.994	103.856	20.149	1.183	0.500
920.000	551.655	80.008	19.993	103.852	20.147	1.389	0.495
920.500	551.920	80.008	19.995	103.848	20.150	1.145	0.488
921.000	552.155	80.009	19.994	103.844	20.146	1.462	0.500
921.500	552.417	80.009	19.994	103.840	20.150	1.100	0.499
922.000	552.664	80.008	19.994	103.834	20.148	1.315	0.503
922.500	552.905	80.010	19.995	103.833	20.148	1.281	0.498
923.000	553.185	80.009	19.993	103.832	20.148	1.311	0.504
923.500	553.426	80.010	19.994	103.834	20.147	1.338	0.521
924.000	553.704	80.009	19.992	103.836	20.146	1.434	0.520
924.500	553.951	80.010	19.994	103.836	20.145	1.540	0.522
925.000	554.193	80.008	19.993	103.835	20.147	1.341	0.507
925.500	554.434	80.009	19.994	103.833	20.147	1.336	0.486
926.000	554.716	80.010	19.995	103.827	20.146	1.460	0.503
926.500	554.955	80.010	19.995	103.824	20.149	1.198	0.522
927.000	555.216	80.010	19.995	103.826	20.145	1.515	0.510
927.500	555.462	80.009	19.994	103.827	20.149	1.234	0.504
928.000	555.712	80.010	19.994	103.827	20.146	1.407	0.502
928.500	555.958	80.009	19.994	103.828	20.148	1.296	0.496
929.000	556.171	80.009	19.993	103.829	20.148	1.283	0.478
929.500	556.406	80.010	19.994	103.830	20.149	1.237	0.454
930.000	556.675	80.010	19.995	103.832	20.149	1.230	0.476
930.500	556.874	80.011	19.994	103.833	20.148	1.254	0.486
931.000	557.127	80.010	19.994	103.835	20.148	1.309	0.460
931.500	557.412	80.010	19.994	103.835	20.147	1.389	0.495
932.000	557.662	80.010	19.993	103.831	20.150	1.130	0.536
932.500	557.908	80.010	19.994	103.830	20.149	1.237	0.515
933.000	558.135	80.010	19.994	103.832	20.150	1.164	0.484
933.500	558.374	80.010	19.994	103.834	20.151	1.071	0.470
934.000	558.634	80.010	19.993	103.837	20.150	1.105	0.483
934.500	558.853	80.008	19.992	103.839	20.147	1.332	0.489
935.000	559.085	80.009	19.995	103.839	20.147	1.337	0.465
935.500	559.367	80.009	19.996	103.842	20.145	1.496	0.483
936.000	559.625	80.009	19.995	103.842	20.150	1.150	0.527
936.500	559.847	80.009	19.994	103.843	20.148	1.254	0.510
937.000	560.113	80.009	19.995	103.843	20.149	1.211	0.484
937.500	560.313	80.008	19.994	103.847	20.149	1.171	0.477
938.000	560.574	80.010	19.994	103.845	20.151	1.022	0.463
938.500	560.843	80.010	19.994	103.847	20.147	1.349	0.496
939.000	561.082	80.009	19.994	103.844	20.150	1.154	0.519
939.500	561.338	80.008	19.994	103.848	20.150	1.139	0.502
940.000	561.599	80.009	19.994	103.847	20.148	1.319	0.506
940.500	561.858	80.008	19.993	103.846	20.149	1.203	0.519
941.000	562.112	80.009	19.994	103.842	20.148	1.302	0.516
941.500	562.310	80.009	19.993	103.844	20.151	1.071	0.482
942.000	562.593	80.009	19.993	103.840	20.150	1.152	0.466
942.500	562.846	80.010	19.993	103.838	20.150	1.130	0.508
943.000	563.095	80.010	19.994	103.841	20.150	1.111	0.519
943.500	563.359	80.009	19.992	103.845	20.152	0.950	0.507
944.000	563.601	80.009	19.994	103.847	20.150	1.154	0.509
944.500	563.849	80.010	19.994	103.853	20.153	0.931	0.499
945.000	564.069	80.010	19.993	103.856	20.150	1.139	0.479
945.500	564.359	80.010	19.993	103.858	20.149	1.194	0.489
946.000	564.587	80.011	19.993	103.854	20.152	0.958	0.514
946.500	564.832	80.010	19.992	103.854	20.152	0.979	0.496
947.000	565.097	80.011	19.993	103.851	20.149	1.213	0.492
947.500	565.293	80.011	19.992	103.845	20.154	0.809	0.485
948.000	565.560	80.012	19.994	103.841	20.149	1.243	0.462
948.500	565.818	80.011	19.993	103.845	20.151	1.075	0.494
949.000	566.044	80.011	19.994	103.845	20.150	1.158	0.504
949.500	566.361	80.012	19.992	103.847	20.150	1.156	0.513
950.000	566.601	80.012	19.993	103.849	20.151	1.037	0.550
950.500	566.856	80.013	19.994	103.848	20.151	1.043	0.526
951.000	567.107	80.011	19.993	103.847	20.150	1.096	0.501
951.500	567.351	80.012	19.992	103.848	20.150	1.109	0.501
952.000	567.580	80.012	19.993	103.843	20.150	1.152	0.484
952.500	567.835	80.013	19.993	103.841	20.149	1.167	0.478
953.000	568.075	80.012	19.992	103.840	20.151	1.082	0.489
953.500	568.349	80.013	19.992	103.833	20.152	0.977	0.505
954.000	568.600	80.012	19.993	103.829	20.147	1.381	0.520
954.500	568.856	80.012	19.992	103.827	20.149	1.239	0.516
955.000	569.083	80.012	19.992	103.830	20.150	1.164	0.494
955.500	569.330	80.011	19.992	103.834	20.145	1.489	0.478
956.000	569.589	80.012	19.993	103.841	20.149	1.217	0.490
956.500	569.822	80.013	19.993	103.846	20.151	1.062	0.499
957.000	570.070	80.012	19.992	103.849	20.152	0.992	0.487
957.500	570.340	80.011	19.992	103.844	20.155	0.759	0.500
958.000	570.608	80.011	19.993	103.837	20.153	0.888	0.528
958.500	570.861	80.010	19.992	103.831	20.154	0.833	0.530
959.000	571.079	80.011	19.993	103.823	20.151	1.060	0.496
959.500	571.331	80.010	19.993	103.820	20.149	1.241	0.470
960.000	571.581	80.010	19.993	103.821	20.150	1.162	0.486
960.500	571.825	80.011	19.993	103.824	20.152	0.952	0.498
961.000	572.101	80.010	19.993	103.828	20.150	1.109	0.507
961.500	572.352	80.010	19.994	103.834	20.149	1.194	0.523
962.000	572.563	80.010	19.993	103.839	20.151	1.037	0.494
962.500	572.811	80.010	19.993	103.845	20.150	1.088	0.461
963.000	573.073	80.010	19.993	103.850	20.152	1.007	0.485
963.500	573.329	80.010	19.993	103.852	20.150	1.103	0.514
964.000	573.608	80.009	19.993	103.854	20.151	1.022	0.527
964.500	573.873	80.010	19.993	103.857	20.152	1.001	0.539
965.000	574.111	80.009	19.993	103.854	20.150	1.162	0.523
965.500	574.416	80.009	19.994	103.853	20.150	1.096	0.523
966.000	574.634	80.010	19.994	103.852	20.153	0.867	0.533
966.500	574.930	80.009	19.993	103.848	20.148	1.245	0.519
967.000	575.184	80.009	19.993	103.847	20.150	1.158	0.532
967.500	575.427	80.009	19.993	103.849	20.149	1.209	0.523
968.000	575.665	80.010	19.993	103.850	20.150	1.105	0.489
968.500	575.938	80.008	19.994	103.852	20.149	1.198	0.496
969.000	576.221	80.010	19.993	103.855	20.149	1.166	0.533
969.500	576.464	80.009	19.993	103.855	20.150	1.090	0.541
970.000	576.757	80.009	19.994	103.857	20.149	1.228	0.531
970.500	577.006	80.010	19.993	103.856	20.146	1.415	0.539
971.001	577.250	80.010	19.993	103.855	20.152	0.990	0.517
971.500	577.533	80.010	19.994	103.853	20.149	1.243	0.510
972.000	577.813	80.009	19.992	103.854	20.149	1.243	0.545
972.500	578.059	80.010	19.993	103.854	20.152	0.950	0.545
973.000	578.345	80.009	19.993	103.853	20.150	1.152	0.529
973.500	578.583	80.010	19.993	103.854	20.150	1.111	0.528
974.000	578.845	80.010	19.992	103.855	20.152	0.935	0.512
974.500	579.110	80.010	19.992	103.852	20.149	1.175	0.514
975.000	579.405	80.010	19.992	103.851	20.149	1.222	0.544
975.500	579.646	80.010	19.994	103.852	20.150	1.111	0.548
976.001	579.928	80.009	19.993	103.852	20.152	0.990	0.529
976.500	580.196	80.010	19.993	103.851	20.149	1.167	0.537
977.000	580.441	80.010	19.995	103.852	20.150	1.105	0.532
977.500	580.721	80.010	19.993	103.849	20.151	1.079	0.519
978.000	580.985	80.010	19.994	103.845	20.148	1.249	0.534
978.500	581.238	80.010	19.993	103.842	20.151	1.024	0.531
979.000	581.513	80.010	19.993	103.844	20.151	1.073	0.522
979.500	581.793	80.009	19.993	103.842	20.146	1.464	0.541
980.000	582.028	80.010	19.993	103.843	20.150	1.105	0.535
980.500	582.305	80.011	19.993	103.838	20.148	1.269	0.514
981.000	582.583	80.009	19.993	103.835	20.150	1.099	0.534
981.500	582.853	80.009	19.993	103.833	20.148	1.320	0.551
982.000	583.123	80.010	19.994	103.836	20.150	1.158	0.544
982.500	583.364	80.010	19.992	103.841	20.151	1.082	0.526
983.000	583.651	80.011	19.993	103.844	20.149	1.220	0.519
983.500	583.900	80.010	19.992	103.844	20.153	0.892	0.532
984.000	584.173	80.010	19.993	103.841	20.152	0.939	0.529
984.500	584.433	80.010	19.992	103.835	20.153	0.926	0.527
985.000	584.717	80.010	19.992	103.828	20.152	0.986	0.539
985.500	584.983	80.010	19.993	103.831	20.151	1.012	0.547
986.000	585.276	80.010	19.993	103.835	20.152	0.992	0.555
986.500	585.520	80.010	19.993	103.838	20.149	1.188	0.548
987.000	585.807	80.011	19.994	103.841	20.152	1.003	0.534
987.500	586.061	80.010	19.992	103.848	20.153	0.916	0.536
988.000	586.314	80.010	19.993	103.850	20.149	1.235	0.524
988.500	586.597	80.009	19.992	103.852	20.148	1.256	0.522
989.000	586.865	80.009	19.992	103.853	20.149	1.179	0.543
989.500	587.146	80.010	19.993	103.856	20.149	1.184	0.550
990.000	587.390	80.009	19.993	103.854	20.148	1.245	0.537
990.500	587.670	80.009	19.992	103.854	20.148	1.300	0.524
991.000	587.903	80.008	19.993	103.856	20.149	1.196	0.519
991.500	588.225	80.009	19.993	103.858	20.149	1.177	0.535
992.000	588.476	80.009	19.993	103.859	20.151	1.018	0.564
992.500	588.765	80.009	19.993	103.857	20.149	1.226	0.556
993.000	588.998	80.010	19.994	103.857	20.146	1.470	0.531
993.500	589.246	80.010	19.993	103.855	20.148	1.253	0.502
994.000	589.525	80.009	19.993	103.853	20.150	1.149	0.504
994.500	589.773	80.008	19.993	103.852	20.148	1.307	0.526
995.000	590.043	80.009	19.994	103.855	20.146	1.419	0.522
995.500	590.324	80.009	19.994	103.856	20.151	1.071	0.535
996.001	590.609	80.008	19.995	103.859	20.147	1.328	0.559
996.500	590.898	80.008	19.994	103.860	20.148	1.309	0.570
997.000	591.173	80.009	19.994	103.861	20.151	1.039	0.569
997.500	591.439	80.008	19.995	103.862	20.152	0.988	0.552
998.000	591.664	80.008	19.995	103.861	20.152	0.973	0.516
998.500	591.966	80.009	19.994	103.862	20.156	0.699	0.509
999.000	592.249	80.008	19.994	103.861	20.151	1.011	0.556
999.500	592.518	80.010	19.994	103.860	20.150	1.126	0.568
1000.000	592.771	80.008	19.995	103.857	20.151	1.022	0.537
1000.500	593.029	80.009	19.993	103.856	20.152	0.977	0.517
1001.000	593.312	80.008	19.995	103.855	20.151	1.058	0.526
1001.500	593.574	80.008	19.994	103.854	20.150	1.088	0.543
1002.000	593.835	80.008	19.994	103.851	20.152	1.007	0.534
1002.500	594.117	80.010	19.993	103.851	20.152	0.994	0.533
1003.000	594.375	80.008	19.993	103.847	20.153	0.931	0.541
1003.500	594.650	80.008	19.994	103.840	20.152	1.005	0.537
1004.000	594.939	80.009	19.994	103.834	20.151	1.084	0.549
1004.500	595.193	80.008	19.994	103.834	20.151	1.014	0.554
1005.000	595.481	80.009	19.993	103.831	20.151	1.031	0.542
1005.500	595.754	80.008	19.994	103.833	20.149	1.171	0.551
1006.000	596.004	80.009	19.993	103.841	20.151	1.077	0.542
1006.500	596.293	80.008	19.993	103.848	20.153	0.858	0.531
1007.000	596.539	80.010	19.992	103.852	20.153	0.897	0.537
1007.500	596.814	80.009	19.993	103.859	20.153	0.892	0.528
1008.000	597.127	80.009	19.993	103.859	20.150	1.154	0.555
1008.500	597.398	80.009	19.993	103.857	20.149	1.190	0.586
1009.000	597.654	80.009	19.993	103.856	20.153	0.865	0.555
1009.500	597.892	80.010	19.993	103.854	20.153	0.873	0.511
1010.000	598.155	80.010	19.993	103.854	20.150	1.141	0.498
1010.500	598.458	80.010	19.993	103.855	20.154	0.829	0.533
1011.000	598.726	80.008	19.993	103.857	20.155	0.761	0.568
1011.500	599.000	80.010	19.994	103.858	20.155	0.739	0.556
1012.000	599.275	80.009	19.993	103.859	20.152	0.939	0.546
1012.500	599.551	80.010	19.994	103.857	20.155	0.703	0.550
1013.000	599.779	80.010	19.992	103.856	20.156	0.699	0.527
1013.500	600.072	80.011	19.992	103.855	20.151	1.086	0.512
1014.000	600.335	80.009	19.993	103.852	20.155	0.727	0.538
1014.500	600.585	80.009	19.993	103.850	20.154	0.850	0.534
1015.000	600.890	80.010	19.993	103.852	20.155	0.761	0.534
1015.500	601.129	80.011	19.994	103.852	20.155	0.752	0.550
1016.000	601.428	80.010	19.993	103.853	20.154	0.799	0.541
1016.500	601.670	80.010	19.993	103.855	20.152	0.956	0.540
1017.000	601.954	80.009	19.994	103.852	20.151	1.065	0.534
1017.500	602.223	80.009	19.993	103.846	20.152	0.937	0.540
1018.000	602.458	80.009	19.993	103.838	20.154	0.820	0.528
1018.500	602.769	80.009	19.994	103.834	20.150	1.115	0.525
1019.000	603.032	80.009	19.993	103.832	20.151	1.054	0.560
1019.500	603.308	80.009	19.993	103.831	20.152	1.003	0.557
1020.000	603.539	80.009	19.994	103.833	20.152	1.005	0.523
1020.501	603.811	80.009	19.994	103.836	20.151	1.035	0.505
1021.000	604.079	80.009	19.994	103.840	20.153	0.856	0.522
1021.500	604.324	80.009	19.994	103.843	20.152	0.971	0.526
1022.000	604.595	80.010	19.993	103.846	20.151	1.028	0.515
1022.500	604.862	80.009	19.993	103.850	20.152	0.999	0.527
1023.000	605.076	80.007	19.995	103.848	20.150	1.126	0.509
1023.500	605.428	80.009	19.994	103.842	20.151	1.020	0.524
1024.000	605.674	80.009	19.994	103.840	20.149	1.224	0.582
1024.500	605.930	80.010	19.994	103.836	20.151	1.026	0.550
1025.000	606.216	80.009	19.995	103.833	20.150	1.126	0.522
1025.501	606.487	80.008	19.994	103.831	20.150	1.139	0.549
1026.001	606.732	80.010	19.994	103.834	20.153	0.909	0.537
1026.500	607.009	80.009	19.994	103.836	20.149	1.185	0.520
1027.000	607.238	80.010	19.994	103.839	20.152	0.950	0.514
1027.501	607.504	80.008	19.994	103.844	20.149	1.166	0.500
1028.001	607.764	80.010	19.994	103.847	20.149	1.175	0.510
1028.500	608.062	80.009	19.994	103.848	20.149	1.185	0.542
1029.000	608.323	80.009	19.995	103.843	20.150	1.126	0.558
1029.500	608.547	80.010	19.994	103.839	20.152	0.958	0.522
1030.000	608.824	80.011	19.994	103.838	20.151	1.056	0.493
1030.500	609.102	80.009	19.994	103.839	20.149	1.236	0.528
1031.000	609.337	80.010	19.994	103.840	20.152	0.977	0.534
1031.500	609.616	80.010	19.994	103.841	20.151	1.056	0.514
1032.001	609.856	80.010	19.993	103.839	20.149	1.230	0.517
1032.501	610.113	80.009	19.994	103.834	20.148	1.317	0.509
1033.000	610.383	80.009	19.994	103.832	20.148	1.290	0.512
1033.500	610.634	80.010	19.993	103.833	20.148	1.271	0.523
1034.000	610.892	80.010	19.994	103.837	20.150	1.128	0.515
1034.500	611.191	80.011	19.994	103.838	20.151	1.054	0.533
1035.000	611.398	80.011	19.994	103.843	20.150	1.096	0.531
1035.500	611.689	80.010	19.994	103.845	20.148	1.311	0.502
1036.000	611.932	80.011	19.994	103.840	20.148	1.287	0.516
1036.500	612.201	80.011	19.993	103.835	20.151	1.084	0.523
1037.000	612.464	80.012	19.994	103.836	20.149	1.185	0.522
1037.501	612.714	80.010	19.995	103.833	20.148	1.294	0.522
1038.001	612.998	80.011	19.994	103.828	20.148	1.258	0.523
1038.500	613.257	80.011	19.994	103.831	20.149	1.186	0.538
1039.000	613.500	80.011	19.993	103.835	20.148	1.311	0.522
1039.500	613.772	80.012	19.994	103.836	20.145	1.517	0.509
1040.000	613.996	80.010	19.993	103.833	20.146	1.428	0.506
1040.500	614.282	80.012	19.993	103.832	20.146	1.473	0.503
1041.001	614.548	80.010	19.993	103.830	20.147	1.398	0.531
1041.501	614.820	80.012	19.993	103.829	20.146	1.460	0.545
1042.000	615.040	80.010	19.993	103.832	20.147	1.349	0.515
1042.500	615.268	80.010	19.994	103.836	20.148	1.302	0.470
1043.001	615.570	80.011	19.994	103.843	20.148	1.294	0.489
1043.501	615.821	80.009	19.994	103.848	20.147	1.330	0.542
1044.000	616.081	80.009	19.993	103.851	20.148	1.290	0.532
1044.500	616.360	80.009	19.994	103.850	20.150	1.164	0.525
1045.000	616.594	80.010	19.993	103.848	20.150	1.105	0.526
1045.500	616.876	80.009	19.993	103.844	20.149	1.239	0.515
1046.000	617.122	80.009	19.993	103.841	20.150	1.154	0.522
1046.500	617.373	80.007	19.993	103.836	20.151	1.031	0.512
1047.000	617.629	80.010	19.992	103.836	20.151	1.043	0.502
1047.500	617.862	80.009	19.993	103.837	20.150	1.139	0.498
1048.000	618.120	80.009	19.992	103.834	20.152	0.980	0.491
1048.501	618.377	80.007	19.993	103.835	20.151	1.067	0.503
1049.001	618.663	80.009	19.992	103.840	20.151	1.079	0.529
1049.500	618.921	80.008	19.994	103.843	20.149	1.215	0.544
1050.000	619.142	80.008	19.992	103.848	20.151	1.047	0.512
1050.500	619.426	80.009	19.992	103.855	20.147	1.322	0.492
1051.000	619.666	80.008	19.993	103.858	20.150	1.158	0.515
1051.500	619.949	80.009	19.992	103.851	20.151	1.062	0.523
1052.001	620.189	80.007	19.993	103.851	20.151	1.060	0.523
1052.501	620.430	80.008	19.993	103.850	20.149	1.198	0.502
1053.000	620.678	80.009	19.993	103.845	20.149	1.232	0.485
1053.500	620.914	80.008	19.993	103.843	20.149	1.239	0.486
1054.000	621.181	80.008	19.993	103.848	20.146	1.475	0.493
1054.500	621.435	80.008	19.992	103.845	20.148	1.311	0.512
1055.000	621.732	80.008	19.995	103.839	20.149	1.226	0.536
1055.500	621.955	80.009	19.996	103.844	20.148	1.273	0.535
1056.000	622.183	80.008	19.996	103.847	20.150	1.105	0.486
1056.500	622.464	80.008	19.994	103.848	20.147	1.387	0.480
1057.000	622.731	80.009	19.994	103.849	20.147	1.326	0.528
1057.500	623.003	80.008	19.994	103.856	20.152	0.990	0.544
1058.000	623.273	80.010	19.994	103.855	20.149	1.200	0.541
1058.500	623.486	80.008	19.993	103.854	20.150	1.164	0.513
1059.000	623.736	80.009	19.993	103.850	20.149	1.224	0.473
1059.500	624.010	80.008	19.994	103.845	20.150	1.158	0.493
1060.000	624.288	80.009	19.994	103.838	20.149	1.209	0.538
1060.500	624.537	80.009	19.993	103.837	20.151	1.077	0.540
1061.001	624.786	80.008	19.993	103.839	20.153	0.901	0.513
1061.501	625.032	80.009	19.992	103.841	20.150	1.160	0.496
1062.000	625.293	80.009	19.993	103.849	20.149	1.241	0.501
1062.500	625.583	80.008	19.994	103.855	20.149	1.239	0.529
1063.000	625.811	80.009	19.993	103.857	20.149	1.220	0.535
1063.500	626.063	80.009	19.993	103.852	20.148	1.307	0.499
1064.000	626.310	80.010	19.993	103.850	20.148	1.317	0.489
1064.500	626.561	80.008	19.993	103.845	20.149	1.194	0.498
1065.000	626.820	80.010	19.994	103.841	20.146	1.424	0.504
1065.500	627.042	80.009	19.993	103.836	20.148	1.281	0.496
1066.000	627.261	80.008	19.993	103.837	20.149	1.226	0.461
1066.500	627.550	80.008	19.994	103.835	20.150	1.124	0.474
1067.000	627.817	80.009	19.993	103.834	20.151	1.073	0.532
1067.501	628.071	80.010	19.993	103.835	20.151	1.071	0.539
1068.001	628.335	80.008	19.992	103.838	20.151	1.018	0.519
1068.500	628.592	80.007	19.993	103.840	20.150	1.100	0.519
1069.001	628.804	80.009	19.994	103.842	20.152	0.948	0.495
1069.501	629.054	80.009	19.994	103.847	20.148	1.300	0.466
1070.000	629.311	80.009	19.994	103.848	20.151	1.041	0.484
1070.500	629.583	80.008	19.992	103.850	20.151	1.054	0.518
1071.000	629.841	80.008	19.993	103.852	20.153	0.869	0.529
1071.500	630.099	80.009	19.992	103.856	20.153	0.865	0.523
1072.000	630.323	80.008	19.993	103.853	20.151	1.043	0.500
1072.500	630.621	80.008	19.994	103.850	20.152	0.999	0.502
1073.000	630.846	80.009	19.992	103.844	20.152	0.950	0.522
1073.500	631.112	80.007	19.993	103.842	20.152	0.963	0.507
1074.000	631.373	80.008	19.993	103.841	20.149	1.205	0.509
1074.500	631.623	80.009	19.992	103.842	20.150	1.090	0.519
1075.000	631.859	80.010	19.992	103.849	20.150	1.143	0.499
1075.500	632.133	80.007	19.991	103.855	20.151	1.037	0.498
1076.000	632.398	80.009	19.992	103.851	20.151	1.011	0.524
1076.500	632.622	80.007	19.993	103.849	20.152	0.941	0.514
1077.001	632.872	80.010	19.993	103.846	20.152	0.960	0.482
1077.501	633.150	80.008	19.993	103.839	20.152	0.986	0.501
1078.000	633.371	80.008	19.995	103.835	20.150	1.107	0.514
1078.500	633.649	80.008	19.994	103.834	20.149	1.188	0.499
1079.000	633.864	80.008	19.993	103.831	20.149	1.167	0.496
1079.500	634.191	80.008	19.994	103.833	20.152	0.992	0.517
1080.000	634.462	80.008	19.994	103.839	20.151	1.028	0.570
1080.500	634.728	80.008	19.993	103.839	20.151	1.011	0.568
1081.000	634.989	80.008	19.993	103.842	20.152	0.960	0.532
1081.500	635.195	80.009	19.992	103.845	20.152	0.994	0.496
1082.000	635.469	80.009	19.992	103.847	20.151	1.020	0.473
1082.500	635.741	80.010	19.992	103.848	20.150	1.122	0.513
1083.000	635.982	80.008	19.993	103.850	20.153	0.880	0.530
1083.500	636.258	80.008	19.993	103.848	20.152	0.996	0.515
1084.000	636.493	80.009	19.993	103.847	20.153	0.875	0.514
1084.500	636.737	80.009	19.992	103.846	20.151	1.054	0.495
1085.000	636.980	80.010	19.992	103.846	20.153	0.918	0.483
1085.500	637.275	80.009	19.993	103.849	20.153	0.884	0.512
1086.000	637.502	80.009	19.993	103.853	20.151	1.060	0.530
1086.500	637.739	80.010	19.993	103.855	20.152	0.939	0.493
1087.000	638.001	80.010	19.993	103.856	20.151	1.018	0.481
1087.500	638.277	80.009	19.993	103.856	20.151	1.045	0.519
1088.000	638.508	80.009	19.993	103.855	20.153	0.856	0.523
1088.500	638.745	80.010	19.994	103.855	20.153	0.888	0.487
1089.000	639.028	80.011	19.994	103.857	20.152	0.935	0.494
1089.500	639.279	80.011	19.993	103.858	20.149	1.188	0.527
1090.000	639.536	80.011	19.994	103.857	20.153	0.918	0.521
1090.500	639.743	80.010	19.994	103.857	20.151	1.079	0.486
1091.000	640.022	80.010	19.993	103.854	20.152	0.990	0.475
1091.501	640.270	80.011	19.994	103.854	20.150	1.162	0.506
1092.001	640.524	80.010	19.994	103.851	20.153	0.877	0.515
1092.501	640.766	80.009	19.994	103.850	20.154	0.850	0.499
1093.001	641.030	80.011	19.994	103.844	20.154	0.826	0.501
1093.500	641.275	80.010	19.994	103.841	20.153	0.926	0.508
1094.000	641.546	80.010	19.993	103.836	20.148	1.251	0.512
1094.500	641.778	80.010	19.993	103.834	20.150	1.158	0.509
1095.000	642.020	80.010	19.994	103.835	20.151	1.032	0.488
1095.501	642.262	80.010	19.993	103.841	20.149	1.181	0.479
1096.001	642.550	80.011	19.994	103.846	20.150	1.145	0.507
1096.500	642.805	80.010	19.994	103.851	20.151	1.022	0.536
1097.000	643.024	80.010	19.993	103.850	20.151	1.035	0.509
1097.500	643.329	80.012	19.993	103.845	20.149	1.222	0.499
1098.000	643.548	80.011	19.994	103.837	20.151	1.086	0.524
1098.500	643.812	80.010	19.994	103.830	20.150	1.160	0.503
1099.001	644.029	80.010	19.993	103.825	20.148	1.287	0.482
1099.501	644.301	80.010	19.993	103.829	20.151	1.075	0.485
1100.000	644.533	80.009	19.994	103.833	20.152	0.986	0.497
1100.501	644.800	80.011	19.995	103.835	20.151	1.069	0.501
1101.001	645.035	80.009	19.994	103.837	20.151	1.084	0.500
1101.500	645.334	80.010	19.994	103.837	20.152	1.003	0.518
1102.000	645.563	80.010	19.994	103.832	20.152	0.937	0.531
1102.500	645.803	80.009	19.994	103.827	20.152	0.986	0.498
1103.000	646.066	80.010	19.994	103.825	20.151	1.037	0.486
1103.500	646.305	80.010	19.993	103.824	20.152	0.935	0.503
1104.000	646.544	80.011	19.994	103.824	20.150	1.126	0.490
1104.500	646.800	80.010	19.994	103.829	20.150	1.099	0.487
1105.000	647.080	80.010	19.993	103.831	20.150	1.101	0.516
1105.500	647.317	80.010	19.993	103.832	20.152	0.943	0.527
1106.000	647.567	80.012	19.993	103.830	20.149	1.169	0.502
1106.500	647.796	80.010	19.993	103.829	20.152	0.952	0.482
1107.000	648.058	80.010	19.993	103.825	20.149	1.200	0.485
1107.500	648.295	80.009	19.992	103.826	20.153	0.907	0.495
1108.000	648.583	80.010	19.993	103.828	20.151	1.079	0.512
1108.500	648.808	80.009	19.993	103.828	20.152	1.007	0.519
1109.000	649.071	80.009	19.993	103.832	20.152	0.996	0.501
1109.500	649.301	80.010	19.993	103.834	20.150	1.115	0.490
1110.000	649.557	80.010	19.993	103.836	20.154	0.792	0.489
1110.500	649.802	80.011	19.993	103.837	20.152	1.001	0.493
1111.000	650.085	80.009	19.993	103.841	20.153	0.861	0.514
1111.500	650.306	80.011	19.993	103.838	20.153	0.882	0.516
1112.000	650.564	80.010	19.993	103.837	20.152	0.971	0.491
1112.500	650.830	80.010	19.993	103.837	20.149	1.226	0.501
1113.000	651.049	80.010	19.993	103.838	20.150	1.143	0.505
1113.500	651.330	80.010	19.994	103.839	20.150	1.122	0.493
1114.000	651.552	80.010	19.992	103.844	20.151	1.028	0.502
1114.500	651.792	80.008	19.993	103.849	20.153	0.909	0.483
1115.000	652.054	80.011	19.995	103.849	20.149	1.169	0.482
1115.500	652.343	80.012	19.993	103.851	20.151	1.050	0.526
1116.000	652.575	80.011	19.994	103.845	20.150	1.098	0.536
1116.500	652.844	80.011	19.994	103.842	20.150	1.134	0.511
1117.000	653.068	80.012	19.994	103.837	20.149	1.166	0.497
1117.500	653.305	80.011	19.993	103.832	20.149	1.194	0.477
1118.001	653.548	80.010	19.993	103.832	20.150	1.158	0.471
1118.501	653.824	80.011	19.993	103.835	20.152	1.005	0.499
1119.001	654.112	80.011	19.993	103.834	20.149	1.168	0.542
1119.500	654.330	80.011	19.993	103.839	20.150	1.118	0.535
1120.000	654.599	80.010	19.993	103.842	20.153	0.867	0.496
1120.500	654.942	80.011	19.993	103.840	20.151	1.041	0.549
1121.000	655.107	80.012	19.993	103.841	20.150	1.137	0.560
1121.500	655.359	80.010	19.994	103.845	20.150	1.120	0.462
1122.000	655.593	80.010	19.993	103.845	20.150	1.162	0.451
1122.501	655.846	80.009	19.994	103.844	20.149	1.184	0.486
1123.001	656.112	80.010	19.993	103.846	20.149	1.218	0.503
1123.500	656.331	80.010	19.994	103.846	20.151	1.077	0.502
1124.000	656.638	80.010	19.993	103.842	20.150	1.145	0.506
1124.501	656.867	80.010	19.994	103.841	20.152	0.952	0.530
1125.001	657.093	80.010	19.994	103.845	20.153	0.892	0.495
1125.500	657.395	80.009	19.994	103.840	20.154	0.850	0.492
1126.000	657.586	80.009	19.994	103.838	20.152	0.967	0.511
1126.500	657.865	80.011	19.994	103.837	20.152	0.967	0.482
1127.000	658.116	80.008	19.994	103.831	20.152	0.990	0.500
1127.500	658.351	80.010	19.993	103.824	20.155	0.769	0.508
1128.000	658.603	80.008	19.994	103.822	20.151	1.071	0.486
1128.500	658.874	80.008	19.993	103.822	20.151	1.047	0.505
1129.000	659.127	80.007	19.994	103.824	20.150	1.162	0.523
1129.500	659.365	80.008	19.993	103.828	20.151	1.086	0.508
1130.000	659.604	80.008	19.993	103.836	20.153	0.918	0.484
1130.500	659.858	80.010	19.994	103.843	20.152	0.986	0.485
1131.001	660.059	80.009	19.994	103.850	20.150	1.139	0.474
1131.501	660.328	80.007	19.994	103.852	20.152	0.950	0.462
1132.001	660.573	80.008	19.995	103.854	20.154	0.780	0.492
1132.501	660.833	80.008	19.994	103.852	20.150	1.090	0.510
1133.000	661.094	80.007	19.993	103.850	20.153	0.897	0.513
1133.500	661.328	80.009	19.993	103.849	20.152	0.943	0.508
1134.000	661.644	80.007	19.992	103.848	20.152	1.009	0.523
1134.500	661.822	80.007	19.992	103.850	20.151	1.020	0.522
1135.000	662.129	80.009	19.992	103.852	20.149	1.224	0.489
1135.500	662.357	80.008	19.993	103.852	20.151	1.064	0.510
1136.000	662.576	80.009	19.992	103.848	20.152	0.996	0.491
1136.501	662.836	80.008	19.992	103.847	20.151	1.037	0.463
1137.001	663.093	80.007	19.992	103.848	20.151	1.083	0.498
1137.501	663.351	80.008	19.993	103.846	20.152	0.982	0.516
1138.000	663.624	80.007	19.992	103.849	20.151	1.064	0.523
1138.500	663.856	80.008	19.992	103.852	20.150	1.154	0.517
1139.000	664.108	80.009	19.992	103.850	20.150	1.137	0.494
1139.501	664.364	80.007	19.992	103.845	20.149	1.183	0.496
1140.001	664.623	80.008	19.993	103.844	20.148	1.260	0.512
1140.500	664.862	80.009	19.994	103.843	20.148	1.262	0.506
1141.000	665.133	80.008	19.993	103.845	20.150	1.145	0.504
1141.501	665.375	80.009	19.992	103.844	20.148	1.249	0.512
1142.001	665.624	80.009	19.992	103.847	20.147	1.377	0.502
1142.500	665.877	80.009	19.992	103.849	20.150	1.101	0.497
1143.000	666.112	80.009	19.994	103.850	20.149	1.228	0.495
1143.500	666.403	80.009	19.993	103.850	20.150	1.120	0.507
1144.000	666.619	80.010	19.994	103.853	20.150	1.147	0.516
1144.500	666.893	80.010	19.992	103.854	20.148	1.249	0.499
1145.000	667.105	80.008	19.993	103.852	20.149	1.239	0.488
1145.500	667.379	80.009	19.994	103.850	20.149	1.228	0.486
1146.000	667.617	80.009	19.992	103.844	20.154	0.805	0.499
1146.500	667.874	80.009	19.992	103.837	20.152	0.992	0.504
1147.000	668.140	80.009	19.992	103.836	20.147	1.390	0.509
1147.500	668.374	80.009	19.992	103.836	20.149	1.203	0.511
1148.000	668.635	80.008	19.993	103.832	20.148	1.309	0.497
1148.501	668.878	80.009	19.993	103.834	20.148	1.271	0.499
1149.001	669.130	80.009	19.992	103.837	20.150	1.154	0.499
1149.500	669.364	80.010	19.992	103.839	20.149	1.196	0.491
1150.000	669.635	80.011	19.992	103.838	20.152	0.939	0.496
1150.500	669.863	80.009	19.993	103.837	20.146	1.415	0.502
1151.000	670.136	80.009	19.993	103.838	20.148	1.307	0.500
1151.500	670.360	80.009	19.994	103.837	20.148	1.245	0.499
1152.000	670.619	80.009	19.993	103.832	20.151	1.073	0.490
1152.500	670.877	80.008	19.993	103.835	20.148	1.266	0.500
1153.001	671.132	80.008	19.993	103.839	20.147	1.324	0.515
1153.501	671.365	80.009	19.993	103.842	20.150	1.132	0.501
1154.000	671.619	80.008	19.993	103.844	20.148	1.290	0.488
1154.500	671.843	80.008	19.993	103.848	20.152	0.971	0.483
1155.000	672.121	80.008	19.993	103.845	20.151	1.031	0.490
1155.500	672.351	80.009	19.992	103.843	20.151	1.028	0.505
1156.000	672.608	80.008	19.993	103.841	20.150	1.090	0.498
1156.500	672.881	80.008	19.993	103.840	20.149	1.213	0.508
1157.001	673.122	80.007	19.992	103.835	20.151	1.073	0.522
1157.501	673.416	80.008	19.993	103.839	20.147	1.364	0.524
1158.000	673.652	80.009	19.992	103.842	20.151	1.022	0.533
1158.500	673.912	80.007	19.993	103.845	20.148	1.268	0.513
1159.000	674.163	80.007	19.993	103.848	20.151	1.077	0.503
1159.500	674.451	80.008	19.993	103.849	20.148	1.252	0.525
1160.000	674.702	80.009	19.994	103.843	20.151	1.060	0.539
1160.500	674.947	80.008	19.994	103.836	20.149	1.220	0.518
1161.000	675.216	80.008	19.993	103.834	20.149	1.243	0.505
1161.500	675.463	80.007	19.994	103.834	20.147	1.360	0.515
1162.000	675.730	80.009	19.992	103.833	20.147	1.353	0.515
1162.500	675.970	80.008	19.993	103.838	20.150	1.147	0.511
1163.000	676.242	80.009	19.993	103.843	20.149	1.213	0.510
1163.500	676.490	80.008	19.993	103.844	20.147	1.366	0.516
1164.000	676.739	80.008	19.994	103.842	20.147	1.372	0.508
1164.500	676.999	80.009	19.993	103.846	20.147	1.336	0.503
1165.000	677.242	80.009	19.993	103.849	20.146	1.436	0.505
1165.500	677.502	80.009	19.992	103.851	20.145	1.553	0.503
1166.000	677.741	80.008	19.993	103.852	20.149	1.211	0.501
1166.500	678.008	80.007	19.993	103.850	20.147	1.338	0.503
1167.000	678.276	80.009	19.993	103.849	20.146	1.447	0.521
1167.500	678.507	80.008	19.993	103.843	20.149	1.217	0.517
1168.000	678.774	80.008	19.992	103.841	20.145	1.553	0.499
1168.501	679.036	80.008	19.993	103.838	20.148	1.283	0.514
1169.001	679.324	80.009	19.992	103.840	20.146	1.417	0.539
1169.500	679.570	80.008	19.993	103.842	20.145	1.547	0.542
1170.000	679.804	80.008	19.993	103.849	20.148	1.315	0.508
1170.500	680.099	80.010	19.992	103.850	20.144	1.628	0.505
1171.000	680.267	80.009	19.994	103.849	20.146	1.405	0.496
1171.500	680.544	80.009	19.992	103.849	20.146	1.473	0.454
1172.000	680.819	80.011	19.992	103.843	20.146	1.447	0.498
1172.500	680.939	80.010	19.992	103.837	20.146	1.436	0.474
1173.000	681.325	80.010	19.992	103.835	20.149	1.201	0.451
1173.501	681.576	80.008	19.992	103.832	20.145	1.540	0.571
1174.001	681.796	80.012	19.992	103.829	20.146	1.402	0.554
1174.500	682.102	80.010	19.992	103.833	20.145	1.485	0.498
1175.001	682.280	80.009	19.994	103.839	20.145	1.496	0.505
1175.501	682.530	80.011	19.994	103.843	20.149	1.190	0.456
1176.000	682.799	80.010	19.993	103.845	20.146	1.438	0.473
1176.501	683.042	80.010	19.994	103.847	20.146	1.421	0.515
1177.001	683.310	80.011	19.992	103.845	20.149	1.224	0.512
1177.500	683.568	80.011	19.993	103.838	20.145	1.500	0.518
1178.000	683.817	80.011	19.993	103.831	20.148	1.319	0.516
1178.501	684.068	80.011	19.992	103.836	20.147	1.377	0.503
1179.001	684.321	80.011	19.992	103.837	20.148	1.260	0.502
1179.500	684.548	80.011	19.993	103.835	20.148	1.315	0.492
1180.000	684.818	80.011	19.992	103.838	20.147	1.368	0.489
1180.500	685.030	80.010	19.992	103.841	20.146	1.411	0.489
1181.000	685.314	80.010	19.992	103.841	20.145	1.479	0.489
1181.500	685.567	80.010	19.992	103.845	20.146	1.415	0.517
1182.000	685.808	80.009	19.993	103.851	20.149	1.188	0.515
1182.500	686.025	80.010	19.994	103.854	20.150	1.115	0.476
1183.000	686.276	80.010	19.992	103.852	20.149	1.177	0.463
1183.500	686.549	80.010	19.992	103.849	20.147	1.339	0.496
1184.000	686.851	80.010	19.993	103.850	20.147	1.334	0.549
1184.500	687.047	80.011	19.993	103.849	20.148	1.256	0.536
1185.000	687.272	80.008	19.992	103.845	20.150	1.139	0.459
1185.501	687.523	80.010	19.993	103.843	20.152	0.958	0.448
1186.001	687.729	80.009	19.993	103.842	20.147	1.381	0.467
1186.500	688.028	80.010	19.993	103.838	20.149	1.209	0.481
1187.000	688.302	80.010	19.993	103.836	20.150	1.107	0.539
1187.500	688.509	80.009	19.993	103.836	20.146	1.407	0.527
1188.000	688.772	80.009	19.994	103.837	20.150	1.096	0.476
1188.500	689.023	80.010	19.993	103.841	20.147	1.330	0.492
1189.000	689.289	80.009	19.993	103.842	20.151	1.052	0.515
1189.501	689.538	80.008	19.993	103.840	20.149	1.222	0.516
1190.001	689.787	80.009	19.993	103.844	20.148	1.315	0.507
1190.500	690.036	80.008	19.994	103.849	20.149	1.201	0.498
1191.000	690.308	80.009	19.994	103.847	20.152	1.003	0.509
1191.500	690.538	80.008	19.993	103.847	20.148	1.249	0.511
1192.000	690.772	80.008	19.994	103.848	20.152	0.954	0.483
1192.500	691.051	80.009	19.993	103.846	20.150	1.101	0.489
1193.000	691.324	80.010	19.993	103.845	20.148	1.279	0.532
1193.500	691.557	80.010	19.993	103.847	20.148	1.279	0.529
1194.000	691.807	80.008	19.993	103.844	20.148	1.281	0.495
1194.500	692.050	80.010	19.993	103.842	20.148	1.296	0.488
1195.001	692.271	80.009	19.993	103.843	20.148	1.304	0.478
1195.501	692.566	80.011	19.993	103.842	20.149	1.228	0.490
1196.001	692.839	80.011	19.994	103.844	20.149	1.205	0.542
1196.500	693.104	80.010	19.994	103.849	20.149	1.230	0.553
1197.001	693.366	80.009	19.994	103.855	20.148	1.264	0.532
1197.501	693.546	80.010	19.992	103.855	20.150	1.111	0.484
1198.000	693.818	80.010	19.993	103.857	20.150	1.160	0.447
1198.500	694.071	80.012	19.993	103.857	20.151	1.081	0.489
1199.000	694.368	80.012	19.992	103.852	20.152	0.956	0.537
1199.500	694.612	80.010	19.994	103.847	20.150	1.137	0.545
1200.000	694.842	80.011	19.992	103.847	20.149	1.198	0.508
1200.500	695.116	80.011	19.992	103.847	20.151	1.086	0.489
1201.000	695.388	80.012	19.992	103.843	20.148	1.262	0.525
1201.500	695.599	80.012	19.993	103.848	20.150	1.132	0.515
1202.000	695.890	80.012	19.993	103.851	20.148	1.249	0.493
1202.500	696.137	80.012	19.993	103.850	20.148	1.283	0.520
1203.000	696.396	80.014	19.993	103.850	20.151	1.030	0.522
1203.500	696.668	80.012	19.994	103.848	20.151	1.073	0.519
1204.000	696.907	80.011	19.994	103.843	20.150	1.122	0.521
1204.501	697.153	80.012	19.993	103.838	20.148	1.245	0.498
1205.001	697.433	80.010	19.992	103.835	20.147	1.379	0.505
1205.500	697.630	80.011	19.992	103.834	20.149	1.230	0.501
1206.000	697.918	80.011	19.992	103.836	20.148	1.307	0.481
1206.501	698.196	80.011	19.993	103.839	20.147	1.358	0.526
1207.001	698.408	80.011	19.992	103.838	20.147	1.364	0.528
1207.501	698.631	80.010	19.993	103.840	20.146	1.436	0.463
1208.001	698.894	80.011	19.993	103.839	20.148	1.298	0.461
1208.500	699.154	80.010	19.994	103.835	20.150	1.153	0.504
1209.000	699.384	80.010	19.994	103.831	20.149	1.185	0.506
1209.500	699.677	80.009	19.994	103.830	20.146	1.451	0.507
1210.000	699.895	80.009	19.994	103.826	20.148	1.268	0.517
1210.500	700.136	80.010	19.995	103.826	20.147	1.330	0.485
1211.000	700.393	80.009	19.995	103.826	20.148	1.273	0.479
1211.500	700.657	80.008	19.995	103.826	20.147	1.332	0.509
1212.000	700.894	80.008	19.995	103.831	20.146	1.472	0.511
1212.500	701.142	80.008	19.993	103.834	20.148	1.292	0.493
1213.001	701.391	80.009	19.994	103.835	20.147	1.347	0.491
1213.501	701.638	80.008	19.994	103.839	20.147	1.328	0.497
1214.000	701.894	80.008	19.994	103.842	20.148	1.249	0.499
1214.500	702.146	80.008	19.994	103.837	20.148	1.315	0.505
1215.000	702.363	80.008	19.994	103.833	20.146	1.451	0.489
1215.500	702.629	80.009	19.995	103.829	20.148	1.283	0.476
1216.000	702.900	80.009	19.995	103.827	20.147	1.398	0.510
1216.500	703.107	80.008	19.994	103.829	20.147	1.377	0.507
1217.000	703.381	80.008	19.995	103.830	20.146	1.404	0.479
1217.500	703.621	80.008	19.994	103.831	20.149	1.202	0.498
1218.000	703.865	80.008	19.994	103.830	20.147	1.374	0.499
1218.500	704.092	80.008	19.994	103.828	20.147	1.379	0.477
1219.000	704.326	80.009	19.994	103.821	20.148	1.302	0.466
1219.500	704.561	80.007	19.994	103.820	20.144	1.563	0.465
1220.000	704.821	80.008	19.994	103.821	20.146	1.444	0.482
1220.501	705.039	80.009	19.993	103.824	20.146	1.411	0.486
1221.001	705.282	80.007	19.995	103.828	20.145	1.547	0.470
1221.500	705.516	80.008	19.994	103.829	20.145	1.532	0.469
1222.000	705.779	80.008	19.994	103.831	20.147	1.398	0.487
1222.500	706.002	80.008	19.994	103.832	20.145	1.513	0.492
1223.000	706.255	80.009	19.994	103.831	20.148	1.313	0.481
1223.500	706.486	80.008	19.993	103.826	20.146	1.421	0.480
1224.000	706.748	80.009	19.994	103.826	20.146	1.466	0.488
1224.500	706.948	80.009	19.994	103.826	20.144	1.557	0.477
1225.000	707.226	80.009	19.994	103.824	20.146	1.438	0.470
1225.501	707.409	80.008	19.994	103.826	20.145	1.542	0.470
1226.001	707.644	80.008	19.993	103.826	20.143	1.636	0.440
1226.500	707.904	80.009	19.994	103.827	20.144	1.578	0.456
1227.001	708.165	80.010	19.994	103.828	20.144	1.578	0.508
1227.501	708.395	80.009	19.993	103.829	20.142	1.744	0.506
1228.000	708.630	80.008	19.993	103.826	20.146	1.415	0.478
1228.500	708.888	80.009	19.993	103.827	20.146	1.447	0.479
1229.000	709.092	80.010	19.994	103.826	20.147	1.341	0.478
1229.500	709.351	80.011	19.994	103.826	20.147	1.326	0.463
1230.000	709.611	80.010	19.993	103.826	20.144	1.566	0.491
1230.500	709.820	80.010	19.994	103.823	20.145	1.525	0.494
1231.000	710.063	80.011	19.993	103.823	20.148	1.315	0.461
1231.500	710.257	80.010	19.994	103.826	20.148	1.304	0.445
1232.000	710.485	80.008	19.993	103.828	20.146	1.468	0.430
1232.501	710.709	80.010	19.993	103.828	20.149	1.175	0.437
1233.001	710.982	80.010	19.992	103.832	20.148	1.287	0.474
1233.500	711.190	80.009	19.992	103.832	20.149	1.169	0.489
1234.001	711.435	80.010	19.993	103.828	20.146	1.453	0.467
1234.501	711.628	80.009	19.993	103.827	20.148	1.270	0.446
1235.000	711.865	80.011	19.995	103.830	20.149	1.185	0.434
1235.500	712.089	80.010	19.994	103.834	20.148	1.260	0.445
1236.000	712.385	80.011	19.994	103.834	20.148	1.279	0.491
1236.500	712.571	80.010	19.994	103.835	20.148	1.275	0.502
1237.000	712.836	80.010	19.993	103.835	20.149	1.201	0.467
1237.501	713.082	80.010	19.993	103.832	20.151	1.086	0.481
1238.001	713.331	80.009	19.994	103.830	20.148	1.269	0.503
1238.500	713.536	80.009	19.994	103.830	20.148	1.300	0.475
1239.000	713.775	80.009	19.992	103.831	20.147	1.343	0.449
1239.500	714.038	80.009	19.992	103.833	20.147	1.322	0.473
1240.000	714.259	80.010	19.993	103.836	20.150	1.150	0.493
1240.501	714.532	80.007	19.992	103.836	20.149	1.228	0.488
1241.001	714.724	80.008	19.994	103.835	20.147	1.390	0.479
1241.501	714.971	80.009	19.994	103.833	20.147	1.368	0.453
1242.001	715.234	80.009	19.992	103.829	20.143	1.653	0.475
1242.500	715.479	80.009	19.993	103.830	20.150	1.156	0.509
1243.000	715.745	80.009	19.993	103.832	20.143	1.640	0.509
1243.500	715.998	80.009	19.994	103.835	20.148	1.311	0.515
1244.000	716.225	80.009	19.994	103.836	20.147	1.343	0.500
1244.500	716.470	80.008	19.994	103.837	20.143	1.678	0.476
1245.000	716.764	80.010	19.992	103.835	20.146	1.451	0.506
1245.500	716.997	80.008	19.993	103.835	20.145	1.532	0.533
1246.000	717.252	80.008	19.993	103.835	20.143	1.645	0.507
1246.500	717.496	80.008	19.993	103.840	20.146	1.407	0.493
1247.000	717.753	80.010	19.994	103.846	20.146	1.432	0.500
1247.501	717.994	80.008	19.992	103.851	20.143	1.657	0.499
1248.001	718.269	80.007	19.993	103.853	20.143	1.668	0.507
1248.501	718.533	80.009	19.993	103.855	20.143	1.649	0.528
1249.001	718.766	80.009	19.993	103.856	20.142	1.753	0.518
1249.501	719.025	80.010	19.993	103.857	20.143	1.670	0.494
1250.001	719.290	80.010	19.994	103.855	20.146	1.430	0.508
1250.500	719.564	80.010	19.993	103.854	20.146	1.407	0.531
1251.001	719.823	80.009	19.992	103.851	20.143	1.634	0.536
1251.501	720.050	80.009	19.993	103.850	20.144	1.589	0.510
1252.000	720.329	80.009	19.992	103.849	20.144	1.581	0.496
1252.500	720.578	80.010	19.993	103.850	20.144	1.602	0.517
1253.000	720.832	80.009	19.993	103.849	20.142	1.712	0.516
1253.501	721.139	80.009	19.993	103.846	20.145	1.547	0.532
1254.001	721.343	80.009	19.993	103.844	20.147	1.379	0.536
1254.501	721.615	80.009	19.993	103.839	20.142	1.749	0.494
1255.001	721.888	80.010	19.993	103.834	20.143	1.649	0.510
1255.501	722.180	80.010	19.992	103.835	20.142	1.776	0.554
1256.000	722.412	80.011	19.992	103.839	20.143	1.681	0.544
1256.500	722.705	80.011	19.993	103.841	20.143	1.672	0.525
1257.000	722.924	80.010	19.993	103.843	20.142	1.738	0.518
1257.500	723.186	80.011	19.993	103.842	20.144	1.613	0.497
1258.000	723.457	80.011	19.992	103.837	20.144	1.600	0.507
1258.500	723.712	80.012	19.993	103.838	20.145	1.492	0.530
1259.000	723.960	80.011	19.993	103.840	20.143	1.708	0.514
1259.500	724.242	80.011	19.991	103.844	20.142	1.768	0.516
1260.000	724.522	80.010	19.993	103.849	20.147	1.326	0.546
1260.500	724.780	80.010	19.991	103.853	20.147	1.345	0.550
1261.000	725.021	80.011	19.992	103.854	20.145	1.513	0.518
1261.500	725.295	80.010	19.993	103.852	20.145	1.543	0.507
1262.000	725.505	80.010	19.991	103.851	20.141	1.844	0.500
1262.500	725.801	80.010	19.993	103.847	20.143	1.670	0.495
1263.000	726.077	80.010	19.993	103.844	20.144	1.619	0.539
1263.500	726.327	80.009	19.993	103.842	20.145	1.553	0.549
1264.001	726.627	80.011	19.992	103.841	20.145	1.545	0.538
1264.501	726.900	80.011	19.993	103.840	20.144	1.606	0.562
1265.000	727.164	80.010	19.992	103.843	20.143	1.664	0.555
1265.500	727.401	80.010	19.993	103.847	20.144	1.587	0.519
1266.000	727.675	80.010	19.992	103.843	20.145	1.487	0.506
1266.501	727.943	80.010	19.992	103.839	20.144	1.585	0.527
1267.001	728.192	80.010	19.992	103.839	20.143	1.672	0.530
1267.500	728.445	80.010	19.992	103.835	20.145	1.530	0.509
1268.001	728.792	80.010	19.994	103.833	20.143	1.708	0.551
1268.501	729.015	80.011	19.992	103.838	20.145	1.526	0.585
1269.001	729.274	80.009	19.993	103.844	20.145	1.515	0.526
1269.500	729.531	80.011	19.993	103.848	20.144	1.559	0.499
1270.000	729.831	80.010	19.992	103.853	20.142	1.761	0.537
1270.500	730.089	80.010	19.993	103.855	20.146	1.432	0.557
1271.000	730.328	80.009	19.992	103.856	20.146	1.432	0.527
1271.500	730.588	80.010	19.992	103.856	20.144	1.591	0.498
1272.000	730.872	80.010	19.992	103.857	20.145	1.549	0.521
1272.500	731.136	80.010	19.993	103.855	20.145	1.517	0.546
1273.000	731.416	80.011	19.993	103.855	20.143	1.640	0.546
1273.500	731.659	80.010	19.993	103.848	20.142	1.729	0.533
1274.001	731.931	80.011	19.993	103.840	20.143	1.655	0.519
1274.501	732.148	80.011	19.993	103.839	20.145	1.540	0.502
1275.000	732.433	80.012	19.993	103.837	20.143	1.638	0.496
1275.500	732.729	80.011	19.993	103.836	20.143	1.704	0.541
1276.000	732.977	80.011	19.993	103.839	20.143	1.640	0.562
1276.500	733.242	80.010	19.992	103.841	20.142	1.757	0.528
1277.000	733.543	80.009	19.993	103.836	20.141	1.800	0.539
1277.500	733.769	80.011	19.993	103.839	20.142	1.725	0.547
1278.000	734.038	80.010	19.994	103.839	20.142	1.730	0.511
1278.500	734.296	80.010	19.993	103.840	20.143	1.664	0.511
1279.000	734.566	80.011	19.993	103.844	20.143	1.664	0.527
1279.500	734.841	80.010	19.993	103.842	20.140	1.876	0.536
1280.000	735.070	80.011	19.993	103.837	20.142	1.719	0.525
1280.500	735.331	80.012	19.992	103.832	20.141	1.857	0.497
1281.001	735.616	80.011	19.994	103.826	20.143	1.702	0.518
1281.501	735.853	80.012	19.993	103.824	20.140	1.925	0.535
1282.000	736.102	80.012	19.994	103.824	20.143	1.691	0.504
1282.500	736.368	80.012	19.993	103.825	20.145	1.553	0.500
1283.000	736.640	80.011	19.994	103.825	20.142	1.740	0.526
1283.500	736.869	80.011	19.994	103.827	20.140	1.874	0.520
1284.000	737.169	80.010	19.994	103.825	20.140	1.908	0.515
1284.500	737.433	80.011	19.993	103.829	20.142	1.772	0.546
1285.000	737.690	80.011	19.992	103.833	20.142	1.783	0.542
1285.500	737.914	80.011	19.993	103.834	20.142	1.721	0.501
1286.000	738.161	80.011	19.993	103.836	20.143	1.689	0.476
1286.500	738.408	80.011	19.993	103.837	20.143	1.649	0.482
1287.000	738.666	80.011	19.993	103.834	20.142	1.721	0.499
1287.500	738.963	80.010	19.993	103.834	20.138	2.020	0.530
1288.000	739.180	80.011	19.994	103.838	20.141	1.861	0.535
1288.500	739.443	80.010	19.993	103.840	20.144	1.578	0.497
1289.000	739.681	80.011	19.993	103.846	20.140	1.901	0.490
1289.500	739.951	80.010	19.993	103.848	20.143	1.640	0.504
1290.000	740.230	80.011	19.993	103.843	20.143	1.704	0.529
1290.500	740.490	80.010	19.993	103.838	20.140	1.929	0.544
1291.000	740.769	80.010	19.993	103.832	20.142	1.740	0.539
1291.500	741.016	80.010	19.993	103.827	20.138	2.078	0.533
1292.000	741.278	80.010	19.994	103.826	20.139	1.957	0.518
1292.500	741.541	80.010	19.994	103.827	20.138	2.035	0.517
1293.000	741.766	80.008	19.994	103.827	20.140	1.865	0.506
1293.500	742.020	80.010	19.994	103.829	20.143	1.642	0.483
1294.000	742.284	80.007	19.993	103.828	20.139	1.993	0.498
1294.500	742.557	80.008	19.994	103.827	20.139	1.955	0.528
1295.000	742.791	80.010	19.995	103.829	20.140	1.887	0.522
1295.500	743.039	80.010	19.995	103.835	20.141	1.846	0.494
1296.000	743.294	80.008	19.994	103.839	20.140	1.929	0.492
1296.500	743.557	80.008	19.994	103.845	20.141	1.853	0.511
